time /s	I /nA	E /V
0.100	34.882	0.099
0.200	43.515	0.099
0.300	45.149	0.099
0.400	49.690	0.099
0.500	31.427	0.099
0.600	36.761	0.099
0.700	34.587	0.099
0.800	22.195	0.099
0.900	51.665	0.099
1.000	42.750	0.099
1.100	42.723	0.099
1.200	40.532	0.099
1.300	38.085	0.099
1.400	33.970	0.099
1.500	43.855	0.099
1.600	37.727	0.099
1.700	41.209	0.099
1.800	36.250	0.099
1.900	39.235	0.099
2.000	46.254	0.099
2.100	36.738	0.099
2.200	48.440	0.099
2.300	32.400	0.099
2.400	25.057	0.099
2.500	39.016	0.099
2.600	46.203	0.099
2.700	52.680	0.099
2.800	26.354	0.099
2.900	50.676	0.099
3.000	31.027	0.099
3.100	46.162	0.099
3.200	50.358	0.099
3.300	40.394	0.099
3.400	49.399	0.099
3.500	39.832	0.099
3.600	51.515	0.099
3.700	48.657	0.099
3.800	44.988	0.099
3.900	36.048	0.099
4.000	38.952	0.099
4.100	34.115	0.099
4.200	46.774	0.099
4.300	54.681	0.099
4.400	46.869	0.099
4.500	41.205	0.099
4.600	35.988	0.099
4.700	27.381	0.099
4.800	43.990	0.099
4.900	45.126	0.099
5.000	46.416	0.099
5.100	39.101	0.099
5.200	36.471	0.099
5.300	60.584	0.099
5.400	42.145	0.099
5.500	40.078	0.099
5.600	47.798	0.099
5.700	40.584	0.099
5.800	50.372	0.099
5.900	31.714	0.099
6.000	48.591	0.099
6.100	39.275	0.099
6.200	37.099	0.099
6.300	42.668	0.099
6.400	42.337	0.099
6.500	47.378	0.099
6.600	48.079	0.099
6.700	48.883	0.099
6.800	41.927	0.099
6.900	33.944	0.099
7.000	39.406	0.099
7.100	42.900	0.099
7.200	41.591	0.099
7.300	50.744	0.099
7.400	49.969	0.099
7.500	40.061	0.099
7.600	48.152	0.099
7.700	48.246	0.099
7.800	38.678	0.099
7.900	37.837	0.099
8.000	45.397	0.099
8.100	41.920	0.099
8.200	43.342	0.099
8.300	44.859	0.099
8.400	53.572	0.099
8.500	41.265	0.099
8.600	46.990	0.099
8.700	40.210	0.099
8.800	49.508	0.099
8.900	43.647	0.099
9.000	38.338	0.099
9.100	46.935	0.099
9.200	39.685	0.099
9.300	50.840	0.099
9.400	43.548	0.099
9.500	42.289	0.099
9.600	45.311	0.099
9.700	39.323	0.099
9.800	49.621	0.099
9.900	42.297	0.099
10.000	59.383	0.099
10.100	42.120	0.099
10.200	57.218	0.099
10.300	36.198	0.099
10.400	39.929	0.099
10.500	45.438	0.099
10.600	52.257	0.099
10.700	32.528	0.099
10.800	48.250	0.099
10.900	47.004	0.099
11.000	39.891	0.099
11.100	52.196	0.099
11.200	32.032	0.099
11.300	41.496	0.099
11.400	53.265	0.099
11.500	42.546	0.099
11.600	39.612	0.099
11.700	39.980	0.099
11.800	38.082	0.099
11.900	60.230	0.099
12.000	49.289	0.099
12.100	37.607	0.099
12.200	49.112	0.099
12.300	49.643	0.099
12.400	48.970	0.099
12.500	51.114	0.099
12.600	49.544	0.099
12.700	40.239	0.099
12.800	44.840	0.099
12.900	64.721	0.099
13.000	49.100	0.099
13.100	47.062	0.099
13.200	32.511	0.099
13.300	44.886	0.099
13.400	24.844	0.099
13.500	52.898	0.099
13.600	45.561	0.099
13.700	40.963	0.099
13.800	42.524	0.099
13.900	34.631	0.099
14.000	56.650	0.099
14.100	51.223	0.099
14.200	40.845	0.099
14.300	40.783	0.099
14.400	35.381	0.099
14.500	43.678	0.099
14.600	50.667	0.099
14.700	46.722	0.099
14.800	37.647	0.099
14.900	48.935	0.099
15.000	39.874	0.099
15.100	52.429	0.099
15.200	37.739	0.099
15.300	51.931	0.099
15.400	26.893	0.099
15.500	44.130	0.099
15.600	40.867	0.099
15.700	31.307	0.099
15.800	37.323	0.099
15.900	55.249	0.099
16.000	42.079	0.099
16.100	35.183	0.099
16.200	47.036	0.099
16.300	48.956	0.099
16.400	42.668	0.099
16.500	49.340	0.099
16.600	43.930	0.099
16.700	55.242	0.099
16.800	61.359	0.099
16.900	30.447	0.099
17.000	40.804	0.099
17.100	40.152	0.099
17.200	42.053	0.099
17.300	47.000	0.099
17.400	32.058	0.099
17.500	50.099	0.099
17.600	49.325	0.099
17.700	35.654	0.099
17.800	39.107	0.099
17.900	50.302	0.099
18.000	29.819	0.099
18.100	44.937	0.099
18.200	45.261	0.099
18.300	53.064	0.099
18.400	48.404	0.099
18.500	31.412	0.099
18.600	47.844	0.099
18.700	41.031	0.099
18.800	26.458	0.099
18.900	29.396	0.099
19.000	53.999	0.099
19.100	52.617	0.099
19.200	56.550	0.099
19.300	46.116	0.099
19.400	32.698	0.099
19.500	43.127	0.099
19.600	46.681	0.099
19.700	45.685	0.099
19.800	28.603	0.099
19.900	43.980	0.099
20.000	29.661	0.099
20.100	45.591	0.099
20.200	57.596	0.099
20.300	39.996	0.099
20.400	35.512	0.099
20.500	26.039	0.099
20.600	42.219	0.099
20.700	50.088	0.099
20.800	41.904	0.099
20.900	51.247	0.099
21.000	28.343	0.099
21.100	47.889	0.099
21.200	40.696	0.099
21.300	45.313	0.099
21.400	61.001	0.099
21.500	43.722	0.099
21.600	43.076	0.099
21.700	37.074	0.099
21.800	46.435	0.099
21.900	57.113	0.099
22.000	38.520	0.099
22.100	44.257	0.099
22.200	43.585	0.099
22.300	33.895	0.099
22.400	26.065	0.099
22.500	41.947	0.099
22.600	54.619	0.099
22.700	50.076	0.099
22.800	44.632	0.099
22.900	44.021	0.099
23.000	38.212	0.099
23.100	43.352	0.099
23.200	47.356	0.099
23.300	52.383	0.099
23.400	44.721	0.099
23.500	43.842	0.099
23.600	33.600	0.099
23.700	53.288	0.099
23.800	29.304	0.099
23.900	45.859	0.099
24.000	39.040	0.099
24.100	49.737	0.099
24.200	43.602	0.099
24.300	48.006	0.099
24.400	40.276	0.099
24.500	34.614	0.099
24.600	57.072	0.099
24.700	42.751	0.099
24.800	48.814	0.099
24.900	42.432	0.099
25.000	28.221	0.099
25.100	36.619	0.099
25.200	50.753	0.099
25.300	53.324	0.099
25.400	43.307	0.099
25.500	38.854	0.099
25.600	34.344	0.099
25.700	47.223	0.099
25.800	45.994	0.099
25.900	49.196	0.099
26.000	35.605	0.099
26.100	59.926	0.099
26.200	28.589	0.099
26.300	40.491	0.099
26.400	57.920	0.099
26.500	57.890	0.099
26.600	48.708	0.099
26.700	51.055	0.099
26.800	34.972	0.099
26.900	37.063	0.099
27.000	60.985	0.099
27.100	51.827	0.099
27.200	47.179	0.099
27.300	47.034	0.099
27.400	43.827	0.099
27.500	40.775	0.099
27.600	38.515	0.099
27.700	40.859	0.099
27.800	45.721	0.099
27.900	50.613	0.099
28.000	44.854	0.099
28.100	52.188	0.099
28.200	32.092	0.099
28.300	44.494	0.099
28.400	57.781	0.099
28.500	40.598	0.099
28.600	45.516	0.099
28.700	46.385	0.099
28.800	34.097	0.099
28.900	49.805	0.099
29.000	45.165	0.099
29.100	47.311	0.099
29.200	52.002	0.099
29.300	48.853	0.099
29.400	48.711	0.099
29.500	46.748	0.099
29.600	48.090	0.099
29.700	38.592	0.099
29.800	43.409	0.099
29.900	52.673	0.099
30.000	36.051	0.099
30.100	43.035	0.099
30.200	44.991	0.099
30.300	43.462	0.099
30.400	50.089	0.099
30.500	42.913	0.099
30.600	51.231	0.099
30.700	42.201	0.099
30.800	51.277	0.099
30.900	32.225	0.099
31.000	44.838	0.099
31.100	33.430	0.099
31.200	55.802	0.099
31.300	39.452	0.099
31.400	47.153	0.099
31.500	52.726	0.099
31.600	40.462	0.099
31.700	38.666	0.099
31.800	43.794	0.099
31.900	40.999	0.099
32.000	47.547	0.099
32.100	39.029	0.099
32.200	35.066	0.099
32.300	33.729	0.099
32.400	54.077	0.099
32.500	39.740	0.099
32.600	46.735	0.099
32.700	43.771	0.099
32.800	43.817	0.099
32.900	59.759	0.099
33.000	36.935	0.099
33.100	49.368	0.099
33.200	35.601	0.099
33.300	33.518	0.099
33.400	30.959	0.099
33.500	38.386	0.099
33.600	55.821	0.099
33.700	40.819	0.099
33.800	44.547	0.099
33.900	44.124	0.099
34.000	33.151	0.099
34.100	41.498	0.099
34.200	57.616	0.099
34.300	33.397	0.099
34.400	43.547	0.099
34.500	27.930	0.099
34.600	51.884	0.099
34.700	60.386	0.099
34.800	33.314	0.099
34.900	46.004	0.099
35.000	38.639	0.099
35.100	51.393	0.099
35.200	49.529	0.099
35.300	51.922	0.099
35.400	25.342	0.099
35.500	40.533	0.099
35.600	57.306	0.099
35.700	55.656	0.099
35.800	21.218	0.099
35.900	48.931	0.099
36.000	46.996	0.099
36.100	43.362	0.099
36.200	50.008	0.099
36.300	54.668	0.099
36.400	35.247	0.099
36.500	50.878	0.099
36.600	40.109	0.099
36.700	41.691	0.099
36.800	49.688	0.099
36.900	46.212	0.099
37.000	41.205	0.099
37.100	45.309	0.099
37.200	52.252	0.099
37.300	41.624	0.099
37.400	60.280	0.099
37.500	52.133	0.099
37.600	46.933	0.099
37.700	38.008	0.099
37.800	46.868	0.099
37.900	40.009	0.099
38.000	43.771	0.099
38.100	40.707	0.099
38.200	54.948	0.099
38.300	61.073	0.099
38.400	53.439	0.099
38.500	33.535	0.099
38.600	35.293	0.099
38.700	54.336	0.099
38.800	52.233	0.099
38.900	46.356	0.099
39.000	36.061	0.099
39.100	46.531	0.099
39.200	39.815	0.099
39.300	49.857	0.099
39.400	46.365	0.099
39.500	45.438	0.099
39.600	35.333	0.099
39.700	40.955	0.099
39.800	44.141	0.099
39.900	24.792	0.099
40.000	43.890	0.099
40.100	38.350	0.099
40.200	50.533	0.099
40.300	53.553	0.099
40.400	41.232	0.099
40.500	56.165	0.099
40.600	51.112	0.099
40.700	42.634	0.099
40.800	34.349	0.099
40.900	55.500	0.099
41.000	48.482	0.099
41.100	40.330	0.099
41.200	51.049	0.099
41.300	41.827	0.099
41.400	41.970	0.099
41.500	45.277	0.099
41.600	36.709	0.099
41.700	46.672	0.099
41.800	39.014	0.099
41.900	52.688	0.099
42.000	35.123	0.099
42.100	41.342	0.099
42.200	60.485	0.099
42.300	42.647	0.099
42.400	54.219	0.099
42.500	36.476	0.099
42.600	43.847	0.099
42.700	47.756	0.099
42.800	43.713	0.099
42.900	42.900	0.099
43.000	42.762	0.099
43.100	50.977	0.099
43.200	49.499	0.099
43.300	36.312	0.099
43.400	47.150	0.099
43.500	45.438	0.099
43.600	36.251	0.099
43.700	43.551	0.099
43.800	33.176	0.099
43.900	61.809	0.099
44.000	51.978	0.099
44.100	38.937	0.099
44.200	45.155	0.099
44.300	48.201	0.099
44.400	45.975	0.099
44.500	58.405	0.099
44.600	42.227	0.099
44.700	56.261	0.099
44.800	61.568	0.099
44.900	55.358	0.099
45.000	44.894	0.099
45.100	41.417	0.099
45.200	45.098	0.099
45.300	47.323	0.099
45.400	39.295	0.099
45.500	41.641	0.099
45.600	53.733	0.099
45.700	38.087	0.099
45.800	56.490	0.099
45.900	45.284	0.099
46.000	38.431	0.099
46.100	39.313	0.099
46.200	55.959	0.099
46.300	51.474	0.099
46.400	50.561	0.099
46.500	53.218	0.099
46.600	48.878	0.099
46.700	50.959	0.099
46.800	42.058	0.099
46.900	47.519	0.099
47.000	51.712	0.099
47.100	40.130	0.099
47.200	48.059	0.099
47.300	31.449	0.099
47.400	50.181	0.099
47.500	59.112	0.099
47.600	38.916	0.099
47.700	57.072	0.099
47.800	55.764	0.099
47.900	51.307	0.099
48.000	40.434	0.099
48.100	55.339	0.099
48.200	40.077	0.099
48.300	56.527	0.099
48.400	59.429	0.099
48.500	45.752	0.099
48.600	54.780	0.099
48.700	21.739	0.099
48.800	34.049	0.099
48.900	43.783	0.099
49.000	48.495	0.099
49.100	55.332	0.099
49.200	57.114	0.099
49.300	41.231	0.099
49.400	41.897	0.099
49.500	67.000	0.099
49.600	45.108	0.099
49.700	45.101	0.099
49.800	30.779	0.099
49.900	45.484	0.099
50.000	53.521	0.099
50.100	52.990	0.099
50.200	45.233	0.099
50.300	45.903	0.099
50.400	30.835	0.099
50.500	50.975	0.099
50.600	40.116	0.099
50.700	44.801	0.099
50.800	43.851	0.099
50.900	39.864	0.099
51.000	48.579	0.099
51.100	46.629	0.099
51.200	40.713	0.099
51.300	64.405	0.099
51.400	38.445	0.099
51.500	35.005	0.099
51.600	41.652	0.099
51.700	43.531	0.099
51.800	42.423	0.099
51.900	33.854	0.099
52.000	50.465	0.099
52.100	45.739	0.099
52.200	50.659	0.099
52.300	45.720	0.099
52.400	36.611	0.099
52.500	51.196	0.099
52.600	65.720	0.099
52.700	46.074	0.099
52.800	44.365	0.099
52.900	40.240	0.099
53.000	42.481	0.099
53.100	40.247	0.099
53.200	51.200	0.099
53.300	39.926	0.099
53.400	52.142	0.099
53.500	53.221	0.099
53.600	43.324	0.099
53.700	57.374	0.099
53.800	32.515	0.099
53.900	54.223	0.099
54.000	45.833	0.099
54.100	57.845	0.099
54.200	39.989	0.099
54.300	34.886	0.099
54.400	43.086	0.099
54.500	43.327	0.099
54.600	38.930	0.099
54.700	43.028	0.099
54.800	44.238	0.099
54.900	53.062	0.099
55.000	43.468	0.099
55.100	51.007	0.099
55.200	50.212	0.099
55.300	50.179	0.099
55.400	37.779	0.099
55.500	43.358	0.099
55.600	58.785	0.099
55.700	41.562	0.099
55.800	42.430	0.099
55.900	37.026	0.099
56.000	60.097	0.099
56.100	45.689	0.099
56.200	40.793	0.099
56.300	42.339	0.099
56.400	41.429	0.099
56.500	24.320	0.099
56.600	40.925	0.099
56.700	35.954	0.099
56.800	58.206	0.099
56.900	55.060	0.099
57.000	44.714	0.099
57.100	58.269	0.099
57.200	39.238	0.099
57.300	44.235	0.099
57.400	40.412	0.099
57.500	51.724	0.099
57.600	46.074	0.099
57.700	47.255	0.099
57.800	41.791	0.099
57.900	36.409	0.099
58.000	37.550	0.099
58.100	46.215	0.099
58.200	29.185	0.099
58.300	41.713	0.099
58.400	46.036	0.099
58.500	42.277	0.099
58.600	40.935	0.099
58.700	45.046	0.099
58.800	46.333	0.099
58.900	49.724	0.099
59.000	40.125	0.099
59.100	35.088	0.099
59.200	61.326	0.099
59.300	51.370	0.099
59.400	54.757	0.099
59.500	55.071	0.099
59.600	41.248	0.099
59.700	36.930	0.099
59.800	31.993	0.099
59.900	41.899	0.099
60.000	50.035	0.099
60.100	55.544	0.099
60.200	49.268	0.099
60.300	42.182	0.099
60.400	55.331	0.099
60.500	52.004	0.099
60.600	50.096	0.099
60.700	40.370	0.099
60.800	51.506	0.099
60.900	55.679	0.099
61.000	33.325	0.099
61.100	43.981	0.099
61.200	43.403	0.099
61.300	42.406	0.099
61.400	42.789	0.099
61.500	39.501	0.099
61.600	40.820	0.099
61.700	47.757	0.099
61.800	50.205	0.099
61.900	45.607	0.099
62.000	44.456	0.099
62.100	33.064	0.099
62.200	38.239	0.099
62.300	60.647	0.099
62.400	33.992	0.099
62.500	43.953	0.099
62.600	41.207	0.099
62.700	42.251	0.099
62.800	55.954	0.099
62.900	35.895	0.099
63.000	32.481	0.099
63.100	57.276	0.099
63.200	43.481	0.099
63.300	42.710	0.099
63.400	50.488	0.099
63.500	38.466	0.099
63.600	37.591	0.099
63.700	53.828	0.099
63.800	42.467	0.099
63.900	44.106	0.099
64.000	44.324	0.099
64.100	44.195	0.099
64.200	39.495	0.099
64.300	48.358	0.099
64.400	28.837	0.099
64.500	52.015	0.099
64.600	20.301	0.099
64.700	48.838	0.099
64.800	58.432	0.099
64.900	35.438	0.099
65.000	50.295	0.099
65.100	37.643	0.099
65.200	52.778	0.099
65.300	34.490	0.099
65.400	47.169	0.099
65.500	41.374	0.099
65.600	54.737	0.099
65.700	38.627	0.099
65.800	50.782	0.099
65.900	38.483	0.099
66.000	41.922	0.099
66.100	36.058	0.099
66.200	62.077	0.099
66.300	50.855	0.099
66.400	45.574	0.099
66.500	36.113	0.099
66.600	43.110	0.099
66.700	44.622	0.099
66.800	51.098	0.099
66.900	52.103	0.099
67.000	44.986	0.099
67.100	31.027	0.099
67.200	43.972	0.099
67.300	50.636	0.099
67.400	48.033	0.099
67.500	49.795	0.099
67.600	39.542	0.099
67.700	42.760	0.099
67.800	40.884	0.099
67.900	31.424	0.099
68.000	57.087	0.099
68.100	48.484	0.099
68.200	44.889	0.099
68.300	34.360	0.099
68.400	37.568	0.099
68.500	62.869	0.099
68.600	53.141	0.099
68.700	30.188	0.099
68.800	36.381	0.099
68.900	36.518	0.099
69.000	41.936	0.099
69.100	44.280	0.099
69.200	33.337	0.099
69.300	50.273	0.099
69.400	55.162	0.099
69.500	44.748	0.099
69.600	43.223	0.099
69.700	56.194	0.099
69.800	36.867	0.099
69.900	44.058	0.099
70.000	46.878	0.099
70.100	36.094	0.099
70.200	33.359	0.099
70.300	43.924	0.099
70.400	49.671	0.099
70.500	52.742	0.099
70.600	59.072	0.099
70.700	37.847	0.099
70.800	41.234	0.099
70.900	49.949	0.099
71.000	31.877	0.099
71.100	44.994	0.099
71.200	46.715	0.099
71.300	44.065	0.099
71.400	47.534	0.099
71.500	40.638	0.099
71.600	51.467	0.099
71.700	34.837	0.099
71.800	37.671	0.099
71.900	48.635	0.099
72.000	39.573	0.099
72.100	43.078	0.099
72.200	37.995	0.099
72.300	42.522	0.099
72.400	45.009	0.099
72.500	34.825	0.099
72.600	40.047	0.099
72.700	43.039	0.099
72.800	47.570	0.099
72.900	38.880	0.099
73.000	27.130	0.099
73.100	50.721	0.099
73.200	37.512	0.099
73.300	42.059	0.099
73.400	42.153	0.099
73.500	41.725	0.099
73.600	42.032	0.099
73.700	39.084	0.099
73.800	47.879	0.099
73.900	40.544	0.099
74.000	30.637	0.099
74.100	39.532	0.099
74.200	51.148	0.099
74.300	45.961	0.099
74.400	41.760	0.099
74.500	38.258	0.099
74.600	53.089	0.099
74.700	33.125	0.099
74.800	39.986	0.099
74.900	45.869	0.099
75.000	43.331	0.099
75.100	53.930	0.099
75.200	40.687	0.099
75.300	39.639	0.099
75.400	37.685	0.099
75.500	45.644	0.099
75.600	47.285	0.099
75.700	34.132	0.099
75.800	38.666	0.099
75.900	39.787	0.099
76.000	40.584	0.099
76.100	33.751	0.099
76.200	33.017	0.099
76.300	46.646	0.099
76.400	45.019	0.099
76.500	49.971	0.099
76.600	48.174	0.099
76.700	30.385	0.099
76.800	42.734	0.099
76.900	49.362	0.099
77.000	37.009	0.099
77.100	39.099	0.099
77.200	50.513	0.099
77.300	45.660	0.099
77.400	42.841	0.099
77.500	36.647	0.099
77.600	35.357	0.099
77.700	52.339	0.099
77.800	33.834	0.099
77.900	39.022	0.099
78.000	53.678	0.099
78.100	49.648	0.099
78.200	34.720	0.099
78.300	45.260	0.099
78.400	56.187	0.099
78.500	38.845	0.099
78.600	40.492	0.099
78.700	50.959	0.099
78.800	54.319	0.099
78.900	36.236	0.099
79.000	34.868	0.099
79.100	37.560	0.099
79.200	33.103	0.099
79.300	45.455	0.099
79.400	48.360	0.099
79.500	30.015	0.099
79.600	33.689	0.099
79.700	48.572	0.099
79.800	52.580	0.099
79.900	51.309	0.099
80.000	48.320	0.099
80.100	39.418	0.099
80.200	35.985	0.099
80.300	33.192	0.099
80.400	33.533	0.099
80.500	35.636	0.099
80.600	40.878	0.099
80.700	35.729	0.099
80.800	44.396	0.099
80.900	38.055	0.099
81.000	42.817	0.099
81.100	44.041	0.099
81.200	42.419	0.099
81.300	34.461	0.099
81.400	51.860	0.099
81.500	32.397	0.099
81.600	34.195	0.099
81.700	48.216	0.099
81.800	36.438	0.099
81.900	39.974	0.099
82.000	52.843	0.099
82.100	49.920	0.099
82.200	35.113	0.099
82.300	40.144	0.099
82.400	51.638	0.099
82.500	40.021	0.099
82.600	37.735	0.099
82.700	46.860	0.099
82.800	39.769	0.099
82.900	42.467	0.099
83.000	45.859	0.099
83.100	46.415	0.099
83.200	37.279	0.099
83.300	46.804	0.099
83.400	36.471	0.099
83.500	43.523	0.099
83.600	42.318	0.099
83.700	40.872	0.099
83.800	44.855	0.099
83.900	45.152	0.099
84.000	29.748	0.099
84.100	34.703	0.099
84.200	57.856	0.099
84.300	34.862	0.099
84.400	39.127	0.099
84.500	44.999	0.099
84.600	42.539	0.099
84.700	42.925	0.099
84.800	47.504	0.099
84.900	31.316	0.099
85.000	31.382	0.099
85.100	28.586	0.099
85.200	48.409	0.099
85.300	41.946	0.099
85.400	42.462	0.099
85.500	39.055	0.099
85.600	46.301	0.099
85.700	42.973	0.099
85.800	54.730	0.099
85.900	39.219	0.099
86.000	48.323	0.099
86.100	33.429	0.099
86.200	38.380	0.099
86.300	35.225	0.099
86.400	39.269	0.099
86.500	35.073	0.099
86.600	36.801	0.099
86.700	49.368	0.099
86.800	38.431	0.099
86.900	42.842	0.099
87.000	43.783	0.099
87.100	51.247	0.099
87.200	48.760	0.099
87.300	37.940	0.099
87.400	45.540	0.099
87.500	32.512	0.099
87.600	36.963	0.099
87.700	33.328	0.099
87.800	31.093	0.099
87.900	40.715	0.099
88.000	50.976	0.099
88.100	37.272	0.099
88.200	43.579	0.099
88.300	26.349	0.099
88.400	42.747	0.099
88.500	48.619	0.099
88.600	35.525	0.099
88.700	38.900	0.099
88.800	44.102	0.099
88.900	41.977	0.099
89.000	38.005	0.099
89.100	53.488	0.099
89.200	29.332	0.099
89.300	56.593	0.099
89.400	53.895	0.099
89.500	42.953	0.099
89.600	43.457	0.099
89.700	37.454	0.099
89.800	47.112	0.099
89.900	45.214	0.099
90.000	42.098	0.099
90.100	35.398	0.099
90.200	48.435	0.099
90.300	39.661	0.099
90.400	29.160	0.099
90.500	44.038	0.099
90.600	40.306	0.099
90.700	39.997	0.099
90.800	34.053	0.099
90.900	41.370	0.099
91.000	20.736	0.099
91.100	44.896	0.099
91.200	48.769	0.099
91.300	41.149	0.099
91.400	43.822	0.099
91.500	37.035	0.099
91.600	37.823	0.099
91.700	44.468	0.099
91.800	33.494	0.099
91.900	32.564	0.099
92.000	45.135	0.099
92.100	42.944	0.099
92.200	43.233	0.099
92.300	27.438	0.099
92.400	48.266	0.099
92.500	33.341	0.099
92.600	46.276	0.099
92.700	38.003	0.099
92.800	43.020	0.099
92.900	36.344	0.099
93.000	44.265	0.099
93.100	41.610	0.099
93.200	44.542	0.099
93.300	41.131	0.099
93.400	38.058	0.099
93.500	38.044	0.099
93.600	44.559	0.099
93.700	37.075	0.099
93.800	39.390	0.099
93.900	33.769	0.099
94.000	46.095	0.099
94.100	46.194	0.099
94.200	32.126	0.099
94.300	47.323	0.099
94.400	35.830	0.099
94.500	30.614	0.099
94.600	44.644	0.099
94.700	52.364	0.099
94.800	51.080	0.099
94.900	38.537	0.099
95.000	28.714	0.099
95.100	26.835	0.099
95.200	38.875	0.099
95.300	37.009	0.099
95.400	50.402	0.099
95.500	32.582	0.099
95.600	41.949	0.099
95.700	39.603	0.099
95.800	40.531	0.099
95.900	45.152	0.099
96.000	40.630	0.099
96.100	39.254	0.099
96.200	39.323	0.099
96.300	36.066	0.099
96.400	49.794	0.099
96.500	36.428	0.099
96.600	34.203	0.099
96.700	51.913	0.099
96.800	53.055	0.099
96.900	36.821	0.099
97.000	33.759	0.099
97.100	48.208	0.099
97.200	50.223	0.099
97.300	36.180	0.099
97.400	47.366	0.099
97.500	43.303	0.099
97.600	39.138	0.099
97.700	29.982	0.099
97.800	46.107	0.099
97.900	46.298	0.099
98.000	50.210	0.099
98.100	32.386	0.099
98.200	41.130	0.099
98.300	29.174	0.099
98.400	44.526	0.099
98.500	43.622	0.099
98.600	42.070	0.099
98.700	33.083	0.099
98.800	36.398	0.099
98.900	49.357	0.099
99.000	28.275	0.099
99.100	44.498	0.099
99.200	39.859	0.099
99.300	36.225	0.099
99.400	53.932	0.099
99.500	34.116	0.099
99.600	37.230	0.099
99.700	29.122	0.099
99.800	50.713	0.099
99.900	30.223	0.099
100.000	42.444	0.099
100.100	38.074	0.099
100.200	41.742	0.099
100.300	28.787	0.099
100.400	45.635	0.099
100.500	40.039	0.099
100.600	48.422	0.099
100.700	41.223	0.099
100.800	33.919	0.099
100.900	47.169	0.099
101.000	30.386	0.099
101.100	44.328	0.099
101.200	37.369	0.099
101.300	35.231	0.099
101.400	49.002	0.099
101.500	34.552	0.099
101.600	21.056	0.099
101.700	55.176	0.099
101.800	41.299	0.099
101.900	29.710	0.099
102.000	38.899	0.099
102.100	36.695	0.099
102.200	31.054	0.099
102.300	54.476	0.099
102.400	37.646	0.099
102.500	35.577	0.099
102.600	42.066	0.099
102.700	29.561	0.099
102.800	18.063	0.099
102.900	51.004	0.099
103.000	36.983	0.099
103.100	47.132	0.099
103.200	29.959	0.099
103.300	48.245	0.099
103.400	34.311	0.099
103.500	40.542	0.099
103.600	28.594	0.099
103.700	47.999	0.099
103.800	41.898	0.099
103.900	40.391	0.099
104.000	50.054	0.099
104.100	34.549	0.099
104.200	48.904	0.099
104.300	37.731	0.099
104.400	26.000	0.099
104.500	42.182	0.099
104.600	42.244	0.099
104.700	43.706	0.099
104.800	27.398	0.099
104.900	38.369	0.099
105.000	43.504	0.099
105.100	32.040	0.099
105.200	38.813	0.099
105.300	43.591	0.099
105.400	41.714	0.099
105.500	37.479	0.099
105.600	32.877	0.099
105.700	40.283	0.099
105.800	35.663	0.099
105.900	37.506	0.099
106.000	36.922	0.099
106.100	39.162	0.099
106.200	39.456	0.099
106.300	32.466	0.099
106.400	29.164	0.099
106.500	23.950	0.099
106.600	40.455	0.099
106.700	32.336	0.099
106.800	45.208	0.099
106.900	41.560	0.099
107.000	39.208	0.099
107.100	34.321	0.099
107.200	43.367	0.099
107.300	44.530	0.099
107.400	40.044	0.099
107.500	35.639	0.099
107.600	42.014	0.099
107.700	30.154	0.099
107.800	34.979	0.099
107.900	20.998	0.099
108.000	39.978	0.099
108.100	45.949	0.099
108.200	42.419	0.099
108.300	33.282	0.099
108.400	48.338	0.099
108.500	43.403	0.099
108.600	34.506	0.099
108.700	37.294	0.099
108.800	36.584	0.099
108.900	17.362	0.099
109.000	25.478	0.099
109.100	39.352	0.099
109.200	35.376	0.099
109.300	45.575	0.099
109.400	38.788	0.099
109.500	33.618	0.099
109.600	50.886	0.099
109.700	30.464	0.099
109.800	51.560	0.099
109.900	54.986	0.099
110.000	24.463	0.099
110.100	47.924	0.099
110.200	38.740	0.099
110.300	36.654	0.099
110.400	32.677	0.099
110.500	36.845	0.099
110.600	30.102	0.099
110.700	36.778	0.099
110.800	19.968	0.099
110.900	40.962	0.099
111.000	35.897	0.099
111.100	39.990	0.099
111.200	43.152	0.099
111.300	47.847	0.099
111.400	40.628	0.099
111.500	36.054	0.099
111.600	56.525	0.099
111.700	49.289	0.099
111.800	38.043	0.099
111.900	24.268	0.099
112.000	49.357	0.099
112.100	38.082	0.099
112.200	43.746	0.099
112.300	36.002	0.099
112.400	35.133	0.099
112.500	38.684	0.099
112.600	38.570	0.099
112.700	38.365	0.099
112.800	45.067	0.099
112.900	49.550	0.099
113.000	44.415	0.099
113.100	35.837	0.099
113.200	41.261	0.099
113.300	39.833	0.099
113.400	21.062	0.099
113.500	42.247	0.099
113.600	31.467	0.099
113.700	29.082	0.099
113.800	42.429	0.099
113.900	43.720	0.099
114.000	22.763	0.099
114.100	33.974	0.099
114.200	44.652	0.099
114.300	46.042	0.099
114.400	30.623	0.099
114.500	23.647	0.099
114.600	56.903	0.099
114.700	41.339	0.099
114.800	22.116	0.099
114.900	32.828	0.099
115.000	50.615	0.099
115.100	32.091	0.099
115.200	25.052	0.099
115.300	40.924	0.099
115.400	38.435	0.099
115.500	31.084	0.099
115.600	40.436	0.099
115.700	32.559	0.099
115.800	45.341	0.099
115.900	42.414	0.099
116.000	36.947	0.099
116.100	19.666	0.099
116.200	37.455	0.099
116.300	33.213	0.099
116.400	23.858	0.099
116.500	46.174	0.099
116.600	36.323	0.099
116.700	46.508	0.099
116.800	45.444	0.099
116.900	37.131	0.099
117.000	40.346	0.099
117.100	36.655	0.099
117.200	32.844	0.099
117.300	39.230	0.099
117.400	33.876	0.099
117.500	40.166	0.099
117.600	43.585	0.099
117.700	38.276	0.099
117.800	40.493	0.099
117.900	30.644	0.099
118.000	35.054	0.099
118.100	22.908	0.099
118.200	49.212	0.099
118.300	47.052	0.099
118.400	30.743	0.099
118.500	41.554	0.099
118.600	41.108	0.099
118.700	34.137	0.099
118.800	48.547	0.099
118.900	36.537	0.099
119.000	38.321	0.099
119.100	30.405	0.099
119.200	29.641	0.099
119.300	31.353	0.099
119.400	47.049	0.099
119.500	43.561	0.099
119.600	34.135	0.099
119.700	41.379	0.099
119.800	30.990	0.099
119.900	27.624	0.099
120.000	32.528	0.099
120.100	41.219	0.099
120.200	36.371	0.099
120.300	38.436	0.099
120.400	35.933	0.099
120.500	44.607	0.099
120.600	33.559	0.099
120.700	23.774	0.099
120.800	55.262	0.099
120.900	33.813	0.099
121.000	33.691	0.099
121.100	49.637	0.099
121.200	34.121	0.099
121.300	39.835	0.099
121.400	43.964	0.099
121.500	37.292	0.099
121.600	47.834	0.099
121.700	35.498	0.099
121.800	35.021	0.099
121.900	41.035	0.099
122.000	36.522	0.099
122.100	47.138	0.099
122.200	25.681	0.099
122.300	31.488	0.099
122.400	32.536	0.099
122.500	51.168	0.099
122.600	36.923	0.099
122.700	49.511	0.099
122.800	37.187	0.099
122.900	41.668	0.099
123.000	34.658	0.099
123.100	33.985	0.099
123.200	33.789	0.099
123.300	36.564	0.099
123.400	42.254	0.099
123.500	29.528	0.099
123.600	34.780	0.099
123.700	29.592	0.099
123.800	41.743	0.099
123.900	30.537	0.099
124.000	42.902	0.099
124.100	48.407	0.099
124.200	30.615	0.099
124.300	45.303	0.099
124.400	37.539	0.099
124.500	28.025	0.099
124.600	27.637	0.099
124.700	28.451	0.099
124.800	37.320	0.099
124.900	32.917	0.099
125.000	42.092	0.099
125.100	33.431	0.099
125.200	32.381	0.099
125.300	39.990	0.099
125.400	37.289	0.099
125.500	38.436	0.099
125.600	44.885	0.099
125.700	36.757	0.099
125.800	40.493	0.099
125.900	47.685	0.099
126.000	29.494	0.099
126.100	40.454	0.099
126.200	39.631	0.099
126.300	36.788	0.099
126.400	36.898	0.099
126.500	31.163	0.099
126.600	35.122	0.099
126.700	32.792	0.099
126.800	32.018	0.099
126.900	32.511	0.099
127.000	39.284	0.099
127.100	35.295	0.099
127.200	38.410	0.099
127.300	40.974	0.099
127.400	44.662	0.099
127.500	26.341	0.099
127.600	36.990	0.099
127.700	32.320	0.099
127.800	26.599	0.099
127.900	37.891	0.099
128.000	50.977	0.099
128.100	42.986	0.099
128.200	36.483	0.099
128.300	27.590	0.099
128.400	38.412	0.099
128.500	38.843	0.099
128.600	40.307	0.099
128.700	25.092	0.099
128.800	38.698	0.099
128.900	32.174	0.099
129.000	48.233	0.099
129.100	35.039	0.099
129.200	26.833	0.099
129.300	61.677	0.099
129.400	34.272	0.099
129.500	37.933	0.099
129.600	35.260	0.099
129.700	22.771	0.099
129.800	39.009	0.099
129.900	39.880	0.099
130.000	25.913	0.099
130.100	45.090	0.099
130.200	36.852	0.099
130.300	26.358	0.099
130.400	44.068	0.099
130.500	41.328	0.099
130.600	40.825	0.099
130.700	36.841	0.099
130.800	47.121	0.099
130.900	32.765	0.099
131.000	40.864	0.099
131.100	40.334	0.099
131.200	40.885	0.099
131.300	38.730	0.099
131.400	27.343	0.099
131.500	46.551	0.099
131.600	37.494	0.099
131.700	32.302	0.099
131.800	39.226	0.099
131.900	46.844	0.099
132.000	47.168	0.099
132.100	32.573	0.099
132.200	38.874	0.099
132.300	41.287	0.099
132.400	42.436	0.099
132.500	38.168	0.099
132.600	27.718	0.099
132.700	37.494	0.099
132.800	43.799	0.099
132.900	39.850	0.099
133.000	25.886	0.099
133.100	48.860	0.099
133.200	29.827	0.099
133.300	36.928	0.099
133.400	36.924	0.099
133.500	33.453	0.099
133.600	31.913	0.099
133.700	15.093	0.099
133.800	42.344	0.099
133.900	40.000	0.099
134.000	26.555	0.099
134.100	36.796	0.099
134.200	30.594	0.099
134.300	40.368	0.099
134.400	52.355	0.099
134.500	35.653	0.099
134.600	26.738	0.099
134.700	35.363	0.099
134.800	24.261	0.099
134.900	30.025	0.099
135.000	37.881	0.099
135.100	43.124	0.099
135.200	40.461	0.099
135.300	36.384	0.099
135.400	29.240	0.099
135.500	38.609	0.099
135.600	40.117	0.099
135.700	30.307	0.099
135.800	40.834	0.099
135.900	33.993	0.099
136.000	52.587	0.099
136.100	30.033	0.099
136.200	30.649	0.099
136.300	34.616	0.099
136.400	52.059	0.099
136.500	45.822	0.099
136.600	33.850	0.099
136.700	14.627	0.099
136.800	30.547	0.099
136.900	33.050	0.099
137.000	47.066	0.099
137.100	33.130	0.099
137.200	31.436	0.099
137.300	19.573	0.099
137.400	52.269	0.099
137.500	36.938	0.099
137.600	44.452	0.099
137.700	38.589	0.099
137.800	28.243	0.099
137.900	30.475	0.100
138.000	38.932	0.099
138.100	38.513	0.099
138.200	42.239	0.099
138.300	39.970	0.100
138.400	30.822	0.099
138.500	39.335	0.100
138.600	37.412	0.100
138.700	21.784	0.100
138.800	28.164	0.100
138.900	55.314	0.100
139.000	46.118	0.100
139.100	45.587	0.100
139.200	38.233	0.100
139.300	16.808	0.100
139.400	39.065	0.100
139.500	39.616	0.100
139.600	30.396	0.100
139.700	29.266	0.100
139.800	42.627	0.100
139.900	17.312	0.100
140.000	24.552	0.100
140.100	45.169	0.100
140.200	43.096	0.100
140.300	40.081	0.100
140.400	34.148	0.100
140.500	46.648	0.100
140.600	48.218	0.100
140.700	28.897	0.100
140.800	48.125	0.100
140.900	46.238	0.100
141.000	37.206	0.100
141.100	36.289	0.100
141.200	39.334	0.100
141.300	43.029	0.100
141.400	31.860	0.100
141.500	33.960	0.100
141.600	27.389	0.100
141.700	39.796	0.100
141.800	22.624	0.100
141.900	25.590	0.100
142.000	26.415	0.100
142.100	37.798	0.100
142.200	35.814	0.100
142.300	35.500	0.100
142.400	34.838	0.100
142.500	35.036	0.100
142.600	47.729	0.100
142.700	37.235	0.100
142.800	40.456	0.100
142.900	46.362	0.100
143.000	34.633	0.100
143.100	43.915	0.100
143.200	38.087	0.100
143.300	36.434	0.100
143.400	35.113	0.100
143.500	31.455	0.100
143.600	43.560	0.100
143.700	46.429	0.100
143.800	28.463	0.100
143.900	37.280	0.100
144.000	47.435	0.100
144.100	30.888	0.100
144.200	41.264	0.100
144.300	29.973	0.100
144.400	38.646	0.100
144.500	49.503	0.100
144.600	42.521	0.100
144.700	39.550	0.100
144.800	32.310	0.100
144.900	25.409	0.100
145.000	43.754	0.100
145.100	39.059	0.100
145.200	28.912	0.100
145.300	31.996	0.100
145.400	36.724	0.100
145.500	37.641	0.100
145.600	28.376	0.100
145.700	33.506	0.100
145.800	15.858	0.100
145.900	36.358	0.100
146.000	53.589	0.100
146.100	35.888	0.100
146.200	46.885	0.100
146.300	43.798	0.100
146.400	42.608	0.100
146.500	42.302	0.100
146.600	51.936	0.100
146.700	34.650	0.100
146.800	35.096	0.100
146.900	37.122	0.100
147.000	32.235	0.100
147.100	29.027	0.100
147.200	46.204	0.100
147.300	38.030	0.100
147.400	18.561	0.100
147.500	36.270	0.100
147.600	36.564	0.100
147.700	42.522	0.100
147.800	41.673	0.100
147.900	43.896	0.100
148.000	42.982	0.100
148.100	35.850	0.100
148.200	48.641	0.100
148.300	32.411	0.100
148.400	51.021	0.100
148.500	25.276	0.100
148.600	31.991	0.100
148.700	27.307	0.100
148.800	43.742	0.100
148.900	41.971	0.100
149.000	44.013	0.100
149.100	50.724	0.100
149.200	22.610	0.100
149.300	40.017	0.100
149.400	36.993	0.100
149.500	42.362	0.100
149.600	40.077	0.100
149.700	43.607	0.100
149.800	42.460	0.100
149.900	36.737	0.100
150.000	34.914	0.100
150.100	27.803	0.100
150.200	31.321	0.100
150.300	38.557	0.100
150.400	43.970	0.100
150.500	29.443	0.100
150.600	42.543	0.100
150.700	32.374	0.100
150.800	40.434	0.100
150.900	33.996	0.100
151.000	49.706	0.100
151.100	27.980	0.100
151.200	40.279	0.100
151.300	36.694	0.100
151.400	46.161	0.100
151.500	28.758	0.100
151.600	51.164	0.100
151.700	18.617	0.100
151.800	47.208	0.100
151.900	42.233	0.100
152.000	27.754	0.100
152.100	38.572	0.100
152.200	47.904	0.100
152.300	33.811	0.100
152.400	46.097	0.100
152.500	37.950	0.100
152.600	34.440	0.100
152.700	39.718	0.100
152.800	38.496	0.100
152.900	27.527	0.100
153.000	26.050	0.100
153.100	45.898	0.100
153.200	36.966	0.100
153.300	25.120	0.100
153.400	39.354	0.100
153.500	38.326	0.100
153.600	42.425	0.100
153.700	26.555	0.100
153.800	42.749	0.100
153.900	38.814	0.100
154.000	30.683	0.100
154.100	48.167	0.100
154.200	32.456	0.100
154.300	44.012	0.100
154.400	41.736	0.100
154.500	22.636	0.100
154.600	46.077	0.100
154.700	40.553	0.100
154.800	33.380	0.100
154.900	40.143	0.100
155.000	26.610	0.100
155.100	19.592	0.100
155.200	40.436	0.100
155.300	42.824	0.100
155.400	23.643	0.100
155.500	27.178	0.100
155.600	44.147	0.100
155.700	21.667	0.100
155.800	46.686	0.100
155.900	37.515	0.100
156.000	38.811	0.100
156.100	48.590	0.100
156.200	28.678	0.100
156.300	39.699	0.100
156.400	45.341	0.100
156.500	45.769	0.100
156.600	36.487	0.100
156.700	31.167	0.100
156.800	35.709	0.100
156.900	22.039	0.100
157.000	31.464	0.100
157.100	36.870	0.100
157.200	44.350	0.100
157.300	42.641	0.100
157.400	36.324	0.100
157.500	30.146	0.100
157.600	40.249	0.100
157.700	34.753	0.100
157.800	26.378	0.100
157.900	46.253	0.100
158.000	35.665	0.100
158.100	40.498	0.100
158.200	35.033	0.100
158.300	23.596	0.100
158.400	34.854	0.100
158.500	36.858	0.100
158.600	28.150	0.099
158.700	34.867	0.099
158.800	37.625	0.099
158.900	43.882	0.099
159.000	47.359	0.099
159.100	41.527	0.099
159.200	48.347	0.099
159.300	38.820	0.099
159.400	37.024	0.099
159.500	32.766	0.099
159.600	44.191	0.099
159.700	32.153	0.099
159.800	34.500	0.099
159.900	39.259	0.099
160.000	36.536	0.099
160.100	49.344	0.099
160.200	33.146	0.099
160.300	41.500	0.099
160.400	43.775	0.099
160.500	41.126	0.099
160.600	31.684	0.099
160.700	20.941	0.099
160.800	35.954	0.099
160.900	48.609	0.099
161.000	30.934	0.099
161.100	22.971	0.099
161.200	30.243	0.099
161.300	45.153	0.099
161.400	43.072	0.099
161.500	38.298	0.099
161.600	35.379	0.099
161.700	30.123	0.099
161.800	50.577	0.099
161.900	36.967	0.099
162.000	31.388	0.099
162.100	31.414	0.099
162.200	48.931	0.099
162.300	32.593	0.099
162.400	34.462	0.099
162.500	47.585	0.099
162.600	27.706	0.099
162.700	38.468	0.099
162.800	36.554	0.099
162.900	50.434	0.099
163.000	44.072	0.099
163.100	36.320	0.099
163.200	45.643	0.099
163.300	33.361	0.099
163.400	45.378	0.099
163.500	37.047	0.099
163.600	32.790	0.099
163.700	33.708	0.099
163.800	34.605	0.099
163.900	41.429	0.099
164.000	39.743	0.099
164.100	35.329	0.099
164.200	39.519	0.099
164.300	37.368	0.099
164.400	34.873	0.099
164.500	42.389	0.099
164.600	47.778	0.099
164.700	27.762	0.099
164.800	38.819	0.099
164.900	29.999	0.099
165.000	43.469	0.099
165.100	29.395	0.099
165.200	42.069	0.099
165.300	34.113	0.099
165.400	39.923	0.099
165.500	35.063	0.099
165.600	32.738	0.099
165.700	49.826	0.099
165.800	35.005	0.099
165.900	32.052	0.099
166.000	29.782	0.099
166.100	46.080	0.099
166.200	36.896	0.099
166.300	40.082	0.099
166.400	37.836	0.099
166.500	47.955	0.099
166.600	37.667	0.099
166.700	35.331	0.099
166.800	18.533	0.099
166.900	41.562	0.099
167.000	37.315	0.099
167.100	35.779	0.099
167.200	31.928	0.099
167.300	61.374	0.099
167.400	32.321	0.099
167.500	33.634	0.099
167.600	37.099	0.099
167.700	41.510	0.099
167.800	37.705	0.099
167.900	48.056	0.099
168.000	38.988	0.099
168.100	26.181	0.099
168.200	43.222	0.099
168.300	33.920	0.099
168.400	48.226	0.099
168.500	42.857	0.099
168.600	35.868	0.099
168.700	15.357	0.099
168.800	43.465	0.099
168.900	28.674	0.099
169.000	43.171	0.099
169.100	33.284	0.099
169.200	25.871	0.099
169.300	24.903	0.099
169.400	43.530	0.099
169.500	49.834	0.099
169.600	30.430	0.099
169.700	35.905	0.099
169.800	45.546	0.099
169.900	36.452	0.099
170.000	32.993	0.099
170.100	41.716	0.099
170.200	45.403	0.099
170.300	32.269	0.099
170.400	19.380	0.099
170.500	49.026	0.099
170.600	55.535	0.099
170.700	12.982	0.099
170.800	48.856	0.099
170.900	46.438	0.099
171.000	38.187	0.099
171.100	32.420	0.099
171.200	38.878	0.099
171.300	42.215	0.099
171.400	40.889	0.099
171.500	27.442	0.099
171.600	27.214	0.099
171.700	45.906	0.099
171.800	51.621	0.099
171.900	51.109	0.099
172.000	42.906	0.099
172.100	39.038	0.099
172.200	38.983	0.099
172.300	27.202	0.099
172.400	44.865	0.099
172.500	36.874	0.099
172.600	33.659	0.099
172.700	28.966	0.099
172.800	26.150	0.099
172.900	44.959	0.099
173.000	42.870	0.099
173.100	38.378	0.099
173.200	31.150	0.099
173.300	25.413	0.099
173.400	40.508	0.099
173.500	43.981	0.099
173.600	25.426	0.099
173.700	35.955	0.099
173.800	31.738	0.099
173.900	39.636	0.099
174.000	34.654	0.099
174.100	39.300	0.099
174.200	40.794	0.099
174.300	34.687	0.099
174.400	57.498	0.099
174.500	46.341	0.099
174.600	31.344	0.099
174.700	35.852	0.099
174.800	49.007	0.099
174.900	35.261	0.099
175.000	35.685	0.099
175.100	36.162	0.099
175.200	27.152	0.099
175.300	37.883	0.099
175.400	21.768	0.099
175.500	28.861	0.099
175.600	45.296	0.099
175.700	35.817	0.099
175.800	34.147	0.099
175.900	49.340	0.099
176.000	17.618	0.099
176.100	49.365	0.099
176.200	33.721	0.099
176.300	30.277	0.099
176.400	31.166	0.099
176.500	30.120	0.099
176.600	20.507	0.099
176.700	47.217	0.099
176.800	47.066	0.099
176.900	51.637	0.099
177.000	33.132	0.099
177.100	31.377	0.099
177.200	33.067	0.099
177.300	37.604	0.099
177.400	33.480	0.099
177.500	41.193	0.099
177.600	40.659	0.099
177.700	45.198	0.099
177.800	42.307	0.099
177.900	41.272	0.099
178.000	34.137	0.099
178.100	31.209	0.099
178.200	41.894	0.099
178.300	46.592	0.099
178.400	27.483	0.099
178.500	27.803	0.099
178.600	40.003	0.099
178.700	36.086	0.099
178.800	43.036	0.099
178.900	35.740	0.099
179.000	37.930	0.099
179.100	31.314	0.099
179.200	31.327	0.099
179.300	38.454	0.099
179.400	32.085	0.099
179.500	14.716	0.099
179.600	41.803	0.099
179.700	42.341	0.099
179.800	42.782	0.099
179.900	35.998	0.099
180.000	31.751	0.099
180.100	46.602	0.099
180.200	32.935	0.099
180.300	43.084	0.099
180.400	35.879	0.099
180.500	44.054	0.099
180.600	30.275	0.099
180.700	44.936	0.099
180.800	25.235	0.099
180.900	41.162	0.099
181.000	37.769	0.099
181.100	39.255	0.099
181.200	36.824	0.099
181.300	39.629	0.099
181.400	34.267	0.099
181.500	40.188	0.099
181.600	45.970	0.099
181.700	44.238	0.099
181.800	32.889	0.099
181.900	41.710	0.099
182.000	40.349	0.099
182.100	35.383	0.099
182.200	34.218	0.099
182.300	35.612	0.099
182.400	34.889	0.099
182.500	35.746	0.100
182.600	41.426	0.099
182.700	36.473	0.099
182.800	48.520	0.099
182.900	37.458	0.099
183.000	41.766	0.099
183.100	36.162	0.099
183.200	27.516	0.099
183.300	43.163	0.099
183.400	48.499	0.099
183.500	33.075	0.099
183.600	55.374	0.099
183.700	36.403	0.099
183.800	39.462	0.099
183.900	31.348	0.099
184.000	50.416	0.099
184.100	19.002	0.099
184.200	35.903	0.099
184.300	45.453	0.099
184.400	46.944	0.099
184.500	37.902	0.099
184.600	43.807	0.099
184.700	24.034	0.099
184.800	33.583	0.099
184.900	33.213	0.099
185.000	48.142	0.099
185.100	43.971	0.099
185.200	31.414	0.099
185.300	34.260	0.099
185.400	37.458	0.099
185.500	34.874	0.099
185.600	40.611	0.099
185.700	36.828	0.099
185.800	41.651	0.099
185.900	37.102	0.099
186.000	37.720	0.099
186.100	36.266	0.099
186.200	37.291	0.099
186.300	27.965	0.099
186.400	21.192	0.099
186.500	51.758	0.099
186.600	52.113	0.099
186.700	42.345	0.099
186.800	23.405	0.099
186.900	45.270	0.099
187.000	30.191	0.099
187.100	29.826	0.099
187.200	37.993	0.099
187.300	54.802	0.099
187.400	37.910	0.099
187.500	33.107	0.099
187.600	35.282	0.099
187.700	39.465	0.099
187.800	42.607	0.099
187.900	38.990	0.099
188.000	46.024	0.099
188.100	41.865	0.099
188.200	35.610	0.099
188.300	33.350	0.099
188.400	39.582	0.099
188.500	43.008	0.099
188.600	24.791	0.099
188.700	32.745	0.099
188.800	41.882	0.099
188.900	22.382	0.099
189.000	40.246	0.099
189.100	36.916	0.099
189.200	50.401	0.099
189.300	41.734	0.099
189.400	47.756	0.099
189.500	27.656	0.099
189.600	31.744	0.099
189.700	43.334	0.099
189.800	48.778	0.099
189.900	38.176	0.099
190.000	30.702	0.099
190.100	29.387	0.099
190.200	43.852	0.099
190.300	33.577	0.099
190.400	35.822	0.099
190.500	38.553	0.099
190.600	39.829	0.099
190.700	46.592	0.099
190.800	42.980	0.099
190.900	25.108	0.099
191.000	43.278	0.099
191.100	36.542	0.099
191.200	46.105	0.099
191.300	24.921	0.099
191.400	52.870	0.099
191.500	14.595	0.099
191.600	48.647	0.099
191.700	41.943	0.099
191.800	41.898	0.099
191.900	27.540	0.099
192.000	40.939	0.099
192.100	35.563	0.099
192.200	40.288	0.099
192.300	45.574	0.099
192.400	43.203	0.099
192.500	39.156	0.099
192.600	32.192	0.099
192.700	42.858	0.099
192.800	33.078	0.099
192.900	47.742	0.099
193.000	43.481	0.099
193.100	29.209	0.099
193.200	44.244	0.099
193.300	28.926	0.099
193.400	59.587	0.099
193.500	36.135	0.099
193.600	46.045	0.099
193.700	27.320	0.099
193.800	33.311	0.099
193.900	38.606	0.099
194.000	33.621	0.099
194.100	48.607	0.099
194.200	42.783	0.099
194.300	44.231	0.099
194.400	39.786	0.099
194.500	38.059	0.099
194.600	47.025	0.099
194.700	41.452	0.099
194.800	29.565	0.099
194.900	37.289	0.099
195.000	35.260	0.099
195.100	49.157	0.099
195.200	36.091	0.099
195.300	46.491	0.099
195.400	41.251	0.099
195.500	31.011	0.099
195.600	49.157	0.099
195.700	39.231	0.099
195.800	39.823	0.099
195.900	41.966	0.099
196.000	33.062	0.099
196.100	46.467	0.099
196.200	35.773	0.099
196.300	26.605	0.099
196.400	25.707	0.099
196.500	43.736	0.099
196.600	35.872	0.099
196.700	39.419	0.099
196.800	36.680	0.099
196.900	56.370	0.099
197.000	38.599	0.099
197.100	30.247	0.099
197.200	45.571	0.099
197.300	31.715	0.099
197.400	51.280	0.099
197.500	44.871	0.099
197.600	27.438	0.099
197.700	30.315	0.099
197.800	39.557	0.099
197.900	31.674	0.099
198.000	44.737	0.099
198.100	38.189	0.099
198.200	41.397	0.099
198.300	39.514	0.099
198.400	38.716	0.099
198.500	28.763	0.099
198.600	39.179	0.099
198.700	44.624	0.099
198.800	25.375	0.099
198.900	33.665	0.099
199.000	42.282	0.099
199.100	36.383	0.099
199.200	37.062	0.099
199.300	39.845	0.099
199.400	34.022	0.099
199.500	42.909	0.099
199.600	49.771	0.099
199.700	33.174	0.099
199.800	33.771	0.099
199.900	24.241	0.099
200.000	47.798	0.099
200.100	45.413	0.099
200.200	44.979	0.099
200.300	29.839	0.099
200.400	42.597	0.099
200.500	44.547	0.099
200.600	26.635	0.099
200.700	48.218	0.099
200.800	36.716	0.099
200.900	38.030	0.099
201.000	28.699	0.099
201.100	39.739	0.099
201.200	33.098	0.099
201.300	26.035	0.099
201.400	41.201	0.099
201.500	37.719	0.099
201.600	31.172	0.099
201.700	54.017	0.099
201.800	41.248	0.099
201.900	34.656	0.099
202.000	43.449	0.099
202.100	42.026	0.099
202.200	31.737	0.099
202.300	37.394	0.099
202.400	43.305	0.099
202.500	39.885	0.099
202.600	43.396	0.099
202.700	44.695	0.099
202.800	48.523	0.099
202.900	32.824	0.099
203.000	43.514	0.099
203.100	30.732	0.099
203.200	44.353	0.099
203.300	49.667	0.099
203.400	20.512	0.099
203.500	47.946	0.099
203.600	49.063	0.099
203.700	46.250	0.099
203.800	35.011	0.099
203.900	33.392	0.099
204.000	36.396	0.099
204.100	22.625	0.099
204.200	45.745	0.099
204.300	40.636	0.099
204.400	35.323	0.099
204.500	42.316	0.099
204.600	38.821	0.099
204.700	28.414	0.099
204.800	48.705	0.099
204.900	19.090	0.099
205.000	39.088	0.099
205.100	48.216	0.099
205.200	23.763	0.099
205.300	38.086	0.099
205.400	40.848	0.099
205.500	35.641	0.099
205.600	40.444	0.099
205.700	48.136	0.099
205.800	42.644	0.099
205.900	32.882	0.099
206.000	33.907	0.099
206.100	18.280	0.099
206.200	43.537	0.099
206.300	42.621	0.099
206.400	43.897	0.099
206.500	38.508	0.099
206.600	41.281	0.099
206.700	43.075	0.099
206.800	21.656	0.099
206.900	45.577	0.099
207.000	34.188	0.099
207.100	34.131	0.099
207.200	40.633	0.099
207.300	41.733	0.099
207.400	34.700	0.099
207.500	43.131	0.099
207.600	25.144	0.099
207.700	43.853	0.099
207.800	40.704	0.099
207.900	51.049	0.099
208.000	43.330	0.099
208.100	29.061	0.099
208.200	31.446	0.099
208.300	39.688	0.099
208.400	35.878	0.099
208.500	31.645	0.099
208.600	37.464	0.099
208.700	45.057	0.099
208.800	33.086	0.099
208.900	33.682	0.099
209.000	38.130	0.099
209.100	18.420	0.099
209.200	45.394	0.099
209.300	33.937	0.099
209.400	39.697	0.099
209.500	44.096	0.099
209.600	45.126	0.099
209.700	39.917	0.099
209.800	29.600	0.099
209.900	40.579	0.099
210.000	42.997	0.099
210.100	51.419	0.099
210.200	41.964	0.099
210.300	32.924	0.099
210.400	34.880	0.099
210.500	49.923	0.099
210.600	31.428	0.099
210.700	18.658	0.099
210.800	43.495	0.099
210.900	27.966	0.099
211.000	44.690	0.099
211.100	33.377	0.099
211.200	33.209	0.099
211.300	47.325	0.099
211.400	40.822	0.099
211.500	40.313	0.099
211.600	25.053	0.099
211.700	50.543	0.099
211.800	32.605	0.099
211.900	44.703	0.099
212.000	37.418	0.099
212.100	30.237	0.099
212.200	47.739	0.099
212.300	36.401	0.099
212.400	46.216	0.099
212.500	35.369	0.099
212.600	45.797	0.099
212.700	35.885	0.099
212.800	44.048	0.099
212.900	38.355	0.099
213.000	42.982	0.099
213.100	44.320	0.099
213.200	31.798	0.099
213.300	40.496	0.099
213.400	33.301	0.099
213.500	47.228	0.099
213.600	35.352	0.099
213.700	45.307	0.099
213.800	45.306	0.099
213.900	28.356	0.099
214.000	46.361	0.099
214.100	25.412	0.099
214.200	42.066	0.099
214.300	38.414	0.099
214.400	37.913	0.099
214.500	36.370	0.099
214.600	40.617	0.099
214.700	42.284	0.099
214.800	41.818	0.099
214.900	30.865	0.099
215.000	28.204	0.099
215.100	32.295	0.099
215.200	43.694	0.099
215.300	42.401	0.099
215.400	24.780	0.099
215.500	32.282	0.099
215.600	40.330	0.099
215.700	42.488	0.099
215.800	41.669	0.099
215.900	39.074	0.099
216.000	35.452	0.099
216.100	40.293	0.099
216.200	39.044	0.099
216.300	24.991	0.099
216.400	45.024	0.099
216.500	48.943	0.099
216.600	38.309	0.099
216.700	38.524	0.099
216.800	35.863	0.099
216.900	51.002	0.099
217.000	38.614	0.099
217.100	27.393	0.099
217.200	40.791	0.099
217.300	32.000	0.099
217.400	29.867	0.099
217.500	35.959	0.099
217.600	43.676	0.099
217.700	32.020	0.099
217.800	51.168	0.099
217.900	26.945	0.099
218.000	30.733	0.099
218.100	40.132	0.099
218.200	29.735	0.099
218.300	37.592	0.099
218.400	32.792	0.099
218.500	43.956	0.099
218.600	36.497	0.099
218.700	45.459	0.099
218.800	34.400	0.099
218.900	25.405	0.099
219.000	22.932	0.099
219.100	48.103	0.099
219.200	37.817	0.099
219.300	44.301	0.099
219.400	37.053	0.099
219.500	36.777	0.099
219.600	55.717	0.099
219.700	21.233	0.099
219.800	34.650	0.099
219.900	18.026	0.099
220.000	49.338	0.099
220.100	44.714	0.099
220.200	33.987	0.099
220.300	44.704	0.099
220.400	39.254	0.099
220.500	43.179	0.099
220.600	33.210	0.099
220.700	40.333	0.099
220.800	43.458	0.099
220.900	36.561	0.099
221.000	41.211	0.099
221.100	32.654	0.099
221.200	34.304	0.099
221.300	33.462	0.099
221.400	37.676	0.099
221.500	41.553	0.099
221.600	46.725	0.099
221.700	26.712	0.099
221.800	36.294	0.099
221.900	33.581	0.099
222.000	26.229	0.099
222.100	44.303	0.099
222.200	39.935	0.099
222.300	42.138	0.099
222.400	36.064	0.099
222.500	53.631	0.099
222.600	25.536	0.099
222.700	29.893	0.099
222.800	27.674	0.099
222.900	44.877	0.099
223.000	34.052	0.099
223.100	42.859	0.099
223.200	37.501	0.099
223.300	33.611	0.099
223.400	33.572	0.099
223.500	37.699	0.099
223.600	32.780	0.099
223.700	27.244	0.099
223.800	53.221	0.099
223.900	37.295	0.099
224.000	34.567	0.099
224.100	45.190	0.099
224.200	34.589	0.099
224.300	40.682	0.099
224.400	48.935	0.099
224.500	35.168	0.099
224.600	44.475	0.099
224.700	43.091	0.099
224.800	28.482	0.099
224.900	31.605	0.099
225.000	31.032	0.099
225.100	38.298	0.099
225.200	37.034	0.099
225.300	43.662	0.099
225.400	35.272	0.099
225.500	45.692	0.099
225.600	37.844	0.099
225.700	32.383	0.099
225.800	45.797	0.099
225.900	45.950	0.099
226.000	38.250	0.099
226.100	29.293	0.099
226.200	40.864	0.099
226.300	32.814	0.099
226.400	45.055	0.099
226.500	25.282	0.099
226.600	32.029	0.099
226.700	32.525	0.099
226.800	44.118	0.099
226.900	44.996	0.099
227.000	31.318	0.099
227.100	43.162	0.099
227.200	39.713	0.099
227.300	32.225	0.099
227.400	22.736	0.099
227.500	45.927	0.099
227.600	26.990	0.099
227.700	34.452	0.099
227.800	37.145	0.099
227.900	56.921	0.099
228.000	50.795	0.099
228.100	33.734	0.099
228.200	38.815	0.099
228.300	36.071	0.099
228.400	24.603	0.099
228.500	47.725	0.099
228.600	40.849	0.099
228.700	37.833	0.099
228.800	47.859	0.099
228.900	41.222	0.099
229.000	47.795	0.099
229.100	31.919	0.099
229.200	29.475	0.099
229.300	45.101	0.099
229.400	26.380	0.099
229.500	23.913	0.099
229.600	40.702	0.099
229.700	44.369	0.099
229.800	42.507	0.099
229.900	33.630	0.099
230.000	35.893	0.099
230.100	36.771	0.099
230.200	23.618	0.099
230.300	44.411	0.099
230.400	26.305	0.099
230.500	39.053	0.099
230.600	27.230	0.099
230.700	38.347	0.099
230.800	41.009	0.099
230.900	35.538	0.099
231.000	45.860	0.099
231.100	37.646	0.099
231.200	31.180	0.099
231.300	34.627	0.099
231.400	40.881	0.099
231.500	42.258	0.099
231.600	46.923	0.099
231.700	28.267	0.099
231.800	39.122	0.099
231.900	32.728	0.099
232.000	37.742	0.099
232.100	28.950	0.099
232.200	36.699	0.099
232.300	39.065	0.099
232.400	30.684	0.099
232.500	35.012	0.099
232.600	36.793	0.099
232.700	41.756	0.099
232.800	38.643	0.099
232.900	32.751	0.099
233.000	33.127	0.099
233.100	39.830	0.099
233.200	39.945	0.099
233.300	38.538	0.099
233.400	46.479	0.099
233.500	24.411	0.099
233.600	33.988	0.099
233.700	38.084	0.099
233.800	43.484	0.099
233.900	32.446	0.099
234.000	33.841	0.099
234.100	49.538	0.099
234.200	38.735	0.099
234.300	29.753	0.099
234.400	39.378	0.099
234.500	27.712	0.099
234.600	46.463	0.099
234.700	27.261	0.099
234.800	44.042	0.099
234.900	50.036	0.099
235.000	43.083	0.099
235.100	36.771	0.099
235.200	34.859	0.099
235.300	32.518	0.099
235.400	30.757	0.099
235.500	41.566	0.099
235.600	41.716	0.099
235.700	43.813	0.099
235.800	39.837	0.099
235.900	32.745	0.099
236.000	42.328	0.099
236.100	32.019	0.099
236.200	34.704	0.099
236.300	37.484	0.099
236.400	25.826	0.099
236.500	36.851	0.099
236.600	28.888	0.099
236.700	38.945	0.099
236.800	38.973	0.099
236.900	46.301	0.100
237.000	37.744	0.099
237.100	35.103	0.099
237.200	39.129	0.099
237.300	47.758	0.099
237.400	42.685	0.099
237.500	40.687	0.099
237.600	33.949	0.099
237.700	28.098	0.099
237.800	35.333	0.099
237.900	38.349	0.099
238.000	17.215	0.099
238.100	44.287	0.099
238.200	45.709	0.099
238.300	45.374	0.099
238.400	30.385	0.099
238.500	41.956	0.099
238.600	39.798	0.099
238.700	30.144	0.099
238.800	39.456	0.099
238.900	31.883	0.099
239.000	43.029	0.099
239.100	26.887	0.099
239.200	40.490	0.100
239.300	40.308	0.099
239.400	30.494	0.099
239.500	44.318	0.099
239.600	41.997	0.099
239.700	50.870	0.099
239.800	30.303	0.099
239.900	27.636	0.099
240.000	33.488	0.099
240.100	27.621	0.099
240.200	44.992	0.099
240.300	35.789	0.099
240.400	34.983	0.099
240.500	45.484	0.099
240.600	42.484	0.099
240.700	38.254	0.099
240.800	34.925	0.099
240.900	33.700	0.099
241.000	21.647	0.099
241.100	34.959	0.099
241.200	39.786	0.099
241.300	42.658	0.099
241.400	30.799	0.099
241.500	34.892	0.099
241.600	35.290	0.099
241.700	32.210	0.099
241.800	42.070	0.099
241.900	48.976	0.099
242.000	45.462	0.099
242.100	29.411	0.099
242.200	29.478	0.099
242.300	34.489	0.099
242.400	26.870	0.099
242.500	44.972	0.099
242.600	36.875	0.099
242.700	31.556	0.099
242.800	39.588	0.099
242.900	35.158	0.099
243.000	39.344	0.099
243.100	41.254	0.099
243.200	20.632	0.099
243.300	25.105	0.099
243.400	34.025	0.099
243.500	36.495	0.099
243.600	25.144	0.099
243.700	46.965	0.099
243.800	37.456	0.099
243.900	43.406	0.099
244.000	32.416	0.099
244.100	40.557	0.099
244.200	38.102	0.099
244.300	33.230	0.099
244.400	52.324	0.099
244.500	29.748	0.099
244.600	38.708	0.099
244.700	32.185	0.099
244.800	35.188	0.099
244.900	38.866	0.099
245.000	23.328	0.099
245.100	32.719	0.099
245.200	38.218	0.099
245.300	43.320	0.099
245.400	37.129	0.099
245.500	40.915	0.099
245.600	34.878	0.099
245.700	32.184	0.099
245.800	38.212	0.099
245.900	41.144	0.099
246.000	45.854	0.099
246.100	34.968	0.099
246.200	43.004	0.099
246.300	18.227	0.099
246.400	34.439	0.099
246.500	32.506	0.099
246.600	40.050	0.099
246.700	32.042	0.099
246.800	37.508	0.099
246.900	39.109	0.099
247.000	29.298	0.099
247.100	27.815	0.099
247.200	45.550	0.099
247.300	28.408	0.099
247.400	30.374	0.099
247.500	32.704	0.099
247.600	44.025	0.099
247.700	31.811	0.099
247.800	37.013	0.099
247.900	39.188	0.099
248.000	27.723	0.099
248.100	28.308	0.099
248.200	37.404	0.099
248.300	29.416	0.099
248.400	36.072	0.099
248.500	12.946	0.099
248.600	27.623	0.099
248.700	31.009	0.099
248.800	44.099	0.099
248.900	27.051	0.099
249.000	31.555	0.099
249.100	24.933	0.099
249.200	47.506	0.099
249.300	25.284	0.099
249.400	28.802	0.099
249.500	36.606	0.099
249.600	35.273	0.099
249.700	37.714	0.099
249.800	29.833	0.099
249.900	35.825	0.099
250.000	31.154	0.099
250.100	27.060	0.099
250.200	18.926	0.099
250.300	46.954	0.099
250.400	44.965	0.099
250.500	29.894	0.099
250.600	29.320	0.099
250.700	34.088	0.099
250.800	40.171	0.099
250.900	38.306	0.099
251.000	29.057	0.099
251.100	39.168	0.099
251.200	27.997	0.099
251.300	18.864	0.099
251.400	48.450	0.099
251.500	38.598	0.099
251.600	20.879	0.099
251.700	22.770	0.099
251.800	37.686	0.099
251.900	43.256	0.099
252.000	35.180	0.099
252.100	39.593	0.099
252.200	31.015	0.099
252.300	33.825	0.099
252.400	39.993	0.099
252.500	40.717	0.099
252.600	41.399	0.099
252.700	36.433	0.099
252.800	35.749	0.099
252.900	28.950	0.099
253.000	29.452	0.099
253.100	33.091	0.099
253.200	50.786	0.099
253.300	27.131	0.099
253.400	36.306	0.099
253.500	43.412	0.099
253.600	25.263	0.099
253.700	35.365	0.099
253.800	35.729	0.099
253.900	23.250	0.099
254.000	34.534	0.099
254.100	26.813	0.099
254.200	39.956	0.099
254.300	30.231	0.099
254.400	42.708	0.099
254.500	37.071	0.099
254.600	35.110	0.099
254.700	46.096	0.099
254.800	26.355	0.099
254.900	40.016	0.099
255.000	30.495	0.099
255.100	26.749	0.099
255.200	31.855	0.099
255.300	41.678	0.099
255.400	42.725	0.099
255.500	35.209	0.099
255.600	29.083	0.099
255.700	15.479	0.099
255.800	39.380	0.099
255.900	28.853	0.099
256.000	31.506	0.099
256.100	32.135	0.099
256.200	47.398	0.099
256.300	35.053	0.099
256.400	23.926	0.099
256.500	47.420	0.099
256.600	31.752	0.099
256.700	26.706	0.099
256.800	35.349	0.099
256.900	31.990	0.099
257.000	35.634	0.099
257.100	45.163	0.099
257.200	38.222	0.099
257.300	34.791	0.099
257.400	24.622	0.099
257.500	24.409	0.099
257.600	29.259	0.099
257.700	31.744	0.099
257.800	30.674	0.099
257.900	26.792	0.099
258.000	55.216	0.099
258.100	31.798	0.099
258.200	38.472	0.099
258.300	33.381	0.099
258.400	33.330	0.099
258.500	17.986	0.099
258.600	38.465	0.099
258.700	41.010	0.099
258.800	16.572	0.099
258.900	45.899	0.099
259.000	35.532	0.099
259.100	20.372	0.099
259.200	36.709	0.099
259.300	35.867	0.099
259.400	40.269	0.099
259.500	5.745	0.099
259.600	49.471	0.099
259.700	26.716	0.099
259.800	19.874	0.099
259.900	48.048	0.099
260.000	40.269	0.099
260.100	29.776	0.099
260.200	24.749	0.099
260.300	55.218	0.099
260.400	39.856	0.099
260.500	37.232	0.099
260.600	35.348	0.099
260.700	30.844	0.099
260.800	38.517	0.099
260.900	30.927	0.099
261.000	36.182	0.099
261.100	34.397	0.099
261.200	31.133	0.099
261.300	37.844	0.099
261.400	33.838	0.099
261.500	17.866	0.099
261.600	52.248	0.099
261.700	32.650	0.099
261.800	28.000	0.099
261.900	40.597	0.099
262.000	30.367	0.099
262.100	40.633	0.099
262.200	32.408	0.099
262.300	19.039	0.099
262.400	43.921	0.099
262.500	39.099	0.099
262.600	39.986	0.099
262.700	38.884	0.099
262.800	27.614	0.099
262.900	34.608	0.099
263.000	47.369	0.099
263.100	34.179	0.099
263.200	22.939	0.099
263.300	38.574	0.099
263.400	28.423	0.099
263.500	17.498	0.099
263.600	42.243	0.099
263.700	31.797	0.099
263.800	48.498	0.099
263.900	29.906	0.099
264.000	22.134	0.099
264.100	41.075	0.099
264.200	30.332	0.099
264.300	39.396	0.099
264.400	40.895	0.099
264.500	18.139	0.099
264.600	40.122	0.099
264.700	21.607	0.099
264.800	32.356	0.099
264.900	32.238	0.099
265.000	39.173	0.099
265.100	30.722	0.099
265.200	38.282	0.099
265.300	37.200	0.099
265.400	36.866	0.099
265.500	21.536	0.099
265.600	52.278	0.099
265.700	34.259	0.099
265.800	32.035	0.099
265.900	43.164	0.099
266.000	28.787	0.099
266.100	40.330	0.099
266.200	34.896	0.099
266.300	32.331	0.099
266.400	35.230	0.099
266.500	38.306	0.099
266.600	42.691	0.099
266.700	20.120	0.099
266.800	26.934	0.099
266.900	47.811	0.099
267.000	41.038	0.099
267.100	34.497	0.099
267.200	25.627	0.099
267.300	33.372	0.099
267.400	27.392	0.099
267.500	33.723	0.099
267.600	29.190	0.099
267.700	29.178	0.099
267.800	43.919	0.099
267.900	37.583	0.099
268.000	38.246	0.099
268.100	42.082	0.099
268.200	49.154	0.099
268.300	41.820	0.099
268.400	33.112	0.099
268.500	34.567	0.099
268.600	34.533	0.099
268.700	32.154	0.099
268.800	32.104	0.099
268.900	44.162	0.099
269.000	41.912	0.099
269.100	42.185	0.099
269.200	32.352	0.099
269.300	37.487	0.099
269.400	27.513	0.099
269.500	42.986	0.099
269.600	30.352	0.099
269.700	48.593	0.099
269.800	38.368	0.099
269.900	31.991	0.099
270.000	32.936	0.099
270.100	32.825	0.099
270.200	29.010	0.099
270.300	30.402	0.099
270.400	37.152	0.099
270.500	37.351	0.099
270.600	35.994	0.099
270.700	23.035	0.099
270.800	46.430	0.099
270.900	30.897	0.099
271.000	32.824	0.099
271.100	29.622	0.099
271.200	45.333	0.099
271.300	42.029	0.099
271.400	31.755	0.099
271.500	41.506	0.099
271.600	34.467	0.099
271.700	34.596	0.100
271.800	25.480	0.099
271.900	39.932	0.099
272.000	30.110	0.099
272.100	28.542	0.099
272.200	36.376	0.099
272.300	44.245	0.099
272.400	36.083	0.099
272.500	39.715	0.099
272.600	25.094	0.099
272.700	40.412	0.099
272.800	34.397	0.099
272.900	36.630	0.099
273.000	42.358	0.099
273.100	32.639	0.099
273.200	32.153	0.099
273.300	35.594	0.099
273.400	34.420	0.099
273.500	40.674	0.099
273.600	20.233	0.099
273.700	35.291	0.099
273.800	37.883	0.099
273.900	37.544	0.099
274.000	29.279	0.099
274.100	31.308	0.099
274.200	27.523	0.099
274.300	38.690	0.099
274.400	34.719	0.099
274.500	31.672	0.099
274.600	29.701	0.099
274.700	32.835	0.099
274.800	40.855	0.099
274.900	34.410	0.099
275.000	40.632	0.099
275.100	46.451	0.099
275.200	25.986	0.099
275.300	36.988	0.099
275.400	36.891	0.099
275.500	37.907	0.099
275.600	25.400	0.099
275.700	43.635	0.099
275.800	30.430	0.099
275.900	38.794	0.100
276.000	30.580	0.099
276.100	38.813	0.099
276.200	30.801	0.099
276.300	49.178	0.099
276.400	47.912	0.099
276.500	29.530	0.099
276.600	33.210	0.100
276.700	48.455	0.100
276.800	36.779	0.099
276.900	32.181	0.099
277.000	31.239	0.099
277.100	30.918	0.099
277.200	45.241	0.099
277.300	36.192	0.099
277.400	32.209	0.099
277.500	28.642	0.099
277.600	46.064	0.099
277.700	42.958	0.099
277.800	31.236	0.099
277.900	43.300	0.099
278.000	38.081	0.099
278.100	32.922	0.099
278.200	41.828	0.099
278.300	46.002	0.099
278.400	44.708	0.099
278.500	24.593	0.099
278.600	27.942	0.099
278.700	48.645	0.099
278.800	12.363	0.099
278.900	37.417	0.099
279.000	44.407	0.099
279.100	25.732	0.099
279.200	46.927	0.099
279.300	34.236	0.099
279.400	35.017	0.099
279.500	34.824	0.099
279.600	26.133	0.099
279.700	34.687	0.099
279.800	34.036	0.099
279.900	30.495	0.099
280.000	38.033	0.099
280.100	35.078	0.099
280.200	30.059	0.099
280.300	36.864	0.099
280.400	31.840	0.099
280.500	27.486	0.099
280.600	52.103	0.099
280.700	37.807	0.099
280.800	25.331	0.099
280.900	17.780	0.099
281.000	46.564	0.099
281.100	28.032	0.099
281.200	35.726	0.099
281.300	36.847	0.099
281.400	52.115	0.099
281.500	26.778	0.099
281.600	28.636	0.099
281.700	38.445	0.099
281.800	39.745	0.099
281.900	36.011	0.099
282.000	38.361	0.099
282.100	36.984	0.099
282.200	35.519	0.099
282.300	41.671	0.099
282.400	34.032	0.099
282.500	30.714	0.099
282.600	29.551	0.099
282.700	29.352	0.099
282.800	37.284	0.099
282.900	32.091	0.099
283.000	30.957	0.099
283.100	34.959	0.099
283.200	28.445	0.099
283.300	34.824	0.099
283.400	37.085	0.099
283.500	42.584	0.099
283.600	18.580	0.099
283.700	38.317	0.099
283.800	51.060	0.099
283.900	31.673	0.099
284.000	46.809	0.099
284.100	25.783	0.099
284.200	37.257	0.099
284.300	39.930	0.099
284.400	42.871	0.099
284.500	37.314	0.099
284.600	35.451	0.099
284.700	38.555	0.099
284.800	29.224	0.099
284.900	34.410	0.099
285.000	25.493	0.099
285.100	41.983	0.099
285.200	31.279	0.099
285.300	15.801	0.099
285.400	24.346	0.099
285.500	44.194	0.099
285.600	41.871	0.099
285.700	32.189	0.099
285.800	36.804	0.099
285.900	29.776	0.099
286.000	33.503	0.099
286.100	29.800	0.099
286.200	28.037	0.099
286.300	49.570	0.099
286.400	37.766	0.099
286.500	17.946	0.099
286.600	31.586	0.099
286.700	34.989	0.099
286.800	33.336	0.099
286.900	50.894	0.099
287.000	42.767	0.099
287.100	42.863	0.099
287.200	18.376	0.099
287.300	33.615	0.099
287.400	39.777	0.099
287.500	48.618	0.099
287.600	31.908	0.099
287.700	36.585	0.099
287.800	29.383	0.099
287.900	25.862	0.099
288.000	36.118	0.099
288.100	36.218	0.099
288.200	42.338	0.099
288.300	39.172	0.099
288.400	45.338	0.099
288.500	34.290	0.099
288.600	40.404	0.099
288.700	25.544	0.099
288.800	35.217	0.099
288.900	25.367	0.099
289.000	32.786	0.099
289.100	32.832	0.099
289.200	45.646	0.099
289.300	24.597	0.099
289.400	32.192	0.099
289.500	33.720	0.099
289.600	24.357	0.099
289.700	40.190	0.099
289.800	39.220	0.099
289.900	45.417	0.099
290.000	41.824	0.099
290.100	30.959	0.099
290.200	10.551	0.099
290.300	29.001	0.099
290.400	42.432	0.099
290.500	35.162	0.099
290.600	31.217	0.099
290.700	38.712	0.099
290.800	38.871	0.099
290.900	33.296	0.099
291.000	21.244	0.099
291.100	39.598	0.099
291.200	40.463	0.099
291.300	17.573	0.099
291.400	37.831	0.099
291.500	45.250	0.099
291.600	27.413	0.099
291.700	33.844	0.099
291.800	23.011	0.099
291.900	46.869	0.099
292.000	30.830	0.099
292.100	28.753	0.099
292.200	45.027	0.099
292.300	28.164	0.099
292.400	23.523	0.099
292.500	49.895	0.099
292.600	33.589	0.099
292.700	20.805	0.099
292.800	25.190	0.100
292.900	39.870	0.099
293.000	32.345	0.099
293.100	40.859	0.099
293.200	30.785	0.099
293.300	40.921	0.099
293.400	32.380	0.099
293.500	35.828	0.099
293.600	16.881	0.099
293.700	40.833	0.099
293.800	38.309	0.099
293.900	24.867	0.099
294.000	35.060	0.099
294.100	25.027	0.099
294.200	47.759	0.099
294.300	32.684	0.099
294.400	26.179	0.099
294.500	27.810	0.099
294.600	38.011	0.099
294.700	35.414	0.099
294.800	42.220	0.099
294.900	44.902	0.099
295.000	26.336	0.099
295.100	37.833	0.099
295.200	24.645	0.099
295.300	36.834	0.099
295.400	36.386	0.099
295.500	29.452	0.099
295.600	19.117	0.099
295.700	48.797	0.099
295.800	26.444	0.099
295.900	38.170	0.099
296.000	29.153	0.099
296.100	37.887	0.099
296.200	34.863	0.099
296.300	38.672	0.099
296.400	32.574	0.099
296.500	43.777	0.099
296.600	43.263	0.099
296.700	34.413	0.099
296.800	23.714	0.099
296.900	31.585	0.099
297.000	36.152	0.099
297.100	32.100	0.099
297.200	45.390	0.099
297.300	19.481	0.099
297.400	48.789	0.099
297.500	33.365	0.099
297.600	30.943	0.099
297.700	38.993	0.099
297.800	31.953	0.099
297.900	34.617	0.099
298.000	43.326	0.099
298.100	29.577	0.099
298.200	39.917	0.099
298.300	33.164	0.099
298.400	23.118	0.099
298.500	30.316	0.099
298.600	40.092	0.099
298.700	48.151	0.099
298.800	33.320	0.099
298.900	31.698	0.099
299.000	41.419	0.099
299.100	27.590	0.099
299.200	24.103	0.099
299.300	43.482	0.099
299.400	42.917	0.099
299.500	29.181	0.099
299.600	29.848	0.099
299.700	32.923	0.099
299.800	45.810	0.099
299.900	23.905	0.099
300.000	39.251	0.099
300.100	26.968	0.099
300.200	40.988	0.099
300.300	41.650	0.099
300.400	22.507	0.099
300.500	40.136	0.099
300.600	34.820	0.099
300.700	22.975	0.099
300.800	16.238	0.099
300.900	38.458	0.099
301.000	40.211	0.099
301.100	22.451	0.099
301.200	46.452	0.099
301.300	25.371	0.099
301.400	38.511	0.099
301.500	31.463	0.099
301.600	20.126	0.099
301.700	40.895	0.099
301.800	32.193	0.099
301.900	25.997	0.099
302.000	39.299	0.099
302.100	46.768	0.099
302.200	41.867	0.099
302.300	30.999	0.099
302.400	53.179	0.099
302.500	17.890	0.099
302.600	38.778	0.099
302.700	29.803	0.099
302.800	28.549	0.099
302.900	39.948	0.099
303.000	33.005	0.099
303.100	39.953	0.099
303.200	25.487	0.100
303.300	37.304	0.099
303.400	44.993	0.099
303.500	29.299	0.099
303.600	32.785	0.099
303.700	39.513	0.099
303.800	27.663	0.099
303.900	28.672	0.099
304.000	46.430	0.099
304.100	47.310	0.099
304.200	31.714	0.099
304.300	32.857	0.099
304.400	45.828	0.099
304.500	36.228	0.099
304.600	26.242	0.099
304.700	30.089	0.099
304.800	36.156	0.100
304.900	28.158	0.099
305.000	31.316	0.099
305.100	38.452	0.099
305.200	45.698	0.099
305.300	23.315	0.099
305.400	27.301	0.099
305.500	46.149	0.099
305.600	32.976	0.099
305.700	33.478	0.099
305.800	35.126	0.099
305.900	23.211	0.099
306.000	29.385	0.099
306.100	41.588	0.099
306.200	34.098	0.099
306.300	37.622	0.099
306.400	45.073	0.099
306.500	32.487	0.099
306.600	31.702	0.099
306.700	24.075	0.099
306.800	37.952	0.099
306.900	55.575	0.099
307.000	22.279	0.099
307.100	44.524	0.099
307.200	38.152	0.099
307.300	29.236	0.099
307.400	46.173	0.099
307.500	28.837	0.099
307.600	43.307	0.099
307.700	32.915	0.099
307.800	28.614	0.099
307.900	24.880	0.099
308.000	36.329	0.099
308.100	42.106	0.099
308.200	36.715	0.099
308.300	34.129	0.099
308.400	33.532	0.099
308.500	43.388	0.099
308.600	39.196	0.099
308.700	34.572	0.099
308.800	26.026	0.099
308.900	40.823	0.099
309.000	42.645	0.099
309.100	37.420	0.099
309.200	37.368	0.099
309.300	39.351	0.099
309.400	29.584	0.099
309.500	29.893	0.099
309.600	32.860	0.099
309.700	33.156	0.099
309.800	38.090	0.099
309.900	41.118	0.099
310.000	22.504	0.099
310.100	41.265	0.099
310.200	39.784	0.099
310.300	33.738	0.099
310.400	41.916	0.099
310.500	34.972	0.099
310.600	44.686	0.099
310.700	44.927	0.099
310.800	27.805	0.099
310.900	29.191	0.099
311.000	37.394	0.099
311.100	17.002	0.099
311.200	22.009	0.099
311.300	48.930	0.099
311.400	33.901	0.099
311.500	43.400	0.100
311.600	34.504	0.099
311.700	36.362	0.099
311.800	34.347	0.099
311.900	38.691	0.099
312.000	40.488	0.099
312.100	21.543	0.099
312.200	37.005	0.099
312.300	42.057	0.099
312.400	32.997	0.099
312.500	24.536	0.099
312.600	40.299	0.099
312.700	31.921	0.099
312.800	38.466	0.099
312.900	41.030	0.099
313.000	33.945	0.099
313.100	44.869	0.099
313.200	35.494	0.099
313.300	29.411	0.099
313.400	34.431	0.099
313.500	28.753	0.099
313.600	28.094	0.099
313.700	38.157	0.099
313.800	46.498	0.099
313.900	44.588	0.099
314.000	37.667	0.099
314.100	31.240	0.099
314.200	38.160	0.099
314.300	34.631	0.099
314.400	30.332	0.099
314.500	31.529	0.099
314.600	36.048	0.099
314.700	31.057	0.099
314.800	42.797	0.099
314.900	20.726	0.099
315.000	38.065	0.099
315.100	29.590	0.099
315.200	33.246	0.099
315.300	33.643	0.099
315.400	59.056	0.099
315.500	35.393	0.099
315.600	39.865	0.099
315.700	30.897	0.099
315.800	28.181	0.099
315.900	35.123	0.099
316.000	34.271	0.099
316.100	25.533	0.099
316.200	32.253	0.099
316.300	38.793	0.099
316.400	36.812	0.099
316.500	34.773	0.099
316.600	31.544	0.099
316.700	39.045	0.099
316.800	29.407	0.099
316.900	42.091	0.099
317.000	41.180	0.099
317.100	25.021	0.099
317.200	37.849	0.099
317.300	25.710	0.099
317.400	38.049	0.099
317.500	39.583	0.099
317.600	27.579	0.099
317.700	38.611	0.099
317.800	33.369	0.099
317.900	31.214	0.099
318.000	33.582	0.099
318.100	37.243	0.099
318.200	40.741	0.099
318.300	35.189	0.099
318.400	23.158	0.099
318.500	33.607	0.099
318.600	34.306	0.099
318.700	38.185	0.099
318.800	45.418	0.099
318.900	41.380	0.099
319.000	36.543	0.099
319.100	41.732	0.099
319.200	38.531	0.099
319.300	19.442	0.099
319.400	17.968	0.099
319.500	33.530	0.099
319.600	27.214	0.099
319.700	48.273	0.099
319.800	37.632	0.099
319.900	39.944	0.099
320.000	31.173	0.099
320.100	45.859	0.099
320.200	22.155	0.099
320.300	51.087	0.099
320.400	35.699	0.099
320.500	38.327	0.099
320.600	48.770	0.099
320.700	34.831	0.100
320.800	45.377	0.099
320.900	44.470	0.099
321.000	43.875	0.099
321.100	39.543	0.099
321.200	38.559	0.099
321.300	33.086	0.099
321.400	37.757	0.099
321.500	37.012	0.099
321.600	42.518	0.099
321.700	24.757	0.099
321.800	42.358	0.099
321.900	32.934	0.099
322.000	37.120	0.099
322.100	35.305	0.099
322.200	39.821	0.099
322.300	26.238	0.099
322.400	37.380	0.099
322.500	32.165	0.099
322.600	42.007	0.099
322.700	16.287	0.099
322.800	24.762	0.099
322.900	40.208	0.099
323.000	40.556	0.099
323.100	38.924	0.099
323.200	52.624	0.099
323.300	35.962	0.099
323.400	36.933	0.099
323.500	34.503	0.099
323.600	26.487	0.099
323.700	31.084	0.099
323.800	44.932	0.099
323.900	34.142	0.099
324.000	33.437	0.099
324.100	31.656	0.099
324.200	56.251	0.099
324.300	13.312	0.099
324.400	34.512	0.099
324.500	25.417	0.099
324.600	26.312	0.100
324.700	42.498	0.099
324.800	35.987	0.099
324.900	43.561	0.099
325.000	26.742	0.099
325.100	26.769	0.099
325.200	29.668	0.099
325.300	42.773	0.099
325.400	28.441	0.099
325.500	33.049	0.099
325.600	39.157	0.099
325.700	36.580	0.099
325.800	33.906	0.099
325.900	34.493	0.099
326.000	31.458	0.099
326.100	31.609	0.099
326.200	39.226	0.099
326.300	28.916	0.099
326.400	38.969	0.099
326.500	42.712	0.099
326.600	37.739	0.099
326.700	28.200	0.099
326.800	30.619	0.099
326.900	28.816	0.099
327.000	29.498	0.099
327.100	46.470	0.099
327.200	39.014	0.099
327.300	28.089	0.099
327.400	37.823	0.099
327.500	38.021	0.099
327.600	32.544	0.099
327.700	34.278	0.099
327.800	37.656	0.099
327.900	23.634	0.099
328.000	32.641	0.099
328.100	45.917	0.099
328.200	25.482	0.099
328.300	44.867	0.099
328.400	39.875	0.099
328.500	35.190	0.099
328.600	34.978	0.099
328.700	35.627	0.099
328.800	44.526	0.099
328.900	30.423	0.099
329.000	47.975	0.099
329.100	31.261	0.099
329.200	21.159	0.099
329.300	30.931	0.099
329.400	44.678	0.099
329.500	29.885	0.100
329.600	33.644	0.099
329.700	48.281	0.099
329.800	29.628	0.099
329.900	26.046	0.099
330.000	47.726	0.099
330.100	46.867	0.100
330.200	33.783	0.099
330.300	29.161	0.099
330.400	36.435	0.100
330.500	34.640	0.099
330.600	36.234	0.099
330.700	36.948	0.099
330.800	39.413	0.099
330.900	43.929	0.099
331.000	36.865	0.099
331.100	35.356	0.099
331.200	38.006	0.099
331.300	37.465	0.099
331.400	37.281	0.099
331.500	48.701	0.099
331.600	34.280	0.099
331.700	28.456	0.099
331.800	31.814	0.099
331.900	33.715	0.099
332.000	28.693	0.099
332.100	56.229	0.099
332.200	31.823	0.100
332.300	35.701	0.099
332.400	33.392	0.099
332.500	32.379	0.099
332.600	39.397	0.099
332.700	42.547	0.099
332.800	42.037	0.099
332.900	32.691	0.099
333.000	33.770	0.099
333.100	34.892	0.099
333.200	31.068	0.099
333.300	42.715	0.099
333.400	35.091	0.099
333.500	29.050	0.099
333.600	51.140	0.099
333.700	23.792	0.099
333.800	56.913	0.099
333.900	18.645	0.099
334.000	39.212	0.099
334.100	36.196	0.099
334.200	28.716	0.099
334.300	47.232	0.100
334.400	37.478	0.100
334.500	24.866	0.099
334.600	47.595	0.099
334.700	32.306	0.099
334.800	41.912	0.100
334.900	28.977	0.099
335.000	38.797	0.099
335.100	31.177	0.099
335.200	35.696	0.099
335.300	51.048	0.099
335.400	50.961	0.100
335.500	27.656	0.099
335.600	47.362	0.099
335.700	44.195	0.099
335.800	33.091	0.099
335.900	24.443	0.099
336.000	21.864	0.099
336.100	34.154	0.099
336.200	41.627	0.099
336.300	44.004	0.099
336.400	50.042	0.099
336.500	35.428	0.099
336.600	33.999	0.099
336.700	41.676	0.099
336.800	25.064	0.099
336.900	42.349	0.099
337.000	40.342	0.099
337.100	32.399	0.099
337.200	30.019	0.100
337.300	42.779	0.099
337.400	34.030	0.099
337.500	29.108	0.099
337.600	40.711	0.099
337.700	35.050	0.099
337.800	38.652	0.099
337.900	37.400	0.099
338.000	51.011	0.099
338.100	35.011	0.099
338.200	24.437	0.099
338.300	28.555	0.099
338.400	43.243	0.099
338.500	42.609	0.099
338.600	30.740	0.099
338.700	56.205	0.099
338.800	48.878	0.099
338.900	26.665	0.099
339.000	26.878	0.099
339.100	46.540	0.099
339.200	46.847	0.099
339.300	24.038	0.099
339.400	40.377	0.099
339.500	33.614	0.099
339.600	39.904	0.099
339.700	30.253	0.099
339.800	35.343	0.099
339.900	30.373	0.099
340.000	45.772	0.099
340.100	37.673	0.099
340.200	36.529	0.099
340.300	34.487	0.099
340.400	43.765	0.099
340.500	26.651	0.099
340.600	31.434	0.099
340.700	55.048	0.099
340.800	21.541	0.099
340.900	37.422	0.099
341.000	41.642	0.099
341.100	38.792	0.099
341.200	49.791	0.099
341.300	36.582	0.099
341.400	44.078	0.099
341.500	26.562	0.099
341.600	37.678	0.099
341.700	39.470	0.099
341.800	22.853	0.099
341.900	38.460	0.100
342.000	36.404	0.099
342.100	27.943	0.099
342.200	42.177	0.099
342.300	33.918	0.099
342.400	37.645	0.099
342.500	32.917	0.099
342.600	42.521	0.099
342.700	34.231	0.099
342.800	39.859	0.099
342.900	53.648	0.099
343.000	24.597	0.099
343.100	39.225	0.099
343.200	45.784	0.099
343.300	38.908	0.099
343.400	29.074	0.099
343.500	50.430	0.099
343.600	39.162	0.099
343.700	42.460	0.099
343.800	22.502	0.099
343.900	34.193	0.099
344.000	38.315	0.099
344.100	37.727	0.099
344.200	28.653	0.099
344.300	36.894	0.099
344.400	30.851	0.099
344.500	49.084	0.099
344.600	45.204	0.099
344.700	23.307	0.099
344.800	47.330	0.099
344.900	36.591	0.099
345.000	40.307	0.100
345.100	22.411	0.099
345.200	22.639	0.100
345.300	61.537	0.099
345.400	30.560	0.099
345.500	61.652	0.099
345.600	34.964	0.099
345.700	30.325	0.099
345.800	18.675	0.099
345.900	30.914	0.099
346.000	32.385	0.099
346.100	40.909	0.099
346.200	29.714	0.099
346.300	54.249	0.099
346.400	45.607	0.099
346.500	37.582	0.099
346.600	33.336	0.099
346.700	35.796	0.099
346.800	32.918	0.099
346.900	33.966	0.099
347.000	42.025	0.099
347.100	36.428	0.099
347.200	32.662	0.099
347.300	37.365	0.099
347.400	24.698	0.099
347.500	36.796	0.099
347.600	45.402	0.099
347.700	41.067	0.099
347.800	40.437	0.099
347.900	42.450	0.099
348.000	34.001	0.099
348.100	32.381	0.099
348.200	38.319	0.099
348.300	47.781	0.099
348.400	28.239	0.099
348.500	34.169	0.099
348.600	29.234	0.099
348.700	30.290	0.099
348.800	27.588	0.099
348.900	52.209	0.099
349.000	32.996	0.099
349.100	24.994	0.099
349.200	52.845	0.099
349.300	42.234	0.099
349.400	45.366	0.099
349.500	35.095	0.099
349.600	37.763	0.099
349.700	33.928	0.099
349.800	29.472	0.099
349.900	45.472	0.099
350.000	46.002	0.099
350.100	32.584	0.099
350.200	37.860	0.099
350.300	37.205	0.099
350.400	55.642	0.099
350.500	31.628	0.099
350.600	27.348	0.099
350.700	50.994	0.099
350.800	47.033	0.099
350.900	35.664	0.099
351.000	35.605	0.099
351.100	38.051	0.099
351.200	39.723	0.099
351.300	46.375	0.099
351.400	33.613	0.099
351.500	35.761	0.099
351.600	31.278	0.099
351.700	41.727	0.099
351.800	35.764	0.099
351.900	36.975	0.099
352.000	22.001	0.099
352.100	32.718	0.099
352.200	30.292	0.099
352.300	34.365	0.099
352.400	41.288	0.099
352.500	40.325	0.099
352.600	29.514	0.099
352.700	49.292	0.099
352.800	32.257	0.099
352.900	20.942	0.099
353.000	36.254	0.099
353.100	40.929	0.099
353.200	23.039	0.099
353.300	41.202	0.099
353.400	45.998	0.099
353.500	28.305	0.099
353.600	51.072	0.099
353.700	20.510	0.099
353.800	43.725	0.099
353.900	49.009	0.099
354.000	55.287	0.099
354.100	22.272	0.099
354.200	37.653	0.100
354.300	25.233	0.099
354.400	40.396	0.099
354.500	45.065	0.099
354.600	35.149	0.099
354.700	39.855	0.099
354.800	38.852	0.099
354.900	38.788	0.099
355.000	30.451	0.099
355.100	15.929	0.099
355.200	35.017	0.099
355.300	40.278	0.099
355.400	48.196	0.099
355.500	35.382	0.099
355.600	33.390	0.099
355.700	30.707	0.099
355.800	42.933	0.099
355.900	29.371	0.099
356.000	41.965	0.099
356.100	37.872	0.099
356.200	41.589	0.099
356.300	21.871	0.099
356.400	44.236	0.099
356.500	40.594	0.099
356.600	36.269	0.099
356.700	43.707	0.099
356.800	40.189	0.099
356.900	35.475	0.099
357.000	28.991	0.099
357.100	26.911	0.099
357.200	28.543	0.099
357.300	41.500	0.099
357.400	46.470	0.099
357.500	32.579	0.099
357.600	37.905	0.099
357.700	26.230	0.099
357.800	31.510	0.099
357.900	42.431	0.099
358.000	32.131	0.099
358.100	32.620	0.099
358.200	34.261	0.099
358.300	34.053	0.099
358.400	28.068	0.099
358.500	24.353	0.099
358.600	47.785	0.099
358.700	26.753	0.099
358.800	37.021	0.099
358.900	36.705	0.099
359.000	45.064	0.099
359.100	57.662	0.099
359.200	39.827	0.099
359.300	33.002	0.099
359.400	30.745	0.099
359.500	26.921	0.099
359.600	36.852	0.099
359.700	48.081	0.099
359.800	46.118	0.099
359.900	36.152	0.099
360.000	25.714	0.099
360.100	28.780	0.099
360.200	37.184	0.099
360.300	25.978	0.099
360.400	32.789	0.099
360.500	25.460	0.099
360.600	48.511	0.099
360.700	41.865	0.099
360.800	29.178	0.099
360.900	46.060	0.099
361.000	44.461	0.099
361.100	35.598	0.099
361.200	34.943	0.099
361.300	46.410	0.099
361.400	43.434	0.099
361.500	25.651	0.099
361.600	40.417	0.099
361.700	44.936	0.099
361.800	34.014	0.099
361.900	38.653	0.099
362.000	29.361	0.099
362.100	43.667	0.099
362.200	25.361	0.099
362.300	35.309	0.099
362.400	28.065	0.099
362.500	52.550	0.099
362.600	37.956	0.099
362.700	42.054	0.099
362.800	27.716	0.099
362.900	35.740	0.099
363.000	34.062	0.099
363.100	32.422	0.099
363.200	40.106	0.099
363.300	46.716	0.099
363.400	39.471	0.099
363.500	31.786	0.099
363.600	44.529	0.099
363.700	50.815	0.099
363.800	38.061	0.099
363.900	35.367	0.099
364.000	40.108	0.099
364.100	32.152	0.099
364.200	37.247	0.099
364.300	34.631	0.099
364.400	30.560	0.099
364.500	32.890	0.099
364.600	34.477	0.099
364.700	40.277	0.099
364.800	32.021	0.099
364.900	35.585	0.099
365.000	30.262	0.099
365.100	36.313	0.099
365.200	25.911	0.099
365.300	29.442	0.099
365.400	38.073	0.099
365.500	33.093	0.099
365.600	48.894	0.099
365.700	41.208	0.099
365.800	25.195	0.100
365.900	37.554	0.099
366.000	29.340	0.099
366.100	20.830	0.099
366.200	42.796	0.099
366.300	34.174	0.099
366.400	36.243	0.099
366.500	48.918	0.099
366.600	28.428	0.099
366.700	36.834	0.099
366.800	27.895	0.099
366.900	39.464	0.099
367.000	46.630	0.099
367.100	13.604	0.099
367.200	30.944	0.099
367.300	50.137	0.099
367.400	34.123	0.099
367.500	38.019	0.099
367.600	27.166	0.099
367.700	37.291	0.099
367.800	46.624	0.099
367.900	27.166	0.099
368.000	42.866	0.099
368.100	27.694	0.099
368.200	37.617	0.099
368.300	40.716	0.099
368.400	34.177	0.099
368.500	31.048	0.099
368.600	40.012	0.099
368.700	36.309	0.099
368.800	33.281	0.099
368.900	47.766	0.099
369.000	27.490	0.099
369.100	31.533	0.099
369.200	32.360	0.099
369.300	38.755	0.099
369.400	40.032	0.099
369.500	30.284	0.099
369.600	34.188	0.099
369.700	42.908	0.099
369.800	29.215	0.099
369.900	42.108	0.099
370.000	34.922	0.099
370.100	35.816	0.099
370.200	38.913	0.099
370.300	32.061	0.099
370.400	29.070	0.099
370.500	38.827	0.099
370.600	37.745	0.099
370.700	36.405	0.099
370.800	34.075	0.099
370.900	39.918	0.099
371.000	31.050	0.099
371.100	38.022	0.099
371.200	33.407	0.099
371.300	39.105	0.099
371.400	34.349	0.099
371.500	40.515	0.099
371.600	43.775	0.099
371.700	32.861	0.099
371.800	35.990	0.099
371.900	36.030	0.099
372.000	18.563	0.099
372.100	38.199	0.099
372.200	22.236	0.099
372.300	54.617	0.099
372.400	19.687	0.099
372.500	34.472	0.099
372.600	35.093	0.099
372.700	53.273	0.099
372.800	38.124	0.099
372.900	28.063	0.099
373.000	31.497	0.099
373.100	49.946	0.099
373.200	45.163	0.099
373.300	42.595	0.099
373.400	46.397	0.099
373.500	32.923	0.099
373.600	27.322	0.099
373.700	15.659	0.099
373.800	28.653	0.099
373.900	50.838	0.099
374.000	34.442	0.099
374.100	44.212	0.099
374.200	33.975	0.099
374.300	37.128	0.099
374.400	35.787	0.099
374.500	33.073	0.099
374.600	23.602	0.099
374.700	26.332	0.099
374.800	47.314	0.099
374.900	42.846	0.099
375.000	24.518	0.099
375.100	33.425	0.099
375.200	20.573	0.099
375.300	48.302	0.099
375.400	36.227	0.099
375.500	40.858	0.099
375.600	39.035	0.099
375.700	42.167	0.099
375.800	25.588	0.100
375.900	34.430	0.099
376.000	38.919	0.099
376.100	26.197	0.099
376.200	28.766	0.099
376.300	26.217	0.099
376.400	30.069	0.099
376.500	49.154	0.099
376.600	26.045	0.099
376.700	34.286	0.099
376.800	34.265	0.099
376.900	34.509	0.099
377.000	37.414	0.099
377.100	42.723	0.099
377.200	17.395	0.099
377.300	41.837	0.099
377.400	37.109	0.099
377.500	40.453	0.099
377.600	46.349	0.099
377.700	26.353	0.099
377.800	41.316	0.099
377.900	40.268	0.099
378.000	27.701	0.099
378.100	45.698	0.099
378.200	25.112	0.099
378.300	42.726	0.099
378.400	42.924	0.099
378.500	43.874	0.099
378.600	26.163	0.099
378.700	35.797	0.099
378.800	43.335	0.099
378.900	36.793	0.099
379.000	29.244	0.099
379.100	40.825	0.099
379.200	41.297	0.099
379.300	34.305	0.099
379.400	34.096	0.099
379.500	43.993	0.099
379.600	32.887	0.099
379.700	18.357	0.099
379.800	38.429	0.099
379.900	31.469	0.099
380.000	34.142	0.099
380.100	25.558	0.099
380.200	38.293	0.099
380.300	29.932	0.099
380.400	33.503	0.099
380.500	43.247	0.099
380.600	36.011	0.099
380.700	36.055	0.099
380.800	35.963	0.099
380.900	33.690	0.099
381.000	36.367	0.099
381.100	40.727	0.099
381.200	37.413	0.099
381.300	28.905	0.099
381.400	35.570	0.099
381.500	36.607	0.099
381.600	39.135	0.099
381.700	22.914	0.099
381.800	36.809	0.099
381.900	36.105	0.099
382.000	34.861	0.099
382.100	27.377	0.099
382.200	36.026	0.099
382.300	34.607	0.099
382.400	24.129	0.099
382.500	36.027	0.099
382.600	38.989	0.099
382.700	51.631	0.099
382.800	33.242	0.099
382.900	43.435	0.099
383.000	33.314	0.099
383.100	49.001	0.099
383.200	39.132	0.099
383.300	43.032	0.099
383.400	30.600	0.099
383.500	42.226	0.099
383.600	30.387	0.099
383.700	35.583	0.099
383.800	38.316	0.099
383.900	31.048	0.099
384.000	30.043	0.099
384.100	37.257	0.099
384.200	37.237	0.099
384.300	32.393	0.099
384.400	43.877	0.099
384.500	40.016	0.099
384.600	32.976	0.099
384.700	28.565	0.099
384.800	34.716	0.099
384.900	28.451	0.099
385.000	36.638	0.099
385.100	41.095	0.099
385.200	32.986	0.099
385.300	17.610	0.099
385.400	42.337	0.099
385.500	25.976	0.099
385.600	33.397	0.099
385.700	35.469	0.099
385.800	24.816	0.099
385.900	47.148	0.099
386.000	32.625	0.099
386.100	20.457	0.099
386.200	35.810	0.099
386.300	34.221	0.099
386.400	32.702	0.099
386.500	40.591	0.099
386.600	34.912	0.099
386.700	20.934	0.099
386.800	37.258	0.099
386.900	39.523	0.099
387.000	29.091	0.099
387.100	28.916	0.099
387.200	28.682	0.099
387.300	32.904	0.099
387.400	56.880	0.099
387.500	34.918	0.099
387.600	34.559	0.099
387.700	35.085	0.099
387.800	27.892	0.099
387.900	33.456	0.099
388.000	30.112	0.099
388.100	40.659	0.099
388.200	30.655	0.099
388.300	41.411	0.099
388.400	29.337	0.099
388.500	48.699	0.099
388.600	42.751	0.099
388.700	30.325	0.099
388.800	22.980	0.099
388.900	31.910	0.099
389.000	29.341	0.099
389.100	40.714	0.099
389.200	37.941	0.099
389.300	37.863	0.099
389.400	23.776	0.099
389.500	38.770	0.099
389.600	31.813	0.099
389.700	38.685	0.099
389.800	27.514	0.099
389.900	50.747	0.099
390.000	41.385	0.099
390.100	33.192	0.099
390.200	31.268	0.099
390.300	22.364	0.099
390.400	38.756	0.099
390.500	47.382	0.099
390.600	35.162	0.099
390.700	24.527	0.099
390.800	44.450	0.099
390.900	23.018	0.099
391.000	25.663	0.099
391.100	46.164	0.099
391.200	45.925	0.099
391.300	49.772	0.099
391.400	21.373	0.099
391.500	40.604	0.099
391.600	31.247	0.099
391.700	44.201	0.099
391.800	38.541	0.099
391.900	44.511	0.099
392.000	36.998	0.099
392.100	30.375	0.099
392.200	41.050	0.099
392.300	32.888	0.099
392.400	28.731	0.099
392.500	35.509	0.099
392.600	48.639	0.099
392.700	43.974	0.099
392.800	38.890	0.099
392.900	37.007	0.099
393.000	18.803	0.099
393.100	43.057	0.099
393.200	19.927	0.099
393.300	33.035	0.099
393.400	23.647	0.099
393.500	46.620	0.099
393.600	45.236	0.099
393.700	39.063	0.099
393.800	33.739	0.099
393.900	39.279	0.099
394.000	41.017	0.099
394.100	36.799	0.099
394.200	33.992	0.099
394.300	32.922	0.099
394.400	23.671	0.099
394.500	44.485	0.099
394.600	36.266	0.099
394.700	25.291	0.099
394.800	43.276	0.099
394.900	38.499	0.099
395.000	38.434	0.099
395.100	26.165	0.099
395.200	26.335	0.099
395.300	38.444	0.099
395.400	40.028	0.099
395.500	20.201	0.099
395.600	39.126	0.099
395.700	38.606	0.099
395.800	16.771	0.099
395.900	46.541	0.099
396.000	40.185	0.099
396.100	6.360	0.099
396.200	39.057	0.099
396.300	40.924	0.099
396.400	37.220	0.099
396.500	18.207	0.099
396.600	45.434	0.099
396.700	32.519	0.099
396.800	22.749	0.099
396.900	27.189	0.099
397.000	45.249	0.099
397.100	46.860	0.099
397.200	38.599	0.099
397.300	30.530	0.099
397.400	38.105	0.099
397.500	37.517	0.099
397.600	32.929	0.099
397.700	27.202	0.099
397.800	31.426	0.099
397.900	33.617	0.099
398.000	27.692	0.099
398.100	33.710	0.099
398.200	26.679	0.099
398.300	38.068	0.099
398.400	29.184	0.099
398.500	31.977	0.099
398.600	38.531	0.099
398.700	34.876	0.099
398.800	31.371	0.099
398.900	27.210	0.099
399.000	43.953	0.099
399.100	34.346	0.099
399.200	28.301	0.099
399.300	24.223	0.099
399.400	37.792	0.099
399.500	33.419	0.099
399.600	28.501	0.099
399.700	34.184	0.099
399.800	45.449	0.099
399.900	41.693	0.099
400.000	36.336	0.099
400.100	28.619	0.099
400.200	31.082	0.099
400.300	44.310	0.099
400.400	27.701	0.100
400.500	41.282	0.099
400.600	38.235	0.099
400.700	32.046	0.099
400.800	24.682	0.099
400.900	52.382	0.099
401.000	31.784	0.099
401.100	36.295	0.099
401.200	45.687	0.099
401.300	22.687	0.099
401.400	44.052	0.099
401.500	23.845	0.099
401.600	34.415	0.099
401.700	34.006	0.099
401.800	22.375	0.099
401.900	40.332	0.099
402.000	38.719	0.099
402.100	33.813	0.099
402.200	26.961	0.099
402.300	43.670	0.099
402.400	44.745	0.099
402.500	36.792	0.099
402.600	35.572	0.099
402.700	27.353	0.099
402.800	47.500	0.099
402.900	24.224	0.099
403.000	35.525	0.099
403.100	27.197	0.099
403.200	31.199	0.099
403.300	33.661	0.099
403.400	52.514	0.099
403.500	23.354	0.099
403.600	39.528	0.099
403.700	31.482	0.099
403.800	42.227	0.099
403.900	34.698	0.099
404.000	23.505	0.099
404.100	48.753	0.099
404.200	37.327	0.099
404.300	36.884	0.099
404.400	28.413	0.099
404.500	28.552	0.099
404.600	20.941	0.099
404.700	37.300	0.099
404.800	47.079	0.099
404.900	28.211	0.099
405.000	33.013	0.099
405.100	14.829	0.099
405.200	39.362	0.099
405.300	17.426	0.099
405.400	28.950	0.099
405.500	43.011	0.099
405.600	28.437	0.099
405.700	23.783	0.099
405.800	32.914	0.099
405.900	37.371	0.099
406.000	41.818	0.099
406.100	37.877	0.099
406.200	31.928	0.099
406.300	26.926	0.099
406.400	31.831	0.099
406.500	35.609	0.099
406.600	28.280	0.099
406.700	39.181	0.099
406.800	31.915	0.099
406.900	29.314	0.099
407.000	30.406	0.099
407.100	36.404	0.099
407.200	37.714	0.099
407.300	34.923	0.099
407.400	33.795	0.099
407.500	25.285	0.099
407.600	25.346	0.099
407.700	38.147	0.099
407.800	24.465	0.099
407.900	41.058	0.099
408.000	23.706	0.099
408.100	31.669	0.099
408.200	37.578	0.099
408.300	25.415	0.099
408.400	24.273	0.099
408.500	42.443	0.099
408.600	30.582	0.099
408.700	40.594	0.099
408.800	35.435	0.099
408.900	15.733	0.099
409.000	27.056	0.099
409.100	28.665	0.099
409.200	47.361	0.099
409.300	38.229	0.099
409.400	33.840	0.099
409.500	36.828	0.099
409.600	17.284	0.099
409.700	39.167	0.099
409.800	59.590	0.099
409.900	32.766	0.099
410.000	39.462	0.099
410.100	33.785	0.099
410.200	28.609	0.099
410.300	37.675	0.099
410.400	34.515	0.099
410.500	18.212	0.099
410.600	38.654	0.099
410.700	44.181	0.099
410.800	35.546	0.099
410.900	26.497	0.099
411.000	26.400	0.099
411.100	30.074	0.099
411.200	36.870	0.099
411.300	30.637	0.099
411.400	34.604	0.099
411.500	52.130	0.099
411.600	28.258	0.099
411.700	23.630	0.099
411.800	30.339	0.099
411.900	12.182	0.099
412.000	36.674	0.099
412.100	39.435	0.099
412.200	23.910	0.099
412.300	36.260	0.099
412.400	38.400	0.099
412.500	41.307	0.099
412.600	43.017	0.099
412.700	34.428	0.099
412.800	48.639	0.099
412.900	25.248	0.099
413.000	41.088	0.099
413.100	48.815	0.099
413.200	24.493	0.099
413.300	23.251	0.099
413.400	49.166	0.099
413.500	42.776	0.099
413.600	34.587	0.099
413.700	27.569	0.099
413.800	45.333	0.099
413.900	27.663	0.099
414.000	39.221	0.099
414.100	35.686	0.099
414.200	33.420	0.099
414.300	37.477	0.099
414.400	30.555	0.099
414.500	38.460	0.099
414.600	31.031	0.099
414.700	27.076	0.099
414.800	42.322	0.099
414.900	34.823	0.099
415.000	23.240	0.099
415.100	40.974	0.099
415.200	34.317	0.099
415.300	40.775	0.099
415.400	13.651	0.099
415.500	33.764	0.099
415.600	45.903	0.099
415.700	45.504	0.099
415.800	22.566	0.099
415.900	30.607	0.099
416.000	28.635	0.099
416.100	34.055	0.099
416.200	40.609	0.099
416.300	35.764	0.099
416.400	33.769	0.099
416.500	34.307	0.099
416.600	28.068	0.099
416.700	31.540	0.099
416.800	39.015	0.099
416.900	32.295	0.099
417.000	48.384	0.099
417.100	24.757	0.099
417.200	53.169	0.099
417.300	25.870	0.099
417.400	34.087	0.099
417.500	19.288	0.099
417.600	25.909	0.099
417.700	43.648	0.099
417.800	38.920	0.099
417.900	29.761	0.099
418.000	37.918	0.099
418.100	30.395	0.099
418.200	34.004	0.099
418.300	26.014	0.099
418.400	39.521	0.099
418.500	19.893	0.099
418.600	33.485	0.099
418.700	36.839	0.099
418.800	26.860	0.099
418.900	18.120	0.099
419.000	43.389	0.099
419.100	39.882	0.099
419.200	42.178	0.099
419.300	26.852	0.099
419.400	25.952	0.099
419.500	38.573	0.099
419.600	32.568	0.099
419.700	32.839	0.099
419.800	40.344	0.099
419.900	38.501	0.099
420.000	39.588	0.099
420.100	33.267	0.099
420.200	30.541	0.099
420.300	28.026	0.099
420.400	34.326	0.099
420.500	23.244	0.099
420.600	26.453	0.099
420.700	37.627	0.099
420.800	29.151	0.099
420.900	20.595	0.099
421.000	23.436	0.099
421.100	36.919	0.099
421.200	42.824	0.099
421.300	42.406	0.099
421.400	34.227	0.099
421.500	10.161	0.099
421.600	35.863	0.099
421.700	32.561	0.099
421.800	40.932	0.099
421.900	30.513	0.099
422.000	34.530	0.099
422.100	22.378	0.099
422.200	32.806	0.099
422.300	31.038	0.099
422.400	41.105	0.099
422.500	31.427	0.099
422.600	44.593	0.099
422.700	32.881	0.099
422.800	44.875	0.099
422.900	29.319	0.099
423.000	33.576	0.099
423.100	31.451	0.099
423.200	17.466	0.099
423.300	43.403	0.099
423.400	27.576	0.099
423.500	27.992	0.099
423.600	41.534	0.099
423.700	38.146	0.099
423.800	37.609	0.099
423.900	33.586	0.099
424.000	45.399	0.099
424.100	36.781	0.099
424.200	37.544	0.099
424.300	34.313	0.099
424.400	30.513	0.099
424.500	36.867	0.099
424.600	20.076	0.099
424.700	36.262	0.099
424.800	40.418	0.099
424.900	39.860	0.099
425.000	30.476	0.099
425.100	37.824	0.099
425.200	42.943	0.099
425.300	30.457	0.099
425.400	41.105	0.099
425.500	27.053	0.099
425.600	31.668	0.099
425.700	32.106	0.099
425.800	43.503	0.099
425.900	29.332	0.099
426.000	42.800	0.099
426.100	49.712	0.099
426.200	16.441	0.099
426.300	44.266	0.099
426.400	23.420	0.099
426.500	39.533	0.099
426.600	36.774	0.099
426.700	29.923	0.099
426.800	33.123	0.099
426.900	38.770	0.099
427.000	21.474	0.099
427.100	39.045	0.099
427.200	37.359	0.099
427.300	42.976	0.099
427.400	30.651	0.099
427.500	44.809	0.099
427.600	20.361	0.099
427.700	34.130	0.099
427.800	42.727	0.099
427.900	39.868	0.099
428.000	32.390	0.099
428.100	40.183	0.099
428.200	24.586	0.099
428.300	26.433	0.099
428.400	41.153	0.099
428.500	43.227	0.099
428.600	25.329	0.099
428.700	33.298	0.099
428.800	34.091	0.099
428.900	39.272	0.099
429.000	38.982	0.099
429.100	24.572	0.099
429.200	42.828	0.099
429.300	36.781	0.099
429.400	20.661	0.099
429.500	35.560	0.099
429.600	28.676	0.099
429.700	33.827	0.099
429.800	36.239	0.099
429.900	29.563	0.099
430.000	46.791	0.099
430.100	25.810	0.099
430.200	38.580	0.099
430.300	43.024	0.099
430.400	20.696	0.099
430.500	39.661	0.099
430.600	32.251	0.099
430.700	29.692	0.099
430.800	39.768	0.099
430.900	38.250	0.099
431.000	36.285	0.099
431.100	25.438	0.099
431.200	35.919	0.099
431.300	24.361	0.099
431.400	30.174	0.099
431.500	27.442	0.099
431.600	44.996	0.099
431.700	35.273	0.099
431.800	31.323	0.099
431.900	42.830	0.099
432.000	31.457	0.099
432.100	45.455	0.099
432.200	37.284	0.099
432.300	37.972	0.099
432.400	19.627	0.099
432.500	33.323	0.099
432.600	28.063	0.099
432.700	46.837	0.099
432.800	38.398	0.099
432.900	32.069	0.099
433.000	39.732	0.099
433.100	33.185	0.099
433.200	31.608	0.099
433.300	34.309	0.099
433.400	40.223	0.099
433.500	41.732	0.099
433.600	41.093	0.099
433.700	23.745	0.099
433.800	36.677	0.099
433.900	32.890	0.099
434.000	43.245	0.099
434.100	24.949	0.099
434.200	38.463	0.099
434.300	34.772	0.099
434.400	13.747	0.099
434.500	28.627	0.099
434.600	36.159	0.099
434.700	54.094	0.099
434.800	35.518	0.099
434.900	22.579	0.099
435.000	39.783	0.099
435.100	34.891	0.099
435.200	31.991	0.099
435.300	21.857	0.099
435.400	31.898	0.099
435.500	41.359	0.099
435.600	30.787	0.099
435.700	31.217	0.099
435.800	26.244	0.099
435.900	43.663	0.099
436.000	40.001	0.099
436.100	46.785	0.099
436.200	26.525	0.099
436.300	32.477	0.099
436.400	46.955	0.099
436.500	43.287	0.099
436.600	31.917	0.099
436.700	24.280	0.099
436.800	34.130	0.099
436.900	36.206	0.099
437.000	38.077	0.099
437.100	29.847	0.099
437.200	47.037	0.099
437.300	17.898	0.099
437.400	28.102	0.099
437.500	22.190	0.099
437.600	24.490	0.099
437.700	39.198	0.099
437.800	47.831	0.099
437.900	36.992	0.099
438.000	37.049	0.100
438.100	35.218	0.099
438.200	32.175	0.099
438.300	39.553	0.099
438.400	28.402	0.099
438.500	21.578	0.099
438.600	43.294	0.099
438.700	31.711	0.099
438.800	37.870	0.099
438.900	39.877	0.099
439.000	31.717	0.099
439.100	33.419	0.099
439.200	37.542	0.099
439.300	40.849	0.099
439.400	31.645	0.099
439.500	29.781	0.099
439.600	35.875	0.099
439.700	49.138	0.099
439.800	32.492	0.099
439.900	37.189	0.099
440.000	35.420	0.099
440.100	34.702	0.099
440.200	29.953	0.099
440.300	62.150	0.099
440.400	22.362	0.099
440.500	48.706	0.099
440.600	20.908	0.099
440.700	37.253	0.099
440.800	52.260	0.099
440.900	31.272	0.099
441.000	28.788	0.099
441.100	30.840	0.099
441.200	34.328	0.099
441.300	38.709	0.099
441.400	36.845	0.099
441.500	49.996	0.099
441.600	15.407	0.099
441.700	36.930	0.099
441.800	25.229	0.099
441.900	31.457	0.099
442.000	34.533	0.099
442.100	30.291	0.099
442.200	38.637	0.099
442.300	41.052	0.099
442.400	25.592	0.099
442.500	34.347	0.099
442.600	47.999	0.099
442.700	51.084	0.099
442.800	32.232	0.099
442.900	40.272	0.099
443.000	37.800	0.099
443.100	22.781	0.099
443.200	36.195	0.099
443.300	46.589	0.099
443.400	45.291	0.099
443.500	16.638	0.099
443.600	56.170	0.099
443.700	25.886	0.099
443.800	30.400	0.099
443.900	35.798	0.099
444.000	49.361	0.099
444.100	25.598	0.099
444.200	30.207	0.099
444.300	37.968	0.099
444.400	27.126	0.099
444.500	43.653	0.099
444.600	39.477	0.099
444.700	28.438	0.099
444.800	24.842	0.099
444.900	31.792	0.099
445.000	22.676	0.099
445.100	47.665	0.099
445.200	37.094	0.099
445.300	34.499	0.099
445.400	27.165	0.099
445.500	27.635	0.099
445.600	40.015	0.099
445.700	37.763	0.099
445.800	23.543	0.099
445.900	48.037	0.099
446.000	34.515	0.099
446.100	42.317	0.099
446.200	28.265	0.099
446.300	37.425	0.099
446.400	41.502	0.099
446.500	40.217	0.099
446.600	27.503	0.099
446.700	39.075	0.099
446.800	26.002	0.099
446.900	24.699	0.099
447.000	50.515	0.099
447.100	40.724	0.099
447.200	38.280	0.099
447.300	39.760	0.099
447.400	29.385	0.099
447.500	35.541	0.099
447.600	30.592	0.099
447.700	20.539	0.099
447.800	53.755	0.099
447.900	15.983	0.099
448.000	32.548	0.099
448.100	29.455	0.099
448.200	34.795	0.099
448.300	38.049	0.099
448.400	36.055	0.099
448.500	27.903	0.099
448.600	36.629	0.099
448.700	29.143	0.099
448.800	46.767	0.099
448.900	28.251	0.099
449.000	40.538	0.099
449.100	40.577	0.099
449.200	36.110	0.099
449.300	33.820	0.099
449.400	28.417	0.099
449.500	24.594	0.099
449.600	31.454	0.099
449.700	35.708	0.099
449.800	40.347	0.099
449.900	30.020	0.099
450.000	38.528	0.099
450.100	34.811	0.099
450.200	39.008	0.099
450.300	33.909	0.099
450.400	52.856	0.099
450.500	31.340	0.099
450.600	22.232	0.099
450.700	27.297	0.099
450.800	46.030	0.099
450.900	34.837	0.099
451.000	47.070	0.099
451.100	18.172	0.099
451.200	41.090	0.099
451.300	25.261	0.099
451.400	44.599	0.099
451.500	37.502	0.099
451.600	46.041	0.099
451.700	42.030	0.099
451.800	35.912	0.099
451.900	34.301	0.099
452.000	35.122	0.099
452.100	41.300	0.099
452.200	28.874	0.099
452.300	32.685	0.099
452.400	41.402	0.099
452.500	23.561	0.099
452.600	25.558	0.099
452.700	47.760	0.099
452.800	30.637	0.099
452.900	38.340	0.099
453.000	34.574	0.099
453.100	20.911	0.099
453.200	41.593	0.099
453.300	33.792	0.099
453.400	48.308	0.099
453.500	26.064	0.099
453.600	36.579	0.099
453.700	31.359	0.099
453.800	39.959	0.099
453.900	34.498	0.099
454.000	46.376	0.099
454.100	30.156	0.099
454.200	36.024	0.099
454.300	34.311	0.099
454.400	28.727	0.099
454.500	30.378	0.099
454.600	33.662	0.099
454.700	37.828	0.099
454.800	37.035	0.099
454.900	43.784	0.099
455.000	38.680	0.099
455.100	34.539	0.099
455.200	30.813	0.099
455.300	37.839	0.099
455.400	26.124	0.099
455.500	26.663	0.099
455.600	34.499	0.099
455.700	35.529	0.099
455.800	39.295	0.099
455.900	32.808	0.099
456.000	34.695	0.099
456.100	31.202	0.099
456.200	32.750	0.099
456.300	27.058	0.099
456.400	27.523	0.099
456.500	51.305	0.099
456.600	34.728	0.099
456.700	32.775	0.099
456.800	40.610	0.099
456.900	26.345	0.099
457.000	17.604	0.099
457.100	47.464	0.099
457.200	41.391	0.099
457.300	38.545	0.099
457.400	41.296	0.099
457.500	30.882	0.099
457.600	41.887	0.099
457.700	40.870	0.099
457.800	46.637	0.099
457.900	31.315	0.099
458.000	30.286	0.099
458.100	33.802	0.099
458.200	35.930	0.099
458.300	23.159	0.099
458.400	32.581	0.099
458.500	42.475	0.099
458.600	46.518	0.099
458.700	27.627	0.099
458.800	41.142	0.099
458.900	31.062	0.099
459.000	48.255	0.099
459.100	14.370	0.099
459.200	26.672	0.099
459.300	32.865	0.099
459.400	34.653	0.099
459.500	38.509	0.099
459.600	45.259	0.099
459.700	34.418	0.099
459.800	34.471	0.099
459.900	29.491	0.099
460.000	30.399	0.099
460.100	28.743	0.099
460.200	34.708	0.099
460.300	40.681	0.099
460.400	23.837	0.099
460.500	39.687	0.099
460.600	33.347	0.099
460.700	33.600	0.099
460.800	38.436	0.099
460.900	34.659	0.099
461.000	28.533	0.099
461.100	46.236	0.099
461.200	24.194	0.099
461.300	29.130	0.099
461.400	30.732	0.099
461.500	37.247	0.099
461.600	37.404	0.099
461.700	39.309	0.099
461.800	30.166	0.099
461.900	27.579	0.099
462.000	40.218	0.099
462.100	29.789	0.099
462.200	46.639	0.099
462.300	41.933	0.099
462.400	36.662	0.099
462.500	39.150	0.099
462.600	45.616	0.099
462.700	32.901	0.099
462.800	41.577	0.099
462.900	36.301	0.099
463.000	34.258	0.099
463.100	29.275	0.099
463.200	36.736	0.099
463.300	49.081	0.099
463.400	37.598	0.099
463.500	22.509	0.099
463.600	36.166	0.099
463.700	16.397	0.099
463.800	50.261	0.099
463.900	46.240	0.099
464.000	33.644	0.099
464.100	31.145	0.099
464.200	41.130	0.099
464.300	33.891	0.099
464.400	37.332	0.099
464.500	38.007	0.099
464.600	24.987	0.099
464.700	19.297	0.099
464.800	38.853	0.099
464.900	37.407	0.099
465.000	29.280	0.099
465.100	47.251	0.099
465.200	32.315	0.099
465.300	34.343	0.099
465.400	42.455	0.099
465.500	39.019	0.099
465.600	33.140	0.099
465.700	54.143	0.099
465.800	52.347	0.099
465.900	29.250	0.099
466.000	25.103	0.099
466.100	11.633	0.099
466.200	34.754	0.099
466.300	49.366	0.099
466.400	40.806	0.099
466.500	31.604	0.099
466.600	35.476	0.099
466.700	28.023	0.099
466.800	38.466	0.099
466.900	37.066	0.099
467.000	30.319	0.099
467.100	46.854	0.099
467.200	32.480	0.099
467.300	26.904	0.099
467.400	33.440	0.099
467.500	31.664	0.099
467.600	43.351	0.099
467.700	32.120	0.099
467.800	26.684	0.099
467.900	32.423	0.099
468.000	49.743	0.099
468.100	39.515	0.099
468.200	30.472	0.099
468.300	36.930	0.099
468.400	36.252	0.099
468.500	40.962	0.099
468.600	30.732	0.099
468.700	34.443	0.099
468.800	30.594	0.099
468.900	33.381	0.099
469.000	43.046	0.099
469.100	45.173	0.099
469.200	25.791	0.099
469.300	16.219	0.099
469.400	44.069	0.099
469.500	42.353	0.099
469.600	24.081	0.099
469.700	34.902	0.099
469.800	52.375	0.099
469.900	27.521	0.099
470.000	28.607	0.099
470.100	49.974	0.099
470.200	41.785	0.099
470.300	28.499	0.099
470.400	17.692	0.099
470.500	45.969	0.099
470.600	35.519	0.099
470.700	34.143	0.099
470.800	40.228	0.099
470.900	39.304	0.099
471.000	42.510	0.099
471.100	32.644	0.099
471.200	33.719	0.099
471.300	37.353	0.099
471.400	40.195	0.099
471.500	32.100	0.099
471.600	37.469	0.099
471.700	39.589	0.099
471.800	31.876	0.099
471.900	34.397	0.099
472.000	33.748	0.099
472.100	34.475	0.099
472.200	31.233	0.099
472.300	22.027	0.099
472.400	40.364	0.099
472.500	37.703	0.099
472.600	20.319	0.099
472.700	35.649	0.099
472.800	33.280	0.099
472.900	37.851	0.099
473.000	25.253	0.099
473.100	26.511	0.099
473.200	31.245	0.099
473.300	45.258	0.099
473.400	41.540	0.099
473.500	25.616	0.099
473.600	43.000	0.099
473.700	23.735	0.099
473.800	41.014	0.099
473.900	27.181	0.099
474.000	50.068	0.099
474.100	36.771	0.099
474.200	42.582	0.099
474.300	47.004	0.099
474.400	34.063	0.099
474.500	24.905	0.099
474.600	41.845	0.099
474.700	33.293	0.099
474.800	27.646	0.099
474.900	32.270	0.099
475.000	28.999	0.099
475.100	53.843	0.099
475.200	36.174	0.099
475.300	20.515	0.099
475.400	37.547	0.099
475.500	39.083	0.099
475.600	38.887	0.099
475.700	20.829	0.099
475.800	39.800	0.099
475.900	49.702	0.099
476.000	37.104	0.099
476.100	31.459	0.099
476.200	32.087	0.099
476.300	34.276	0.099
476.400	26.094	0.099
476.500	33.026	0.099
476.600	25.116	0.099
476.700	31.423	0.099
476.800	47.301	0.099
476.900	50.075	0.099
477.000	36.932	0.099
477.100	34.571	0.099
477.200	32.668	0.099
477.300	45.336	0.099
477.400	36.381	0.099
477.500	36.565	0.099
477.600	38.037	0.099
477.700	40.083	0.099
477.800	33.019	0.099
477.900	34.809	0.099
478.000	26.851	0.099
478.100	37.102	0.099
478.200	34.114	0.099
478.300	35.310	0.099
478.400	37.976	0.099
478.500	17.279	0.099
478.600	35.677	0.099
478.700	45.005	0.099
478.800	15.577	0.099
478.900	44.706	0.099
479.000	21.270	0.099
479.100	40.046	0.099
479.200	39.447	0.099
479.300	42.331	0.099
479.400	44.077	0.099
479.500	23.867	0.099
479.600	21.693	0.099
479.700	44.926	0.099
479.800	28.565	0.099
479.900	30.210	0.099
480.000	42.633	0.099
480.100	40.989	0.099
480.200	40.249	0.099
480.300	36.825	0.099
480.400	33.110	0.099
480.500	28.965	0.099
480.600	43.974	0.099
480.700	35.491	0.099
480.800	30.209	0.099
480.900	43.782	0.099
481.000	37.362	0.099
481.100	22.489	0.099
481.200	51.222	0.099
481.300	28.881	0.099
481.400	19.793	0.099
481.500	36.608	0.099
481.600	26.508	0.099
481.700	35.593	0.099
481.800	37.464	0.099
481.900	28.436	0.099
482.000	42.823	0.099
482.100	42.295	0.099
482.200	37.248	0.099
482.300	30.046	0.099
482.400	50.475	0.099
482.500	33.587	0.099
482.600	44.582	0.099
482.700	33.007	0.099
482.800	25.143	0.099
482.900	40.651	0.099
483.000	25.623	0.099
483.100	57.757	0.099
483.200	39.343	0.099
483.300	40.220	0.099
483.400	38.600	0.099
483.500	31.486	0.099
483.600	27.389	0.099
483.700	41.206	0.099
483.800	23.052	0.099
483.900	41.681	0.099
484.000	39.373	0.099
484.100	36.518	0.099
484.200	33.217	0.099
484.300	46.191	0.099
484.400	34.990	0.099
484.500	36.559	0.099
484.600	41.169	0.099
484.700	26.102	0.099
484.800	37.153	0.099
484.900	34.850	0.099
485.000	41.853	0.099
485.100	36.894	0.099
485.200	39.200	0.099
485.300	37.802	0.099
485.400	35.405	0.099
485.500	40.315	0.099
485.600	43.389	0.099
485.700	31.429	0.099
485.800	41.277	0.099
485.900	39.184	0.099
486.000	46.375	0.099
486.100	35.067	0.099
486.200	29.206	0.099
486.300	37.211	0.099
486.400	30.377	0.099
486.500	38.828	0.099
486.600	30.367	0.099
486.700	38.602	0.099
486.800	28.200	0.099
486.900	30.762	0.099
487.000	36.783	0.099
487.100	52.000	0.099
487.200	31.583	0.099
487.300	40.568	0.099
487.400	40.763	0.099
487.500	45.776	0.099
487.600	25.845	0.099
487.700	30.811	0.099
487.800	34.218	0.099
487.900	38.227	0.099
488.000	30.553	0.099
488.100	47.402	0.099
488.200	51.479	0.099
488.300	39.431	0.099
488.400	42.364	0.099
488.500	45.428	0.099
488.600	34.822	0.099
488.700	44.013	0.099
488.800	39.007	0.099
488.900	48.378	0.099
489.000	36.521	0.099
489.100	37.766	0.099
489.200	32.857	0.099
489.300	38.424	0.099
489.400	37.314	0.099
489.500	35.404	0.099
489.600	26.349	0.099
489.700	29.603	0.099
489.800	26.850	0.099
489.900	26.769	0.099
490.000	48.057	0.099
490.100	43.180	0.099
490.200	44.088	0.099
490.300	37.994	0.099
490.400	38.840	0.099
490.500	41.552	0.099
490.600	17.509	0.099
490.700	32.087	0.099
490.800	43.906	0.099
490.900	31.818	0.099
491.000	20.470	0.099
491.100	33.485	0.099
491.200	42.664	0.099
491.300	43.579	0.099
491.400	20.965	0.099
491.500	50.941	0.099
491.600	40.202	0.099
491.700	40.703	0.099
491.800	49.181	0.099
491.900	30.616	0.099
492.000	31.519	0.099
492.100	23.089	0.099
492.200	51.005	0.099
492.300	30.850	0.099
492.400	43.667	0.099
492.500	37.641	0.099
492.600	30.362	0.099
492.700	32.101	0.099
492.800	30.084	0.099
492.900	37.141	0.099
493.000	36.107	0.099
493.100	29.808	0.099
493.200	48.747	0.099
493.300	44.355	0.099
493.400	43.862	0.099
493.500	26.470	0.099
493.600	31.861	0.099
493.700	36.763	0.099
493.800	37.557	0.099
493.900	29.588	0.099
494.000	39.569	0.099
494.100	24.397	0.099
494.200	45.436	0.099
494.300	34.934	0.099
494.400	45.142	0.099
494.500	29.757	0.099
494.600	37.992	0.099
494.700	37.661	0.100
494.800	31.805	0.099
494.900	25.370	0.099
495.000	32.813	0.099
495.100	39.137	0.099
495.200	36.019	0.099
495.300	47.114	0.099
495.400	26.753	0.099
495.500	38.531	0.099
495.600	47.624	0.099
495.700	17.142	0.099
495.800	44.043	0.099
495.900	46.481	0.099
496.000	29.455	0.099
496.100	43.100	0.099
496.200	29.818	0.099
496.300	40.243	0.099
496.400	38.419	0.099
496.500	39.921	0.099
496.600	40.953	0.099
496.700	24.220	0.099
496.800	42.622	0.099
496.900	27.830	0.099
497.000	26.156	0.099
497.100	39.255	0.099
497.200	41.746	0.099
497.300	38.803	0.099
497.400	45.921	0.099
497.500	29.653	0.099
497.600	32.196	0.099
497.700	42.542	0.099
497.800	41.697	0.099
497.900	40.024	0.099
498.000	36.035	0.099
498.100	39.703	0.099
498.200	37.299	0.099
498.300	32.758	0.099
498.400	25.420	0.099
498.500	46.641	0.099
498.600	34.046	0.099
498.700	29.510	0.099
498.800	35.259	0.099
498.900	46.130	0.099
499.000	28.652	0.099
499.100	31.516	0.099
499.200	46.231	0.099
499.300	47.157	0.099
499.400	47.314	0.099
499.500	40.217	0.099
499.600	20.432	0.099
499.700	29.115	0.099
499.800	44.686	0.099
499.900	41.755	0.099
500.000	53.284	0.099
500.100	37.483	0.099
500.200	35.292	0.099
500.300	41.458	0.099
500.400	26.487	0.099
500.500	28.456	0.099
500.600	40.554	0.099
500.700	38.959	0.099
500.800	37.991	0.099
500.900	31.600	0.099
501.000	31.849	0.099
501.100	31.600	0.099
501.200	47.123	0.099
501.300	48.384	0.099
501.400	32.882	0.099
501.500	33.176	0.099
501.600	34.698	0.099
501.700	45.206	0.099
501.800	38.416	0.099
501.900	26.717	0.099
502.000	37.733	0.099
502.100	40.191	0.099
502.200	29.286	0.099
502.300	37.989	0.099
502.400	39.997	0.099
502.500	27.639	0.099
502.600	44.737	0.099
502.700	34.099	0.099
502.800	35.985	0.099
502.900	28.552	0.099
503.000	48.040	0.099
503.100	38.961	0.099
503.200	34.248	0.099
503.300	31.289	0.099
503.400	42.624	0.099
503.500	29.559	0.099
503.600	38.153	0.099
503.700	50.166	0.099
503.800	26.186	0.099
503.900	18.077	0.099
504.000	37.383	0.099
504.100	37.007	0.099
504.200	23.721	0.099
504.300	52.234	0.099
504.400	28.400	0.099
504.500	32.301	0.099
504.600	31.024	0.099
504.700	30.154	0.099
504.800	42.340	0.099
504.900	45.098	0.099
505.000	23.589	0.099
505.100	47.449	0.099
505.200	44.687	0.099
505.300	41.758	0.099
505.400	33.517	0.099
505.500	34.927	0.099
505.600	28.294	0.099
505.700	35.132	0.099
505.800	31.796	0.099
505.900	35.458	0.099
506.000	38.606	0.099
506.100	57.696	0.099
506.200	27.829	0.099
506.300	37.746	0.099
506.400	30.950	0.099
506.500	46.755	0.099
506.600	44.316	0.099
506.700	36.697	0.099
506.800	24.977	0.099
506.900	46.759	0.099
507.000	45.768	0.099
507.100	35.501	0.099
507.200	28.054	0.099
507.300	45.582	0.099
507.400	46.338	0.099
507.500	42.075	0.099
507.600	31.134	0.099
507.700	46.981	0.099
507.800	30.988	0.099
507.900	40.959	0.099
508.000	39.185	0.099
508.100	36.034	0.099
508.200	40.272	0.099
508.300	36.159	0.099
508.400	44.055	0.099
508.500	35.573	0.099
508.600	45.692	0.099
508.700	40.928	0.099
508.800	30.184	0.099
508.900	41.816	0.099
509.000	41.808	0.099
509.100	29.622	0.099
509.200	32.455	0.099
509.300	45.572	0.099
509.400	26.057	0.099
509.500	38.048	0.099
509.600	38.231	0.099
509.700	27.859	0.099
509.800	42.935	0.099
509.900	42.062	0.099
510.000	35.319	0.099
510.100	36.327	0.099
510.200	40.234	0.099
510.300	31.516	0.099
510.400	40.647	0.099
510.500	41.000	0.099
510.600	37.364	0.099
510.700	43.805	0.099
510.800	25.048	0.099
510.900	36.100	0.099
511.000	40.259	0.099
511.100	32.649	0.099
511.200	49.938	0.099
511.300	50.071	0.099
511.400	35.350	0.099
511.500	28.874	0.099
511.600	22.919	0.099
511.700	39.982	0.099
511.800	34.064	0.099
511.900	38.402	0.099
512.000	51.700	0.099
512.100	40.024	0.099
512.200	39.524	0.099
512.300	43.714	0.099
512.400	34.652	0.099
512.500	41.813	0.099
512.600	34.062	0.099
512.700	33.183	0.099
512.800	30.384	0.099
512.900	32.510	0.099
513.000	41.377	0.099
513.100	24.531	0.099
513.200	31.961	0.099
513.300	27.530	0.099
513.400	44.299	0.099
513.500	35.511	0.099
513.600	36.989	0.099
513.700	37.180	0.099
513.800	32.088	0.099
513.900	26.259	0.099
514.000	32.463	0.099
514.100	42.882	0.099
514.200	42.407	0.099
514.300	25.918	0.099
514.400	26.628	0.099
514.500	41.941	0.099
514.600	44.145	0.099
514.700	39.099	0.099
514.800	39.709	0.099
514.900	18.697	0.099
515.000	63.644	0.099
515.100	20.725	0.099
515.200	37.418	0.099
515.300	34.112	0.099
515.400	37.803	0.099
515.500	29.689	0.099
515.600	36.801	0.099
515.700	49.521	0.099
515.800	41.577	0.099
515.900	43.295	0.099
516.000	35.604	0.099
516.100	41.691	0.099
516.200	50.237	0.099
516.300	33.676	0.099
516.400	36.064	0.099
516.500	32.212	0.099
516.600	27.243	0.099
516.700	45.616	0.099
516.800	30.500	0.099
516.900	51.909	0.099
517.000	34.717	0.099
517.100	26.038	0.099
517.200	44.653	0.099
517.300	46.799	0.099
517.400	40.785	0.099
517.500	17.963	0.099
517.600	35.182	0.099
517.700	35.579	0.099
517.800	36.557	0.099
517.900	37.794	0.099
518.000	30.019	0.099
518.100	38.527	0.099
518.200	38.369	0.099
518.300	36.918	0.099
518.400	27.327	0.099
518.500	28.340	0.099
518.600	29.445	0.099
518.700	33.749	0.099
518.800	46.075	0.099
518.900	47.254	0.099
519.000	32.960	0.099
519.100	42.016	0.099
519.200	33.398	0.099
519.300	27.202	0.099
519.400	44.751	0.099
519.500	30.056	0.099
519.600	39.645	0.099
519.700	29.583	0.099
519.800	17.425	0.099
519.900	53.654	0.099
520.000	35.718	0.099
520.100	42.700	0.099
520.200	38.007	0.099
520.300	42.690	0.099
520.400	31.461	0.099
520.500	33.476	0.099
520.600	36.365	0.099
520.700	37.204	0.099
520.800	27.866	0.099
520.900	30.768	0.099
521.000	34.166	0.099
521.100	42.894	0.099
521.200	48.581	0.099
521.300	21.761	0.099
521.400	33.108	0.099
521.500	30.979	0.099
521.600	37.584	0.099
521.700	30.404	0.099
521.800	47.658	0.099
521.900	30.710	0.099
522.000	32.235	0.099
522.100	26.876	0.099
522.200	35.211	0.099
522.300	44.139	0.099
522.400	35.526	0.099
522.500	39.867	0.099
522.600	36.835	0.099
522.700	31.827	0.099
522.800	40.615	0.099
522.900	46.859	0.099
523.000	38.418	0.099
523.100	30.557	0.099
523.200	30.726	0.099
523.300	44.199	0.099
523.400	30.552	0.099
523.500	41.367	0.099
523.600	31.980	0.099
523.700	32.610	0.099
523.800	40.172	0.099
523.900	38.041	0.099
524.000	20.115	0.099
524.100	28.888	0.099
524.200	51.178	0.099
524.300	41.160	0.099
524.400	44.218	0.099
524.500	32.847	0.099
524.600	27.828	0.099
524.700	52.681	0.099
524.800	24.257	0.099
524.900	36.131	0.099
525.000	42.446	0.099
525.100	26.815	0.099
525.200	32.397	0.099
525.300	38.112	0.099
525.400	38.332	0.099
525.500	34.583	0.099
525.600	41.517	0.099
525.700	29.585	0.099
525.800	42.747	0.099
525.900	50.289	0.099
526.000	34.032	0.099
526.100	28.759	0.099
526.200	30.237	0.099
526.300	36.875	0.099
526.400	20.339	0.099
526.500	49.209	0.099
526.600	30.614	0.099
526.700	33.857	0.099
526.800	30.297	0.099
526.900	42.102	0.099
527.000	34.792	0.099
527.100	30.404	0.099
527.200	33.297	0.099
527.300	41.128	0.099
527.400	41.580	0.099
527.500	42.550	0.099
527.600	33.962	0.099
527.700	36.197	0.099
527.800	33.487	0.099
527.900	22.931	0.099
528.000	34.322	0.099
528.100	40.246	0.099
528.200	29.720	0.099
528.300	37.443	0.099
528.400	38.269	0.099
528.500	37.271	0.099
528.600	37.033	0.099
528.700	28.045	0.099
528.800	29.123	0.099
528.900	51.365	0.099
529.000	40.872	0.099
529.100	40.510	0.099
529.200	39.322	0.099
529.300	27.571	0.099
529.400	39.818	0.099
529.500	26.312	0.099
529.600	34.604	0.099
529.700	35.257	0.099
529.800	37.527	0.099
529.900	39.453	0.099
530.000	42.990	0.099
530.100	35.885	0.099
530.200	41.863	0.099
530.300	31.653	0.099
530.400	20.179	0.099
530.500	45.011	0.099
530.600	42.898	0.099
530.700	41.589	0.099
530.800	42.158	0.099
530.900	30.185	0.099
531.000	34.328	0.099
531.100	36.648	0.099
531.200	38.234	0.099
531.300	35.799	0.099
531.400	47.882	0.099
531.500	14.167	0.099
531.600	57.340	0.099
531.700	28.764	0.099
531.800	37.596	0.099
531.900	40.049	0.099
532.000	38.195	0.099
532.100	29.226	0.099
532.200	31.886	0.099
532.300	49.119	0.099
532.400	27.339	0.099
532.500	27.156	0.099
532.600	36.741	0.099
532.700	40.738	0.099
532.800	23.315	0.099
532.900	31.039	0.099
533.000	38.915	0.099
533.100	31.690	0.099
533.200	22.530	0.099
533.300	49.976	0.099
533.400	31.540	0.099
533.500	46.165	0.099
533.600	46.587	0.099
533.700	41.763	0.099
533.800	29.613	0.099
533.900	28.355	0.099
534.000	28.802	0.099
534.100	38.594	0.099
534.200	30.067	0.099
534.300	36.326	0.099
534.400	42.275	0.099
534.500	48.422	0.099
534.600	33.309	0.099
534.700	35.549	0.099
534.800	30.217	0.099
534.900	18.636	0.099
535.000	39.269	0.099
535.100	32.153	0.099
535.200	39.707	0.099
535.300	40.510	0.099
535.400	38.741	0.099
535.500	26.566	0.099
535.600	47.859	0.099
535.700	42.799	0.099
535.800	30.812	0.099
535.900	31.087	0.099
536.000	26.007	0.099
536.100	37.562	0.099
536.200	32.147	0.099
536.300	41.881	0.099
536.400	40.171	0.099
536.500	44.003	0.099
536.600	47.365	0.099
536.700	14.707	0.099
536.800	15.947	0.099
536.900	55.090	0.099
537.000	39.077	0.099
537.100	42.171	0.099
537.200	29.544	0.099
537.300	48.395	0.099
537.400	28.649	0.099
537.500	35.040	0.099
537.600	42.489	0.099
537.700	37.591	0.099
537.800	31.187	0.099
537.900	46.956	0.099
538.000	32.608	0.099
538.100	38.239	0.099
538.200	32.464	0.099
538.300	40.574	0.099
538.400	40.311	0.099
538.500	26.250	0.099
538.600	36.964	0.099
538.700	40.047	0.099
538.800	33.803	0.099
538.900	25.526	0.099
539.000	31.667	0.099
539.100	35.233	0.099
539.200	31.264	0.099
539.300	47.414	0.099
539.400	44.800	0.099
539.500	35.892	0.099
539.600	33.589	0.099
539.700	33.786	0.099
539.800	47.079	0.099
539.900	35.639	0.099
540.000	41.708	0.099
540.100	31.132	0.099
540.200	25.676	0.099
540.300	40.259	0.099
540.400	41.425	0.099
540.500	39.653	0.099
540.600	20.699	0.099
540.700	35.160	0.099
540.800	44.677	0.099
540.900	39.282	0.099
541.000	37.190	0.099
541.100	38.268	0.099
541.200	34.452	0.099
541.300	38.671	0.099
541.400	40.273	0.099
541.500	37.657	0.099
541.600	29.720	0.099
541.700	38.349	0.099
541.800	35.061	0.099
541.900	34.281	0.099
542.000	29.155	0.099
542.100	41.408	0.099
542.200	32.454	0.099
542.300	34.972	0.099
542.400	34.180	0.099
542.500	36.458	0.099
542.600	38.124	0.099
542.700	33.634	0.099
542.800	23.544	0.099
542.900	44.294	0.099
543.000	27.379	0.099
543.100	19.904	0.099
543.200	28.667	0.099
543.300	50.152	0.099
543.400	31.554	0.099
543.500	46.842	0.099
543.600	42.104	0.099
543.700	38.021	0.099
543.800	39.932	0.099
543.900	38.728	0.099
544.000	35.864	0.099
544.100	28.061	0.099
544.200	28.394	0.099
544.300	28.761	0.099
544.400	39.761	0.099
544.500	27.174	0.099
544.600	35.793	0.099
544.700	23.327	0.099
544.800	40.978	0.099
544.900	52.547	0.099
545.000	24.901	0.099
545.100	33.003	0.099
545.200	35.723	0.099
545.300	41.195	0.099
545.400	28.807	0.099
545.500	31.093	0.099
545.600	34.487	0.099
545.700	31.450	0.099
545.800	25.278	0.099
545.900	39.724	0.099
546.000	30.612	0.099
546.100	36.136	0.099
546.200	29.991	0.099
546.300	55.223	0.099
546.400	20.255	0.099
546.500	31.020	0.099
546.600	35.422	0.099
546.700	36.842	0.099
546.800	50.771	0.099
546.900	30.691	0.099
547.000	34.867	0.099
547.100	37.208	0.099
547.200	37.955	0.099
547.300	10.557	0.099
547.400	26.944	0.099
547.500	56.393	0.099
547.600	40.401	0.099
547.700	34.873	0.099
547.800	45.287	0.099
547.900	42.943	0.099
548.000	16.464	0.099
548.100	27.922	0.099
548.200	30.920	0.099
548.300	34.577	0.099
548.400	47.192	0.099
548.500	29.471	0.099
548.600	26.890	0.099
548.700	30.668	0.099
548.800	42.126	0.099
548.900	44.550	0.099
549.000	54.017	0.099
549.100	26.080	0.099
549.200	26.628	0.099
549.300	39.459	0.099
549.400	53.369	0.099
549.500	37.618	0.099
549.600	34.857	0.099
549.700	27.838	0.099
549.800	39.603	0.099
549.900	23.880	0.099
550.000	57.454	0.099
550.100	38.891	0.099
550.200	34.214	0.099
550.300	37.572	0.099
550.400	36.998	0.099
550.500	25.840	0.099
550.600	38.085	0.099
550.700	31.890	0.099
550.800	41.198	0.099
550.900	38.055	0.099
551.000	30.881	0.099
551.100	31.861	0.099
551.200	38.669	0.099
551.300	32.561	0.099
551.400	35.737	0.099
551.500	39.129	0.099
551.600	34.869	0.099
551.700	29.813	0.099
551.800	38.154	0.099
551.900	36.947	0.099
552.000	35.829	0.099
552.100	32.481	0.099
552.200	43.442	0.099
552.300	28.056	0.099
552.400	34.607	0.099
552.500	8.754	0.099
552.600	31.586	0.099
552.700	45.234	0.099
552.800	39.996	0.099
552.900	46.551	0.099
553.000	26.327	0.099
553.100	35.512	0.099
553.200	35.016	0.099
553.300	37.898	0.099
553.400	17.059	0.099
553.500	34.684	0.099
553.600	27.313	0.099
553.700	43.651	0.099
553.800	39.798	0.099
553.900	34.465	0.099
554.000	16.400	0.099
554.100	43.930	0.099
554.200	39.048	0.099
554.300	25.021	0.099
554.400	29.342	0.099
554.500	25.965	0.099
554.600	37.419	0.099
554.700	30.478	0.099
554.800	40.819	0.099
554.900	41.781	0.099
555.000	41.109	0.099
555.100	18.339	0.099
555.200	31.689	0.099
555.300	25.319	0.099
555.400	38.835	0.099
555.500	22.394	0.099
555.600	28.911	0.099
555.700	34.954	0.099
555.800	32.247	0.099
555.900	44.677	0.099
556.000	35.386	0.099
556.100	29.660	0.099
556.200	34.238	0.099
556.300	20.977	0.099
556.400	36.884	0.099
556.500	27.300	0.099
556.600	37.151	0.099
556.700	40.518	0.099
556.800	33.908	0.099
556.900	33.163	0.099
557.000	31.721	0.099
557.100	44.100	0.099
557.200	37.160	0.099
557.300	36.489	0.099
557.400	41.020	0.099
557.500	44.575	0.099
557.600	37.196	0.099
557.700	35.733	0.099
557.800	36.611	0.099
557.900	32.683	0.099
558.000	34.382	0.099
558.100	24.839	0.099
558.200	43.295	0.099
558.300	48.244	0.099
558.400	31.361	0.099
558.500	33.322	0.099
558.600	21.139	0.099
558.700	34.072	0.099
558.800	36.744	0.099
558.900	27.578	0.099
559.000	30.033	0.099
559.100	37.877	0.099
559.200	37.060	0.099
559.300	35.952	0.099
559.400	38.941	0.099
559.500	45.257	0.099
559.600	44.959	0.099
559.700	27.966	0.099
559.800	34.256	0.099
559.900	36.070	0.099
560.000	14.021	0.099
560.100	49.777	0.099
560.200	37.573	0.099
560.300	29.817	0.099
560.400	31.175	0.099
560.500	31.105	0.099
560.600	31.615	0.099
560.700	39.010	0.099
560.800	29.674	0.099
560.900	33.828	0.099
561.000	45.206	0.099
561.100	43.504	0.099
561.200	36.981	0.099
561.300	38.468	0.099
561.400	38.020	0.099
561.500	38.607	0.099
561.600	44.788	0.099
561.700	22.693	0.099
561.800	30.192	0.099
561.900	41.238	0.099
562.000	31.537	0.099
562.100	37.687	0.099
562.200	27.371	0.099
562.300	17.909	0.099
562.400	45.977	0.099
562.500	43.914	0.099
562.600	25.885	0.099
562.700	29.534	0.099
562.800	27.089	0.099
562.900	47.174	0.099
563.000	18.842	0.099
563.100	36.211	0.099
563.200	34.710	0.099
563.300	38.750	0.099
563.400	51.121	0.099
563.500	32.830	0.099
563.600	47.801	0.099
563.700	26.838	0.099
563.800	42.111	0.099
563.900	30.911	0.099
564.000	45.700	0.099
564.100	18.768	0.099
564.200	39.856	0.099
564.300	34.011	0.099
564.400	31.241	0.099
564.500	35.699	0.099
564.600	40.228	0.099
564.700	30.429	0.099
564.800	22.926	0.099
564.900	40.597	0.099
565.000	38.097	0.099
565.100	36.680	0.099
565.200	27.825	0.099
565.300	37.193	0.099
565.400	27.777	0.099
565.500	45.155	0.099
565.600	40.775	0.099
565.700	28.439	0.099
565.800	33.904	0.099
565.900	34.423	0.099
566.000	32.058	0.099
566.100	27.626	0.099
566.200	36.998	0.099
566.300	45.460	0.099
566.400	30.262	0.099
566.500	27.774	0.099
566.600	42.128	0.099
566.700	31.249	0.099
566.800	25.170	0.099
566.900	45.813	0.099
567.000	22.234	0.099
567.100	21.944	0.099
567.200	37.782	0.099
567.300	31.107	0.099
567.400	20.815	0.099
567.500	41.000	0.099
567.600	33.975	0.099
567.700	35.317	0.099
567.800	23.465	0.099
567.900	40.861	0.099
568.000	37.004	0.099
568.100	46.313	0.099
568.200	28.781	0.099
568.300	47.309	0.099
568.400	25.409	0.099
568.500	29.146	0.099
568.600	39.749	0.099
568.700	38.709	0.099
568.800	30.558	0.099
568.900	32.400	0.099
569.000	22.111	0.099
569.100	44.783	0.099
569.200	41.057	0.099
569.300	35.168	0.099
569.400	26.237	0.099
569.500	37.480	0.099
569.600	40.446	0.099
569.700	29.044	0.099
569.800	15.647	0.099
569.900	30.444	0.099
570.000	33.735	0.099
570.100	46.041	0.099
570.200	26.631	0.099
570.300	37.068	0.099
570.400	32.128	0.099
570.500	25.630	0.099
570.600	36.326	0.099
570.700	36.139	0.099
570.800	39.124	0.099
570.900	29.810	0.099
571.000	29.529	0.099
571.100	32.895	0.099
571.200	26.669	0.099
571.300	31.810	0.099
571.400	46.907	0.099
571.500	43.877	0.099
571.600	40.226	0.099
571.700	35.660	0.099
571.800	38.220	0.099
571.900	39.960	0.099
572.000	33.822	0.099
572.100	33.388	0.099
572.200	34.189	0.099
572.300	40.537	0.099
572.400	27.927	0.099
572.500	24.574	0.099
572.600	28.747	0.099
572.700	35.645	0.099
572.800	42.036	0.099
572.900	33.910	0.099
573.000	49.282	0.099
573.100	40.414	0.099
573.200	39.280	0.099
573.300	37.565	0.099
573.400	37.821	0.099
573.500	28.462	0.099
573.600	36.816	0.099
573.700	37.501	0.099
573.800	32.507	0.099
573.900	39.419	0.099
574.000	44.078	0.099
574.100	35.162	0.099
574.200	39.264	0.099
574.300	36.761	0.099
574.400	46.275	0.099
574.500	20.139	0.099
574.600	40.825	0.099
574.700	42.814	0.099
574.800	43.148	0.099
574.900	30.631	0.099
575.000	34.258	0.099
575.100	41.146	0.099
575.200	27.192	0.099
575.300	34.073	0.099
575.400	27.020	0.099
575.500	24.448	0.099
575.600	37.310	0.099
575.700	44.927	0.099
575.800	27.616	0.099
575.900	40.030	0.099
576.000	32.989	0.099
576.100	37.078	0.099
576.200	45.678	0.099
576.300	41.075	0.099
576.400	42.308	0.099
576.500	20.587	0.099
576.600	40.443	0.099
576.700	50.839	0.099
576.800	29.099	0.099
576.900	40.300	0.099
577.000	36.641	0.099
577.100	35.107	0.099
577.200	37.928	0.099
577.300	30.549	0.099
577.400	32.494	0.099
577.500	28.303	0.099
577.600	47.962	0.099
577.700	35.998	0.099
577.800	35.239	0.099
577.900	29.185	0.099
578.000	28.964	0.099
578.100	24.536	0.099
578.200	38.100	0.099
578.300	30.540	0.099
578.400	39.722	0.099
578.500	28.849	0.099
578.600	40.047	0.099
578.700	28.113	0.099
578.800	33.827	0.099
578.900	37.459	0.099
579.000	34.186	0.099
579.100	39.888	0.099
579.200	28.506	0.099
579.300	27.699	0.099
579.400	33.184	0.099
579.500	38.344	0.099
579.600	35.746	0.099
579.700	28.544	0.099
579.800	25.413	0.099
579.900	25.874	0.099
580.000	35.472	0.099
580.100	39.544	0.099
580.200	40.248	0.099
580.300	21.804	0.099
580.400	28.250	0.099
580.500	34.967	0.099
580.600	48.604	0.099
580.700	31.471	0.099
580.800	34.451	0.099
580.900	25.379	0.099
581.000	50.948	0.099
581.100	38.041	0.099
581.200	40.846	0.099
581.300	24.991	0.099
581.400	37.912	0.099
581.500	48.482	0.099
581.600	33.474	0.099
581.700	31.657	0.099
581.800	38.309	0.099
581.900	31.322	0.099
582.000	28.133	0.099
582.100	34.642	0.099
582.200	38.526	0.099
582.300	40.186	0.099
582.400	41.589	0.099
582.500	49.055	0.099
582.600	36.741	0.099
582.700	31.609	0.099
582.800	23.712	0.099
582.900	39.953	0.099
583.000	33.902	0.099
583.100	29.171	0.099
583.200	45.046	0.099
583.300	32.982	0.099
583.400	34.848	0.099
583.500	39.043	0.099
583.600	33.341	0.099
583.700	38.300	0.099
583.800	32.034	0.099
583.900	38.096	0.099
584.000	41.176	0.099
584.100	26.736	0.099
584.200	40.843	0.099
584.300	35.746	0.099
584.400	38.714	0.099
584.500	33.490	0.099
584.600	31.772	0.099
584.700	41.326	0.099
584.800	27.292	0.099
584.900	23.766	0.099
585.000	36.720	0.099
585.100	52.428	0.099
585.200	37.241	0.099
585.300	37.320	0.099
585.400	35.176	0.099
585.500	21.287	0.099
585.600	30.319	0.099
585.700	25.631	0.099
585.800	47.633	0.099
585.900	44.853	0.099
586.000	34.149	0.099
586.100	28.306	0.099
586.200	38.159	0.099
586.300	41.717	0.099
586.400	28.489	0.099
586.500	28.012	0.099
586.600	39.213	0.099
586.700	34.789	0.099
586.800	28.047	0.099
586.900	29.909	0.099
587.000	37.869	0.099
587.100	25.777	0.099
587.200	48.036	0.099
587.300	40.408	0.099
587.400	39.679	0.099
587.500	17.808	0.099
587.600	34.550	0.099
587.700	44.194	0.099
587.800	39.138	0.099
587.900	21.710	0.099
588.000	50.724	0.099
588.100	39.652	0.099
588.200	34.702	0.099
588.300	29.199	0.099
588.400	18.048	0.099
588.500	37.438	0.099
588.600	25.111	0.099
588.700	43.862	0.099
588.800	36.180	0.099
588.900	26.078	0.099
589.000	31.727	0.099
589.100	40.675	0.099
589.200	39.684	0.099
589.300	34.106	0.099
589.400	29.517	0.099
589.500	55.808	0.099
589.600	34.001	0.099
589.700	29.291	0.099
589.800	24.826	0.099
589.900	27.099	0.099
590.000	41.895	0.099
590.100	31.417	0.099
590.200	40.743	0.099
590.300	35.237	0.099
590.400	43.667	0.099
590.500	35.355	0.099
590.600	40.397	0.099
590.700	31.617	0.099
590.800	31.793	0.099
590.900	29.682	0.099
591.000	37.650	0.099
591.100	39.037	0.099
591.200	38.699	0.099
591.300	30.547	0.099
591.400	47.997	0.099
591.500	22.685	0.099
591.600	25.954	0.099
591.700	43.695	0.099
591.800	43.074	0.099
591.900	44.485	0.099
592.000	47.275	0.099
592.100	36.158	0.099
592.200	23.594	0.099
592.300	41.733	0.099
592.400	32.788	0.099
592.500	38.752	0.099
592.600	38.037	0.099
592.700	41.811	0.099
592.800	21.721	0.099
592.900	38.043	0.099
593.000	40.028	0.099
593.100	44.904	0.099
593.200	28.847	0.099
593.300	36.113	0.099
593.400	36.395	0.099
593.500	24.464	0.099
593.600	45.444	0.099
593.700	31.090	0.099
593.800	42.842	0.099
593.900	34.167	0.099
594.000	30.419	0.099
594.100	31.010	0.099
594.200	37.215	0.099
594.300	32.809	0.099
594.400	37.065	0.099
594.500	45.818	0.099
594.600	35.285	0.099
594.700	41.153	0.099
594.800	37.793	0.099
594.900	34.501	0.099
595.000	27.369	0.099
595.100	43.623	0.099
595.200	35.964	0.099
595.300	29.089	0.099
595.400	37.008	0.099
595.500	34.484	0.099
595.600	32.795	0.099
595.700	27.426	0.099
595.800	41.374	0.099
595.900	42.883	0.099
596.000	35.708	0.099
596.100	31.635	0.099
596.200	42.367	0.099
596.300	25.458	0.099
596.400	32.004	0.099
596.500	36.600	0.099
596.600	36.366	0.099
596.700	38.663	0.099
596.800	31.964	0.099
596.900	28.380	0.099
597.000	37.217	0.099
597.100	35.036	0.099
597.200	38.786	0.099
597.300	35.142	0.099
597.400	26.332	0.099
597.500	37.981	0.099
597.600	35.996	0.099
597.700	32.134	0.099
597.800	24.474	0.099
597.900	42.854	0.099
598.000	27.153	0.099
598.100	33.116	0.099
598.200	30.535	0.099
598.300	32.432	0.099
598.400	31.888	0.099
598.500	30.255	0.099
598.600	30.966	0.099
598.700	33.564	0.099
598.800	41.008	0.099
598.900	26.968	0.099
599.000	27.997	0.099
599.100	34.180	0.099
599.200	42.100	0.099
599.300	42.174	0.099
599.400	45.282	0.099
599.500	42.418	0.099
599.600	28.539	0.099
599.700	30.431	0.099
599.800	37.031	0.099
599.900	34.685	0.099
600.000	26.394	0.099
600.100	40.942	0.099
600.200	32.484	0.099
600.300	30.995	0.099
600.400	39.941	0.099
600.500	34.988	0.099
600.600	35.464	0.099
600.700	19.265	0.099
600.800	47.342	0.099
600.900	44.040	0.099
601.000	21.189	0.099
601.100	43.204	0.099
601.200	46.866	0.099
601.300	31.463	0.099
601.400	34.895	0.099
601.500	30.665	0.099
601.600	34.740	0.099
601.700	19.567	0.099
601.800	28.921	0.099
601.900	41.030	0.099
602.000	48.658	0.099
602.100	25.870	0.099
602.200	33.976	0.099
602.300	27.651	0.099
602.400	43.152	0.099
602.500	35.436	0.099
602.600	35.632	0.099
602.700	44.188	0.099
602.800	39.942	0.099
602.900	28.565	0.099
603.000	42.308	0.099
603.100	27.564	0.099
603.200	38.584	0.099
603.300	32.112	0.099
603.400	29.442	0.099
603.500	36.177	0.099
603.600	28.051	0.099
603.700	36.848	0.099
603.800	31.201	0.099
603.900	29.689	0.099
604.000	34.802	0.099
604.100	39.933	0.099
604.200	44.406	0.099
604.300	36.758	0.099
604.400	35.614	0.099
604.500	26.933	0.099
604.600	34.800	0.099
604.700	47.742	0.099
604.800	39.211	0.099
604.900	36.709	0.099
605.000	37.574	0.099
605.100	30.676	0.099
605.200	26.442	0.099
605.300	32.640	0.099
605.400	33.228	0.099
605.500	36.862	0.099
605.600	32.437	0.099
605.700	31.065	0.099
605.800	36.472	0.099
605.900	37.242	0.099
606.000	39.802	0.099
606.100	38.958	0.099
606.200	37.125	0.099
606.300	36.502	0.099
606.400	41.374	0.099
606.500	31.818	0.099
606.600	31.172	0.099
606.700	45.995	0.099
606.800	37.032	0.099
606.900	24.156	0.099
607.000	41.703	0.099
607.100	29.382	0.099
607.200	31.794	0.099
607.300	34.615	0.099
607.400	42.044	0.099
607.500	25.928	0.099
607.600	37.148	0.099
607.700	24.423	0.099
607.800	27.234	0.099
607.900	58.130	0.099
608.000	33.934	0.099
608.100	25.923	0.099
608.200	39.813	0.099
608.300	43.070	0.099
608.400	24.149	0.099
608.500	20.027	0.099
608.600	34.185	0.099
608.700	53.153	0.099
608.800	39.116	0.099
608.900	36.699	0.099
609.000	38.665	0.099
609.100	48.594	0.099
609.200	27.519	0.099
609.300	36.228	0.099
609.400	32.093	0.099
609.500	30.111	0.099
609.600	36.440	0.099
609.700	45.929	0.099
609.800	32.034	0.099
609.900	33.254	0.099
610.000	54.161	0.099
610.100	36.847	0.099
610.200	21.183	0.099
610.300	43.756	0.099
610.400	41.724	0.099
610.500	34.774	0.099
610.600	42.442	0.099
610.700	30.441	0.099
610.800	32.972	0.099
610.900	34.739	0.099
611.000	34.585	0.099
611.100	25.236	0.099
611.200	52.201	0.099
611.300	38.866	0.099
611.400	25.388	0.099
611.500	24.702	0.099
611.600	28.568	0.099
611.700	40.745	0.099
611.800	43.741	0.099
611.900	30.713	0.099
612.000	29.450	0.099
612.100	38.882	0.099
612.200	41.869	0.099
612.300	31.732	0.099
612.400	23.990	0.099
612.500	52.742	0.099
612.600	34.710	0.099
612.700	33.759	0.099
612.800	35.128	0.099
612.900	31.861	0.099
613.000	30.874	0.099
613.100	27.859	0.099
613.200	49.333	0.099
613.300	32.476	0.099
613.400	35.406	0.099
613.500	37.302	0.099
613.600	27.016	0.099
613.700	49.780	0.099
613.800	28.866	0.099
613.900	40.336	0.099
614.000	39.618	0.099
614.100	37.722	0.099
614.200	43.341	0.099
614.300	33.004	0.099
614.400	34.868	0.099
614.500	41.935	0.099
614.600	38.688	0.099
614.700	40.929	0.099
614.800	36.983	0.099
614.900	24.394	0.099
615.000	41.673	0.099
615.100	39.955	0.099
615.200	26.544	0.099
615.300	37.367	0.099
615.400	29.497	0.099
615.500	32.898	0.099
615.600	38.247	0.099
615.700	33.956	0.099
615.800	38.068	0.099
615.900	31.042	0.099
616.000	28.911	0.099
616.100	37.914	0.099
616.200	42.636	0.099
616.300	27.875	0.099
616.400	36.630	0.099
616.500	32.043	0.099
616.600	24.199	0.099
616.700	49.818	0.099
616.800	45.826	0.099
616.900	29.920	0.099
617.000	36.635	0.099
617.100	34.090	0.099
617.200	36.515	0.099
617.300	44.877	0.099
617.400	32.098	0.099
617.500	46.143	0.099
617.600	32.806	0.099
617.700	29.856	0.099
617.800	34.192	0.099
617.900	33.506	0.099
618.000	41.896	0.099
618.100	44.013	0.099
618.200	41.522	0.099
618.300	32.510	0.099
618.400	33.279	0.099
618.500	35.349	0.099
618.600	37.529	0.099
618.700	32.354	0.099
618.800	22.965	0.099
618.900	30.909	0.099
619.000	35.911	0.099
619.100	32.242	0.099
619.200	27.631	0.099
619.300	16.712	0.099
619.400	36.813	0.099
619.500	38.311	0.099
619.600	33.474	0.099
619.700	29.770	0.099
619.800	42.468	0.099
619.900	39.342	0.099
620.000	34.035	0.099
620.100	30.413	0.099
620.200	34.546	0.099
620.300	48.378	0.099
620.400	36.730	0.099
620.500	36.093	0.099
620.600	33.304	0.099
620.700	25.814	0.099
620.800	28.552	0.099
620.900	24.451	0.099
621.000	33.905	0.099
621.100	33.442	0.099
621.200	42.543	0.099
621.300	37.434	0.099
621.400	31.773	0.099
621.500	44.175	0.099
621.600	34.727	0.099
621.700	37.163	0.099
621.800	32.391	0.099
621.900	38.625	0.099
622.000	25.239	0.099
622.100	42.776	0.099
622.200	23.409	0.099
622.300	51.981	0.099
622.400	29.448	0.099
622.500	40.139	0.099
622.600	28.125	0.099
622.700	34.274	0.099
622.800	39.009	0.099
622.900	41.228	0.099
623.000	40.626	0.099
623.100	25.066	0.099
623.200	39.218	0.099
623.300	26.914	0.099
623.400	39.349	0.099
623.500	46.436	0.099
623.600	25.913	0.099
623.700	31.315	0.099
623.800	43.018	0.099
623.900	22.997	0.099
624.000	29.168	0.099
624.100	37.134	0.099
624.200	39.354	0.099
624.300	34.372	0.099
624.400	39.056	0.099
624.500	36.406	0.099
624.600	52.662	0.099
624.700	36.259	0.099
624.800	41.003	0.099
624.900	34.968	0.099
625.000	32.933	0.099
625.100	40.553	0.099
625.200	24.428	0.099
625.300	37.979	0.099
625.400	49.767	0.099
625.500	39.829	0.099
625.600	35.727	0.099
625.700	43.387	0.099
625.800	25.811	0.099
625.900	29.559	0.099
626.000	39.837	0.099
626.100	31.110	0.099
626.200	39.284	0.099
626.300	37.011	0.099
626.400	35.023	0.099
626.500	35.577	0.099
626.600	38.810	0.099
626.700	32.816	0.099
626.800	19.866	0.099
626.900	33.219	0.099
627.000	38.107	0.099
627.100	40.682	0.099
627.200	32.120	0.099
627.300	24.845	0.099
627.400	56.126	0.099
627.500	50.956	0.099
627.600	39.804	0.099
627.700	44.675	0.099
627.800	46.132	0.099
627.900	22.396	0.099
628.000	52.369	0.099
628.100	47.026	0.099
628.200	41.625	0.099
628.300	20.877	0.099
628.400	32.153	0.099
628.500	33.505	0.099
628.600	31.973	0.099
628.700	39.168	0.099
628.800	46.454	0.099
628.900	39.307	0.099
629.000	24.382	0.099
629.100	33.801	0.099
629.200	46.673	0.099
629.300	37.014	0.099
629.400	32.989	0.099
629.500	30.076	0.099
629.600	32.901	0.099
629.700	46.767	0.099
629.800	34.759	0.099
629.900	38.108	0.099
630.000	31.828	0.099
630.100	37.353	0.099
630.200	38.393	0.099
630.300	37.536	0.099
630.400	37.127	0.099
630.500	24.478	0.099
630.600	38.401	0.099
630.700	32.662	0.099
630.800	41.379	0.099
630.900	24.875	0.099
631.000	39.937	0.099
631.100	40.734	0.099
631.200	40.285	0.099
631.300	37.185	0.099
631.400	23.794	0.099
631.500	39.661	0.099
631.600	35.841	0.099
631.700	36.470	0.099
631.800	42.058	0.099
631.900	42.230	0.099
632.000	33.060	0.099
632.100	29.147	0.099
632.200	32.988	0.099
632.300	35.826	0.099
632.400	43.799	0.099
632.500	30.741	0.099
632.600	37.468	0.099
632.700	45.248	0.099
632.800	38.507	0.099
632.900	14.723	0.099
633.000	41.785	0.099
633.100	37.140	0.099
633.200	38.172	0.099
633.300	24.485	0.099
633.400	36.786	0.099
633.500	43.861	0.099
633.600	34.435	0.099
633.700	27.070	0.099
633.800	43.467	0.099
633.900	37.660	0.099
634.000	39.951	0.099
634.100	36.701	0.099
634.200	49.273	0.099
634.300	37.815	0.099
634.400	51.881	0.099
634.500	29.753	0.099
634.600	35.685	0.099
634.700	35.885	0.099
634.800	45.140	0.099
634.900	31.600	0.099
635.000	39.467	0.099
635.100	32.242	0.099
635.200	48.850	0.099
635.300	27.201	0.099
635.400	37.873	0.099
635.500	35.897	0.099
635.600	24.714	0.099
635.700	40.552	0.099
635.800	49.982	0.099
635.900	32.676	0.099
636.000	40.416	0.099
636.100	26.579	0.099
636.200	36.824	0.099
636.300	41.326	0.099
636.400	40.376	0.099
636.500	49.381	0.099
636.600	42.749	0.099
636.700	45.445	0.099
636.800	21.697	0.099
636.900	38.546	0.099
637.000	21.987	0.099
637.100	48.055	0.099
637.200	41.382	0.099
637.300	43.296	0.099
637.400	35.570	0.099
637.500	29.173	0.099
637.600	30.035	0.099
637.700	35.350	0.099
637.800	39.818	0.099
637.900	32.260	0.099
638.000	43.657	0.099
638.100	46.859	0.099
638.200	28.108	0.099
638.300	39.022	0.099
638.400	35.045	0.099
638.500	39.782	0.099
638.600	41.617	0.099
638.700	56.536	0.099
638.800	41.117	0.099
638.900	54.876	0.099
639.000	32.923	0.099
639.100	40.081	0.099
639.200	46.609	0.099
639.300	40.322	0.099
639.400	38.254	0.099
639.500	36.417	0.099
639.600	39.385	0.099
639.700	33.183	0.099
639.800	28.912	0.099
639.900	51.883	0.099
640.000	31.278	0.099
640.100	47.090	0.099
640.200	44.714	0.099
640.300	36.602	0.099
640.400	24.363	0.099
640.500	29.107	0.099
640.600	53.929	0.099
640.700	33.632	0.099
640.800	44.109	0.099
640.900	31.662	0.099
641.000	41.807	0.099
641.100	27.515	0.099
641.200	44.050	0.099
641.300	29.562	0.099
641.400	31.891	0.099
641.500	35.672	0.099
641.600	38.801	0.099
641.700	33.915	0.099
641.800	26.824	0.099
641.900	43.642	0.099
642.000	40.528	0.099
642.100	44.353	0.099
642.200	40.711	0.099
642.300	39.126	0.099
642.400	36.358	0.099
642.500	32.049	0.099
642.600	42.486	0.099
642.700	41.648	0.099
642.800	50.218	0.099
642.900	35.563	0.099
643.000	22.466	0.099
643.100	27.604	0.099
643.200	45.844	0.099
643.300	41.357	0.099
643.400	28.510	0.099
643.500	21.083	0.099
643.600	34.619	0.099
643.700	41.023	0.099
643.800	27.221	0.099
643.900	35.308	0.099
644.000	46.214	0.099
644.100	43.866	0.099
644.200	33.511	0.099
644.300	35.912	0.099
644.400	32.280	0.099
644.500	32.888	0.099
644.600	36.428	0.099
644.700	36.785	0.099
644.800	42.702	0.099
644.900	46.940	0.099
645.000	33.847	0.099
645.100	22.935	0.099
645.200	44.593	0.099
645.300	32.867	0.099
645.400	37.793	0.099
645.500	48.429	0.099
645.600	27.461	0.099
645.700	28.113	0.099
645.800	32.694	0.099
645.900	41.240	0.099
646.000	43.614	0.099
646.100	33.047	0.099
646.200	39.579	0.099
646.300	41.090	0.099
646.400	44.718	0.099
646.500	30.538	0.099
646.600	34.028	0.099
646.700	21.145	0.099
646.800	32.070	0.099
646.900	35.246	0.099
647.000	36.479	0.099
647.100	49.009	0.099
647.200	47.485	0.099
647.300	40.123	0.099
647.400	27.995	0.099
647.500	34.152	0.099
647.600	41.470	0.099
647.700	28.953	0.099
647.800	36.878	0.099
647.900	28.504	0.099
648.000	42.835	0.099
648.100	43.887	0.099
648.200	46.352	0.099
648.300	48.200	0.099
648.400	45.708	0.099
648.500	25.930	0.099
648.600	33.539	0.099
648.700	41.115	0.099
648.800	32.527	0.099
648.900	25.707	0.099
649.000	40.932	0.099
649.100	52.873	0.099
649.200	31.482	0.099
649.300	31.077	0.099
649.400	38.987	0.099
649.500	44.074	0.099
649.600	38.107	0.099
649.700	50.550	0.099
649.800	30.763	0.099
649.900	33.939	0.099
650.000	35.114	0.099
650.100	39.829	0.099
650.200	44.108	0.099
650.300	31.236	0.099
650.400	37.855	0.099
650.500	40.613	0.099
650.600	30.795	0.099
650.700	39.845	0.099
650.800	39.343	0.099
650.900	40.977	0.099
651.000	46.655	0.099
651.100	39.246	0.099
651.200	35.441	0.099
651.300	40.393	0.099
651.400	51.132	0.099
651.500	22.112	0.099
651.600	38.353	0.099
651.700	37.890	0.099
651.800	34.493	0.099
651.900	46.566	0.099
652.000	37.698	0.099
652.100	47.483	0.099
652.200	36.452	0.099
652.300	37.586	0.099
652.400	32.709	0.099
652.500	28.352	0.099
652.600	45.406	0.099
652.700	42.077	0.099
652.800	34.782	0.099
652.900	33.724	0.099
653.000	43.707	0.099
653.100	31.844	0.099
653.200	41.043	0.099
653.300	35.787	0.099
653.400	45.353	0.099
653.500	36.018	0.099
653.600	33.757	0.099
653.700	36.368	0.099
653.800	31.005	0.099
653.900	35.511	0.099
654.000	45.441	0.099
654.100	38.279	0.099
654.200	45.523	0.099
654.300	30.427	0.099
654.400	32.684	0.099
654.500	42.160	0.099
654.600	39.585	0.099
654.700	25.280	0.099
654.800	46.672	0.099
654.900	35.388	0.099
655.000	41.096	0.099
655.100	36.456	0.099
655.200	36.663	0.099
655.300	25.087	0.099
655.400	41.381	0.099
655.500	44.894	0.099
655.600	38.410	0.099
655.700	26.186	0.099
655.800	34.141	0.099
655.900	29.905	0.099
656.000	38.914	0.099
656.100	25.809	0.099
656.200	32.064	0.099
656.300	33.539	0.099
656.400	21.496	0.099
656.500	52.620	0.099
656.600	40.310	0.099
656.700	53.750	0.099
656.800	50.103	0.099
656.900	37.281	0.099
657.000	45.959	0.099
657.100	24.817	0.099
657.200	33.617	0.099
657.300	32.696	0.099
657.400	38.758	0.099
657.500	39.677	0.099
657.600	40.056	0.099
657.700	42.161	0.099
657.800	36.383	0.099
657.900	39.956	0.099
658.000	45.307	0.099
658.100	46.475	0.099
658.200	36.967	0.099
658.300	28.785	0.099
658.400	28.404	0.099
658.500	39.278	0.099
658.600	47.415	0.099
658.700	40.740	0.099
658.800	33.971	0.099
658.900	35.670	0.099
659.000	30.444	0.099
659.100	30.413	0.099
659.200	50.115	0.099
659.300	39.080	0.099
659.400	42.468	0.099
659.500	32.243	0.099
659.600	30.364	0.099
659.700	30.453	0.099
659.800	43.553	0.099
659.900	25.891	0.099
660.000	41.878	0.099
660.100	43.882	0.099
660.200	32.329	0.099
660.300	42.332	0.099
660.400	28.592	0.099
660.500	35.200	0.099
660.600	29.331	0.099
660.700	34.257	0.099
660.800	35.262	0.099
660.900	36.427	0.099
661.000	38.323	0.099
661.100	44.382	0.099
661.200	31.383	0.099
661.300	32.380	0.099
661.400	42.636	0.099
661.500	29.331	0.099
661.600	37.968	0.099
661.700	41.020	0.099
661.800	35.121	0.099
661.900	31.623	0.099
662.000	36.071	0.099
662.100	38.299	0.099
662.200	40.524	0.099
662.300	43.328	0.099
662.400	27.675	0.099
662.500	27.996	0.099
662.600	43.069	0.099
662.700	34.336	0.099
662.800	27.212	0.099
662.900	40.048	0.099
663.000	38.368	0.099
663.100	38.948	0.099
663.200	38.941	0.099
663.300	42.130	0.099
663.400	32.117	0.099
663.500	26.252	0.099
663.600	34.571	0.099
663.700	35.291	0.099
663.800	18.570	0.099
663.900	40.086	0.099
664.000	23.996	0.099
664.100	47.215	0.099
664.200	34.232	0.099
664.300	32.932	0.099
664.400	58.639	0.099
664.500	46.580	0.099
664.600	31.943	0.099
664.700	30.200	0.099
664.800	46.646	0.099
664.900	27.576	0.099
665.000	27.109	0.099
665.100	35.998	0.099
665.200	31.494	0.099
665.300	45.150	0.099
665.400	39.983	0.099
665.500	35.704	0.099
665.600	41.390	0.099
665.700	31.736	0.099
665.800	34.593	0.099
665.900	35.292	0.099
666.000	29.593	0.099
666.100	33.927	0.099
666.200	44.970	0.099
666.300	38.801	0.099
666.400	46.790	0.099
666.500	43.993	0.099
666.600	42.332	0.099
666.700	31.285	0.099
666.800	39.543	0.099
666.900	33.012	0.099
667.000	43.776	0.099
667.100	28.688	0.099
667.200	32.097	0.099
667.300	23.866	0.099
667.400	43.647	0.099
667.500	46.988	0.099
667.600	24.739	0.099
667.700	40.026	0.099
667.800	22.237	0.099
667.900	34.640	0.099
668.000	32.866	0.099
668.100	45.648	0.099
668.200	37.067	0.099
668.300	37.442	0.099
668.400	43.820	0.099
668.500	34.614	0.099
668.600	34.868	0.099
668.700	43.438	0.099
668.800	37.345	0.099
668.900	32.401	0.099
669.000	41.841	0.099
669.100	33.216	0.099
669.200	27.916	0.099
669.300	37.007	0.099
669.400	34.231	0.099
669.500	48.198	0.099
669.600	35.366	0.099
669.700	48.328	0.099
669.800	31.391	0.099
669.900	36.424	0.099
670.000	37.626	0.099
670.100	33.753	0.099
670.200	28.076	0.099
670.300	33.852	0.099
670.400	33.635	0.099
670.500	34.083	0.099
670.600	42.782	0.099
670.700	35.767	0.099
670.800	31.433	0.099
670.900	47.476	0.099
671.000	39.440	0.099
671.100	31.651	0.099
671.200	24.801	0.099
671.300	31.875	0.099
671.400	38.693	0.099
671.500	30.424	0.099
671.600	24.005	0.099
671.700	35.008	0.099
671.800	32.476	0.099
671.900	25.997	0.099
672.000	44.985	0.099
672.100	37.545	0.099
672.200	40.864	0.099
672.300	40.780	0.099
672.400	32.255	0.099
672.500	26.575	0.099
672.600	50.246	0.099
672.700	32.911	0.099
672.800	37.461	0.099
672.900	36.398	0.099
673.000	34.975	0.099
673.100	24.845	0.099
673.200	40.477	0.099
673.300	41.100	0.099
673.400	29.012	0.099
673.500	40.934	0.099
673.600	40.008	0.099
673.700	39.233	0.099
673.800	38.150	0.099
673.900	30.610	0.099
674.000	39.396	0.099
674.100	32.868	0.099
674.200	35.572	0.099
674.300	35.424	0.099
674.400	19.394	0.099
674.500	41.049	0.099
674.600	40.425	0.099
674.700	41.401	0.099
674.800	15.817	0.099
674.900	37.355	0.099
675.000	47.982	0.099
675.100	14.768	0.099
675.200	33.922	0.099
675.300	39.455	0.099
675.400	40.198	0.099
675.500	37.583	0.099
675.600	32.901	0.099
675.700	42.068	0.099
675.800	28.174	0.099
675.900	22.261	0.099
676.000	33.023	0.099
676.100	34.558	0.099
676.200	43.886	0.099
676.300	39.620	0.099
676.400	35.786	0.099
676.500	46.313	0.099
676.600	35.520	0.099
676.700	36.569	0.099
676.800	38.183	0.099
676.900	34.705	0.099
677.000	36.762	0.099
677.100	40.006	0.099
677.200	32.007	0.099
677.300	42.280	0.099
677.400	43.827	0.099
677.500	41.453	0.099
677.600	34.479	0.099
677.700	27.762	0.099
677.800	42.426	0.099
677.900	40.338	0.099
678.000	18.255	0.099
678.100	39.761	0.099
678.200	22.556	0.099
678.300	48.164	0.099
678.400	18.303	0.099
678.500	10.188	0.099
678.600	28.836	0.099
678.700	38.766	0.099
678.800	48.138	0.099
678.900	32.892	0.099
679.000	27.163	0.099
679.100	42.145	0.099
679.200	33.694	0.099
679.300	34.632	0.099
679.400	41.807	0.099
679.500	30.020	0.099
679.600	39.318	0.099
679.700	40.418	0.099
679.800	28.600	0.099
679.900	33.799	0.099
680.000	48.568	0.099
680.100	48.898	0.099
680.200	15.856	0.099
680.300	37.187	0.099
680.400	22.665	0.099
680.500	42.845	0.099
680.600	27.534	0.099
680.700	44.466	0.099
680.800	35.491	0.099
680.900	38.557	0.099
681.000	38.829	0.099
681.100	42.221	0.099
681.200	41.208	0.099
681.300	30.397	0.099
681.400	29.503	0.099
681.500	29.674	0.099
681.600	42.244	0.099
681.700	47.304	0.099
681.800	31.097	0.099
681.900	24.976	0.099
682.000	36.956	0.099
682.100	30.204	0.099
682.200	34.317	0.099
682.300	32.398	0.099
682.400	23.525	0.099
682.500	47.425	0.099
682.600	29.062	0.099
682.700	27.322	0.099
682.800	36.323	0.099
682.900	40.188	0.099
683.000	43.792	0.099
683.100	40.619	0.099
683.200	31.677	0.099
683.300	36.559	0.099
683.400	46.586	0.099
683.500	31.142	0.099
683.600	27.869	0.099
683.700	39.038	0.099
683.800	41.495	0.099
683.900	32.858	0.099
684.000	32.115	0.099
684.100	38.548	0.099
684.200	32.139	0.099
684.300	46.156	0.099
684.400	25.715	0.099
684.500	39.331	0.099
684.600	24.254	0.099
684.700	39.993	0.099
684.800	31.570	0.099
684.900	35.733	0.099
685.000	23.676	0.099
685.100	33.312	0.099
685.200	30.555	0.099
685.300	29.537	0.099
685.400	45.327	0.099
685.500	37.073	0.099
685.600	38.131	0.099
685.700	47.227	0.099
685.800	35.248	0.099
685.900	37.377	0.099
686.000	28.428	0.099
686.100	36.250	0.099
686.200	37.849	0.099
686.300	37.954	0.099
686.400	38.159	0.099
686.500	40.814	0.099
686.600	41.021	0.099
686.700	37.445	0.099
686.800	31.568	0.099
686.900	29.902	0.099
687.000	29.319	0.099
687.100	49.618	0.099
687.200	33.606	0.099
687.300	33.092	0.099
687.400	38.091	0.099
687.500	49.103	0.099
687.600	49.583	0.099
687.700	47.666	0.099
687.800	33.716	0.099
687.900	25.796	0.099
688.000	28.049	0.099
688.100	38.731	0.099
688.200	52.229	0.099
688.300	28.612	0.099
688.400	41.747	0.099
688.500	44.084	0.099
688.600	32.962	0.099
688.700	31.013	0.099
688.800	39.586	0.099
688.900	23.712	0.099
689.000	37.533	0.099
689.100	34.447	0.099
689.200	43.108	0.099
689.300	33.643	0.099
689.400	45.856	0.099
689.500	39.937	0.099
689.600	35.709	0.099
689.700	31.280	0.099
689.800	44.555	0.099
689.900	32.214	0.099
690.000	47.054	0.099
690.100	38.421	0.099
690.200	33.176	0.099
690.300	26.344	0.099
690.400	33.426	0.099
690.500	29.973	0.099
690.600	45.923	0.099
690.700	34.046	0.099
690.800	33.609	0.099
690.900	34.684	0.099
691.000	26.179	0.099
691.100	44.325	0.099
691.200	43.392	0.099
691.300	26.390	0.099
691.400	38.543	0.099
691.500	28.948	0.099
691.600	42.393	0.099
691.700	32.883	0.099
691.800	37.853	0.099
691.900	26.432	0.099
692.000	35.964	0.099
692.100	25.478	0.099
692.200	31.258	0.099
692.300	33.272	0.099
692.400	36.437	0.099
692.500	26.974	0.099
692.600	42.932	0.099
692.700	34.573	0.099
692.800	35.579	0.099
692.900	36.011	0.099
693.000	41.453	0.099
693.100	38.599	0.099
693.200	25.738	0.099
693.300	19.759	0.099
693.400	32.388	0.099
693.500	52.839	0.099
693.600	36.668	0.099
693.700	32.769	0.099
693.800	31.721	0.099
693.900	32.551	0.099
694.000	30.936	0.099
694.100	35.441	0.099
694.200	41.793	0.099
694.300	40.856	0.099
694.400	35.184	0.099
694.500	41.574	0.099
694.600	26.514	0.099
694.700	52.408	0.099
694.800	35.708	0.099
694.900	10.889	0.099
695.000	32.009	0.099
695.100	45.612	0.099
695.200	29.311	0.099
695.300	40.364	0.099
695.400	38.016	0.099
695.500	19.544	0.099
695.600	33.497	0.099
695.700	24.633	0.099
695.800	37.881	0.099
695.900	36.804	0.099
696.000	27.546	0.099
696.100	37.532	0.099
696.200	36.080	0.099
696.300	33.496	0.099
696.400	21.536	0.099
696.500	15.147	0.099
696.600	45.756	0.099
696.700	34.529	0.099
696.800	41.974	0.099
696.900	40.801	0.099
697.000	26.065	0.099
697.100	33.198	0.099
697.200	41.337	0.099
697.300	34.720	0.099
697.400	18.558	0.099
697.500	52.914	0.099
697.600	22.420	0.099
697.700	32.271	0.099
697.800	35.024	0.099
697.900	33.723	0.099
698.000	41.687	0.099
698.100	31.116	0.099
698.200	28.134	0.099
698.300	33.004	0.099
698.400	37.737	0.099
698.500	19.964	0.099
698.600	35.973	0.099
698.700	39.936	0.099
698.800	30.049	0.099
698.900	33.393	0.099
699.000	22.947	0.099
699.100	49.449	0.099
699.200	40.071	0.099
699.300	29.919	0.099
699.400	32.317	0.099
699.500	45.512	0.099
699.600	38.014	0.099
699.700	35.594	0.099
699.800	41.952	0.099
699.900	31.620	0.099
700.000	30.104	0.099
700.100	36.617	0.099
700.200	19.426	0.099
700.300	38.276	0.099
700.400	35.642	0.099
700.500	38.595	0.099
700.600	43.857	0.099
700.700	38.494	0.099
700.800	27.500	0.099
700.900	28.849	0.099
701.000	32.600	0.099
701.100	31.704	0.099
701.200	29.612	0.099
701.300	40.716	0.099
701.400	42.089	0.099
701.500	18.945	0.099
701.600	35.774	0.099
701.700	40.970	0.099
701.800	36.000	0.099
701.900	27.102	0.099
702.000	27.718	0.099
702.100	40.630	0.099
702.200	36.436	0.099
702.300	32.535	0.099
702.400	39.256	0.099
702.500	35.004	0.099
702.600	24.664	0.099
702.700	30.302	0.099
702.800	34.230	0.099
702.900	44.502	0.099
703.000	32.222	0.099
703.100	28.727	0.099
703.200	42.468	0.099
703.300	38.959	0.099
703.400	34.174	0.099
703.500	31.779	0.099
703.600	35.336	0.099
703.700	30.994	0.099
703.800	24.799	0.099
703.900	36.761	0.099
704.000	28.617	0.099
704.100	28.728	0.099
704.200	38.585	0.099
704.300	40.708	0.099
704.400	40.713	0.099
704.500	35.514	0.099
704.600	24.215	0.099
704.700	28.106	0.099
704.800	41.488	0.099
704.900	20.822	0.099
705.000	45.945	0.099
705.100	35.838	0.099
705.200	19.535	0.099
705.300	37.012	0.099
705.400	23.658	0.099
705.500	38.296	0.099
705.600	34.339	0.099
705.700	26.276	0.099
705.800	33.062	0.099
705.900	32.287	0.099
706.000	31.157	0.099
706.100	52.098	0.099
706.200	26.814	0.099
706.300	23.008	0.099
706.400	47.047	0.099
706.500	32.577	0.099
706.600	39.409	0.099
706.700	34.857	0.099
706.800	37.094	0.099
706.900	30.542	0.099
707.000	42.281	0.099
707.100	32.379	0.099
707.200	32.794	0.099
707.300	31.663	0.099
707.400	37.087	0.099
707.500	29.315	0.099
707.600	29.909	0.099
707.700	35.424	0.099
707.800	29.576	0.099
707.900	34.915	0.099
708.000	36.696	0.099
708.100	41.298	0.099
708.200	33.948	0.099
708.300	32.470	0.099
708.400	22.304	0.099
708.500	32.065	0.099
708.600	38.159	0.099
708.700	50.477	0.099
708.800	29.495	0.099
708.900	24.842	0.099
709.000	21.558	0.099
709.100	35.351	0.099
709.200	40.704	0.099
709.300	36.337	0.099
709.400	36.800	0.099
709.500	40.988	0.099
709.600	35.869	0.099
709.700	31.807	0.099
709.800	32.144	0.099
709.900	27.562	0.099
710.000	43.137	0.099
710.100	33.871	0.099
710.200	41.295	0.099
710.300	36.988	0.099
710.400	21.763	0.099
710.500	32.207	0.099
710.600	31.200	0.099
710.700	33.142	0.099
710.800	39.553	0.099
710.900	35.698	0.099
711.000	43.372	0.099
711.100	27.773	0.099
711.200	32.751	0.099
711.300	40.483	0.099
711.400	27.190	0.099
711.500	30.807	0.099
711.600	32.979	0.099
711.700	51.903	0.099
711.800	34.113	0.099
711.900	39.520	0.099
712.000	27.082	0.099
712.100	23.988	0.099
712.200	28.485	0.099
712.300	26.206	0.099
712.400	46.880	0.099
712.500	25.861	0.099
712.600	23.466	0.099
712.700	39.021	0.099
712.800	20.509	0.099
712.900	36.307	0.099
713.000	47.387	0.099
713.100	38.358	0.099
713.200	18.661	0.099
713.300	44.029	0.099
713.400	30.815	0.099
713.500	36.049	0.099
713.600	34.192	0.099
713.700	33.896	0.099
713.800	44.519	0.099
713.900	33.369	0.099
714.000	32.484	0.099
714.100	47.087	0.099
714.200	41.176	0.099
714.300	31.682	0.099
714.400	23.523	0.099
714.500	31.315	0.099
714.600	40.217	0.099
714.700	35.097	0.099
714.800	32.885	0.099
714.900	40.282	0.099
715.000	29.011	0.099
715.100	37.473	0.099
715.200	33.245	0.099
715.300	29.799	0.099
715.400	32.342	0.099
715.500	34.066	0.099
715.600	38.292	0.099
715.700	40.412	0.099
715.800	28.824	0.099
715.900	26.736	0.099
716.000	39.492	0.099
716.100	32.542	0.099
716.200	45.048	0.099
716.300	36.902	0.099
716.400	19.593	0.099
716.500	35.789	0.099
716.600	48.166	0.099
716.700	37.183	0.099
716.800	18.455	0.099
716.900	43.452	0.099
717.000	28.768	0.099
717.100	35.750	0.099
717.200	31.909	0.099
717.300	35.215	0.099
717.400	37.646	0.099
717.500	30.838	0.099
717.600	44.740	0.099
717.700	15.614	0.099
717.800	40.622	0.099
717.900	32.368	0.099
718.000	24.757	0.099
718.100	38.263	0.099
718.200	46.479	0.099
718.300	29.153	0.099
718.400	32.789	0.099
718.500	20.241	0.099
718.600	49.127	0.099
718.700	45.470	0.099
718.800	29.132	0.099
718.900	22.979	0.099
719.000	40.964	0.099
719.100	30.377	0.099
719.200	39.292	0.099
719.300	29.387	0.099
719.400	31.108	0.099
719.500	23.716	0.099
719.600	36.209	0.099
719.700	37.212	0.099
719.800	28.093	0.099
719.900	42.132	0.099
720.000	30.694	0.099
720.100	25.972	0.099
720.200	45.969	0.099
720.300	42.056	0.099
720.400	36.062	0.099
720.500	21.611	0.099
720.600	40.573	0.099
720.700	27.748	0.099
720.800	37.315	0.099
720.900	33.267	0.099
721.000	36.581	0.099
721.100	29.452	0.099
721.200	38.040	0.099
721.300	24.961	0.099
721.400	27.992	0.099
721.500	32.599	0.099
721.600	34.738	0.099
721.700	31.148	0.099
721.800	33.221	0.099
721.900	38.664	0.099
722.000	33.371	0.099
722.100	33.263	0.099
722.200	34.665	0.099
722.300	45.167	0.099
722.400	40.343	0.099
722.500	39.739	0.099
722.600	33.749	0.099
722.700	34.072	0.099
722.800	35.294	0.099
722.900	42.962	0.099
723.000	27.414	0.099
723.100	28.117	0.099
723.200	39.786	0.099
723.300	22.266	0.099
723.400	27.532	0.099
723.500	48.258	0.099
723.600	34.164	0.099
723.700	32.605	0.099
723.800	40.207	0.099
723.900	40.120	0.099
724.000	40.029	0.099
724.100	39.334	0.099
724.200	27.229	0.099
724.300	35.736	0.099
724.400	35.690	0.099
724.500	29.787	0.099
724.600	26.470	0.099
724.700	34.717	0.099
724.800	25.831	0.099
724.900	42.407	0.099
725.000	15.709	0.099
725.100	52.604	0.099
725.200	9.503	0.099
725.300	41.229	0.099
725.400	31.379	0.099
725.500	40.505	0.099
725.600	23.728	0.099
725.700	29.237	0.099
725.800	30.366	0.099
725.900	39.837	0.099
726.000	39.444	0.099
726.100	17.199	0.099
726.200	46.713	0.099
726.300	42.869	0.099
726.400	23.936	0.099
726.500	34.841	0.099
726.600	41.418	0.099
726.700	18.810	0.099
726.800	29.330	0.099
726.900	37.849	0.099
727.000	43.283	0.099
727.100	38.437	0.099
727.200	40.522	0.099
727.300	42.937	0.099
727.400	39.150	0.099
727.500	31.695	0.099
727.600	38.953	0.099
727.700	32.662	0.099
727.800	34.460	0.099
727.900	27.761	0.099
728.000	38.554	0.099
728.100	43.426	0.099
728.200	25.657	0.099
728.300	17.359	0.099
728.400	40.307	0.099
728.500	34.355	0.099
728.600	35.828	0.099
728.700	47.369	0.099
728.800	42.728	0.099
728.900	29.182	0.099
729.000	32.274	0.099
729.100	42.335	0.099
729.200	24.597	0.099
729.300	40.710	0.099
729.400	39.772	0.099
729.500	28.775	0.099
729.600	33.946	0.099
729.700	38.183	0.099
729.800	32.095	0.099
729.900	42.315	0.099
730.000	32.134	0.099
730.100	36.075	0.099
730.200	30.700	0.099
730.300	32.428	0.099
730.400	57.602	0.099
730.500	25.888	0.099
730.600	35.308	0.099
730.700	33.732	0.099
730.800	14.790	0.099
730.900	47.784	0.099
731.000	34.743	0.099
731.100	38.926	0.099
731.200	43.070	0.099
731.300	41.118	0.099
731.400	19.959	0.099
731.500	33.505	0.099
731.600	36.404	0.099
731.700	53.385	0.099
731.800	30.266	0.099
731.900	36.481	0.099
732.000	38.688	0.099
732.100	58.145	0.099
732.200	26.228	0.099
732.300	36.140	0.099
732.400	43.271	0.099
732.500	25.241	0.099
732.600	27.495	0.099
732.700	27.665	0.099
732.800	43.604	0.099
732.900	35.901	0.099
733.000	27.277	0.099
733.100	31.841	0.099
733.200	27.380	0.099
733.300	43.502	0.099
733.400	36.888	0.099
733.500	19.536	0.099
733.600	44.629	0.099
733.700	21.622	0.099
733.800	45.304	0.099
733.900	40.195	0.099
734.000	33.137	0.099
734.100	30.699	0.099
734.200	37.854	0.099
734.300	42.472	0.099
734.400	39.453	0.099
734.500	22.050	0.099
734.600	26.743	0.099
734.700	42.186	0.099
734.800	33.848	0.099
734.900	47.492	0.099
735.000	29.148	0.099
735.100	30.646	0.099
735.200	47.344	0.099
735.300	37.192	0.099
735.400	29.512	0.099
735.500	41.668	0.099
735.600	17.175	0.099
735.700	41.759	0.099
735.800	35.422	0.099
735.900	22.262	0.099
736.000	44.504	0.099
736.100	28.043	0.099
736.200	36.550	0.099
736.300	42.105	0.099
736.400	33.694	0.099
736.500	29.004	0.099
736.600	39.138	0.099
736.700	36.168	0.099
736.800	33.746	0.099
736.900	31.978	0.099
737.000	34.951	0.099
737.100	42.955	0.099
737.200	30.657	0.099
737.300	26.427	0.099
737.400	36.423	0.099
737.500	31.124	0.099
737.600	42.504	0.099
737.700	28.950	0.099
737.800	46.692	0.099
737.900	32.420	0.099
738.000	32.315	0.099
738.100	32.443	0.099
738.200	34.733	0.099
738.300	24.407	0.099
738.400	44.114	0.099
738.500	45.792	0.099
738.600	34.740	0.099
738.700	31.542	0.099
738.800	41.147	0.099
738.900	27.661	0.099
739.000	30.824	0.099
739.100	36.353	0.099
739.200	38.264	0.099
739.300	40.266	0.099
739.400	30.219	0.099
739.500	23.774	0.099
739.600	36.532	0.099
739.700	39.499	0.099
739.800	39.010	0.099
739.900	24.191	0.099
740.000	28.363	0.099
740.100	42.048	0.099
740.200	29.862	0.099
740.300	31.432	0.099
740.400	34.092	0.099
740.500	42.212	0.099
740.600	36.170	0.099
740.700	34.145	0.099
740.800	36.151	0.099
740.900	32.206	0.099
741.000	39.464	0.099
741.100	43.691	0.099
741.200	28.156	0.099
741.300	40.610	0.099
741.400	29.077	0.099
741.500	39.706	0.099
741.600	30.479	0.099
741.700	37.549	0.099
741.800	32.220	0.099
741.900	36.391	0.099
742.000	24.508	0.099
742.100	28.403	0.099
742.200	32.053	0.099
742.300	19.965	0.099
742.400	40.094	0.099
742.500	35.120	0.099
742.600	37.030	0.099
742.700	37.658	0.099
742.800	26.543	0.099
742.900	33.782	0.099
743.000	34.231	0.099
743.100	32.970	0.099
743.200	33.585	0.099
743.300	33.720	0.099
743.400	50.177	0.099
743.500	25.117	0.099
743.600	49.248	0.099
743.700	26.672	0.099
743.800	30.651	0.099
743.900	36.899	0.099
744.000	33.818	0.099
744.100	43.919	0.099
744.200	34.193	0.099
744.300	34.507	0.099
744.400	19.804	0.099
744.500	33.807	0.099
744.600	43.609	0.099
744.700	28.044	0.099
744.800	43.301	0.099
744.900	36.823	0.099
745.000	14.707	0.099
745.100	31.569	0.099
745.200	38.361	0.099
745.300	34.436	0.099
745.400	34.250	0.099
745.500	25.044	0.099
745.600	52.163	0.099
745.700	29.876	0.099
745.800	40.913	0.099
745.900	35.964	0.099
746.000	24.710	0.099
746.100	43.586	0.099
746.200	45.744	0.099
746.300	22.428	0.099
746.400	29.301	0.099
746.500	32.784	0.099
746.600	33.109	0.099
746.700	51.574	0.099
746.800	41.881	0.099
746.900	28.522	0.099
747.000	26.600	0.099
747.100	37.350	0.099
747.200	36.352	0.099
747.300	26.279	0.099
747.400	30.098	0.099
747.500	39.889	0.099
747.600	28.077	0.099
747.700	32.830	0.099
747.800	28.558	0.099
747.900	39.098	0.099
748.000	37.694	0.099
748.100	45.665	0.099
748.200	25.758	0.099
748.300	41.101	0.099
748.400	23.554	0.099
748.500	43.202	0.099
748.600	36.994	0.099
748.700	34.741	0.099
748.800	30.711	0.099
748.900	27.304	0.099
749.000	21.702	0.099
749.100	43.706	0.099
749.200	36.648	0.099
749.300	33.031	0.099
749.400	36.415	0.099
749.500	42.913	0.099
749.600	44.259	0.099
749.700	25.612	0.099
749.800	31.975	0.099
749.900	33.466	0.099
750.000	26.083	0.099
750.100	31.954	0.099
750.200	26.757	0.099
750.300	35.584	0.099
750.400	43.343	0.099
750.500	38.292	0.099
750.600	30.530	0.099
750.700	29.595	0.099
750.800	42.823	0.099
750.900	32.541	0.099
751.000	35.841	0.099
751.100	25.217	0.099
751.200	45.970	0.099
751.300	33.563	0.099
751.400	30.655	0.099
751.500	28.775	0.099
751.600	41.002	0.099
751.700	41.322	0.099
751.800	30.735	0.099
751.900	42.475	0.099
752.000	33.529	0.099
752.100	35.084	0.099
752.200	22.128	0.099
752.300	24.932	0.099
752.400	41.041	0.099
752.500	34.452	0.099
752.600	38.828	0.099
752.700	19.722	0.099
752.800	27.422	0.099
752.900	32.703	0.099
753.000	48.338	0.099
753.100	26.452	0.099
753.200	43.215	0.099
753.300	22.579	0.099
753.400	38.229	0.099
753.500	37.492	0.099
753.600	29.906	0.099
753.700	49.940	0.099
753.800	29.209	0.099
753.900	34.921	0.099
754.000	38.742	0.099
754.100	27.573	0.099
754.200	40.764	0.099
754.300	22.793	0.099
754.400	41.054	0.099
754.500	26.084	0.099
754.600	46.358	0.099
754.700	38.950	0.099
754.800	40.055	0.099
754.900	14.944	0.099
755.000	27.946	0.099
755.100	42.004	0.099
755.200	45.443	0.099
755.300	46.115	0.099
755.400	22.231	0.099
755.500	34.814	0.099
755.600	39.489	0.099
755.700	31.010	0.099
755.800	33.890	0.099
755.900	25.705	0.099
756.000	39.148	0.099
756.100	36.757	0.099
756.200	35.360	0.099
756.300	38.827	0.099
756.400	38.174	0.099
756.500	40.916	0.099
756.600	30.689	0.099
756.700	25.149	0.099
756.800	35.589	0.099
756.900	28.632	0.099
757.000	34.841	0.099
757.100	14.670	0.099
757.200	30.721	0.099
757.300	33.402	0.099
757.400	16.310	0.099
757.500	43.245	0.099
757.600	54.724	0.099
757.700	30.777	0.099
757.800	38.791	0.099
757.900	19.435	0.099
758.000	30.184	0.099
758.100	44.238	0.099
758.200	31.309	0.099
758.300	34.500	0.099
758.400	9.110	0.099
758.500	44.939	0.099
758.600	35.323	0.099
758.700	32.684	0.099
758.800	25.184	0.099
758.900	28.369	0.099
759.000	42.727	0.099
759.100	37.349	0.099
759.200	30.483	0.099
759.300	42.731	0.099
759.400	34.707	0.099
759.500	27.056	0.099
759.600	47.166	0.099
759.700	29.808	0.099
759.800	36.511	0.099
759.900	27.790	0.099
760.000	20.767	0.099
760.100	35.358	0.099
760.200	37.060	0.099
760.300	37.229	0.099
760.400	31.431	0.099
760.500	26.470	0.099
760.600	34.704	0.099
760.700	44.403	0.099
760.800	26.599	0.099
760.900	38.110	0.099
761.000	28.726	0.099
761.100	28.584	0.099
761.200	37.053	0.099
761.300	37.169	0.099
761.400	35.950	0.099
761.500	31.850	0.099
761.600	39.055	0.099
761.700	49.683	0.099
761.800	35.095	0.099
761.900	34.316	0.099
762.000	35.782	0.099
762.100	44.543	0.099
762.200	29.259	0.099
762.300	32.567	0.099
762.400	42.227	0.099
762.500	29.122	0.099
762.600	36.442	0.099
762.700	41.854	0.099
762.800	21.036	0.099
762.900	42.663	0.099
763.000	34.196	0.099
763.100	34.988	0.099
763.200	27.936	0.099
763.300	47.252	0.099
763.400	39.058	0.099
763.500	32.746	0.099
763.600	31.476	0.099
763.700	19.357	0.099
763.800	40.067	0.099
763.900	42.260	0.099
764.000	36.579	0.099
764.100	42.317	0.099
764.200	13.582	0.099
764.300	30.523	0.099
764.400	40.064	0.099
764.500	33.932	0.099
764.600	29.067	0.099
764.700	38.479	0.099
764.800	39.367	0.099
764.900	42.711	0.099
765.000	38.298	0.099
765.100	29.325	0.099
765.200	28.903	0.099
765.300	29.843	0.099
765.400	36.072	0.099
765.500	38.623	0.099
765.600	40.341	0.099
765.700	37.848	0.099
765.800	35.588	0.099
765.900	34.216	0.099
766.000	25.120	0.099
766.100	29.960	0.099
766.200	33.739	0.099
766.300	41.037	0.099
766.400	37.453	0.099
766.500	13.818	0.099
766.600	34.771	0.099
766.700	19.679	0.099
766.800	39.234	0.099
766.900	27.324	0.099
767.000	30.330	0.099
767.100	41.256	0.099
767.200	37.021	0.099
767.300	33.147	0.099
767.400	39.752	0.099
767.500	10.991	0.099
767.600	35.864	0.099
767.700	53.511	0.099
767.800	30.303	0.099
767.900	51.298	0.099
768.000	31.489	0.099
768.100	40.446	0.099
768.200	30.242	0.099
768.300	26.987	0.099
768.400	42.301	0.099
768.500	36.709	0.099
768.600	24.996	0.099
768.700	28.209	0.099
768.800	30.381	0.099
768.900	49.061	0.099
769.000	35.052	0.099
769.100	48.305	0.099
769.200	32.839	0.099
769.300	34.384	0.099
769.400	30.338	0.099
769.500	36.344	0.099
769.600	49.690	0.099
769.700	45.798	0.099
769.800	37.669	0.099
769.900	18.683	0.099
770.000	31.841	0.099
770.100	27.738	0.099
770.200	40.697	0.099
770.300	17.784	0.099
770.400	45.585	0.099
770.500	34.294	0.099
770.600	38.042	0.099
770.700	30.446	0.099
770.800	30.823	0.099
770.900	27.405	0.099
771.000	39.271	0.099
771.100	30.989	0.099
771.200	30.266	0.099
771.300	37.106	0.099
771.400	35.482	0.099
771.500	31.715	0.099
771.600	32.149	0.099
771.700	24.753	0.099
771.800	42.425	0.099
771.900	34.200	0.099
772.000	39.780	0.099
772.100	46.070	0.099
772.200	45.009	0.099
772.300	41.766	0.099
772.400	33.080	0.099
772.500	33.733	0.099
772.600	20.061	0.099
772.700	24.354	0.099
772.800	48.789	0.099
772.900	28.080	0.099
773.000	47.076	0.099
773.100	43.285	0.099
773.200	28.653	0.099
773.300	28.576	0.099
773.400	38.945	0.099
773.500	31.947	0.099
773.600	26.956	0.099
773.700	40.742	0.099
773.800	31.330	0.099
773.900	44.883	0.099
774.000	41.883	0.099
774.100	28.252	0.099
774.200	29.524	0.099
774.300	44.500	0.099
774.400	39.252	0.099
774.500	24.634	0.099
774.600	46.922	0.099
774.700	36.326	0.099
774.800	28.783	0.099
774.900	30.189	0.099
775.000	39.184	0.099
775.100	36.798	0.099
775.200	33.038	0.099
775.300	33.418	0.099
775.400	40.143	0.099
775.500	32.647	0.099
775.600	40.221	0.099
775.700	41.841	0.099
775.800	27.083	0.099
775.900	37.216	0.099
776.000	28.720	0.099
776.100	47.894	0.099
776.200	43.485	0.099
776.300	54.148	0.099
776.400	37.781	0.099
776.500	42.352	0.099
776.600	18.653	0.099
776.700	39.483	0.099
776.800	40.938	0.099
776.900	27.505	0.099
777.000	30.671	0.099
777.100	28.420	0.099
777.200	30.318	0.099
777.300	37.289	0.099
777.400	33.359	0.099
777.500	41.967	0.099
777.600	26.998	0.099
777.700	41.575	0.099
777.800	21.315	0.099
777.900	30.289	0.099
778.000	27.378	0.099
778.100	43.521	0.099
778.200	44.570	0.099
778.300	37.840	0.099
778.400	39.358	0.099
778.500	25.807	0.099
778.600	26.225	0.099
778.700	43.562	0.099
778.800	31.908	0.099
778.900	29.202	0.099
779.000	22.784	0.099
779.100	48.361	0.099
779.200	44.568	0.099
779.300	17.523	0.099
779.400	38.124	0.099
779.500	28.941	0.099
779.600	18.432	0.099
779.700	36.735	0.099
779.800	25.394	0.099
779.900	39.908	0.099
780.000	31.963	0.099
780.100	43.607	0.099
780.200	44.355	0.099
780.300	18.802	0.099
780.400	38.358	0.099
780.500	41.313	0.099
780.600	39.118	0.099
780.700	38.584	0.099
780.800	39.646	0.099
780.900	16.124	0.099
781.000	42.278	0.099
781.100	42.987	0.099
781.200	34.841	0.099
781.300	33.444	0.099
781.400	44.450	0.099
781.500	31.722	0.099
781.600	36.245	0.099
781.700	45.187	0.099
781.800	32.564	0.099
781.900	30.966	0.099
782.000	44.076	0.099
782.100	35.100	0.099
782.200	36.343	0.099
782.300	31.065	0.099
782.400	41.716	0.099
782.500	38.081	0.099
782.600	53.437	0.099
782.700	39.743	0.099
782.800	18.513	0.099
782.900	41.670	0.099
783.000	39.131	0.099
783.100	34.303	0.099
783.200	41.080	0.099
783.300	31.658	0.099
783.400	28.074	0.099
783.500	23.966	0.099
783.600	44.885	0.099
783.700	38.395	0.099
783.800	43.917	0.099
783.900	31.250	0.099
784.000	44.128	0.099
784.100	33.734	0.099
784.200	32.909	0.099
784.300	30.999	0.099
784.400	32.285	0.099
784.500	25.443	0.099
784.600	40.713	0.099
784.700	29.682	0.099
784.800	43.948	0.099
784.900	30.921	0.099
785.000	34.700	0.099
785.100	34.994	0.099
785.200	37.440	0.099
785.300	27.875	0.099
785.400	22.137	0.099
785.500	43.223	0.099
785.600	42.742	0.099
785.700	38.139	0.099
785.800	29.541	0.099
785.900	22.436	0.099
786.000	51.073	0.099
786.100	46.564	0.099
786.200	38.630	0.099
786.300	33.738	0.099
786.400	26.271	0.099
786.500	48.814	0.099
786.600	37.393	0.099
786.700	37.769	0.099
786.800	31.541	0.099
786.900	40.924	0.099
787.000	36.597	0.099
787.100	39.905	0.099
787.200	34.831	0.099
787.300	41.212	0.099
787.400	32.439	0.099
787.500	26.032	0.099
787.600	44.318	0.099
787.700	34.320	0.099
787.800	35.989	0.099
787.900	31.008	0.099
788.000	35.537	0.099
788.100	38.470	0.099
788.200	32.812	0.099
788.300	34.984	0.099
788.400	31.825	0.099
788.500	31.380	0.099
788.600	29.917	0.099
788.700	24.418	0.099
788.800	30.093	0.099
788.900	50.238	0.099
789.000	40.817	0.099
789.100	40.022	0.099
789.200	28.602	0.099
789.300	31.428	0.099
789.400	31.568	0.099
789.500	44.352	0.099
789.600	41.687	0.099
789.700	30.187	0.099
789.800	38.737	0.099
789.900	30.148	0.099
790.000	49.989	0.099
790.100	32.860	0.099
790.200	31.409	0.099
790.300	44.320	0.099
790.400	30.134	0.099
790.500	48.871	0.099
790.600	41.663	0.099
790.700	36.748	0.099
790.800	29.405	0.099
790.900	27.480	0.099
791.000	52.778	0.099
791.100	23.031	0.099
791.200	39.201	0.099
791.300	36.720	0.099
791.400	29.198	0.099
791.500	20.985	0.099
791.600	53.154	0.099
791.700	23.556	0.099
791.800	37.565	0.099
791.900	53.019	0.099
792.000	41.794	0.099
792.100	34.482	0.099
792.200	38.644	0.099
792.300	20.837	0.099
792.400	43.276	0.099
792.500	31.115	0.099
792.600	25.183	0.099
792.700	41.958	0.099
792.800	42.922	0.099
792.900	33.862	0.099
793.000	42.898	0.099
793.100	22.993	0.099
793.200	29.730	0.099
793.300	46.082	0.099
793.400	46.964	0.099
793.500	27.013	0.099
793.600	40.446	0.099
793.700	38.517	0.099
793.800	29.997	0.099
793.900	35.479	0.099
794.000	43.079	0.099
794.100	44.531	0.099
794.200	22.416	0.099
794.300	23.797	0.099
794.400	19.395	0.099
794.500	40.655	0.099
794.600	40.720	0.099
794.700	38.075	0.099
794.800	19.627	0.099
794.900	46.711	0.099
795.000	41.615	0.099
795.100	51.106	0.099
795.200	38.271	0.099
795.300	36.834	0.099
795.400	35.067	0.099
795.500	28.143	0.099
795.600	44.948	0.099
795.700	37.792	0.099
795.800	27.355	0.099
795.900	37.300	0.099
796.000	48.398	0.099
796.100	38.591	0.099
796.200	18.868	0.099
796.300	51.402	0.099
796.400	21.072	0.099
796.500	46.078	0.099
796.600	39.054	0.099
796.700	33.169	0.099
796.800	43.150	0.099
796.900	42.942	0.099
797.000	41.464	0.099
797.100	29.868	0.099
797.200	46.079	0.099
797.300	32.143	0.099
797.400	39.510	0.099
797.500	36.177	0.099
797.600	32.477	0.099
797.700	39.369	0.099
797.800	26.759	0.099
797.900	35.839	0.099
798.000	31.994	0.099
798.100	31.946	0.099
798.200	34.267	0.099
798.300	54.155	0.099
798.400	26.365	0.099
798.500	23.399	0.099
798.600	34.441	0.099
798.700	63.663	0.099
798.800	41.090	0.099
798.900	38.047	0.099
799.000	27.571	0.099
799.100	30.985	0.099
799.200	35.015	0.099
799.300	43.867	0.099
799.400	30.629	0.099
799.500	35.778	0.099
799.600	32.165	0.099
799.700	43.244	0.099
799.800	50.086	0.099
799.900	38.660	0.099
800.000	22.664	0.099
