time /s	I /nA	E /V
0.100	-0.516	0.099
0.200	-6.550	0.099
0.300	-13.170	0.099
0.400	-0.665	0.099
0.500	4.172	0.099
0.600	-17.621	0.099
0.700	2.649	0.099
0.800	-3.578	0.099
0.900	-7.917	0.099
1.000	-16.184	0.099
1.100	-1.990	0.099
1.200	8.173	0.099
1.300	-12.980	0.099
1.400	-8.226	0.099
1.500	-3.597	0.099
1.600	-15.391	0.099
1.700	3.876	0.099
1.800	-6.128	0.099
1.900	-8.425	0.099
2.000	-8.750	0.099
2.100	-6.326	0.099
2.200	-14.056	0.099
2.300	-12.692	0.099
2.400	-0.698	0.099
2.500	8.086	0.099
2.600	-9.654	0.099
2.700	-14.171	0.099
2.800	-1.885	0.099
2.900	-5.263	0.099
3.000	6.294	0.099
3.100	-1.075	0.099
3.200	-3.584	0.099
3.300	-5.109	0.099
3.400	2.442	0.099
3.500	-18.172	0.099
3.600	3.171	0.099
3.700	-10.886	0.099
3.800	-2.154	0.099
3.900	12.361	0.099
4.000	-4.750	0.099
4.100	2.785	0.099
4.200	-11.183	0.099
4.300	-2.110	0.099
4.400	0.385	0.099
4.500	-6.916	0.099
4.600	-3.057	0.099
4.700	9.388	0.099
4.800	-5.691	0.099
4.900	-3.519	0.099
5.000	-20.572	0.099
5.100	-4.945	0.099
5.200	-24.507	0.099
5.300	3.574	0.099
5.400	-4.831	0.099
5.500	-9.553	0.099
5.600	4.060	0.099
5.700	-13.336	0.099
5.800	2.305	0.099
5.900	-15.189	0.099
6.000	-0.530	0.099
6.100	-6.287	0.099
6.200	-2.838	0.099
6.300	3.550	0.099
6.400	-11.614	0.099
6.500	-4.942	0.099
6.600	2.809	0.099
6.700	-18.882	0.099
6.800	-6.261	0.099
6.900	-11.611	0.099
7.000	-5.611	0.099
7.100	1.219	0.099
7.200	-6.438	0.099
7.300	-9.923	0.099
7.400	-3.410	0.099
7.500	8.938	0.099
7.600	5.070	0.099
7.700	3.183	0.099
7.800	-5.467	0.099
7.900	-5.917	0.099
8.000	-8.938	0.099
8.100	-8.293	0.099
8.200	-8.216	0.099
8.300	-12.635	0.099
8.400	-9.835	0.099
8.500	5.934	0.099
8.600	5.766	0.099
8.700	-10.811	0.099
8.800	-9.651	0.099
8.900	-10.539	0.099
9.000	-1.913	0.099
9.100	-14.343	0.099
9.200	-9.145	0.099
9.300	-11.600	0.099
9.400	8.573	0.099
9.500	-3.708	0.099
9.600	1.161	0.099
9.700	4.461	0.099
9.800	-6.712	0.099
9.900	-6.223	0.099
10.000	-11.847	0.099
10.100	-14.006	0.099
10.200	-7.283	0.099
10.300	-19.939	0.099
10.400	-14.665	0.099
10.500	5.474	0.099
10.600	6.290	0.099
10.700	-4.228	0.099
10.800	9.265	0.099
10.900	-18.125	0.099
11.000	-11.007	0.099
11.100	0.482	0.099
11.200	2.770	0.099
11.300	-6.573	0.099
11.400	6.495	0.099
11.500	-11.185	0.099
11.600	-1.457	0.099
11.700	-1.770	0.099
11.800	-4.258	0.099
11.900	-8.289	0.099
12.000	-11.202	0.099
12.100	-11.457	0.099
12.200	-12.936	0.099
12.300	-6.376	0.099
12.400	1.790	0.099
12.500	-10.720	0.099
12.600	1.352	0.099
12.700	-5.403	0.099
12.800	-5.993	0.099
12.900	-8.708	0.099
13.000	-11.056	0.099
13.100	-0.532	0.099
13.200	-17.582	0.099
13.300	1.849	0.099
13.400	-0.219	0.099
13.500	-1.090	0.099
13.600	-11.449	0.099
13.700	0.241	0.099
13.800	-7.091	0.099
13.900	-7.127	0.099
14.000	-3.776	0.099
14.100	1.340	0.099
14.200	-0.611	0.099
14.300	-8.387	0.099
14.400	2.983	0.099
14.500	8.053	0.099
14.600	4.507	0.099
14.700	-10.916	0.099
14.800	-13.182	0.099
14.900	2.204	0.099
15.000	-11.233	0.099
15.100	7.258	0.099
15.200	-14.630	0.099
15.300	3.808	0.099
15.400	-18.629	0.099
15.500	-8.239	0.099
15.600	1.257	0.099
15.700	-1.334	0.099
15.800	-1.407	0.099
15.900	-5.364	0.099
16.000	-10.696	0.099
16.100	-0.922	0.099
16.200	-3.427	0.099
16.300	-9.659	0.099
16.400	-13.238	0.099
16.500	-6.610	0.099
16.600	1.869	0.099
16.700	-16.943	0.099
16.800	1.785	0.099
16.900	-0.030	0.099
17.000	-0.502	0.099
17.100	-6.660	0.099
17.200	3.832	0.099
17.300	-1.951	0.099
17.400	-18.947	0.099
17.500	-3.305	0.099
17.600	-11.532	0.099
17.700	-7.738	0.099
17.800	10.261	0.099
17.900	-6.175	0.099
18.000	-5.173	0.099
18.100	-3.157	0.099
18.200	-8.175	0.099
18.300	-0.070	0.099
18.400	2.443	0.099
18.500	-11.467	0.099
18.600	1.014	0.099
18.700	-17.216	0.099
18.800	-0.262	0.099
18.900	7.550	0.099
19.000	-8.905	0.099
19.100	2.612	0.099
19.200	-2.802	0.099
19.300	-12.084	0.099
19.400	-13.545	0.099
19.500	-4.517	0.099
19.600	8.492	0.099
19.700	-5.867	0.099
19.800	5.078	0.099
19.900	-12.278	0.099
20.000	13.841	0.099
20.100	-10.838	0.099
20.200	-8.793	0.099
20.300	-12.239	0.099
20.400	-12.079	0.099
20.500	-8.432	0.099
20.600	-8.273	0.099
20.700	4.054	0.099
20.800	-5.674	0.099
20.900	-9.756	0.099
21.000	10.675	0.099
21.100	2.962	0.099
21.200	2.120	0.099
21.300	-12.667	0.099
21.400	-9.089	0.099
21.500	-2.247	0.099
21.600	-8.145	0.099
21.700	-10.350	0.099
21.800	-3.301	0.099
21.900	-3.515	0.099
22.000	-8.534	0.099
22.100	-8.507	0.099
22.200	0.252	0.099
22.300	-1.637	0.099
22.400	-13.409	0.099
22.500	-1.261	0.099
22.600	-10.100	0.099
22.700	-8.614	0.099
22.800	9.721	0.099
22.900	-6.355	0.099
23.000	2.218	0.099
23.100	-9.597	0.099
23.200	-5.222	0.099
23.300	-8.626	0.099
23.400	1.554	0.099
23.500	-22.114	0.099
23.600	2.809	0.099
23.700	-8.685	0.099
23.800	-9.748	0.099
23.900	-5.513	0.099
24.000	-0.533	0.099
24.100	-13.273	0.099
24.200	-9.033	0.099
24.300	3.256	0.099
24.400	10.198	0.099
24.500	-3.615	0.099
24.600	-9.908	0.099
24.700	-4.630	0.099
24.800	2.336	0.099
24.900	-18.360	0.099
25.000	-4.665	0.099
25.100	-3.444	0.099
25.200	4.755	0.099
25.300	-2.175	0.099
25.400	-8.202	0.099
25.500	-6.657	0.099
25.600	8.498	0.099
25.700	-3.150	0.099
25.800	0.677	0.099
25.900	-10.483	0.099
26.000	8.677	0.099
26.100	-11.834	0.099
26.200	1.299	0.099
26.300	-0.049	0.099
26.400	2.636	0.099
26.500	-10.959	0.099
26.600	-1.034	0.099
26.700	-16.211	0.099
26.800	0.442	0.099
26.900	-4.194	0.099
27.000	-1.798	0.099
27.100	-1.652	0.099
27.200	-2.562	0.099
27.300	-7.308	0.099
27.400	5.043	0.099
27.500	0.253	0.099
27.600	-14.400	0.099
27.700	-1.223	0.099
27.800	4.470	0.099
27.900	-12.321	0.099
28.000	-12.664	0.099
28.100	-10.433	0.099
28.200	1.391	0.099
28.300	-7.261	0.099
28.400	-11.471	0.099
28.500	-1.955	0.099
28.600	-4.101	0.099
28.700	-6.741	0.099
28.800	-12.348	0.099
28.900	-3.814	0.099
29.000	-7.657	0.099
29.100	5.942	0.099
29.200	5.533	0.099
29.300	-5.824	0.099
29.400	4.250	0.099
29.500	-16.214	0.099
29.600	-0.754	0.099
29.700	-0.725	0.099
29.800	5.634	0.099
29.900	-17.609	0.099
30.000	-5.853	0.099
30.100	14.430	0.099
30.200	-4.453	0.099
30.300	-11.510	0.099
30.400	-0.931	0.099
30.500	-5.131	0.099
30.600	5.933	0.099
30.700	2.567	0.099
30.800	-1.791	0.099
30.900	2.134	0.099
31.000	8.181	0.099
31.100	3.079	0.099
31.200	-7.192	0.099
31.300	0.884	0.099
31.400	20.182	0.099
31.500	7.569	0.099
31.600	12.815	0.099
31.700	2.700	0.099
31.800	9.539	0.099
31.900	4.758	0.099
32.000	11.556	0.099
32.100	5.538	0.099
32.200	1.841	0.099
32.300	7.834	0.099
32.400	19.173	0.099
32.500	7.998	0.099
32.600	20.016	0.099
32.700	-0.774	0.099
32.800	6.605	0.099
32.900	8.869	0.099
33.000	4.496	0.099
33.100	14.956	0.099
33.200	3.570	0.099
33.300	17.362	0.099
33.400	11.580	0.099
33.500	26.164	0.099
33.600	14.720	0.099
33.700	9.544	0.099
33.800	15.564	0.099
33.900	0.738	0.099
34.000	14.471	0.099
34.100	21.734	0.099
34.200	7.576	0.099
34.300	11.308	0.099
34.400	22.907	0.099
34.500	22.188	0.099
34.600	15.369	0.099
34.700	12.962	0.099
34.800	0.129	0.099
34.900	12.140	0.099
35.000	9.682	0.099
35.100	19.141	0.099
35.200	18.000	0.099
35.300	21.406	0.099
35.400	-2.618	0.099
35.500	20.975	0.099
35.600	0.136	0.099
35.700	19.677	0.099
35.800	12.680	0.099
35.900	27.625	0.099
36.000	19.021	0.099
36.100	13.070	0.099
36.200	6.889	0.099
36.300	17.453	0.099
36.400	19.119	0.099
36.500	24.317	0.099
36.600	17.120	0.099
36.700	19.448	0.099
36.800	24.750	0.099
36.900	21.771	0.099
37.000	7.799	0.099
37.100	18.968	0.099
37.200	4.542	0.099
37.300	34.030	0.099
37.400	1.155	0.099
37.500	15.088	0.099
37.600	11.461	0.099
37.700	23.417	0.099
37.800	12.913	0.099
37.900	22.445	0.099
38.000	21.413	0.099
38.100	24.554	0.099
38.200	10.479	0.099
38.300	28.132	0.099
38.400	36.701	0.099
38.500	4.659	0.099
38.600	18.322	0.099
38.700	23.849	0.099
38.800	10.644	0.099
38.900	23.220	0.099
39.000	13.798	0.099
39.100	23.823	0.099
39.200	16.059	0.099
39.300	33.433	0.099
39.400	15.707	0.099
39.500	10.752	0.099
39.600	26.328	0.099
39.700	23.173	0.099
39.800	13.125	0.099
39.900	29.511	0.099
40.000	1.805	0.099
40.100	23.586	0.099
40.200	26.534	0.099
40.300	17.110	0.099
40.400	28.010	0.099
40.500	16.576	0.099
40.600	16.141	0.099
40.700	19.590	0.099
40.800	20.104	0.099
40.900	17.684	0.099
41.000	19.368	0.099
41.100	15.141	0.099
41.200	12.555	0.099
41.300	19.933	0.099
41.400	25.450	0.099
41.500	17.908	0.099
41.600	26.625	0.099
41.700	26.352	0.099
41.800	21.434	0.099
41.900	15.984	0.099
42.000	25.578	0.099
42.100	21.569	0.099
42.200	33.640	0.099
42.300	20.329	0.099
42.400	17.112	0.099
42.500	23.632	0.099
42.600	36.813	0.099
42.700	24.154	0.099
42.800	21.196	0.099
42.900	21.887	0.099
43.000	3.407	0.099
43.100	26.118	0.099
43.200	24.835	0.099
43.300	20.930	0.099
43.400	21.433	0.099
43.500	21.894	0.099
43.600	21.573	0.099
43.700	40.252	0.099
43.800	21.843	0.099
43.900	17.812	0.099
44.000	27.851	0.099
44.100	21.199	0.099
44.200	19.472	0.099
44.300	10.911	0.099
44.400	32.711	0.099
44.500	17.115	0.099
44.600	25.624	0.099
44.700	31.522	0.099
44.800	28.810	0.099
44.900	23.586	0.099
45.000	16.357	0.099
45.100	36.279	0.099
45.200	24.191	0.099
45.300	22.474	0.099
45.400	12.328	0.099
45.500	15.831	0.099
45.600	24.734	0.099
45.700	28.253	0.099
45.800	23.162	0.099
45.900	16.829	0.099
46.000	25.591	0.099
46.100	14.939	0.099
46.200	27.354	0.099
46.300	25.931	0.099
46.400	13.129	0.099
46.500	19.559	0.099
46.600	33.692	0.099
46.700	36.790	0.099
46.800	19.427	0.099
46.900	18.767	0.099
47.000	21.444	0.099
47.100	5.831	0.099
47.200	36.042	0.099
47.300	27.228	0.099
47.400	21.998	0.099
47.500	21.656	0.099
47.600	24.952	0.099
47.700	23.804	0.099
47.800	16.452	0.099
47.900	21.257	0.099
48.000	15.821	0.099
48.100	19.652	0.099
48.200	27.101	0.099
48.300	20.513	0.099
48.400	29.344	0.099
48.500	1.910	0.099
48.600	19.546	0.099
48.700	27.100	0.099
48.800	22.824	0.099
48.900	8.562	0.099
49.000	31.878	0.099
49.100	37.172	0.099
49.200	22.526	0.099
49.300	14.691	0.099
49.400	27.877	0.099
49.500	31.719	0.099
49.600	14.739	0.099
49.700	16.966	0.099
49.800	24.067	0.099
49.900	16.101	0.099
50.000	20.082	0.099
50.100	22.592	0.099
50.200	18.674	0.099
50.300	22.351	0.099
50.400	28.896	0.099
50.500	14.409	0.099
50.600	29.133	0.099
50.700	24.046	0.099
50.800	24.838	0.099
50.900	17.204	0.099
51.000	8.295	0.099
51.100	20.901	0.099
51.200	25.500	0.099
51.300	16.132	0.099
51.400	29.660	0.099
51.500	17.589	0.099
51.600	19.766	0.099
51.700	28.458	0.099
51.800	35.355	0.099
51.900	20.033	0.099
52.000	17.356	0.099
52.100	22.299	0.099
52.200	33.199	0.099
52.300	21.029	0.099
52.400	32.319	0.099
52.500	11.924	0.099
52.600	23.341	0.099
52.700	28.167	0.099
52.800	24.585	0.099
52.900	19.616	0.099
53.000	24.911	0.099
53.100	22.281	0.099
53.200	26.406	0.099
53.300	28.313	0.099
53.400	15.806	0.099
53.500	17.534	0.099
53.600	19.720	0.099
53.700	34.877	0.099
53.800	35.166	0.099
53.900	20.456	0.099
54.000	26.671	0.099
54.100	12.077	0.099
54.200	20.526	0.099
54.300	20.188	0.099
54.400	11.574	0.099
54.500	21.394	0.099
54.600	31.744	0.099
54.700	26.668	0.099
54.800	20.842	0.099
54.900	15.781	0.099
55.000	17.574	0.099
55.100	29.692	0.099
55.200	23.773	0.099
55.300	12.529	0.099
55.400	30.653	0.099
55.500	7.310	0.099
55.600	33.678	0.099
55.700	22.282	0.099
55.800	23.844	0.099
55.900	16.611	0.099
56.000	22.668	0.099
56.100	23.264	0.099
56.200	39.619	0.099
56.300	27.248	0.099
56.400	20.802	0.099
56.500	13.536	0.099
56.600	32.483	0.099
56.700	14.991	0.099
56.800	29.597	0.099
56.900	20.155	0.099
57.000	24.918	0.099
57.100	22.393	0.099
57.200	8.987	0.099
57.300	27.355	0.099
57.400	15.879	0.099
57.500	28.012	0.099
57.600	4.077	0.099
57.700	33.256	0.099
57.800	18.557	0.099
57.900	35.828	0.099
58.000	4.822	0.099
58.100	42.724	0.099
58.200	30.310	0.099
58.300	11.319	0.099
58.400	20.932	0.099
58.500	19.444	0.099
58.600	24.508	0.099
58.700	26.782	0.099
58.800	20.818	0.099
58.900	20.565	0.099
59.000	26.317	0.099
59.100	32.420	0.099
59.200	30.905	0.099
59.300	5.549	0.099
59.400	35.134	0.099
59.500	14.636	0.099
59.600	15.657	0.099
59.700	19.584	0.099
59.800	9.140	0.099
59.900	19.604	0.099
60.000	22.754	0.099
60.100	20.232	0.099
60.200	28.500	0.099
60.300	16.988	0.099
60.400	28.813	0.099
60.500	16.725	0.099
60.600	15.600	0.099
60.700	19.640	0.099
60.800	22.400	0.099
60.900	24.331	0.099
61.000	26.957	0.099
61.100	13.881	0.099
61.200	28.146	0.099
61.300	25.095	0.099
61.400	26.518	0.099
61.500	29.043	0.099
61.600	28.201	0.099
61.700	10.260	0.099
61.800	20.112	0.099
61.900	17.628	0.099
62.000	21.267	0.099
62.100	21.670	0.099
62.200	16.766	0.099
62.300	18.090	0.099
62.400	16.338	0.099
62.500	20.055	0.099
62.600	26.085	0.099
62.700	29.412	0.099
62.800	19.715	0.099
62.900	33.160	0.099
63.000	25.677	0.099
63.100	8.665	0.099
63.200	21.225	0.099
63.300	17.624	0.099
63.400	30.222	0.099
63.500	26.431	0.099
63.600	20.165	0.099
63.700	14.592	0.099
63.800	20.383	0.099
63.900	31.397	0.099
64.000	28.026	0.099
64.100	18.655	0.099
64.200	30.154	0.099
64.300	24.506	0.099
64.400	19.785	0.099
64.500	30.961	0.099
64.600	27.650	0.099
64.700	27.354	0.099
64.800	22.443	0.099
64.900	11.232	0.099
65.000	14.354	0.099
65.100	30.171	0.099
65.200	11.589	0.099
65.300	17.892	0.099
65.400	20.396	0.099
65.500	16.463	0.099
65.600	27.158	0.099
65.700	26.552	0.099
65.800	26.861	0.099
65.900	29.685	0.099
66.000	32.734	0.099
66.100	34.673	0.099
66.200	20.239	0.099
66.300	29.130	0.099
66.400	34.058	0.099
66.500	18.852	0.099
66.600	15.276	0.099
66.700	20.331	0.099
66.800	28.731	0.099
66.900	28.256	0.099
67.000	35.952	0.099
67.100	4.518	0.099
67.200	27.236	0.099
67.300	23.720	0.099
67.400	17.960	0.099
67.500	25.276	0.099
67.600	15.502	0.099
67.700	26.412	0.099
67.800	28.090	0.099
67.900	23.720	0.099
68.000	8.586	0.099
68.100	33.855	0.099
68.200	18.929	0.099
68.300	24.958	0.099
68.400	18.893	0.099
68.500	16.716	0.099
68.600	26.067	0.099
68.700	16.193	0.099
68.800	6.931	0.099
68.900	34.332	0.099
69.000	22.158	0.099
69.100	23.780	0.099
69.200	36.442	0.099
69.300	17.901	0.099
69.400	23.145	0.099
69.500	23.600	0.099
69.600	20.264	0.099
69.700	34.838	0.099
69.800	-9.595	0.099
69.900	31.633	0.099
70.000	21.229	0.099
70.100	27.199	0.099
70.200	23.017	0.099
70.300	26.654	0.099
70.400	15.987	0.099
70.500	24.516	0.099
70.600	33.498	0.099
70.700	22.540	0.099
70.800	23.727	0.099
70.900	18.016	0.099
71.000	24.093	0.099
71.100	22.408	0.099
71.200	31.329	0.099
71.300	33.822	0.099
71.400	23.309	0.099
71.500	7.670	0.099
71.600	29.914	0.099
71.700	15.349	0.099
71.800	16.669	0.099
71.900	26.416	0.099
72.000	29.335	0.099
72.100	31.022	0.099
72.200	14.221	0.099
72.300	17.455	0.099
72.400	37.227	0.099
72.500	32.518	0.099
72.600	17.143	0.099
72.700	16.761	0.099
72.800	17.536	0.099
72.900	16.293	0.099
73.000	22.307	0.099
73.100	16.540	0.099
73.200	10.483	0.099
73.300	64.388	0.099
73.400	23.801	0.099
73.500	22.507	0.099
73.600	26.448	0.099
73.700	27.615	0.099
73.800	21.299	0.099
73.900	20.109	0.099
74.000	27.190	0.099
74.100	18.274	0.099
74.200	15.610	0.099
74.300	17.755	0.099
74.400	27.627	0.099
74.500	27.151	0.099
74.600	27.739	0.099
74.700	31.307	0.099
74.800	26.905	0.099
74.900	33.589	0.099
75.000	29.171	0.099
75.100	23.321	0.099
75.200	17.004	0.099
75.300	22.512	0.099
75.400	26.831	0.099
75.500	12.476	0.099
75.600	32.911	0.099
75.700	26.328	0.099
75.800	22.285	0.099
75.900	25.889	0.099
76.000	27.237	0.099
76.100	31.076	0.099
76.200	25.217	0.099
76.300	26.952	0.099
76.400	23.543	0.099
76.500	11.087	0.099
76.600	41.058	0.099
76.700	23.445	0.099
76.800	34.540	0.099
76.900	16.773	0.099
77.000	20.061	0.099
77.100	40.542	0.099
77.200	22.635	0.099
77.300	14.450	0.099
77.400	25.066	0.099
77.500	14.115	0.099
77.600	23.797	0.099
77.700	35.166	0.099
77.800	21.782	0.099
77.900	32.694	0.099
78.000	21.161	0.099
78.100	18.899	0.099
78.200	13.572	0.099
78.300	11.824	0.099
78.400	24.858	0.099
78.500	33.506	0.099
78.600	15.512	0.099
78.700	27.808	0.099
78.800	19.752	0.099
78.900	36.258	0.099
79.000	28.685	0.099
79.100	31.112	0.099
79.200	11.310	0.099
79.300	28.480	0.099
79.400	18.571	0.099
79.500	30.637	0.099
79.600	29.406	0.099
79.700	20.709	0.099
79.800	25.101	0.099
79.900	19.165	0.099
80.000	23.960	0.099
80.100	14.473	0.099
80.200	23.045	0.099
80.300	42.290	0.099
80.400	24.167	0.099
80.500	21.833	0.099
80.600	19.806	0.099
80.700	13.720	0.099
80.800	17.392	0.099
80.900	36.955	0.099
81.000	33.666	0.099
81.100	21.913	0.099
81.200	12.793	0.099
81.300	35.367	0.099
81.400	36.258	0.099
81.500	30.719	0.099
81.600	19.410	0.099
81.700	33.076	0.099
81.800	26.470	0.099
81.900	31.882	0.099
82.000	-2.431	0.099
82.100	14.641	0.099
82.200	27.498	0.099
82.300	29.709	0.099
82.400	22.614	0.099
82.500	32.316	0.099
82.600	27.318	0.099
82.700	27.234	0.099
82.800	27.971	0.099
82.900	29.571	0.099
83.000	25.887	0.099
83.100	23.353	0.099
83.200	19.781	0.099
83.300	36.859	0.099
83.400	17.356	0.099
83.500	42.683	0.099
83.600	22.603	0.099
83.700	26.961	0.099
83.800	8.230	0.099
83.900	51.004	0.099
84.000	16.590	0.099
84.100	15.767	0.099
84.200	24.964	0.099
84.300	26.035	0.099
84.400	19.218	0.099
84.500	19.602	0.099
84.600	31.259	0.099
84.700	23.609	0.099
84.800	17.846	0.099
84.900	25.393	0.099
85.000	10.684	0.099
85.100	13.554	0.099
85.200	33.603	0.099
85.300	26.129	0.099
85.400	27.636	0.099
85.500	30.924	0.099
85.600	31.533	0.099
85.700	22.479	0.099
85.800	39.300	0.099
85.900	35.404	0.099
86.000	22.396	0.099
86.100	40.389	0.099
86.200	20.665	0.099
86.300	19.852	0.099
86.400	20.627	0.099
86.500	11.430	0.099
86.600	39.625	0.099
86.700	29.911	0.099
86.800	36.472	0.099
86.900	22.370	0.099
87.000	20.977	0.099
87.100	23.007	0.099
87.200	26.702	0.099
87.300	26.699	0.099
87.400	13.122	0.099
87.500	33.939	0.099
87.600	4.776	0.099
87.700	20.089	0.099
87.800	34.214	0.099
87.900	34.365	0.099
88.000	18.409	0.099
88.100	17.016	0.099
88.200	35.265	0.099
88.300	17.603	0.099
88.400	26.523	0.099
88.500	31.616	0.099
88.600	23.874	0.099
88.700	27.703	0.099
88.800	26.646	0.099
88.900	24.363	0.099
89.000	25.461	0.099
89.100	25.332	0.099
89.200	27.643	0.099
89.300	29.265	0.099
89.400	13.492	0.099
89.500	39.415	0.099
89.600	23.498	0.099
89.700	16.436	0.099
89.800	30.603	0.099
89.900	28.389	0.099
90.000	18.025	0.099
90.100	21.649	0.099
90.200	16.314	0.099
90.300	12.403	0.099
90.400	36.652	0.099
90.500	31.044	0.099
90.600	8.121	0.099
90.700	22.711	0.099
90.800	18.464	0.099
90.900	7.519	0.099
91.000	30.645	0.099
91.100	10.212	0.099
91.200	10.430	0.099
91.300	14.570	0.099
91.400	15.645	0.099
91.500	16.805	0.099
91.600	11.540	0.099
91.700	10.021	0.099
91.800	6.796	0.099
91.900	7.946	0.099
92.000	2.919	0.099
92.100	11.982	0.099
92.200	9.536	0.099
92.300	12.509	0.099
92.400	8.586	0.099
92.500	-2.549	0.099
92.600	7.559	0.099
92.700	13.295	0.099
92.800	24.216	0.099
92.900	-0.023	0.099
93.000	5.153	0.099
93.100	-4.196	0.099
93.200	-6.662	0.099
93.300	9.540	0.099
93.400	-0.091	0.099
93.500	0.085	0.099
93.600	1.907	0.099
93.700	8.732	0.099
93.800	-4.842	0.099
93.900	-13.694	0.099
94.000	0.421	0.099
94.100	-8.025	0.099
94.200	8.322	0.099
94.300	4.973	0.099
94.400	-6.091	0.099
94.500	13.814	0.099
94.600	-11.904	0.099
94.700	-12.291	0.099
94.800	2.623	0.099
94.900	21.983	0.099
95.000	4.548	0.099
95.100	-0.298	0.099
95.200	5.892	0.099
95.300	7.537	0.099
95.400	5.932	0.099
95.500	0.640	0.099
95.600	-12.592	0.099
95.700	-5.419	0.099
95.800	-9.081	0.099
95.900	1.466	0.099
96.000	-0.942	0.099
96.100	-8.661	0.099
96.200	0.341	0.099
96.300	5.640	0.099
96.400	0.348	0.099
96.500	-3.965	0.099
96.600	-5.812	0.099
96.700	-5.634	0.099
96.800	0.446	0.099
96.900	4.973	0.099
97.000	-7.168	0.099
97.100	5.070	0.099
97.200	18.363	0.099
97.300	-11.633	0.099
97.400	6.683	0.099
97.500	-0.268	0.099
97.600	-10.145	0.099
97.700	4.615	0.099
97.800	2.460	0.099
97.900	-7.758	0.099
98.000	-1.031	0.099
98.100	15.582	0.099
98.200	0.583	0.099
98.300	-19.722	0.099
98.400	4.738	0.099
98.500	-10.588	0.099
98.600	5.020	0.099
98.700	3.438	0.099
98.800	-14.110	0.099
98.900	-0.120	0.099
99.000	7.644	0.099
99.100	-9.172	0.099
99.200	9.251	0.099
99.300	2.514	0.099
99.400	2.651	0.099
99.500	1.006	0.099
99.600	-0.051	0.099
99.700	-0.589	0.099
99.800	-3.721	0.099
99.900	2.178	0.099
100.000	-7.539	0.099
100.100	-6.097	0.099
100.200	-6.395	0.099
100.300	0.185	0.099
100.400	-12.895	0.099
100.500	0.737	0.099
100.600	-1.481	0.099
100.700	1.602	0.099
100.800	-8.980	0.099
100.900	3.294	0.099
101.000	4.701	0.099
101.100	2.407	0.099
101.200	-9.897	0.099
101.300	-12.946	0.099
101.400	0.636	0.099
101.500	-5.427	0.099
101.600	1.803	0.099
101.700	3.203	0.099
101.800	-3.578	0.099
101.900	7.873	0.099
102.000	-3.472	0.099
102.100	-6.509	0.099
102.200	-17.098	0.099
102.300	4.058	0.099
102.400	-10.918	0.099
102.500	1.450	0.099
102.600	-30.007	0.099
102.700	11.457	0.099
102.800	-2.593	0.099
102.900	-2.602	0.099
103.000	-12.137	0.099
103.100	-12.837	0.099
103.200	3.754	0.099
103.300	-23.044	0.099
103.400	4.225	0.099
103.500	0.116	0.099
103.600	-6.731	0.099
103.700	-0.523	0.099
103.800	-9.392	0.099
103.900	-17.059	0.099
104.000	-1.971	0.099
104.100	-11.060	0.099
104.200	-4.383	0.099
104.300	-5.453	0.099
104.400	-1.687	0.099
104.500	-12.208	0.099
104.600	-5.259	0.099
104.700	-7.908	0.099
104.800	-8.381	0.099
104.900	-9.553	0.099
105.000	-6.810	0.099
105.100	-6.888	0.099
105.200	-14.929	0.099
105.300	5.554	0.099
105.400	-18.136	0.099
105.500	-10.099	0.099
105.600	6.382	0.099
105.700	-28.029	0.099
105.800	-14.108	0.099
105.900	2.959	0.099
106.000	-10.422	0.099
106.100	2.797	0.099
106.200	-27.295	0.099
106.300	-9.067	0.099
106.400	-9.577	0.099
106.500	-19.636	0.099
106.600	-5.270	0.099
106.700	-5.069	0.099
106.800	-11.145	0.099
106.900	-14.633	0.099
107.000	-12.812	0.099
107.100	-0.606	0.099
107.200	-7.995	0.099
107.300	0.052	0.099
107.400	-11.045	0.099
107.500	-5.184	0.099
107.600	-14.376	0.099
107.700	-2.603	0.099
107.800	-6.111	0.099
107.900	-5.942	0.099
108.000	-16.668	0.099
108.100	-22.154	0.099
108.200	3.982	0.099
108.300	-0.773	0.099
108.400	-13.990	0.099
108.500	-5.974	0.099
108.600	-6.415	0.099
108.700	-6.103	0.099
108.800	-8.105	0.099
108.900	-7.604	0.099
109.000	-12.396	0.099
109.100	-7.600	0.099
109.200	-2.284	0.099
109.300	-8.936	0.099
109.400	-5.810	0.099
109.500	-22.312	0.099
109.600	-11.722	0.099
109.700	-17.686	0.099
109.800	-18.703	0.099
109.900	-18.831	0.099
110.000	-9.125	0.099
110.100	6.450	0.099
110.200	-18.408	0.099
110.300	-15.648	0.099
110.400	-2.341	0.099
110.500	-13.384	0.099
110.600	-2.249	0.099
110.700	-13.282	0.099
110.800	-11.648	0.099
110.900	-1.552	0.099
111.000	-13.117	0.099
111.100	-14.790	0.099
111.200	-16.481	0.099
111.300	-7.527	0.099
111.400	-13.508	0.099
111.500	-11.684	0.099
111.600	-11.113	0.099
111.700	-11.212	0.099
111.800	-8.303	0.099
111.900	-0.557	0.099
112.000	-13.476	0.099
112.100	-13.014	0.099
112.200	-14.398	0.099
112.300	-21.776	0.099
112.400	-2.186	0.099
112.500	5.891	0.099
112.600	-34.313	0.099
112.700	-6.597	0.099
112.800	-19.887	0.099
112.900	0.026	0.099
113.000	-4.701	0.099
113.100	-4.928	0.099
113.200	-13.488	0.099
113.300	-13.865	0.099
113.400	-21.486	0.099
113.500	-0.839	0.099
113.600	-2.199	0.099
113.700	-13.467	0.099
113.800	-15.272	0.099
113.900	-21.228	0.099
114.000	-1.483	0.099
114.100	-6.247	0.099
114.200	-6.534	0.099
114.300	-17.475	0.099
114.400	-14.509	0.099
114.500	-2.200	0.099
114.600	-14.308	0.099
114.700	-3.434	0.099
114.800	-4.030	0.099
114.900	6.079	0.099
115.000	-11.975	0.099
115.100	-9.864	0.099
115.200	-2.581	0.099
115.300	-6.888	0.099
115.400	-8.169	0.099
115.500	-0.343	0.099
115.600	-12.337	0.099
115.700	-17.576	0.099
115.800	-4.314	0.099
115.900	-12.277	0.099
116.000	-26.244	0.099
116.100	-2.281	0.099
116.200	-0.483	0.099
116.300	-22.646	0.099
116.400	-20.182	0.099
116.500	-10.894	0.099
116.600	-7.810	0.099
116.700	-13.905	0.099
116.800	-20.220	0.099
116.900	-6.725	0.099
117.000	-10.987	0.099
117.100	-16.615	0.099
117.200	-6.917	0.099
117.300	-12.588	0.099
117.400	-15.838	0.099
117.500	-15.993	0.099
117.600	-11.468	0.099
117.700	-14.996	0.099
117.800	-18.208	0.099
117.900	-7.559	0.099
118.000	-17.333	0.099
118.100	-3.260	0.099
118.200	-6.439	0.099
118.300	-15.257	0.099
118.400	-7.374	0.099
118.500	-18.805	0.099
118.600	-13.955	0.099
118.700	-0.797	0.099
118.800	-10.629	0.099
118.900	-28.499	0.099
119.000	-7.572	0.099
119.100	-11.956	0.099
119.200	-2.974	0.099
119.300	-14.158	0.099
119.400	-11.232	0.099
119.500	0.847	0.099
119.600	-7.719	0.099
119.700	-15.251	0.099
119.800	-8.103	0.099
119.900	-11.632	0.099
120.000	-20.667	0.099
120.100	-17.149	0.099
120.200	-12.416	0.099
120.300	-14.027	0.099
120.400	-10.138	0.099
120.500	1.228	0.099
120.600	2.357	0.099
120.700	-26.312	0.099
120.800	-13.573	0.099
120.900	-9.949	0.099
121.000	-10.879	0.099
121.100	-12.110	0.099
121.200	-8.239	0.099
121.300	-15.573	0.099
121.400	-15.653	0.099
121.500	-10.491	0.099
121.600	-11.842	0.099
121.700	-26.481	0.099
121.800	4.136	0.099
121.900	-12.466	0.099
122.000	-7.435	0.099
122.100	3.291	0.099
122.200	-21.809	0.099
122.300	-14.614	0.099
122.400	-2.332	0.099
122.500	-26.545	0.099
122.600	-5.007	0.099
122.700	-10.668	0.099
122.800	-4.019	0.099
122.900	-20.904	0.099
123.000	-2.198	0.099
123.100	-5.079	0.099
123.200	-22.493	0.099
123.300	-12.426	0.099
123.400	-8.740	0.099
123.500	-22.278	0.099
123.600	-14.416	0.099
123.700	-1.190	0.099
123.800	-4.356	0.099
123.900	-21.895	0.099
124.000	-5.817	0.099
124.100	-4.266	0.099
124.200	-21.585	0.099
124.300	-27.915	0.099
124.400	-10.359	0.099
124.500	6.349	0.099
124.600	-9.088	0.099
124.700	-11.120	0.099
124.800	-16.771	0.099
124.900	5.642	0.099
125.000	-8.525	0.099
125.100	-1.246	0.099
125.200	-20.110	0.099
125.300	-9.605	0.099
125.400	-7.279	0.099
125.500	-19.586	0.099
125.600	-11.350	0.099
125.700	-13.400	0.099
125.800	1.305	0.099
125.900	-15.487	0.099
126.000	-12.085	0.099
126.100	-13.924	0.099
126.200	-7.552	0.099
126.300	-18.184	0.099
126.400	-2.229	0.099
126.500	-14.636	0.099
126.600	-7.985	0.099
126.700	-10.339	0.099
126.800	-16.077	0.099
126.900	-20.529	0.099
127.000	-26.896	0.099
127.100	-12.951	0.099
127.200	-19.595	0.099
127.300	1.659	0.099
127.400	-10.997	0.099
127.500	-5.853	0.099
127.600	-19.604	0.099
127.700	0.490	0.099
127.800	-5.069	0.099
127.900	-14.172	0.099
128.000	-8.311	0.099
128.100	-5.869	0.099
128.200	-7.862	0.099
128.300	-29.306	0.099
128.400	-7.375	0.099
128.500	-22.596	0.099
128.600	-2.912	0.099
128.700	6.742	0.099
128.800	-31.414	0.099
128.900	-25.680	0.099
129.000	-10.262	0.099
129.100	-9.971	0.099
129.200	-3.375	0.099
129.300	-4.629	0.099
129.400	-14.301	0.099
129.500	-9.912	0.099
129.600	-11.273	0.099
129.700	-19.317	0.099
129.800	-16.307	0.099
129.900	-17.359	0.099
130.000	4.305	0.099
130.100	-8.762	0.099
130.200	-4.902	0.099
130.300	-6.283	0.099
130.400	-3.861	0.099
130.500	-22.059	0.099
130.600	-10.035	0.099
130.700	-12.736	0.099
130.800	-14.220	0.099
130.900	-8.981	0.099
131.000	-9.544	0.099
131.100	-1.492	0.099
131.200	-3.323	0.099
131.300	-9.449	0.099
131.400	-24.399	0.099
131.500	0.563	0.099
131.600	-0.716	0.099
131.700	-19.537	0.099
131.800	-17.361	0.099
131.900	-25.087	0.099
132.000	1.034	0.099
132.100	9.877	0.099
132.200	-18.587	0.099
132.300	-21.270	0.099
132.400	-14.856	0.099
132.500	-17.788	0.099
132.600	-16.421	0.099
132.700	-7.997	0.099
132.800	-12.720	0.099
132.900	-15.538	0.099
133.000	-17.352	0.099
133.100	-15.831	0.099
133.200	-10.898	0.099
133.300	-8.479	0.099
133.400	-8.095	0.099
133.500	-13.077	0.099
133.600	7.264	0.099
133.700	-7.995	0.099
133.800	-21.702	0.099
133.900	-9.311	0.099
134.000	-16.278	0.099
134.100	1.562	0.099
134.200	-19.413	0.099
134.300	-6.440	0.099
134.400	-2.324	0.099
134.500	-15.087	0.099
134.600	-13.398	0.099
134.700	-24.416	0.099
134.800	4.310	0.099
134.900	-0.075	0.099
135.000	-5.027	0.099
135.100	-10.807	0.099
135.200	-5.505	0.099
135.300	-8.699	0.099
135.400	-9.378	0.099
135.500	-2.863	0.099
135.600	-12.666	0.099
135.700	-9.437	0.099
135.800	-4.277	0.099
135.900	-15.446	0.099
136.000	-18.941	0.099
136.100	-15.300	0.099
136.200	-11.392	0.099
136.300	-15.630	0.099
136.400	-4.660	0.099
136.500	-13.927	0.099
136.600	-32.003	0.099
136.700	-2.005	0.099
136.800	2.226	0.099
136.900	-13.401	0.099
137.000	-17.062	0.099
137.100	-6.833	0.099
137.200	-16.309	0.099
137.300	-10.768	0.099
137.400	-18.046	0.099
137.500	-17.922	0.099
137.600	-5.407	0.099
137.700	-2.854	0.099
137.800	-4.460	0.099
137.900	-12.624	0.099
138.000	-8.597	0.099
138.100	-7.990	0.099
138.200	-13.712	0.099
138.300	-9.977	0.099
138.400	-7.325	0.099
138.500	-7.641	0.099
138.600	-18.951	0.099
138.700	-14.698	0.099
138.800	-16.461	0.099
138.900	-11.226	0.099
139.000	-9.719	0.099
139.100	-16.719	0.099
139.200	-10.059	0.099
139.300	-14.812	0.099
139.400	-8.039	0.099
139.500	-15.817	0.099
139.600	-14.490	0.099
139.700	-3.015	0.099
139.800	-13.622	0.099
139.900	-4.148	0.099
140.000	-1.489	0.099
140.100	-17.288	0.099
140.200	-3.729	0.099
140.300	-21.042	0.099
140.400	-5.310	0.099
140.500	-6.229	0.099
140.600	-10.919	0.099
140.700	-13.144	0.099
140.800	-9.453	0.099
140.900	-3.238	0.099
141.000	-5.426	0.099
141.100	-8.614	0.099
141.200	-23.825	0.099
141.300	2.608	0.099
141.400	-21.055	0.099
141.500	-9.076	0.099
141.600	1.143	0.099
141.700	-3.940	0.099
141.800	-8.156	0.099
141.900	-5.798	0.099
142.000	-23.987	0.099
142.100	-10.869	0.099
142.200	-8.840	0.099
142.300	-6.779	0.099
142.400	-0.408	0.099
142.500	-19.886	0.099
142.600	-2.148	0.099
142.700	1.085	0.099
142.800	-0.267	0.099
142.900	-3.917	0.099
143.000	-7.530	0.099
143.100	-14.167	0.099
143.200	-17.127	0.099
143.300	5.882	0.099
143.400	-22.904	0.099
143.500	-9.944	0.099
143.600	-6.779	0.099
143.700	-12.946	0.099
143.800	-14.507	0.099
143.900	-12.983	0.099
144.000	-12.015	0.099
144.100	-0.435	0.099
144.200	-18.494	0.099
144.300	-14.933	0.099
144.400	0.727	0.099
144.500	-21.219	0.099
144.600	-7.220	0.099
144.700	-1.080	0.099
144.800	-11.166	0.099
144.900	-10.946	0.099
145.000	-29.316	0.099
145.100	-1.562	0.099
145.200	-14.334	0.099
145.300	10.836	0.099
145.400	-15.693	0.099
145.500	-4.077	0.099
145.600	-16.120	0.099
145.700	-10.478	0.099
145.800	-2.163	0.099
145.900	-15.429	0.099
146.000	-6.043	0.099
146.100	-19.158	0.099
146.200	-1.628	0.099
146.300	-9.615	0.099
146.400	-14.603	0.099
146.500	-10.012	0.099
146.600	-4.412	0.099
146.700	-15.851	0.099
146.800	4.693	0.099
146.900	-16.925	0.099
147.000	-27.530	0.099
147.100	1.912	0.099
147.200	-2.103	0.099
147.300	-16.149	0.099
147.400	0.496	0.099
147.500	-11.608	0.099
147.600	16.660	0.099
147.700	-16.122	0.099
147.800	-10.222	0.099
147.900	-14.361	0.099
148.000	3.738	0.099
148.100	-6.663	0.099
148.200	-8.425	0.099
148.300	-9.266	0.099
148.400	-3.839	0.099
148.500	-10.257	0.099
148.600	4.388	0.099
148.700	-9.007	0.099
148.800	-7.840	0.099
148.900	-12.746	0.099
149.000	-13.218	0.099
149.100	-1.146	0.099
149.200	-12.581	0.099
149.300	-8.296	0.099
149.400	-11.067	0.099
149.500	-7.258	0.099
149.600	-7.806	0.099
149.700	-0.124	0.099
149.800	-6.604	0.099
149.900	-12.679	0.099
150.000	-4.276	0.099
150.100	-0.250	0.099
150.200	-18.817	0.099
150.300	-3.418	0.099
150.400	-9.161	0.099
150.500	-8.542	0.099
150.600	-2.921	0.099
150.700	-13.505	0.099
150.800	8.021	0.099
150.900	-3.708	0.099
151.000	-4.694	0.099
151.100	-10.685	0.099
151.200	-7.056	0.099
151.300	-12.017	0.099
151.400	-5.779	0.099
151.500	-7.378	0.099
151.600	3.825	0.099
151.700	-17.858	0.099
151.800	2.846	0.099
151.900	-13.758	0.099
152.000	-13.799	0.099
152.100	-10.766	0.099
152.200	6.529	0.099
152.300	-12.682	0.099
152.400	-2.790	0.099
152.500	-2.467	0.099
152.600	-14.446	0.099
152.700	-20.798	0.099
152.800	-13.635	0.099
152.900	5.226	0.099
153.000	2.472	0.099
153.100	-19.149	0.099
153.200	12.717	0.099
153.300	-13.466	0.099
153.400	-5.303	0.099
153.500	-4.427	0.099
153.600	-0.360	0.099
153.700	-17.318	0.099
153.800	-20.929	0.099
153.900	-14.494	0.099
154.000	17.377	0.099
154.100	9.431	0.099
154.200	-11.644	0.099
154.300	-9.329	0.099
154.400	-2.837	0.099
154.500	-8.199	0.099
154.600	-13.392	0.099
154.700	-3.053	0.099
154.800	-19.489	0.099
154.900	-4.633	0.099
155.000	-16.608	0.099
155.100	-7.106	0.099
155.200	-7.392	0.099
155.300	-8.234	0.099
155.400	-8.310	0.099
155.500	-7.124	0.099
155.600	-11.556	0.099
155.700	-6.134	0.099
155.800	-8.200	0.099
155.900	-4.138	0.099
156.000	-4.955	0.099
156.100	-11.750	0.099
156.200	-17.137	0.099
156.300	-4.268	0.099
156.400	-19.425	0.099
156.500	-9.814	0.099
156.600	-13.943	0.099
156.700	-10.616	0.099
156.800	-6.250	0.099
156.900	-8.048	0.099
157.000	1.311	0.099
157.100	-11.631	0.099
157.200	-11.304	0.099
157.300	-6.885	0.099
157.400	-20.698	0.099
157.500	-5.552	0.099
157.600	-8.147	0.099
157.700	1.906	0.099
157.800	2.287	0.099
157.900	-10.056	0.099
158.000	-8.679	0.099
158.100	-7.216	0.099
158.200	-20.098	0.099
158.300	-3.598	0.099
158.400	-22.460	0.099
158.500	9.694	0.099
158.600	-9.729	0.099
158.700	-13.478	0.099
158.800	-3.096	0.099
158.900	-0.927	0.099
159.000	-1.375	0.099
159.100	-4.161	0.099
159.200	-8.137	0.099
159.300	-8.849	0.099
159.400	-12.776	0.099
159.500	11.290	0.099
159.600	-8.263	0.099
159.700	-7.136	0.099
159.800	2.307	0.099
159.900	-14.895	0.099
160.000	-8.537	0.099
160.100	-4.548	0.099
160.200	-17.408	0.099
160.300	-8.419	0.099
160.400	-11.320	0.099
160.500	-14.082	0.099
160.600	2.274	0.099
160.700	-13.778	0.099
160.800	-6.479	0.099
160.900	-11.514	0.099
161.000	1.317	0.099
161.100	-11.053	0.099
161.200	-3.814	0.099
161.300	-4.950	0.099
161.400	-4.593	0.099
161.500	8.808	0.099
161.600	-14.916	0.099
161.700	3.866	0.099
161.800	-13.062	0.099
161.900	-6.739	0.099
162.000	-12.583	0.099
162.100	-8.472	0.099
162.200	-12.603	0.099
162.300	10.354	0.099
162.400	1.653	0.099
162.500	-11.292	0.099
162.600	-10.587	0.099
162.700	12.589	0.099
162.800	-16.059	0.099
162.900	-1.176	0.099
163.000	-10.531	0.099
163.100	-9.646	0.099
163.200	3.692	0.099
163.300	-5.405	0.099
163.400	-10.535	0.099
163.500	-14.290	0.099
163.600	-2.938	0.099
163.700	-23.510	0.099
163.800	-13.207	0.099
163.900	9.220	0.099
164.000	-33.385	0.099
164.100	-4.324	0.099
164.200	6.464	0.099
164.300	-14.163	0.099
164.400	-6.238	0.099
164.500	-19.146	0.099
164.600	6.351	0.099
164.700	-2.566	0.099
164.800	-0.579	0.099
164.900	-7.005	0.099
165.000	-4.910	0.099
165.100	-12.144	0.099
165.200	0.208	0.099
165.300	-2.948	0.099
165.400	-6.896	0.099
165.500	2.209	0.099
165.600	-4.271	0.099
165.700	-18.838	0.099
165.800	-25.757	0.099
165.900	-6.599	0.099
166.000	3.499	0.099
166.100	-5.951	0.099
166.200	-7.035	0.099
166.300	9.311	0.099
166.400	-3.891	0.099
166.500	-12.270	0.099
166.600	-9.665	0.099
166.700	-6.166	0.099
166.800	6.501	0.099
166.900	-16.975	0.099
167.000	0.942	0.099
167.100	-3.507	0.099
167.200	-6.462	0.099
167.300	-7.286	0.099
167.400	-3.857	0.099
167.500	-11.167	0.099
167.600	1.648	0.099
167.700	-15.052	0.099
167.800	-19.829	0.099
167.900	-0.165	0.099
168.000	-6.023	0.099
168.100	-15.227	0.099
168.200	-2.121	0.099
168.300	-11.602	0.099
168.400	-5.935	0.099
168.500	-5.375	0.099
168.600	-9.093	0.099
168.700	-11.796	0.099
168.800	-12.710	0.099
168.900	2.242	0.099
169.000	-2.255	0.099
169.100	-17.156	0.099
169.200	-2.129	0.099
169.300	3.968	0.099
169.400	0.960	0.099
169.500	-5.802	0.099
169.600	-13.887	0.099
169.700	-3.166	0.099
169.800	0.261	0.099
169.900	-9.618	0.099
170.000	-12.431	0.099
170.100	0.441	0.099
170.200	-8.095	0.099
170.300	-17.847	0.099
170.400	2.588	0.099
170.500	-6.571	0.099
170.600	-12.672	0.099
170.700	-18.583	0.099
170.800	-7.095	0.099
170.900	4.616	0.099
171.000	-6.067	0.099
171.100	-10.524	0.099
171.200	-14.128	0.099
171.300	-13.264	0.099
171.400	5.727	0.099
171.500	-8.611	0.099
171.600	-5.144	0.099
171.700	-12.411	0.099
171.800	1.801	0.099
171.900	0.715	0.099
172.000	-8.337	0.099
172.100	-5.189	0.099
172.200	-4.344	0.099
172.300	-2.441	0.099
172.400	-5.350	0.099
172.500	-3.217	0.099
172.600	-26.485	0.099
172.700	4.815	0.099
172.800	-5.403	0.099
172.900	-1.932	0.099
173.000	-15.360	0.099
173.100	-0.258	0.099
173.200	1.672	0.099
173.300	-4.813	0.099
173.400	-12.196	0.099
173.500	2.242	0.099
173.600	-7.197	0.099
173.700	-14.328	0.099
173.800	-4.303	0.099
173.900	-4.315	0.099
174.000	-10.192	0.099
174.100	-0.855	0.099
174.200	-9.090	0.099
174.300	-21.808	0.099
174.400	-12.625	0.099
174.500	-3.776	0.099
174.600	-10.792	0.099
174.700	-23.774	0.099
174.800	-3.017	0.099
174.900	-1.184	0.099
175.000	-6.349	0.099
175.100	-9.466	0.099
175.200	3.117	0.099
175.300	-7.765	0.099
175.400	0.502	0.099
175.500	-6.801	0.099
175.600	-3.790	0.099
175.700	-2.175	0.099
175.800	7.772	0.099
175.900	-5.806	0.099
176.000	-10.900	0.099
176.100	-14.300	0.099
176.200	-13.143	0.099
176.300	-1.912	0.099
176.400	0.469	0.099
176.500	-7.492	0.099
176.600	-1.158	0.099
176.700	-2.623	0.099
176.800	-8.835	0.099
176.900	-16.387	0.099
177.000	7.606	0.099
177.100	-7.051	0.099
177.200	-1.661	0.099
177.300	-6.205	0.099
177.400	-10.035	0.099
177.500	-5.404	0.099
177.600	-12.353	0.099
177.700	6.221	0.099
177.800	-4.020	0.099
177.900	-25.802	0.099
178.000	-10.052	0.099
178.100	-0.596	0.099
178.200	4.008	0.099
178.300	-13.073	0.099
178.400	5.900	0.099
178.500	-15.479	0.099
178.600	-6.273	0.099
178.700	-0.662	0.099
178.800	-11.546	0.099
178.900	-0.246	0.099
179.000	-1.901	0.099
179.100	-22.531	0.099
179.200	-8.777	0.099
179.300	-18.779	0.099
179.400	4.966	0.099
179.500	-15.346	0.099
179.600	-0.902	0.099
179.700	-11.406	0.099
179.800	-8.983	0.099
179.900	-7.346	0.099
180.000	-0.875	0.099
180.100	3.793	0.099
180.200	-0.540	0.099
180.300	-14.281	0.099
180.400	-2.685	0.099
180.500	-12.265	0.099
180.600	9.159	0.099
180.700	-6.388	0.099
180.800	-18.356	0.099
180.900	13.429	0.099
181.000	4.520	0.099
181.100	7.575	0.099
181.200	-9.352	0.099
181.300	11.349	0.099
181.400	-2.394	0.099
181.500	-1.747	0.099
181.600	9.474	0.099
181.700	3.387	0.099
181.800	5.087	0.099
181.900	8.471	0.099
182.000	17.127	0.099
182.100	-14.210	0.099
182.200	-1.908	0.099
182.300	20.044	0.099
182.400	-5.530	0.099
182.500	8.064	0.099
182.600	18.255	0.099
182.700	12.474	0.099
182.800	14.492	0.099
182.900	19.672	0.099
183.000	18.455	0.099
183.100	7.779	0.099
183.200	2.736	0.099
183.300	28.732	0.099
183.400	13.241	0.099
183.500	14.044	0.099
183.600	3.654	0.099
183.700	13.475	0.099
183.800	6.524	0.099
183.900	9.788	0.099
184.000	17.242	0.099
184.100	14.261	0.099
184.200	4.128	0.099
184.300	16.971	0.099
184.400	7.343	0.099
184.500	18.976	0.099
184.600	5.588	0.099
184.700	1.235	0.099
184.800	9.022	0.099
184.900	10.690	0.099
185.000	23.625	0.099
185.100	10.590	0.099
185.200	1.952	0.099
185.300	12.858	0.099
185.400	1.504	0.099
185.500	24.104	0.099
185.600	10.181	0.099
185.700	17.308	0.099
185.800	10.826	0.099
185.900	12.237	0.099
186.000	12.835	0.099
186.100	19.485	0.099
186.200	5.065	0.099
186.300	22.975	0.099
186.400	10.607	0.099
186.500	19.895	0.099
186.600	12.819	0.099
186.700	3.891	0.099
186.800	7.488	0.099
186.900	11.876	0.099
187.000	14.313	0.099
187.100	25.098	0.099
187.200	14.625	0.099
187.300	0.557	0.099
187.400	27.079	0.099
187.500	8.651	0.099
187.600	11.560	0.099
187.700	20.705	0.099
187.800	23.619	0.099
187.900	14.090	0.099
188.000	23.471	0.099
188.100	15.690	0.099
188.200	20.874	0.099
188.300	10.444	0.099
188.400	22.566	0.099
188.500	14.068	0.099
188.600	35.293	0.099
188.700	26.433	0.099
188.800	23.794	0.099
188.900	27.956	0.099
189.000	14.287	0.099
189.100	25.853	0.099
189.200	22.268	0.099
189.300	22.327	0.099
189.400	26.810	0.099
189.500	4.165	0.099
189.600	24.549	0.099
189.700	17.240	0.099
189.800	20.689	0.099
189.900	17.136	0.099
190.000	25.994	0.099
190.100	10.762	0.099
190.200	35.644	0.099
190.300	19.473	0.099
190.400	12.977	0.099
190.500	21.411	0.099
190.600	12.847	0.099
190.700	35.422	0.099
190.800	43.563	0.099
190.900	16.334	0.099
191.000	17.268	0.099
191.100	21.538	0.099
191.200	28.412	0.099
191.300	20.391	0.099
191.400	13.301	0.099
191.500	26.242	0.099
191.600	29.498	0.099
191.700	36.333	0.099
191.800	20.008	0.099
191.900	31.191	0.099
192.000	23.483	0.099
192.100	25.771	0.099
192.200	26.151	0.099
192.300	22.527	0.099
192.400	26.061	0.099
192.500	32.756	0.099
192.600	28.563	0.099
192.700	26.081	0.099
192.800	19.471	0.099
192.900	21.570	0.099
193.000	29.308	0.099
193.100	40.070	0.099
193.200	33.038	0.099
193.300	34.114	0.099
193.400	15.363	0.099
193.500	26.173	0.099
193.600	26.372	0.099
193.700	25.368	0.099
193.800	32.298	0.099
193.900	32.675	0.099
194.000	16.779	0.099
194.100	27.115	0.099
194.200	28.743	0.099
194.300	14.223	0.099
194.400	37.588	0.099
194.500	29.628	0.099
194.600	38.703	0.099
194.700	32.351	0.099
194.800	39.253	0.099
194.900	40.669	0.099
195.000	24.789	0.099
195.100	29.114	0.099
195.200	28.255	0.099
195.300	22.773	0.099
195.400	25.019	0.099
195.500	24.967	0.099
195.600	40.780	0.099
195.700	38.615	0.099
195.800	34.546	0.099
195.900	29.745	0.099
196.000	20.000	0.099
196.100	32.609	0.099
196.200	33.754	0.099
196.300	24.537	0.099
196.400	40.346	0.099
196.500	45.052	0.099
196.600	28.746	0.099
196.700	28.254	0.099
196.800	34.468	0.099
196.900	32.308	0.099
197.000	38.714	0.099
197.100	24.514	0.099
197.200	33.829	0.099
197.300	38.152	0.099
197.400	30.457	0.099
197.500	34.911	0.099
197.600	28.015	0.099
197.700	25.495	0.099
197.800	29.506	0.099
197.900	35.678	0.099
198.000	24.098	0.099
198.100	35.976	0.099
198.200	38.001	0.099
198.300	27.209	0.099
198.400	27.202	0.099
198.500	12.714	0.099
198.600	17.557	0.099
198.700	24.625	0.099
198.800	34.529	0.099
198.900	24.451	0.099
199.000	31.687	0.099
199.100	28.073	0.099
199.200	35.933	0.099
199.300	34.640	0.099
199.400	31.517	0.099
199.500	15.598	0.099
199.600	16.578	0.099
199.700	35.774	0.099
199.800	33.841	0.099
199.900	28.324	0.099
200.000	36.163	0.099
200.100	29.919	0.099
200.200	28.031	0.099
200.300	33.568	0.099
200.400	42.185	0.099
200.500	23.484	0.099
200.600	26.661	0.099
200.700	47.280	0.099
200.800	30.785	0.099
200.900	25.347	0.099
201.000	32.550	0.099
201.100	41.295	0.099
201.200	24.181	0.099
201.300	28.335	0.099
201.400	18.418	0.099
201.500	40.698	0.099
201.600	41.151	0.099
201.700	27.295	0.099
201.800	42.684	0.099
201.900	44.984	0.099
202.000	31.019	0.099
202.100	40.047	0.099
202.200	41.364	0.099
202.300	20.458	0.099
202.400	36.057	0.099
202.500	26.358	0.099
202.600	26.231	0.099
202.700	48.948	0.099
202.800	33.665	0.099
202.900	39.258	0.099
203.000	31.051	0.099
203.100	33.065	0.099
203.200	29.966	0.099
203.300	38.210	0.099
203.400	34.086	0.099
203.500	23.630	0.099
203.600	26.473	0.099
203.700	45.009	0.099
203.800	31.254	0.099
203.900	39.886	0.099
204.000	38.089	0.099
204.100	33.724	0.099
204.200	44.571	0.099
204.300	23.570	0.099
204.400	35.273	0.099
204.500	42.112	0.099
204.600	28.703	0.099
204.700	42.636	0.099
204.800	40.843	0.099
204.900	33.318	0.099
205.000	33.890	0.099
205.100	29.873	0.099
205.200	22.680	0.099
205.300	42.201	0.099
205.400	22.655	0.099
205.500	38.556	0.099
205.600	26.100	0.099
205.700	35.717	0.099
205.800	30.681	0.099
205.900	39.329	0.099
206.000	44.566	0.099
206.100	27.566	0.099
206.200	38.378	0.099
206.300	35.501	0.099
206.400	35.005	0.099
206.500	37.256	0.099
206.600	35.470	0.099
206.700	25.096	0.099
206.800	24.337	0.099
206.900	26.740	0.099
207.000	38.442	0.099
207.100	20.677	0.099
207.200	30.052	0.099
207.300	34.893	0.099
207.400	28.483	0.099
207.500	22.781	0.099
207.600	28.168	0.099
207.700	39.750	0.099
207.800	23.431	0.099
207.900	41.131	0.099
208.000	37.311	0.099
208.100	41.733	0.099
208.200	39.267	0.099
208.300	24.901	0.099
208.400	26.496	0.099
208.500	26.326	0.099
208.600	31.756	0.099
208.700	46.453	0.099
208.800	38.894	0.099
208.900	32.696	0.099
209.000	37.013	0.099
209.100	26.827	0.099
209.200	31.584	0.099
209.300	22.139	0.099
209.400	20.091	0.099
209.500	33.565	0.099
209.600	33.162	0.099
209.700	34.506	0.099
209.800	31.908	0.099
209.900	38.853	0.099
210.000	32.298	0.099
210.100	31.191	0.099
210.200	24.871	0.099
210.300	34.774	0.099
210.400	21.539	0.099
210.500	27.382	0.099
210.600	31.540	0.099
210.700	30.991	0.099
210.800	24.227	0.099
210.900	34.861	0.099
211.000	30.180	0.099
211.100	24.591	0.099
211.200	36.927	0.099
211.300	50.927	0.099
211.400	38.111	0.099
211.500	28.813	0.099
211.600	28.921	0.099
211.700	41.793	0.099
211.800	34.019	0.099
211.900	41.620	0.099
212.000	30.676	0.099
212.100	23.891	0.099
212.200	31.691	0.099
212.300	53.059	0.099
212.400	25.443	0.099
212.500	38.670	0.099
212.600	38.435	0.099
212.700	28.094	0.099
212.800	27.340	0.099
212.900	10.905	0.099
213.000	41.898	0.099
213.100	30.503	0.099
213.200	24.580	0.099
213.300	39.307	0.099
213.400	27.653	0.099
213.500	26.849	0.099
213.600	20.268	0.099
213.700	36.985	0.099
213.800	22.225	0.099
213.900	35.424	0.099
214.000	31.737	0.099
214.100	21.886	0.099
214.200	33.877	0.099
214.300	19.090	0.099
214.400	37.773	0.099
214.500	43.552	0.099
214.600	31.716	0.099
214.700	26.902	0.099
214.800	23.302	0.099
214.900	31.115	0.099
215.000	33.402	0.099
215.100	27.458	0.099
215.200	39.083	0.099
215.300	6.472	0.099
215.400	36.782	0.099
215.500	39.823	0.099
215.600	27.970	0.099
215.700	28.427	0.099
215.800	37.664	0.099
215.900	35.133	0.099
216.000	21.942	0.099
216.100	35.393	0.099
216.200	40.578	0.099
216.300	21.587	0.099
216.400	30.943	0.099
216.500	24.548	0.099
216.600	32.938	0.099
216.700	25.177	0.099
216.800	30.720	0.099
216.900	30.500	0.099
217.000	41.019	0.099
217.100	11.941	0.099
217.200	20.192	0.099
217.300	34.036	0.099
217.400	40.088	0.099
217.500	41.980	0.099
217.600	28.313	0.099
217.700	26.035	0.099
217.800	39.164	0.099
217.900	33.237	0.099
218.000	34.198	0.099
218.100	34.984	0.099
218.200	29.158	0.099
218.300	15.941	0.099
218.400	22.536	0.099
218.500	35.925	0.099
218.600	34.426	0.099
218.700	29.042	0.099
218.800	30.911	0.099
218.900	30.301	0.099
219.000	39.261	0.099
219.100	36.975	0.099
219.200	30.425	0.099
219.300	19.039	0.099
219.400	37.168	0.099
219.500	30.721	0.099
219.600	31.968	0.099
219.700	48.182	0.099
219.800	40.200	0.099
219.900	26.616	0.099
220.000	37.535	0.099
220.100	41.135	0.099
220.200	26.320	0.099
220.300	28.217	0.099
220.400	30.204	0.099
220.500	24.314	0.099
220.600	31.522	0.099
220.700	32.644	0.099
220.800	25.548	0.099
220.900	45.098	0.099
221.000	16.247	0.099
221.100	24.831	0.099
221.200	32.431	0.099
221.300	26.398	0.099
221.400	21.835	0.099
221.500	40.047	0.099
221.600	30.583	0.099
221.700	33.250	0.099
221.800	40.565	0.099
221.900	29.376	0.099
222.000	27.867	0.099
222.100	45.343	0.099
222.200	29.908	0.099
222.300	19.832	0.099
222.400	31.248	0.099
222.500	27.372	0.099
222.600	37.705	0.099
222.700	31.888	0.099
222.800	29.170	0.099
222.900	29.202	0.099
223.000	32.352	0.099
223.100	36.145	0.099
223.200	23.301	0.099
223.300	30.012	0.099
223.400	17.226	0.099
223.500	47.008	0.099
223.600	42.534	0.099
223.700	34.091	0.099
223.800	40.255	0.099
223.900	36.397	0.099
224.000	31.232	0.099
224.100	27.363	0.099
224.200	34.721	0.099
224.300	17.336	0.099
224.400	14.664	0.099
224.500	46.774	0.099
224.600	35.724	0.099
224.700	33.615	0.099
224.800	39.299	0.099
224.900	25.694	0.099
225.000	31.376	0.099
225.100	25.758	0.099
225.200	27.666	0.099
225.300	38.879	0.099
225.400	30.131	0.099
225.500	35.672	0.099
225.600	32.159	0.099
225.700	43.710	0.099
225.800	36.264	0.099
225.900	6.867	0.099
226.000	41.745	0.099
226.100	24.625	0.099
226.200	34.704	0.099
226.300	18.123	0.099
226.400	26.569	0.099
226.500	36.932	0.099
226.600	7.342	0.099
226.700	38.179	0.099
226.800	38.137	0.099
226.900	33.098	0.099
227.000	32.246	0.099
227.100	35.256	0.099
227.200	23.876	0.099
227.300	31.128	0.099
227.400	36.468	0.099
227.500	23.461	0.099
227.600	33.159	0.099
227.700	18.667	0.099
227.800	20.802	0.099
227.900	34.335	0.099
228.000	47.501	0.099
228.100	22.286	0.099
228.200	34.646	0.099
228.300	37.832	0.099
228.400	27.958	0.099
228.500	30.939	0.099
228.600	29.430	0.099
228.700	36.659	0.099
228.800	31.952	0.099
228.900	29.757	0.099
229.000	27.826	0.099
229.100	37.240	0.099
229.200	30.644	0.099
229.300	19.541	0.099
229.400	21.917	0.099
229.500	26.726	0.099
229.600	25.977	0.099
229.700	30.816	0.099
229.800	39.857	0.099
229.900	25.192	0.099
230.000	26.974	0.099
230.100	25.097	0.099
230.200	42.588	0.099
230.300	24.790	0.099
230.400	30.562	0.099
230.500	23.599	0.099
230.600	22.744	0.099
230.700	27.534	0.099
230.800	40.743	0.099
230.900	31.287	0.099
231.000	31.807	0.099
231.100	29.367	0.099
231.200	33.257	0.099
231.300	22.096	0.099
231.400	38.625	0.099
231.500	26.552	0.099
231.600	37.713	0.099
231.700	29.356	0.099
231.800	34.207	0.099
231.900	28.678	0.099
232.000	32.767	0.099
232.100	24.965	0.099
232.200	19.226	0.099
232.300	35.983	0.099
232.400	34.166	0.099
232.500	35.368	0.099
232.600	28.877	0.099
232.700	26.453	0.099
232.800	31.963	0.099
232.900	21.684	0.099
233.000	25.101	0.099
233.100	30.391	0.099
233.200	26.940	0.099
233.300	29.383	0.099
233.400	26.333	0.099
233.500	30.973	0.099
233.600	36.580	0.099
233.700	28.428	0.099
233.800	34.948	0.099
233.900	25.259	0.099
234.000	39.057	0.099
234.100	29.514	0.099
234.200	36.489	0.099
234.300	27.734	0.099
234.400	33.886	0.099
234.500	35.725	0.099
234.600	26.884	0.099
234.700	16.934	0.099
234.800	29.324	0.099
234.900	20.070	0.099
235.000	29.276	0.099
235.100	32.388	0.099
235.200	23.372	0.099
235.300	31.329	0.099
235.400	39.126	0.099
235.500	34.579	0.099
235.600	34.824	0.099
235.700	17.983	0.099
235.800	35.846	0.099
235.900	19.996	0.099
236.000	28.350	0.099
236.100	26.473	0.099
236.200	41.811	0.099
236.300	33.612	0.099
236.400	31.807	0.099
236.500	18.560	0.099
236.600	29.264	0.099
236.700	19.499	0.099
236.800	30.744	0.099
236.900	28.100	0.099
237.000	20.013	0.099
237.100	35.543	0.099
237.200	28.244	0.099
237.300	25.595	0.099
237.400	23.929	0.099
237.500	25.877	0.099
237.600	34.629	0.099
237.700	23.700	0.099
237.800	13.343	0.099
237.900	30.428	0.099
238.000	34.731	0.099
238.100	21.311	0.099
238.200	45.867	0.099
238.300	20.075	0.099
238.400	29.111	0.099
238.500	34.213	0.099
238.600	32.029	0.099
238.700	29.791	0.099
238.800	24.675	0.099
238.900	24.017	0.099
239.000	26.069	0.099
239.100	32.563	0.099
239.200	29.563	0.099
239.300	23.359	0.099
239.400	32.977	0.099
239.500	25.608	0.099
239.600	33.462	0.099
239.700	24.274	0.099
239.800	30.931	0.099
239.900	40.940	0.099
240.000	29.894	0.099
240.100	20.431	0.099
240.200	25.483	0.099
240.300	22.767	0.099
240.400	42.118	0.099
240.500	17.696	0.099
240.600	10.719	0.099
240.700	23.796	0.099
240.800	11.880	0.099
240.900	21.511	0.099
241.000	17.991	0.099
241.100	13.368	0.099
241.200	23.952	0.099
241.300	12.300	0.099
241.400	17.858	0.099
241.500	6.046	0.099
241.600	6.131	0.099
241.700	1.754	0.099
241.800	2.066	0.099
241.900	13.935	0.099
242.000	8.164	0.099
242.100	5.909	0.099
242.200	15.229	0.099
242.300	14.888	0.099
242.400	-8.528	0.099
242.500	6.754	0.099
242.600	1.381	0.099
242.700	-5.118	0.099
242.800	11.617	0.099
242.900	2.453	0.099
243.000	2.987	0.099
243.100	7.625	0.099
243.200	-8.486	0.099
243.300	6.932	0.099
243.400	-8.293	0.099
243.500	-4.873	0.099
243.600	8.097	0.099
243.700	-2.810	0.099
243.800	10.073	0.099
243.900	-1.367	0.099
244.000	-6.125	0.099
244.100	1.696	0.099
244.200	1.112	0.099
244.300	-7.894	0.099
244.400	-18.522	0.099
244.500	-1.828	0.099
244.600	-8.552	0.099
244.700	-3.872	0.099
244.800	-2.880	0.099
244.900	3.892	0.099
245.000	2.468	0.099
245.100	0.231	0.099
245.200	-8.709	0.099
245.300	-8.765	0.099
245.400	-10.706	0.099
245.500	-11.835	0.099
245.600	9.816	0.099
245.700	-6.446	0.099
245.800	-2.020	0.099
245.900	-4.687	0.099
246.000	0.219	0.099
246.100	-10.270	0.099
246.200	-3.046	0.099
246.300	-8.460	0.099
246.400	-9.579	0.099
246.500	-6.200	0.099
246.600	-13.732	0.099
246.700	1.828	0.099
246.800	-3.138	0.099
246.900	-16.449	0.099
247.000	1.605	0.099
247.100	11.372	0.099
247.200	-21.709	0.099
247.300	-3.010	0.099
247.400	-8.638	0.099
247.500	-13.622	0.099
247.600	15.571	0.099
247.700	-5.371	0.099
247.800	-13.121	0.099
247.900	-1.499	0.099
248.000	-9.656	0.099
248.100	1.040	0.099
248.200	-1.802	0.099
248.300	-12.370	0.099
248.400	-3.529	0.099
248.500	-6.960	0.099
248.600	0.915	0.099
248.700	-2.148	0.099
248.800	-14.979	0.099
248.900	-8.121	0.099
249.000	-4.755	0.099
249.100	-2.209	0.099
249.200	-17.300	0.099
249.300	-7.115	0.099
249.400	-7.445	0.099
249.500	-3.124	0.099
249.600	-3.994	0.099
249.700	-7.159	0.099
249.800	-8.981	0.099
249.900	-4.114	0.099
250.000	-5.503	0.099
250.100	-16.877	0.099
250.200	-5.804	0.099
250.300	-15.971	0.099
250.400	3.855	0.099
250.500	-7.265	0.099
250.600	-11.816	0.099
250.700	-3.599	0.099
250.800	-13.729	0.099
250.900	-22.533	0.099
251.000	-0.952	0.099
251.100	-7.781	0.099
251.200	-15.391	0.099
251.300	-8.542	0.099
251.400	-17.002	0.099
251.500	-14.074	0.099
251.600	-22.327	0.099
251.700	-10.819	0.099
251.800	-18.938	0.099
251.900	-7.861	0.099
252.000	-1.772	0.099
252.100	0.246	0.099
252.200	-14.889	0.099
252.300	-11.970	0.099
252.400	-11.593	0.099
252.500	-19.433	0.099
252.600	-6.647	0.099
252.700	-4.055	0.099
252.800	-13.564	0.099
252.900	0.862	0.099
253.000	0.041	0.099
253.100	-16.429	0.099
253.200	-3.615	0.099
253.300	-14.707	0.099
253.400	-21.737	0.099
253.500	-22.671	0.099
253.600	-16.814	0.099
253.700	-7.622	0.099
253.800	-12.292	0.099
253.900	-6.922	0.099
254.000	-13.978	0.099
254.100	-15.155	0.099
254.200	-16.319	0.099
254.300	-14.481	0.099
254.400	-18.177	0.099
254.500	-7.344	0.099
254.600	-26.456	0.099
254.700	-3.362	0.099
254.800	-12.191	0.099
254.900	-7.148	0.099
255.000	-22.630	0.099
255.100	-8.685	0.099
255.200	-7.551	0.099
255.300	-30.128	0.099
255.400	-11.350	0.099
255.500	-20.998	0.099
255.600	-11.102	0.099
255.700	-11.793	0.099
255.800	1.328	0.099
255.900	-14.390	0.099
256.000	-16.969	0.099
256.100	-10.243	0.099
256.200	-28.441	0.099
256.300	-1.818	0.099
256.400	-19.876	0.099
256.500	-3.892	0.099
256.600	-20.436	0.099
256.700	-9.921	0.099
256.800	-15.721	0.099
256.900	-4.602	0.099
257.000	-20.214	0.099
257.100	-8.084	0.099
257.200	-15.126	0.099
257.300	-18.271	0.099
257.400	8.407	0.099
257.500	-29.682	0.099
257.600	-8.475	0.099
257.700	-11.817	0.099
257.800	-19.834	0.099
257.900	-17.355	0.099
258.000	-3.434	0.099
258.100	-20.751	0.099
258.200	-18.902	0.099
258.300	-26.062	0.099
258.400	-3.127	0.099
258.500	-11.474	0.099
258.600	-14.132	0.099
258.700	-10.612	0.099
258.800	-19.323	0.099
258.900	-19.087	0.099
259.000	-17.678	0.099
259.100	-12.896	0.099
259.200	-10.961	0.099
259.300	-15.752	0.099
259.400	-21.638	0.099
259.500	-13.516	0.099
259.600	-18.197	0.099
259.700	-14.789	0.099
259.800	-25.498	0.099
259.900	-6.970	0.099
260.000	-30.621	0.099
260.100	-19.840	0.099
260.200	-6.537	0.099
260.300	-22.977	0.099
260.400	-17.834	0.099
260.500	-36.783	0.099
260.600	-16.529	0.099
260.700	-17.244	0.099
260.800	-17.468	0.099
260.900	-6.868	0.099
261.000	-17.456	0.099
261.100	-10.861	0.099
261.200	-19.053	0.099
261.300	-20.694	0.099
261.400	-28.571	0.099
261.500	-9.723	0.099
261.600	-21.910	0.099
261.700	-7.703	0.099
261.800	-27.735	0.099
261.900	-7.161	0.099
262.000	-17.457	0.099
262.100	-14.997	0.099
262.200	-18.749	0.099
262.300	-22.109	0.099
262.400	-5.209	0.099
262.500	-13.133	0.099
262.600	-8.092	0.099
262.700	-27.841	0.099
262.800	-17.140	0.099
262.900	-17.208	0.099
263.000	-31.702	0.099
263.100	-13.899	0.099
263.200	-14.214	0.099
263.300	-18.891	0.099
263.400	-14.976	0.099
263.500	-20.345	0.099
263.600	-7.957	0.099
263.700	-15.879	0.099
263.800	-17.142	0.099
263.900	-15.648	0.099
264.000	-15.633	0.099
264.100	-22.216	0.099
264.200	-19.857	0.099
264.300	-23.663	0.099
264.400	-13.300	0.099
264.500	-20.214	0.099
264.600	-3.439	0.099
264.700	-21.985	0.099
264.800	-15.591	0.099
264.900	-16.376	0.099
265.000	-8.651	0.099
265.100	-18.606	0.099
265.200	-7.875	0.099
265.300	-17.186	0.099
265.400	-13.140	0.099
265.500	-2.582	0.099
265.600	-15.680	0.099
265.700	-19.571	0.099
265.800	-17.815	0.099
265.900	-15.054	0.099
266.000	-31.927	0.099
266.100	-18.939	0.099
266.200	-21.652	0.099
266.300	-19.127	0.099
266.400	-21.384	0.099
266.500	-25.213	0.099
266.600	-26.422	0.099
266.700	-13.157	0.099
266.800	-21.941	0.099
266.900	-12.524	0.099
267.000	-16.450	0.099
267.100	-23.100	0.099
267.200	-5.741	0.099
267.300	-14.973	0.099
267.400	-15.310	0.099
267.500	-30.120	0.099
267.600	-18.189	0.099
267.700	-24.567	0.099
267.800	-25.929	0.099
267.900	-14.969	0.099
268.000	-24.089	0.099
268.100	-11.017	0.099
268.200	-19.698	0.099
268.300	-13.150	0.099
268.400	-26.238	0.099
268.500	-13.661	0.099
268.600	-29.522	0.099
268.700	-19.837	0.099
268.800	-19.350	0.099
268.900	-22.938	0.099
269.000	-12.560	0.099
269.100	-9.570	0.099
269.200	-11.095	0.099
269.300	-21.548	0.099
269.400	-31.428	0.099
269.500	-9.881	0.099
269.600	-16.423	0.099
269.700	-14.093	0.099
269.800	-21.931	0.099
269.900	-12.151	0.099
270.000	-18.192	0.099
270.100	-16.149	0.099
270.200	-18.222	0.099
270.300	-23.114	0.099
270.400	-21.723	0.099
270.500	-15.716	0.099
270.600	-10.483	0.099
270.700	-29.512	0.099
270.800	-20.744	0.099
270.900	-10.618	0.099
271.000	-13.268	0.099
271.100	-15.479	0.099
271.200	-18.349	0.099
271.300	-16.161	0.099
271.400	-11.924	0.099
271.500	-22.523	0.099
271.600	-4.790	0.099
271.700	-18.045	0.099
271.800	-14.781	0.099
271.900	-14.150	0.099
272.000	-31.351	0.099
272.100	-5.847	0.099
272.200	-24.979	0.099
272.300	-23.096	0.099
272.400	-12.861	0.099
272.500	-26.727	0.099
272.600	-19.932	0.099
272.700	-16.120	0.099
272.800	-30.322	0.099
272.900	-17.828	0.099
273.000	-15.173	0.099
273.100	-21.048	0.099
273.200	-2.275	0.099
273.300	-15.527	0.099
273.400	-20.588	0.099
273.500	-21.405	0.099
273.600	-13.831	0.099
273.700	-22.594	0.099
273.800	-19.344	0.099
273.900	-16.461	0.099
274.000	-29.038	0.099
274.100	-24.052	0.099
274.200	-22.902	0.099
274.300	-23.160	0.099
274.400	-22.423	0.099
274.500	-20.667	0.099
274.600	-9.135	0.099
274.700	-23.424	0.099
274.800	-6.322	0.099
274.900	-25.630	0.099
275.000	-7.293	0.099
275.100	-8.073	0.099
275.200	-11.350	0.099
275.300	-32.509	0.099
275.400	-15.962	0.099
275.500	-18.239	0.099
275.600	-10.771	0.099
275.700	-16.839	0.099
275.800	-13.942	0.099
275.900	-19.593	0.099
276.000	-10.162	0.099
276.100	-3.899	0.099
276.200	-9.516	0.099
276.300	-30.844	0.099
276.400	-29.779	0.099
276.500	-16.338	0.099
276.600	-14.721	0.099
276.700	-18.448	0.099
276.800	-31.451	0.099
276.900	-14.819	0.099
277.000	-22.334	0.099
277.100	-28.021	0.099
277.200	-12.903	0.099
277.300	-13.476	0.099
277.400	-18.478	0.099
277.500	-15.224	0.099
277.600	-7.154	0.099
277.700	-21.171	0.099
277.800	-18.885	0.099
277.900	-13.647	0.099
278.000	-24.401	0.099
278.100	-18.304	0.099
278.200	-17.480	0.099
278.300	-22.921	0.099
278.400	-13.072	0.099
278.500	-18.523	0.099
278.600	-8.781	0.099
278.700	-17.772	0.099
278.800	-8.689	0.099
278.900	-13.153	0.099
279.000	-29.427	0.099
279.100	-10.768	0.099
279.200	-12.523	0.099
279.300	-24.462	0.099
279.400	-15.194	0.099
279.500	-20.836	0.099
279.600	-15.762	0.099
279.700	-7.737	0.099
279.800	-8.042	0.099
279.900	-20.309	0.099
280.000	-26.001	0.099
280.100	-3.752	0.099
280.200	-19.842	0.099
280.300	-28.637	0.099
280.400	-12.669	0.099
280.500	-17.252	0.099
280.600	-17.224	0.099
280.700	-12.732	0.099
280.800	-19.849	0.099
280.900	-11.895	0.099
281.000	-23.659	0.099
281.100	-20.444	0.099
281.200	1.608	0.099
281.300	-36.499	0.099
281.400	-19.818	0.099
281.500	-22.380	0.099
281.600	0.624	0.099
281.700	-10.829	0.099
281.800	-36.295	0.099
281.900	-10.911	0.099
282.000	-8.246	0.099
282.100	-0.894	0.099
282.200	-15.087	0.099
282.300	-16.247	0.099
282.400	-29.153	0.099
282.500	-3.586	0.099
282.600	-10.068	0.099
282.700	-12.789	0.099
282.800	-20.475	0.099
282.900	-17.511	0.099
283.000	-16.995	0.099
283.100	-25.195	0.099
283.200	-18.815	0.099
283.300	-8.332	0.099
283.400	-32.655	0.099
283.500	-4.265	0.099
283.600	-12.349	0.099
283.700	-17.119	0.099
283.800	-10.613	0.099
283.900	-8.101	0.099
284.000	-14.649	0.099
284.100	-11.755	0.099
284.200	-13.944	0.099
284.300	-3.008	0.099
284.400	-30.508	0.099
284.500	-17.894	0.099
284.600	-13.143	0.099
284.700	-25.996	0.099
284.800	-13.253	0.099
284.900	-1.576	0.099
285.000	-12.619	0.099
285.100	-14.405	0.099
285.200	-31.948	0.099
285.300	-11.680	0.099
285.400	-16.489	0.099
285.500	-10.959	0.099
285.600	-11.360	0.099
285.700	-14.447	0.099
285.800	-24.620	0.099
285.900	-15.307	0.099
286.000	-16.187	0.099
286.100	-14.022	0.099
286.200	-13.475	0.099
286.300	-10.623	0.099
286.400	-15.130	0.099
286.500	-4.155	0.099
286.600	-9.517	0.099
286.700	-16.913	0.099
286.800	-17.260	0.099
286.900	-9.020	0.099
287.000	-11.002	0.099
287.100	-12.660	0.099
287.200	-10.876	0.099
287.300	-20.840	0.099
287.400	-17.461	0.099
287.500	-9.533	0.099
287.600	-17.353	0.099
287.700	-16.207	0.099
287.800	-20.424	0.099
287.900	-19.269	0.099
288.000	-20.989	0.099
288.100	-0.648	0.099
288.200	5.289	0.099
288.300	-19.660	0.099
288.400	-17.967	0.099
288.500	-17.576	0.099
288.600	-19.794	0.099
288.700	-4.835	0.099
288.800	-12.907	0.099
288.900	-36.991	0.099
289.000	-18.554	0.099
289.100	-12.873	0.099
289.200	-23.069	0.099
289.300	6.279	0.099
289.400	-29.218	0.099
289.500	-10.643	0.099
289.600	-5.723	0.099
289.700	-17.878	0.099
289.800	-13.042	0.099
289.900	-23.217	0.099
290.000	-2.884	0.099
290.100	-16.816	0.099
290.200	-10.930	0.099
290.300	-19.106	0.099
290.400	-18.087	0.099
290.500	-15.990	0.099
290.600	-19.861	0.099
290.700	-22.967	0.099
290.800	-9.771	0.099
290.900	-10.041	0.099
291.000	-27.258	0.099
291.100	-15.158	0.099
291.200	-11.816	0.099
291.300	-13.426	0.099
291.400	-28.694	0.099
291.500	-4.963	0.099
291.600	-18.561	0.099
291.700	-14.081	0.099
291.800	-14.433	0.099
291.900	-19.818	0.099
292.000	-6.669	0.099
292.100	-24.118	0.099
292.200	-12.042	0.099
292.300	-10.663	0.099
292.400	-23.242	0.099
292.500	-7.366	0.099
292.600	-14.016	0.099
292.700	-15.986	0.099
292.800	-10.232	0.099
292.900	-18.146	0.099
293.000	-10.733	0.099
293.100	-13.081	0.099
293.200	-24.010	0.099
293.300	-22.094	0.099
293.400	-7.507	0.099
293.500	-4.215	0.099
293.600	-17.309	0.099
293.700	-14.572	0.099
293.800	-14.938	0.099
293.900	-0.581	0.099
294.000	-26.696	0.099
294.100	-10.635	0.099
294.200	-17.095	0.099
294.300	-15.907	0.099
294.400	-6.024	0.099
294.500	-19.992	0.099
294.600	-11.489	0.099
294.700	-3.264	0.099
294.800	-12.495	0.099
294.900	-15.354	0.099
295.000	-13.917	0.099
295.100	-14.979	0.099
295.200	-5.645	0.099
295.300	-12.082	0.099
295.400	-22.137	0.099
295.500	-12.418	0.099
295.600	-7.176	0.099
295.700	-16.400	0.099
295.800	-23.708	0.099
295.900	-2.519	0.099
296.000	-17.473	0.099
296.100	-9.854	0.099
296.200	-18.839	0.099
296.300	-7.124	0.099
296.400	-7.346	0.099
296.500	-14.907	0.099
296.600	-11.383	0.099
296.700	-18.380	0.099
296.800	-8.301	0.099
296.900	-3.768	0.099
297.000	-16.828	0.099
297.100	-18.869	0.099
297.200	-17.610	0.099
297.300	-8.387	0.099
297.400	-14.031	0.099
297.500	-20.611	0.099
297.600	-12.283	0.099
297.700	-2.338	0.099
297.800	-19.330	0.099
297.900	-14.370	0.099
298.000	-5.448	0.099
298.100	-15.080	0.099
298.200	-14.845	0.099
298.300	-9.191	0.099
298.400	-8.255	0.099
298.500	-13.481	0.099
298.600	-13.053	0.099
298.700	-9.372	0.099
298.800	-26.860	0.099
298.900	-7.110	0.099
299.000	-14.377	0.099
299.100	-9.065	0.099
299.200	-14.426	0.099
299.300	-6.983	0.099
299.400	-1.391	0.099
299.500	-16.309	0.099
299.600	-13.154	0.099
299.700	-11.719	0.099
299.800	-18.558	0.099
299.900	-14.006	0.099
300.000	-9.677	0.099
300.100	-15.318	0.099
300.200	-24.265	0.099
300.300	-22.379	0.099
300.400	-6.168	0.099
300.500	-10.779	0.099
300.600	-27.300	0.099
300.700	2.086	0.099
300.800	-7.062	0.099
300.900	-7.273	0.099
301.000	-12.078	0.099
301.100	-6.472	0.099
301.200	-16.945	0.099
301.300	-16.011	0.099
301.400	-21.509	0.099
301.500	-11.503	0.099
301.600	-14.695	0.099
301.700	7.453	0.099
301.800	-19.972	0.099
301.900	-14.161	0.099
302.000	-4.639	0.099
302.100	-10.911	0.099
302.200	-18.566	0.099
302.300	-14.082	0.099
302.400	-27.203	0.099
302.500	5.596	0.099
302.600	-20.095	0.099
302.700	-13.680	0.099
302.800	-7.752	0.099
302.900	-13.295	0.099
303.000	-8.346	0.099
303.100	0.250	0.099
303.200	-15.830	0.099
303.300	-32.936	0.099
303.400	0.604	0.099
303.500	-6.298	0.099
303.600	-23.313	0.099
303.700	-11.471	0.099
303.800	-2.299	0.099
303.900	-22.893	0.099
304.000	-10.565	0.099
304.100	-17.646	0.099
304.200	-13.946	0.099
304.300	-9.492	0.099
304.400	-10.933	0.099
304.500	-3.252	0.099
304.600	-15.269	0.099
304.700	-11.762	0.099
304.800	-1.345	0.099
304.900	-13.358	0.099
305.000	-15.018	0.099
305.100	-8.441	0.099
305.200	-14.220	0.099
305.300	-12.622	0.099
305.400	-16.182	0.099
305.500	-8.770	0.099
305.600	-9.579	0.099
305.700	-7.794	0.099
305.800	-7.972	0.099
305.900	-23.726	0.099
306.000	-1.685	0.099
306.100	-0.963	0.099
306.200	-15.813	0.099
306.300	-15.039	0.099
306.400	-2.333	0.099
306.500	-19.019	0.099
306.600	-8.959	0.099
306.700	-7.635	0.099
306.800	-9.127	0.099
306.900	-2.338	0.099
307.000	-24.256	0.099
307.100	-10.447	0.099
307.200	-25.261	0.099
307.300	0.499	0.099
307.400	-12.179	0.099
307.500	-9.561	0.099
307.600	-9.885	0.099
307.700	-25.641	0.099
307.800	-9.108	0.099
307.900	-8.410	0.099
308.000	-4.133	0.099
308.100	-11.382	0.099
308.200	-18.904	0.099
308.300	-1.327	0.099
308.400	-6.923	0.099
308.500	-9.464	0.099
308.600	-21.273	0.099
308.700	0.457	0.099
308.800	-14.253	0.099
308.900	-24.065	0.099
309.000	6.208	0.099
309.100	-14.110	0.099
309.200	-12.036	0.099
309.300	-7.051	0.099
309.400	-15.404	0.099
309.500	-11.044	0.099
309.600	-13.163	0.099
309.700	-11.935	0.099
309.800	-11.341	0.099
309.900	-4.406	0.099
310.000	-17.984	0.099
310.100	-33.888	0.099
310.200	-13.368	0.099
310.300	-11.214	0.099
310.400	-8.698	0.099
310.500	-2.570	0.099
310.600	-7.953	0.099
310.700	-14.357	0.099
310.800	-3.619	0.099
310.900	-16.465	0.099
311.000	-10.252	0.099
311.100	-7.541	0.099
311.200	-2.149	0.099
311.300	-15.161	0.099
311.400	-19.450	0.099
311.500	-6.626	0.099
311.600	1.046	0.099
311.700	-14.027	0.099
311.800	-17.728	0.099
311.900	-5.323	0.099
312.000	-9.316	0.099
312.100	-15.398	0.099
312.200	-10.916	0.099
312.300	-4.645	0.099
312.400	-12.382	0.099
312.500	-9.317	0.099
312.600	-7.643	0.099
312.700	-15.735	0.099
312.800	-12.426	0.099
312.900	-25.197	0.099
313.000	-15.319	0.099
313.100	-7.569	0.099
313.200	-13.159	0.099
313.300	-3.453	0.099
313.400	-21.753	0.099
313.500	5.576	0.099
313.600	-3.777	0.099
313.700	-12.055	0.099
313.800	-13.340	0.099
313.900	-16.531	0.099
314.000	-17.426	0.099
314.100	-8.763	0.099
314.200	-10.073	0.099
314.300	-5.574	0.099
314.400	-12.310	0.099
314.500	-8.230	0.099
314.600	-10.062	0.099
314.700	-9.495	0.099
314.800	-16.593	0.099
314.900	-12.839	0.099
315.000	-11.914	0.099
315.100	-22.762	0.099
315.200	13.291	0.099
315.300	-7.047	0.099
315.400	-13.467	0.099
315.500	-23.290	0.099
315.600	-8.814	0.099
315.700	-12.402	0.099
315.800	-5.965	0.099
315.900	-10.678	0.099
316.000	-20.347	0.099
316.100	-11.566	0.099
316.200	-2.991	0.099
316.300	-16.330	0.099
316.400	-16.047	0.099
316.500	-14.765	0.099
316.600	1.457	0.099
316.700	-19.008	0.099
316.800	-13.096	0.099
316.900	-9.897	0.099
317.000	-12.012	0.099
317.100	-15.844	0.099
317.200	-16.408	0.099
317.300	-4.883	0.099
317.400	-14.857	0.099
317.500	-6.036	0.099
317.600	-1.329	0.099
317.700	-8.635	0.099
317.800	-13.431	0.099
317.900	-2.792	0.099
318.000	-20.448	0.099
318.100	-7.287	0.099
318.200	-3.956	0.099
318.300	-16.311	0.099
318.400	-9.565	0.099
318.500	-15.134	0.099
318.600	-5.019	0.099
318.700	-10.079	0.099
318.800	-17.783	0.099
318.900	-23.647	0.099
319.000	-1.373	0.099
319.100	-8.045	0.099
319.200	-10.504	0.099
319.300	-9.505	0.099
319.400	-22.811	0.099
319.500	1.542	0.099
319.600	-1.493	0.099
319.700	-9.478	0.099
319.800	-10.478	0.099
319.900	-3.200	0.099
320.000	-21.747	0.099
320.100	-8.005	0.099
320.200	-3.575	0.099
320.300	-1.625	0.099
320.400	-11.477	0.099
320.500	-11.351	0.099
320.600	-6.933	0.099
320.700	-17.835	0.099
320.800	1.235	0.099
320.900	-13.060	0.099
321.000	-7.539	0.099
321.100	-1.849	0.099
321.200	-10.407	0.099
321.300	-12.070	0.099
321.400	-6.959	0.099
321.500	-18.740	0.099
321.600	-17.165	0.099
321.700	-3.049	0.099
321.800	-7.890	0.099
321.900	-9.721	0.099
322.000	-27.042	0.099
322.100	-11.448	0.099
322.200	-11.885	0.099
322.300	-5.845	0.099
322.400	2.338	0.099
322.500	-12.337	0.099
322.600	-7.891	0.099
322.700	-16.834	0.099
322.800	-9.947	0.099
322.900	-11.864	0.099
323.000	-3.056	0.099
323.100	-8.241	0.099
323.200	-11.191	0.099
323.300	5.508	0.099
323.400	-14.212	0.099
323.500	-22.061	0.099
323.600	-6.844	0.099
323.700	-20.364	0.099
323.800	-6.665	0.099
323.900	-16.789	0.099
324.000	-9.684	0.099
324.100	-8.344	0.099
324.200	-6.265	0.099
324.300	-20.453	0.099
324.400	-11.563	0.099
324.500	-15.093	0.099
324.600	-18.596	0.099
324.700	-2.843	0.099
324.800	-18.679	0.099
324.900	-18.288	0.099
325.000	-15.257	0.099
325.100	5.612	0.099
325.200	-7.285	0.099
325.300	-1.094	0.099
325.400	-8.920	0.099
325.500	-10.587	0.099
325.600	-15.587	0.099
325.700	-9.246	0.099
325.800	-18.929	0.099
325.900	-5.342	0.099
326.000	-1.014	0.099
326.100	-20.695	0.099
326.200	-7.366	0.099
326.300	-2.513	0.099
326.400	-2.908	0.099
326.500	-6.947	0.099
326.600	-21.027	0.099
326.700	-11.893	0.099
326.800	-11.824	0.099
326.900	-15.738	0.099
327.000	-0.928	0.099
327.100	-3.313	0.099
327.200	-13.347	0.099
327.300	-4.693	0.099
327.400	-4.833	0.099
327.500	-1.711	0.099
327.600	-12.943	0.099
327.700	-12.477	0.099
327.800	-15.262	0.099
327.900	-22.804	0.099
328.000	-6.321	0.099
328.100	-3.672	0.099
328.200	-5.276	0.099
328.300	-32.969	0.099
328.400	-0.899	0.099
328.500	-5.836	0.099
328.600	-12.727	0.099
328.700	-3.043	0.099
328.800	-15.709	0.099
328.900	-3.202	0.099
329.000	-0.588	0.099
329.100	-9.534	0.099
329.200	-11.602	0.099
329.300	-10.622	0.099
329.400	-11.874	0.099
329.500	-4.508	0.099
329.600	-15.090	0.099
329.700	-7.000	0.099
329.800	-13.917	0.099
329.900	-1.100	0.099
330.000	-7.383	0.099
330.100	-15.209	0.099
330.200	-4.671	0.099
330.300	-8.050	0.099
330.400	-5.433	0.099
330.500	4.662	0.099
330.600	-4.104	0.099
330.700	-5.037	0.099
330.800	-7.472	0.099
330.900	3.965	0.099
331.000	8.689	0.099
331.100	1.461	0.099
331.200	2.458	0.099
331.300	-3.347	0.099
331.400	10.854	0.099
331.500	-0.819	0.099
331.600	3.816	0.099
331.700	-4.454	0.099
331.800	6.007	0.099
331.900	3.883	0.099
332.000	12.405	0.099
332.100	1.270	0.099
332.200	9.945	0.099
332.300	0.892	0.099
332.400	26.795	0.099
332.500	-3.615	0.099
332.600	9.377	0.099
332.700	10.921	0.099
332.800	10.737	0.099
332.900	13.661	0.099
333.000	15.997	0.099
333.100	10.483	0.099
333.200	13.562	0.099
333.300	2.713	0.099
333.400	10.683	0.099
333.500	9.353	0.099
333.600	15.921	0.099
333.700	4.211	0.099
333.800	10.035	0.099
333.900	21.073	0.099
334.000	18.302	0.099
334.100	4.388	0.099
334.200	4.178	0.099
334.300	19.558	0.099
334.400	14.774	0.099
334.500	21.019	0.099
334.600	8.465	0.099
334.700	17.079	0.099
334.800	9.345	0.099
334.900	17.422	0.099
335.000	26.066	0.099
335.100	8.130	0.099
335.200	1.642	0.099
335.300	0.686	0.099
335.400	13.336	0.099
335.500	10.248	0.099
335.600	16.328	0.099
335.700	16.954	0.099
335.800	11.767	0.099
335.900	22.212	0.099
336.000	15.347	0.099
336.100	16.502	0.099
336.200	19.982	0.099
336.300	2.406	0.099
336.400	-5.247	0.099
336.500	28.405	0.099
336.600	17.202	0.099
336.700	21.629	0.099
336.800	22.934	0.099
336.900	5.551	0.099
337.000	6.742	0.099
337.100	13.354	0.099
337.200	17.981	0.099
337.300	3.838	0.099
337.400	22.362	0.099
337.500	16.865	0.099
337.600	14.791	0.099
337.700	10.151	0.099
337.800	26.744	0.099
337.900	13.588	0.099
338.000	20.810	0.099
338.100	17.758	0.099
338.200	15.341	0.099
338.300	20.215	0.099
338.400	19.552	0.099
338.500	14.205	0.099
338.600	17.356	0.099
338.700	24.561	0.099
338.800	2.824	0.099
338.900	24.525	0.099
339.000	18.200	0.099
339.100	26.839	0.099
339.200	24.078	0.099
339.300	23.230	0.099
339.400	21.272	0.099
339.500	-3.404	0.099
339.600	6.364	0.099
339.700	14.562	0.099
339.800	16.743	0.099
339.900	31.733	0.099
340.000	19.863	0.099
340.100	21.640	0.099
340.200	31.363	0.099
340.300	13.321	0.099
340.400	14.057	0.099
340.500	14.575	0.099
340.600	27.511	0.099
340.700	32.027	0.099
340.800	17.199	0.099
340.900	24.690	0.099
341.000	18.794	0.099
341.100	23.155	0.099
341.200	20.871	0.099
341.300	16.372	0.099
341.400	28.183	0.099
341.500	15.884	0.099
341.600	24.953	0.099
341.700	10.620	0.099
341.800	28.312	0.099
341.900	36.596	0.099
342.000	22.952	0.099
342.100	21.094	0.099
342.200	30.652	0.099
342.300	19.768	0.099
342.400	33.643	0.099
342.500	24.149	0.099
342.600	24.366	0.099
342.700	35.894	0.099
342.800	31.078	0.099
342.900	17.157	0.099
343.000	19.493	0.099
343.100	29.779	0.099
343.200	31.340	0.099
343.300	31.971	0.099
343.400	28.136	0.099
343.500	37.259	0.099
343.600	26.134	0.099
343.700	24.439	0.099
343.800	41.255	0.099
343.900	19.908	0.099
344.000	41.090	0.099
344.100	30.359	0.099
344.200	19.887	0.099
344.300	35.711	0.099
344.400	19.978	0.099
344.500	33.806	0.099
344.600	17.324	0.099
344.700	37.530	0.099
344.800	33.058	0.099
344.900	26.227	0.099
345.000	31.288	0.099
345.100	25.213	0.099
345.200	34.580	0.099
345.300	35.495	0.099
345.400	29.044	0.099
345.500	32.526	0.099
345.600	44.635	0.099
345.700	21.508	0.099
345.800	23.017	0.099
345.900	34.130	0.099
346.000	39.524	0.099
346.100	30.791	0.099
346.200	33.669	0.099
346.300	36.199	0.099
346.400	25.467	0.099
346.500	31.097	0.099
346.600	35.077	0.099
346.700	38.479	0.099
346.800	31.889	0.099
346.900	36.142	0.099
347.000	20.607	0.099
347.100	37.172	0.099
347.200	27.915	0.099
347.300	28.838	0.099
347.400	44.817	0.099
347.500	45.089	0.099
347.600	26.817	0.099
347.700	41.689	0.099
347.800	31.225	0.099
347.900	30.121	0.099
348.000	34.155	0.099
348.100	29.318	0.099
348.200	44.064	0.099
348.300	33.628	0.099
348.400	35.519	0.099
348.500	28.072	0.099
348.600	33.333	0.099
348.700	31.531	0.099
348.800	41.954	0.099
348.900	36.356	0.099
349.000	16.430	0.099
349.100	40.187	0.099
349.200	30.509	0.099
349.300	20.450	0.099
349.400	36.440	0.099
349.500	35.355	0.099
349.600	33.847	0.099
349.700	29.714	0.099
349.800	35.783	0.099
349.900	31.436	0.099
350.000	36.667	0.099
350.100	53.391	0.099
350.200	29.354	0.099
350.300	41.033	0.099
350.400	33.288	0.099
350.500	38.401	0.099
350.600	20.937	0.099
350.700	34.016	0.099
350.800	24.416	0.099
350.900	40.009	0.099
351.000	41.278	0.099
351.100	38.140	0.099
351.200	42.896	0.099
351.300	15.893	0.099
351.400	22.487	0.099
351.500	43.876	0.099
351.600	20.291	0.099
351.700	37.955	0.099
351.800	43.955	0.099
351.900	24.518	0.099
352.000	36.791	0.099
352.100	37.347	0.099
352.200	31.359	0.099
352.300	27.291	0.099
352.400	33.081	0.099
352.500	40.924	0.099
352.600	37.684	0.099
352.700	24.039	0.099
352.800	40.394	0.099
352.900	27.311	0.099
353.000	36.040	0.099
353.100	32.509	0.099
353.200	33.723	0.099
353.300	29.301	0.099
353.400	35.202	0.099
353.500	39.801	0.099
353.600	37.236	0.099
353.700	43.338	0.099
353.800	40.367	0.099
353.900	28.284	0.099
354.000	24.507	0.099
354.100	28.400	0.099
354.200	37.085	0.099
354.300	27.249	0.099
354.400	37.562	0.099
354.500	28.046	0.099
354.600	43.678	0.099
354.700	28.216	0.099
354.800	30.017	0.099
354.900	34.561	0.099
355.000	30.699	0.099
355.100	36.814	0.099
355.200	22.530	0.099
355.300	42.026	0.099
355.400	27.111	0.099
355.500	17.460	0.099
355.600	52.760	0.099
355.700	38.277	0.099
355.800	33.002	0.099
355.900	29.812	0.099
356.000	42.424	0.099
356.100	35.544	0.099
356.200	20.437	0.099
356.300	45.520	0.099
356.400	38.509	0.099
356.500	40.466	0.099
356.600	39.946	0.099
356.700	44.654	0.099
356.800	41.300	0.099
356.900	37.341	0.099
357.000	25.703	0.099
357.100	43.307	0.099
357.200	13.763	0.099
357.300	48.937	0.099
357.400	22.717	0.099
357.500	27.200	0.099
357.600	28.193	0.099
357.700	34.599	0.099
357.800	45.479	0.099
357.900	32.545	0.099
358.000	37.936	0.099
358.100	27.765	0.099
358.200	34.010	0.099
358.300	33.180	0.099
358.400	26.993	0.099
358.500	33.893	0.099
358.600	48.920	0.099
358.700	39.099	0.099
358.800	28.101	0.099
358.900	34.519	0.099
359.000	41.231	0.099
359.100	48.004	0.099
359.200	22.717	0.099
359.300	40.509	0.099
359.400	34.971	0.099
359.500	30.798	0.099
359.600	38.113	0.099
359.700	27.725	0.099
359.800	37.568	0.099
359.900	48.825	0.099
360.000	42.147	0.099
360.100	16.619	0.099
360.200	31.156	0.099
360.300	40.587	0.099
360.400	25.847	0.099
360.500	24.113	0.099
360.600	21.805	0.099
360.700	34.943	0.099
360.800	35.354	0.099
360.900	31.291	0.099
361.000	35.730	0.099
361.100	21.683	0.099
361.200	42.892	0.099
361.300	32.292	0.099
361.400	40.553	0.099
361.500	27.892	0.099
361.600	36.984	0.099
361.700	32.090	0.099
361.800	35.046	0.099
361.900	46.435	0.099
362.000	38.225	0.099
362.100	35.193	0.099
362.200	30.315	0.099
362.300	38.032	0.099
362.400	18.733	0.099
362.500	39.936	0.099
362.600	32.904	0.099
362.700	30.379	0.099
362.800	36.998	0.099
362.900	29.823	0.099
363.000	34.727	0.099
363.100	27.990	0.099
363.200	27.705	0.099
363.300	32.060	0.099
363.400	24.609	0.099
363.500	24.241	0.099
363.600	38.183	0.099
363.700	28.459	0.099
363.800	12.301	0.099
363.900	43.909	0.099
364.000	36.176	0.099
364.100	36.495	0.099
364.200	26.212	0.099
364.300	41.904	0.099
364.400	22.186	0.099
364.500	43.117	0.099
364.600	21.924	0.099
364.700	34.764	0.099
364.800	34.147	0.099
364.900	38.892	0.099
365.000	44.662	0.099
365.100	19.712	0.099
365.200	35.258	0.099
365.300	40.786	0.099
365.400	33.129	0.099
365.500	37.699	0.099
365.600	24.117	0.099
365.700	17.417	0.099
365.800	51.605	0.099
365.900	24.314	0.099
366.000	36.200	0.099
366.100	31.245	0.099
366.200	29.739	0.099
366.300	29.629	0.099
366.400	30.289	0.099
366.500	36.618	0.099
366.600	33.385	0.099
366.700	46.691	0.099
366.800	27.549	0.099
366.900	42.797	0.099
367.000	29.750	0.099
367.100	28.871	0.099
367.200	39.148	0.099
367.300	21.222	0.099
367.400	34.407	0.099
367.500	26.212	0.099
367.600	35.540	0.099
367.700	29.532	0.099
367.800	27.699	0.099
367.900	37.483	0.099
368.000	22.430	0.099
368.100	31.944	0.099
368.200	37.281	0.099
368.300	31.962	0.099
368.400	33.730	0.099
368.500	29.568	0.099
368.600	24.212	0.099
368.700	29.456	0.099
368.800	21.028	0.099
368.900	30.513	0.099
369.000	42.565	0.099
369.100	33.422	0.099
369.200	31.280	0.099
369.300	45.462	0.099
369.400	33.155	0.099
369.500	36.645	0.099
369.600	28.508	0.099
369.700	27.379	0.099
369.800	36.331	0.099
369.900	28.402	0.099
370.000	42.365	0.099
370.100	41.776	0.099
370.200	25.048	0.099
370.300	26.024	0.099
370.400	44.300	0.099
370.500	17.931	0.099
370.600	25.648	0.099
370.700	26.639	0.099
370.800	39.783	0.099
370.900	28.102	0.099
371.000	37.825	0.099
371.100	39.360	0.099
371.200	36.078	0.099
371.300	24.606	0.099
371.400	37.346	0.099
371.500	32.137	0.099
371.600	41.457	0.099
371.700	34.786	0.099
371.800	46.316	0.099
371.900	18.419	0.099
372.000	30.729	0.099
372.100	27.393	0.099
372.200	18.915	0.099
372.300	39.593	0.099
372.400	18.224	0.099
372.500	47.557	0.099
372.600	37.098	0.099
372.700	33.001	0.099
372.800	32.623	0.099
372.900	27.448	0.099
373.000	23.830	0.099
373.100	31.798	0.099
373.200	30.520	0.099
373.300	23.555	0.099
373.400	39.425	0.099
373.500	25.968	0.099
373.600	36.746	0.099
373.700	31.784	0.099
373.800	24.227	0.099
373.900	25.247	0.099
374.000	32.989	0.099
374.100	30.886	0.099
374.200	35.194	0.099
374.300	19.587	0.099
374.400	29.680	0.099
374.500	34.760	0.099
374.600	31.117	0.099
374.700	35.078	0.099
374.800	26.195	0.099
374.900	34.085	0.099
375.000	36.206	0.099
375.100	18.371	0.099
375.200	24.173	0.099
375.300	40.539	0.099
375.400	17.901	0.099
375.500	24.201	0.099
375.600	43.321	0.099
375.700	31.687	0.099
375.800	41.247	0.099
375.900	25.710	0.099
376.000	26.811	0.099
376.100	18.268	0.099
376.200	40.799	0.099
376.300	34.239	0.099
376.400	28.314	0.099
376.500	44.730	0.099
376.600	28.472	0.099
376.700	29.424	0.099
376.800	32.085	0.099
376.900	34.785	0.099
377.000	34.968	0.099
377.100	26.686	0.099
377.200	35.235	0.099
377.300	25.162	0.099
377.400	10.201	0.099
377.500	49.826	0.099
377.600	32.672	0.099
377.700	36.985	0.099
377.800	29.187	0.099
377.900	16.473	0.099
378.000	39.795	0.099
378.100	29.393	0.099
378.200	30.474	0.099
378.300	26.528	0.099
378.400	31.045	0.099
378.500	26.438	0.099
378.600	13.975	0.099
378.700	43.414	0.099
378.800	30.180	0.099
378.900	25.155	0.099
379.000	21.674	0.099
379.100	26.540	0.099
379.200	25.204	0.099
379.300	40.617	0.099
379.400	41.250	0.099
379.500	27.311	0.099
379.600	30.966	0.099
379.700	30.356	0.099
379.800	39.254	0.099
379.900	15.019	0.099
380.000	29.956	0.099
380.100	32.484	0.099
380.200	27.027	0.099
380.300	42.153	0.099
380.400	32.899	0.099
380.500	28.134	0.099
380.600	18.133	0.099
380.700	31.280	0.099
380.800	38.624	0.099
380.900	28.786	0.099
381.000	45.749	0.099
381.100	31.863	0.099
381.200	20.173	0.099
381.300	30.007	0.099
381.400	30.767	0.099
381.500	32.385	0.099
381.600	28.396	0.099
381.700	19.943	0.099
381.800	42.465	0.099
381.900	12.601	0.099
382.000	37.094	0.099
382.100	31.977	0.099
382.200	41.111	0.099
382.300	34.765	0.099
382.400	23.379	0.099
382.500	22.559	0.099
382.600	16.173	0.099
382.700	41.567	0.099
382.800	16.715	0.099
382.900	28.183	0.099
383.000	35.845	0.099
383.100	28.175	0.099
383.200	21.029	0.099
383.300	37.493	0.099
383.400	39.090	0.099
383.500	15.741	0.099
383.600	35.621	0.099
383.700	25.815	0.099
383.800	45.486	0.099
383.900	34.410	0.099
384.000	20.771	0.099
384.100	30.848	0.099
384.200	17.756	0.099
384.300	16.920	0.099
384.400	38.661	0.099
384.500	27.504	0.099
384.600	34.061	0.099
384.700	18.332	0.099
384.800	20.611	0.099
384.900	33.252	0.099
385.000	23.379	0.099
385.100	29.077	0.099
385.200	23.158	0.099
385.300	45.081	0.099
385.400	13.682	0.099
385.500	24.264	0.099
385.600	23.644	0.099
385.700	30.378	0.099
385.800	35.083	0.099
385.900	14.476	0.099
386.000	37.288	0.099
386.100	32.591	0.099
386.200	28.292	0.099
386.300	24.423	0.099
386.400	22.279	0.099
386.500	21.671	0.099
386.600	40.900	0.099
386.700	30.856	0.099
386.800	29.125	0.099
386.900	28.668	0.099
387.000	26.082	0.099
387.100	25.068	0.099
387.200	42.137	0.099
387.300	22.740	0.099
387.400	28.679	0.099
387.500	27.186	0.099
387.600	32.560	0.099
387.700	31.835	0.099
387.800	26.946	0.099
387.900	38.485	0.099
388.000	29.860	0.099
388.100	9.660	0.099
388.200	39.320	0.099
388.300	20.634	0.099
388.400	21.537	0.099
388.500	28.751	0.099
388.600	26.512	0.099
388.700	34.799	0.099
388.800	13.277	0.099
388.900	32.838	0.099
389.000	34.976	0.099
389.100	32.424	0.099
389.200	23.388	0.099
389.300	25.882	0.099
389.400	28.082	0.099
389.500	26.479	0.099
389.600	29.747	0.099
389.700	21.290	0.099
389.800	18.245	0.099
389.900	24.300	0.099
390.000	22.881	0.099
390.100	22.991	0.099
390.200	29.889	0.099
390.300	22.428	0.099
390.400	24.578	0.099
390.500	11.204	0.099
390.600	22.420	0.099
390.700	22.123	0.099
390.800	11.924	0.099
390.900	18.815	0.099
391.000	5.840	0.099
391.100	-1.958	0.099
391.200	16.763	0.099
391.300	9.978	0.099
391.400	8.314	0.099
391.500	8.712	0.099
391.600	18.269	0.099
391.700	15.910	0.099
391.800	2.278	0.099
391.900	0.340	0.099
392.000	-7.410	0.099
392.100	7.357	0.099
392.200	4.496	0.099
392.300	-7.464	0.099
392.400	21.798	0.099
392.500	2.621	0.099
392.600	-10.380	0.099
392.700	0.578	0.099
392.800	-7.635	0.099
392.900	-0.374	0.099
393.000	-10.429	0.099
393.100	-4.122	0.099
393.200	16.646	0.099
393.300	-1.782	0.099
393.400	2.755	0.099
393.500	-10.569	0.099
393.600	10.359	0.099
393.700	-2.341	0.099
393.800	-6.126	0.099
393.900	-2.541	0.099
394.000	-4.349	0.099
394.100	-11.246	0.099
394.200	0.980	0.099
394.300	-5.324	0.099
394.400	7.649	0.099
394.500	-5.239	0.099
394.600	4.121	0.099
394.700	-12.771	0.099
394.800	-4.358	0.099
394.900	1.948	0.099
395.000	-8.621	0.099
395.100	-7.188	0.099
395.200	-10.598	0.099
395.300	-10.287	0.099
395.400	7.424	0.099
395.500	-7.116	0.099
395.600	-12.260	0.099
395.700	-7.695	0.099
395.800	-2.103	0.099
395.900	-1.888	0.099
396.000	-1.507	0.099
396.100	-3.852	0.099
396.200	-18.209	0.099
396.300	-0.287	0.099
396.400	-6.341	0.099
396.500	-5.169	0.099
396.600	-8.844	0.099
396.700	-12.826	0.099
396.800	-11.649	0.099
396.900	3.359	0.099
397.000	-12.689	0.099
397.100	2.211	0.099
397.200	-0.688	0.099
397.300	-8.009	0.099
397.400	-8.985	0.099
397.500	-0.865	0.099
397.600	-0.076	0.099
397.700	-15.816	0.099
397.800	-22.064	0.099
397.900	-10.622	0.099
398.000	-16.699	0.099
398.100	-1.395	0.099
398.200	-5.306	0.099
398.300	5.092	0.099
398.400	-4.188	0.099
398.500	-16.058	0.099
398.600	8.600	0.099
398.700	1.471	0.099
398.800	-16.213	0.099
398.900	-16.768	0.099
399.000	-10.349	0.099
399.100	-7.652	0.099
399.200	3.788	0.099
399.300	-6.257	0.099
399.400	-21.013	0.099
399.500	0.349	0.099
399.600	-12.640	0.099
399.700	-5.035	0.099
399.800	-7.601	0.099
399.900	-20.571	0.099
400.000	5.345	0.099
400.100	-1.537	0.099
400.200	-8.566	0.099
400.300	-1.570	0.099
400.400	-13.368	0.099
400.500	-20.049	0.099
400.600	-15.542	0.099
400.700	-9.401	0.099
400.800	-5.336	0.099
400.900	-32.418	0.099
401.000	-14.865	0.099
401.100	-6.340	0.099
401.200	-5.891	0.099
401.300	-7.834	0.099
401.400	-17.120	0.099
401.500	-3.713	0.099
401.600	-10.532	0.099
401.700	-18.062	0.099
401.800	-22.144	0.099
401.900	8.646	0.099
402.000	-10.829	0.099
402.100	-6.641	0.099
402.200	-4.526	0.099
402.300	-8.434	0.099
402.400	-18.420	0.099
402.500	-18.676	0.099
402.600	-13.462	0.099
402.700	-4.392	0.099
402.800	-8.098	0.099
402.900	-2.979	0.099
403.000	-23.914	0.099
403.100	-16.462	0.099
403.200	-2.365	0.099
403.300	-14.901	0.099
403.400	-8.929	0.099
403.500	-21.832	0.099
403.600	-3.869	0.099
403.700	-4.962	0.099
403.800	-15.171	0.099
403.900	-10.804	0.099
404.000	-4.327	0.099
404.100	-13.471	0.099
404.200	-4.410	0.099
404.300	-16.512	0.099
404.400	-21.642	0.099
404.500	-10.633	0.099
404.600	-9.185	0.099
404.700	-15.230	0.099
404.800	-3.562	0.099
404.900	-3.972	0.099
405.000	-17.338	0.099
405.100	-16.490	0.099
405.200	-15.507	0.099
405.300	-16.982	0.099
405.400	-34.140	0.099
405.500	-13.829	0.099
405.600	-2.972	0.099
405.700	-6.922	0.099
405.800	-19.074	0.099
405.900	-18.718	0.099
406.000	-17.437	0.099
406.100	-17.664	0.099
406.200	-28.904	0.099
406.300	-1.662	0.099
406.400	-24.096	0.099
406.500	-14.101	0.099
406.600	-18.196	0.099
406.700	-31.913	0.099
406.800	-22.199	0.099
406.900	-5.520	0.099
407.000	-16.426	0.099
407.100	-3.040	0.099
407.200	-9.091	0.099
407.300	-13.678	0.099
407.400	-21.787	0.099
407.500	-20.748	0.099
407.600	-7.053	0.099
407.700	-11.626	0.099
407.800	-19.617	0.099
407.900	-23.392	0.099
408.000	-17.668	0.099
408.100	-23.531	0.099
408.200	-18.425	0.099
408.300	1.647	0.099
408.400	-17.218	0.099
408.500	-26.403	0.099
408.600	-16.840	0.099
408.700	-15.154	0.099
408.800	-7.882	0.099
408.900	-9.835	0.099
409.000	-30.120	0.099
409.100	-25.329	0.099
409.200	-17.746	0.099
409.300	-12.034	0.099
409.400	-16.178	0.099
409.500	-8.935	0.099
409.600	-7.835	0.099
409.700	-17.317	0.099
409.800	-30.373	0.099
409.900	-3.384	0.099
410.000	-20.654	0.099
410.100	-28.496	0.099
410.200	-25.002	0.099
410.300	-10.524	0.099
410.400	-24.732	0.099
410.500	-9.912	0.099
410.600	-15.326	0.099
410.700	-23.066	0.099
410.800	-9.601	0.099
410.900	-16.554	0.099
411.000	-9.630	0.099
411.100	-18.380	0.099
411.200	-12.973	0.099
411.300	-12.674	0.099
411.400	-32.050	0.099
411.500	-19.704	0.099
411.600	-12.842	0.099
411.700	-20.499	0.099
411.800	-21.022	0.099
411.900	-7.556	0.099
412.000	-11.194	0.099
412.100	-20.785	0.099
412.200	-18.121	0.099
412.300	-4.967	0.099
412.400	-19.396	0.099
412.500	-20.390	0.099
412.600	-3.288	0.099
412.700	-13.294	0.099
412.800	-11.803	0.099
412.900	-21.934	0.099
413.000	-22.329	0.099
413.100	-16.709	0.099
413.200	-9.031	0.099
413.300	-26.589	0.099
413.400	-7.838	0.099
413.500	-26.599	0.099
413.600	-27.773	0.099
413.700	-26.819	0.099
413.800	-24.829	0.099
413.900	-11.522	0.099
414.000	-20.239	0.099
414.100	-24.592	0.099
414.200	-23.734	0.099
414.300	-26.025	0.099
414.400	-21.387	0.099
414.500	-26.382	0.099
414.600	-13.296	0.099
414.700	-33.732	0.099
414.800	-18.295	0.099
414.900	-30.342	0.099
415.000	-13.291	0.099
415.100	-25.431	0.099
415.200	-32.317	0.099
415.300	-10.943	0.099
415.400	-32.719	0.099
415.500	-8.856	0.099
415.600	-21.107	0.099
415.700	-15.919	0.099
415.800	-18.527	0.099
415.900	-27.750	0.099
416.000	-6.258	0.099
416.100	-11.721	0.099
416.200	-22.783	0.099
416.300	-23.706	0.099
416.400	-27.140	0.099
416.500	-9.026	0.099
416.600	-19.904	0.099
416.700	-29.525	0.099
416.800	-19.812	0.099
416.900	-12.380	0.099
417.000	-25.146	0.099
417.100	-8.906	0.099
417.200	-19.372	0.099
417.300	-33.100	0.099
417.400	-22.842	0.099
417.500	-8.656	0.099
417.600	-15.454	0.099
417.700	-21.714	0.099
417.800	-10.968	0.099
417.900	-14.893	0.099
418.000	-17.396	0.099
418.100	-24.466	0.099
418.200	-5.750	0.099
418.300	-10.472	0.099
418.400	-30.019	0.099
418.500	-16.578	0.099
418.600	-20.628	0.099
418.700	-18.586	0.099
418.800	-8.781	0.099
418.900	-21.156	0.099
419.000	-17.470	0.099
419.100	-29.277	0.099
419.200	-13.417	0.099
419.300	-17.350	0.099
419.400	-14.364	0.099
419.500	-16.661	0.099
419.600	-27.869	0.099
419.700	-14.760	0.099
419.800	-17.308	0.099
419.900	-21.498	0.099
420.000	-17.475	0.099
420.100	-18.885	0.099
420.200	-19.107	0.099
420.300	-4.900	0.099
420.400	-14.445	0.099
420.500	-29.273	0.099
420.600	-14.993	0.099
420.700	-38.852	0.099
420.800	-11.814	0.099
420.900	-12.517	0.099
421.000	-23.717	0.099
421.100	-4.376	0.099
421.200	-29.896	0.099
421.300	-24.033	0.099
421.400	-17.140	0.099
421.500	-26.476	0.099
421.600	-21.503	0.099
421.700	-30.830	0.099
421.800	-8.814	0.099
421.900	-14.445	0.099
422.000	-14.993	0.099
422.100	-27.619	0.099
422.200	-14.329	0.099
422.300	-19.845	0.099
422.400	-14.547	0.099
422.500	-12.875	0.099
422.600	-25.954	0.099
422.700	-16.154	0.099
422.800	-12.450	0.099
422.900	-8.941	0.099
423.000	-13.607	0.099
423.100	-13.373	0.099
423.200	-10.790	0.099
423.300	-30.425	0.099
423.400	-19.409	0.099
423.500	-31.803	0.099
423.600	-6.970	0.099
423.700	-20.409	0.099
423.800	-15.309	0.099
423.900	-21.288	0.099
424.000	-8.053	0.099
424.100	-15.166	0.099
424.200	-8.133	0.099
424.300	-17.898	0.099
424.400	-7.189	0.099
424.500	-28.853	0.099
424.600	-25.013	0.099
424.700	-22.271	0.099
424.800	-25.594	0.099
424.900	-12.336	0.099
425.000	-23.068	0.099
425.100	-26.350	0.099
425.200	-6.429	0.099
425.300	-20.106	0.099
425.400	-8.688	0.099
425.500	-24.110	0.099
425.600	-18.385	0.099
425.700	-37.824	0.099
425.800	-8.837	0.099
425.900	-16.478	0.099
426.000	-28.772	0.099
426.100	-24.930	0.099
426.200	-22.713	0.099
426.300	-9.110	0.099
426.400	-7.125	0.099
426.500	-20.536	0.099
426.600	-11.965	0.099
426.700	-17.328	0.099
426.800	-15.135	0.099
426.900	-19.488	0.099
427.000	-18.371	0.099
427.100	-11.600	0.099
427.200	-18.721	0.099
427.300	-13.832	0.099
427.400	-21.171	0.099
427.500	-21.046	0.099
427.600	-19.349	0.099
427.700	-24.673	0.099
427.800	-26.437	0.099
427.900	-15.167	0.099
428.000	-5.034	0.099
428.100	-21.476	0.099
428.200	-24.111	0.099
428.300	-13.664	0.099
428.400	-11.544	0.099
428.500	-18.864	0.099
428.600	-19.776	0.099
428.700	-21.808	0.099
428.800	-17.121	0.099
428.900	-16.454	0.099
429.000	-30.933	0.099
429.100	-12.909	0.099
429.200	-19.367	0.099
429.300	-32.590	0.099
429.400	-12.856	0.099
429.500	-13.461	0.099
429.600	-24.302	0.099
429.700	-29.024	0.099
429.800	-21.880	0.099
429.900	-12.606	0.099
430.000	-9.540	0.099
430.100	-19.899	0.099
430.200	-33.092	0.099
430.300	-23.549	0.099
430.400	-4.969	0.099
430.500	-25.341	0.099
430.600	-12.227	0.099
430.700	-14.720	0.099
430.800	-17.237	0.099
430.900	-23.384	0.099
431.000	-22.186	0.099
431.100	-13.615	0.099
431.200	-11.889	0.099
431.300	-23.531	0.099
431.400	-22.899	0.099
431.500	-15.004	0.099
431.600	-16.202	0.099
431.700	-16.343	0.099
431.800	-32.651	0.099
431.900	-19.871	0.099
432.000	-4.705	0.099
432.100	-7.978	0.099
432.200	-19.736	0.099
432.300	-23.483	0.099
432.400	-9.400	0.099
432.500	-18.591	0.099
432.600	-14.357	0.099
432.700	-5.824	0.099
432.800	-17.910	0.099
432.900	-26.833	0.099
433.000	-4.871	0.099
433.100	-8.148	0.099
433.200	-24.557	0.099
433.300	-8.270	0.099
433.400	-23.464	0.099
433.500	-18.391	0.099
433.600	-3.190	0.099
433.700	-20.009	0.099
433.800	-27.309	0.099
433.900	-14.416	0.099
434.000	-17.853	0.099
434.100	-18.863	0.099
434.200	-30.095	0.099
434.300	-23.466	0.099
434.400	-10.016	0.099
434.500	-0.267	0.099
434.600	-13.714	0.099
434.700	-18.307	0.099
434.800	-19.706	0.099
434.900	-9.665	0.099
435.000	-14.354	0.099
435.100	-23.515	0.099
435.200	-14.784	0.099
435.300	-22.902	0.099
435.400	-11.506	0.099
435.500	-19.218	0.099
435.600	-26.255	0.099
435.700	-11.202	0.099
435.800	-14.709	0.099
435.900	-8.923	0.099
436.000	-27.198	0.099
436.100	2.506	0.099
436.200	-14.853	0.099
436.300	-21.507	0.099
436.400	-34.536	0.099
436.500	-11.651	0.099
436.600	-13.986	0.099
436.700	-7.439	0.099
436.800	-18.042	0.099
436.900	-8.961	0.099
437.000	-19.400	0.099
437.100	-13.714	0.099
437.200	-15.635	0.099
437.300	-9.083	0.099
437.400	-17.657	0.099
437.500	-9.526	0.099
437.600	-10.456	0.099
437.700	-17.584	0.099
437.800	-14.029	0.099
437.900	-0.921	0.099
438.000	-20.461	0.099
438.100	-32.595	0.099
438.200	-19.317	0.099
438.300	-24.630	0.099
438.400	-23.744	0.099
438.500	-17.439	0.099
438.600	-24.369	0.099
438.700	-11.251	0.099
438.800	-35.581	0.099
438.900	-15.031	0.099
439.000	-3.655	0.099
439.100	-10.307	0.099
439.200	-11.596	0.099
439.300	-20.009	0.099
439.400	-12.692	0.099
439.500	-14.253	0.099
439.600	-12.764	0.099
439.700	-19.867	0.099
439.800	-16.848	0.099
439.900	-11.593	0.099
440.000	-31.835	0.099
440.100	-9.929	0.099
440.200	-10.730	0.099
440.300	-7.913	0.099
440.400	-32.384	0.099
440.500	-1.613	0.099
440.600	-11.968	0.099
440.700	-27.138	0.099
440.800	-13.926	0.099
440.900	-8.730	0.099
441.000	-19.313	0.099
441.100	-12.446	0.099
441.200	-24.495	0.099
441.300	-16.927	0.099
441.400	-19.121	0.099
441.500	-7.764	0.099
441.600	-18.871	0.099
441.700	-18.488	0.099
441.800	-11.942	0.099
441.900	-18.798	0.099
442.000	-12.251	0.099
442.100	-10.793	0.099
442.200	-19.339	0.099
442.300	-15.054	0.099
442.400	-18.839	0.099
442.500	-16.003	0.099
442.600	-10.380	0.099
442.700	-7.475	0.099
442.800	-13.709	0.099
442.900	-16.524	0.099
443.000	-9.562	0.099
443.100	-23.594	0.099
443.200	-17.248	0.099
443.300	-19.417	0.099
443.400	-14.642	0.099
443.500	-21.477	0.099
443.600	-1.667	0.099
443.700	-13.876	0.099
443.800	-24.416	0.099
443.900	2.154	0.099
444.000	-18.606	0.099
444.100	-25.897	0.099
444.200	-16.276	0.099
444.300	-18.981	0.099
444.400	0.814	0.099
444.500	-11.818	0.099
444.600	-15.790	0.099
444.700	-22.096	0.099
444.800	-12.866	0.099
444.900	-14.621	0.099
445.000	-2.420	0.099
445.100	-23.730	0.099
445.200	1.520	0.099
445.300	-19.202	0.099
445.400	-9.716	0.099
445.500	-29.673	0.099
445.600	-14.676	0.099
445.700	0.562	0.099
445.800	-18.646	0.099
445.900	-15.870	0.099
446.000	-15.413	0.099
446.100	-9.157	0.099
446.200	-11.510	0.099
446.300	-10.009	0.099
446.400	-17.002	0.099
446.500	-23.121	0.099
446.600	-2.232	0.099
446.700	-18.706	0.099
446.800	-2.794	0.099
446.900	-11.404	0.099
447.000	-8.657	0.099
447.100	-23.000	0.099
447.200	18.531	0.099
447.300	-21.760	0.099
447.400	-10.731	0.099
447.500	-20.560	0.099
447.600	-14.698	0.099
447.700	-15.299	0.099
447.800	-12.399	0.099
447.900	-20.859	0.099
448.000	-22.458	0.099
448.100	0.474	0.099
448.200	-17.802	0.099
448.300	-9.256	0.099
448.400	-16.155	0.099
448.500	-15.532	0.099
448.600	-12.328	0.099
448.700	-18.605	0.099
448.800	-19.947	0.099
448.900	-10.769	0.099
449.000	-1.546	0.099
449.100	-18.688	0.099
449.200	-8.468	0.099
449.300	-13.193	0.099
449.400	-13.057	0.099
449.500	-1.000	0.099
449.600	-5.357	0.099
449.700	-21.460	0.099
449.800	-23.553	0.099
449.900	-18.591	0.099
450.000	-13.457	0.099
450.100	-18.922	0.099
450.200	-7.966	0.099
450.300	-16.131	0.099
450.400	-0.993	0.099
450.500	-10.022	0.099
450.600	-15.014	0.099
450.700	-6.300	0.099
450.800	-19.533	0.099
450.900	-21.822	0.099
451.000	-14.544	0.099
451.100	-9.527	0.099
451.200	-16.809	0.099
451.300	-19.888	0.099
451.400	-6.154	0.099
451.500	-15.971	0.099
451.600	-19.495	0.099
451.700	-11.387	0.099
451.800	-6.077	0.099
451.900	-16.982	0.099
452.000	-23.807	0.099
452.100	-10.656	0.099
452.200	-13.902	0.099
452.300	-22.881	0.099
452.400	-10.980	0.099
452.500	-16.249	0.099
452.600	-20.301	0.099
452.700	-11.424	0.099
452.800	-7.885	0.099
452.900	-4.063	0.099
453.000	-8.772	0.099
453.100	-13.970	0.099
453.200	-6.865	0.099
453.300	-25.302	0.099
453.400	-23.342	0.099
453.500	-24.422	0.099
453.600	-7.585	0.099
453.700	-10.421	0.099
453.800	-26.214	0.099
453.900	-17.892	0.099
454.000	-17.709	0.099
454.100	-17.745	0.099
454.200	-5.557	0.099
454.300	-13.858	0.099
454.400	-0.398	0.099
454.500	-15.950	0.099
454.600	-5.754	0.099
454.700	-16.805	0.099
454.800	-17.142	0.099
454.900	-12.435	0.099
455.000	-9.703	0.099
455.100	-9.147	0.099
455.200	-19.159	0.099
455.300	-18.577	0.099
455.400	-21.924	0.099
455.500	-12.514	0.099
455.600	-19.133	0.099
455.700	-15.719	0.099
455.800	-13.687	0.099
455.900	-15.634	0.099
456.000	-14.703	0.099
456.100	-8.647	0.099
456.200	-12.866	0.099
456.300	-13.610	0.099
456.400	-17.722	0.099
456.500	-3.479	0.099
456.600	-5.007	0.099
456.700	-16.312	0.099
456.800	-12.468	0.099
456.900	-22.325	0.099
457.000	-9.405	0.099
457.100	-13.433	0.099
457.200	-14.050	0.099
457.300	-6.994	0.099
457.400	-15.003	0.099
457.500	-30.611	0.099
457.600	9.987	0.099
457.700	2.611	0.099
457.800	-21.603	0.099
457.900	-2.853	0.099
458.000	-18.156	0.099
458.100	-13.641	0.099
458.200	-3.868	0.099
458.300	-20.040	0.099
458.400	-15.694	0.099
458.500	-16.270	0.099
458.600	-8.213	0.099
458.700	-19.031	0.099
458.800	-23.160	0.099
458.900	-5.860	0.099
459.000	-3.631	0.099
459.100	-10.260	0.099
459.200	-13.124	0.099
459.300	-9.158	0.099
459.400	-13.983	0.099
459.500	-12.298	0.099
459.600	-10.936	0.099
459.700	-15.575	0.099
459.800	-4.562	0.099
459.900	-18.675	0.099
460.000	-4.605	0.099
460.100	-17.642	0.099
460.200	-14.588	0.099
460.300	-2.127	0.099
460.400	-17.444	0.099
460.500	-0.636	0.099
460.600	-12.843	0.099
460.700	-9.251	0.099
460.800	-5.746	0.099
460.900	-12.881	0.099
461.000	-25.484	0.099
461.100	-11.173	0.099
461.200	-20.808	0.099
461.300	-8.776	0.099
461.400	-11.980	0.099
461.500	-6.613	0.099
461.600	-7.670	0.099
461.700	-20.306	0.099
461.800	-13.416	0.099
461.900	-13.838	0.099
462.000	-16.215	0.099
462.100	-4.496	0.099
462.200	-6.483	0.099
462.300	-24.576	0.099
462.400	-9.900	0.099
462.500	-7.154	0.099
462.600	-12.566	0.099
462.700	-6.415	0.099
462.800	-5.258	0.099
462.900	-11.469	0.099
463.000	-14.948	0.099
463.100	-26.472	0.099
463.200	-26.518	0.099
463.300	-0.587	0.099
463.400	-21.326	0.099
463.500	0.367	0.099
463.600	-18.981	0.099
463.700	-11.245	0.099
463.800	-16.402	0.099
463.900	1.264	0.099
464.000	-9.238	0.099
464.100	-10.847	0.099
464.200	-18.973	0.099
464.300	-3.060	0.099
464.400	-8.719	0.099
464.500	-6.758	0.099
464.600	-23.578	0.099
464.700	-16.123	0.099
464.800	-7.651	0.099
464.900	-13.723	0.099
465.000	-14.866	0.099
465.100	-18.589	0.099
465.200	-6.681	0.099
465.300	-8.219	0.099
465.400	-22.841	0.099
465.500	-4.320	0.099
465.600	-5.689	0.099
465.700	-32.488	0.099
465.800	-4.624	0.099
465.900	-0.227	0.099
466.000	-9.893	0.099
466.100	-1.728	0.099
466.200	3.451	0.099
466.300	2.023	0.099
466.400	-12.295	0.099
466.500	-17.067	0.099
466.600	-13.892	0.099
466.700	-7.774	0.099
466.800	-7.503	0.099
466.900	-10.237	0.099
467.000	-19.472	0.099
467.100	-5.462	0.099
467.200	-15.137	0.099
467.300	-16.857	0.099
467.400	-12.986	0.099
467.500	-6.032	0.099
467.600	-8.821	0.099
467.700	-19.170	0.099
467.800	-26.437	0.099
467.900	-27.834	0.099
468.000	-6.764	0.099
468.100	-12.098	0.099
468.200	-15.431	0.099
468.300	-22.570	0.099
468.400	-6.549	0.099
468.500	-10.244	0.099
468.600	-5.044	0.099
468.700	-17.106	0.099
468.800	5.369	0.099
468.900	-13.976	0.099
469.000	-7.842	0.099
469.100	-16.940	0.099
469.200	-16.393	0.099
469.300	11.068	0.099
469.400	-8.793	0.099
469.500	-20.845	0.099
469.600	-18.098	0.099
469.700	-5.714	0.099
469.800	-18.398	0.099
469.900	-18.442	0.099
470.000	-19.148	0.099
470.100	2.598	0.099
470.200	-19.350	0.099
470.300	-21.017	0.099
470.400	-3.139	0.099
470.500	-21.082	0.099
470.600	-16.921	0.099
470.700	-6.141	0.099
470.800	-12.245	0.099
470.900	-17.939	0.099
471.000	-9.084	0.099
471.100	-10.367	0.099
471.200	-31.512	0.099
471.300	-9.633	0.099
471.400	-13.505	0.099
471.500	-6.743	0.099
471.600	-11.309	0.099
471.700	-10.835	0.099
471.800	-2.662	0.099
471.900	-15.203	0.099
472.000	4.766	0.099
472.100	2.472	0.099
472.200	-18.864	0.099
472.300	-20.154	0.099
472.400	-15.344	0.099
472.500	-24.616	0.099
472.600	-12.168	0.099
472.700	-9.520	0.099
472.800	-19.664	0.099
472.900	-7.663	0.099
473.000	-6.560	0.099
473.100	-10.525	0.099
473.200	-25.543	0.099
473.300	4.164	0.099
473.400	-6.593	0.099
473.500	-17.341	0.099
473.600	-18.012	0.099
473.700	-16.438	0.099
473.800	-8.833	0.099
473.900	-18.891	0.099
474.000	-7.040	0.099
474.100	-4.271	0.099
474.200	-10.738	0.099
474.300	-28.406	0.099
474.400	-16.638	0.099
474.500	-10.011	0.099
474.600	-10.671	0.099
474.700	-0.094	0.099
474.800	-16.417	0.099
474.900	-17.367	0.099
475.000	0.989	0.099
475.100	-19.716	0.099
475.200	-12.490	0.099
475.300	-11.381	0.099
475.400	-5.241	0.099
475.500	-10.983	0.099
475.600	-10.088	0.099
475.700	-10.681	0.099
475.800	-9.353	0.099
475.900	-10.495	0.099
476.000	-5.923	0.099
476.100	-5.059	0.099
476.200	-16.617	0.099
476.300	-10.802	0.099
476.400	-13.864	0.099
476.500	-15.176	0.099
476.600	-3.540	0.099
476.700	-5.697	0.099
476.800	-9.533	0.099
476.900	-24.334	0.099
477.000	-5.286	0.099
477.100	-9.785	0.099
477.200	-14.592	0.099
477.300	-1.140	0.099
477.400	-9.380	0.099
477.500	-10.666	0.099
477.600	-11.984	0.099
477.700	-4.210	0.099
477.800	-1.122	0.099
477.900	-11.200	0.099
478.000	-9.866	0.099
478.100	-19.815	0.099
478.200	-14.804	0.099
478.300	-4.412	0.099
478.400	-13.009	0.099
478.500	-13.085	0.099
478.600	-8.342	0.099
478.700	-18.910	0.099
478.800	-18.607	0.099
478.900	-5.408	0.099
479.000	-7.796	0.099
479.100	-14.097	0.099
479.200	-5.078	0.099
479.300	-27.056	0.099
479.400	-2.848	0.099
479.500	-18.052	0.099
479.600	-0.720	0.099
479.700	-3.303	0.099
479.800	-10.515	0.099
479.900	-15.429	0.099
480.000	-5.780	0.099
480.100	-24.574	0.099
480.200	-9.902	0.099
480.300	-8.889	0.099
480.400	-16.404	0.099
480.500	2.409	0.099
480.600	-28.284	0.099
480.700	-1.276	0.099
480.800	1.735	0.099
480.900	-8.359	0.099
481.000	5.452	0.099
481.100	5.134	0.099
481.200	-2.216	0.099
481.300	1.439	0.099
481.400	13.547	0.099
481.500	10.243	0.099
481.600	-0.209	0.099
481.700	13.552	0.099
481.800	7.934	0.099
481.900	5.624	0.099
482.000	7.614	0.099
482.100	-7.385	0.099
482.200	-5.925	0.099
482.300	14.249	0.099
482.400	4.954	0.099
482.500	6.392	0.099
482.600	11.645	0.099
482.700	10.296	0.099
482.800	-3.649	0.099
482.900	30.892	0.099
483.000	0.864	0.099
483.100	6.307	0.099
483.200	18.525	0.099
483.300	1.233	0.099
483.400	-2.503	0.099
483.500	14.268	0.099
483.600	4.600	0.099
483.700	8.194	0.099
483.800	13.148	0.099
483.900	14.472	0.099
484.000	15.655	0.099
484.100	14.829	0.099
484.200	0.956	0.099
484.300	0.827	0.099
484.400	12.153	0.099
484.500	17.905	0.099
484.600	13.335	0.099
484.700	9.608	0.099
484.800	7.924	0.099
484.900	10.305	0.099
485.000	7.281	0.099
485.100	11.042	0.099
485.200	14.869	0.099
485.300	16.724	0.099
485.400	16.524	0.099
485.500	4.468	0.099
485.600	-3.209	0.099
485.700	15.858	0.099
485.800	0.828	0.099
485.900	0.572	0.099
486.000	11.392	0.099
486.100	15.370	0.099
486.200	19.676	0.099
486.300	1.709	0.099
486.400	13.752	0.099
486.500	17.414	0.099
486.600	10.495	0.099
486.700	9.580	0.099
486.800	1.558	0.099
486.900	21.870	0.099
487.000	15.141	0.099
487.100	16.146	0.099
487.200	7.824	0.099
487.300	25.968	0.099
487.400	11.891	0.099
487.500	10.929	0.099
487.600	22.251	0.099
487.700	6.218	0.099
487.800	5.703	0.099
487.900	10.352	0.099
488.000	9.883	0.099
488.100	18.565	0.099
488.200	26.545	0.099
488.300	24.792	0.099
488.400	6.191	0.099
488.500	8.459	0.099
488.600	26.327	0.099
488.700	8.458	0.099
488.800	20.877	0.099
488.900	24.910	0.099
489.000	7.780	0.099
489.100	15.444	0.099
489.200	17.336	0.099
489.300	22.500	0.099
489.400	10.946	0.099
489.500	10.487	0.099
489.600	12.651	0.099
489.700	23.864	0.099
489.800	32.585	0.099
489.900	21.364	0.099
490.000	9.795	0.099
490.100	25.480	0.099
490.200	9.695	0.099
490.300	23.681	0.099
490.400	25.484	0.099
490.500	22.883	0.099
490.600	26.034	0.099
490.700	22.488	0.099
490.800	22.427	0.099
490.900	28.208	0.099
491.000	11.524	0.099
491.100	13.082	0.099
491.200	30.608	0.099
491.300	23.528	0.099
491.400	26.868	0.099
491.500	29.499	0.099
491.600	26.867	0.099
491.700	18.020	0.099
491.800	25.148	0.099
491.900	22.484	0.099
492.000	31.014	0.099
492.100	32.331	0.099
492.200	24.933	0.099
492.300	24.549	0.099
492.400	26.391	0.099
492.500	34.524	0.099
492.600	32.327	0.099
492.700	15.091	0.099
492.800	34.495	0.099
492.900	16.144	0.099
493.000	23.636	0.099
493.100	24.524	0.099
493.200	29.272	0.099
493.300	20.773	0.099
493.400	40.814	0.099
493.500	19.740	0.099
493.600	22.734	0.099
493.700	27.708	0.099
493.800	40.700	0.099
493.900	28.772	0.099
494.000	42.045	0.099
494.100	28.890	0.099
494.200	36.399	0.099
494.300	41.558	0.099
494.400	24.062	0.099
494.500	38.564	0.099
494.600	25.735	0.099
494.700	40.178	0.099
494.800	27.341	0.099
494.900	40.876	0.099
495.000	39.331	0.099
495.100	26.896	0.099
495.200	39.096	0.099
495.300	25.214	0.099
495.400	26.092	0.099
495.500	39.279	0.099
495.600	27.611	0.099
495.700	16.731	0.099
495.800	30.534	0.099
495.900	39.503	0.099
496.000	42.116	0.099
496.100	24.644	0.099
496.200	25.206	0.099
496.300	40.688	0.099
496.400	30.754	0.099
496.500	40.386	0.099
496.600	36.279	0.099
496.700	22.560	0.099
496.800	25.986	0.099
496.900	40.304	0.099
497.000	32.310	0.099
497.100	28.749	0.099
497.200	32.035	0.099
497.300	31.574	0.099
497.400	15.354	0.099
497.500	24.346	0.099
497.600	44.250	0.099
497.700	48.354	0.099
497.800	36.727	0.099
497.900	32.026	0.099
498.000	32.286	0.099
498.100	32.272	0.099
498.200	31.762	0.099
498.300	36.818	0.099
498.400	29.023	0.099
498.500	31.242	0.099
498.600	38.231	0.099
498.700	37.079	0.099
498.800	48.573	0.099
498.900	27.974	0.099
499.000	40.926	0.099
499.100	24.912	0.099
499.200	24.774	0.099
499.300	34.985	0.099
499.400	39.474	0.099
499.500	34.004	0.099
499.600	33.963	0.099
499.700	43.925	0.099
499.800	32.811	0.099
499.900	27.145	0.099
500.000	30.000	0.099
500.100	34.252	0.099
500.200	41.841	0.099
500.300	25.063	0.099
500.400	34.966	0.099
500.500	29.079	0.099
500.600	33.843	0.099
500.700	25.237	0.099
500.800	43.975	0.099
500.900	25.568	0.099
501.000	45.749	0.099
501.100	20.895	0.099
501.200	35.760	0.099
501.300	29.195	0.099
501.400	39.004	0.099
501.500	31.260	0.099
501.600	18.862	0.099
501.700	39.033	0.099
501.800	35.867	0.099
501.900	37.979	0.099
502.000	38.928	0.099
502.100	31.767	0.099
502.200	32.690	0.099
502.300	38.853	0.099
502.400	38.502	0.099
502.500	34.293	0.099
502.600	32.855	0.099
502.700	22.552	0.099
502.800	27.233	0.099
502.900	45.909	0.099
503.000	16.907	0.099
503.100	36.693	0.099
503.200	35.536	0.099
503.300	50.073	0.099
503.400	29.754	0.099
503.500	40.677	0.099
503.600	41.453	0.099
503.700	32.664	0.099
503.800	25.309	0.099
503.900	21.498	0.099
504.000	37.166	0.099
504.100	33.064	0.099
504.200	35.264	0.099
504.300	30.041	0.099
504.400	33.602	0.099
504.500	29.431	0.099
504.600	21.259	0.099
504.700	49.854	0.099
504.800	22.820	0.099
504.900	43.897	0.099
505.000	40.533	0.099
505.100	30.103	0.099
505.200	34.849	0.099
505.300	24.002	0.099
505.400	56.211	0.099
505.500	30.012	0.099
505.600	31.903	0.099
505.700	36.313	0.099
505.800	27.304	0.099
505.900	39.721	0.099
506.000	42.264	0.099
506.100	45.289	0.099
506.200	24.409	0.099
506.300	27.658	0.099
506.400	30.375	0.099
506.500	37.215	0.099
506.600	32.666	0.099
506.700	35.852	0.099
506.800	39.312	0.099
506.900	24.358	0.099
507.000	26.711	0.099
507.100	33.396	0.099
507.200	41.396	0.099
507.300	33.570	0.099
507.400	30.647	0.099
507.500	33.593	0.099
507.600	34.628	0.099
507.700	22.215	0.099
507.800	31.998	0.099
507.900	43.203	0.099
508.000	26.175	0.099
508.100	34.560	0.099
508.200	20.351	0.099
508.300	41.566	0.099
508.400	31.147	0.099
508.500	28.507	0.099
508.600	23.620	0.099
508.700	31.383	0.099
508.800	48.603	0.099
508.900	41.350	0.099
509.000	29.936	0.099
509.100	30.460	0.099
509.200	34.954	0.099
509.300	29.435	0.099
509.400	23.702	0.099
509.500	28.857	0.099
509.600	36.844	0.099
509.700	27.638	0.099
509.800	35.066	0.099
509.900	39.568	0.099
510.000	26.827	0.099
510.100	41.070	0.099
510.200	32.520	0.099
510.300	37.505	0.099
510.400	37.388	0.099
510.500	23.702	0.099
510.600	23.095	0.099
510.700	22.555	0.099
510.800	26.133	0.099
510.900	57.353	0.099
511.000	23.712	0.099
511.100	47.438	0.099
511.200	36.128	0.099
511.300	31.251	0.099
511.400	37.955	0.099
511.500	39.953	0.099
511.600	32.383	0.099
511.700	31.299	0.099
511.800	29.650	0.099
511.900	26.510	0.099
512.000	38.485	0.099
512.100	30.755	0.099
512.200	32.561	0.099
512.300	35.213	0.099
512.400	18.816	0.099
512.500	27.260	0.099
512.600	38.531	0.099
512.700	26.025	0.099
512.800	31.747	0.099
512.900	27.159	0.099
513.000	33.073	0.099
513.100	42.586	0.099
513.200	30.802	0.099
513.300	38.901	0.099
513.400	29.753	0.099
513.500	38.629	0.099
513.600	30.840	0.099
513.700	30.438	0.099
513.800	30.346	0.099
513.900	35.439	0.099
514.000	28.069	0.099
514.100	28.023	0.099
514.200	24.880	0.099
514.300	26.895	0.099
514.400	35.604	0.099
514.500	35.879	0.099
514.600	25.643	0.099
514.700	14.936	0.099
514.800	34.000	0.099
514.900	40.732	0.099
515.000	29.672	0.099
515.100	28.208	0.099
515.200	34.048	0.099
515.300	41.957	0.099
515.400	27.326	0.099
515.500	37.508	0.099
515.600	29.649	0.099
515.700	17.612	0.099
515.800	40.208	0.099
515.900	35.838	0.099
516.000	17.773	0.099
516.100	26.572	0.099
516.200	36.961	0.099
516.300	35.591	0.099
516.400	37.503	0.099
516.500	36.733	0.099
516.600	28.502	0.099
516.700	44.089	0.099
516.800	38.006	0.099
516.900	27.415	0.099
517.000	22.905	0.099
517.100	36.291	0.099
517.200	28.907	0.099
517.300	26.033	0.099
517.400	45.313	0.099
517.500	23.232	0.099
517.600	43.038	0.099
517.700	30.379	0.099
517.800	34.078	0.099
517.900	39.099	0.099
518.000	29.261	0.099
518.100	28.865	0.099
518.200	29.319	0.099
518.300	23.624	0.099
518.400	26.760	0.099
518.500	30.656	0.099
518.600	38.417	0.099
518.700	26.906	0.099
518.800	44.336	0.099
518.900	35.194	0.099
519.000	27.187	0.099
519.100	30.978	0.099
519.200	23.588	0.099
519.300	34.906	0.099
519.400	22.877	0.099
519.500	28.806	0.099
519.600	50.390	0.099
519.700	30.392	0.099
519.800	28.652	0.099
519.900	25.051	0.099
520.000	25.886	0.099
520.100	31.407	0.099
520.200	24.882	0.099
520.300	22.368	0.099
520.400	14.032	0.099
520.500	45.874	0.099
520.600	35.819	0.099
520.700	21.632	0.099
520.800	30.395	0.099
520.900	30.806	0.099
521.000	36.929	0.099
521.100	16.305	0.099
521.200	29.468	0.099
521.300	44.153	0.099
521.400	26.840	0.099
521.500	34.641	0.099
521.600	31.837	0.099
521.700	19.508	0.099
521.800	28.845	0.099
521.900	25.069	0.099
522.000	25.988	0.099
522.100	41.393	0.099
522.200	40.052	0.099
522.300	25.981	0.099
522.400	40.582	0.099
522.500	39.068	0.099
522.600	22.899	0.099
522.700	21.435	0.099
522.800	35.527	0.099
522.900	33.194	0.099
523.000	34.845	0.099
523.100	28.734	0.099
523.200	36.769	0.099
523.300	30.045	0.099
523.400	44.849	0.099
523.500	30.364	0.099
523.600	44.597	0.099
523.700	38.463	0.099
523.800	27.944	0.099
523.900	24.193	0.099
524.000	21.143	0.099
524.100	36.857	0.099
524.200	36.659	0.099
524.300	30.542	0.099
524.400	41.265	0.099
524.500	28.620	0.099
524.600	33.473	0.099
524.700	31.235	0.099
524.800	20.709	0.099
524.900	31.747	0.099
525.000	43.019	0.099
525.100	16.052	0.099
525.200	26.511	0.099
525.300	36.897	0.099
525.400	26.870	0.099
525.500	31.946	0.099
525.600	33.863	0.099
525.700	36.418	0.099
525.800	57.170	0.099
525.900	24.746	0.099
526.000	17.254	0.099
526.100	31.250	0.099
526.200	27.069	0.099
526.300	22.856	0.099
526.400	30.281	0.099
526.500	17.019	0.099
526.600	26.782	0.099
526.700	38.702	0.099
526.800	31.210	0.099
526.900	38.883	0.099
527.000	39.133	0.099
527.100	30.106	0.099
527.200	24.428	0.099
527.300	33.959	0.099
527.400	22.956	0.099
527.500	24.971	0.099
527.600	45.774	0.099
527.700	44.515	0.099
527.800	25.967	0.099
527.900	23.402	0.099
528.000	27.002	0.099
528.100	35.801	0.099
528.200	33.413	0.099
528.300	23.481	0.099
528.400	35.648	0.099
528.500	28.433	0.099
528.600	29.582	0.099
528.700	32.438	0.099
528.800	33.237	0.099
528.900	31.289	0.099
529.000	25.938	0.099
529.100	35.392	0.099
529.200	40.584	0.099
529.300	39.106	0.099
529.400	26.753	0.099
529.500	29.678	0.099
529.600	27.124	0.099
529.700	21.982	0.099
529.800	29.024	0.099
529.900	43.337	0.099
530.000	24.434	0.099
530.100	25.484	0.099
530.200	24.523	0.099
530.300	24.886	0.099
530.400	11.883	0.099
530.500	33.771	0.099
530.600	46.527	0.099
530.700	26.161	0.099
530.800	42.573	0.099
530.900	18.848	0.099
531.000	20.565	0.099
531.100	26.577	0.099
531.200	39.314	0.099
531.300	28.518	0.099
531.400	32.012	0.099
531.500	43.382	0.099
531.600	31.440	0.099
531.700	30.985	0.099
531.800	30.266	0.099
531.900	16.637	0.099
532.000	41.720	0.099
532.100	19.006	0.099
532.200	25.912	0.099
532.300	20.765	0.099
532.400	30.411	0.099
532.500	37.007	0.099
532.600	25.691	0.099
532.700	22.629	0.099
532.800	26.771	0.099
532.900	32.083	0.099
533.000	-2.121	0.099
533.100	43.961	0.099
533.200	37.681	0.099
533.300	21.965	0.099
533.400	36.759	0.099
533.500	28.117	0.099
533.600	28.425	0.099
533.700	34.651	0.099
533.800	30.411	0.099
533.900	23.483	0.099
534.000	32.730	0.099
534.100	28.636	0.099
534.200	31.177	0.099
534.300	29.883	0.099
534.400	33.403	0.099
534.500	25.093	0.099
534.600	30.316	0.099
534.700	26.185	0.099
534.800	29.338	0.099
534.900	30.332	0.099
535.000	32.735	0.099
535.100	21.460	0.099
535.200	26.484	0.099
535.300	29.009	0.099
535.400	19.745	0.099
535.500	34.347	0.099
535.600	39.199	0.099
535.700	27.956	0.099
535.800	34.676	0.099
535.900	23.782	0.099
536.000	32.778	0.099
536.100	32.714	0.099
536.200	27.681	0.099
536.300	20.323	0.099
536.400	39.485	0.099
536.500	12.724	0.099
536.600	24.527	0.099
536.700	33.275	0.099
536.800	25.141	0.099
536.900	28.077	0.099
537.000	27.786	0.099
537.100	25.575	0.099
537.200	22.796	0.099
537.300	38.207	0.099
537.400	27.900	0.099
537.500	26.596	0.099
537.600	31.613	0.099
537.700	23.286	0.099
537.800	28.730	0.099
537.900	32.560	0.099
538.000	24.226	0.099
538.100	18.835	0.099
538.200	35.011	0.099
538.300	34.356	0.099
538.400	39.103	0.099
538.500	24.289	0.099
538.600	19.654	0.099
538.700	21.658	0.099
538.800	38.213	0.099
538.900	27.917	0.099
539.000	31.331	0.099
539.100	32.121	0.099
539.200	29.532	0.099
539.300	32.510	0.099
539.400	31.617	0.099
539.500	24.594	0.099
539.600	24.499	0.099
539.700	40.715	0.099
539.800	32.829	0.099
539.900	26.716	0.099
540.000	26.622	0.099
540.100	19.862	0.099
540.200	28.635	0.099
540.300	6.813	0.099
540.400	30.802	0.099
540.500	30.224	0.099
540.600	13.214	0.099
540.700	11.353	0.099
540.800	12.126	0.099
540.900	30.027	0.099
541.000	4.017	0.099
541.100	11.867	0.099
541.200	19.028	0.099
541.300	15.446	0.099
541.400	9.548	0.099
541.500	13.869	0.099
541.600	13.749	0.099
541.700	-10.930	0.099
541.800	-3.443	0.099
541.900	13.176	0.099
542.000	11.251	0.099
542.100	-0.203	0.099
542.200	10.731	0.099
542.300	-2.661	0.099
542.400	3.449	0.099
542.500	10.121	0.099
542.600	2.155	0.099
542.700	0.707	0.099
542.800	-7.372	0.099
542.900	7.642	0.099
543.000	3.034	0.099
543.100	-28.267	0.099
543.200	2.902	0.099
543.300	2.365	0.099
543.400	-1.138	0.099
543.500	3.369	0.099
543.600	-9.663	0.099
543.700	-7.953	0.099
543.800	-10.307	0.099
543.900	3.761	0.099
544.000	-4.118	0.099
544.100	-10.174	0.099
544.200	-4.599	0.099
544.300	-8.025	0.099
544.400	-7.204	0.099
544.500	-0.764	0.099
544.600	-7.545	0.099
544.700	-9.430	0.099
544.800	-10.590	0.099
544.900	5.890	0.099
545.000	-7.972	0.099
545.100	-8.879	0.099
545.200	-2.062	0.099
545.300	5.388	0.099
545.400	10.295	0.099
545.500	0.030	0.099
545.600	-3.152	0.099
545.700	-3.592	0.099
545.800	-9.992	0.099
545.900	-7.382	0.099
546.000	-11.261	0.099
546.100	6.602	0.099
546.200	-13.224	0.099
546.300	-12.998	0.099
546.400	-10.268	0.099
546.500	-3.308	0.099
546.600	-8.848	0.099
546.700	-15.758	0.099
546.800	-5.247	0.099
546.900	10.420	0.099
547.000	-1.750	0.099
547.100	-7.600	0.099
547.200	-15.210	0.099
547.300	-1.698	0.099
547.400	-1.960	0.099
547.500	2.744	0.099
547.600	-9.003	0.099
547.700	-7.155	0.099
547.800	-13.433	0.099
547.900	-6.451	0.099
548.000	-12.726	0.099
548.100	-12.476	0.099
548.200	6.118	0.099
548.300	-5.537	0.099
548.400	-18.927	0.099
548.500	1.731	0.099
548.600	-6.719	0.099
548.700	-10.175	0.099
548.800	-16.893	0.099
548.900	-10.056	0.099
549.000	-7.235	0.099
549.100	5.922	0.099
549.200	-19.857	0.099
549.300	14.949	0.099
549.400	-17.824	0.099
549.500	-8.756	0.099
549.600	-5.876	0.099
549.700	-6.446	0.099
549.800	-4.042	0.099
549.900	9.193	0.099
550.000	-14.959	0.099
550.100	-1.405	0.099
550.200	-16.589	0.099
550.300	2.990	0.099
550.400	-2.318	0.099
550.500	-11.607	0.099
550.600	-22.157	0.099
550.700	0.083	0.099
550.800	-22.560	0.099
550.900	-17.379	0.099
551.000	11.537	0.099
551.100	-5.309	0.099
551.200	-5.123	0.099
551.300	-26.468	0.099
551.400	-14.278	0.099
551.500	-12.329	0.099
551.600	-17.904	0.099
551.700	-19.756	0.099
551.800	-1.034	0.099
551.900	-22.098	0.099
552.000	-12.058	0.099
552.100	-6.525	0.099
552.200	-16.152	0.099
552.300	-12.562	0.099
552.400	-5.752	0.099
552.500	-16.306	0.099
552.600	-10.447	0.099
552.700	-17.249	0.099
552.800	-14.773	0.099
552.900	-36.743	0.099
553.000	-10.510	0.099
553.100	-7.451	0.099
553.200	-8.369	0.099
553.300	-19.310	0.099
553.400	-9.449	0.099
553.500	-25.041	0.099
553.600	-14.803	0.099
553.700	-8.859	0.099
553.800	-6.466	0.099
553.900	-18.573	0.099
554.000	-16.835	0.099
554.100	-12.129	0.099
554.200	-17.673	0.099
554.300	-25.231	0.099
554.400	-9.224	0.099
554.500	-24.311	0.099
554.600	-23.853	0.099
554.700	-7.040	0.099
554.800	-10.322	0.099
554.900	-13.008	0.099
555.000	-12.752	0.099
555.100	-23.928	0.099
555.200	-22.171	0.099
555.300	-18.309	0.099
555.400	-4.356	0.099
555.500	-16.659	0.099
555.600	-28.314	0.099
555.700	-12.455	0.099
555.800	-11.999	0.099
555.900	-9.018	0.099
556.000	-11.607	0.099
556.100	-21.526	0.099
556.200	-5.327	0.099
556.300	-12.348	0.099
556.400	-29.538	0.099
556.500	-15.803	0.099
556.600	-21.530	0.099
556.700	-1.712	0.099
556.800	-16.382	0.099
556.900	-17.315	0.099
557.000	-13.104	0.099
557.100	-22.572	0.099
557.200	-18.579	0.099
557.300	-5.217	0.099
557.400	-15.104	0.099
557.500	-23.576	0.099
557.600	-4.480	0.099
557.700	-22.860	0.099
557.800	-14.802	0.099
557.900	-14.551	0.099
558.000	-33.314	0.099
558.100	-5.249	0.099
558.200	-22.934	0.099
558.300	-32.570	0.099
558.400	-6.550	0.099
558.500	-11.853	0.099
558.600	-18.814	0.099
558.700	-9.151	0.099
558.800	-8.517	0.099
558.900	-7.140	0.099
559.000	-22.901	0.099
559.100	-9.874	0.099
559.200	-11.321	0.099
559.300	-15.308	0.099
559.400	-22.289	0.099
559.500	-29.572	0.099
559.600	-2.536	0.099
559.700	-13.936	0.099
559.800	-26.186	0.099
559.900	-16.707	0.099
560.000	-27.777	0.099
560.100	-20.167	0.099
560.200	-16.221	0.099
560.300	-13.763	0.099
560.400	-10.534	0.099
560.500	-20.367	0.099
560.600	-17.786	0.099
560.700	-16.981	0.099
560.800	-28.190	0.099
560.900	-17.528	0.099
561.000	-18.879	0.099
561.100	-11.493	0.099
561.200	-6.116	0.099
561.300	-19.328	0.099
561.400	-20.126	0.099
561.500	-4.308	0.099
561.600	-31.889	0.099
561.700	-15.079	0.099
561.800	-22.174	0.099
561.900	-31.104	0.099
562.000	-21.197	0.099
562.100	3.406	0.099
562.200	-15.942	0.099
562.300	-12.980	0.099
562.400	-23.092	0.099
562.500	-27.734	0.099
562.600	-16.741	0.099
562.700	-41.838	0.099
562.800	-12.942	0.099
562.900	-20.226	0.099
563.000	-21.859	0.099
563.100	-23.390	0.099
563.200	-28.513	0.099
563.300	-11.880	0.099
563.400	-16.995	0.099
563.500	-17.892	0.099
563.600	-12.437	0.099
563.700	-25.796	0.099
563.800	-6.470	0.099
563.900	-25.712	0.099
564.000	-20.155	0.099
564.100	-22.045	0.099
564.200	-21.264	0.099
564.300	-7.499	0.099
564.400	-22.598	0.099
564.500	-9.282	0.099
564.600	-15.427	0.099
564.700	-32.886	0.099
564.800	-25.589	0.099
564.900	-34.607	0.099
565.000	-19.587	0.099
565.100	-19.186	0.099
565.200	-30.602	0.099
565.300	-9.069	0.099
565.400	-20.637	0.099
565.500	-18.956	0.099
565.600	-14.004	0.099
565.700	-20.505	0.099
565.800	-16.754	0.099
565.900	-19.297	0.099
566.000	-7.777	0.099
566.100	-24.426	0.099
566.200	-20.171	0.099
566.300	-14.742	0.099
566.400	-18.109	0.099
566.500	-31.435	0.099
566.600	-17.870	0.099
566.700	-22.830	0.099
566.800	-10.721	0.099
566.900	-13.567	0.099
567.000	-17.653	0.099
567.100	-25.309	0.099
567.200	-22.779	0.099
567.300	-11.518	0.099
567.400	-33.209	0.099
567.500	-24.598	0.099
567.600	-27.948	0.099
567.700	-17.468	0.099
567.800	-13.131	0.099
567.900	-19.629	0.099
568.000	-17.326	0.099
568.100	-39.022	0.099
568.200	-10.383	0.099
568.300	-23.310	0.099
568.400	-17.558	0.099
568.500	-23.387	0.099
568.600	-14.525	0.099
568.700	-25.728	0.099
568.800	-24.976	0.099
568.900	-10.327	0.099
569.000	-26.025	0.099
569.100	-25.169	0.099
569.200	-25.476	0.099
569.300	-21.751	0.099
569.400	-25.613	0.099
569.500	-15.252	0.099
569.600	-14.556	0.099
569.700	-21.325	0.099
569.800	-20.366	0.099
569.900	-22.730	0.099
570.000	-30.817	0.099
570.100	-24.498	0.099
570.200	-20.375	0.099
570.300	-11.470	0.099
570.400	-12.500	0.099
570.500	-33.730	0.099
570.600	-25.396	0.099
570.700	-16.262	0.099
570.800	-16.774	0.099
570.900	-27.084	0.099
571.000	-11.257	0.099
571.100	-10.555	0.099
571.200	-19.429	0.099
571.300	-14.460	0.099
571.400	-9.903	0.099
571.500	-29.886	0.099
571.600	-23.306	0.099
571.700	-17.046	0.099
571.800	-22.111	0.099
571.900	-22.485	0.099
572.000	-14.907	0.099
572.100	-16.052	0.099
572.200	-22.405	0.099
572.300	-15.647	0.099
572.400	-16.733	0.099
572.500	-26.760	0.099
572.600	-8.817	0.099
572.700	-20.644	0.099
572.800	-27.634	0.099
572.900	-16.876	0.099
573.000	-38.700	0.099
573.100	-8.980	0.099
573.200	-12.069	0.099
573.300	-33.190	0.099
573.400	-26.569	0.099
573.500	-20.921	0.099
573.600	-26.034	0.099
573.700	-25.499	0.099
573.800	-22.323	0.099
573.900	-19.399	0.099
574.000	-23.970	0.099
574.100	-18.142	0.099
574.200	-8.965	0.099
574.300	-23.535	0.099
574.400	-14.912	0.099
574.500	-15.794	0.099
574.600	-36.217	0.099
574.700	-13.054	0.099
574.800	-14.276	0.099
574.900	-19.707	0.099
575.000	-23.666	0.099
575.100	-22.368	0.099
575.200	-8.406	0.099
575.300	-36.709	0.099
575.400	-13.485	0.099
575.500	-14.278	0.099
575.600	-17.693	0.099
575.700	-26.380	0.099
575.800	-6.955	0.099
575.900	-14.063	0.099
576.000	-27.744	0.099
576.100	-6.764	0.099
576.200	-25.878	0.099
576.300	-5.915	0.099
576.400	-22.745	0.099
576.500	-15.213	0.099
576.600	-20.360	0.099
576.700	-26.321	0.099
576.800	-20.912	0.099
576.900	-27.431	0.099
577.000	-14.081	0.099
577.100	-4.550	0.099
577.200	-17.470	0.099
577.300	-29.387	0.099
577.400	-10.617	0.099
577.500	-7.659	0.099
577.600	-23.733	0.099
577.700	-8.886	0.099
577.800	-20.915	0.099
577.900	-6.543	0.099
578.000	-13.795	0.099
578.100	-26.747	0.099
578.200	-15.650	0.099
578.300	-7.317	0.099
578.400	-23.576	0.099
578.500	-32.262	0.099
578.600	-17.455	0.099
578.700	-19.164	0.099
578.800	-3.416	0.099
578.900	-22.578	0.099
579.000	-20.068	0.099
579.100	-10.325	0.099
579.200	-9.215	0.099
579.300	-29.443	0.099
579.400	-10.647	0.099
579.500	-21.151	0.099
579.600	-4.479	0.099
579.700	-19.550	0.099
579.800	-24.401	0.099
579.900	-28.821	0.099
580.000	-6.396	0.099
580.100	-15.992	0.099
580.200	-26.459	0.099
580.300	-9.417	0.099
580.400	-31.571	0.099
580.500	-24.966	0.099
580.600	-5.554	0.099
580.700	-14.606	0.099
580.800	-32.217	0.099
580.900	-15.847	0.099
581.000	-13.517	0.099
581.100	-21.774	0.099
581.200	-39.732	0.099
581.300	-8.185	0.099
581.400	-25.741	0.099
581.500	-23.731	0.099
581.600	-10.393	0.099
581.700	-23.301	0.099
581.800	-19.336	0.099
581.900	-28.247	0.099
582.000	-16.249	0.099
582.100	-6.810	0.099
582.200	-9.365	0.099
582.300	-17.455	0.099
582.400	-17.865	0.099
582.500	-12.532	0.099
582.600	-18.373	0.099
582.700	-31.568	0.099
582.800	-10.404	0.099
582.900	-12.233	0.099
583.000	-23.641	0.099
583.100	-18.840	0.099
583.200	-25.624	0.099
583.300	-17.943	0.099
583.400	-21.657	0.099
583.500	-19.052	0.099
583.600	-15.717	0.099
583.700	-16.884	0.099
583.800	-13.295	0.099
583.900	-24.936	0.099
584.000	-18.288	0.099
584.100	-26.576	0.099
584.200	-18.449	0.099
584.300	-8.981	0.099
584.400	-28.024	0.099
584.500	-14.760	0.099
584.600	-11.848	0.099
584.700	-16.268	0.099
584.800	-16.607	0.099
584.900	-16.890	0.099
585.000	-30.546	0.099
585.100	-29.067	0.099
585.200	-3.912	0.099
585.300	-28.136	0.099
585.400	-27.588	0.099
585.500	-10.693	0.099
585.600	-11.654	0.099
585.700	-20.020	0.099
585.800	-4.627	0.099
585.900	-23.223	0.099
586.000	-10.705	0.099
586.100	-3.812	0.099
586.200	-20.025	0.099
586.300	-19.086	0.099
586.400	-19.681	0.099
586.500	-24.038	0.099
586.600	-20.268	0.099
586.700	-12.167	0.099
586.800	-24.563	0.099
586.900	-17.397	0.099
587.000	-25.916	0.099
587.100	-21.622	0.099
587.200	-23.688	0.099
587.300	-13.193	0.099
587.400	-12.921	0.099
587.500	-18.924	0.099
587.600	-18.246	0.099
587.700	-12.288	0.099
587.800	-8.978	0.099
587.900	-18.164	0.099
588.000	-18.732	0.099
588.100	-15.624	0.099
588.200	-22.899	0.099
588.300	-14.675	0.099
588.400	-10.221	0.099
588.500	-25.438	0.099
588.600	-15.388	0.099
588.700	-22.869	0.099
588.800	-8.003	0.099
588.900	-23.754	0.099
589.000	-12.313	0.099
589.100	-17.846	0.099
589.200	-16.864	0.099
589.300	-11.143	0.099
589.400	-12.917	0.099
589.500	-20.019	0.099
589.600	-16.655	0.099
589.700	-10.786	0.099
589.800	-21.546	0.099
589.900	-11.492	0.099
590.000	-17.903	0.099
590.100	-12.423	0.099
590.200	-7.329	0.099
590.300	-31.005	0.099
590.400	-14.232	0.099
590.500	-19.374	0.099
590.600	-15.721	0.099
590.700	-16.267	0.099
590.800	-18.113	0.099
590.900	-32.666	0.099
591.000	-7.011	0.099
591.100	-12.139	0.099
591.200	-12.169	0.099
591.300	-13.891	0.099
591.400	-13.488	0.099
591.500	-11.020	0.099
591.600	-19.329	0.099
591.700	-16.274	0.099
591.800	-12.896	0.099
591.900	-13.722	0.099
592.000	-25.610	0.099
592.100	-13.515	0.099
592.200	-18.707	0.099
592.300	-6.488	0.099
592.400	-14.680	0.099
592.500	-17.464	0.099
592.600	-15.433	0.099
592.700	-5.212	0.099
592.800	-18.843	0.099
592.900	-21.120	0.099
593.000	-26.240	0.099
593.100	-0.865	0.099
593.200	-27.776	0.099
593.300	-2.083	0.099
593.400	-7.622	0.099
593.500	-15.255	0.099
593.600	-12.300	0.099
593.700	-5.357	0.099
593.800	-18.338	0.099
593.900	-9.774	0.099
594.000	-10.754	0.099
594.100	-24.737	0.099
594.200	-19.323	0.099
594.300	-22.998	0.099
594.400	-22.153	0.099
594.500	-18.189	0.099
594.600	-6.382	0.099
594.700	-26.419	0.099
594.800	-13.727	0.099
594.900	-21.098	0.099
595.000	-15.857	0.099
595.100	-7.935	0.099
595.200	-12.771	0.099
595.300	-12.303	0.099
595.400	-23.893	0.099
595.500	-6.242	0.099
595.600	-16.312	0.099
595.700	-15.190	0.099
595.800	-9.874	0.099
595.900	-6.764	0.099
596.000	-15.132	0.099
596.100	-26.621	0.099
596.200	-16.900	0.099
596.300	-21.818	0.099
596.400	-17.362	0.099
596.500	-10.937	0.099
596.600	-20.803	0.099
596.700	-9.309	0.099
596.800	-14.487	0.099
596.900	-8.528	0.099
597.000	-14.492	0.099
597.100	-17.426	0.099
597.200	-9.760	0.099
597.300	-2.776	0.099
597.400	-12.239	0.099
597.500	-25.584	0.099
597.600	-15.254	0.099
597.700	-26.974	0.099
597.800	-11.289	0.099
597.900	-14.553	0.099
598.000	-18.329	0.099
598.100	-24.991	0.099
598.200	-17.702	0.099
598.300	-12.525	0.099
598.400	-9.300	0.099
598.500	-3.676	0.099
598.600	-29.136	0.099
598.700	-17.917	0.099
598.800	-17.927	0.099
598.900	-8.518	0.099
599.000	-14.943	0.099
599.100	-12.779	0.099
599.200	-19.954	0.099
599.300	-26.574	0.099
599.400	-9.746	0.099
599.500	-10.855	0.099
599.600	-22.553	0.099
599.700	-4.750	0.099
599.800	-15.827	0.099
599.900	-6.438	0.099
600.000	-8.354	0.099
600.100	-22.391	0.099
600.200	-24.190	0.099
600.300	0.601	0.099
600.400	-5.710	0.099
600.500	-7.768	0.099
600.600	-29.460	0.099
600.700	-4.539	0.099
600.800	-26.450	0.099
600.900	-27.373	0.099
601.000	-1.013	0.099
601.100	-14.973	0.099
601.200	-13.154	0.099
601.300	-11.654	0.099
601.400	-1.630	0.099
601.500	-12.879	0.099
601.600	-23.731	0.099
601.700	-12.000	0.099
601.800	-5.201	0.099
601.900	-24.219	0.099
602.000	-20.155	0.099
602.100	-22.615	0.099
602.200	-16.867	0.099
602.300	-24.741	0.099
602.400	-8.135	0.099
602.500	-5.333	0.099
602.600	-16.234	0.099
602.700	-19.452	0.099
602.800	-12.970	0.099
602.900	-18.609	0.099
603.000	-7.656	0.099
603.100	-15.576	0.099
603.200	-10.493	0.099
603.300	-23.362	0.099
603.400	-1.579	0.099
603.500	-18.877	0.099
603.600	-14.767	0.099
603.700	-6.997	0.099
603.800	-21.687	0.099
603.900	-16.019	0.099
604.000	-1.726	0.099
604.100	-9.543	0.099
604.200	-17.206	0.099
604.300	-22.223	0.099
604.400	-14.042	0.099
604.500	-16.020	0.099
604.600	-8.093	0.099
604.700	-24.239	0.099
604.800	-14.134	0.099
604.900	-12.936	0.099
605.000	-8.363	0.099
605.100	-13.178	0.099
605.200	3.827	0.099
605.300	-16.879	0.099
605.400	-2.876	0.099
605.500	-13.158	0.099
605.600	-15.792	0.099
605.700	-15.100	0.099
605.800	-16.903	0.099
605.900	-20.322	0.099
606.000	0.976	0.099
606.100	0.605	0.099
606.200	-28.659	0.099
606.300	-19.255	0.099
606.400	-19.872	0.099
606.500	-7.234	0.099
606.600	-17.121	0.099
606.700	-12.522	0.099
606.800	-12.501	0.099
606.900	-3.597	0.099
607.000	-3.391	0.099
607.100	-0.689	0.099
607.200	-35.302	0.099
607.300	9.333	0.099
607.400	-16.047	0.099
607.500	-11.204	0.099
607.600	-24.057	0.099
607.700	-9.461	0.099
607.800	-5.165	0.099
607.900	-12.908	0.099
608.000	-6.188	0.099
608.100	4.449	0.099
608.200	-15.181	0.099
608.300	-17.967	0.100
608.400	-17.065	0.099
608.500	-19.893	0.099
608.600	2.056	0.099
608.700	-19.954	0.099
608.800	-8.478	0.099
608.900	-12.453	0.099
609.000	-21.556	0.099
609.100	-5.110	0.099
609.200	-27.729	0.099
609.300	-24.270	0.099
609.400	-4.305	0.099
609.500	-14.344	0.099
609.600	-15.712	0.099
609.700	-15.765	0.099
609.800	-9.076	0.099
609.900	-16.018	0.099
610.000	-13.393	0.099
610.100	-15.497	0.099
610.200	-8.147	0.099
610.300	-16.678	0.099
610.400	-10.027	0.099
610.500	-18.017	0.099
610.600	-15.492	0.099
610.700	-16.355	0.099
610.800	-15.023	0.099
610.900	-25.108	0.099
611.000	-24.252	0.099
611.100	-11.427	0.099
611.200	-0.919	0.099
611.300	-17.944	0.099
611.400	-4.526	0.099
611.500	-17.527	0.099
611.600	-20.780	0.099
611.700	-13.341	0.099
611.800	-4.389	0.099
611.900	-12.533	0.099
612.000	0.134	0.099
612.100	-8.651	0.099
612.200	-18.437	0.099
612.300	-44.281	0.099
612.400	-9.168	0.099
612.500	-11.047	0.099
612.600	-11.479	0.099
612.700	-7.655	0.100
612.800	-21.212	0.099
612.900	-17.572	0.099
613.000	-10.120	0.099
613.100	-20.924	0.099
613.200	-18.554	0.099
613.300	4.012	0.099
613.400	-3.422	0.099
613.500	-21.253	0.099
613.600	-18.195	0.099
613.700	-9.901	0.099
613.800	-7.162	0.100
613.900	-7.029	0.100
614.000	0.205	0.100
614.100	-27.435	0.100
614.200	-17.961	0.100
614.300	-1.100	0.100
614.400	-18.829	0.099
614.500	-9.052	0.099
614.600	-9.747	0.100
614.700	-17.644	0.100
614.800	-7.879	0.100
614.900	1.043	0.100
615.000	-8.640	0.100
615.100	-10.986	0.100
615.200	-16.923	0.099
615.300	-12.756	0.100
615.400	-12.538	0.100
615.500	-11.289	0.100
615.600	-12.983	0.100
615.700	-9.823	0.100
615.800	-16.803	0.100
615.900	-7.780	0.100
616.000	-14.335	0.100
616.100	-18.202	0.100
616.200	-15.432	0.100
616.300	-18.989	0.099
616.400	-8.317	0.100
616.500	-12.263	0.100
616.600	-5.853	0.100
616.700	-9.930	0.100
616.800	-19.786	0.100
616.900	-11.524	0.100
617.000	-16.377	0.100
617.100	-14.418	0.099
617.200	-6.456	0.100
617.300	-9.820	0.100
617.400	-15.043	0.100
617.500	-15.529	0.100
617.600	-1.626	0.100
617.700	-4.046	0.100
617.800	-18.125	0.100
617.900	-15.111	0.099
618.000	-17.146	0.100
618.100	-9.290	0.100
618.200	-9.043	0.100
618.300	-18.301	0.100
618.400	-24.760	0.100
618.500	-6.099	0.100
618.600	-16.803	0.099
618.700	-11.694	0.100
618.800	-13.995	0.100
618.900	-13.225	0.100
619.000	-17.086	0.100
619.100	-14.934	0.100
619.200	-12.883	0.100
619.300	-14.551	0.100
619.400	-5.209	0.100
619.500	-16.872	0.100
619.600	-9.662	0.100
619.700	-18.787	0.100
619.800	-9.172	0.100
619.900	-12.781	0.100
620.000	-20.971	0.100
620.100	-8.599	0.100
620.200	-17.308	0.100
620.300	-5.989	0.100
620.400	-7.690	0.100
620.500	-19.391	0.100
620.600	-21.389	0.100
620.700	3.818	0.100
620.800	-9.327	0.100
620.900	-5.401	0.100
621.000	-19.074	0.100
621.100	2.295	0.100
621.200	-13.527	0.100
621.300	-22.444	0.100
621.400	-11.239	0.100
621.500	-2.853	0.100
621.600	-17.848	0.100
621.700	-10.344	0.100
621.800	-0.921	0.100
621.900	-22.348	0.100
622.000	-5.943	0.100
622.100	-24.194	0.100
622.200	-8.767	0.100
622.300	-10.278	0.100
622.400	-20.805	0.100
622.500	-2.016	0.100
622.600	-8.017	0.100
622.700	-9.009	0.100
622.800	7.278	0.100
622.900	-8.630	0.100
623.000	-16.720	0.100
623.100	-14.621	0.100
623.200	-5.957	0.100
623.300	-12.132	0.100
623.400	-15.939	0.100
623.500	-15.189	0.100
623.600	-9.185	0.100
623.700	-6.287	0.100
623.800	-0.950	0.100
623.900	-14.057	0.100
624.000	-4.472	0.100
624.100	-12.275	0.100
624.200	-19.818	0.100
624.300	-27.455	0.100
624.400	-7.764	0.100
624.500	-14.697	0.100
624.600	-2.454	0.100
624.700	-13.395	0.100
624.800	-22.418	0.100
624.900	-5.063	0.100
625.000	-7.977	0.100
625.100	-18.466	0.100
625.200	-9.701	0.100
625.300	-6.549	0.100
625.400	-17.457	0.100
625.500	-11.013	0.100
625.600	-28.297	0.100
625.700	-7.657	0.100
625.800	-0.873	0.100
625.900	-5.563	0.100
626.000	-10.949	0.100
626.100	-11.348	0.100
626.200	-14.450	0.100
626.300	-16.765	0.100
626.400	-13.649	0.100
626.500	-4.379	0.100
626.600	-10.588	0.100
626.700	-5.798	0.100
626.800	-19.297	0.100
626.900	-7.697	0.100
627.000	3.045	0.100
627.100	-8.469	0.100
627.200	-14.224	0.100
627.300	-12.140	0.100
627.400	-17.274	0.100
627.500	-6.223	0.100
627.600	-19.577	0.100
627.700	-8.666	0.100
627.800	-7.219	0.100
627.900	-24.468	0.100
628.000	-5.846	0.100
628.100	-11.235	0.100
628.200	-11.224	0.100
628.300	-15.247	0.100
628.400	-9.273	0.100
628.500	-11.293	0.100
628.600	-3.217	0.100
628.700	-26.089	0.100
628.800	-19.756	0.100
628.900	-6.842	0.100
629.000	-9.549	0.100
629.100	-15.669	0.100
629.200	0.458	0.100
629.300	-7.556	0.100
629.400	-15.083	0.100
629.500	0.572	0.100
629.600	-13.531	0.100
629.700	-13.282	0.100
629.800	-10.323	0.100
629.900	-13.095	0.100
630.000	-4.826	0.100
630.100	-2.834	0.100
630.200	-5.809	0.100
630.300	-10.584	0.100
630.400	-10.092	0.100
630.500	-2.659	0.100
630.600	-3.703	0.100
630.700	-9.020	0.100
630.800	-5.721	0.100
630.900	-9.517	0.100
631.000	-8.366	0.100
631.100	-13.028	0.100
631.200	11.111	0.100
631.300	5.504	0.100
631.400	1.818	0.100
631.500	-3.450	0.100
631.600	13.428	0.100
631.700	-9.254	0.100
631.800	0.669	0.100
631.900	10.738	0.100
632.000	7.121	0.100
632.100	14.583	0.100
632.200	10.706	0.100
632.300	-1.498	0.100
632.400	8.096	0.100
632.500	17.704	0.100
632.600	8.278	0.100
632.700	21.655	0.100
632.800	-5.641	0.100
632.900	5.900	0.100
633.000	21.001	0.100
633.100	16.445	0.100
633.200	3.649	0.100
633.300	15.114	0.100
633.400	7.852	0.100
633.500	15.757	0.100
633.600	11.528	0.100
633.700	15.890	0.100
633.800	9.635	0.100
633.900	9.372	0.100
634.000	0.908	0.100
634.100	10.814	0.100
634.200	24.747	0.100
634.300	10.032	0.100
634.400	13.431	0.100
634.500	9.072	0.100
634.600	21.208	0.100
634.700	19.373	0.100
634.800	15.915	0.100
634.900	5.774	0.100
635.000	11.327	0.100
635.100	-8.991	0.100
635.200	15.456	0.100
635.300	11.401	0.100
635.400	18.956	0.100
635.500	9.312	0.100
635.600	-1.253	0.100
635.700	14.839	0.100
635.800	1.638	0.100
635.900	11.334	0.100
636.000	5.821	0.100
636.100	16.694	0.100
636.200	22.235	0.100
636.300	16.138	0.100
636.400	8.550	0.100
636.500	13.158	0.100
636.600	22.594	0.100
636.700	-14.262	0.100
636.800	17.733	0.100
636.900	19.863	0.100
637.000	20.221	0.100
637.100	20.847	0.100
637.200	8.746	0.100
637.300	15.989	0.100
637.400	6.903	0.100
637.500	16.163	0.100
637.600	27.396	0.100
637.700	13.516	0.100
637.800	5.609	0.100
637.900	16.181	0.100
638.000	12.555	0.100
638.100	3.340	0.100
638.200	23.714	0.100
638.300	12.583	0.100
638.400	22.830	0.100
638.500	13.854	0.100
638.600	23.007	0.100
638.700	16.120	0.100
638.800	3.640	0.100
638.900	17.266	0.100
639.000	14.823	0.100
639.100	25.063	0.100
639.200	3.357	0.100
639.300	14.369	0.100
639.400	17.550	0.100
639.500	15.393	0.100
639.600	25.364	0.100
639.700	19.511	0.100
639.800	15.971	0.100
639.900	11.408	0.100
640.000	15.670	0.100
640.100	11.394	0.100
640.200	25.273	0.100
640.300	8.677	0.100
640.400	28.699	0.100
640.500	29.117	0.100
640.600	22.811	0.100
640.700	11.682	0.100
640.800	20.249	0.100
640.900	20.847	0.100
641.000	17.795	0.100
641.100	29.589	0.100
641.200	27.142	0.100
641.300	19.625	0.100
641.400	23.037	0.100
641.500	16.241	0.100
641.600	19.209	0.100
641.700	10.435	0.100
641.800	19.254	0.100
641.900	33.353	0.100
642.000	30.316	0.100
642.100	21.685	0.100
642.200	23.245	0.100
642.300	18.843	0.100
642.400	25.529	0.100
642.500	23.852	0.100
642.600	36.408	0.100
642.700	22.822	0.100
642.800	25.616	0.100
642.900	25.161	0.100
643.000	23.714	0.100
643.100	22.722	0.100
643.200	35.609	0.100
643.300	31.068	0.100
643.400	36.489	0.100
643.500	29.670	0.100
643.600	35.426	0.100
643.700	10.774	0.100
643.800	27.442	0.100
643.900	30.797	0.100
644.000	35.994	0.100
644.100	34.903	0.100
644.200	26.520	0.100
644.300	17.650	0.100
644.400	23.591	0.100
644.500	35.576	0.100
644.600	17.923	0.100
644.700	43.355	0.100
644.800	28.964	0.100
644.900	39.171	0.100
645.000	29.140	0.100
645.100	38.719	0.100
645.200	29.440	0.100
645.300	36.110	0.100
645.400	28.731	0.100
645.500	29.485	0.100
645.600	43.449	0.100
645.700	32.117	0.100
645.800	28.057	0.100
645.900	30.360	0.100
646.000	40.033	0.100
646.100	17.292	0.100
646.200	17.059	0.100
646.300	36.789	0.100
646.400	24.868	0.100
646.500	37.759	0.100
646.600	35.469	0.100
646.700	33.734	0.100
646.800	35.978	0.100
646.900	35.920	0.100
647.000	31.907	0.100
647.100	24.729	0.100
647.200	40.730	0.100
647.300	39.456	0.100
647.400	34.592	0.100
647.500	30.533	0.100
647.600	36.436	0.100
647.700	32.403	0.100
647.800	33.225	0.100
647.900	31.180	0.100
648.000	35.703	0.100
648.100	34.652	0.100
648.200	33.118	0.100
648.300	26.775	0.100
648.400	30.928	0.100
648.500	26.719	0.100
648.600	34.217	0.100
648.700	29.507	0.100
648.800	34.085	0.100
648.900	38.084	0.100
649.000	24.075	0.100
649.100	27.289	0.100
649.200	43.862	0.100
649.300	28.482	0.100
649.400	40.016	0.100
649.500	39.530	0.100
649.600	27.872	0.100
649.700	40.047	0.100
649.800	34.771	0.100
649.900	29.665	0.100
650.000	56.595	0.100
650.100	25.379	0.100
650.200	31.168	0.100
650.300	40.912	0.100
650.400	35.762	0.100
650.500	22.590	0.100
650.600	23.051	0.100
650.700	52.729	0.100
650.800	40.866	0.100
650.900	28.387	0.100
651.000	31.872	0.100
651.100	24.176	0.100
651.200	39.678	0.100
651.300	34.282	0.100
651.400	22.924	0.100
651.500	37.199	0.100
651.600	27.475	0.100
651.700	39.445	0.100
651.800	41.372	0.100
651.900	27.226	0.100
652.000	35.802	0.100
652.100	33.290	0.100
652.200	32.522	0.100
652.300	39.371	0.100
652.400	32.575	0.100
652.500	39.212	0.100
652.600	35.628	0.100
652.700	29.210	0.100
652.800	32.991	0.100
652.900	32.506	0.100
653.000	34.463	0.100
653.100	26.764	0.100
653.200	30.875	0.100
653.300	38.201	0.100
653.400	29.493	0.100
653.500	27.064	0.100
653.600	33.327	0.100
653.700	33.043	0.100
653.800	29.770	0.100
653.900	24.159	0.100
654.000	40.335	0.100
654.100	32.032	0.100
654.200	31.332	0.100
654.300	34.010	0.100
654.400	40.823	0.100
654.500	23.607	0.100
654.600	26.253	0.100
654.700	34.657	0.100
654.800	29.090	0.100
654.900	45.470	0.100
655.000	45.927	0.100
655.100	28.182	0.100
655.200	33.415	0.100
655.300	32.378	0.100
655.400	38.364	0.100
655.500	34.797	0.100
655.600	41.289	0.100
655.700	25.207	0.100
655.800	41.158	0.100
655.900	12.394	0.100
656.000	26.077	0.100
656.100	33.272	0.100
656.200	41.752	0.100
656.300	35.458	0.100
656.400	32.381	0.100
656.500	26.013	0.100
656.600	27.436	0.100
656.700	37.052	0.100
656.800	40.225	0.100
656.900	28.386	0.100
657.000	32.918	0.100
657.100	37.615	0.100
657.200	38.958	0.100
657.300	32.284	0.100
657.400	23.520	0.100
657.500	32.863	0.100
657.600	30.725	0.100
657.700	17.867	0.100
657.800	37.461	0.100
657.900	40.368	0.100
658.000	28.774	0.100
658.100	30.659	0.100
658.200	30.691	0.100
658.300	29.854	0.100
658.400	30.919	0.100
658.500	47.667	0.100
658.600	31.038	0.100
658.700	34.067	0.100
658.800	23.017	0.100
658.900	27.142	0.100
659.000	29.605	0.100
659.100	34.707	0.100
659.200	25.768	0.100
659.300	36.093	0.100
659.400	25.275	0.100
659.500	39.719	0.100
659.600	41.681	0.100
659.700	26.659	0.100
659.800	44.722	0.100
659.900	26.140	0.100
660.000	29.183	0.100
660.100	30.405	0.100
660.200	27.155	0.100
660.300	24.548	0.100
660.400	42.963	0.100
660.500	44.168	0.100
660.600	43.001	0.100
660.700	31.756	0.100
660.800	38.601	0.100
660.900	33.312	0.100
661.000	18.147	0.100
661.100	27.017	0.100
661.200	30.264	0.100
661.300	35.032	0.100
661.400	42.438	0.100
661.500	17.953	0.100
661.600	24.293	0.100
661.700	45.158	0.100
661.800	26.899	0.100
661.900	45.843	0.100
662.000	19.753	0.100
662.100	29.739	0.100
662.200	38.380	0.100
662.300	41.215	0.100
662.400	31.555	0.100
662.500	29.934	0.100
662.600	28.572	0.100
662.700	27.446	0.100
662.800	34.463	0.100
662.900	36.917	0.100
663.000	40.368	0.100
663.100	26.984	0.100
663.200	29.150	0.100
663.300	27.581	0.100
663.400	21.461	0.100
663.500	31.341	0.100
663.600	45.404	0.100
663.700	32.242	0.100
663.800	6.049	0.100
663.900	36.409	0.100
664.000	40.875	0.100
664.100	28.496	0.100
664.200	31.850	0.100
664.300	32.172	0.100
664.400	38.350	0.100
664.500	30.458	0.100
664.600	38.612	0.100
664.700	33.818	0.100
664.800	26.149	0.100
664.900	42.900	0.100
665.000	28.063	0.100
665.100	23.481	0.100
665.200	40.014	0.100
665.300	34.380	0.100
665.400	40.258	0.100
665.500	25.471	0.100
665.600	31.427	0.100
665.700	27.427	0.100
665.800	21.015	0.100
665.900	45.844	0.100
666.000	17.639	0.100
666.100	32.952	0.100
666.200	43.575	0.100
666.300	32.217	0.100
666.400	34.148	0.100
666.500	32.125	0.100
666.600	17.562	0.100
666.700	24.489	0.100
666.800	26.961	0.100
666.900	24.268	0.100
667.000	24.702	0.100
667.100	40.965	0.100
667.200	37.576	0.100
667.300	34.682	0.100
667.400	25.406	0.100
667.500	35.632	0.100
667.600	45.759	0.100
667.700	29.878	0.100
667.800	35.256	0.100
667.900	28.912	0.100
668.000	36.354	0.100
668.100	28.099	0.100
668.200	32.768	0.100
668.300	41.961	0.100
668.400	18.263	0.100
668.500	26.864	0.100
668.600	32.937	0.100
668.700	16.362	0.100
668.800	36.053	0.100
668.900	34.739	0.100
669.000	37.571	0.100
669.100	31.697	0.100
669.200	36.611	0.100
669.300	27.252	0.100
669.400	22.557	0.100
669.500	32.080	0.100
669.600	36.434	0.100
669.700	39.623	0.100
669.800	29.755	0.100
669.900	34.359	0.100
670.000	29.325	0.100
670.100	22.209	0.100
670.200	25.984	0.100
670.300	26.292	0.100
670.400	29.857	0.100
670.500	33.397	0.100
670.600	27.836	0.100
670.700	32.665	0.100
670.800	28.490	0.100
670.900	38.671	0.100
671.000	33.912	0.100
671.100	36.739	0.100
671.200	35.410	0.100
671.300	31.637	0.100
671.400	26.014	0.100
671.500	23.745	0.100
671.600	40.842	0.100
671.700	30.260	0.100
671.800	36.787	0.100
671.900	29.083	0.100
672.000	33.513	0.100
672.100	24.688	0.100
672.200	22.370	0.099
672.300	39.067	0.100
672.400	20.065	0.100
672.500	39.806	0.099
672.600	27.772	0.100
672.700	24.661	0.099
672.800	38.531	0.100
672.900	28.570	0.099
673.000	34.901	0.100
673.100	36.343	0.099
673.200	27.633	0.099
673.300	20.549	0.099
673.400	31.846	0.099
673.500	32.120	0.099
673.600	41.217	0.099
673.700	31.599	0.099
673.800	23.562	0.099
673.900	35.000	0.099
674.000	23.597	0.099
674.100	32.285	0.099
674.200	29.094	0.099
674.300	36.098	0.099
674.400	32.089	0.099
674.500	43.221	0.099
674.600	18.390	0.099
674.700	44.235	0.099
674.800	22.075	0.099
674.900	20.032	0.099
675.000	28.914	0.099
675.100	38.156	0.099
675.200	28.887	0.099
675.300	27.179	0.099
675.400	28.088	0.099
675.500	28.826	0.099
675.600	25.266	0.099
675.700	36.479	0.099
675.800	30.112	0.099
675.900	23.057	0.099
676.000	32.770	0.099
676.100	32.060	0.099
676.200	17.068	0.099
676.300	27.075	0.099
676.400	41.877	0.099
676.500	37.489	0.099
676.600	29.383	0.099
676.700	28.296	0.099
676.800	33.330	0.099
676.900	32.168	0.099
677.000	28.451	0.099
677.100	38.066	0.099
677.200	34.436	0.099
677.300	29.659	0.099
677.400	28.641	0.099
677.500	27.848	0.099
677.600	27.669	0.099
677.700	40.226	0.099
677.800	27.507	0.099
677.900	33.935	0.099
678.000	25.965	0.099
678.100	27.854	0.099
678.200	17.647	0.099
678.300	25.622	0.099
678.400	31.280	0.099
678.500	50.905	0.099
678.600	21.767	0.099
678.700	37.082	0.099
678.800	29.884	0.099
678.900	29.164	0.099
679.000	35.262	0.099
679.100	15.139	0.099
679.200	41.245	0.099
679.300	31.673	0.099
679.400	25.537	0.099
679.500	28.489	0.099
679.600	25.777	0.099
679.700	35.036	0.099
679.800	18.797	0.099
679.900	35.271	0.099
680.000	25.585	0.099
680.100	23.158	0.099
680.200	44.398	0.099
680.300	24.534	0.099
680.400	27.383	0.099
680.500	17.389	0.099
680.600	32.702	0.099
680.700	21.743	0.099
680.800	21.987	0.099
680.900	33.263	0.099
681.000	23.292	0.099
681.100	27.546	0.099
681.200	42.918	0.099
681.300	20.389	0.099
681.400	34.428	0.099
681.500	28.367	0.099
681.600	22.878	0.099
681.700	33.652	0.099
681.800	30.850	0.099
681.900	40.016	0.099
682.000	18.857	0.099
682.100	30.611	0.099
682.200	18.030	0.099
682.300	42.223	0.099
682.400	26.405	0.099
682.500	26.783	0.099
682.600	29.629	0.099
682.700	29.071	0.099
682.800	20.375	0.099
682.900	34.460	0.099
683.000	24.483	0.099
683.100	25.205	0.099
683.200	27.622	0.099
683.300	29.318	0.099
683.400	27.526	0.099
683.500	20.962	0.099
683.600	29.229	0.099
683.700	28.424	0.099
683.800	25.272	0.099
683.900	31.589	0.099
684.000	32.171	0.099
684.100	34.818	0.099
684.200	17.265	0.099
684.300	44.678	0.099
684.400	26.195	0.099
684.500	22.431	0.099
684.600	28.651	0.099
684.700	16.775	0.099
684.800	24.541	0.099
684.900	44.943	0.099
685.000	20.670	0.099
685.100	31.365	0.099
685.200	30.309	0.099
685.300	31.098	0.099
685.400	34.392	0.099
685.500	29.172	0.099
685.600	26.028	0.099
685.700	24.970	0.099
685.800	19.066	0.099
685.900	25.210	0.099
686.000	30.893	0.099
686.100	35.747	0.099
686.200	22.734	0.099
686.300	22.555	0.099
686.400	32.019	0.099
686.500	23.700	0.099
686.600	36.946	0.099
686.700	43.299	0.099
686.800	24.908	0.099
686.900	15.347	0.099
687.000	36.347	0.099
687.100	26.688	0.099
687.200	28.863	0.099
687.300	26.295	0.099
687.400	37.076	0.099
687.500	30.516	0.099
687.600	31.615	0.099
687.700	33.563	0.099
687.800	22.075	0.099
687.900	27.444	0.099
688.000	32.008	0.099
688.100	15.025	0.099
688.200	10.218	0.099
688.300	34.683	0.099
688.400	56.318	0.099
688.500	31.250	0.099
688.600	35.447	0.099
688.700	18.429	0.099
688.800	38.067	0.099
688.900	28.439	0.099
689.000	20.381	0.099
689.100	33.283	0.099
689.200	26.564	0.099
689.300	25.832	0.099
689.400	23.044	0.099
689.500	21.780	0.099
689.600	26.333	0.099
689.700	29.745	0.099
689.800	24.481	0.099
689.900	30.763	0.099
690.000	24.380	0.099
690.100	19.726	0.099
690.200	45.117	0.099
690.300	27.294	0.099
690.400	27.458	0.099
690.500	21.825	0.099
690.600	22.114	0.099
690.700	26.359	0.099
690.800	3.104	0.099
690.900	22.709	0.099
691.000	10.396	0.099
691.100	8.782	0.099
691.200	13.289	0.099
691.300	11.767	0.099
691.400	12.332	0.099
691.500	16.118	0.099
691.600	9.584	0.099
691.700	-6.533	0.099
691.800	4.166	0.099
691.900	8.561	0.099
692.000	6.754	0.099
692.100	8.177	0.099
692.200	5.508	0.099
692.300	7.050	0.099
692.400	0.148	0.099
692.500	-1.733	0.099
692.600	-4.479	0.099
692.700	14.662	0.099
692.800	-3.508	0.099
692.900	11.207	0.099
693.000	-2.194	0.099
693.100	-13.969	0.099
693.200	-2.496	0.099
693.300	-1.476	0.099
693.400	8.317	0.099
693.500	0.182	0.099
693.600	-2.359	0.099
693.700	-20.267	0.099
693.800	-3.851	0.099
693.900	-1.385	0.099
694.000	-8.579	0.099
694.100	-6.243	0.099
694.200	-9.619	0.099
694.300	-3.066	0.099
694.400	3.671	0.099
694.500	-4.139	0.099
694.600	-4.389	0.099
694.700	-10.812	0.099
694.800	-3.058	0.099
694.900	-2.690	0.099
695.000	-1.102	0.099
695.100	-2.866	0.099
695.200	-15.132	0.099
695.300	-3.873	0.099
695.400	-0.675	0.099
695.500	-14.743	0.099
695.600	2.241	0.099
695.700	-12.830	0.099
695.800	-13.146	0.099
695.900	-0.735	0.099
696.000	-4.419	0.099
696.100	-2.968	0.099
696.200	-11.441	0.099
696.300	4.307	0.099
696.400	-6.443	0.099
696.500	-4.246	0.099
696.600	2.742	0.099
696.700	-16.503	0.099
696.800	-11.565	0.099
696.900	0.832	0.099
697.000	-15.146	0.099
697.100	3.413	0.099
697.200	-16.655	0.099
697.300	2.661	0.099
697.400	-20.364	0.099
697.500	-4.670	0.099
697.600	-12.076	0.099
697.700	-7.742	0.099
697.800	-14.095	0.099
697.900	4.369	0.099
698.000	-9.955	0.099
698.100	-9.902	0.099
698.200	-4.847	0.099
698.300	-5.431	0.099
698.400	-1.112	0.099
698.500	2.478	0.099
698.600	-5.733	0.099
698.700	-24.392	0.099
698.800	9.827	0.099
698.900	-18.566	0.099
699.000	5.236	0.099
699.100	-21.781	0.099
699.200	-2.136	0.099
699.300	-16.888	0.099
699.400	-21.832	0.099
699.500	-17.119	0.099
699.600	-14.734	0.099
699.700	17.970	0.099
699.800	-2.611	0.099
699.900	-4.824	0.099
700.000	-19.543	0.099
700.100	1.814	0.099
700.200	-19.832	0.099
700.300	-22.683	0.099
700.400	2.319	0.099
700.500	-11.373	0.099
700.600	-5.885	0.099
700.700	-8.071	0.099
700.800	-13.536	0.099
700.900	-31.997	0.099
701.000	2.904	0.099
701.100	-10.821	0.099
701.200	-11.066	0.099
701.300	-11.132	0.099
701.400	-19.417	0.099
701.500	-13.499	0.099
701.600	-14.812	0.099
701.700	-8.788	0.099
701.800	-15.046	0.099
701.900	-19.493	0.099
702.000	-7.967	0.099
702.100	-10.323	0.099
702.200	-8.891	0.099
702.300	-6.791	0.099
702.400	-15.190	0.099
702.500	-17.917	0.099
702.600	-16.203	0.099
702.700	-26.426	0.099
702.800	-2.551	0.099
702.900	-6.827	0.099
703.000	-16.099	0.099
703.100	-22.000	0.099
703.200	-14.231	0.099
703.300	-23.312	0.099
703.400	-13.335	0.099
703.500	-11.769	0.099
703.600	-12.783	0.099
703.700	-25.883	0.099
703.800	2.392	0.099
703.900	-15.555	0.099
704.000	-12.120	0.099
704.100	-8.047	0.099
704.200	-16.846	0.099
704.300	-26.389	0.099
704.400	-21.783	0.099
704.500	-3.843	0.099
704.600	-18.364	0.099
704.700	-22.779	0.099
704.800	-8.036	0.099
704.900	-10.494	0.099
705.000	-30.254	0.099
705.100	-6.253	0.099
705.200	-20.174	0.099
705.300	-17.857	0.099
705.400	-20.423	0.099
705.500	-2.661	0.099
705.600	-14.029	0.099
705.700	-12.749	0.099
705.800	-17.341	0.099
705.900	-22.325	0.099
706.000	-21.397	0.099
706.100	-25.917	0.099
706.200	-17.750	0.099
706.300	2.802	0.099
706.400	-21.424	0.099
706.500	-12.385	0.099
706.600	-18.894	0.099
706.700	-10.693	0.099
706.800	-22.832	0.099
706.900	-8.118	0.099
707.000	-15.478	0.099
707.100	-22.109	0.099
707.200	-23.404	0.099
707.300	-12.830	0.099
707.400	-15.679	0.099
707.500	-31.840	0.099
707.600	-29.795	0.099
707.700	-20.082	0.099
707.800	-11.766	0.099
707.900	-15.917	0.099
708.000	-22.804	0.099
708.100	-24.230	0.099
708.200	1.817	0.099
708.300	-14.978	0.099
708.400	-23.626	0.099
708.500	-11.091	0.099
708.600	-16.084	0.099
708.700	-18.342	0.099
708.800	-21.950	0.099
708.900	-14.345	0.099
709.000	-13.944	0.099
709.100	-26.328	0.099
709.200	-28.958	0.099
709.300	-31.756	0.099
709.400	-7.810	0.099
709.500	-20.795	0.099
709.600	-28.779	0.099
709.700	-6.069	0.099
709.800	-29.894	0.099
709.900	-19.995	0.099
710.000	-16.811	0.099
710.100	-15.718	0.099
710.200	-21.344	0.099
710.300	-5.726	0.099
710.400	-19.439	0.099
710.500	-17.750	0.099
710.600	-33.729	0.099
710.700	-7.606	0.099
710.800	-10.478	0.099
710.900	-9.383	0.099
711.000	-15.062	0.099
711.100	-18.548	0.099
711.200	-24.862	0.099
711.300	-5.287	0.099
711.400	-24.947	0.099
711.500	-15.660	0.099
711.600	-16.104	0.099
711.700	-29.276	0.099
711.800	-26.033	0.099
711.900	-19.377	0.099
712.000	-21.208	0.099
712.100	-24.292	0.099
712.200	-13.406	0.099
712.300	-32.137	0.099
712.400	-9.873	0.099
712.500	-21.826	0.099
712.600	-16.796	0.099
712.700	-19.730	0.099
712.800	-20.190	0.099
712.900	-14.949	0.099
713.000	-23.433	0.099
713.100	-18.135	0.099
713.200	-28.642	0.099
713.300	-12.561	0.099
713.400	-33.281	0.099
713.500	-6.668	0.099
713.600	-22.240	0.099
713.700	-25.465	0.099
713.800	-16.070	0.099
713.900	-26.542	0.099
714.000	-22.638	0.099
714.100	-11.209	0.099
714.200	-26.052	0.099
714.300	-13.454	0.099
714.400	-16.928	0.099
714.500	-21.532	0.099
714.600	-22.821	0.099
714.700	-17.529	0.099
714.800	-27.829	0.099
714.900	-15.883	0.099
715.000	-32.389	0.099
715.100	-26.717	0.099
715.200	-17.440	0.099
715.300	-7.681	0.099
715.400	-28.106	0.099
715.500	-27.663	0.099
715.600	-19.906	0.099
715.700	-27.165	0.099
715.800	-21.534	0.099
715.900	-21.632	0.099
716.000	-24.667	0.099
716.100	-30.390	0.099
716.200	-9.935	0.099
716.300	-21.445	0.099
716.400	-16.590	0.099
716.500	-22.639	0.099
716.600	-22.844	0.099
716.700	-19.171	0.099
716.800	-31.980	0.099
716.900	-10.231	0.099
717.000	-10.504	0.099
717.100	-29.754	0.099
717.200	-7.842	0.099
717.300	-20.905	0.099
717.400	-19.207	0.099
717.500	-28.977	0.099
717.600	-16.850	0.099
717.700	-21.460	0.099
717.800	-8.703	0.099
717.900	-25.326	0.099
718.000	-19.979	0.099
718.100	-38.806	0.099
718.200	-17.585	0.099
718.300	-24.223	0.099
718.400	-26.847	0.099
718.500	-15.458	0.099
718.600	-14.043	0.099
718.700	-25.501	0.099
718.800	-12.176	0.099
718.900	-25.547	0.099
719.000	-12.920	0.099
719.100	-31.086	0.099
719.200	-14.782	0.099
719.300	-27.424	0.099
719.400	-21.967	0.099
719.500	-36.683	0.099
719.600	1.344	0.099
719.700	-12.012	0.099
719.800	-23.080	0.099
719.900	-18.233	0.099
720.000	-22.519	0.099
720.100	-15.536	0.099
720.200	-18.122	0.099
720.300	-29.943	0.099
720.400	-14.687	0.099
720.500	-20.596	0.099
720.600	-17.610	0.099
720.700	-17.616	0.099
720.800	-23.689	0.099
720.900	-20.228	0.099
721.000	-16.858	0.099
721.100	-32.188	0.099
721.200	-19.079	0.099
721.300	-25.208	0.099
721.400	-22.886	0.099
721.500	-15.489	0.099
721.600	-12.466	0.099
721.700	-19.113	0.099
721.800	-23.871	0.099
721.900	-18.449	0.099
722.000	-15.204	0.099
722.100	-30.357	0.099
722.200	-22.583	0.099
722.300	-14.852	0.099
722.400	-17.391	0.099
722.500	-20.969	0.099
722.600	-7.843	0.099
722.700	-37.394	0.099
722.800	-19.039	0.099
722.900	-18.250	0.099
723.000	-18.799	0.099
723.100	-19.823	0.099
723.200	-31.340	0.099
723.300	-21.671	0.099
723.400	-11.825	0.099
723.500	-19.963	0.099
723.600	-17.076	0.099
723.700	-18.192	0.099
723.800	-12.602	0.099
723.900	-22.702	0.099
724.000	-24.501	0.099
724.100	-13.373	0.099
724.200	-27.509	0.099
724.300	-7.790	0.099
724.400	-10.309	0.099
724.500	-16.955	0.099
724.600	-32.242	0.099
724.700	-22.864	0.099
724.800	-17.262	0.099
724.900	-18.040	0.099
725.000	-21.803	0.099
725.100	-18.594	0.099
725.200	-25.563	0.099
725.300	-28.370	0.099
725.400	-20.005	0.099
725.500	-6.541	0.099
725.600	-27.450	0.099
725.700	-23.604	0.099
725.800	-13.242	0.099
725.900	-13.372	0.099
726.000	-15.114	0.099
726.100	-21.854	0.099
726.200	-12.967	0.099
726.300	-18.423	0.099
726.400	-18.574	0.099
726.500	-23.423	0.099
726.600	-32.966	0.099
726.700	-22.386	0.099
726.800	-18.331	0.099
726.900	-21.714	0.099
727.000	-9.202	0.099
727.100	-25.207	0.099
727.200	-14.962	0.099
727.300	-25.926	0.099
727.400	-21.113	0.099
727.500	-4.052	0.099
727.600	-20.672	0.099
727.700	-20.069	0.099
727.800	-12.415	0.099
727.900	-19.617	0.099
728.000	-25.707	0.099
728.100	-15.700	0.099
728.200	-21.889	0.099
728.300	-25.922	0.099
728.400	-14.659	0.099
728.500	-13.097	0.099
728.600	-32.868	0.099
728.700	-18.513	0.099
728.800	-20.264	0.099
728.900	-17.392	0.099
729.000	-17.293	0.099
729.100	-19.701	0.099
729.200	-8.564	0.099
729.300	-11.735	0.099
729.400	-17.627	0.099
729.500	-11.827	0.099
729.600	-32.948	0.099
729.700	-18.810	0.099
729.800	-4.977	0.099
729.900	-16.411	0.099
730.000	-24.748	0.099
730.100	-3.062	0.099
730.200	-16.169	0.099
730.300	-25.094	0.099
730.400	-13.835	0.099
730.500	-13.854	0.099
730.600	-28.235	0.099
730.700	-18.178	0.099
730.800	-21.853	0.099
730.900	-23.843	0.099
731.000	-30.862	0.099
731.100	-20.309	0.099
731.200	-20.923	0.099
731.300	-15.286	0.099
731.400	-16.306	0.099
731.500	-27.213	0.099
731.600	-12.307	0.099
731.700	-25.997	0.099
731.800	-22.631	0.099
731.900	-17.228	0.099
732.000	-12.658	0.099
732.100	-23.144	0.099
732.200	-10.193	0.099
732.300	-19.506	0.099
732.400	-18.236	0.099
732.500	-34.480	0.099
732.600	-11.555	0.099
732.700	-15.292	0.099
732.800	-19.260	0.099
732.900	-12.655	0.099
733.000	-15.589	0.099
733.100	-22.709	0.099
733.200	-15.578	0.099
733.300	-1.565	0.099
733.400	-18.915	0.099
733.500	-32.565	0.099
733.600	-20.667	0.099
733.700	-30.285	0.099
733.800	-17.748	0.099
733.900	-18.046	0.099
734.000	-22.872	0.099
734.100	-21.207	0.099
734.200	-21.413	0.099
734.300	-1.031	0.099
734.400	-9.391	0.099
734.500	-40.226	0.099
734.600	-26.862	0.099
734.700	-16.504	0.099
734.800	-24.923	0.099
734.900	-12.964	0.099
735.000	-15.902	0.099
735.100	-13.752	0.099
735.200	-36.758	0.099
735.300	-20.307	0.099
735.400	-20.822	0.099
735.500	-6.807	0.099
735.600	-10.205	0.099
735.700	-19.503	0.099
735.800	-19.973	0.099
735.900	-13.764	0.099
736.000	-13.203	0.099
736.100	-26.038	0.099
736.200	-22.819	0.099
736.300	-14.052	0.099
736.400	-31.311	0.099
736.500	-27.609	0.099
736.600	-12.182	0.099
736.700	-17.488	0.099
736.800	-14.952	0.099
736.900	-15.004	0.099
737.000	-12.401	0.099
737.100	-14.470	0.099
737.200	-27.079	0.099
737.300	-16.948	0.099
737.400	-14.279	0.099
737.500	-20.597	0.099
737.600	-13.699	0.099
737.700	-12.233	0.099
737.800	-18.267	0.099
737.900	-22.554	0.099
738.000	-14.440	0.099
738.100	-21.819	0.099
738.200	-27.954	0.099
738.300	-9.394	0.099
738.400	-9.876	0.099
738.500	-21.207	0.099
738.600	-20.305	0.099
738.700	-14.543	0.099
738.800	-17.748	0.099
738.900	-8.331	0.099
739.000	-28.691	0.099
739.100	-26.570	0.099
739.200	-18.414	0.099
739.300	-18.707	0.099
739.400	-13.927	0.099
739.500	-17.493	0.099
739.600	-14.151	0.099
739.700	-21.733	0.099
739.800	-12.605	0.099
739.900	-30.595	0.099
740.000	-12.745	0.099
740.100	-11.219	0.099
740.200	-15.091	0.099
740.300	-4.850	0.099
740.400	-20.574	0.099
740.500	-16.760	0.099
740.600	-20.403	0.099
740.700	-16.786	0.099
740.800	-15.635	0.099
740.900	-10.998	0.099
741.000	-11.218	0.099
741.100	-17.238	0.099
741.200	-14.490	0.099
741.300	-25.743	0.099
741.400	-3.880	0.099
741.500	-0.569	0.099
741.600	-9.688	0.099
741.700	-12.624	0.099
741.800	-26.420	0.099
741.900	-14.901	0.099
742.000	-31.436	0.099
742.100	-12.878	0.099
742.200	-12.706	0.099
742.300	-17.371	0.099
742.400	-15.830	0.099
742.500	-18.485	0.099
742.600	-15.247	0.099
742.700	-16.345	0.099
742.800	-10.092	0.099
742.900	-21.913	0.099
743.000	-13.173	0.099
743.100	-10.488	0.099
743.200	-16.117	0.099
743.300	-16.434	0.099
743.400	-17.702	0.099
743.500	-13.146	0.099
743.600	-20.095	0.099
743.700	-18.965	0.099
743.800	-13.650	0.099
743.900	-1.988	0.099
744.000	-20.742	0.099
744.100	-6.919	0.099
744.200	-17.358	0.099
744.300	-25.024	0.099
744.400	-17.714	0.099
744.500	-12.311	0.099
744.600	-16.774	0.099
744.700	-10.227	0.099
744.800	-12.745	0.099
744.900	-9.745	0.099
745.000	-19.012	0.099
745.100	-32.401	0.099
745.200	-12.284	0.099
745.300	-9.856	0.099
745.400	-14.455	0.099
745.500	-25.134	0.099
745.600	-11.064	0.099
745.700	-16.691	0.099
745.800	-16.274	0.099
745.900	-16.073	0.099
746.000	-18.656	0.099
746.100	-15.922	0.099
746.200	-26.542	0.099
746.300	-8.952	0.099
746.400	-26.538	0.099
746.500	-8.733	0.099
746.600	-8.288	0.099
746.700	-10.341	0.099
746.800	-10.978	0.099
746.900	-18.289	0.099
747.000	-23.885	0.099
747.100	-24.063	0.099
747.200	-15.459	0.099
747.300	-12.420	0.099
747.400	-24.825	0.099
747.500	-1.489	0.099
747.600	-9.268	0.099
747.700	-27.371	0.099
747.800	-19.886	0.099
747.900	-30.926	0.099
748.000	-11.109	0.099
748.100	-15.843	0.099
748.200	-13.733	0.099
748.300	-16.208	0.099
748.400	-7.494	0.099
748.500	-28.854	0.099
748.600	3.117	0.099
748.700	-12.391	0.099
748.800	-16.544	0.099
748.900	-14.131	0.099
749.000	-9.822	0.099
749.100	-7.967	0.099
749.200	-14.477	0.099
749.300	-10.506	0.099
749.400	-13.753	0.099
749.500	-11.302	0.099
749.600	-18.856	0.099
749.700	-17.210	0.099
749.800	-11.548	0.099
749.900	-15.325	0.099
750.000	-8.172	0.099
750.100	-22.825	0.099
750.200	-6.214	0.099
750.300	0.757	0.099
750.400	-4.202	0.099
750.500	-18.717	0.099
750.600	-10.844	0.099
750.700	-12.844	0.099
750.800	-23.655	0.099
750.900	-14.424	0.099
751.000	-11.945	0.099
751.100	-12.510	0.099
751.200	-10.173	0.099
751.300	-23.310	0.099
751.400	-13.313	0.099
751.500	-31.645	0.099
751.600	-9.068	0.099
751.700	-21.187	0.099
751.800	-23.290	0.099
751.900	-12.331	0.099
752.000	-11.382	0.099
752.100	-4.658	0.099
752.200	-5.685	0.099
752.300	-14.566	0.099
752.400	-17.175	0.099
752.500	-20.932	0.099
752.600	-5.043	0.099
752.700	-34.090	0.099
752.800	-13.862	0.099
752.900	-8.770	0.099
753.000	-33.565	0.099
753.100	-18.193	0.099
753.200	-11.063	0.099
753.300	-17.559	0.099
753.400	-9.273	0.099
753.500	-14.315	0.099
753.600	-7.790	0.099
753.700	-6.479	0.099
753.800	-10.271	0.099
753.900	-12.628	0.099
754.000	-26.804	0.099
754.100	-16.250	0.099
754.200	-2.961	0.099
754.300	-16.000	0.099
754.400	-27.325	0.099
754.500	7.704	0.099
754.600	-21.885	0.099
754.700	-14.261	0.099
754.800	-16.493	0.099
754.900	-23.063	0.099
755.000	-6.380	0.099
755.100	-15.615	0.099
755.200	-6.279	0.099
755.300	-20.593	0.099
755.400	-18.771	0.099
755.500	-4.451	0.099
755.600	-2.223	0.099
755.700	-16.853	0.099
755.800	-17.808	0.099
755.900	-15.926	0.099
756.000	-15.369	0.099
756.100	-14.577	0.099
756.200	-15.459	0.099
756.300	-21.097	0.099
756.400	-12.895	0.099
756.500	-14.599	0.099
756.600	-5.653	0.099
756.700	-4.699	0.099
756.800	-14.677	0.099
756.900	-18.338	0.099
757.000	2.690	0.099
757.100	-13.687	0.099
757.200	-8.827	0.099
757.300	-24.604	0.099
757.400	-15.818	0.099
757.500	-13.845	0.099
757.600	-13.942	0.099
757.700	-20.587	0.099
757.800	-20.029	0.099
757.900	-8.645	0.099
758.000	-1.978	0.099
758.100	-3.545	0.099
758.200	-16.772	0.099
758.300	-16.187	0.099
758.400	-27.862	0.099
758.500	-8.820	0.099
758.600	-23.462	0.099
758.700	-7.099	0.099
758.800	-7.582	0.099
758.900	-21.849	0.099
759.000	-27.769	0.099
759.100	-7.194	0.099
759.200	-13.958	0.099
759.300	-0.163	0.099
759.400	-11.189	0.099
759.500	-20.696	0.099
759.600	-6.633	0.099
759.700	-11.555	0.099
759.800	-16.737	0.099
759.900	-10.486	0.099
760.000	-11.250	0.099
760.100	-9.743	0.099
760.200	-8.155	0.099
760.300	-11.428	0.099
760.400	-4.960	0.099
760.500	-24.000	0.099
760.600	-17.140	0.099
760.700	-5.410	0.099
760.800	-20.936	0.099
760.900	-13.237	0.099
761.000	-13.076	0.099
761.100	-33.025	0.099
761.200	-6.843	0.099
761.300	-12.739	0.099
761.400	-15.770	0.099
761.500	-15.542	0.099
761.600	-3.797	0.099
761.700	-6.810	0.099
761.800	-10.075	0.099
761.900	-12.459	0.099
762.000	-10.023	0.099
762.100	-8.775	0.099
762.200	-19.882	0.099
762.300	-8.167	0.099
762.400	-12.927	0.099
762.500	-14.740	0.099
762.600	-13.645	0.099
762.700	-25.201	0.099
762.800	-14.111	0.099
762.900	-6.424	0.099
763.000	-14.482	0.099
763.100	-3.452	0.099
763.200	-20.524	0.099
763.300	-8.072	0.099
763.400	-17.060	0.099
763.500	-7.306	0.099
763.600	-22.047	0.099
763.700	-14.298	0.099
763.800	-15.892	0.099
763.900	-15.575	0.099
764.000	-1.297	0.099
764.100	-10.343	0.099
764.200	-12.928	0.099
764.300	-12.708	0.099
764.400	-27.529	0.099
764.500	-15.272	0.099
764.600	-11.145	0.099
764.700	-21.223	0.099
764.800	-7.310	0.099
764.900	-10.699	0.099
765.000	-4.943	0.099
765.100	-12.234	0.099
765.200	-13.416	0.099
765.300	-28.649	0.099
765.400	-13.603	0.099
765.500	-12.120	0.099
765.600	-2.337	0.099
765.700	-13.542	0.099
765.800	-6.306	0.099
765.900	-15.969	0.099
766.000	-7.777	0.099
766.100	-8.686	0.099
766.200	-25.702	0.099
766.300	-14.240	0.099
766.400	-19.458	0.099
766.500	-23.711	0.099
766.600	-2.751	0.099
766.700	-4.912	0.099
766.800	-20.510	0.099
766.900	-7.190	0.099
767.000	-19.076	0.099
767.100	-11.498	0.099
767.200	-10.709	0.099
767.300	-29.224	0.099
767.400	-24.021	0.099
767.500	-9.949	0.099
767.600	-10.523	0.099
767.700	-8.696	0.099
767.800	-5.203	0.099
767.900	-23.153	0.099
768.000	-6.039	0.099
768.100	-7.982	0.099
768.200	-7.812	0.099
768.300	-9.372	0.099
768.400	-21.939	0.099
768.500	-16.681	0.099
768.600	-13.892	0.099
768.700	-7.396	0.099
768.800	-22.080	0.099
768.900	-23.358	0.099
769.000	-3.143	0.099
769.100	-26.655	0.099
769.200	-6.507	0.099
769.300	-8.843	0.099
769.400	-15.655	0.099
769.500	-21.762	0.099
769.600	-18.487	0.099
769.700	-6.024	0.099
769.800	-16.593	0.099
769.900	0.040	0.099
770.000	-16.010	0.099
770.100	-33.930	0.099
770.200	-4.828	0.099
770.300	3.125	0.099
770.400	-9.441	0.099
770.500	-18.615	0.099
770.600	-17.178	0.099
770.700	-6.279	0.099
770.800	-18.875	0.099
770.900	-13.714	0.099
771.000	-14.281	0.099
771.100	-14.777	0.099
771.200	1.507	0.099
771.300	-0.453	0.099
771.400	-8.730	0.099
771.500	-17.931	0.099
771.600	-7.037	0.099
771.700	-7.099	0.099
771.800	-15.677	0.099
771.900	-18.089	0.099
772.000	-12.516	0.099
772.100	-9.065	0.099
772.200	1.515	0.099
772.300	-16.924	0.099
772.400	-11.851	0.099
772.500	-16.465	0.099
772.600	-12.825	0.099
772.700	-28.256	0.099
772.800	-14.649	0.099
772.900	-10.621	0.099
773.000	-13.024	0.099
773.100	-5.291	0.099
773.200	-12.275	0.099
773.300	-8.189	0.099
773.400	1.876	0.099
773.500	-15.828	0.099
773.600	-15.867	0.099
773.700	-23.133	0.099
773.800	-15.255	0.099
773.900	-22.677	0.099
774.000	-6.736	0.099
774.100	-8.595	0.099
774.200	-17.309	0.099
774.300	-2.269	0.099
774.400	-13.435	0.099
774.500	-23.839	0.099
774.600	-11.932	0.099
774.700	-22.959	0.099
774.800	-24.303	0.099
774.900	-8.358	0.099
775.000	-8.438	0.099
775.100	-8.045	0.099
775.200	-21.736	0.099
775.300	-19.006	0.099
775.400	-2.446	0.099
775.500	-18.245	0.099
775.600	-7.363	0.099
775.700	-21.277	0.099
775.800	-12.584	0.099
775.900	4.508	0.099
776.000	-4.766	0.099
776.100	-16.907	0.099
776.200	-22.896	0.099
776.300	0.467	0.099
776.400	-19.242	0.099
776.500	-6.716	0.099
776.600	-16.727	0.099
776.700	-4.726	0.099
776.800	-0.745	0.099
776.900	-4.611	0.099
777.000	-10.027	0.099
777.100	-16.601	0.099
777.200	-5.469	0.099
777.300	-24.761	0.099
777.400	-26.199	0.099
777.500	1.042	0.099
777.600	-10.340	0.099
777.700	-17.285	0.099
777.800	0.345	0.099
777.900	-25.948	0.099
778.000	-14.106	0.099
778.100	-2.218	0.099
778.200	-15.289	0.099
778.300	-8.013	0.099
778.400	-15.525	0.099
778.500	2.495	0.099
778.600	-30.136	0.099
778.700	-18.641	0.099
778.800	-13.294	0.099
778.900	-10.684	0.099
779.000	-4.679	0.099
779.100	-7.320	0.099
779.200	-16.040	0.099
779.300	-1.938	0.099
779.400	-19.650	0.099
779.500	-22.187	0.099
779.600	-20.456	0.099
779.700	-9.681	0.099
779.800	-10.908	0.099
779.900	-10.442	0.099
780.000	-11.679	0.099
780.100	-11.342	0.099
780.200	-13.374	0.099
780.300	-10.564	0.099
780.400	-8.100	0.099
780.500	-13.387	0.099
780.600	-8.605	0.099
780.700	-20.036	0.099
780.800	-0.875	0.099
780.900	-2.081	0.099
781.000	15.417	0.099
781.100	-5.203	0.099
781.200	-2.963	0.099
781.300	-20.121	0.099
781.400	1.832	0.099
781.500	-3.807	0.099
781.600	2.282	0.099
781.700	4.626	0.099
781.800	7.183	0.099
781.900	7.481	0.099
782.000	3.048	0.099
782.100	9.521	0.099
782.200	17.344	0.099
782.300	-3.446	0.099
782.400	11.537	0.099
782.500	18.173	0.099
782.600	-10.988	0.099
782.700	10.356	0.099
782.800	23.848	0.099
782.900	5.360	0.099
783.000	7.851	0.099
783.100	15.273	0.099
783.200	1.892	0.099
783.300	13.370	0.099
783.400	18.497	0.099
783.500	16.705	0.099
783.600	14.668	0.099
783.700	15.919	0.099
783.800	15.609	0.099
783.900	17.903	0.099
784.000	10.298	0.099
784.100	12.771	0.099
784.200	7.501	0.099
784.300	-9.196	0.099
784.400	10.397	0.099
784.500	9.822	0.099
784.600	6.281	0.099
784.700	12.970	0.099
784.800	14.027	0.099
784.900	12.189	0.099
785.000	18.489	0.099
785.100	22.694	0.099
785.200	15.238	0.099
785.300	15.927	0.099
785.400	1.012	0.099
785.500	9.295	0.099
785.600	5.037	0.099
785.700	10.135	0.099
785.800	11.061	0.099
785.900	21.679	0.099
786.000	7.890	0.099
786.100	-0.550	0.099
786.200	26.782	0.099
786.300	5.432	0.099
786.400	13.988	0.099
786.500	13.488	0.099
786.600	15.295	0.099
786.700	9.159	0.099
786.800	9.121	0.099
786.900	9.507	0.099
787.000	18.327	0.099
787.100	-6.522	0.099
787.200	24.459	0.099
787.300	3.271	0.099
787.400	19.732	0.099
787.500	21.787	0.099
787.600	24.192	0.099
787.700	16.721	0.099
787.800	15.475	0.099
787.900	22.898	0.099
788.000	21.229	0.099
788.100	17.025	0.099
788.200	13.750	0.099
788.300	7.345	0.099
788.400	11.003	0.099
788.500	16.363	0.099
788.600	24.202	0.099
788.700	20.645	0.099
788.800	21.971	0.099
788.900	10.960	0.099
789.000	28.186	0.099
789.100	25.634	0.099
789.200	14.519	0.099
789.300	17.025	0.099
789.400	16.399	0.099
789.500	19.446	0.099
789.600	11.794	0.099
789.700	23.871	0.099
789.800	11.317	0.099
789.900	21.824	0.099
790.000	23.437	0.099
790.100	12.695	0.099
790.200	21.804	0.099
790.300	21.660	0.099
790.400	11.635	0.099
790.500	27.888	0.099
790.600	19.848	0.099
790.700	5.010	0.099
790.800	26.068	0.099
790.900	22.556	0.099
791.000	15.282	0.099
791.100	23.661	0.099
791.200	23.814	0.099
791.300	18.796	0.099
791.400	30.567	0.099
791.500	30.956	0.099
791.600	28.695	0.099
791.700	2.628	0.099
791.800	21.717	0.099
791.900	20.736	0.099
792.000	34.279	0.099
792.100	27.737	0.099
792.200	27.169	0.099
792.300	11.271	0.099
792.400	31.713	0.099
792.500	21.373	0.099
792.600	17.596	0.099
792.700	25.232	0.099
792.800	36.702	0.099
792.900	30.327	0.099
793.000	19.380	0.099
793.100	30.281	0.099
793.200	23.137	0.099
793.300	26.442	0.099
793.400	11.151	0.099
793.500	33.513	0.099
793.600	22.609	0.099
793.700	37.045	0.099
793.800	32.419	0.099
793.900	19.332	0.099
794.000	19.174	0.099
794.100	31.325	0.099
794.200	24.200	0.099
794.300	32.423	0.099
794.400	28.683	0.099
794.500	26.231	0.099
794.600	24.657	0.099
794.700	26.686	0.099
794.800	27.378	0.099
794.900	36.993	0.099
795.000	34.942	0.099
795.100	32.337	0.099
795.200	28.812	0.099
795.300	25.324	0.099
795.400	37.623	0.099
795.500	15.299	0.099
795.600	31.312	0.099
795.700	21.111	0.099
795.800	34.139	0.099
795.900	40.011	0.099
796.000	33.045	0.099
796.100	35.113	0.099
796.200	29.484	0.099
796.300	35.081	0.099
796.400	40.523	0.099
796.500	31.875	0.099
796.600	36.448	0.099
796.700	37.108	0.099
796.800	32.917	0.099
796.900	22.747	0.099
797.000	30.802	0.099
797.100	25.411	0.099
797.200	34.395	0.099
797.300	36.760	0.099
797.400	36.809	0.099
797.500	35.661	0.099
797.600	26.737	0.099
797.700	27.483	0.099
797.800	44.881	0.099
797.900	13.644	0.099
798.000	47.329	0.099
798.100	47.916	0.099
798.200	30.941	0.099
798.300	34.019	0.099
798.400	37.599	0.099
798.500	33.022	0.099
798.600	26.287	0.099
798.700	38.307	0.099
798.800	18.818	0.099
798.900	28.595	0.099
799.000	25.187	0.099
799.100	24.541	0.099
799.200	29.913	0.099
799.300	41.536	0.099
799.400	17.865	0.099
799.500	24.256	0.099
799.600	29.995	0.099
799.700	46.972	0.099
799.800	31.325	0.099
799.900	26.331	0.099
800.000	22.590	0.099
