time /s	I /nA	E /V
0.100	-11.941	0.100
0.200	6.190	0.100
0.300	-1.617	0.100
0.400	2.462	0.100
0.500	0.870	0.099
0.600	-12.926	0.100
0.700	-3.460	0.100
0.800	0.641	0.100
0.900	-3.359	0.100
1.000	1.235	0.100
1.100	-10.337	0.100
1.200	-18.999	0.100
1.300	4.427	0.100
1.400	-11.107	0.099
1.500	10.158	0.100
1.600	-0.846	0.100
1.700	-12.829	0.100
1.800	4.165	0.100
1.900	-8.769	0.100
2.000	-5.728	0.100
2.100	2.557	0.100
2.200	-6.742	0.100
2.300	-14.907	0.100
2.400	-3.123	0.100
2.500	9.641	0.100
2.600	-7.321	0.100
2.700	-8.664	0.100
2.800	-6.206	0.100
2.900	-6.104	0.100
3.000	6.071	0.100
3.100	-6.321	0.100
3.200	-23.983	0.100
3.300	8.046	0.099
3.400	-13.112	0.100
3.500	-10.371	0.100
3.600	9.209	0.100
3.700	-3.174	0.100
3.800	-13.387	0.100
3.900	-6.966	0.100
4.000	-12.766	0.100
4.100	-0.494	0.100
4.200	-2.333	0.100
4.300	6.692	0.100
4.400	-8.160	0.100
4.500	-14.288	0.100
4.600	-2.177	0.100
4.700	-1.864	0.100
4.800	1.477	0.100
4.900	12.552	0.100
5.000	0.069	0.100
5.100	-4.833	0.100
5.200	2.771	0.100
5.300	-14.965	0.099
5.400	-2.569	0.099
5.500	-7.871	0.100
5.600	-8.165	0.099
5.700	4.222	0.100
5.800	-17.723	0.099
5.900	-2.761	0.100
6.000	-2.745	0.100
6.100	-2.371	0.100
6.200	-9.872	0.099
6.300	-6.502	0.100
6.400	-0.716	0.100
6.500	-10.334	0.099
6.600	0.687	0.100
6.700	4.454	0.100
6.800	-1.120	0.099
6.900	-4.271	0.099
7.000	-7.846	0.100
7.100	-11.926	0.100
7.200	12.521	0.100
7.300	-24.563	0.100
7.400	-9.464	0.100
7.500	4.600	0.100
7.600	-13.144	0.100
7.700	-0.369	0.100
7.800	-6.131	0.100
7.900	-8.009	0.100
8.000	-0.701	0.100
8.100	-9.321	0.100
8.200	3.762	0.100
8.300	-0.190	0.099
8.400	-14.658	0.100
8.500	-14.839	0.100
8.600	-3.311	0.100
8.700	-3.458	0.100
8.800	6.513	0.100
8.900	-9.805	0.100
9.000	-2.342	0.100
9.100	-5.900	0.100
9.200	0.597	0.100
9.300	0.940	0.100
9.400	-1.549	0.100
9.500	-8.926	0.100
9.600	-3.374	0.100
9.700	-6.381	0.100
9.800	3.870	0.100
9.900	-11.111	0.100
10.000	-3.599	0.100
10.100	-5.099	0.100
10.200	7.379	0.100
10.300	-7.897	0.100
10.400	4.375	0.100
10.500	-2.082	0.100
10.600	-12.602	0.100
10.700	4.768	0.100
10.800	-4.994	0.100
10.900	-28.805	0.100
11.000	-11.927	0.100
11.100	-6.259	0.100
11.200	-7.810	0.100
11.300	4.085	0.100
11.400	3.253	0.100
11.500	-1.818	0.100
11.600	-16.339	0.099
11.700	4.986	0.099
11.800	-12.258	0.100
11.900	2.980	0.100
12.000	-6.483	0.100
12.100	-0.803	0.100
12.200	-11.363	0.100
12.300	-8.658	0.100
12.400	9.744	0.100
12.500	-1.432	0.100
12.600	-17.863	0.100
12.700	-13.569	0.100
12.800	8.564	0.100
12.900	-23.581	0.100
13.000	6.717	0.100
13.100	-8.979	0.100
13.200	-11.514	0.100
13.300	-5.286	0.100
13.400	12.052	0.100
13.500	-19.524	0.100
13.600	2.273	0.100
13.700	-10.237	0.100
13.800	7.372	0.100
13.900	-16.546	0.100
14.000	-13.281	0.100
14.100	-20.071	0.100
14.200	-6.337	0.100
14.300	-2.663	0.100
14.400	16.101	0.100
14.500	-2.133	0.100
14.600	-2.070	0.100
14.700	8.340	0.100
14.800	-15.368	0.100
14.900	7.834	0.100
15.000	-1.404	0.100
15.100	-8.809	0.100
15.200	-11.172	0.100
15.300	-13.374	0.100
15.400	6.159	0.100
15.500	-6.607	0.100
15.600	-2.866	0.100
15.700	2.987	0.100
15.800	0.613	0.100
15.900	-16.499	0.100
16.000	2.161	0.100
16.100	-7.425	0.100
16.200	-18.265	0.100
16.300	4.998	0.100
16.400	0.065	0.100
16.500	-5.554	0.100
16.600	-16.397	0.100
16.700	-1.673	0.100
16.800	-14.646	0.100
16.900	-3.533	0.100
17.000	17.102	0.100
17.100	10.228	0.100
17.200	-3.250	0.100
17.300	-1.832	0.100
17.400	-2.986	0.100
17.500	-5.756	0.100
17.600	-16.421	0.100
17.700	6.299	0.100
17.800	-18.226	0.100
17.900	2.279	0.100
18.000	-5.105	0.100
18.100	1.725	0.100
18.200	-11.063	0.100
18.300	-4.510	0.100
18.400	-0.144	0.100
18.500	-0.947	0.100
18.600	-12.291	0.100
18.700	4.884	0.100
18.800	0.430	0.100
18.900	-10.553	0.100
19.000	-0.741	0.100
19.100	0.601	0.100
19.200	1.025	0.100
19.300	1.719	0.100
19.400	3.714	0.100
19.500	0.564	0.100
19.600	-7.195	0.100
19.700	2.010	0.100
19.800	-12.256	0.100
19.900	-26.243	0.099
20.000	5.174	0.100
20.100	-6.396	0.100
20.200	-8.050	0.100
20.300	-16.652	0.100
20.400	7.645	0.100
20.500	-18.372	0.100
20.600	-1.742	0.100
20.700	-9.290	0.100
20.800	-6.858	0.100
20.900	9.004	0.100
21.000	-1.603	0.100
21.100	-9.924	0.100
21.200	5.515	0.100
21.300	-3.891	0.100
21.400	-15.026	0.100
21.500	-5.044	0.100
21.600	-3.724	0.100
21.700	4.452	0.100
21.800	1.605	0.100
21.900	-2.357	0.100
22.000	-21.046	0.100
22.100	-4.883	0.100
22.200	-3.900	0.100
22.300	-4.814	0.100
22.400	4.578	0.100
22.500	8.489	0.100
22.600	5.928	0.100
22.700	-8.588	0.100
22.800	-3.365	0.100
22.900	1.813	0.100
23.000	-7.736	0.100
23.100	-6.687	0.100
23.200	-2.463	0.100
23.300	-10.426	0.100
23.400	-6.528	0.100
23.500	3.660	0.100
23.600	4.341	0.099
23.700	-14.295	0.100
23.800	-14.247	0.100
23.900	7.564	0.100
24.000	-3.367	0.100
24.100	-8.401	0.100
24.200	-12.213	0.100
24.300	-10.796	0.100
24.400	-2.677	0.099
24.500	-25.182	0.100
24.600	8.362	0.100
24.700	-0.186	0.100
24.800	-1.185	0.100
24.900	10.145	0.100
25.000	-7.934	0.100
25.100	8.188	0.100
25.200	-6.404	0.100
25.300	6.637	0.100
25.400	-13.959	0.100
25.500	-9.835	0.100
25.600	-5.663	0.100
25.700	-12.407	0.100
25.800	-8.662	0.100
25.900	0.700	0.100
26.000	4.756	0.100
26.100	-7.564	0.100
26.200	-0.437	0.100
26.300	-5.246	0.100
26.400	-10.312	0.100
26.500	-15.475	0.100
26.600	-11.501	0.100
26.700	1.890	0.100
26.800	-0.193	0.100
26.900	-4.136	0.100
27.000	-12.080	0.100
27.100	6.900	0.100
27.200	-3.850	0.100
27.300	-17.561	0.100
27.400	-8.761	0.100
27.500	0.943	0.099
27.600	-0.831	0.100
27.700	-18.785	0.100
27.800	-5.469	0.100
27.900	6.284	0.100
28.000	10.872	0.100
28.100	5.973	0.100
28.200	-17.314	0.100
28.300	4.265	0.100
28.400	-0.326	0.100
28.500	-2.776	0.100
28.600	-11.019	0.100
28.700	4.703	0.100
28.800	-5.667	0.099
28.900	-2.330	0.100
29.000	-20.154	0.100
29.100	-4.926	0.100
29.200	5.921	0.100
29.300	1.763	0.100
29.400	-14.425	0.100
29.500	-3.927	0.100
29.600	-3.480	0.100
29.700	-5.159	0.100
29.800	-23.221	0.100
29.900	15.876	0.100
30.000	-4.957	0.100
30.100	-6.023	0.100
30.200	15.546	0.100
30.300	-10.166	0.100
30.400	3.282	0.100
30.500	-0.167	0.100
30.600	7.569	0.100
30.700	-3.666	0.100
30.800	-3.856	0.100
30.900	1.420	0.100
31.000	1.896	0.100
31.100	4.454	0.100
31.200	14.932	0.100
31.300	1.310	0.100
31.400	0.040	0.100
31.500	2.672	0.100
31.600	24.438	0.100
31.700	20.468	0.100
31.800	21.052	0.100
31.900	26.315	0.100
32.000	6.135	0.100
32.100	11.351	0.100
32.200	1.195	0.100
32.300	4.316	0.100
32.400	8.627	0.100
32.500	19.803	0.100
32.600	26.897	0.100
32.700	14.085	0.100
32.800	24.071	0.100
32.900	12.988	0.100
33.000	21.417	0.100
33.100	12.680	0.100
33.200	8.095	0.100
33.300	6.451	0.100
33.400	16.044	0.100
33.500	17.423	0.100
33.600	8.982	0.100
33.700	26.359	0.100
33.800	11.357	0.100
33.900	15.250	0.100
34.000	3.776	0.100
34.100	4.717	0.100
34.200	25.513	0.100
34.300	16.851	0.100
34.400	20.222	0.100
34.500	12.024	0.100
34.600	17.353	0.100
34.700	32.450	0.100
34.800	19.631	0.100
34.900	20.571	0.100
35.000	9.990	0.099
35.100	15.761	0.100
35.200	12.138	0.100
35.300	9.951	0.100
35.400	21.291	0.099
35.500	8.714	0.100
35.600	30.087	0.100
35.700	25.897	0.100
35.800	31.488	0.100
35.900	11.196	0.100
36.000	16.743	0.100
36.100	35.283	0.100
36.200	20.188	0.100
36.300	1.953	0.100
36.400	11.720	0.100
36.500	36.266	0.100
36.600	20.644	0.100
36.700	16.608	0.100
36.800	21.935	0.100
36.900	21.084	0.100
37.000	25.085	0.100
37.100	24.608	0.100
37.200	24.851	0.100
37.300	38.018	0.100
37.400	13.819	0.100
37.500	24.984	0.100
37.600	6.823	0.100
37.700	13.842	0.100
37.800	33.356	0.100
37.900	11.909	0.100
38.000	22.105	0.100
38.100	22.906	0.100
38.200	12.557	0.100
38.300	20.404	0.100
38.400	21.697	0.100
38.500	12.075	0.100
38.600	25.723	0.100
38.700	20.584	0.100
38.800	33.217	0.100
38.900	22.507	0.100
39.000	24.092	0.100
39.100	28.073	0.100
39.200	18.048	0.100
39.300	28.002	0.100
39.400	25.814	0.100
39.500	12.158	0.100
39.600	15.579	0.100
39.700	19.928	0.100
39.800	12.924	0.100
39.900	3.572	0.100
40.000	34.359	0.100
40.100	29.138	0.100
40.200	14.381	0.100
40.300	20.487	0.100
40.400	29.830	0.100
40.500	41.818	0.100
40.600	23.352	0.100
40.700	32.330	0.100
40.800	25.111	0.100
40.900	19.641	0.100
41.000	34.825	0.100
41.100	15.258	0.100
41.200	29.081	0.100
41.300	20.759	0.100
41.400	24.584	0.100
41.500	21.545	0.100
41.600	15.538	0.100
41.700	24.571	0.100
41.800	24.482	0.100
41.900	27.694	0.100
42.000	28.445	0.100
42.100	31.656	0.100
42.200	14.096	0.100
42.300	12.402	0.100
42.400	19.912	0.100
42.500	23.148	0.100
42.600	24.094	0.100
42.700	19.362	0.100
42.800	26.153	0.100
42.900	21.813	0.100
43.000	30.714	0.100
43.100	9.095	0.100
43.200	34.243	0.100
43.300	21.039	0.100
43.400	22.920	0.100
43.500	29.118	0.100
43.600	31.918	0.100
43.700	23.721	0.100
43.800	7.656	0.100
43.900	23.581	0.100
44.000	23.783	0.100
44.100	26.983	0.100
44.200	22.453	0.100
44.300	26.453	0.100
44.400	23.373	0.100
44.500	25.456	0.100
44.600	14.257	0.100
44.700	21.226	0.100
44.800	14.534	0.100
44.900	26.186	0.100
45.000	31.437	0.100
45.100	13.826	0.100
45.200	9.671	0.100
45.300	28.202	0.100
45.400	24.329	0.099
45.500	21.675	0.100
45.600	30.849	0.100
45.700	26.510	0.100
45.800	18.103	0.099
45.900	30.417	0.099
46.000	30.483	0.100
46.100	22.744	0.100
46.200	25.684	0.100
46.300	30.703	0.100
46.400	25.952	0.100
46.500	32.594	0.099
46.600	22.477	0.099
46.700	-0.091	0.100
46.800	34.642	0.100
46.900	14.604	0.100
47.000	14.522	0.100
47.100	38.705	0.100
47.200	28.209	0.100
47.300	25.333	0.100
47.400	20.033	0.100
47.500	30.126	0.100
47.600	27.265	0.100
47.700	25.475	0.100
47.800	11.158	0.100
47.900	34.447	0.100
48.000	41.586	0.100
48.100	27.744	0.100
48.200	19.863	0.100
48.300	19.598	0.100
48.400	25.600	0.100
48.500	3.817	0.100
48.600	35.935	0.100
48.700	11.201	0.100
48.800	23.896	0.099
48.900	24.944	0.100
49.000	23.353	0.100
49.100	35.340	0.100
49.200	19.601	0.099
49.300	24.857	0.100
49.400	18.760	0.100
49.500	20.288	0.100
49.600	20.332	0.100
49.700	28.601	0.100
49.800	22.179	0.100
49.900	27.597	0.100
50.000	15.208	0.100
50.100	29.367	0.100
50.200	21.352	0.100
50.300	23.717	0.100
50.400	19.426	0.100
50.500	19.399	0.100
50.600	20.439	0.100
50.700	27.560	0.100
50.800	18.155	0.100
50.900	33.013	0.100
51.000	26.043	0.100
51.100	23.787	0.100
51.200	28.574	0.100
51.300	13.150	0.100
51.400	13.821	0.100
51.500	42.099	0.100
51.600	34.200	0.100
51.700	5.448	0.100
51.800	18.716	0.100
51.900	34.485	0.100
52.000	21.652	0.100
52.100	21.648	0.100
52.200	13.453	0.100
52.300	19.740	0.100
52.400	17.531	0.100
52.500	20.265	0.100
52.600	27.937	0.100
52.700	30.229	0.100
52.800	15.618	0.100
52.900	24.182	0.100
53.000	23.841	0.099
53.100	30.788	0.100
53.200	29.447	0.100
53.300	28.738	0.100
53.400	27.878	0.100
53.500	27.670	0.100
53.600	35.401	0.100
53.700	18.832	0.100
53.800	16.593	0.100
53.900	26.930	0.100
54.000	25.321	0.100
54.100	24.662	0.100
54.200	20.342	0.100
54.300	31.927	0.100
54.400	10.611	0.100
54.500	33.565	0.100
54.600	23.467	0.100
54.700	22.368	0.100
54.800	32.417	0.100
54.900	15.807	0.100
55.000	27.860	0.100
55.100	21.634	0.100
55.200	24.171	0.100
55.300	42.117	0.100
55.400	24.794	0.100
55.500	5.860	0.100
55.600	19.733	0.100
55.700	36.699	0.100
55.800	29.517	0.100
55.900	10.953	0.100
56.000	40.540	0.100
56.100	34.378	0.100
56.200	22.887	0.100
56.300	23.563	0.100
56.400	29.506	0.099
56.500	26.726	0.100
56.600	11.591	0.100
56.700	32.712	0.100
56.800	14.964	0.100
56.900	22.338	0.100
57.000	24.796	0.099
57.100	27.843	0.100
57.200	14.144	0.100
57.300	35.364	0.100
57.400	-5.238	0.100
57.500	27.688	0.100
57.600	23.622	0.100
57.700	19.894	0.100
57.800	15.240	0.100
57.900	27.304	0.100
58.000	10.696	0.100
58.100	30.974	0.099
58.200	31.365	0.100
58.300	13.110	0.100
58.400	25.459	0.100
58.500	11.868	0.100
58.600	18.191	0.100
58.700	28.760	0.100
58.800	35.082	0.100
58.900	11.959	0.099
59.000	17.350	0.100
59.100	26.533	0.100
59.200	19.465	0.100
59.300	26.268	0.100
59.400	24.606	0.100
59.500	30.383	0.100
59.600	22.407	0.100
59.700	7.147	0.100
59.800	28.985	0.100
59.900	27.595	0.100
60.000	11.297	0.100
60.100	13.493	0.100
60.200	27.193	0.100
60.300	16.490	0.100
60.400	24.240	0.100
60.500	26.728	0.099
60.600	20.045	0.100
60.700	42.998	0.100
60.800	24.205	0.100
60.900	35.587	0.100
61.000	29.033	0.100
61.100	36.121	0.099
61.200	32.922	0.100
61.300	14.585	0.100
61.400	22.914	0.100
61.500	29.334	0.100
61.600	23.443	0.100
61.700	24.353	0.100
61.800	29.117	0.100
61.900	25.120	0.100
62.000	35.916	0.100
62.100	12.470	0.100
62.200	16.860	0.099
62.300	7.076	0.100
62.400	35.013	0.100
62.500	32.463	0.100
62.600	27.774	0.099
62.700	27.813	0.099
62.800	16.321	0.099
62.900	31.602	0.099
63.000	25.753	0.100
63.100	9.814	0.100
63.200	25.623	0.100
63.300	25.262	0.100
63.400	34.809	0.100
63.500	14.839	0.100
63.600	18.923	0.099
63.700	25.455	0.099
63.800	14.040	0.099
63.900	21.889	0.099
64.000	17.409	0.100
64.100	33.414	0.099
64.200	24.719	0.100
64.300	30.948	0.100
64.400	20.824	0.100
64.500	22.277	0.100
64.600	22.544	0.099
64.700	19.996	0.099
64.800	18.659	0.100
64.900	40.192	0.100
65.000	14.635	0.099
65.100	22.952	0.100
65.200	27.095	0.099
65.300	32.235	0.099
65.400	28.607	0.100
65.500	19.331	0.099
65.600	32.445	0.099
65.700	23.728	0.099
65.800	22.983	0.099
65.900	24.504	0.100
66.000	31.780	0.099
66.100	19.771	0.099
66.200	17.125	0.099
66.300	37.219	0.099
66.400	11.861	0.099
66.500	21.527	0.099
66.600	16.923	0.099
66.700	23.196	0.099
66.800	5.325	0.099
66.900	26.920	0.099
67.000	28.471	0.099
67.100	27.428	0.099
67.200	28.939	0.100
67.300	33.316	0.099
67.400	23.274	0.099
67.500	5.114	0.099
67.600	22.811	0.099
67.700	16.816	0.099
67.800	15.613	0.099
67.900	45.424	0.099
68.000	23.620	0.099
68.100	29.466	0.099
68.200	20.068	0.099
68.300	19.231	0.100
68.400	20.977	0.099
68.500	24.980	0.099
68.600	26.408	0.100
68.700	11.291	0.099
68.800	19.905	0.099
68.900	34.018	0.099
69.000	35.472	0.099
69.100	21.230	0.099
69.200	33.976	0.099
69.300	15.100	0.099
69.400	21.406	0.099
69.500	34.931	0.099
69.600	28.735	0.099
69.700	22.386	0.099
69.800	23.694	0.099
69.900	32.881	0.099
70.000	19.546	0.099
70.100	16.585	0.099
70.200	29.286	0.099
70.300	28.758	0.099
70.400	26.484	0.099
70.500	10.418	0.100
70.600	19.908	0.099
70.700	15.068	0.099
70.800	21.859	0.099
70.900	32.537	0.099
71.000	19.809	0.099
71.100	13.265	0.099
71.200	20.167	0.099
71.300	36.329	0.099
71.400	35.937	0.100
71.500	18.558	0.099
71.600	37.633	0.099
71.700	24.724	0.099
71.800	25.859	0.099
71.900	15.539	0.099
72.000	30.521	0.099
72.100	27.803	0.099
72.200	25.045	0.099
72.300	31.029	0.099
72.400	27.867	0.099
72.500	17.114	0.099
72.600	27.127	0.099
72.700	36.379	0.099
72.800	30.830	0.099
72.900	22.916	0.099
73.000	37.184	0.099
73.100	20.122	0.099
73.200	6.966	0.099
73.300	10.687	0.099
73.400	37.556	0.099
73.500	27.820	0.099
73.600	26.489	0.099
73.700	30.641	0.099
73.800	22.427	0.099
73.900	22.361	0.099
74.000	38.231	0.099
74.100	27.935	0.099
74.200	20.623	0.099
74.300	17.065	0.099
74.400	40.153	0.099
74.500	13.900	0.099
74.600	27.411	0.099
74.700	18.579	0.099
74.800	20.515	0.099
74.900	25.564	0.099
75.000	31.458	0.099
75.100	25.881	0.099
75.200	31.432	0.099
75.300	11.639	0.099
75.400	34.464	0.099
75.500	27.999	0.099
75.600	27.783	0.099
75.700	36.416	0.099
75.800	-1.438	0.099
75.900	24.095	0.099
76.000	35.139	0.099
76.100	17.223	0.099
76.200	12.388	0.099
76.300	45.432	0.099
76.400	40.695	0.099
76.500	21.462	0.099
76.600	18.063	0.099
76.700	22.529	0.099
76.800	18.412	0.099
76.900	47.607	0.099
77.000	26.297	0.099
77.100	1.793	0.099
77.200	20.289	0.099
77.300	24.307	0.099
77.400	27.887	0.099
77.500	40.050	0.099
77.600	31.977	0.099
77.700	36.728	0.099
77.800	24.384	0.099
77.900	29.686	0.099
78.000	15.825	0.099
78.100	24.121	0.099
78.200	16.079	0.099
78.300	16.836	0.099
78.400	19.734	0.099
78.500	20.830	0.099
78.600	22.314	0.099
78.700	21.717	0.099
78.800	25.395	0.099
78.900	32.109	0.099
79.000	19.802	0.099
79.100	28.834	0.099
79.200	28.059	0.099
79.300	29.730	0.099
79.400	8.271	0.099
79.500	18.740	0.099
79.600	31.680	0.099
79.700	31.039	0.099
79.800	28.364	0.099
79.900	37.068	0.099
80.000	15.276	0.099
80.100	19.707	0.099
80.200	20.707	0.099
80.300	17.114	0.099
80.400	13.654	0.099
80.500	41.126	0.099
80.600	28.393	0.099
80.700	10.385	0.099
80.800	24.879	0.099
80.900	21.404	0.099
81.000	35.718	0.099
81.100	28.235	0.099
81.200	29.544	0.099
81.300	20.888	0.099
81.400	25.287	0.099
81.500	31.214	0.099
81.600	28.731	0.099
81.700	6.126	0.099
81.800	22.487	0.099
81.900	27.766	0.099
82.000	25.305	0.099
82.100	8.781	0.099
82.200	20.970	0.099
82.300	30.552	0.099
82.400	24.349	0.099
82.500	22.674	0.099
82.600	19.536	0.099
82.700	27.896	0.099
82.800	23.440	0.099
82.900	5.094	0.099
83.000	24.044	0.099
83.100	20.027	0.099
83.200	18.260	0.099
83.300	27.170	0.099
83.400	33.308	0.099
83.500	28.037	0.099
83.600	0.845	0.099
83.700	24.167	0.099
83.800	36.712	0.099
83.900	34.885	0.099
84.000	28.488	0.099
84.100	16.514	0.099
84.200	31.953	0.099
84.300	26.693	0.099
84.400	25.338	0.099
84.500	26.975	0.099
84.600	37.413	0.099
84.700	16.169	0.099
84.800	23.505	0.099
84.900	19.960	0.099
85.000	33.750	0.099
85.100	30.315	0.099
85.200	24.905	0.099
85.300	31.176	0.099
85.400	36.278	0.099
85.500	12.911	0.099
85.600	22.302	0.099
85.700	27.306	0.099
85.800	22.040	0.099
85.900	11.466	0.099
86.000	10.026	0.099
86.100	37.437	0.099
86.200	29.697	0.099
86.300	16.349	0.099
86.400	25.479	0.099
86.500	36.037	0.099
86.600	25.523	0.099
86.700	12.020	0.099
86.800	33.386	0.099
86.900	29.162	0.099
87.000	37.163	0.099
87.100	9.249	0.099
87.200	6.342	0.099
87.300	22.444	0.099
87.400	25.361	0.099
87.500	14.711	0.099
87.600	31.406	0.099
87.700	27.272	0.099
87.800	34.357	0.099
87.900	32.670	0.099
88.000	26.997	0.099
88.100	28.174	0.099
88.200	17.203	0.099
88.300	12.133	0.099
88.400	41.437	0.099
88.500	25.456	0.099
88.600	22.021	0.099
88.700	32.752	0.099
88.800	10.926	0.099
88.900	28.635	0.099
89.000	39.423	0.099
89.100	11.804	0.099
89.200	29.622	0.099
89.300	33.434	0.099
89.400	37.083	0.099
89.500	12.612	0.099
89.600	19.574	0.099
89.700	20.137	0.099
89.800	30.971	0.099
89.900	23.548	0.099
90.000	31.747	0.099
90.100	29.023	0.099
90.200	14.881	0.099
90.300	20.891	0.099
90.400	19.387	0.099
90.500	10.188	0.099
90.600	23.270	0.099
90.700	34.940	0.099
90.800	14.250	0.099
90.900	8.696	0.099
91.000	18.000	0.099
91.100	12.114	0.099
91.200	5.591	0.099
91.300	10.315	0.099
91.400	15.241	0.099
91.500	14.714	0.099
91.600	6.412	0.099
91.700	13.600	0.099
91.800	11.028	0.099
91.900	7.393	0.099
92.000	23.139	0.099
92.100	24.820	0.099
92.200	0.776	0.099
92.300	15.860	0.099
92.400	12.976	0.099
92.500	14.522	0.099
92.600	-1.714	0.099
92.700	2.618	0.099
92.800	12.883	0.099
92.900	13.805	0.099
93.000	1.827	0.099
93.100	-3.335	0.099
93.200	2.945	0.099
93.300	11.207	0.099
93.400	-8.327	0.099
93.500	-4.144	0.099
93.600	6.068	0.099
93.700	4.944	0.099
93.800	-11.097	0.099
93.900	-1.734	0.099
94.000	13.293	0.099
94.100	5.411	0.099
94.200	1.170	0.099
94.300	1.373	0.099
94.400	0.474	0.099
94.500	-4.597	0.099
94.600	24.624	0.099
94.700	2.094	0.099
94.800	-15.775	0.099
94.900	-4.848	0.099
95.000	13.867	0.099
95.100	-9.253	0.099
95.200	11.899	0.099
95.300	12.256	0.099
95.400	-1.724	0.099
95.500	9.420	0.099
95.600	3.532	0.099
95.700	-1.005	0.099
95.800	-6.683	0.099
95.900	-3.682	0.099
96.000	-1.585	0.099
96.100	22.700	0.099
96.200	6.422	0.099
96.300	14.971	0.099
96.400	10.160	0.099
96.500	-20.307	0.099
96.600	-0.843	0.099
96.700	14.543	0.099
96.800	-4.020	0.099
96.900	-6.572	0.099
97.000	0.937	0.099
97.100	-27.632	0.099
97.200	-3.081	0.099
97.300	7.230	0.099
97.400	4.910	0.099
97.500	9.904	0.099
97.600	-11.905	0.099
97.700	9.546	0.099
97.800	11.032	0.099
97.900	-15.003	0.099
98.000	-0.273	0.099
98.100	9.980	0.099
98.200	-0.721	0.099
98.300	3.676	0.099
98.400	11.298	0.099
98.500	6.186	0.099
98.600	-3.207	0.099
98.700	-2.332	0.099
98.800	-2.575	0.099
98.900	-6.745	0.099
99.000	16.885	0.099
99.100	3.525	0.099
99.200	-10.552	0.099
99.300	4.294	0.099
99.400	-13.951	0.099
99.500	-3.427	0.099
99.600	-6.725	0.099
99.700	3.524	0.099
99.800	3.636	0.099
99.900	7.196	0.099
100.000	5.970	0.099
100.100	-1.322	0.099
100.200	-5.641	0.099
100.300	-16.944	0.099
100.400	-5.483	0.099
100.500	-7.679	0.099
100.600	7.314	0.099
100.700	6.284	0.099
100.800	3.216	0.099
100.900	7.843	0.099
101.000	-19.720	0.099
101.100	3.531	0.099
101.200	-4.861	0.099
101.300	2.271	0.099
101.400	-11.545	0.099
101.500	2.383	0.099
101.600	-1.867	0.099
101.700	-9.692	0.099
101.800	-5.381	0.099
101.900	-3.610	0.099
102.000	3.838	0.099
102.100	-6.591	0.099
102.200	-5.772	0.099
102.300	-9.797	0.099
102.400	-10.244	0.099
102.500	-3.355	0.099
102.600	-6.340	0.099
102.700	-17.180	0.099
102.800	-5.698	0.099
102.900	4.789	0.099
103.000	-2.779	0.099
103.100	-9.549	0.099
103.200	4.312	0.099
103.300	-4.460	0.099
103.400	-21.497	0.099
103.500	3.659	0.099
103.600	-9.663	0.099
103.700	5.732	0.099
103.800	-4.438	0.099
103.900	-2.752	0.099
104.000	3.537	0.099
104.100	-16.843	0.099
104.200	-18.653	0.099
104.300	4.985	0.099
104.400	-4.173	0.099
104.500	-17.915	0.099
104.600	-5.582	0.099
104.700	-4.861	0.099
104.800	-1.338	0.099
104.900	-5.884	0.099
105.000	2.057	0.099
105.100	15.109	0.099
105.200	-9.749	0.099
105.300	-26.038	0.099
105.400	-26.473	0.099
105.500	0.774	0.099
105.600	21.070	0.099
105.700	-0.726	0.099
105.800	-3.274	0.099
105.900	-3.745	0.099
106.000	-16.325	0.099
106.100	-4.283	0.099
106.200	2.717	0.099
106.300	0.666	0.099
106.400	-9.834	0.099
106.500	6.597	0.099
106.600	-21.748	0.099
106.700	1.045	0.099
106.800	-4.716	0.099
106.900	-7.633	0.099
107.000	-5.948	0.099
107.100	-11.247	0.099
107.200	9.775	0.099
107.300	-16.454	0.099
107.400	0.097	0.099
107.500	-7.587	0.099
107.600	-2.856	0.099
107.700	-11.398	0.099
107.800	-7.354	0.099
107.900	-7.120	0.099
108.000	-7.673	0.099
108.100	-11.922	0.099
108.200	-16.290	0.099
108.300	-4.939	0.099
108.400	-13.084	0.099
108.500	-11.008	0.099
108.600	-10.609	0.099
108.700	-0.092	0.099
108.800	-3.705	0.099
108.900	-4.249	0.099
109.000	-15.773	0.099
109.100	0.521	0.099
109.200	-6.368	0.099
109.300	-8.185	0.099
109.400	-15.704	0.099
109.500	6.806	0.099
109.600	-2.988	0.099
109.700	1.490	0.099
109.800	-16.832	0.099
109.900	2.989	0.099
110.000	-9.181	0.099
110.100	-15.110	0.099
110.200	-10.359	0.099
110.300	-12.862	0.099
110.400	-12.576	0.099
110.500	-8.783	0.099
110.600	-2.037	0.099
110.700	-3.146	0.099
110.800	-12.308	0.099
110.900	-0.571	0.099
111.000	-6.187	0.099
111.100	-6.406	0.099
111.200	-23.280	0.099
111.300	-4.027	0.099
111.400	-5.818	0.099
111.500	-4.552	0.099
111.600	-21.784	0.099
111.700	1.851	0.099
111.800	-10.897	0.099
111.900	-12.565	0.099
112.000	-6.625	0.099
112.100	-8.085	0.099
112.200	-9.450	0.099
112.300	-3.412	0.099
112.400	-21.963	0.099
112.500	0.925	0.099
112.600	-7.252	0.099
112.700	-12.580	0.099
112.800	-10.514	0.099
112.900	-6.723	0.099
113.000	-9.971	0.099
113.100	-6.692	0.099
113.200	-8.251	0.099
113.300	-9.661	0.099
113.400	2.239	0.099
113.500	-16.400	0.099
113.600	-16.718	0.099
113.700	-18.588	0.099
113.800	-17.692	0.099
113.900	-15.185	0.099
114.000	-11.508	0.099
114.100	-6.884	0.099
114.200	-2.611	0.099
114.300	-6.264	0.099
114.400	-8.925	0.099
114.500	-0.728	0.099
114.600	-7.598	0.099
114.700	-13.053	0.099
114.800	-11.992	0.099
114.900	-15.660	0.099
115.000	-6.826	0.099
115.100	2.699	0.099
115.200	-11.018	0.099
115.300	-25.521	0.099
115.400	-24.779	0.099
115.500	-16.081	0.099
115.600	-10.810	0.099
115.700	0.581	0.099
115.800	-18.631	0.099
115.900	-5.509	0.099
116.000	-8.182	0.099
116.100	-29.124	0.099
116.200	-28.677	0.099
116.300	-13.928	0.099
116.400	3.490	0.099
116.500	-10.893	0.099
116.600	-3.602	0.099
116.700	-9.226	0.099
116.800	-17.541	0.099
116.900	-15.745	0.099
117.000	0.566	0.099
117.100	-11.063	0.099
117.200	-12.494	0.099
117.300	-1.149	0.099
117.400	3.726	0.099
117.500	-6.027	0.099
117.600	-14.097	0.099
117.700	0.989	0.099
117.800	-13.027	0.099
117.900	-13.623	0.099
118.000	-13.155	0.099
118.100	-26.021	0.099
118.200	-9.794	0.099
118.300	-20.481	0.099
118.400	-3.211	0.099
118.500	-10.189	0.099
118.600	-11.080	0.099
118.700	-1.151	0.099
118.800	-17.044	0.099
118.900	-12.110	0.099
119.000	-24.470	0.099
119.100	-4.155	0.099
119.200	-5.498	0.099
119.300	-10.547	0.099
119.400	-12.220	0.099
119.500	-14.116	0.099
119.600	-12.666	0.099
119.700	-7.613	0.099
119.800	-11.606	0.099
119.900	-18.965	0.099
120.000	-17.790	0.099
120.100	-11.982	0.099
120.200	-16.045	0.099
120.300	-12.282	0.099
120.400	-7.573	0.099
120.500	-10.241	0.099
120.600	-13.674	0.099
120.700	-5.651	0.099
120.800	-12.382	0.099
120.900	-8.575	0.099
121.000	1.825	0.099
121.100	-6.880	0.099
121.200	-20.858	0.099
121.300	-7.135	0.099
121.400	2.679	0.099
121.500	-16.833	0.099
121.600	-18.066	0.099
121.700	-26.549	0.099
121.800	-6.270	0.099
121.900	-29.234	0.099
122.000	-10.659	0.099
122.100	-13.582	0.099
122.200	-29.677	0.099
122.300	-17.135	0.099
122.400	-6.444	0.099
122.500	-3.595	0.099
122.600	-13.982	0.099
122.700	-1.694	0.099
122.800	-5.281	0.099
122.900	-13.928	0.099
123.000	-3.658	0.099
123.100	-9.309	0.099
123.200	-16.802	0.099
123.300	-24.429	0.099
123.400	-3.807	0.099
123.500	-3.885	0.099
123.600	-15.876	0.099
123.700	-20.309	0.099
123.800	2.121	0.099
123.900	-18.334	0.099
124.000	-10.909	0.099
124.100	-18.109	0.099
124.200	0.336	0.099
124.300	-4.724	0.099
124.400	-18.426	0.099
124.500	-11.129	0.099
124.600	-1.793	0.099
124.700	-1.266	0.099
124.800	-14.966	0.099
124.900	-15.525	0.099
125.000	-21.999	0.099
125.100	-25.803	0.099
125.200	0.450	0.099
125.300	-11.952	0.099
125.400	0.424	0.099
125.500	-1.587	0.099
125.600	-24.259	0.099
125.700	-7.902	0.099
125.800	-13.795	0.099
125.900	-15.295	0.099
126.000	-7.287	0.099
126.100	-15.372	0.099
126.200	-14.066	0.099
126.300	-11.264	0.099
126.400	-13.048	0.099
126.500	-13.067	0.099
126.600	-14.693	0.099
126.700	-17.611	0.099
126.800	-2.676	0.099
126.900	-12.493	0.099
127.000	-27.838	0.099
127.100	-15.775	0.099
127.200	-24.199	0.099
127.300	8.529	0.099
127.400	-9.627	0.099
127.500	-7.769	0.099
127.600	-12.827	0.099
127.700	-14.982	0.099
127.800	-29.370	0.099
127.900	-7.252	0.099
128.000	-11.915	0.099
128.100	0.919	0.099
128.200	-14.216	0.099
128.300	-9.486	0.099
128.400	-4.703	0.099
128.500	-13.970	0.099
128.600	-26.620	0.099
128.700	-7.730	0.099
128.800	-4.846	0.099
128.900	-14.245	0.099
129.000	-13.820	0.099
129.100	-18.893	0.099
129.200	-18.939	0.099
129.300	-15.680	0.099
129.400	-7.371	0.099
129.500	-9.380	0.099
129.600	-10.662	0.099
129.700	-11.060	0.099
129.800	4.171	0.099
129.900	3.060	0.099
130.000	2.053	0.099
130.100	-3.914	0.099
130.200	-26.320	0.099
130.300	-24.043	0.099
130.400	-0.064	0.099
130.500	-3.268	0.099
130.600	-6.266	0.099
130.700	-20.847	0.099
130.800	-12.029	0.099
130.900	-4.872	0.099
131.000	-17.612	0.099
131.100	-8.303	0.099
131.200	-19.834	0.099
131.300	-20.380	0.099
131.400	-22.536	0.099
131.500	-2.570	0.099
131.600	-13.856	0.099
131.700	4.063	0.099
131.800	-12.187	0.099
131.900	-20.533	0.099
132.000	-11.705	0.099
132.100	-3.981	0.099
132.200	-5.955	0.099
132.300	-7.824	0.099
132.400	-12.919	0.099
132.500	-14.041	0.099
132.600	-18.151	0.099
132.700	-11.807	0.099
132.800	-8.853	0.099
132.900	-36.848	0.099
133.000	-23.100	0.099
133.100	-7.386	0.099
133.200	-9.973	0.099
133.300	-16.378	0.099
133.400	-5.089	0.099
133.500	-12.278	0.099
133.600	-18.598	0.099
133.700	-4.127	0.099
133.800	-9.803	0.099
133.900	-8.186	0.099
134.000	-25.271	0.099
134.100	-20.592	0.099
134.200	-15.937	0.099
134.300	-13.856	0.099
134.400	-9.188	0.099
134.500	-15.060	0.099
134.600	-1.886	0.099
134.700	-21.543	0.099
134.800	-9.263	0.099
134.900	-11.320	0.099
135.000	-19.986	0.099
135.100	-13.257	0.099
135.200	-2.292	0.099
135.300	-13.670	0.099
135.400	-30.134	0.099
135.500	2.652	0.099
135.600	-5.685	0.099
135.700	-7.459	0.099
135.800	-9.429	0.099
135.900	-5.825	0.099
136.000	-16.104	0.099
136.100	-8.565	0.099
136.200	-13.229	0.099
136.300	-4.309	0.099
136.400	-19.212	0.099
136.500	-11.486	0.099
136.600	-4.989	0.099
136.700	-22.429	0.099
136.800	1.626	0.099
136.900	-11.189	0.099
137.000	-15.399	0.099
137.100	-10.133	0.099
137.200	-5.641	0.099
137.300	-26.583	0.099
137.400	-4.988	0.099
137.500	-15.569	0.099
137.600	-7.443	0.099
137.700	-12.254	0.100
137.800	-14.493	0.100
137.900	-9.113	0.100
138.000	4.338	0.100
138.100	3.291	0.100
138.200	-20.144	0.100
138.300	-11.671	0.100
138.400	-3.687	0.100
138.500	-3.657	0.100
138.600	-27.465	0.100
138.700	-10.824	0.100
138.800	-14.536	0.100
138.900	-2.755	0.100
139.000	-7.921	0.100
139.100	-9.311	0.100
139.200	1.276	0.100
139.300	-23.999	0.100
139.400	-14.380	0.100
139.500	2.980	0.100
139.600	-2.971	0.100
139.700	-10.195	0.100
139.800	-6.091	0.100
139.900	-7.686	0.100
140.000	-19.443	0.100
140.100	-7.802	0.100
140.200	0.769	0.100
140.300	-20.043	0.100
140.400	-9.451	0.100
140.500	-27.703	0.100
140.600	-9.053	0.100
140.700	2.403	0.100
140.800	-17.747	0.100
140.900	-10.360	0.100
141.000	-5.907	0.100
141.100	-19.798	0.100
141.200	-8.146	0.100
141.300	-10.232	0.100
141.400	-11.285	0.100
141.500	-32.976	0.100
141.600	-3.609	0.100
141.700	-16.372	0.100
141.800	-21.037	0.100
141.900	-9.741	0.100
142.000	-8.029	0.100
142.100	-14.619	0.100
142.200	-17.431	0.100
142.300	-1.812	0.100
142.400	-16.203	0.100
142.500	-4.329	0.100
142.600	-16.628	0.100
142.700	-19.683	0.100
142.800	-13.438	0.100
142.900	-24.341	0.100
143.000	-16.987	0.100
143.100	5.418	0.100
143.200	-3.945	0.100
143.300	-4.449	0.100
143.400	-14.894	0.100
143.500	-7.639	0.100
143.600	-15.055	0.100
143.700	6.915	0.100
143.800	-20.442	0.100
143.900	-28.422	0.100
144.000	-6.793	0.100
144.100	3.805	0.100
144.200	0.891	0.100
144.300	-19.580	0.100
144.400	-6.713	0.100
144.500	-7.390	0.100
144.600	-6.663	0.100
144.700	-11.119	0.100
144.800	-15.219	0.100
144.900	-14.580	0.100
145.000	-13.994	0.100
145.100	0.628	0.100
145.200	-5.257	0.100
145.300	0.743	0.100
145.400	-13.646	0.100
145.500	-4.723	0.100
145.600	-3.371	0.100
145.700	-6.191	0.100
145.800	-11.546	0.100
145.900	12.603	0.100
146.000	4.269	0.100
146.100	-21.318	0.100
146.200	-12.226	0.100
146.300	-5.830	0.100
146.400	-5.872	0.100
146.500	-12.192	0.100
146.600	-5.453	0.100
146.700	2.160	0.100
146.800	-9.919	0.100
146.900	-12.065	0.100
147.000	-16.441	0.100
147.100	-11.695	0.100
147.200	6.597	0.100
147.300	-3.118	0.100
147.400	-13.284	0.100
147.500	-12.389	0.100
147.600	-13.887	0.100
147.700	-11.839	0.100
147.800	-2.489	0.100
147.900	-6.662	0.100
148.000	-13.743	0.100
148.100	-18.281	0.100
148.200	-22.075	0.100
148.300	3.731	0.100
148.400	-5.860	0.100
148.500	-10.187	0.100
148.600	-1.193	0.100
148.700	-11.805	0.100
148.800	-4.046	0.100
148.900	-9.763	0.100
149.000	-17.409	0.100
149.100	-7.990	0.100
149.200	-8.618	0.100
149.300	-6.707	0.100
149.400	-2.907	0.100
149.500	-25.108	0.100
149.600	10.458	0.100
149.700	-2.508	0.100
149.800	-2.412	0.100
149.900	-15.734	0.100
150.000	-5.213	0.100
150.100	-5.816	0.100
150.200	-16.965	0.100
150.300	2.306	0.100
150.400	-19.424	0.100
150.500	-2.567	0.100
150.600	-4.982	0.100
150.700	-0.860	0.100
150.800	-4.066	0.100
150.900	-17.367	0.100
151.000	-10.565	0.100
151.100	-3.182	0.100
151.200	2.267	0.100
151.300	0.771	0.100
151.400	-14.115	0.100
151.500	-10.311	0.100
151.600	-26.228	0.100
151.700	-21.137	0.100
151.800	-4.144	0.100
151.900	7.161	0.100
152.000	-13.915	0.100
152.100	-12.486	0.100
152.200	6.997	0.100
152.300	-10.238	0.100
152.400	0.872	0.100
152.500	-8.814	0.100
152.600	-3.711	0.100
152.700	-23.545	0.100
152.800	-10.503	0.100
152.900	-1.169	0.100
153.000	-5.580	0.100
153.100	-16.497	0.100
153.200	-20.725	0.100
153.300	7.582	0.100
153.400	6.047	0.100
153.500	-0.462	0.100
153.600	-11.886	0.100
153.700	-14.662	0.100
153.800	0.981	0.100
153.900	2.619	0.100
154.000	-2.558	0.100
154.100	6.647	0.100
154.200	-10.559	0.100
154.300	-2.541	0.100
154.400	-19.589	0.100
154.500	-6.041	0.100
154.600	-14.697	0.100
154.700	-13.398	0.100
154.800	-5.537	0.100
154.900	5.015	0.100
155.000	-15.288	0.100
155.100	3.900	0.100
155.200	-7.515	0.100
155.300	-25.578	0.100
155.400	1.791	0.100
155.500	-2.460	0.100
155.600	-9.417	0.100
155.700	-2.093	0.100
155.800	-13.430	0.100
155.900	-6.547	0.100
156.000	-4.105	0.100
156.100	-8.190	0.100
156.200	-9.912	0.100
156.300	11.647	0.100
156.400	-9.448	0.100
156.500	-10.819	0.100
156.600	-2.471	0.100
156.700	-12.939	0.100
156.800	-13.281	0.100
156.900	-2.577	0.100
157.000	-17.357	0.100
157.100	2.106	0.100
157.200	-4.819	0.100
157.300	-25.092	0.100
157.400	-5.032	0.100
157.500	11.088	0.100
157.600	-19.778	0.100
157.700	-0.884	0.100
157.800	2.476	0.100
157.900	-0.792	0.100
158.000	-8.246	0.100
158.100	-8.475	0.100
158.200	-13.791	0.100
158.300	-8.990	0.100
158.400	2.109	0.100
158.500	-8.454	0.100
158.600	-12.000	0.100
158.700	0.167	0.100
158.800	-13.273	0.100
158.900	-12.528	0.100
159.000	-14.747	0.100
159.100	-10.757	0.100
159.200	-6.806	0.100
159.300	-2.941	0.100
159.400	-11.818	0.100
159.500	-6.480	0.100
159.600	0.698	0.100
159.700	-17.323	0.100
159.800	-7.399	0.100
159.900	-1.900	0.100
160.000	-6.612	0.100
160.100	-3.923	0.100
160.200	-14.004	0.100
160.300	-11.059	0.100
160.400	-2.718	0.100
160.500	1.637	0.100
160.600	-7.272	0.100
160.700	3.683	0.100
160.800	-3.308	0.100
160.900	-17.409	0.100
161.000	-9.642	0.100
161.100	-12.886	0.100
161.200	-12.822	0.100
161.300	-8.041	0.100
161.400	-9.633	0.100
161.500	-2.880	0.100
161.600	-21.787	0.100
161.700	-9.982	0.100
161.800	3.975	0.100
161.900	-7.710	0.100
162.000	-16.619	0.100
162.100	-5.436	0.100
162.200	-16.283	0.099
162.300	-0.380	0.100
162.400	-5.935	0.100
162.500	-3.401	0.100
162.600	-19.092	0.100
162.700	6.870	0.100
162.800	-16.764	0.099
162.900	-4.825	0.100
163.000	3.127	0.099
163.100	-7.108	0.100
163.200	-3.980	0.099
163.300	-2.526	0.099
163.400	-10.391	0.099
163.500	-10.337	0.100
163.600	-12.778	0.099
163.700	-1.867	0.099
163.800	-6.133	0.100
163.900	-1.576	0.100
164.000	-10.422	0.100
164.100	-11.340	0.100
164.200	-20.532	0.100
164.300	-8.365	0.100
164.400	-6.144	0.100
164.500	-27.901	0.100
164.600	7.323	0.100
164.700	9.892	0.100
164.800	-8.286	0.100
164.900	-18.037	0.100
165.000	-10.077	0.100
165.100	7.155	0.100
165.200	-6.621	0.100
165.300	-10.304	0.100
165.400	-15.481	0.100
165.500	14.301	0.100
165.600	-7.641	0.100
165.700	-13.113	0.100
165.800	-4.060	0.100
165.900	-1.296	0.100
166.000	-9.607	0.100
166.100	-13.726	0.100
166.200	1.305	0.100
166.300	-2.502	0.100
166.400	-2.334	0.100
166.500	-12.110	0.100
166.600	-6.815	0.100
166.700	-3.985	0.100
166.800	-9.802	0.100
166.900	-11.226	0.100
167.000	-11.635	0.100
167.100	-12.986	0.100
167.200	-3.334	0.100
167.300	-15.293	0.100
167.400	-1.436	0.100
167.500	-7.940	0.100
167.600	-12.963	0.100
167.700	-7.194	0.100
167.800	-4.145	0.100
167.900	-19.933	0.100
168.000	-6.887	0.100
168.100	3.666	0.100
168.200	-10.550	0.100
168.300	-0.394	0.100
168.400	-24.201	0.100
168.500	-1.119	0.100
168.600	-0.984	0.100
168.700	-13.229	0.100
168.800	-10.112	0.100
168.900	-15.817	0.100
169.000	1.106	0.100
169.100	-4.538	0.100
169.200	-8.754	0.100
169.300	-2.466	0.100
169.400	-11.301	0.100
169.500	0.939	0.100
169.600	1.160	0.100
169.700	-13.570	0.100
169.800	-11.527	0.100
169.900	1.813	0.100
170.000	-10.638	0.100
170.100	-20.824	0.100
170.200	-9.636	0.100
170.300	-3.879	0.100
170.400	1.841	0.100
170.500	-5.282	0.100
170.600	-5.721	0.100
170.700	-11.713	0.100
170.800	-2.279	0.100
170.900	-12.399	0.100
171.000	11.580	0.100
171.100	-12.471	0.099
171.200	-12.410	0.099
171.300	-4.404	0.100
171.400	1.408	0.100
171.500	-9.226	0.100
171.600	-6.112	0.100
171.700	-3.181	0.100
171.800	-22.940	0.100
171.900	-6.539	0.100
172.000	-2.800	0.100
172.100	-10.331	0.100
172.200	1.077	0.100
172.300	-19.596	0.100
172.400	-0.286	0.100
172.500	-18.937	0.100
172.600	-5.601	0.100
172.700	-7.761	0.100
172.800	1.772	0.100
172.900	6.171	0.100
173.000	-6.334	0.100
173.100	13.668	0.100
173.200	-7.052	0.100
173.300	-11.192	0.100
173.400	-14.802	0.100
173.500	-12.843	0.100
173.600	-16.758	0.100
173.700	-10.090	0.100
173.800	-4.009	0.100
173.900	-6.533	0.100
174.000	-21.697	0.099
174.100	-9.309	0.100
174.200	5.428	0.100
174.300	-4.859	0.100
174.400	-27.886	0.100
174.500	2.390	0.100
174.600	-8.231	0.100
174.700	0.537	0.100
174.800	3.716	0.100
174.900	-7.907	0.100
175.000	-17.165	0.100
175.100	-0.048	0.099
175.200	-13.172	0.100
175.300	-15.048	0.100
175.400	-12.329	0.100
175.500	-0.889	0.100
175.600	-14.961	0.100
175.700	-16.255	0.100
175.800	-1.967	0.100
175.900	-19.380	0.100
176.000	-6.826	0.100
176.100	-17.042	0.100
176.200	3.555	0.100
176.300	-14.183	0.099
176.400	-29.465	0.100
176.500	-1.087	0.100
176.600	10.865	0.100
176.700	-6.161	0.099
176.800	-10.420	0.100
176.900	-2.780	0.100
177.000	-2.360	0.100
177.100	-1.790	0.100
177.200	-11.075	0.100
177.300	-2.719	0.100
177.400	-7.025	0.100
177.500	-11.559	0.100
177.600	-16.850	0.100
177.700	1.585	0.100
177.800	-9.375	0.100
177.900	-15.124	0.100
178.000	-2.862	0.100
178.100	3.157	0.100
178.200	-7.372	0.100
178.300	-8.111	0.100
178.400	-0.874	0.099
178.500	-1.246	0.100
178.600	-19.187	0.100
178.700	-8.365	0.100
178.800	-3.014	0.100
178.900	0.255	0.100
179.000	-10.836	0.100
179.100	-12.346	0.100
179.200	-15.603	0.100
179.300	2.788	0.100
179.400	13.080	0.100
179.500	-18.998	0.100
179.600	-9.870	0.100
179.700	0.449	0.100
179.800	-0.555	0.100
179.900	-20.767	0.100
180.000	-1.943	0.100
180.100	-15.893	0.100
180.200	5.166	0.100
180.300	3.323	0.100
180.400	3.708	0.100
180.500	-10.654	0.100
180.600	-3.408	0.100
180.700	0.109	0.100
180.800	-3.490	0.100
180.900	-2.746	0.100
181.000	2.297	0.100
181.100	4.542	0.100
181.200	12.790	0.100
181.300	-17.416	0.100
181.400	19.481	0.100
181.500	-9.064	0.099
181.600	2.136	0.100
181.700	10.542	0.100
181.800	-1.579	0.100
181.900	-10.626	0.100
182.000	-9.976	0.100
182.100	27.026	0.100
182.200	19.479	0.100
182.300	18.330	0.100
182.400	15.464	0.100
182.500	13.519	0.100
182.600	7.476	0.100
182.700	20.288	0.100
182.800	3.423	0.100
182.900	19.192	0.100
183.000	0.715	0.100
183.100	14.447	0.100
183.200	7.513	0.100
183.300	-1.078	0.100
183.400	13.784	0.100
183.500	15.249	0.100
183.600	16.424	0.100
183.700	30.450	0.100
183.800	-6.074	0.100
183.900	18.419	0.100
184.000	13.664	0.100
184.100	14.485	0.100
184.200	15.503	0.100
184.300	24.734	0.100
184.400	12.361	0.100
184.500	8.728	0.099
184.600	9.960	0.099
184.700	17.518	0.100
184.800	26.592	0.100
184.900	17.974	0.100
185.000	21.370	0.100
185.100	13.602	0.100
185.200	1.674	0.100
185.300	3.125	0.100
185.400	9.361	0.100
185.500	23.364	0.099
185.600	8.179	0.100
185.700	20.395	0.100
185.800	29.825	0.100
185.900	9.260	0.100
186.000	8.317	0.100
186.100	8.756	0.100
186.200	-2.724	0.100
186.300	26.282	0.100
186.400	8.805	0.100
186.500	-12.259	0.100
186.600	14.467	0.100
186.700	22.912	0.100
186.800	10.103	0.100
186.900	15.617	0.100
187.000	17.672	0.100
187.100	19.875	0.099
187.200	8.182	0.100
187.300	-0.382	0.099
187.400	20.007	0.099
187.500	15.005	0.100
187.600	22.908	0.100
187.700	21.430	0.100
187.800	-3.427	0.100
187.900	10.007	0.100
188.000	14.914	0.100
188.100	15.110	0.100
188.200	7.312	0.100
188.300	16.380	0.100
188.400	18.423	0.100
188.500	19.662	0.100
188.600	13.360	0.100
188.700	16.579	0.100
188.800	24.666	0.100
188.900	1.005	0.100
189.000	19.885	0.100
189.100	23.632	0.100
189.200	24.465	0.100
189.300	21.555	0.100
189.400	24.814	0.100
189.500	17.574	0.100
189.600	19.096	0.100
189.700	9.019	0.100
189.800	17.640	0.100
189.900	4.910	0.100
190.000	23.286	0.100
190.100	28.649	0.100
190.200	3.652	0.100
190.300	14.446	0.100
190.400	28.243	0.100
190.500	7.924	0.099
190.600	28.708	0.099
190.700	18.207	0.100
190.800	29.210	0.100
190.900	22.377	0.100
191.000	16.708	0.100
191.100	18.013	0.100
191.200	29.309	0.100
191.300	15.361	0.100
191.400	33.263	0.100
191.500	8.461	0.100
191.600	31.068	0.100
191.700	13.101	0.099
191.800	25.451	0.100
191.900	27.497	0.100
192.000	19.810	0.100
192.100	22.339	0.100
192.200	49.288	0.100
192.300	0.036	0.100
192.400	20.905	0.100
192.500	15.819	0.100
192.600	32.889	0.100
192.700	24.319	0.100
192.800	24.397	0.100
192.900	13.832	0.100
193.000	21.188	0.100
193.100	17.669	0.100
193.200	19.205	0.100
193.300	27.996	0.100
193.400	16.170	0.100
193.500	27.604	0.100
193.600	20.177	0.100
193.700	15.480	0.100
193.800	24.265	0.100
193.900	16.875	0.100
194.000	21.667	0.100
194.100	6.874	0.100
194.200	30.215	0.100
194.300	25.247	0.100
194.400	33.024	0.100
194.500	7.193	0.100
194.600	35.590	0.100
194.700	44.738	0.100
194.800	23.203	0.100
194.900	27.283	0.100
195.000	20.444	0.100
195.100	28.686	0.100
195.200	19.695	0.100
195.300	25.435	0.100
195.400	35.011	0.100
195.500	22.157	0.100
195.600	19.365	0.100
195.700	29.192	0.100
195.800	28.961	0.100
195.900	37.426	0.100
196.000	23.140	0.100
196.100	25.511	0.100
196.200	22.159	0.100
196.300	22.852	0.100
196.400	12.902	0.100
196.500	39.743	0.100
196.600	35.008	0.100
196.700	22.203	0.100
196.800	20.331	0.100
196.900	46.724	0.100
197.000	24.081	0.100
197.100	19.138	0.100
197.200	20.817	0.100
197.300	31.053	0.100
197.400	20.991	0.100
197.500	26.799	0.100
197.600	24.996	0.100
197.700	28.288	0.100
197.800	27.199	0.100
197.900	11.659	0.100
198.000	27.714	0.100
198.100	26.779	0.100
198.200	30.946	0.100
198.300	15.556	0.100
198.400	31.381	0.100
198.500	24.685	0.100
198.600	16.328	0.100
198.700	38.433	0.100
198.800	34.228	0.100
198.900	31.068	0.100
199.000	19.375	0.100
199.100	27.735	0.100
199.200	16.711	0.100
199.300	41.024	0.100
199.400	31.978	0.100
199.500	27.912	0.100
199.600	26.745	0.100
199.700	18.267	0.100
199.800	23.190	0.100
199.900	27.454	0.100
200.000	13.136	0.100
200.100	27.744	0.100
200.200	31.207	0.100
200.300	40.187	0.100
200.400	30.950	0.100
200.500	29.605	0.100
200.600	16.270	0.100
200.700	17.146	0.100
200.800	38.017	0.100
200.900	29.202	0.100
201.000	32.822	0.100
201.100	34.225	0.100
201.200	15.799	0.100
201.300	25.894	0.100
201.400	10.486	0.099
201.500	31.080	0.100
201.600	36.321	0.100
201.700	26.308	0.100
201.800	38.385	0.100
201.900	27.566	0.100
202.000	14.090	0.100
202.100	21.310	0.100
202.200	25.283	0.100
202.300	22.378	0.100
202.400	20.242	0.100
202.500	37.367	0.100
202.600	34.179	0.100
202.700	25.667	0.100
202.800	39.870	0.100
202.900	14.347	0.100
203.000	39.271	0.100
203.100	31.770	0.100
203.200	17.200	0.100
203.300	19.536	0.100
203.400	37.653	0.100
203.500	15.513	0.100
203.600	27.906	0.100
203.700	20.367	0.100
203.800	41.485	0.100
203.900	30.384	0.100
204.000	34.227	0.100
204.100	36.879	0.100
204.200	21.621	0.100
204.300	24.259	0.100
204.400	34.752	0.100
204.500	21.516	0.100
204.600	48.659	0.100
204.700	16.905	0.100
204.800	22.946	0.100
204.900	22.124	0.100
205.000	35.742	0.100
205.100	37.303	0.100
205.200	29.906	0.100
205.300	22.116	0.100
205.400	30.315	0.100
205.500	21.080	0.100
205.600	20.392	0.100
205.700	36.646	0.100
205.800	36.945	0.100
205.900	20.544	0.100
206.000	20.506	0.100
206.100	33.588	0.100
206.200	28.869	0.100
206.300	24.692	0.100
206.400	25.638	0.100
206.500	17.577	0.100
206.600	38.806	0.100
206.700	27.991	0.100
206.800	27.093	0.100
206.900	17.108	0.100
207.000	26.406	0.100
207.100	49.140	0.100
207.200	36.218	0.100
207.300	18.605	0.100
207.400	28.198	0.100
207.500	34.034	0.100
207.600	21.509	0.100
207.700	28.761	0.100
207.800	27.120	0.100
207.900	26.922	0.100
208.000	6.231	0.100
208.100	31.668	0.100
208.200	28.224	0.100
208.300	32.819	0.100
208.400	22.831	0.100
208.500	25.185	0.100
208.600	40.994	0.100
208.700	27.461	0.100
208.800	21.952	0.100
208.900	16.470	0.100
209.000	29.711	0.100
209.100	31.237	0.100
209.200	23.499	0.100
209.300	34.467	0.100
209.400	33.598	0.100
209.500	30.009	0.100
209.600	27.498	0.100
209.700	23.659	0.100
209.800	21.290	0.100
209.900	24.505	0.100
210.000	20.583	0.100
210.100	20.480	0.100
210.200	23.927	0.100
210.300	41.062	0.100
210.400	31.013	0.100
210.500	20.806	0.100
210.600	22.003	0.100
210.700	14.095	0.100
210.800	25.612	0.100
210.900	23.549	0.100
211.000	17.435	0.100
211.100	30.435	0.100
211.200	43.041	0.100
211.300	14.960	0.100
211.400	31.857	0.100
211.500	26.104	0.100
211.600	5.143	0.099
211.700	16.169	0.100
211.800	40.869	0.100
211.900	25.894	0.100
212.000	28.923	0.100
212.100	19.762	0.100
212.200	20.124	0.099
212.300	15.915	0.099
212.400	25.111	0.100
212.500	30.896	0.100
212.600	26.682	0.100
212.700	40.655	0.100
212.800	27.117	0.100
212.900	30.973	0.100
213.000	23.464	0.100
213.100	19.119	0.100
213.200	19.545	0.100
213.300	37.321	0.100
213.400	23.355	0.100
213.500	23.446	0.100
213.600	21.197	0.100
213.700	30.816	0.100
213.800	46.147	0.100
213.900	17.799	0.100
214.000	29.662	0.100
214.100	19.639	0.100
214.200	19.850	0.100
214.300	20.652	0.100
214.400	13.059	0.100
214.500	36.585	0.100
214.600	17.695	0.100
214.700	38.412	0.100
214.800	34.060	0.100
214.900	26.212	0.100
215.000	32.638	0.100
215.100	26.821	0.100
215.200	17.898	0.100
215.300	25.069	0.100
215.400	30.023	0.100
215.500	43.161	0.100
215.600	21.537	0.100
215.700	38.781	0.100
215.800	17.286	0.100
215.900	25.843	0.100
216.000	25.505	0.100
216.100	25.924	0.100
216.200	23.220	0.100
216.300	30.046	0.100
216.400	39.221	0.100
216.500	13.298	0.100
216.600	26.150	0.100
216.700	30.302	0.100
216.800	12.157	0.100
216.900	27.595	0.100
217.000	30.629	0.100
217.100	6.332	0.100
217.200	32.754	0.100
217.300	7.703	0.100
217.400	37.931	0.100
217.500	21.702	0.100
217.600	30.987	0.100
217.700	22.107	0.100
217.800	31.102	0.100
217.900	25.306	0.100
218.000	28.687	0.100
218.100	38.211	0.100
218.200	24.952	0.100
218.300	34.912	0.100
218.400	11.100	0.100
218.500	32.666	0.100
218.600	26.734	0.100
218.700	29.491	0.100
218.800	37.084	0.100
218.900	21.278	0.100
219.000	26.868	0.100
219.100	27.711	0.100
219.200	25.096	0.100
219.300	14.871	0.100
219.400	42.681	0.100
219.500	16.330	0.100
219.600	32.985	0.100
219.700	16.036	0.100
219.800	28.082	0.100
219.900	39.451	0.100
220.000	22.608	0.100
220.100	30.148	0.100
220.200	29.682	0.100
220.300	29.426	0.100
220.400	26.651	0.100
220.500	12.173	0.100
220.600	41.102	0.100
220.700	8.473	0.100
220.800	20.470	0.100
220.900	24.203	0.100
221.000	22.515	0.100
221.100	37.772	0.100
221.200	26.107	0.100
221.300	22.971	0.100
221.400	25.554	0.100
221.500	29.477	0.100
221.600	14.938	0.100
221.700	25.746	0.100
221.800	25.452	0.100
221.900	26.911	0.100
222.000	32.878	0.100
222.100	28.641	0.100
222.200	27.519	0.100
222.300	22.713	0.100
222.400	29.198	0.100
222.500	26.847	0.100
222.600	21.157	0.100
222.700	26.476	0.100
222.800	13.002	0.100
222.900	32.965	0.100
223.000	26.311	0.100
223.100	29.836	0.100
223.200	17.569	0.100
223.300	39.234	0.100
223.400	25.982	0.100
223.500	26.101	0.100
223.600	31.150	0.100
223.700	8.324	0.100
223.800	36.801	0.100
223.900	30.108	0.100
224.000	25.807	0.100
224.100	21.189	0.100
224.200	41.452	0.100
224.300	6.611	0.100
224.400	26.069	0.100
224.500	20.455	0.100
224.600	31.469	0.099
224.700	24.817	0.100
224.800	30.695	0.100
224.900	25.014	0.100
225.000	36.204	0.100
225.100	34.244	0.100
225.200	16.806	0.100
225.300	32.594	0.099
225.400	27.255	0.100
225.500	20.296	0.100
225.600	23.994	0.100
225.700	14.572	0.100
225.800	35.573	0.100
225.900	13.799	0.099
226.000	32.521	0.100
226.100	16.673	0.100
226.200	22.253	0.100
226.300	26.075	0.100
226.400	27.684	0.100
226.500	15.094	0.100
226.600	29.716	0.100
226.700	12.203	0.100
226.800	29.931	0.100
226.900	35.429	0.100
227.000	25.803	0.100
227.100	21.532	0.099
227.200	9.074	0.099
227.300	22.560	0.100
227.400	23.985	0.099
227.500	24.582	0.100
227.600	30.235	0.100
227.700	36.116	0.099
227.800	5.351	0.100
227.900	3.942	0.099
228.000	19.774	0.100
228.100	41.799	0.100
228.200	35.147	0.100
228.300	16.951	0.099
228.400	38.532	0.100
228.500	32.862	0.100
228.600	13.359	0.100
228.700	33.020	0.100
228.800	27.160	0.100
228.900	22.589	0.100
229.000	29.301	0.100
229.100	22.595	0.099
229.200	18.490	0.100
229.300	30.344	0.100
229.400	27.195	0.100
229.500	21.899	0.100
229.600	16.466	0.100
229.700	28.591	0.100
229.800	29.680	0.100
229.900	21.014	0.099
230.000	17.688	0.100
230.100	26.054	0.100
230.200	42.562	0.100
230.300	34.023	0.100
230.400	29.890	0.100
230.500	21.229	0.100
230.600	18.250	0.100
230.700	22.368	0.100
230.800	13.706	0.100
230.900	17.703	0.100
231.000	18.951	0.100
231.100	26.403	0.100
231.200	19.908	0.100
231.300	20.760	0.100
231.400	15.182	0.100
231.500	18.950	0.100
231.600	27.537	0.100
231.700	20.394	0.100
231.800	26.424	0.100
231.900	43.379	0.100
232.000	23.662	0.100
232.100	9.444	0.100
232.200	24.357	0.099
232.300	31.412	0.100
232.400	29.915	0.100
232.500	24.838	0.100
232.600	22.443	0.100
232.700	9.792	0.100
232.800	29.375	0.100
232.900	39.844	0.100
233.000	24.761	0.100
233.100	32.255	0.100
233.200	21.548	0.100
233.300	6.395	0.099
233.400	41.085	0.100
233.500	27.209	0.100
233.600	27.175	0.100
233.700	25.426	0.100
233.800	23.524	0.100
233.900	13.843	0.100
234.000	19.709	0.100
234.100	22.991	0.100
234.200	27.991	0.100
234.300	27.076	0.100
234.400	24.837	0.100
234.500	24.988	0.100
234.600	18.066	0.099
234.700	29.816	0.100
234.800	19.823	0.100
234.900	26.346	0.100
235.000	22.269	0.100
235.100	33.260	0.100
235.200	36.382	0.100
235.300	21.610	0.100
235.400	36.157	0.100
235.500	29.700	0.100
235.600	27.377	0.100
235.700	8.975	0.100
235.800	34.940	0.100
235.900	8.994	0.100
236.000	16.831	0.100
236.100	39.891	0.100
236.200	10.852	0.100
236.300	27.978	0.100
236.400	22.214	0.100
236.500	13.241	0.100
236.600	22.543	0.100
236.700	17.341	0.100
236.800	20.013	0.100
236.900	20.242	0.100
237.000	20.645	0.100
237.100	23.257	0.100
237.200	17.849	0.100
237.300	46.494	0.099
237.400	20.227	0.100
237.500	28.071	0.100
237.600	-1.735	0.100
237.700	31.418	0.100
237.800	24.873	0.100
237.900	29.515	0.100
238.000	17.494	0.100
238.100	12.840	0.100
238.200	20.775	0.100
238.300	23.985	0.100
238.400	38.623	0.100
238.500	17.092	0.100
238.600	34.034	0.100
238.700	23.377	0.100
238.800	27.186	0.100
238.900	16.685	0.100
239.000	27.013	0.100
239.100	25.835	0.100
239.200	30.014	0.100
239.300	19.574	0.100
239.400	20.466	0.100
239.500	32.255	0.100
239.600	18.109	0.100
239.700	27.516	0.100
239.800	27.040	0.100
239.900	16.426	0.100
240.000	16.124	0.100
240.100	14.242	0.100
240.200	19.407	0.100
240.300	25.189	0.100
240.400	25.458	0.100
240.500	22.336	0.100
240.600	21.310	0.100
240.700	21.644	0.100
240.800	30.619	0.100
240.900	14.868	0.100
241.000	17.061	0.100
241.100	7.231	0.100
241.200	4.015	0.100
241.300	12.510	0.100
241.400	9.376	0.100
241.500	19.703	0.100
241.600	17.952	0.100
241.700	-4.513	0.100
241.800	18.996	0.099
241.900	11.220	0.100
242.000	-2.418	0.100
242.100	3.092	0.100
242.200	2.686	0.100
242.300	3.664	0.099
242.400	-11.955	0.100
242.500	-6.241	0.100
242.600	6.482	0.100
242.700	-0.424	0.100
242.800	-3.012	0.100
242.900	3.442	0.100
243.000	9.908	0.100
243.100	-1.331	0.100
243.200	13.264	0.100
243.300	1.537	0.100
243.400	-1.386	0.100
243.500	-5.758	0.100
243.600	6.466	0.100
243.700	-10.800	0.099
243.800	2.825	0.099
243.900	14.724	0.100
244.000	10.156	0.100
244.100	-0.435	0.100
244.200	-19.376	0.100
244.300	-15.315	0.100
244.400	10.619	0.100
244.500	-0.711	0.099
244.600	-5.793	0.100
244.700	-15.737	0.100
244.800	3.289	0.100
244.900	-13.350	0.100
245.000	2.247	0.100
245.100	-6.777	0.100
245.200	-18.907	0.100
245.300	9.485	0.100
245.400	-8.187	0.100
245.500	-1.225	0.100
245.600	5.744	0.100
245.700	-2.034	0.100
245.800	7.566	0.100
245.900	-13.150	0.100
246.000	-9.449	0.100
246.100	-8.742	0.099
246.200	-13.024	0.099
246.300	-18.063	0.100
246.400	2.953	0.100
246.500	-10.440	0.100
246.600	4.022	0.100
246.700	1.182	0.100
246.800	-2.416	0.100
246.900	5.691	0.100
247.000	-11.589	0.100
247.100	-13.988	0.099
247.200	2.769	0.100
247.300	13.156	0.100
247.400	-10.140	0.100
247.500	-6.165	0.100
247.600	3.024	0.100
247.700	-4.890	0.100
247.800	-4.085	0.100
247.900	-8.203	0.100
248.000	-15.179	0.100
248.100	-1.161	0.099
248.200	5.909	0.100
248.300	-11.437	0.100
248.400	-2.445	0.100
248.500	0.648	0.099
248.600	5.160	0.100
248.700	4.122	0.100
248.800	-13.173	0.100
248.900	-2.294	0.100
249.000	-17.539	0.100
249.100	-7.663	0.100
249.200	-2.661	0.100
249.300	-6.493	0.100
249.400	2.327	0.100
249.500	-24.409	0.100
249.600	-5.339	0.100
249.700	5.960	0.100
249.800	-14.340	0.100
249.900	-8.387	0.100
250.000	-8.747	0.100
250.100	-3.973	0.100
250.200	-16.390	0.100
250.300	-9.696	0.100
250.400	-15.937	0.100
250.500	1.771	0.099
250.600	-9.166	0.100
250.700	-3.740	0.100
250.800	-4.769	0.100
250.900	-12.278	0.099
251.000	-4.657	0.100
251.100	-9.290	0.099
251.200	-6.553	0.100
251.300	-6.682	0.100
251.400	-5.274	0.100
251.500	6.550	0.100
251.600	-27.125	0.099
251.700	-12.696	0.099
251.800	-10.088	0.100
251.900	9.779	0.100
252.000	-2.058	0.100
252.100	-3.971	0.100
252.200	-13.777	0.100
252.300	-10.148	0.099
252.400	-11.528	0.100
252.500	-17.710	0.100
252.600	-13.247	0.100
252.700	-4.724	0.100
252.800	-1.673	0.100
252.900	-13.412	0.100
253.000	-11.728	0.099
253.100	0.483	0.100
253.200	-7.573	0.100
253.300	-22.694	0.100
253.400	-8.276	0.100
253.500	-12.536	0.099
253.600	-15.731	0.100
253.700	-18.222	0.100
253.800	-17.458	0.100
253.900	-6.049	0.100
254.000	0.438	0.100
254.100	-7.082	0.099
254.200	-0.112	0.100
254.300	-11.406	0.099
254.400	-18.464	0.099
254.500	-10.481	0.099
254.600	-8.960	0.099
254.700	-0.477	0.099
254.800	-0.123	0.100
254.900	-4.648	0.100
255.000	-15.914	0.100
255.100	-29.437	0.100
255.200	-18.247	0.100
255.300	10.687	0.100
255.400	-12.875	0.100
255.500	-19.534	0.100
255.600	-6.614	0.100
255.700	-9.614	0.100
255.800	-4.319	0.100
255.900	-3.655	0.100
256.000	-13.779	0.100
256.100	-1.687	0.100
256.200	-12.053	0.099
256.300	-5.700	0.100
256.400	-10.615	0.100
256.500	-23.252	0.100
256.600	-13.718	0.100
256.700	-32.643	0.100
256.800	-16.850	0.100
256.900	8.956	0.100
257.000	3.130	0.100
257.100	4.990	0.100
257.200	-27.104	0.100
257.300	-27.241	0.100
257.400	-5.320	0.100
257.500	-5.767	0.100
257.600	-15.925	0.100
257.700	-4.139	0.100
257.800	-25.595	0.100
257.900	-17.563	0.100
258.000	-7.395	0.100
258.100	-11.247	0.100
258.200	-11.896	0.099
258.300	-4.940	0.100
258.400	-2.364	0.100
258.500	-20.235	0.100
258.600	-8.292	0.100
258.700	-24.154	0.100
258.800	-16.495	0.100
258.900	-18.493	0.100
259.000	-16.796	0.100
259.100	-8.735	0.100
259.200	-16.376	0.100
259.300	-25.733	0.099
259.400	6.426	0.100
259.500	-9.931	0.100
259.600	-22.759	0.100
259.700	-10.605	0.100
259.800	-6.005	0.100
259.900	-22.298	0.100
260.000	-14.436	0.100
260.100	-18.286	0.100
260.200	-0.560	0.100
260.300	-9.203	0.100
260.400	-1.104	0.100
260.500	-9.348	0.100
260.600	-11.766	0.100
260.700	-17.787	0.100
260.800	-26.963	0.100
260.900	2.498	0.100
261.000	-15.919	0.100
261.100	-6.479	0.100
261.200	-14.372	0.100
261.300	-27.218	0.100
261.400	-10.286	0.100
261.500	-2.794	0.100
261.600	-28.180	0.100
261.700	-11.716	0.100
261.800	-10.278	0.100
261.900	-10.233	0.100
262.000	-16.315	0.100
262.100	-10.462	0.100
262.200	-20.101	0.099
262.300	-35.193	0.100
262.400	-6.140	0.100
262.500	-15.967	0.100
262.600	-3.819	0.100
262.700	-3.049	0.100
262.800	-22.517	0.100
262.900	-12.583	0.100
263.000	-25.254	0.100
263.100	-1.044	0.100
263.200	-19.492	0.100
263.300	-29.137	0.100
263.400	-16.903	0.100
263.500	-34.178	0.099
263.600	-9.562	0.100
263.700	-0.730	0.099
263.800	-15.792	0.100
263.900	-12.056	0.100
264.000	-0.426	0.100
264.100	-20.737	0.100
264.200	-27.725	0.100
264.300	-32.769	0.100
264.400	-22.016	0.100
264.500	-17.254	0.100
264.600	-10.162	0.100
264.700	-13.908	0.100
264.800	-16.691	0.100
264.900	-16.410	0.100
265.000	-9.129	0.099
265.100	-13.036	0.100
265.200	-11.236	0.100
265.300	-17.164	0.100
265.400	-15.785	0.100
265.500	-17.622	0.100
265.600	-15.878	0.100
265.700	-20.106	0.100
265.800	-22.235	0.100
265.900	-14.251	0.100
266.000	-1.590	0.099
266.100	0.067	0.099
266.200	-23.904	0.100
266.300	-41.197	0.100
266.400	-29.397	0.100
266.500	-6.818	0.100
266.600	-17.375	0.099
266.700	-20.323	0.100
266.800	-21.259	0.100
266.900	-15.924	0.099
267.000	-2.976	0.100
267.100	-22.660	0.100
267.200	-2.254	0.099
267.300	-14.340	0.100
267.400	-5.610	0.100
267.500	-19.519	0.100
267.600	-4.937	0.100
267.700	-20.767	0.100
267.800	-23.557	0.100
267.900	-3.487	0.099
268.000	-16.749	0.099
268.100	-17.537	0.099
268.200	-15.475	0.100
268.300	-18.141	0.100
268.400	-17.416	0.100
268.500	-6.001	0.099
268.600	-9.044	0.100
268.700	-11.224	0.099
268.800	-23.773	0.100
268.900	-6.452	0.100
269.000	-9.868	0.100
269.100	-26.224	0.099
269.200	-17.601	0.099
269.300	-19.696	0.099
269.400	-28.309	0.100
269.500	-19.062	0.099
269.600	-4.218	0.100
269.700	-22.028	0.099
269.800	-17.932	0.099
269.900	-30.401	0.100
270.000	-11.755	0.099
270.100	-21.174	0.099
270.200	-10.895	0.100
270.300	-30.919	0.100
270.400	-15.961	0.099
270.500	-18.343	0.100
270.600	-13.907	0.099
270.700	-9.793	0.100
270.800	-19.629	0.099
270.900	-13.180	0.100
271.000	-8.937	0.100
271.100	-14.707	0.100
271.200	-25.341	0.100
271.300	-6.055	0.100
271.400	-16.104	0.100
271.500	-35.795	0.099
271.600	4.986	0.099
271.700	-10.488	0.100
271.800	-10.980	0.100
271.900	-28.950	0.100
272.000	-5.654	0.100
272.100	-12.518	0.099
272.200	-17.377	0.100
272.300	-13.939	0.100
272.400	-13.934	0.099
272.500	-11.881	0.099
272.600	-7.857	0.099
272.700	-26.066	0.100
272.800	-19.569	0.099
272.900	-5.704	0.099
273.000	-22.995	0.100
273.100	-6.217	0.099
273.200	-15.654	0.099
273.300	-20.841	0.099
273.400	-13.042	0.099
273.500	4.113	0.100
273.600	-23.210	0.100
273.700	-20.501	0.100
273.800	-16.402	0.099
273.900	-19.527	0.100
274.000	-22.799	0.099
274.100	-2.524	0.100
274.200	-22.557	0.100
274.300	-0.606	0.099
274.400	-23.565	0.099
274.500	-10.593	0.100
274.600	-25.895	0.100
274.700	-9.435	0.100
274.800	-17.387	0.100
274.900	-19.700	0.100
275.000	-17.072	0.100
275.100	-21.371	0.100
275.200	-16.038	0.100
275.300	-12.003	0.100
275.400	-14.650	0.100
275.500	-29.854	0.100
275.600	-19.195	0.100
275.700	-3.848	0.100
275.800	-9.278	0.100
275.900	-18.310	0.100
276.000	-11.317	0.099
276.100	-25.088	0.099
276.200	-26.412	0.100
276.300	-4.993	0.100
276.400	-13.667	0.099
276.500	-15.045	0.100
276.600	-19.411	0.100
276.700	-13.177	0.100
276.800	-0.315	0.099
276.900	-17.792	0.100
277.000	-12.946	0.100
277.100	-9.942	0.099
277.200	-19.496	0.100
277.300	-31.165	0.100
277.400	-23.776	0.100
277.500	3.277	0.100
277.600	-19.366	0.100
277.700	-18.846	0.100
277.800	-21.004	0.100
277.900	-6.596	0.100
278.000	-12.614	0.099
278.100	-9.836	0.100
278.200	-12.733	0.100
278.300	-15.253	0.100
278.400	-18.160	0.100
278.500	-16.168	0.099
278.600	-13.059	0.100
278.700	-11.818	0.100
278.800	-16.039	0.100
278.900	-30.208	0.100
279.000	-10.261	0.100
279.100	-4.915	0.100
279.200	-9.008	0.099
279.300	-25.522	0.100
279.400	-23.309	0.100
279.500	-21.665	0.100
279.600	2.534	0.100
279.700	-8.431	0.100
279.800	-21.412	0.099
279.900	-12.211	0.100
280.000	-11.891	0.100
280.100	-1.571	0.100
280.200	-26.255	0.099
280.300	-10.846	0.100
280.400	-17.326	0.100
280.500	-11.608	0.099
280.600	-26.675	0.100
280.700	-13.696	0.100
280.800	-26.992	0.100
280.900	-0.703	0.100
281.000	-10.667	0.099
281.100	-19.774	0.100
281.200	-10.603	0.099
281.300	-28.872	0.099
281.400	-7.134	0.099
281.500	-0.657	0.099
281.600	-31.005	0.100
281.700	-27.555	0.099
281.800	-10.112	0.099
281.900	-15.378	0.100
282.000	-19.068	0.100
282.100	-21.905	0.100
282.200	-13.681	0.100
282.300	-15.051	0.100
282.400	-23.778	0.100
282.500	-12.264	0.099
282.600	-9.380	0.100
282.700	-27.171	0.100
282.800	-5.505	0.100
282.900	-5.727	0.100
283.000	-11.520	0.100
283.100	-20.500	0.100
283.200	-9.087	0.100
283.300	-23.763	0.100
283.400	-12.724	0.100
283.500	-17.254	0.100
283.600	-10.117	0.100
283.700	-29.177	0.100
283.800	-10.358	0.099
283.900	-6.468	0.099
284.000	-30.712	0.100
284.100	-18.157	0.099
284.200	-20.908	0.100
284.300	-10.022	0.099
284.400	-5.790	0.099
284.500	-19.223	0.100
284.600	-19.074	0.100
284.700	-10.106	0.099
284.800	-13.376	0.100
284.900	-15.813	0.100
285.000	-22.924	0.099
285.100	-18.968	0.100
285.200	-4.471	0.100
285.300	-7.677	0.100
285.400	-19.432	0.100
285.500	-16.285	0.099
285.600	-12.007	0.100
285.700	-9.769	0.099
285.800	-21.094	0.100
285.900	-6.485	0.100
286.000	-14.191	0.100
286.100	-32.948	0.099
286.200	-7.271	0.100
286.300	-11.757	0.100
286.400	-30.181	0.099
286.500	-0.487	0.100
286.600	-17.845	0.100
286.700	-30.911	0.100
286.800	0.975	0.100
286.900	-14.726	0.100
287.000	-8.823	0.099
287.100	-11.509	0.099
287.200	-19.826	0.100
287.300	-0.376	0.100
287.400	-31.909	0.099
287.500	-7.342	0.100
287.600	-16.720	0.100
287.700	-3.920	0.100
287.800	-18.488	0.100
287.900	-21.112	0.100
288.000	-17.759	0.099
288.100	0.903	0.100
288.200	-12.652	0.100
288.300	-21.510	0.100
288.400	-9.668	0.099
288.500	-12.912	0.100
288.600	-2.809	0.100
288.700	-17.215	0.100
288.800	-15.250	0.099
288.900	-3.507	0.099
289.000	-32.039	0.100
289.100	-11.619	0.100
289.200	-16.550	0.100
289.300	-27.800	0.100
289.400	-5.839	0.100
289.500	-19.923	0.099
289.600	-10.404	0.099
289.700	-15.992	0.100
289.800	-16.482	0.099
289.900	-8.113	0.099
290.000	-16.474	0.100
290.100	6.773	0.100
290.200	-1.947	0.100
290.300	-16.446	0.100
290.400	-20.268	0.100
290.500	-6.294	0.099
290.600	-11.021	0.100
290.700	-7.391	0.100
290.800	-8.434	0.100
290.900	-19.641	0.100
291.000	-15.194	0.100
291.100	-12.361	0.100
291.200	-16.895	0.099
291.300	-13.052	0.100
291.400	-14.589	0.100
291.500	-24.434	0.100
291.600	-20.006	0.100
291.700	-13.771	0.100
291.800	0.583	0.099
291.900	-11.941	0.100
292.000	-12.643	0.100
292.100	-9.187	0.099
292.200	-1.157	0.100
292.300	-17.894	0.099
292.400	-16.354	0.099
292.500	-13.567	0.100
292.600	1.430	0.100
292.700	-21.920	0.100
292.800	-28.985	0.100
292.900	-9.987	0.100
293.000	-9.341	0.099
293.100	-13.766	0.100
293.200	-10.260	0.099
293.300	-4.775	0.100
293.400	-13.164	0.099
293.500	-24.111	0.099
293.600	-12.857	0.100
293.700	-11.495	0.100
293.800	-13.692	0.100
293.900	-14.270	0.100
294.000	-6.668	0.100
294.100	-17.773	0.100
294.200	-12.117	0.099
294.300	-2.145	0.100
294.400	-15.397	0.100
294.500	-0.778	0.100
294.600	-3.316	0.100
294.700	-21.431	0.100
294.800	5.604	0.100
294.900	-23.969	0.099
295.000	-4.915	0.100
295.100	-8.517	0.100
295.200	-26.684	0.100
295.300	-23.409	0.099
295.400	7.575	0.100
295.500	-11.934	0.100
295.600	-15.203	0.100
295.700	-9.984	0.100
295.800	0.205	0.099
295.900	-11.461	0.099
296.000	-22.830	0.099
296.100	-10.427	0.099
296.200	-18.058	0.099
296.300	-16.813	0.099
296.400	-21.109	0.100
296.500	-25.574	0.099
296.600	-15.110	0.100
296.700	-6.199	0.099
296.800	2.211	0.099
296.900	-8.004	0.099
297.000	-11.708	0.100
297.100	-5.165	0.100
297.200	-9.237	0.099
297.300	-11.951	0.099
297.400	-8.831	0.099
297.500	-13.118	0.100
297.600	-5.449	0.099
297.700	-13.085	0.099
297.800	-22.092	0.099
297.900	-17.896	0.099
298.000	-11.287	0.099
298.100	-2.769	0.100
298.200	-11.083	0.100
298.300	-11.921	0.100
298.400	-10.917	0.100
298.500	-11.309	0.099
298.600	-20.582	0.100
298.700	-20.251	0.099
298.800	-8.010	0.099
298.900	-16.860	0.100
299.000	-13.816	0.099
299.100	-19.595	0.100
299.200	-4.996	0.099
299.300	-3.078	0.100
299.400	-11.463	0.099
299.500	-3.575	0.099
299.600	-3.123	0.100
299.700	-15.536	0.100
299.800	-23.375	0.099
299.900	-13.284	0.099
300.000	-1.675	0.099
300.100	-1.251	0.099
300.200	-26.688	0.099
300.300	-1.647	0.099
300.400	1.517	0.100
300.500	-3.720	0.099
300.600	-12.751	0.099
300.700	-17.543	0.100
300.800	-7.521	0.100
300.900	-19.058	0.100
301.000	-14.168	0.099
301.100	-7.595	0.100
301.200	-9.317	0.099
301.300	-14.145	0.099
301.400	-12.486	0.100
301.500	-12.824	0.100
301.600	-15.118	0.099
301.700	-20.356	0.100
301.800	0.065	0.100
301.900	-18.546	0.099
302.000	-5.868	0.100
302.100	-6.999	0.099
302.200	2.389	0.100
302.300	-12.363	0.100
302.400	-10.774	0.100
302.500	-11.728	0.100
302.600	-9.517	0.100
302.700	2.732	0.100
302.800	-10.122	0.099
302.900	-18.532	0.100
303.000	-17.629	0.100
303.100	-8.358	0.099
303.200	-12.375	0.099
303.300	-0.051	0.100
303.400	-17.763	0.100
303.500	-18.848	0.099
303.600	-5.995	0.100
303.700	-11.004	0.099
303.800	-10.928	0.099
303.900	-1.442	0.100
304.000	-12.534	0.099
304.100	-39.480	0.100
304.200	-4.553	0.100
304.300	-6.008	0.100
304.400	0.338	0.100
304.500	-8.965	0.100
304.600	-10.870	0.100
304.700	-16.799	0.099
304.800	7.091	0.100
304.900	-2.109	0.100
305.000	-13.224	0.100
305.100	-15.476	0.100
305.200	-6.701	0.100
305.300	-0.110	0.100
305.400	-20.449	0.100
305.500	-11.355	0.100
305.600	-0.367	0.099
305.700	-10.594	0.100
305.800	-22.444	0.100
305.900	8.096	0.100
306.000	-8.831	0.100
306.100	-27.460	0.100
306.200	-5.023	0.100
306.300	-7.228	0.100
306.400	-12.622	0.100
306.500	6.946	0.100
306.600	-14.847	0.099
306.700	-13.019	0.100
306.800	0.460	0.100
306.900	-8.206	0.100
307.000	-9.878	0.100
307.100	0.965	0.099
307.200	-12.462	0.100
307.300	-11.435	0.100
307.400	-3.009	0.100
307.500	-15.898	0.100
307.600	-7.767	0.099
307.700	-14.741	0.100
307.800	-19.778	0.100
307.900	3.566	0.099
308.000	-14.985	0.100
308.100	-14.495	0.099
308.200	-18.754	0.100
308.300	-11.392	0.100
308.400	-8.102	0.100
308.500	-17.617	0.099
308.600	-23.834	0.099
308.700	-16.282	0.100
308.800	-3.739	0.100
308.900	-4.352	0.100
309.000	-12.285	0.099
309.100	-16.577	0.100
309.200	-9.076	0.099
309.300	-7.711	0.099
309.400	-3.097	0.100
309.500	-13.355	0.099
309.600	-22.602	0.099
309.700	-11.094	0.099
309.800	-11.639	0.099
309.900	-5.496	0.100
310.000	-28.248	0.099
310.100	-9.629	0.099
310.200	-11.697	0.099
310.300	-8.256	0.100
310.400	-8.332	0.099
310.500	6.786	0.100
310.600	-13.809	0.100
310.700	-2.459	0.100
310.800	3.321	0.100
310.900	-12.620	0.099
311.000	-10.658	0.100
311.100	-16.838	0.099
311.200	-19.354	0.100
311.300	7.350	0.100
311.400	-14.111	0.099
311.500	-7.432	0.100
311.600	-8.343	0.100
311.700	-9.288	0.100
311.800	-9.321	0.099
311.900	-8.482	0.099
312.000	-12.872	0.099
312.100	-4.941	0.099
312.200	-18.942	0.100
312.300	-9.520	0.100
312.400	-11.823	0.100
312.500	-1.847	0.099
312.600	-18.802	0.100
312.700	1.754	0.099
312.800	-6.732	0.099
312.900	-14.286	0.100
313.000	0.788	0.099
313.100	-14.958	0.100
313.200	-17.103	0.100
313.300	-2.216	0.099
313.400	-12.080	0.100
313.500	2.427	0.100
313.600	-11.940	0.100
313.700	-19.311	0.099
313.800	-5.119	0.100
313.900	-6.923	0.099
314.000	-11.238	0.100
314.100	-9.420	0.100
314.200	-6.547	0.100
314.300	-2.923	0.099
314.400	-4.968	0.100
314.500	-5.997	0.100
314.600	-19.977	0.100
314.700	-17.141	0.100
314.800	-6.668	0.099
314.900	4.208	0.100
315.000	-14.185	0.100
315.100	-5.983	0.099
315.200	-16.131	0.100
315.300	-5.756	0.100
315.400	-13.126	0.099
315.500	-7.104	0.100
315.600	-25.578	0.099
315.700	-15.284	0.099
315.800	-11.584	0.100
315.900	-19.854	0.100
316.000	-6.821	0.100
316.100	-9.268	0.100
316.200	-14.444	0.099
316.300	-5.749	0.100
316.400	-9.620	0.100
316.500	-3.940	0.099
316.600	-34.992	0.099
316.700	-2.586	0.099
316.800	-7.662	0.099
316.900	-17.798	0.099
317.000	-4.067	0.099
317.100	-10.100	0.099
317.200	-14.730	0.099
317.300	-3.240	0.100
317.400	-25.336	0.099
317.500	-1.518	0.100
317.600	11.053	0.100
317.700	7.160	0.100
317.800	-15.492	0.099
317.900	-3.039	0.100
318.000	0.406	0.100
318.100	-3.256	0.099
318.200	-6.463	0.099
318.300	-4.864	0.100
318.400	-23.032	0.099
318.500	-22.833	0.099
318.600	-14.658	0.100
318.700	4.113	0.100
318.800	-15.910	0.099
318.900	-7.184	0.100
319.000	-9.880	0.100
319.100	-1.159	0.099
319.200	-7.408	0.100
319.300	-16.309	0.100
319.400	-11.211	0.099
319.500	-2.473	0.100
319.600	-25.897	0.099
319.700	1.311	0.100
319.800	-7.976	0.100
319.900	-4.152	0.099
320.000	-21.802	0.099
320.100	3.198	0.099
320.200	-19.276	0.099
320.300	5.790	0.099
320.400	-15.457	0.099
320.500	-6.750	0.100
320.600	-17.100	0.099
320.700	-2.499	0.099
320.800	-21.157	0.099
320.900	-22.683	0.099
321.000	-3.935	0.099
321.100	-2.295	0.099
321.200	-9.393	0.099
321.300	-9.598	0.100
321.400	-14.808	0.100
321.500	-16.559	0.099
321.600	10.007	0.100
321.700	-16.155	0.100
321.800	-9.906	0.099
321.900	-13.028	0.100
322.000	-20.387	0.100
322.100	-24.395	0.100
322.200	-15.926	0.099
322.300	-0.492	0.099
322.400	-7.271	0.099
322.500	-5.909	0.099
322.600	-13.506	0.099
322.700	-10.251	0.100
322.800	-5.345	0.100
322.900	-7.687	0.100
323.000	-8.795	0.099
323.100	4.798	0.099
323.200	-7.370	0.100
323.300	-11.962	0.100
323.400	-20.138	0.099
323.500	-6.543	0.099
323.600	-28.237	0.100
323.700	-4.727	0.100
323.800	1.948	0.099
323.900	-7.280	0.100
324.000	-17.303	0.100
324.100	7.808	0.099
324.200	-16.519	0.100
324.300	-15.542	0.099
324.400	1.522	0.100
324.500	-15.172	0.100
324.600	5.397	0.099
324.700	-2.469	0.099
324.800	-24.244	0.100
324.900	-10.107	0.099
325.000	-8.616	0.100
325.100	-23.533	0.100
325.200	-4.492	0.099
325.300	-24.550	0.100
325.400	-3.127	0.100
325.500	8.462	0.100
325.600	-11.288	0.099
325.700	-4.390	0.100
325.800	-11.772	0.100
325.900	-8.429	0.100
326.000	5.396	0.099
326.100	-8.807	0.100
326.200	-22.525	0.099
326.300	-9.218	0.099
326.400	-11.369	0.099
326.500	-33.891	0.099
326.600	-11.847	0.099
326.700	12.436	0.099
326.800	-9.717	0.100
326.900	-20.216	0.100
327.000	-7.306	0.100
327.100	-2.638	0.100
327.200	-13.263	0.099
327.300	-21.031	0.100
327.400	4.659	0.099
327.500	-6.944	0.099
327.600	-12.896	0.100
327.700	-9.109	0.099
327.800	-0.711	0.099
327.900	-15.354	0.100
328.000	-6.861	0.099
328.100	-6.208	0.100
328.200	-2.455	0.100
328.300	-4.177	0.099
328.400	-3.747	0.099
328.500	-18.848	0.099
328.600	-14.193	0.099
328.700	-5.735	0.099
328.800	-14.157	0.099
328.900	-2.666	0.099
329.000	11.437	0.100
329.100	-6.871	0.099
329.200	-13.065	0.099
329.300	-11.024	0.099
329.400	-9.367	0.099
329.500	-3.865	0.099
329.600	-10.232	0.099
329.700	-5.321	0.099
329.800	-14.530	0.099
329.900	-5.945	0.099
330.000	-6.119	0.100
330.100	-3.872	0.099
330.200	-10.637	0.099
330.300	4.147	0.099
330.400	-15.185	0.099
330.500	-9.020	0.099
330.600	6.814	0.099
330.700	-4.511	0.100
330.800	7.920	0.100
330.900	-0.191	0.100
331.000	3.763	0.099
331.100	-4.705	0.099
331.200	7.546	0.099
331.300	-10.032	0.099
331.400	-3.264	0.099
331.500	6.320	0.100
331.600	5.054	0.099
331.700	13.972	0.100
331.800	11.810	0.099
331.900	13.863	0.099
332.000	5.656	0.100
332.100	-1.122	0.099
332.200	18.647	0.100
332.300	9.414	0.099
332.400	17.804	0.099
332.500	29.922	0.099
332.600	13.361	0.100
332.700	17.429	0.100
332.800	17.543	0.100
332.900	-0.008	0.100
333.000	5.350	0.100
333.100	16.852	0.100
333.200	24.703	0.100
333.300	14.386	0.100
333.400	1.757	0.100
333.500	18.467	0.100
333.600	-1.788	0.099
333.700	3.683	0.100
333.800	14.519	0.100
333.900	2.494	0.100
334.000	19.663	0.100
334.100	2.681	0.099
334.200	8.120	0.099
334.300	12.613	0.099
334.400	1.738	0.099
334.500	10.400	0.100
334.600	16.418	0.099
334.700	9.512	0.100
334.800	16.565	0.100
334.900	0.482	0.099
335.000	17.452	0.100
335.100	19.801	0.100
335.200	12.661	0.100
335.300	10.199	0.100
335.400	17.485	0.100
335.500	-2.546	0.100
335.600	11.000	0.100
335.700	-4.942	0.100
335.800	11.992	0.100
335.900	22.370	0.100
336.000	13.538	0.099
336.100	6.402	0.100
336.200	14.294	0.100
336.300	9.155	0.100
336.400	16.842	0.099
336.500	0.107	0.100
336.600	20.626	0.099
336.700	13.559	0.100
336.800	20.909	0.099
336.900	-4.554	0.099
337.000	5.281	0.099
337.100	8.867	0.099
337.200	3.816	0.099
337.300	31.151	0.100
337.400	11.950	0.099
337.500	9.940	0.099
337.600	4.048	0.099
337.700	16.487	0.099
337.800	10.513	0.099
337.900	21.709	0.100
338.000	2.609	0.099
338.100	17.564	0.099
338.200	18.611	0.099
338.300	4.826	0.100
338.400	5.180	0.100
338.500	20.290	0.099
338.600	3.600	0.099
338.700	22.941	0.100
338.800	4.958	0.100
338.900	2.349	0.100
339.000	8.133	0.100
339.100	8.430	0.099
339.200	16.431	0.099
339.300	7.915	0.100
339.400	12.846	0.099
339.500	15.217	0.099
339.600	18.677	0.099
339.700	27.848	0.100
339.800	11.921	0.099
339.900	16.067	0.099
340.000	18.316	0.099
340.100	42.668	0.099
340.200	-7.492	0.100
340.300	13.276	0.099
340.400	7.713	0.099
340.500	23.558	0.099
340.600	15.955	0.099
340.700	5.650	0.099
340.800	17.629	0.099
340.900	8.470	0.099
341.000	23.250	0.099
341.100	13.424	0.099
341.200	18.386	0.099
341.300	26.058	0.099
341.400	27.741	0.100
341.500	15.467	0.100
341.600	27.967	0.099
341.700	7.497	0.099
341.800	18.415	0.099
341.900	6.175	0.099
342.000	24.394	0.099
342.100	9.915	0.099
342.200	22.335	0.099
342.300	21.715	0.099
342.400	8.745	0.099
342.500	12.858	0.099
342.600	11.588	0.099
342.700	24.594	0.100
342.800	28.639	0.099
342.900	22.339	0.100
343.000	15.328	0.100
343.100	12.195	0.099
343.200	23.695	0.099
343.300	11.057	0.100
343.400	26.592	0.099
343.500	14.297	0.099
343.600	27.734	0.100
343.700	22.084	0.099
343.800	14.018	0.100
343.900	33.813	0.099
344.000	23.610	0.099
344.100	31.826	0.100
344.200	22.882	0.099
344.300	10.755	0.100
344.400	26.210	0.099
344.500	24.434	0.099
344.600	24.610	0.099
344.700	8.597	0.099
344.800	7.173	0.099
344.900	34.616	0.100
345.000	26.274	0.100
345.100	5.305	0.100
345.200	20.598	0.099
345.300	17.507	0.100
345.400	27.479	0.099
345.500	21.563	0.100
345.600	26.581	0.099
345.700	26.087	0.100
345.800	19.934	0.099
345.900	30.514	0.100
346.000	16.453	0.099
346.100	20.459	0.099
346.200	20.069	0.100
346.300	22.806	0.100
346.400	23.293	0.100
346.500	15.800	0.099
346.600	35.342	0.100
346.700	2.632	0.100
346.800	30.314	0.100
346.900	17.122	0.099
347.000	38.936	0.100
347.100	15.014	0.100
347.200	32.371	0.099
347.300	27.465	0.099
347.400	23.434	0.099
347.500	22.807	0.100
347.600	16.178	0.100
347.700	19.047	0.100
347.800	20.682	0.100
347.900	36.947	0.099
348.000	26.612	0.100
348.100	24.244	0.100
348.200	19.497	0.100
348.300	26.544	0.099
348.400	40.545	0.100
348.500	24.477	0.099
348.600	23.061	0.099
348.700	28.140	0.099
348.800	15.793	0.099
348.900	19.960	0.099
349.000	13.697	0.099
349.100	30.170	0.099
349.200	33.720	0.099
349.300	30.558	0.099
349.400	18.735	0.099
349.500	27.817	0.100
349.600	21.772	0.100
349.700	32.910	0.100
349.800	26.428	0.100
349.900	31.513	0.100
350.000	31.589	0.099
350.100	26.124	0.100
350.200	12.565	0.099
350.300	29.655	0.100
350.400	30.269	0.099
350.500	18.788	0.099
350.600	22.580	0.099
350.700	12.874	0.099
350.800	23.069	0.099
350.900	30.425	0.100
351.000	23.263	0.099
351.100	29.960	0.099
351.200	21.126	0.100
351.300	31.539	0.100
351.400	14.328	0.099
351.500	27.094	0.099
351.600	36.260	0.099
351.700	18.540	0.099
351.800	22.086	0.100
351.900	10.184	0.099
352.000	30.861	0.100
352.100	42.695	0.099
352.200	22.746	0.100
352.300	24.810	0.100
352.400	21.038	0.100
352.500	20.652	0.099
352.600	42.114	0.099
352.700	18.929	0.099
352.800	15.008	0.100
352.900	41.145	0.099
353.000	33.979	0.100
353.100	14.589	0.100
353.200	18.044	0.099
353.300	25.076	0.099
353.400	42.246	0.099
353.500	28.429	0.099
353.600	21.547	0.099
353.700	31.877	0.100
353.800	27.392	0.100
353.900	21.622	0.099
354.000	35.593	0.100
354.100	22.417	0.100
354.200	31.601	0.099
354.300	27.820	0.099
354.400	14.688	0.100
354.500	22.703	0.100
354.600	33.121	0.099
354.700	24.120	0.100
354.800	18.096	0.099
354.900	22.951	0.099
355.000	24.528	0.099
355.100	24.744	0.099
355.200	30.276	0.099
355.300	31.241	0.099
355.400	37.394	0.099
355.500	25.610	0.099
355.600	32.148	0.100
355.700	7.035	0.099
355.800	24.691	0.099
355.900	32.786	0.099
356.000	7.987	0.099
356.100	33.979	0.099
356.200	19.413	0.099
356.300	13.581	0.099
356.400	27.745	0.100
356.500	32.614	0.100
356.600	23.985	0.100
356.700	31.557	0.100
356.800	31.700	0.100
356.900	13.983	0.100
357.000	24.814	0.100
357.100	30.307	0.100
357.200	17.042	0.100
357.300	23.982	0.099
357.400	13.191	0.099
357.500	25.818	0.100
357.600	34.170	0.099
357.700	30.213	0.099
357.800	12.914	0.100
357.900	31.644	0.099
358.000	30.007	0.099
358.100	18.122	0.099
358.200	29.524	0.100
358.300	29.471	0.099
358.400	32.706	0.099
358.500	22.287	0.099
358.600	18.016	0.099
358.700	31.948	0.099
358.800	27.856	0.099
358.900	24.408	0.099
359.000	21.507	0.099
359.100	11.232	0.099
359.200	20.059	0.099
359.300	16.036	0.099
359.400	33.821	0.099
359.500	13.254	0.099
359.600	33.931	0.099
359.700	30.429	0.099
359.800	19.995	0.100
359.900	25.656	0.100
360.000	21.977	0.100
360.100	2.191	0.100
360.200	33.983	0.100
360.300	20.684	0.099
360.400	20.330	0.100
360.500	17.783	0.099
360.600	14.298	0.099
360.700	31.023	0.100
360.800	23.144	0.100
360.900	32.159	0.100
361.000	19.741	0.099
361.100	23.912	0.100
361.200	19.419	0.099
361.300	20.471	0.100
361.400	23.144	0.099
361.500	27.946	0.099
361.600	24.939	0.099
361.700	12.293	0.100
361.800	19.245	0.099
361.900	27.600	0.099
362.000	18.947	0.100
362.100	36.006	0.100
362.200	23.201	0.099
362.300	24.037	0.099
362.400	26.610	0.099
362.500	23.506	0.099
362.600	11.719	0.100
362.700	22.207	0.100
362.800	34.267	0.099
362.900	18.299	0.099
363.000	18.087	0.099
363.100	17.302	0.099
363.200	30.827	0.100
363.300	25.631	0.099
363.400	21.749	0.100
363.500	35.911	0.099
363.600	25.468	0.100
363.700	11.543	0.099
363.800	31.585	0.100
363.900	38.539	0.100
364.000	33.185	0.099
364.100	24.139	0.099
364.200	31.860	0.099
364.300	36.072	0.100
364.400	29.804	0.099
364.500	18.394	0.099
364.600	19.539	0.100
364.700	20.594	0.100
364.800	27.035	0.100
364.900	26.197	0.099
365.000	27.189	0.099
365.100	27.419	0.099
365.200	19.191	0.099
365.300	26.814	0.100
365.400	23.774	0.099
365.500	10.135	0.099
365.600	40.277	0.100
365.700	25.072	0.099
365.800	13.012	0.099
365.900	31.303	0.099
366.000	27.320	0.100
366.100	25.356	0.100
366.200	21.817	0.100
366.300	28.717	0.100
366.400	23.354	0.100
366.500	10.403	0.099
366.600	29.782	0.099
366.700	34.169	0.100
366.800	17.149	0.099
366.900	32.935	0.100
367.000	27.498	0.100
367.100	10.066	0.099
367.200	14.132	0.100
367.300	36.530	0.100
367.400	33.792	0.100
367.500	27.168	0.099
367.600	23.813	0.099
367.700	31.803	0.099
367.800	32.934	0.100
367.900	15.269	0.100
368.000	23.340	0.099
368.100	28.375	0.099
368.200	26.289	0.099
368.300	21.505	0.100
368.400	27.768	0.099
368.500	11.225	0.099
368.600	12.996	0.100
368.700	28.289	0.100
368.800	30.388	0.100
368.900	41.445	0.099
369.000	28.221	0.100
369.100	13.241	0.099
369.200	28.647	0.099
369.300	16.480	0.100
369.400	21.450	0.100
369.500	10.322	0.099
369.600	10.908	0.100
369.700	24.168	0.100
369.800	28.587	0.100
369.900	20.186	0.099
370.000	19.043	0.099
370.100	28.416	0.099
370.200	17.350	0.099
370.300	23.919	0.099
370.400	27.801	0.099
370.500	13.316	0.099
370.600	27.908	0.099
370.700	25.894	0.100
370.800	17.735	0.099
370.900	34.028	0.099
371.000	18.571	0.099
371.100	5.364	0.099
371.200	37.968	0.099
371.300	23.122	0.099
371.400	19.982	0.099
371.500	26.201	0.099
371.600	30.067	0.100
371.700	14.852	0.099
371.800	15.706	0.099
371.900	17.773	0.099
372.000	30.956	0.099
372.100	24.910	0.099
372.200	4.882	0.099
372.300	20.518	0.100
372.400	19.801	0.099
372.500	27.703	0.099
372.600	54.364	0.100
372.700	18.468	0.099
372.800	21.447	0.100
372.900	20.740	0.099
373.000	21.737	0.100
373.100	26.145	0.100
373.200	21.240	0.099
373.300	29.589	0.099
373.400	22.073	0.099
373.500	21.902	0.099
373.600	27.634	0.100
373.700	41.673	0.100
373.800	18.169	0.100
373.900	23.745	0.100
374.000	25.788	0.100
374.100	14.646	0.099
374.200	13.366	0.099
374.300	19.723	0.099
374.400	8.544	0.099
374.500	22.619	0.100
374.600	25.682	0.099
374.700	42.837	0.099
374.800	29.992	0.100
374.900	22.744	0.099
375.000	26.145	0.099
375.100	20.448	0.099
375.200	32.810	0.099
375.300	30.746	0.100
375.400	17.527	0.099
375.500	27.777	0.099
375.600	18.536	0.100
375.700	23.540	0.099
375.800	19.317	0.100
375.900	27.018	0.099
376.000	26.866	0.099
376.100	20.700	0.099
376.200	18.108	0.099
376.300	24.013	0.099
376.400	11.599	0.099
376.500	34.666	0.099
376.600	16.080	0.099
376.700	13.452	0.099
376.800	25.660	0.099
376.900	31.770	0.099
377.000	20.268	0.099
377.100	30.422	0.099
377.200	23.643	0.099
377.300	10.116	0.099
377.400	17.930	0.100
377.500	29.508	0.099
377.600	28.018	0.099
377.700	14.031	0.100
377.800	27.868	0.099
377.900	22.946	0.099
378.000	37.618	0.099
378.100	13.719	0.099
378.200	23.288	0.099
378.300	23.728	0.100
378.400	25.913	0.100
378.500	18.142	0.099
378.600	16.834	0.099
378.700	22.436	0.099
378.800	21.095	0.099
378.900	9.654	0.099
379.000	42.879	0.099
379.100	18.269	0.100
379.200	27.452	0.099
379.300	17.397	0.099
379.400	19.136	0.100
379.500	32.072	0.100
379.600	10.125	0.100
379.700	35.102	0.100
379.800	22.359	0.099
379.900	32.343	0.100
380.000	7.310	0.099
380.100	25.937	0.099
380.200	29.382	0.099
380.300	15.009	0.099
380.400	15.471	0.099
380.500	32.139	0.099
380.600	27.667	0.099
380.700	22.174	0.099
380.800	22.258	0.099
380.900	24.317	0.100
381.000	23.262	0.099
381.100	41.378	0.099
381.200	23.986	0.099
381.300	25.528	0.099
381.400	17.874	0.099
381.500	31.262	0.100
381.600	21.527	0.099
381.700	20.714	0.099
381.800	30.121	0.099
381.900	30.489	0.099
382.000	11.507	0.099
382.100	20.368	0.100
382.200	35.312	0.099
382.300	17.590	0.099
382.400	13.962	0.099
382.500	24.646	0.099
382.600	26.603	0.100
382.700	33.021	0.099
382.800	18.459	0.099
382.900	26.392	0.100
383.000	24.785	0.099
383.100	6.607	0.099
383.200	20.961	0.099
383.300	27.715	0.099
383.400	28.992	0.099
383.500	13.571	0.099
383.600	14.260	0.100
383.700	22.942	0.099
383.800	9.898	0.099
383.900	24.866	0.100
384.000	29.788	0.100
384.100	30.408	0.099
384.200	8.217	0.099
384.300	21.498	0.099
384.400	31.219	0.100
384.500	28.684	0.100
384.600	13.800	0.099
384.700	27.662	0.100
384.800	20.958	0.100
384.900	8.674	0.100
385.000	24.876	0.099
385.100	22.890	0.099
385.200	8.965	0.099
385.300	25.264	0.099
385.400	19.972	0.100
385.500	33.497	0.099
385.600	19.131	0.100
385.700	32.285	0.099
385.800	7.309	0.100
385.900	18.548	0.099
386.000	22.525	0.099
386.100	31.479	0.099
386.200	15.567	0.099
386.300	20.948	0.099
386.400	27.238	0.099
386.500	7.626	0.100
386.600	32.869	0.100
386.700	21.299	0.100
386.800	14.835	0.099
386.900	14.039	0.099
387.000	28.934	0.100
387.100	27.569	0.100
387.200	24.971	0.100
387.300	14.306	0.100
387.400	14.544	0.100
387.500	29.836	0.100
387.600	20.959	0.099
387.700	43.284	0.100
387.800	3.794	0.099
387.900	14.024	0.099
388.000	3.714	0.100
388.100	33.543	0.099
388.200	19.253	0.100
388.300	16.478	0.100
388.400	11.675	0.099
388.500	34.704	0.099
388.600	19.279	0.099
388.700	42.587	0.099
388.800	20.331	0.100
388.900	17.413	0.099
389.000	25.962	0.099
389.100	40.498	0.099
389.200	18.106	0.100
389.300	19.411	0.100
389.400	21.768	0.099
389.500	20.869	0.099
389.600	14.000	0.100
389.700	18.818	0.099
389.800	27.954	0.100
389.900	17.757	0.099
390.000	22.547	0.099
390.100	17.025	0.099
390.200	25.261	0.099
390.300	28.464	0.099
390.400	19.529	0.099
390.500	12.139	0.099
390.600	21.423	0.099
390.700	5.337	0.099
390.800	16.142	0.099
390.900	7.590	0.099
391.000	16.626	0.100
391.100	19.253	0.100
391.200	-2.490	0.099
391.300	16.921	0.100
391.400	14.636	0.099
391.500	5.494	0.100
391.600	14.016	0.099
391.700	-1.706	0.100
391.800	-4.147	0.099
391.900	1.460	0.099
392.000	9.622	0.100
392.100	13.351	0.099
392.200	-12.228	0.100
392.300	5.083	0.099
392.400	10.782	0.099
392.500	-3.048	0.100
392.600	-8.026	0.099
392.700	8.514	0.099
392.800	-5.888	0.099
392.900	-9.976	0.099
393.000	11.404	0.100
393.100	4.740	0.099
393.200	-7.084	0.099
393.300	-4.166	0.099
393.400	-10.111	0.100
393.500	-10.324	0.099
393.600	-2.538	0.099
393.700	-5.333	0.099
393.800	9.692	0.099
393.900	17.377	0.099
394.000	-0.609	0.099
394.100	-5.251	0.099
394.200	-10.211	0.099
394.300	7.403	0.099
394.400	4.587	0.099
394.500	-18.024	0.099
394.600	-15.633	0.099
394.700	-0.118	0.099
394.800	15.960	0.099
394.900	-5.410	0.100
395.000	-0.553	0.099
395.100	-4.475	0.100
395.200	-26.082	0.099
395.300	7.686	0.099
395.400	-8.021	0.100
395.500	5.500	0.099
395.600	-10.818	0.099
395.700	-4.675	0.099
395.800	-10.463	0.099
395.900	-8.117	0.099
396.000	-1.699	0.099
396.100	-2.772	0.099
396.200	4.929	0.099
396.300	-8.568	0.099
396.400	-21.608	0.099
396.500	-5.523	0.099
396.600	10.493	0.099
396.700	-7.280	0.099
396.800	-0.987	0.100
396.900	-2.787	0.099
397.000	5.439	0.099
397.100	-16.942	0.099
397.200	-12.961	0.099
397.300	10.697	0.100
397.400	6.202	0.099
397.500	-18.551	0.099
397.600	2.425	0.100
397.700	-7.688	0.099
397.800	-10.166	0.100
397.900	12.313	0.099
398.000	-5.660	0.100
398.100	-8.172	0.099
398.200	0.198	0.099
398.300	-5.308	0.099
398.400	-9.142	0.099
398.500	-2.365	0.099
398.600	-9.259	0.099
398.700	-15.130	0.099
398.800	-2.617	0.099
398.900	-7.873	0.100
399.000	-4.843	0.099
399.100	-20.084	0.099
399.200	-6.651	0.099
399.300	2.742	0.099
399.400	3.103	0.100
399.500	2.343	0.099
399.600	-2.350	0.099
399.700	-14.544	0.099
399.800	-10.716	0.099
399.900	-0.915	0.099
400.000	3.651	0.100
400.100	-19.813	0.099
400.200	-0.659	0.100
400.300	-19.590	0.100
400.400	-0.414	0.100
400.500	-6.788	0.099
400.600	-10.176	0.100
400.700	-3.510	0.099
400.800	-13.012	0.099
400.900	-11.880	0.100
401.000	-6.425	0.100
401.100	-11.690	0.100
401.200	5.845	0.099
401.300	-11.838	0.100
401.400	-22.831	0.099
401.500	-22.690	0.099
401.600	2.835	0.100
401.700	-12.966	0.100
401.800	-2.246	0.099
401.900	-3.772	0.099
402.000	-16.423	0.100
402.100	-5.144	0.099
402.200	-0.796	0.099
402.300	-10.320	0.099
402.400	-11.271	0.100
402.500	-6.837	0.099
402.600	-10.550	0.099
402.700	-20.835	0.099
402.800	-3.448	0.100
402.900	-0.701	0.099
403.000	-14.573	0.099
403.100	0.774	0.099
403.200	0.975	0.099
403.300	-18.448	0.100
403.400	-27.344	0.099
403.500	-8.484	0.099
403.600	7.997	0.100
403.700	-7.770	0.100
403.800	-9.472	0.099
403.900	-0.681	0.100
404.000	-14.562	0.099
404.100	-11.371	0.100
404.200	-10.341	0.099
404.300	0.942	0.099
404.400	-1.485	0.099
404.500	-9.163	0.099
404.600	-7.383	0.099
404.700	-12.466	0.099
404.800	2.031	0.100
404.900	-13.243	0.100
405.000	-18.951	0.099
405.100	-7.527	0.100
405.200	-19.549	0.099
405.300	-16.628	0.100
405.400	-16.774	0.099
405.500	-11.728	0.099
405.600	-13.130	0.099
405.700	-10.274	0.100
405.800	-19.638	0.099
405.900	-10.100	0.099
406.000	2.162	0.099
406.100	-14.518	0.099
406.200	-10.346	0.099
406.300	-28.203	0.099
406.400	-12.245	0.099
406.500	-2.184	0.099
406.600	-6.949	0.099
406.700	-8.615	0.099
406.800	-5.264	0.100
406.900	-7.577	0.099
407.000	-0.064	0.099
407.100	-14.936	0.099
407.200	-8.224	0.100
407.300	-8.023	0.100
407.400	-20.388	0.099
407.500	-28.004	0.100
407.600	-10.853	0.100
407.700	-10.149	0.100
407.800	-25.192	0.099
407.900	-8.285	0.099
408.000	-22.960	0.100
408.100	-5.423	0.099
408.200	-22.996	0.100
408.300	-4.145	0.100
408.400	-0.586	0.099
408.500	-17.536	0.100
408.600	-3.651	0.100
408.700	-5.075	0.100
408.800	-13.264	0.099
408.900	2.000	0.099
409.000	-19.180	0.099
409.100	-25.744	0.099
409.200	-19.877	0.099
409.300	-17.397	0.100
409.400	-14.483	0.099
409.500	-9.981	0.100
409.600	-12.768	0.099
409.700	-11.169	0.099
409.800	-24.091	0.099
409.900	0.662	0.099
410.000	-5.940	0.099
410.100	-19.722	0.100
410.200	-2.074	0.100
410.300	-15.399	0.100
410.400	-20.618	0.099
410.500	-15.130	0.100
410.600	-21.713	0.099
410.700	-16.629	0.100
410.800	-4.182	0.100
410.900	-15.133	0.099
411.000	-3.750	0.100
411.100	-3.740	0.099
411.200	-22.649	0.099
411.300	-5.259	0.099
411.400	-14.649	0.100
411.500	-12.980	0.100
411.600	-13.035	0.099
411.700	-12.448	0.099
411.800	-31.082	0.099
411.900	-13.141	0.099
412.000	-18.447	0.100
412.100	-19.490	0.100
412.200	-1.649	0.099
412.300	-0.805	0.099
412.400	-23.314	0.099
412.500	-20.941	0.099
412.600	-11.950	0.099
412.700	-31.525	0.099
412.800	-13.234	0.099
412.900	2.771	0.099
413.000	-22.393	0.099
413.100	-5.402	0.099
413.200	-9.987	0.099
413.300	-27.295	0.099
413.400	-17.880	0.100
413.500	-5.697	0.100
413.600	-18.748	0.099
413.700	-12.389	0.099
413.800	-2.190	0.100
413.900	-22.710	0.099
414.000	-19.179	0.099
414.100	-21.985	0.099
414.200	-11.709	0.100
414.300	-24.360	0.099
414.400	-5.847	0.100
414.500	-15.712	0.099
414.600	-15.035	0.099
414.700	-15.943	0.099
414.800	-15.171	0.100
414.900	-31.557	0.099
415.000	0.970	0.099
415.100	-11.647	0.099
415.200	-1.617	0.099
415.300	-23.468	0.100
415.400	-19.467	0.099
415.500	-24.398	0.099
415.600	-4.355	0.100
415.700	-6.256	0.100
415.800	-23.827	0.099
415.900	-10.417	0.099
416.000	-25.036	0.099
416.100	-15.256	0.099
416.200	-2.579	0.099
416.300	-16.254	0.099
416.400	-3.695	0.100
416.500	-7.599	0.100
416.600	-31.578	0.099
416.700	-32.584	0.099
416.800	-6.707	0.099
416.900	-16.123	0.100
417.000	-0.299	0.099
417.100	-9.249	0.099
417.200	-25.677	0.099
417.300	-13.468	0.099
417.400	-13.302	0.100
417.500	-18.657	0.100
417.600	-14.911	0.100
417.700	-5.870	0.099
417.800	-19.912	0.099
417.900	-12.373	0.099
418.000	-20.102	0.099
418.100	-9.324	0.100
418.200	-9.747	0.099
418.300	-9.129	0.100
418.400	-23.744	0.100
418.500	-16.139	0.099
418.600	-23.075	0.099
418.700	-7.757	0.100
418.800	-22.513	0.099
418.900	-9.204	0.099
419.000	-11.760	0.099
419.100	-41.193	0.099
419.200	-8.292	0.099
419.300	-12.739	0.099
419.400	-14.833	0.099
419.500	-11.220	0.099
419.600	-15.202	0.099
419.700	-20.120	0.100
419.800	-20.240	0.100
419.900	-15.985	0.099
420.000	-24.022	0.100
420.100	-10.834	0.099
420.200	-2.074	0.099
420.300	-20.099	0.099
420.400	-30.618	0.099
420.500	-7.989	0.100
420.600	-15.731	0.099
420.700	-12.052	0.100
420.800	-12.141	0.099
420.900	-17.923	0.099
421.000	-12.768	0.099
421.100	-16.550	0.099
421.200	-31.847	0.099
421.300	-2.769	0.100
421.400	-12.712	0.099
421.500	-24.344	0.099
421.600	-9.128	0.100
421.700	-13.704	0.100
421.800	0.689	0.099
421.900	-41.868	0.099
422.000	-11.032	0.099
422.100	-4.526	0.100
422.200	-8.974	0.099
422.300	-24.912	0.099
422.400	-26.539	0.100
422.500	-2.719	0.100
422.600	-8.530	0.099
422.700	-18.626	0.099
422.800	-38.692	0.099
422.900	-17.818	0.099
423.000	-7.801	0.100
423.100	-5.661	0.099
423.200	-23.498	0.100
423.300	-5.604	0.099
423.400	-21.739	0.100
423.500	-18.585	0.099
423.600	-15.665	0.100
423.700	-2.260	0.099
423.800	-30.774	0.099
423.900	-6.346	0.100
424.000	-15.853	0.100
424.100	-14.066	0.099
424.200	-8.910	0.100
424.300	-11.592	0.100
424.400	-14.801	0.100
424.500	-6.187	0.099
424.600	-26.626	0.100
424.700	16.842	0.100
424.800	-7.790	0.100
424.900	-13.737	0.100
425.000	-24.250	0.100
425.100	-8.395	0.100
425.200	-19.076	0.099
425.300	-25.440	0.100
425.400	-8.897	0.100
425.500	-15.981	0.100
425.600	-18.658	0.100
425.700	-11.930	0.099
425.800	-16.441	0.099
425.900	-22.429	0.100
426.000	-10.954	0.099
426.100	-9.220	0.099
426.200	-3.815	0.100
426.300	-13.988	0.100
426.400	-17.376	0.100
426.500	-23.138	0.100
426.600	-23.813	0.100
426.700	-10.436	0.100
426.800	-20.731	0.100
426.900	-12.657	0.100
427.000	-14.737	0.099
427.100	-14.223	0.100
427.200	-17.809	0.100
427.300	-18.574	0.100
427.400	6.893	0.100
427.500	-27.695	0.100
427.600	-20.969	0.100
427.700	-3.882	0.099
427.800	-17.200	0.100
427.900	-6.437	0.100
428.000	-20.658	0.099
428.100	-23.035	0.100
428.200	-3.619	0.100
428.300	-13.051	0.100
428.400	-30.090	0.099
428.500	-19.070	0.099
428.600	-37.456	0.100
428.700	2.495	0.099
428.800	-12.790	0.100
428.900	-15.454	0.099
429.000	-21.429	0.099
429.100	-7.626	0.099
429.200	-15.126	0.100
429.300	-13.653	0.099
429.400	-24.008	0.100
429.500	-34.100	0.099
429.600	0.305	0.099
429.700	-9.270	0.099
429.800	-24.466	0.099
429.900	-11.179	0.099
430.000	-14.412	0.099
430.100	-9.143	0.100
430.200	-19.612	0.100
430.300	-13.484	0.099
430.400	-14.811	0.100
430.500	-16.887	0.099
430.600	-15.181	0.100
430.700	-14.145	0.099
430.800	-7.580	0.099
430.900	-17.555	0.100
431.000	-16.549	0.100
431.100	-13.115	0.099
431.200	-4.452	0.100
431.300	-11.336	0.100
431.400	-22.894	0.100
431.500	-24.334	0.100
431.600	-12.108	0.099
431.700	-23.058	0.100
431.800	-24.033	0.099
431.900	-15.247	0.100
432.000	-5.140	0.099
432.100	8.055	0.099
432.200	-7.993	0.099
432.300	-22.629	0.100
432.400	-23.931	0.100
432.500	-11.329	0.099
432.600	-22.751	0.099
432.700	-14.058	0.099
432.800	-8.835	0.099
432.900	-14.858	0.099
433.000	-12.494	0.100
433.100	-24.877	0.100
433.200	-10.564	0.099
433.300	-13.753	0.100
433.400	-3.401	0.100
433.500	-23.926	0.099
433.600	-24.603	0.100
433.700	-13.045	0.100
433.800	-7.947	0.099
433.900	-10.653	0.100
434.000	-14.135	0.099
434.100	-24.674	0.100
434.200	-21.189	0.099
434.300	-13.904	0.100
434.400	0.338	0.099
434.500	-9.035	0.100
434.600	-21.263	0.100
434.700	-17.801	0.100
434.800	-14.808	0.099
434.900	-12.579	0.099
435.000	-10.159	0.100
435.100	3.169	0.100
435.200	-12.249	0.100
435.300	-18.300	0.100
435.400	-16.962	0.099
435.500	-13.647	0.100
435.600	-16.138	0.100
435.700	-6.173	0.099
435.800	-9.913	0.099
435.900	-16.158	0.100
436.000	-23.592	0.100
436.100	-8.392	0.099
436.200	-9.075	0.099
436.300	-24.570	0.099
436.400	5.960	0.100
436.500	-15.846	0.100
436.600	-20.929	0.099
436.700	-18.835	0.100
436.800	-5.806	0.100
436.900	-14.782	0.099
437.000	-17.434	0.099
437.100	-17.767	0.099
437.200	-24.622	0.099
437.300	-5.095	0.099
437.400	-13.987	0.099
437.500	-6.795	0.099
437.600	-9.456	0.099
437.700	-12.836	0.100
437.800	-9.595	0.099
437.900	-13.452	0.100
438.000	-12.340	0.100
438.100	-16.588	0.100
438.200	-13.979	0.099
438.300	-8.842	0.099
438.400	-13.564	0.100
438.500	-7.961	0.100
438.600	-22.827	0.100
438.700	-15.342	0.099
438.800	-16.439	0.099
438.900	-14.374	0.099
439.000	-6.259	0.099
439.100	-10.783	0.099
439.200	-18.718	0.099
439.300	-8.828	0.099
439.400	-10.469	0.100
439.500	-27.268	0.099
439.600	-28.740	0.099
439.700	-15.855	0.100
439.800	4.299	0.100
439.900	-8.252	0.099
440.000	-8.997	0.099
440.100	-9.399	0.099
440.200	-3.260	0.099
440.300	-9.437	0.099
440.400	-11.561	0.100
440.500	-15.716	0.100
440.600	-19.798	0.100
440.700	-9.272	0.100
440.800	-12.982	0.099
440.900	-9.462	0.099
441.000	-28.633	0.099
441.100	-10.209	0.099
441.200	-0.907	0.099
441.300	-32.511	0.099
441.400	-5.356	0.099
441.500	-12.260	0.100
441.600	-14.488	0.100
441.700	-8.657	0.099
441.800	-8.810	0.099
441.900	-24.897	0.099
442.000	2.746	0.099
442.100	-1.219	0.100
442.200	-29.956	0.100
442.300	-10.546	0.100
442.400	-6.464	0.100
442.500	-3.023	0.099
442.600	-3.849	0.100
442.700	-10.889	0.100
442.800	-13.689	0.099
442.900	-19.988	0.100
443.000	-13.719	0.099
443.100	-19.699	0.100
443.200	-20.277	0.100
443.300	0.119	0.099
443.400	-8.198	0.100
443.500	-19.732	0.099
443.600	-16.646	0.099
443.700	-9.532	0.100
443.800	-17.173	0.099
443.900	-3.479	0.100
444.000	-13.375	0.099
444.100	-27.516	0.100
444.200	-8.609	0.100
444.300	-14.569	0.100
444.400	-24.637	0.100
444.500	-13.725	0.100
444.600	-4.694	0.100
444.700	-22.514	0.099
444.800	4.538	0.099
444.900	-11.236	0.100
445.000	-14.129	0.099
445.100	5.531	0.100
445.200	-7.034	0.100
445.300	-19.902	0.099
445.400	-15.963	0.100
445.500	-3.623	0.099
445.600	5.046	0.100
445.700	-12.171	0.100
445.800	-6.469	0.100
445.900	-13.207	0.099
446.000	-27.742	0.099
446.100	-24.484	0.100
446.200	2.209	0.100
446.300	1.095	0.100
446.400	-10.185	0.099
446.500	-17.510	0.099
446.600	-9.979	0.099
446.700	-27.091	0.100
446.800	-3.976	0.100
446.900	2.684	0.100
447.000	-1.723	0.099
447.100	-13.229	0.100
447.200	-12.880	0.100
447.300	-15.275	0.100
447.400	-6.721	0.100
447.500	-23.307	0.099
447.600	-9.640	0.100
447.700	-4.953	0.099
447.800	-5.340	0.099
447.900	-9.196	0.100
448.000	-20.450	0.100
448.100	-12.372	0.100
448.200	-6.053	0.099
448.300	-26.861	0.099
448.400	-22.723	0.099
448.500	3.769	0.100
448.600	-14.392	0.099
448.700	-6.626	0.099
448.800	-10.102	0.100
448.900	-5.405	0.100
449.000	-10.881	0.099
449.100	-16.621	0.100
449.200	-4.519	0.099
449.300	-6.548	0.100
449.400	-6.019	0.100
449.500	-11.750	0.100
449.600	-26.993	0.100
449.700	-11.717	0.100
449.800	-11.547	0.100
449.900	-13.239	0.100
450.000	-10.749	0.100
450.100	-6.511	0.100
450.200	-9.292	0.100
450.300	-17.568	0.100
450.400	-14.596	0.100
450.500	-5.267	0.100
450.600	-10.640	0.100
450.700	-14.878	0.100
450.800	-15.800	0.100
450.900	-9.942	0.099
451.000	-13.057	0.100
451.100	-9.529	0.100
451.200	-5.791	0.100
451.300	-13.819	0.100
451.400	-14.317	0.100
451.500	-15.216	0.100
451.600	-32.252	0.100
451.700	-3.908	0.100
451.800	-5.167	0.100
451.900	-14.776	0.100
452.000	-12.221	0.100
452.100	-21.580	0.100
452.200	-11.818	0.100
452.300	-10.817	0.099
452.400	-10.309	0.099
452.500	-14.456	0.100
452.600	-6.221	0.099
452.700	-2.684	0.099
452.800	-15.425	0.100
452.900	-7.250	0.099
453.000	-22.871	0.099
453.100	-12.915	0.099
453.200	0.661	0.099
453.300	-15.999	0.099
453.400	-5.344	0.100
453.500	-15.239	0.100
453.600	0.350	0.099
453.700	-6.629	0.100
453.800	-14.654	0.099
453.900	-15.501	0.099
454.000	0.120	0.099
454.100	-10.619	0.099
454.200	-16.536	0.099
454.300	3.302	0.100
454.400	-4.378	0.100
454.500	-15.008	0.100
454.600	-38.289	0.099
454.700	-0.186	0.099
454.800	-0.859	0.100
454.900	-9.127	0.099
455.000	-14.695	0.099
455.100	-29.745	0.099
455.200	-17.403	0.099
455.300	1.176	0.099
455.400	-16.331	0.100
455.500	-12.883	0.099
455.600	-11.730	0.099
455.700	9.754	0.099
455.800	-16.121	0.099
455.900	-6.323	0.099
456.000	-17.321	0.099
456.100	-13.422	0.100
456.200	-20.011	0.099
456.300	-4.326	0.099
456.400	-9.137	0.100
456.500	-13.814	0.099
456.600	-4.984	0.099
456.700	2.659	0.100
456.800	-20.114	0.099
456.900	-9.008	0.100
457.000	-15.813	0.100
457.100	-19.849	0.099
457.200	-4.408	0.099
457.300	-19.598	0.099
457.400	2.643	0.100
457.500	0.541	0.099
457.600	-5.400	0.100
457.700	-12.767	0.099
457.800	-20.956	0.100
457.900	-18.094	0.099
458.000	-6.984	0.100
458.100	-16.148	0.099
458.200	-9.802	0.099
458.300	-1.843	0.099
458.400	-11.690	0.099
458.500	-19.597	0.099
458.600	-10.014	0.099
458.700	-12.493	0.099
458.800	-18.102	0.099
458.900	-0.894	0.099
459.000	-12.419	0.099
459.100	-12.701	0.100
459.200	-14.485	0.099
459.300	-4.843	0.099
459.400	-9.594	0.099
459.500	-8.142	0.099
459.600	-7.504	0.100
459.700	-8.494	0.099
459.800	-4.309	0.099
459.900	-14.793	0.100
460.000	-13.077	0.099
460.100	-13.729	0.100
460.200	4.284	0.099
460.300	-13.439	0.099
460.400	-20.742	0.100
460.500	-3.801	0.099
460.600	0.486	0.099
460.700	4.558	0.099
460.800	-10.677	0.099
460.900	-29.421	0.099
461.000	-7.519	0.099
461.100	-14.108	0.100
461.200	0.171	0.099
461.300	-8.298	0.100
461.400	-7.019	0.099
461.500	-2.451	0.099
461.600	-8.529	0.099
461.700	-24.476	0.100
461.800	1.116	0.099
461.900	-19.348	0.099
462.000	-9.186	0.099
462.100	-12.060	0.099
462.200	-10.622	0.099
462.300	-18.883	0.100
462.400	4.275	0.099
462.500	1.357	0.099
462.600	-5.074	0.100
462.700	-11.434	0.099
462.800	-13.701	0.099
462.900	-17.157	0.099
463.000	-9.212	0.099
463.100	-7.944	0.099
463.200	-3.169	0.099
463.300	-7.303	0.099
463.400	-15.732	0.099
463.500	-16.352	0.099
463.600	4.705	0.099
463.700	-11.515	0.099
463.800	-26.533	0.099
463.900	-0.023	0.099
464.000	-13.254	0.099
464.100	-0.414	0.099
464.200	-24.410	0.099
464.300	-4.508	0.099
464.400	-1.594	0.099
464.500	-18.977	0.099
464.600	-5.132	0.099
464.700	3.479	0.100
464.800	-27.262	0.099
464.900	-6.020	0.099
465.000	-10.568	0.099
465.100	-18.834	0.099
465.200	-0.839	0.100
465.300	-21.348	0.099
465.400	11.141	0.099
465.500	-6.620	0.099
465.600	-1.297	0.099
465.700	-18.002	0.099
465.800	-15.766	0.099
465.900	-13.906	0.099
466.000	-2.930	0.099
466.100	-10.760	0.099
466.200	-5.058	0.100
466.300	-15.367	0.100
466.400	0.787	0.099
466.500	-14.197	0.099
466.600	-14.921	0.099
466.700	-4.718	0.099
466.800	-2.231	0.099
466.900	-5.629	0.099
467.000	6.637	0.099
467.100	-21.938	0.100
467.200	-8.892	0.099
467.300	-8.356	0.099
467.400	-2.453	0.099
467.500	-7.915	0.099
467.600	-9.156	0.099
467.700	0.937	0.100
467.800	-14.378	0.099
467.900	-8.886	0.099
468.000	-3.240	0.099
468.100	-4.120	0.100
468.200	-16.543	0.099
468.300	-16.003	0.099
468.400	-8.320	0.099
468.500	-10.921	0.099
468.600	8.219	0.100
468.700	-19.290	0.099
468.800	-2.790	0.099
468.900	-12.073	0.099
469.000	-2.186	0.100
469.100	-2.293	0.099
469.200	-24.110	0.100
469.300	-15.275	0.100
469.400	5.497	0.100
469.500	-11.056	0.100
469.600	-6.128	0.099
469.700	-7.918	0.099
469.800	-15.766	0.100
469.900	-33.192	0.100
470.000	7.142	0.099
470.100	-2.014	0.100
470.200	-7.490	0.099
470.300	-11.051	0.099
470.400	-7.198	0.099
470.500	-21.516	0.099
470.600	-11.004	0.099
470.700	0.155	0.099
470.800	-9.434	0.099
470.900	-10.939	0.100
471.000	-5.318	0.099
471.100	-0.610	0.100
471.200	-23.461	0.099
471.300	0.082	0.100
471.400	-8.133	0.100
471.500	-17.960	0.099
471.600	-4.908	0.100
471.700	-4.571	0.099
471.800	-11.388	0.100
471.900	-26.954	0.099
472.000	-4.242	0.100
472.100	-4.232	0.099
472.200	0.779	0.100
472.300	-10.083	0.100
472.400	-7.442	0.099
472.500	-32.585	0.100
472.600	-9.339	0.100
472.700	-20.123	0.100
472.800	-3.910	0.099
472.900	3.553	0.099
473.000	5.985	0.100
473.100	-4.845	0.099
473.200	-16.522	0.099
473.300	-13.864	0.100
473.400	-5.554	0.100
473.500	-9.169	0.100
473.600	-14.700	0.099
473.700	-17.233	0.099
473.800	-0.882	0.100
473.900	1.059	0.100
474.000	0.090	0.099
474.100	-26.871	0.099
474.200	-1.427	0.099
474.300	-9.344	0.099
474.400	2.096	0.099
474.500	-11.887	0.099
474.600	-1.662	0.100
474.700	-24.106	0.099
474.800	-8.793	0.099
474.900	-0.673	0.100
475.000	-14.859	0.099
475.100	0.847	0.099
475.200	-6.962	0.100
475.300	-7.136	0.100
475.400	-2.254	0.099
475.500	0.329	0.099
475.600	-9.421	0.099
475.700	-20.254	0.099
475.800	8.219	0.099
475.900	1.445	0.099
476.000	6.043	0.100
476.100	-9.155	0.099
476.200	-10.902	0.100
476.300	-18.909	0.099
476.400	-0.921	0.099
476.500	0.859	0.100
476.600	-15.608	0.100
476.700	-19.552	0.099
476.800	3.717	0.099
476.900	-11.376	0.099
477.000	8.007	0.100
477.100	-5.646	0.099
477.200	-2.744	0.099
477.300	-10.169	0.100
477.400	-17.856	0.099
477.500	-17.471	0.099
477.600	-14.910	0.099
477.700	-4.754	0.099
477.800	-15.925	0.099
477.900	-4.554	0.099
478.000	-14.433	0.099
478.100	-7.392	0.099
478.200	-1.758	0.100
478.300	-4.906	0.099
478.400	-15.433	0.100
478.500	-21.011	0.099
478.600	-18.828	0.099
478.700	9.414	0.100
478.800	-18.681	0.099
478.900	-1.177	0.100
479.000	1.467	0.099
479.100	-11.040	0.099
479.200	-8.041	0.099
479.300	-9.082	0.100
479.400	-13.369	0.099
479.500	-11.932	0.099
479.600	-2.065	0.099
479.700	-20.493	0.099
479.800	-10.991	0.100
479.900	-10.673	0.099
480.000	9.598	0.099
480.100	-5.736	0.099
480.200	0.421	0.100
480.300	-18.184	0.100
480.400	-4.469	0.100
480.500	-16.708	0.099
480.600	-9.284	0.099
480.700	-5.587	0.099
480.800	-2.327	0.099
480.900	2.522	0.099
481.000	1.235	0.099
481.100	-8.501	0.100
481.200	-3.061	0.100
481.300	-1.894	0.099
481.400	9.905	0.099
481.500	9.188	0.099
481.600	2.490	0.100
481.700	-12.291	0.099
481.800	14.227	0.099
481.900	-7.393	0.099
482.000	10.642	0.099
482.100	2.313	0.099
482.200	3.306	0.099
482.300	16.847	0.100
482.400	-2.577	0.099
482.500	4.842	0.100
482.600	6.128	0.099
482.700	11.192	0.100
482.800	14.598	0.099
482.900	17.830	0.099
483.000	-4.882	0.099
483.100	-2.725	0.099
483.200	26.955	0.100
483.300	14.777	0.099
483.400	27.279	0.100
483.500	4.542	0.099
483.600	-3.503	0.099
483.700	9.057	0.100
483.800	8.116	0.099
483.900	6.555	0.100
484.000	20.254	0.100
484.100	11.824	0.100
484.200	20.342	0.100
484.300	7.959	0.099
484.400	11.321	0.100
484.500	9.965	0.100
484.600	-1.544	0.099
484.700	13.911	0.100
484.800	21.988	0.100
484.900	10.303	0.100
485.000	3.100	0.099
485.100	2.240	0.099
485.200	6.253	0.099
485.300	14.090	0.099
485.400	9.237	0.099
485.500	8.985	0.100
485.600	15.383	0.100
485.700	8.496	0.099
485.800	6.450	0.099
485.900	12.490	0.099
486.000	13.096	0.100
486.100	13.765	0.099
486.200	-2.047	0.100
486.300	4.594	0.099
486.400	19.270	0.100
486.500	-1.545	0.100
486.600	10.178	0.099
486.700	22.952	0.099
486.800	6.612	0.100
486.900	-0.689	0.099
487.000	-1.638	0.099
487.100	18.849	0.099
487.200	5.168	0.099
487.300	7.039	0.099
487.400	13.039	0.100
487.500	1.396	0.100
487.600	12.142	0.099
487.700	-4.144	0.099
487.800	27.127	0.099
487.900	3.925	0.099
488.000	11.277	0.100
488.100	4.294	0.100
488.200	19.879	0.099
488.300	3.408	0.100
488.400	10.072	0.099
488.500	9.244	0.099
488.600	16.833	0.099
488.700	4.058	0.099
488.800	9.658	0.099
488.900	7.233	0.099
489.000	17.751	0.100
489.100	15.015	0.100
489.200	17.864	0.100
489.300	11.907	0.099
489.400	9.801	0.099
489.500	20.466	0.100
489.600	8.216	0.099
489.700	32.292	0.099
489.800	1.971	0.099
489.900	13.266	0.099
490.000	16.013	0.099
490.100	8.180	0.100
490.200	13.304	0.100
490.300	14.515	0.099
490.400	24.636	0.099
490.500	2.480	0.099
490.600	13.508	0.100
490.700	9.306	0.100
490.800	18.024	0.099
490.900	7.553	0.099
491.000	5.064	0.099
491.100	20.651	0.099
491.200	14.382	0.100
491.300	8.736	0.100
491.400	13.696	0.099
491.500	26.821	0.099
491.600	-0.210	0.100
491.700	1.943	0.100
491.800	14.259	0.099
491.900	3.981	0.099
492.000	10.192	0.099
492.100	30.184	0.100
492.200	7.202	0.100
492.300	29.781	0.100
492.400	27.640	0.099
492.500	16.955	0.100
492.600	6.253	0.099
492.700	11.134	0.099
492.800	19.964	0.099
492.900	22.006	0.099
493.000	1.372	0.100
493.100	11.273	0.099
493.200	6.097	0.099
493.300	23.185	0.099
493.400	20.787	0.099
493.500	13.682	0.099
493.600	21.224	0.099
493.700	30.309	0.099
493.800	21.286	0.099
493.900	5.347	0.100
494.000	10.404	0.099
494.100	19.633	0.099
494.200	11.956	0.099
494.300	16.724	0.100
494.400	26.874	0.100
494.500	6.122	0.100
494.600	25.404	0.100
494.700	22.033	0.100
494.800	21.514	0.099
494.900	9.691	0.099
495.000	17.827	0.100
495.100	20.793	0.099
495.200	9.562	0.100
495.300	26.851	0.100
495.400	6.711	0.099
495.500	14.137	0.099
495.600	26.023	0.099
495.700	23.120	0.099
495.800	13.143	0.099
495.900	31.457	0.100
496.000	26.240	0.100
496.100	13.808	0.099
496.200	23.916	0.099
496.300	28.912	0.100
496.400	10.180	0.100
496.500	14.255	0.099
496.600	12.803	0.100
496.700	22.838	0.099
496.800	33.927	0.100
496.900	28.707	0.100
497.000	6.446	0.100
497.100	30.609	0.100
497.200	23.383	0.099
497.300	22.653	0.099
497.400	25.026	0.100
497.500	21.773	0.100
497.600	22.104	0.100
497.700	24.159	0.099
497.800	37.567	0.100
497.900	13.910	0.100
498.000	12.552	0.100
498.100	9.747	0.099
498.200	22.082	0.099
498.300	28.833	0.099
498.400	8.399	0.100
498.500	16.379	0.099
498.600	23.432	0.099
498.700	29.858	0.100
498.800	17.414	0.100
498.900	27.291	0.099
499.000	15.110	0.099
499.100	8.653	0.099
499.200	11.480	0.099
499.300	32.938	0.099
499.400	23.172	0.100
499.500	11.832	0.099
499.600	25.911	0.100
499.700	21.291	0.099
499.800	15.871	0.100
499.900	19.083	0.099
500.000	32.321	0.099
500.100	22.637	0.100
500.200	13.758	0.099
500.300	33.337	0.100
500.400	12.175	0.099
500.500	20.185	0.099
500.600	9.276	0.099
500.700	33.444	0.099
500.800	27.637	0.099
500.900	23.633	0.099
501.000	20.387	0.099
501.100	14.426	0.099
501.200	13.691	0.099
501.300	30.748	0.100
501.400	26.963	0.099
501.500	28.607	0.099
501.600	29.068	0.100
501.700	27.480	0.099
501.800	21.353	0.099
501.900	18.576	0.099
502.000	22.608	0.099
502.100	33.161	0.099
502.200	24.499	0.099
502.300	14.202	0.100
502.400	19.275	0.099
502.500	22.063	0.100
502.600	9.152	0.099
502.700	22.941	0.099
502.800	21.334	0.099
502.900	19.753	0.100
503.000	14.177	0.099
503.100	25.824	0.099
503.200	18.443	0.099
503.300	27.453	0.099
503.400	26.721	0.099
503.500	23.592	0.099
503.600	19.983	0.099
503.700	29.542	0.099
503.800	31.696	0.099
503.900	18.234	0.099
504.000	29.071	0.099
504.100	13.907	0.099
504.200	24.106	0.099
504.300	16.105	0.099
504.400	20.272	0.099
504.500	29.924	0.099
504.600	31.847	0.099
504.700	17.031	0.099
504.800	27.314	0.099
504.900	11.435	0.099
505.000	23.295	0.100
505.100	27.236	0.099
505.200	31.127	0.099
505.300	12.466	0.099
505.400	31.304	0.100
505.500	24.419	0.099
505.600	28.395	0.099
505.700	14.280	0.099
505.800	38.342	0.099
505.900	2.089	0.100
506.000	27.026	0.099
506.100	35.010	0.100
506.200	31.493	0.099
506.300	44.955	0.099
506.400	26.985	0.099
506.500	24.944	0.099
506.600	17.362	0.099
506.700	23.704	0.099
506.800	21.821	0.099
506.900	19.586	0.099
507.000	22.833	0.100
507.100	27.057	0.099
507.200	16.727	0.100
507.300	20.691	0.099
507.400	8.821	0.099
507.500	21.569	0.099
507.600	19.053	0.099
507.700	18.490	0.099
507.800	12.672	0.099
507.900	11.516	0.099
508.000	22.120	0.099
508.100	23.547	0.099
508.200	12.341	0.099
508.300	25.286	0.099
508.400	21.895	0.099
508.500	16.390	0.099
508.600	26.720	0.099
508.700	20.222	0.099
508.800	22.003	0.099
508.900	18.478	0.099
509.000	33.737	0.099
509.100	17.742	0.099
509.200	19.865	0.099
509.300	34.905	0.099
509.400	29.081	0.099
509.500	8.557	0.099
509.600	18.442	0.099
509.700	33.202	0.099
509.800	19.499	0.099
509.900	23.240	0.099
510.000	17.993	0.099
510.100	15.766	0.100
510.200	34.152	0.099
510.300	24.213	0.099
510.400	34.072	0.099
510.500	8.890	0.099
510.600	31.002	0.099
510.700	14.244	0.099
510.800	24.865	0.099
510.900	23.146	0.099
511.000	23.062	0.099
511.100	6.254	0.099
511.200	21.657	0.099
511.300	50.318	0.100
511.400	29.434	0.099
511.500	32.474	0.099
511.600	17.355	0.099
511.700	15.232	0.099
511.800	25.946	0.099
511.900	15.851	0.099
512.000	24.002	0.099
512.100	11.769	0.100
512.200	15.843	0.099
512.300	24.523	0.099
512.400	11.302	0.099
512.500	17.954	0.099
512.600	26.621	0.099
512.700	21.007	0.100
512.800	13.336	0.100
512.900	24.950	0.099
513.000	28.205	0.099
513.100	31.656	0.099
513.200	30.464	0.100
513.300	17.980	0.099
513.400	28.680	0.100
513.500	19.547	0.100
513.600	4.142	0.099
513.700	35.409	0.099
513.800	29.505	0.100
513.900	22.588	0.100
514.000	22.871	0.100
514.100	24.940	0.099
514.200	19.871	0.100
514.300	28.224	0.100
514.400	7.475	0.099
514.500	29.730	0.099
514.600	32.954	0.099
514.700	27.781	0.099
514.800	20.020	0.099
514.900	12.895	0.099
515.000	20.534	0.100
515.100	28.197	0.100
515.200	19.302	0.099
515.300	25.798	0.099
515.400	16.648	0.099
515.500	25.915	0.100
515.600	2.480	0.099
515.700	28.552	0.100
515.800	32.634	0.099
515.900	28.115	0.099
516.000	28.087	0.099
516.100	20.353	0.100
516.200	4.764	0.099
516.300	27.750	0.099
516.400	22.282	0.099
516.500	32.019	0.100
516.600	16.224	0.100
516.700	23.632	0.100
516.800	19.017	0.099
516.900	20.776	0.099
517.000	23.981	0.100
517.100	32.484	0.100
517.200	17.517	0.100
517.300	8.095	0.099
517.400	19.548	0.100
517.500	8.974	0.099
517.600	33.787	0.099
517.700	26.153	0.099
517.800	26.198	0.099
517.900	9.134	0.099
518.000	19.235	0.100
518.100	15.508	0.100
518.200	27.222	0.100
518.300	22.934	0.099
518.400	25.136	0.099
518.500	16.988	0.099
518.600	14.963	0.099
518.700	19.049	0.099
518.800	29.153	0.099
518.900	23.615	0.099
519.000	20.990	0.099
519.100	23.585	0.099
519.200	21.755	0.100
519.300	17.078	0.099
519.400	9.422	0.099
519.500	13.015	0.100
519.600	33.409	0.099
519.700	15.511	0.100
519.800	23.533	0.099
519.900	19.966	0.100
520.000	39.404	0.099
520.100	19.469	0.099
520.200	10.390	0.099
520.300	15.271	0.099
520.400	22.144	0.099
520.500	24.042	0.099
520.600	32.020	0.099
520.700	5.460	0.099
520.800	19.223	0.099
520.900	23.764	0.099
521.000	14.279	0.099
521.100	30.372	0.099
521.200	24.365	0.099
521.300	18.651	0.100
521.400	11.043	0.099
521.500	6.429	0.100
521.600	20.003	0.099
521.700	32.687	0.099
521.800	26.957	0.099
521.900	23.837	0.099
522.000	-1.266	0.099
522.100	7.634	0.100
522.200	27.571	0.099
522.300	33.897	0.100
522.400	11.607	0.099
522.500	14.162	0.100
522.600	32.209	0.099
522.700	12.900	0.100
522.800	20.805	0.099
522.900	25.578	0.099
523.000	30.481	0.100
523.100	30.308	0.099
523.200	20.686	0.099
523.300	19.218	0.099
523.400	25.267	0.100
523.500	9.130	0.099
523.600	8.382	0.099
523.700	31.820	0.100
523.800	25.509	0.100
523.900	20.970	0.099
524.000	7.225	0.099
524.100	25.885	0.099
524.200	27.765	0.100
524.300	23.794	0.099
524.400	16.544	0.099
524.500	26.335	0.099
524.600	27.140	0.100
524.700	13.156	0.100
524.800	18.107	0.100
524.900	38.760	0.100
525.000	30.388	0.100
525.100	18.073	0.100
525.200	18.389	0.099
525.300	13.751	0.100
525.400	19.893	0.099
525.500	20.624	0.100
525.600	16.664	0.099
525.700	27.030	0.100
525.800	10.516	0.100
525.900	20.146	0.099
526.000	26.499	0.100
526.100	25.706	0.100
526.200	19.582	0.099
526.300	9.664	0.100
526.400	-4.468	0.099
526.500	16.738	0.099
526.600	25.910	0.099
526.700	23.985	0.099
526.800	20.088	0.100
526.900	25.102	0.099
527.000	5.936	0.100
527.100	18.394	0.100
527.200	8.449	0.099
527.300	22.904	0.100
527.400	28.601	0.100
527.500	26.229	0.099
527.600	18.347	0.100
527.700	12.083	0.099
527.800	36.459	0.099
527.900	20.861	0.099
528.000	24.378	0.100
528.100	24.090	0.099
528.200	23.939	0.100
528.300	28.682	0.099
528.400	18.438	0.099
528.500	14.956	0.099
528.600	11.703	0.100
528.700	15.215	0.099
528.800	30.708	0.100
528.900	24.978	0.100
529.000	21.186	0.100
529.100	8.557	0.099
529.200	21.615	0.099
529.300	20.185	0.100
529.400	20.218	0.100
529.500	8.736	0.099
529.600	25.557	0.099
529.700	31.976	0.099
529.800	22.792	0.100
529.900	8.400	0.099
530.000	18.712	0.099
530.100	23.282	0.100
530.200	15.958	0.099
530.300	25.522	0.100
530.400	22.162	0.100
530.500	21.655	0.099
530.600	15.178	0.100
530.700	15.626	0.099
530.800	23.618	0.100
530.900	35.729	0.099
531.000	16.004	0.100
531.100	24.567	0.099
531.200	24.300	0.100
531.300	12.033	0.100
531.400	-0.200	0.099
531.500	27.611	0.100
531.600	28.237	0.099
531.700	11.718	0.100
531.800	15.473	0.099
531.900	23.875	0.100
532.000	21.694	0.100
532.100	25.656	0.099
532.200	20.113	0.099
532.300	25.103	0.099
532.400	15.713	0.099
532.500	27.034	0.099
532.600	14.220	0.100
532.700	12.160	0.100
532.800	11.452	0.099
532.900	33.180	0.099
533.000	21.184	0.099
533.100	28.309	0.099
533.200	8.741	0.099
533.300	14.400	0.099
533.400	24.067	0.099
533.500	35.758	0.100
533.600	6.947	0.099
533.700	19.287	0.100
533.800	19.955	0.100
533.900	10.399	0.099
534.000	18.291	0.099
534.100	9.199	0.099
534.200	14.404	0.099
534.300	22.908	0.099
534.400	30.808	0.099
534.500	7.576	0.099
534.600	15.251	0.099
534.700	16.106	0.100
534.800	23.783	0.099
534.900	24.965	0.099
535.000	22.574	0.099
535.100	33.081	0.099
535.200	22.981	0.099
535.300	21.691	0.099
535.400	17.634	0.100
535.500	12.483	0.099
535.600	8.135	0.099
535.700	16.447	0.099
535.800	3.900	0.099
535.900	25.834	0.100
536.000	24.684	0.099
536.100	16.938	0.099
536.200	31.752	0.099
536.300	16.477	0.100
536.400	23.802	0.099
536.500	31.664	0.100
536.600	12.005	0.100
536.700	4.604	0.099
536.800	31.398	0.099
536.900	19.507	0.100
537.000	11.059	0.100
537.100	29.372	0.100
537.200	12.276	0.099
537.300	20.463	0.099
537.400	7.291	0.099
537.500	18.511	0.099
537.600	16.672	0.100
537.700	14.596	0.099
537.800	28.727	0.100
537.900	7.663	0.099
538.000	34.969	0.099
538.100	20.222	0.099
538.200	11.187	0.100
538.300	4.653	0.100
538.400	19.347	0.099
538.500	26.865	0.099
538.600	20.396	0.100
538.700	25.855	0.100
538.800	25.349	0.100
538.900	7.011	0.100
539.000	12.225	0.100
539.100	20.679	0.100
539.200	24.935	0.099
539.300	15.346	0.100
539.400	21.292	0.099
539.500	13.858	0.100
539.600	15.869	0.099
539.700	25.308	0.100
539.800	28.620	0.100
539.900	19.835	0.100
540.000	18.326	0.100
540.100	15.537	0.100
540.200	24.392	0.099
540.300	1.399	0.100
540.400	18.661	0.099
540.500	11.705	0.099
540.600	5.954	0.099
540.700	28.135	0.100
540.800	17.021	0.100
540.900	-5.671	0.100
541.000	23.481	0.100
541.100	0.505	0.100
541.200	-0.013	0.099
541.300	15.611	0.100
541.400	11.335	0.100
541.500	4.972	0.100
541.600	-4.338	0.100
541.700	4.392	0.100
541.800	-0.962	0.099
541.900	1.668	0.100
542.000	4.264	0.100
542.100	-7.305	0.100
542.200	14.327	0.099
542.300	-7.737	0.099
542.400	5.471	0.100
542.500	-8.660	0.100
542.600	-1.477	0.099
542.700	8.443	0.100
542.800	10.768	0.100
542.900	1.492	0.099
543.000	-3.479	0.100
543.100	-0.802	0.100
543.200	0.123	0.099
543.300	0.309	0.100
543.400	-10.825	0.100
543.500	-0.484	0.099
543.600	0.053	0.100
543.700	6.382	0.099
543.800	-10.941	0.099
543.900	-3.666	0.099
544.000	-9.012	0.099
544.100	2.181	0.100
544.200	-0.598	0.100
544.300	-5.346	0.100
544.400	-18.516	0.100
544.500	-11.368	0.099
544.600	8.506	0.100
544.700	-13.912	0.100
544.800	-1.594	0.100
544.900	-8.071	0.100
545.000	1.266	0.099
545.100	7.125	0.099
545.200	-1.198	0.099
545.300	1.828	0.099
545.400	3.168	0.100
545.500	-7.254	0.100
545.600	-6.005	0.100
545.700	5.050	0.099
545.800	-7.125	0.100
545.900	-1.294	0.100
546.000	-5.636	0.099
546.100	-4.032	0.100
546.200	-6.564	0.099
546.300	-12.225	0.100
546.400	2.847	0.100
546.500	-16.474	0.099
546.600	0.899	0.100
546.700	-2.648	0.099
546.800	-20.011	0.100
546.900	-11.067	0.100
547.000	2.807	0.100
547.100	-14.526	0.100
547.200	-8.218	0.100
547.300	-3.559	0.099
547.400	-8.392	0.100
547.500	0.420	0.100
547.600	-2.190	0.100
547.700	-9.372	0.100
547.800	-4.199	0.100
547.900	-12.799	0.099
548.000	0.383	0.100
548.100	-2.891	0.099
548.200	3.723	0.099
548.300	-3.978	0.100
548.400	-13.067	0.100
548.500	0.575	0.100
548.600	-3.367	0.099
548.700	9.072	0.099
548.800	0.178	0.100
548.900	-20.101	0.100
549.000	5.354	0.100
549.100	8.640	0.099
549.200	-12.127	0.099
549.300	6.430	0.100
549.400	-3.149	0.099
549.500	-16.332	0.100
549.600	-3.427	0.099
549.700	-11.527	0.099
549.800	-16.086	0.100
549.900	17.547	0.099
550.000	-21.288	0.100
550.100	-0.893	0.100
550.200	-9.569	0.099
550.300	-4.978	0.100
550.400	-2.607	0.100
550.500	-4.668	0.099
550.600	-8.148	0.100
550.700	-4.962	0.100
550.800	-7.599	0.099
550.900	-2.122	0.099
551.000	-16.808	0.100
551.100	-3.679	0.099
551.200	2.108	0.100
551.300	2.680	0.100
551.400	-16.164	0.100
551.500	-27.955	0.100
551.600	0.873	0.100
551.700	-10.215	0.100
551.800	-7.112	0.099
551.900	-7.212	0.100
552.000	-13.829	0.100
552.100	-0.933	0.100
552.200	-0.396	0.100
552.300	-12.513	0.100
552.400	-23.414	0.100
552.500	0.372	0.100
552.600	-4.658	0.100
552.700	-13.367	0.100
552.800	1.132	0.100
552.900	-3.052	0.100
553.000	-10.092	0.100
553.100	-13.593	0.100
553.200	-1.594	0.100
553.300	-1.912	0.099
553.400	-15.277	0.100
553.500	-23.688	0.099
553.600	-16.225	0.100
553.700	-8.064	0.100
553.800	-13.500	0.100
553.900	-13.708	0.100
554.000	-9.422	0.099
554.100	-3.916	0.100
554.200	-18.703	0.100
554.300	-17.643	0.100
554.400	-20.078	0.100
554.500	12.575	0.100
554.600	-3.360	0.100
554.700	-11.371	0.100
554.800	-4.751	0.100
554.900	-3.416	0.100
555.000	-20.777	0.100
555.100	-20.285	0.100
555.200	-11.572	0.100
555.300	-0.311	0.100
555.400	-16.435	0.100
555.500	-10.203	0.100
555.600	-12.792	0.100
555.700	-6.570	0.100
555.800	-14.155	0.100
555.900	-30.852	0.100
556.000	-3.783	0.099
556.100	-1.942	0.100
556.200	-12.623	0.100
556.300	0.040	0.100
556.400	-28.804	0.100
556.500	-2.660	0.100
556.600	-7.671	0.100
556.700	-22.553	0.099
556.800	-8.788	0.100
556.900	-7.098	0.099
557.000	-12.777	0.100
557.100	-0.837	0.099
557.200	-12.057	0.100
557.300	-6.827	0.100
557.400	-12.465	0.100
557.500	-18.082	0.100
557.600	-8.038	0.100
557.700	-14.408	0.100
557.800	-3.513	0.100
557.900	-9.984	0.100
558.000	-17.911	0.100
558.100	-19.865	0.099
558.200	-4.238	0.100
558.300	-5.969	0.100
558.400	-12.422	0.100
558.500	-10.661	0.100
558.600	-28.500	0.100
558.700	-5.069	0.100
558.800	-14.120	0.100
558.900	-13.269	0.100
559.000	-0.350	0.100
559.100	-20.881	0.100
559.200	-34.282	0.100
559.300	-16.191	0.100
559.400	-0.697	0.100
559.500	1.257	0.100
559.600	-15.141	0.100
559.700	-17.255	0.100
559.800	-6.631	0.100
559.900	-19.483	0.100
560.000	9.098	0.100
560.100	-16.430	0.100
560.200	1.680	0.099
560.300	-8.478	0.100
560.400	-2.175	0.100
560.500	-12.141	0.100
560.600	-19.669	0.100
560.700	-13.174	0.100
560.800	-22.056	0.100
560.900	0.211	0.100
561.000	2.313	0.100
561.100	-9.414	0.100
561.200	-29.735	0.099
561.300	-29.106	0.100
561.400	-8.935	0.100
561.500	-14.326	0.100
561.600	-20.625	0.100
561.700	-12.411	0.100
561.800	-20.272	0.100
561.900	-17.531	0.100
562.000	-13.380	0.100
562.100	-17.012	0.100
562.200	-18.394	0.100
562.300	-10.161	0.100
562.400	-5.852	0.100
562.500	-21.665	0.100
562.600	-19.523	0.100
562.700	-5.973	0.100
562.800	-21.701	0.100
562.900	-2.981	0.100
563.000	-17.008	0.100
563.100	-9.672	0.100
563.200	-9.989	0.100
563.300	-13.750	0.100
563.400	-10.016	0.100
563.500	-25.773	0.100
563.600	-7.367	0.100
563.700	-29.455	0.100
563.800	-21.612	0.100
563.900	-24.551	0.100
564.000	-0.174	0.100
564.100	-20.351	0.100
564.200	-12.062	0.100
564.300	-10.889	0.100
564.400	-2.403	0.100
564.500	-12.358	0.100
564.600	-12.690	0.100
564.700	1.337	0.100
564.800	-16.713	0.100
564.900	-6.148	0.100
565.000	-3.745	0.100
565.100	-14.468	0.100
565.200	0.341	0.100
565.300	-24.157	0.100
565.400	-12.553	0.100
565.500	-23.764	0.100
565.600	-17.899	0.100
565.700	-20.364	0.100
565.800	-25.330	0.100
565.900	-6.813	0.100
566.000	-9.843	0.100
566.100	-17.732	0.100
566.200	-16.168	0.100
566.300	-4.786	0.100
566.400	-28.179	0.100
566.500	-23.919	0.100
566.600	-14.740	0.100
566.700	-25.090	0.100
566.800	-10.292	0.100
566.900	-7.893	0.100
567.000	-23.602	0.100
567.100	-12.844	0.100
567.200	-4.728	0.100
567.300	-15.610	0.100
567.400	-22.884	0.100
567.500	-9.047	0.099
567.600	-29.347	0.100
567.700	-4.976	0.100
567.800	-14.830	0.100
567.900	-13.062	0.100
568.000	-13.569	0.100
568.100	-28.604	0.100
568.200	-13.420	0.099
568.300	-17.226	0.100
568.400	-16.711	0.100
568.500	-20.826	0.100
568.600	-23.866	0.100
568.700	-6.964	0.100
568.800	-16.572	0.100
568.900	-11.517	0.100
569.000	-18.308	0.100
569.100	0.188	0.100
569.200	-24.602	0.100
569.300	-17.056	0.100
569.400	-7.143	0.099
569.500	-20.158	0.100
569.600	-26.267	0.100
569.700	-0.216	0.100
569.800	-11.338	0.100
569.900	-30.403	0.100
570.000	4.649	0.100
570.100	-8.929	0.100
570.200	-16.637	0.099
570.300	-15.446	0.100
570.400	-8.822	0.100
570.500	-18.687	0.100
570.600	-13.482	0.100
570.700	-16.718	0.100
570.800	-3.658	0.100
570.900	-7.637	0.100
571.000	-27.023	0.099
571.100	-8.099	0.100
571.200	-15.382	0.100
571.300	-15.411	0.100
571.400	-14.015	0.100
571.500	-14.613	0.100
571.600	-10.190	0.100
571.700	-21.556	0.100
571.800	-7.070	0.100
571.900	-23.540	0.100
572.000	-20.716	0.100
572.100	-9.888	0.100
572.200	-21.222	0.100
572.300	-18.664	0.100
572.400	-8.421	0.100
572.500	-25.177	0.100
572.600	-11.676	0.100
572.700	-4.675	0.099
572.800	-10.077	0.100
572.900	-10.277	0.100
573.000	-28.128	0.100
573.100	-3.882	0.100
573.200	-15.620	0.100
573.300	-17.403	0.100
573.400	-16.995	0.100
573.500	-12.790	0.100
573.600	-12.253	0.100
573.700	-20.683	0.100
573.800	-14.250	0.100
573.900	-2.764	0.100
574.000	-23.338	0.100
574.100	-17.914	0.100
574.200	-26.051	0.100
574.300	0.897	0.100
574.400	-13.360	0.100
574.500	-9.774	0.100
574.600	-15.842	0.100
574.700	-9.259	0.100
574.800	-9.008	0.100
574.900	-11.079	0.100
575.000	-32.301	0.100
575.100	-23.153	0.100
575.200	-9.728	0.100
575.300	-15.777	0.100
575.400	-11.258	0.100
575.500	-21.137	0.099
575.600	-6.413	0.100
575.700	-14.237	0.100
575.800	-20.142	0.100
575.900	-29.669	0.100
576.000	-17.481	0.100
576.100	-7.790	0.100
576.200	-13.856	0.100
576.300	-30.190	0.100
576.400	-2.525	0.099
576.500	-4.351	0.100
576.600	20.105	0.100
576.700	-0.449	0.100
576.800	-20.530	0.100
576.900	-22.980	0.100
577.000	-14.028	0.100
577.100	-3.649	0.100
577.200	-15.849	0.100
577.300	-1.616	0.100
577.400	-24.130	0.100
577.500	-12.672	0.100
577.600	-12.095	0.100
577.700	-21.189	0.099
577.800	-9.182	0.100
577.900	-18.678	0.099
578.000	-8.332	0.100
578.100	-23.586	0.100
578.200	-9.276	0.100
578.300	-12.164	0.100
578.400	-18.398	0.100
578.500	-18.298	0.100
578.600	-4.525	0.100
578.700	-13.039	0.100
578.800	-8.789	0.100
578.900	-14.154	0.100
579.000	-12.156	0.100
579.100	-8.711	0.100
579.200	-11.569	0.100
579.300	-20.978	0.100
579.400	-19.813	0.100
579.500	-17.104	0.100
579.600	-18.581	0.100
579.700	-14.291	0.100
579.800	-10.127	0.100
579.900	-10.558	0.099
580.000	-16.884	0.100
580.100	-8.538	0.100
580.200	-20.777	0.100
580.300	-14.237	0.100
580.400	-21.500	0.099
580.500	-13.430	0.100
580.600	-6.620	0.099
580.700	-8.370	0.100
580.800	0.505	0.100
580.900	-11.361	0.100
581.000	-13.254	0.100
581.100	-18.803	0.100
581.200	-21.806	0.100
581.300	-11.447	0.100
581.400	-17.617	0.100
581.500	-13.872	0.100
581.600	-12.978	0.100
581.700	-18.753	0.100
581.800	-3.477	0.100
581.900	-13.393	0.099
582.000	-7.798	0.100
582.100	-14.213	0.100
582.200	-19.381	0.100
582.300	-18.178	0.100
582.400	-11.780	0.100
582.500	-18.407	0.100
582.600	-17.898	0.099
582.700	-6.645	0.100
582.800	-14.514	0.100
582.900	-17.284	0.100
583.000	-16.144	0.100
583.100	-8.741	0.100
583.200	-19.013	0.100
583.300	-15.981	0.100
583.400	-29.207	0.100
583.500	-15.990	0.100
583.600	-25.813	0.100
583.700	-19.848	0.100
583.800	-9.847	0.099
583.900	-5.020	0.100
584.000	-7.834	0.099
584.100	-11.917	0.099
584.200	-12.000	0.100
584.300	-14.959	0.099
584.400	-11.860	0.100
584.500	-3.104	0.100
584.600	-10.390	0.100
584.700	-23.771	0.100
584.800	-1.488	0.099
584.900	-35.716	0.099
585.000	-15.931	0.100
585.100	-16.511	0.100
585.200	2.982	0.100
585.300	-13.471	0.100
585.400	-3.293	0.100
585.500	-10.232	0.100
585.600	-14.722	0.100
585.700	-19.099	0.100
585.800	-15.131	0.100
585.900	-9.184	0.100
586.000	-8.446	0.100
586.100	-17.949	0.100
586.200	-6.471	0.100
586.300	0.371	0.100
586.400	-19.495	0.099
586.500	-16.225	0.100
586.600	-26.006	0.100
586.700	-10.016	0.100
586.800	-18.594	0.100
586.900	-22.367	0.100
587.000	-14.034	0.099
587.100	-3.987	0.100
587.200	-6.545	0.100
587.300	-10.418	0.099
587.400	-9.562	0.100
587.500	-13.338	0.100
587.600	-22.968	0.100
587.700	-8.067	0.099
587.800	-11.670	0.100
587.900	-2.690	0.100
588.000	-10.293	0.100
588.100	-8.757	0.100
588.200	-7.689	0.100
588.300	-19.771	0.100
588.400	-10.569	0.099
588.500	-13.848	0.100
588.600	-18.850	0.099
588.700	-10.128	0.100
588.800	-25.489	0.099
588.900	-5.500	0.100
589.000	-19.939	0.099
589.100	-13.215	0.100
589.200	-6.508	0.100
589.300	-10.314	0.100
589.400	-15.217	0.100
589.500	-25.112	0.099
589.600	-8.864	0.099
589.700	-1.315	0.100
589.800	2.119	0.100
589.900	-20.158	0.100
590.000	-15.172	0.100
590.100	-7.098	0.100
590.200	-11.142	0.100
590.300	-10.375	0.100
590.400	-26.131	0.100
590.500	-14.984	0.100
590.600	-18.945	0.099
590.700	-15.330	0.099
590.800	1.749	0.100
590.900	-7.907	0.100
591.000	-11.771	0.099
591.100	-16.606	0.100
591.200	-24.420	0.099
591.300	-17.085	0.100
591.400	-9.738	0.100
591.500	-11.797	0.099
591.600	-4.937	0.100
591.700	-10.235	0.099
591.800	-20.186	0.100
591.900	-26.232	0.100
592.000	7.942	0.100
592.100	-4.333	0.100
592.200	-17.683	0.100
592.300	-4.429	0.100
592.400	-21.041	0.100
592.500	-19.301	0.100
592.600	-18.418	0.099
592.700	-19.164	0.100
592.800	3.868	0.100
592.900	-4.642	0.099
593.000	6.372	0.100
593.100	-28.710	0.099
593.200	-22.390	0.100
593.300	1.811	0.100
593.400	-14.849	0.100
593.500	-16.285	0.100
593.600	-13.624	0.100
593.700	-6.344	0.100
593.800	-16.874	0.100
593.900	-10.950	0.100
594.000	-0.533	0.100
594.100	0.899	0.100
594.200	-7.670	0.100
594.300	-11.986	0.100
594.400	-18.784	0.100
594.500	-9.755	0.100
594.600	-7.416	0.100
594.700	-18.680	0.100
594.800	-21.279	0.100
594.900	2.898	0.100
595.000	-12.325	0.099
595.100	-2.410	0.100
595.200	-6.204	0.100
595.300	-24.255	0.100
595.400	-6.099	0.100
595.500	-17.445	0.100
595.600	-4.981	0.100
595.700	-17.926	0.100
595.800	-3.895	0.100
595.900	-1.028	0.100
596.000	-10.240	0.099
596.100	-12.522	0.100
596.200	-10.670	0.099
596.300	-16.943	0.100
596.400	-9.254	0.100
596.500	-5.442	0.100
596.600	-13.138	0.100
596.700	-8.348	0.100
596.800	-17.396	0.100
596.900	-5.665	0.100
597.000	-25.603	0.100
597.100	7.026	0.100
597.200	-8.553	0.100
597.300	-12.955	0.100
597.400	-7.605	0.100
597.500	-7.520	0.100
597.600	-13.064	0.100
597.700	-14.996	0.100
597.800	1.056	0.100
597.900	-23.464	0.100
598.000	-10.986	0.100
598.100	-5.751	0.100
598.200	-11.969	0.100
598.300	-17.111	0.100
598.400	-11.262	0.100
598.500	-11.846	0.100
598.600	-0.637	0.100
598.700	-3.065	0.100
598.800	-17.235	0.100
598.900	-3.840	0.100
599.000	-10.603	0.100
599.100	-15.209	0.099
599.200	-7.331	0.100
599.300	-17.929	0.100
599.400	-10.228	0.100
599.500	-9.512	0.100
599.600	-18.713	0.099
599.700	-10.539	0.100
599.800	-23.901	0.100
599.900	2.191	0.100
600.000	-9.864	0.100
600.100	-21.002	0.100
600.200	-2.043	0.100
600.300	-8.560	0.100
600.400	-22.878	0.100
600.500	-19.212	0.100
600.600	11.179	0.099
600.700	-6.092	0.099
600.800	4.555	0.100
600.900	-12.908	0.100
601.000	-21.395	0.100
601.100	-15.350	0.100
601.200	-12.203	0.100
601.300	-1.544	0.100
601.400	-21.877	0.100
601.500	-10.984	0.100
601.600	-10.730	0.100
601.700	-11.926	0.100
601.800	-12.381	0.100
601.900	-15.490	0.100
602.000	-7.829	0.100
602.100	-10.875	0.100
602.200	-6.157	0.100
602.300	-26.271	0.100
602.400	7.641	0.099
602.500	-14.826	0.100
602.600	-3.389	0.100
602.700	-0.436	0.100
602.800	-24.774	0.100
602.900	-8.874	0.099
603.000	-13.480	0.099
603.100	1.745	0.100
603.200	-15.470	0.100
603.300	-6.184	0.100
603.400	-20.825	0.100
603.500	-4.392	0.100
603.600	-10.167	0.100
603.700	-22.510	0.100
603.800	-11.915	0.100
603.900	-8.269	0.100
604.000	7.176	0.100
604.100	-6.947	0.099
604.200	-13.153	0.100
604.300	-12.958	0.100
604.400	-18.979	0.100
604.500	-12.498	0.100
604.600	-20.669	0.100
604.700	-2.214	0.100
604.800	-14.569	0.100
604.900	-15.775	0.100
605.000	-1.347	0.099
605.100	-0.786	0.100
605.200	-0.847	0.099
605.300	-2.744	0.100
605.400	-10.835	0.100
605.500	-4.695	0.099
605.600	-17.668	0.099
605.700	-5.735	0.100
605.800	-6.191	0.100
605.900	-12.190	0.100
606.000	-13.307	0.100
606.100	-8.956	0.100
606.200	-2.584	0.100
606.300	-8.787	0.100
606.400	-16.521	0.100
606.500	-16.964	0.100
606.600	2.237	0.100
606.700	-28.972	0.100
606.800	-7.653	0.100
606.900	-24.429	0.099
607.000	1.621	0.100
607.100	-13.695	0.099
607.200	-8.699	0.100
607.300	-18.773	0.099
607.400	-8.093	0.100
607.500	-14.080	0.100
607.600	-8.382	0.100
607.700	-17.249	0.100
607.800	-25.911	0.099
607.900	-0.631	0.100
608.000	4.066	0.100
608.100	-19.410	0.099
608.200	-22.091	0.100
608.300	-3.283	0.100
608.400	-1.375	0.100
608.500	1.503	0.100
608.600	2.556	0.100
608.700	-15.936	0.100
608.800	-11.084	0.100
608.900	1.574	0.100
609.000	-19.472	0.100
609.100	-20.271	0.100
609.200	-3.661	0.100
609.300	-28.577	0.100
609.400	-7.690	0.100
609.500	-15.869	0.100
609.600	-14.751	0.099
609.700	-11.409	0.100
609.800	-17.337	0.099
609.900	-3.722	0.099
610.000	-5.489	0.100
610.100	-2.589	0.100
610.200	-12.699	0.100
610.300	-13.088	0.099
610.400	-25.712	0.100
610.500	2.115	0.100
610.600	-6.982	0.100
610.700	-5.472	0.100
610.800	8.948	0.100
610.900	-9.949	0.100
611.000	-7.460	0.100
611.100	6.041	0.099
611.200	-9.173	0.100
611.300	-13.864	0.100
611.400	-16.980	0.100
611.500	-15.366	0.100
611.600	-13.623	0.099
611.700	-4.692	0.100
611.800	-12.858	0.099
611.900	-15.473	0.099
612.000	-17.123	0.100
612.100	-7.648	0.100
612.200	-20.766	0.100
612.300	-14.262	0.099
612.400	-6.278	0.099
612.500	-15.688	0.099
612.600	4.211	0.100
612.700	-4.160	0.100
612.800	8.623	0.100
612.900	-18.571	0.100
613.000	-3.132	0.099
613.100	-16.961	0.100
613.200	-0.382	0.100
613.300	-11.520	0.100
613.400	1.417	0.099
613.500	-0.774	0.099
613.600	-6.389	0.100
613.700	-1.387	0.100
613.800	-9.848	0.100
613.900	-16.905	0.100
614.000	-8.200	0.099
614.100	-5.986	0.100
614.200	-11.673	0.099
614.300	-8.557	0.099
614.400	-12.129	0.099
614.500	-15.912	0.099
614.600	-16.481	0.100
614.700	3.401	0.100
614.800	-4.482	0.100
614.900	-18.031	0.100
615.000	-14.653	0.100
615.100	-15.221	0.100
615.200	-4.659	0.100
615.300	2.935	0.100
615.400	-21.726	0.100
615.500	-17.005	0.099
615.600	-12.032	0.100
615.700	-9.326	0.100
615.800	-7.046	0.099
615.900	-7.867	0.100
616.000	-20.928	0.100
616.100	-12.278	0.100
616.200	-4.208	0.100
616.300	-16.175	0.099
616.400	-4.731	0.100
616.500	-34.470	0.099
616.600	-13.432	0.100
616.700	-17.239	0.099
616.800	4.847	0.100
616.900	-5.389	0.100
617.000	1.331	0.100
617.100	-6.526	0.099
617.200	-20.795	0.099
617.300	-1.284	0.100
617.400	-24.575	0.099
617.500	1.187	0.099
617.600	1.480	0.100
617.700	-5.599	0.100
617.800	-12.353	0.099
617.900	-12.769	0.099
618.000	-5.805	0.099
618.100	-10.224	0.099
618.200	-17.930	0.100
618.300	-8.683	0.099
618.400	-14.995	0.099
618.500	-7.761	0.100
618.600	-28.026	0.100
618.700	-11.042	0.099
618.800	-28.649	0.100
618.900	-5.628	0.100
619.000	2.581	0.100
619.100	-16.449	0.100
619.200	-9.567	0.099
619.300	-6.360	0.099
619.400	-5.083	0.099
619.500	-10.099	0.100
619.600	-2.325	0.100
619.700	-12.763	0.099
619.800	-23.912	0.100
619.900	-15.111	0.099
620.000	-9.961	0.100
620.100	-3.597	0.100
620.200	-2.415	0.099
620.300	-4.704	0.100
620.400	-14.219	0.100
620.500	-6.792	0.100
620.600	-14.432	0.100
620.700	-7.133	0.100
620.800	-4.572	0.100
620.900	-21.260	0.100
621.000	5.417	0.100
621.100	-7.000	0.100
621.200	-10.574	0.100
621.300	-11.317	0.100
621.400	-13.137	0.099
621.500	-11.559	0.100
621.600	-5.067	0.100
621.700	-10.924	0.100
621.800	-17.664	0.100
621.900	-1.167	0.100
622.000	-17.652	0.100
622.100	-7.111	0.100
622.200	-4.922	0.100
622.300	0.066	0.099
622.400	-8.414	0.100
622.500	-10.442	0.100
622.600	-17.947	0.100
622.700	-6.289	0.100
622.800	-9.681	0.100
622.900	1.498	0.100
623.000	-6.168	0.100
623.100	-11.279	0.100
623.200	6.266	0.100
623.300	-1.956	0.100
623.400	-8.762	0.100
623.500	-8.477	0.100
623.600	-14.092	0.100
623.700	-2.686	0.100
623.800	6.218	0.100
623.900	-17.437	0.100
624.000	-1.957	0.100
624.100	-8.833	0.100
624.200	-0.823	0.100
624.300	-12.390	0.100
624.400	-11.600	0.100
624.500	-2.422	0.100
624.600	-16.129	0.100
624.700	-19.660	0.100
624.800	-2.790	0.100
624.900	-17.969	0.100
625.000	-5.827	0.100
625.100	0.257	0.100
625.200	-1.470	0.099
625.300	-18.192	0.100
625.400	-4.520	0.099
625.500	-9.726	0.100
625.600	-11.557	0.099
625.700	-12.771	0.100
625.800	-10.626	0.100
625.900	-16.200	0.100
626.000	2.080	0.100
626.100	-30.705	0.100
626.200	-0.279	0.100
626.300	-11.564	0.100
626.400	-6.974	0.100
626.500	-17.605	0.100
626.600	-1.245	0.100
626.700	-18.701	0.100
626.800	-21.929	0.100
626.900	-15.275	0.100
627.000	8.251	0.100
627.100	-9.997	0.100
627.200	-13.248	0.100
627.300	-1.110	0.099
627.400	-2.854	0.100
627.500	-3.838	0.100
627.600	-7.959	0.100
627.700	-19.469	0.100
627.800	0.137	0.100
627.900	-4.752	0.100
628.000	-7.933	0.100
628.100	-1.124	0.100
628.200	-18.915	0.100
628.300	-24.397	0.100
628.400	3.841	0.100
628.500	5.942	0.100
628.600	-15.136	0.100
628.700	-10.924	0.100
628.800	-8.366	0.100
628.900	-5.028	0.100
629.000	-10.280	0.100
629.100	-17.806	0.100
629.200	-6.251	0.100
629.300	-11.560	0.100
629.400	-3.568	0.100
629.500	-6.406	0.100
629.600	-9.947	0.100
629.700	-8.124	0.100
629.800	-25.116	0.100
629.900	10.222	0.100
630.000	-10.194	0.100
630.100	-17.453	0.100
630.200	-8.706	0.100
630.300	-7.291	0.100
630.400	7.530	0.100
630.500	-12.444	0.100
630.600	-16.450	0.099
630.700	-15.964	0.100
630.800	-5.476	0.100
630.900	-6.589	0.100
631.000	-16.942	0.100
631.100	1.692	0.099
631.200	-3.561	0.100
631.300	17.335	0.099
631.400	-6.667	0.099
631.500	12.674	0.099
631.600	9.628	0.100
631.700	0.117	0.100
631.800	-5.523	0.099
631.900	19.245	0.100
632.000	-9.714	0.100
632.100	-0.786	0.100
632.200	29.111	0.100
632.300	12.965	0.100
632.400	-0.241	0.100
632.500	-3.212	0.100
632.600	11.781	0.100
632.700	18.641	0.100
632.800	-2.533	0.100
632.900	3.340	0.100
633.000	17.710	0.100
633.100	7.351	0.100
633.200	22.263	0.100
633.300	12.823	0.100
633.400	-3.154	0.100
633.500	-7.174	0.100
633.600	-5.434	0.100
633.700	10.272	0.100
633.800	-11.342	0.100
633.900	24.541	0.100
634.000	19.992	0.100
634.100	5.021	0.100
634.200	-1.580	0.100
634.300	0.289	0.099
634.400	21.665	0.100
634.500	2.384	0.100
634.600	-0.409	0.100
634.700	6.539	0.099
634.800	12.041	0.099
634.900	2.671	0.100
635.000	17.145	0.100
635.100	9.514	0.100
635.200	7.340	0.100
635.300	17.496	0.099
635.400	-6.294	0.100
635.500	11.010	0.099
635.600	5.782	0.100
635.700	11.541	0.100
635.800	8.775	0.100
635.900	21.487	0.100
636.000	4.461	0.100
636.100	10.201	0.100
636.200	6.594	0.100
636.300	-6.576	0.100
636.400	0.221	0.100
636.500	25.507	0.100
636.600	5.601	0.100
636.700	0.356	0.100
636.800	9.566	0.100
636.900	13.974	0.100
637.000	13.911	0.100
637.100	-7.855	0.100
637.200	20.991	0.100
637.300	6.375	0.100
637.400	5.575	0.100
637.500	11.973	0.100
637.600	10.266	0.100
637.700	21.036	0.100
637.800	15.607	0.100
637.900	7.063	0.100
638.000	18.914	0.100
638.100	17.535	0.100
638.200	11.410	0.100
638.300	11.757	0.100
638.400	17.071	0.100
638.500	-6.670	0.100
638.600	13.396	0.100
638.700	15.908	0.100
638.800	1.976	0.100
638.900	6.507	0.100
639.000	13.262	0.100
639.100	20.446	0.100
639.200	9.252	0.100
639.300	14.328	0.100
639.400	15.004	0.100
639.500	1.517	0.100
639.600	-0.585	0.100
639.700	8.686	0.100
639.800	1.211	0.100
639.900	9.277	0.100
640.000	17.340	0.100
640.100	15.375	0.100
640.200	12.721	0.100
640.300	6.206	0.100
640.400	10.857	0.100
640.500	17.799	0.100
640.600	-2.770	0.100
640.700	16.751	0.100
640.800	11.540	0.100
640.900	4.766	0.100
641.000	11.119	0.100
641.100	8.274	0.100
641.200	-0.328	0.100
641.300	7.918	0.100
641.400	11.934	0.100
641.500	14.067	0.100
641.600	-6.564	0.100
641.700	9.446	0.100
641.800	14.799	0.100
641.900	10.565	0.100
642.000	6.291	0.100
642.100	8.742	0.100
642.200	23.963	0.100
642.300	26.130	0.100
642.400	21.711	0.100
642.500	-1.554	0.100
642.600	17.328	0.100
642.700	9.317	0.100
642.800	1.204	0.100
642.900	13.245	0.100
643.000	6.228	0.100
643.100	12.018	0.100
643.200	8.035	0.100
643.300	24.109	0.100
643.400	5.614	0.100
643.500	6.982	0.100
643.600	12.109	0.100
643.700	11.117	0.100
643.800	-0.824	0.100
643.900	9.301	0.100
644.000	-6.713	0.100
644.100	18.982	0.100
644.200	17.554	0.100
644.300	11.035	0.100
644.400	22.864	0.100
644.500	4.988	0.100
644.600	26.654	0.100
644.700	21.522	0.100
644.800	12.327	0.100
644.900	12.456	0.100
645.000	17.732	0.100
645.100	24.655	0.100
645.200	18.856	0.100
645.300	16.738	0.100
645.400	-1.330	0.100
645.500	27.915	0.100
645.600	19.135	0.100
645.700	29.457	0.100
645.800	13.450	0.100
645.900	10.430	0.100
646.000	-4.607	0.100
646.100	3.351	0.100
646.200	30.523	0.100
646.300	19.372	0.100
646.400	2.098	0.100
646.500	17.172	0.100
646.600	22.922	0.100
646.700	8.265	0.100
646.800	9.512	0.100
646.900	13.434	0.100
647.000	11.201	0.100
647.100	14.872	0.100
647.200	9.374	0.100
647.300	29.041	0.100
647.400	14.471	0.100
647.500	15.768	0.100
647.600	19.572	0.100
647.700	21.198	0.100
647.800	15.021	0.100
647.900	12.558	0.100
648.000	17.123	0.100
648.100	31.575	0.100
648.200	15.966	0.100
648.300	20.662	0.100
648.400	16.514	0.100
648.500	3.501	0.100
648.600	9.193	0.100
648.700	27.731	0.100
648.800	31.809	0.100
648.900	18.828	0.100
649.000	7.215	0.100
649.100	20.411	0.100
649.200	23.627	0.100
649.300	17.397	0.100
649.400	12.093	0.100
649.500	21.228	0.100
649.600	5.601	0.100
649.700	21.781	0.100
649.800	26.056	0.100
649.900	2.106	0.100
650.000	26.929	0.100
650.100	16.562	0.100
650.200	1.394	0.100
650.300	26.154	0.100
650.400	17.006	0.100
650.500	20.885	0.100
650.600	18.234	0.100
650.700	11.759	0.100
650.800	-3.204	0.100
650.900	33.773	0.100
651.000	14.377	0.100
651.100	21.186	0.100
651.200	20.781	0.100
651.300	17.593	0.100
651.400	18.195	0.100
651.500	24.511	0.100
651.600	22.868	0.100
651.700	13.241	0.100
651.800	17.817	0.100
651.900	16.026	0.100
652.000	24.741	0.100
652.100	21.695	0.100
652.200	10.697	0.100
652.300	22.270	0.100
652.400	13.920	0.100
652.500	6.939	0.100
652.600	30.431	0.100
652.700	26.630	0.100
652.800	22.945	0.100
652.900	25.347	0.100
653.000	20.465	0.100
653.100	2.930	0.100
653.200	14.572	0.100
653.300	25.931	0.100
653.400	11.390	0.100
653.500	23.522	0.100
653.600	3.465	0.100
653.700	35.535	0.100
653.800	22.245	0.100
653.900	22.890	0.100
654.000	20.041	0.100
654.100	13.674	0.100
654.200	15.854	0.100
654.300	-0.760	0.100
654.400	10.901	0.100
654.500	36.745	0.100
654.600	22.471	0.100
654.700	8.465	0.100
654.800	22.606	0.100
654.900	27.979	0.100
655.000	9.711	0.100
655.100	16.205	0.100
655.200	33.638	0.100
655.300	14.495	0.099
655.400	17.252	0.100
655.500	16.817	0.100
655.600	22.607	0.100
655.700	28.903	0.100
655.800	11.848	0.100
655.900	18.145	0.100
656.000	25.437	0.099
656.100	19.944	0.100
656.200	20.574	0.100
656.300	26.327	0.100
656.400	14.528	0.099
656.500	10.619	0.100
656.600	26.492	0.100
656.700	29.470	0.100
656.800	14.178	0.100
656.900	21.082	0.100
657.000	16.394	0.100
657.100	8.882	0.100
657.200	26.461	0.100
657.300	18.277	0.100
657.400	18.035	0.099
657.500	20.570	0.100
657.600	17.786	0.100
657.700	9.202	0.100
657.800	29.898	0.100
657.900	7.290	0.100
658.000	16.296	0.100
658.100	14.041	0.100
658.200	13.461	0.100
658.300	23.476	0.100
658.400	1.826	0.100
658.500	9.778	0.100
658.600	13.639	0.100
658.700	25.113	0.100
658.800	19.536	0.100
658.900	16.977	0.100
659.000	19.061	0.100
659.100	23.759	0.100
659.200	20.549	0.100
659.300	17.555	0.100
659.400	18.446	0.100
659.500	8.530	0.100
659.600	17.672	0.100
659.700	28.846	0.100
659.800	27.836	0.100
659.900	14.365	0.100
660.000	9.929	0.100
660.100	25.019	0.100
660.200	10.500	0.100
660.300	9.751	0.100
660.400	20.437	0.100
660.500	7.943	0.100
660.600	22.424	0.100
660.700	23.788	0.100
660.800	21.995	0.100
660.900	24.494	0.100
661.000	14.590	0.100
661.100	26.325	0.100
661.200	25.950	0.100
661.300	32.786	0.100
661.400	-7.334	0.100
661.500	31.159	0.100
661.600	27.174	0.100
661.700	29.727	0.100
661.800	21.833	0.100
661.900	6.547	0.100
662.000	16.135	0.100
662.100	10.549	0.100
662.200	31.683	0.100
662.300	27.895	0.100
662.400	8.498	0.100
662.500	11.883	0.100
662.600	1.346	0.100
662.700	12.760	0.099
662.800	43.786	0.100
662.900	8.059	0.100
663.000	6.733	0.100
663.100	7.146	0.100
663.200	30.692	0.100
663.300	20.131	0.100
663.400	25.258	0.100
663.500	26.596	0.100
663.600	24.542	0.100
663.700	21.717	0.100
663.800	12.576	0.100
663.900	6.087	0.099
664.000	2.604	0.100
664.100	23.432	0.100
664.200	33.979	0.100
664.300	16.082	0.100
664.400	13.559	0.100
664.500	15.078	0.100
664.600	35.899	0.100
664.700	22.976	0.100
664.800	18.780	0.100
664.900	23.605	0.100
665.000	22.071	0.100
665.100	15.872	0.100
665.200	20.543	0.100
665.300	17.331	0.100
665.400	23.473	0.100
665.500	21.397	0.100
665.600	-6.460	0.100
665.700	30.644	0.100
665.800	24.688	0.100
665.900	2.308	0.100
666.000	0.396	0.100
666.100	18.387	0.100
666.200	3.010	0.100
666.300	18.474	0.100
666.400	8.516	0.100
666.500	23.070	0.100
666.600	32.008	0.100
666.700	31.446	0.100
666.800	7.247	0.100
666.900	21.494	0.100
667.000	18.768	0.100
667.100	16.222	0.100
667.200	21.390	0.100
667.300	37.089	0.100
667.400	10.418	0.100
667.500	15.764	0.100
667.600	26.098	0.100
667.700	8.489	0.100
667.800	0.929	0.100
667.900	18.201	0.100
668.000	26.364	0.100
668.100	12.608	0.100
668.200	23.245	0.100
668.300	11.906	0.100
668.400	23.859	0.100
668.500	10.267	0.100
668.600	27.114	0.100
668.700	13.259	0.100
668.800	24.883	0.100
668.900	18.824	0.100
669.000	18.366	0.100
669.100	20.608	0.100
669.200	10.124	0.100
669.300	17.146	0.099
669.400	17.208	0.100
669.500	15.779	0.100
669.600	17.125	0.100
669.700	32.850	0.100
669.800	24.426	0.100
669.900	20.731	0.100
670.000	20.998	0.100
670.100	16.682	0.100
670.200	17.813	0.100
670.300	13.372	0.100
670.400	16.562	0.100
670.500	14.106	0.100
670.600	19.655	0.099
670.700	27.849	0.100
670.800	9.529	0.100
670.900	22.621	0.100
671.000	15.566	0.100
671.100	20.408	0.099
671.200	24.571	0.100
671.300	22.001	0.099
671.400	3.242	0.100
671.500	17.575	0.100
671.600	10.477	0.100
671.700	17.524	0.100
671.800	25.780	0.100
671.900	16.121	0.100
672.000	15.080	0.100
672.100	20.137	0.100
672.200	9.189	0.100
672.300	15.843	0.100
672.400	23.380	0.100
672.500	7.779	0.099
672.600	17.452	0.100
672.700	23.236	0.099
672.800	20.747	0.100
672.900	7.334	0.100
673.000	-5.779	0.100
673.100	-7.002	0.100
673.200	23.412	0.100
673.300	26.092	0.100
673.400	7.069	0.100
673.500	25.875	0.100
673.600	24.220	0.100
673.700	18.552	0.100
673.800	15.860	0.100
673.900	8.000	0.099
674.000	10.744	0.099
674.100	14.729	0.100
674.200	15.113	0.100
674.300	8.564	0.100
674.400	21.508	0.100
674.500	30.380	0.099
674.600	-0.209	0.100
674.700	23.477	0.100
674.800	21.871	0.100
674.900	26.233	0.100
675.000	23.205	0.100
675.100	1.828	0.100
675.200	18.084	0.099
675.300	9.732	0.100
675.400	15.012	0.099
675.500	27.610	0.100
675.600	13.681	0.100
675.700	15.071	0.100
675.800	25.723	0.100
675.900	20.403	0.100
676.000	17.855	0.100
676.100	21.585	0.100
676.200	1.694	0.099
676.300	17.992	0.099
676.400	18.570	0.100
676.500	21.851	0.099
676.600	9.929	0.099
676.700	12.141	0.099
676.800	-4.609	0.099
676.900	35.642	0.100
677.000	5.019	0.099
677.100	25.829	0.099
677.200	25.212	0.100
677.300	5.550	0.100
677.400	17.060	0.100
677.500	21.702	0.100
677.600	13.581	0.099
677.700	16.012	0.099
677.800	31.887	0.100
677.900	23.524	0.099
678.000	27.238	0.100
678.100	3.101	0.100
678.200	13.594	0.100
678.300	9.694	0.099
678.400	21.809	0.099
678.500	19.276	0.099
678.600	14.414	0.099
678.700	12.061	0.099
678.800	23.024	0.099
678.900	16.923	0.099
679.000	8.784	0.100
679.100	15.295	0.099
679.200	8.904	0.100
679.300	10.945	0.099
679.400	26.122	0.100
679.500	12.662	0.100
679.600	25.209	0.099
679.700	14.769	0.100
679.800	6.684	0.100
679.900	24.020	0.099
680.000	13.892	0.100
680.100	16.665	0.100
680.200	12.568	0.100
680.300	26.052	0.100
680.400	11.121	0.099
680.500	14.258	0.099
680.600	32.288	0.100
680.700	12.892	0.099
680.800	12.216	0.099
680.900	28.483	0.100
681.000	10.148	0.100
681.100	1.593	0.099
681.200	33.455	0.099
681.300	20.846	0.100
681.400	9.565	0.099
681.500	23.330	0.099
681.600	10.280	0.099
681.700	17.445	0.100
681.800	18.525	0.100
681.900	19.129	0.100
682.000	-3.314	0.100
682.100	12.750	0.099
682.200	22.669	0.100
682.300	15.217	0.099
682.400	15.621	0.100
682.500	-9.591	0.099
682.600	27.280	0.100
682.700	27.485	0.099
682.800	8.195	0.099
682.900	12.351	0.099
683.000	15.106	0.099
683.100	5.327	0.100
683.200	16.210	0.100
683.300	16.244	0.100
683.400	21.076	0.100
683.500	13.862	0.099
683.600	21.138	0.099
683.700	2.098	0.099
683.800	20.960	0.100
683.900	24.668	0.100
684.000	16.988	0.100
684.100	15.217	0.099
684.200	13.956	0.099
684.300	11.710	0.100
684.400	7.644	0.099
684.500	14.535	0.100
684.600	23.909	0.100
684.700	24.698	0.100
684.800	23.363	0.099
684.900	20.407	0.100
685.000	17.118	0.099
685.100	4.553	0.099
685.200	8.093	0.100
685.300	33.577	0.099
685.400	11.152	0.099
685.500	25.700	0.100
685.600	22.557	0.100
685.700	3.913	0.099
685.800	11.688	0.099
685.900	11.720	0.099
686.000	28.956	0.100
686.100	16.592	0.099
686.200	9.328	0.100
686.300	8.969	0.100
686.400	0.922	0.100
686.500	12.770	0.100
686.600	20.832	0.099
686.700	-0.407	0.100
686.800	23.450	0.099
686.900	33.542	0.100
687.000	19.420	0.100
687.100	12.532	0.100
687.200	30.356	0.100
687.300	24.496	0.100
687.400	20.049	0.100
687.500	-1.462	0.100
687.600	20.382	0.100
687.700	14.560	0.100
687.800	23.255	0.100
687.900	14.512	0.100
688.000	9.618	0.099
688.100	19.030	0.100
688.200	7.040	0.100
688.300	31.942	0.100
688.400	5.951	0.100
688.500	16.712	0.100
688.600	5.158	0.100
688.700	34.292	0.100
688.800	9.102	0.099
688.900	19.248	0.099
689.000	19.414	0.099
689.100	14.174	0.099
689.200	4.999	0.100
689.300	14.723	0.099
689.400	16.188	0.100
689.500	24.425	0.100
689.600	4.218	0.099
689.700	32.929	0.099
689.800	18.965	0.100
689.900	17.834	0.100
690.000	-4.840	0.099
690.100	19.222	0.100
690.200	6.939	0.100
690.300	9.180	0.099
690.400	19.465	0.099
690.500	27.755	0.100
690.600	13.802	0.100
690.700	9.592	0.100
690.800	7.087	0.099
690.900	2.222	0.100
691.000	14.305	0.099
691.100	10.027	0.099
691.200	12.888	0.100
691.300	-8.418	0.100
691.400	9.274	0.099
691.500	12.768	0.100
691.600	-2.479	0.100
691.700	6.093	0.100
691.800	-1.763	0.100
691.900	8.323	0.099
692.000	-0.473	0.100
692.100	4.091	0.100
692.200	-4.802	0.100
692.300	6.772	0.100
692.400	5.989	0.100
692.500	-21.140	0.100
692.600	5.419	0.099
692.700	15.038	0.100
692.800	2.164	0.100
692.900	1.848	0.100
693.000	16.339	0.100
693.100	-21.114	0.100
693.200	-1.086	0.100
693.300	-7.232	0.100
693.400	7.337	0.099
693.500	-1.998	0.100
693.600	0.335	0.100
693.700	-5.633	0.100
693.800	-7.761	0.099
693.900	0.633	0.099
694.000	4.849	0.099
694.100	1.119	0.099
694.200	-3.175	0.099
694.300	-16.780	0.100
694.400	-2.979	0.100
694.500	-6.699	0.100
694.600	-7.326	0.099
694.700	-3.548	0.099
694.800	-0.983	0.100
694.900	-6.632	0.100
695.000	-6.378	0.099
695.100	-4.235	0.100
695.200	-11.156	0.099
695.300	-4.825	0.100
695.400	-1.079	0.099
695.500	-0.993	0.100
695.600	-5.737	0.100
695.700	-8.796	0.100
695.800	0.464	0.100
695.900	-3.371	0.099
696.000	7.620	0.100
696.100	-2.407	0.099
696.200	-8.606	0.100
696.300	-13.106	0.100
696.400	-1.052	0.100
696.500	-22.053	0.100
696.600	3.374	0.099
696.700	-3.381	0.100
696.800	11.545	0.100
696.900	-6.757	0.100
697.000	-10.867	0.100
697.100	-2.366	0.100
697.200	-2.472	0.099
697.300	-2.738	0.100
697.400	-14.805	0.100
697.500	-4.685	0.100
697.600	-21.973	0.100
697.700	1.871	0.100
697.800	2.894	0.100
697.900	-1.169	0.100
698.000	8.595	0.100
698.100	6.781	0.100
698.200	-19.163	0.099
698.300	-8.764	0.100
698.400	-4.892	0.099
698.500	-2.059	0.099
698.600	-9.986	0.099
698.700	-6.189	0.100
698.800	0.077	0.100
698.900	8.894	0.100
699.000	-10.416	0.100
699.100	-10.457	0.099
699.200	-1.829	0.100
699.300	7.613	0.100
699.400	-10.437	0.099
699.500	-10.536	0.099
699.600	-13.824	0.100
699.700	-11.591	0.100
699.800	-7.746	0.099
699.900	3.359	0.100
700.000	-14.327	0.100
700.100	9.980	0.100
700.200	-23.324	0.099
700.300	0.154	0.099
700.400	-10.202	0.100
700.500	-14.616	0.100
700.600	-14.833	0.100
700.700	-16.336	0.099
700.800	4.258	0.099
700.900	-7.135	0.100
701.000	-1.407	0.100
701.100	-2.937	0.100
701.200	-5.748	0.100
701.300	-14.087	0.100
701.400	-8.634	0.099
701.500	-7.419	0.099
701.600	-6.098	0.100
701.700	5.735	0.100
701.800	-9.643	0.100
701.900	-8.674	0.099
702.000	-7.562	0.100
702.100	-2.375	0.100
702.200	-17.557	0.099
702.300	-3.450	0.099
702.400	-11.477	0.099
702.500	-0.900	0.100
702.600	-7.622	0.099
702.700	-1.808	0.100
702.800	-14.265	0.099
702.900	-3.423	0.100
703.000	-5.006	0.100
703.100	-13.768	0.100
703.200	-14.262	0.100
703.300	-13.682	0.099
703.400	-1.983	0.100
703.500	-8.152	0.100
703.600	-5.693	0.100
703.700	9.368	0.099
703.800	-4.591	0.100
703.900	-9.204	0.100
704.000	-4.251	0.099
704.100	-19.378	0.099
704.200	-0.467	0.100
704.300	-14.219	0.100
704.400	-10.610	0.100
704.500	-9.468	0.099
704.600	-10.198	0.100
704.700	-8.004	0.100
704.800	-27.815	0.100
704.900	-9.478	0.100
705.000	-0.266	0.099
705.100	-12.164	0.100
705.200	-20.770	0.100
705.300	-0.043	0.100
705.400	-18.196	0.100
705.500	-6.789	0.100
705.600	-11.517	0.099
705.700	-4.984	0.100
705.800	-20.265	0.100
705.900	-8.859	0.100
706.000	-5.444	0.100
706.100	-15.436	0.099
706.200	-14.410	0.099
706.300	-10.997	0.099
706.400	-5.511	0.100
706.500	-11.984	0.099
706.600	-5.220	0.100
706.700	-15.427	0.100
706.800	-15.427	0.099
706.900	-10.117	0.100
707.000	-12.453	0.100
707.100	-7.183	0.100
707.200	-1.186	0.100
707.300	-12.345	0.100
707.400	-15.784	0.099
707.500	-13.954	0.099
707.600	-8.390	0.099
707.700	-16.182	0.100
707.800	-16.817	0.099
707.900	-20.571	0.099
708.000	8.674	0.100
708.100	-12.605	0.099
708.200	6.202	0.099
708.300	-3.619	0.099
708.400	-12.896	0.099
708.500	-25.177	0.100
708.600	2.121	0.100
708.700	0.994	0.100
708.800	-26.100	0.099
708.900	14.570	0.100
709.000	-21.479	0.100
709.100	-17.806	0.100
709.200	-6.723	0.100
709.300	-6.133	0.100
709.400	-8.558	0.100
709.500	-4.318	0.100
709.600	-9.370	0.099
709.700	-9.682	0.100
709.800	-0.942	0.099
709.900	-10.925	0.099
710.000	-14.688	0.100
710.100	-17.461	0.100
710.200	-15.348	0.100
710.300	-19.896	0.100
710.400	-13.839	0.100
710.500	-7.624	0.100
710.600	6.200	0.100
710.700	-18.036	0.100
710.800	-9.841	0.100
710.900	-16.087	0.100
711.000	-10.748	0.100
711.100	-17.624	0.100
711.200	-4.003	0.100
711.300	-2.641	0.100
711.400	-5.984	0.100
711.500	-13.065	0.100
711.600	-22.277	0.100
711.700	-5.547	0.100
711.800	-18.922	0.100
711.900	-10.274	0.100
712.000	-25.194	0.100
712.100	-7.769	0.099
712.200	-20.329	0.100
712.300	-8.816	0.099
712.400	-29.264	0.099
712.500	-0.737	0.100
712.600	-11.819	0.100
712.700	-8.187	0.100
712.800	-21.315	0.100
712.900	1.145	0.100
713.000	-11.376	0.100
713.100	-22.019	0.100
713.200	-11.530	0.100
713.300	-26.324	0.100
713.400	-18.004	0.100
713.500	-19.186	0.100
713.600	-19.712	0.100
713.700	-1.047	0.100
713.800	-13.744	0.100
713.900	-10.729	0.100
714.000	5.342	0.100
714.100	0.392	0.100
714.200	-16.455	0.100
714.300	-14.144	0.100
714.400	-13.459	0.100
714.500	-21.015	0.100
714.600	-9.428	0.100
714.700	-30.860	0.099
714.800	-11.851	0.099
714.900	-4.860	0.099
715.000	-32.279	0.100
715.100	0.755	0.100
715.200	-13.759	0.100
715.300	-15.477	0.100
715.400	-6.728	0.100
715.500	-14.195	0.100
715.600	-21.809	0.100
715.700	1.022	0.100
715.800	-14.477	0.100
715.900	-19.127	0.100
716.000	-11.082	0.100
716.100	-9.391	0.099
716.200	-14.220	0.100
716.300	-16.561	0.099
716.400	-12.953	0.100
716.500	-6.922	0.100
716.600	-28.082	0.100
716.700	-15.082	0.099
716.800	-20.595	0.100
716.900	-16.894	0.099
717.000	-14.522	0.100
717.100	-10.994	0.099
717.200	-3.788	0.100
717.300	-12.050	0.100
717.400	-11.772	0.100
717.500	-5.221	0.100
717.600	-22.357	0.100
717.700	-7.813	0.100
717.800	-5.263	0.099
717.900	-24.223	0.099
718.000	-7.252	0.100
718.100	-23.336	0.100
718.200	-4.773	0.100
718.300	-9.431	0.100
718.400	-3.279	0.100
718.500	-9.282	0.100
718.600	-12.704	0.100
718.700	-12.425	0.100
718.800	-13.429	0.100
718.900	-8.655	0.099
719.000	-6.020	0.100
719.100	-19.756	0.099
719.200	-20.142	0.100
719.300	-15.196	0.100
719.400	-19.313	0.100
719.500	-5.530	0.100
719.600	-15.879	0.100
719.700	0.286	0.100
719.800	-21.219	0.100
719.900	-7.487	0.100
720.000	-15.075	0.100
720.100	-19.102	0.100
720.200	-10.136	0.099
720.300	-14.378	0.099
720.400	-19.805	0.099
720.500	-21.401	0.100
720.600	-6.218	0.100
720.700	-22.350	0.100
720.800	-24.650	0.099
720.900	-17.524	0.099
721.000	-8.679	0.100
721.100	-20.143	0.099
721.200	-13.773	0.100
721.300	-16.185	0.100
721.400	-14.190	0.100
721.500	-15.231	0.100
721.600	-6.133	0.100
721.700	-19.939	0.099
721.800	-0.607	0.100
721.900	-9.790	0.100
722.000	-25.816	0.100
722.100	-8.296	0.100
722.200	-5.379	0.100
722.300	-10.740	0.100
722.400	-11.607	0.099
722.500	-31.830	0.100
722.600	-11.201	0.100
722.700	-8.105	0.100
722.800	-14.160	0.100
722.900	-10.040	0.100
723.000	-16.216	0.100
723.100	-13.056	0.100
723.200	-3.711	0.100
723.300	-10.242	0.100
723.400	-19.153	0.100
723.500	-11.948	0.100
723.600	-12.154	0.100
723.700	-13.078	0.100
723.800	-8.073	0.100
723.900	-6.796	0.099
724.000	-31.630	0.100
724.100	-9.969	0.100
724.200	-19.831	0.100
724.300	-15.099	0.100
724.400	3.841	0.100
724.500	-9.943	0.100
724.600	-4.059	0.100
724.700	-35.472	0.099
724.800	-15.539	0.100
724.900	-6.096	0.100
725.000	-10.838	0.100
725.100	-14.967	0.100
725.200	-12.666	0.100
725.300	-16.770	0.100
725.400	-15.743	0.100
725.500	-26.333	0.100
725.600	-16.981	0.100
725.700	-2.359	0.100
725.800	1.862	0.100
725.900	-21.359	0.100
726.000	-13.771	0.100
726.100	-9.625	0.100
726.200	-14.057	0.100
726.300	-16.438	0.100
726.400	-18.517	0.100
726.500	-2.525	0.099
726.600	-19.394	0.100
726.700	-16.161	0.100
726.800	-19.156	0.100
726.900	-19.798	0.100
727.000	-10.654	0.100
727.100	-8.350	0.099
727.200	-9.268	0.100
727.300	-16.043	0.100
727.400	-1.299	0.100
727.500	-2.481	0.100
727.600	-10.510	0.100
727.700	-20.769	0.100
727.800	7.608	0.100
727.900	5.379	0.100
728.000	-10.497	0.100
728.100	-9.224	0.100
728.200	-14.763	0.100
728.300	-18.437	0.100
728.400	-6.073	0.100
728.500	-16.690	0.100
728.600	-16.360	0.100
728.700	-7.033	0.100
728.800	-9.320	0.100
728.900	-23.333	0.100
729.000	-11.023	0.100
729.100	-11.257	0.100
729.200	-20.432	0.100
729.300	-11.917	0.100
729.400	-24.177	0.100
729.500	-12.727	0.100
729.600	-14.461	0.100
729.700	-6.075	0.100
729.800	-13.360	0.100
729.900	-20.220	0.100
730.000	-15.164	0.100
730.100	-16.959	0.100
730.200	-6.687	0.100
730.300	2.215	0.100
730.400	-10.888	0.100
730.500	-22.150	0.100
730.600	-14.810	0.100
730.700	5.594	0.100
730.800	-7.494	0.100
730.900	-17.353	0.100
731.000	-9.524	0.100
731.100	-6.813	0.100
731.200	-9.906	0.100
731.300	-17.672	0.100
731.400	-14.929	0.100
731.500	-2.089	0.100
731.600	-19.584	0.100
731.700	-17.533	0.100
731.800	-29.221	0.100
731.900	-11.455	0.100
732.000	-8.544	0.100
732.100	-9.960	0.100
732.200	-7.356	0.100
732.300	-11.826	0.100
732.400	-16.528	0.100
732.500	4.414	0.100
732.600	-17.430	0.100
732.700	-8.024	0.100
732.800	-13.690	0.100
732.900	-0.949	0.099
733.000	-4.723	0.100
733.100	4.562	0.100
733.200	-13.311	0.100
733.300	-19.394	0.100
733.400	-9.578	0.100
733.500	-16.870	0.100
733.600	-24.480	0.100
733.700	-5.215	0.100
733.800	-14.426	0.100
733.900	-15.698	0.100
734.000	-8.638	0.100
734.100	-13.481	0.100
734.200	-6.630	0.100
734.300	-25.138	0.100
734.400	-15.522	0.100
734.500	-5.408	0.100
734.600	-11.864	0.100
734.700	-16.488	0.100
734.800	-9.050	0.100
734.900	-13.273	0.100
735.000	-2.113	0.100
735.100	-23.486	0.100
735.200	3.560	0.100
735.300	-11.709	0.100
735.400	-23.799	0.100
735.500	-1.195	0.100
735.600	-12.393	0.100
735.700	-16.304	0.100
735.800	-11.964	0.099
735.900	-10.092	0.100
736.000	-3.876	0.100
736.100	-12.635	0.100
736.200	-23.480	0.100
736.300	-7.945	0.100
736.400	-8.047	0.100
736.500	-17.934	0.100
736.600	-35.012	0.099
736.700	-1.849	0.099
736.800	2.729	0.100
736.900	-10.200	0.100
737.000	-14.318	0.100
737.100	-11.765	0.100
737.200	-5.547	0.100
737.300	-7.568	0.100
737.400	-12.225	0.100
737.500	-28.817	0.100
737.600	-5.054	0.100
737.700	-20.423	0.099
737.800	-0.620	0.100
737.900	-21.765	0.099
738.000	-17.234	0.100
738.100	4.170	0.100
738.200	-26.229	0.100
738.300	-7.119	0.100
738.400	-21.267	0.099
738.500	-10.321	0.100
738.600	-3.678	0.100
738.700	-5.233	0.100
738.800	-7.055	0.099
738.900	-23.767	0.100
739.000	-13.031	0.100
739.100	-7.070	0.100
739.200	-22.018	0.100
739.300	-8.490	0.099
739.400	-7.312	0.100
739.500	0.127	0.100
739.600	-18.384	0.100
739.700	-8.612	0.100
739.800	-15.379	0.100
739.900	-20.144	0.100
740.000	-16.623	0.100
740.100	-11.945	0.100
740.200	-8.797	0.100
740.300	-15.926	0.100
740.400	-10.585	0.100
740.500	-9.553	0.100
740.600	-16.036	0.099
740.700	-4.960	0.100
740.800	-9.287	0.100
740.900	-13.596	0.100
741.000	-20.513	0.100
741.100	-2.321	0.100
741.200	-7.412	0.100
741.300	-8.048	0.100
741.400	-19.772	0.100
741.500	-19.532	0.100
741.600	-3.695	0.100
741.700	-10.395	0.100
741.800	-21.217	0.100
741.900	2.216	0.100
742.000	-15.905	0.100
742.100	-19.787	0.100
742.200	8.949	0.100
742.300	-15.568	0.100
742.400	-12.616	0.100
742.500	-21.868	0.100
742.600	-10.465	0.100
742.700	-8.441	0.100
742.800	3.615	0.100
742.900	-16.108	0.100
743.000	-17.673	0.099
743.100	-13.698	0.100
743.200	-8.815	0.100
743.300	-1.640	0.100
743.400	-9.413	0.100
743.500	-25.116	0.099
743.600	-0.292	0.100
743.700	-4.154	0.100
743.800	-14.768	0.100
743.900	-11.997	0.100
744.000	-30.895	0.100
744.100	1.131	0.100
744.200	-7.832	0.100
744.300	-3.839	0.100
744.400	-8.727	0.100
744.500	-1.294	0.100
744.600	-7.043	0.100
744.700	-21.418	0.099
744.800	-0.321	0.100
744.900	-16.503	0.100
745.000	2.947	0.100
745.100	-12.918	0.099
745.200	-6.013	0.100
745.300	-25.056	0.099
745.400	-0.554	0.100
745.500	-10.839	0.100
745.600	-11.042	0.100
745.700	-7.320	0.100
745.800	-4.237	0.100
745.900	-11.684	0.099
746.000	-12.351	0.100
746.100	-6.482	0.100
746.200	-5.940	0.100
746.300	-27.726	0.100
746.400	4.468	0.100
746.500	-15.120	0.100
746.600	-6.953	0.100
746.700	-12.442	0.100
746.800	-15.085	0.100
746.900	-13.791	0.100
747.000	-17.516	0.100
747.100	-26.244	0.100
747.200	-0.160	0.099
747.300	-15.599	0.099
747.400	12.333	0.099
747.500	-0.302	0.100
747.600	-19.490	0.100
747.700	-7.507	0.100
747.800	-13.467	0.100
747.900	-5.014	0.100
748.000	-19.252	0.100
748.100	-18.316	0.100
748.200	-8.628	0.100
748.300	-14.568	0.100
748.400	-3.280	0.100
748.500	-11.728	0.100
748.600	-18.065	0.100
748.700	-4.648	0.100
748.800	-11.479	0.100
748.900	-37.031	0.099
749.000	-12.522	0.100
749.100	-6.093	0.100
749.200	-10.927	0.100
749.300	0.657	0.100
749.400	14.379	0.100
749.500	-3.792	0.100
749.600	-4.564	0.100
749.700	-17.073	0.100
749.800	-11.492	0.100
749.900	-19.050	0.100
750.000	-14.321	0.100
750.100	-14.141	0.100
750.200	-15.145	0.100
750.300	-11.370	0.100
750.400	-17.898	0.100
750.500	-6.008	0.100
750.600	-5.368	0.100
750.700	-3.135	0.099
750.800	-3.425	0.100
750.900	-19.171	0.100
751.000	-23.476	0.100
751.100	-16.201	0.100
751.200	-7.331	0.100
751.300	-7.192	0.100
751.400	-1.876	0.100
751.500	-21.369	0.100
751.600	1.645	0.100
751.700	-14.265	0.099
751.800	-18.965	0.100
751.900	0.798	0.100
752.000	-2.780	0.099
752.100	-6.923	0.100
752.200	-10.674	0.100
752.300	2.617	0.099
752.400	-12.651	0.099
752.500	-10.230	0.100
752.600	-13.070	0.100
752.700	7.949	0.100
752.800	-10.001	0.100
752.900	-35.505	0.100
753.000	5.090	0.100
753.100	-11.123	0.100
753.200	-4.640	0.100
753.300	-11.665	0.100
753.400	-9.255	0.100
753.500	-17.625	0.100
753.600	-16.577	0.100
753.700	-7.180	0.100
753.800	-17.297	0.100
753.900	-7.639	0.100
754.000	-9.773	0.100
754.100	-9.577	0.100
754.200	-9.504	0.100
754.300	1.495	0.100
754.400	-14.639	0.100
754.500	-1.416	0.099
754.600	-7.326	0.099
754.700	-2.447	0.100
754.800	-10.650	0.100
754.900	-21.619	0.100
755.000	-24.038	0.100
755.100	6.411	0.100
755.200	-14.921	0.100
755.300	-7.899	0.100
755.400	-6.812	0.100
755.500	-8.784	0.100
755.600	6.671	0.100
755.700	-9.743	0.100
755.800	-23.164	0.100
755.900	-15.210	0.100
756.000	-6.122	0.099
756.100	-17.525	0.100
756.200	-5.058	0.100
756.300	-11.089	0.100
756.400	-13.583	0.100
756.500	-0.300	0.100
756.600	-9.028	0.100
756.700	0.092	0.100
756.800	-11.808	0.100
756.900	-8.172	0.099
757.000	-3.853	0.100
757.100	-13.938	0.100
757.200	-5.689	0.100
757.300	-11.901	0.100
757.400	-5.942	0.100
757.500	-19.473	0.100
757.600	-12.807	0.100
757.700	-11.332	0.100
757.800	11.271	0.100
757.900	-16.763	0.100
758.000	-11.677	0.100
758.100	-11.138	0.099
758.200	-4.054	0.100
758.300	-11.564	0.099
758.400	-16.400	0.100
758.500	-6.729	0.100
758.600	-18.088	0.100
758.700	-8.819	0.100
758.800	-7.255	0.100
758.900	8.722	0.100
759.000	-20.692	0.100
759.100	-7.868	0.100
759.200	-8.686	0.100
759.300	-15.683	0.100
759.400	-3.505	0.100
759.500	-21.629	0.100
759.600	-12.102	0.099
759.700	-10.822	0.100
759.800	-8.356	0.100
759.900	-8.250	0.100
760.000	-25.840	0.100
760.100	-10.298	0.100
760.200	-17.642	0.100
760.300	-1.736	0.100
760.400	1.475	0.100
760.500	-5.361	0.100
760.600	-12.620	0.100
760.700	10.895	0.100
760.800	-13.747	0.100
760.900	-11.150	0.100
761.000	-9.930	0.100
761.100	-2.149	0.100
761.200	-5.144	0.100
761.300	-8.953	0.100
761.400	-13.644	0.100
761.500	-16.661	0.099
761.600	-17.815	0.099
761.700	-13.084	0.100
761.800	-5.573	0.100
761.900	-5.548	0.100
762.000	-9.928	0.100
762.100	2.407	0.100
762.200	-12.393	0.100
762.300	-10.543	0.099
762.400	-7.926	0.100
762.500	-12.052	0.100
762.600	8.503	0.100
762.700	-11.070	0.100
762.800	-8.796	0.100
762.900	-16.114	0.100
763.000	-8.976	0.100
763.100	12.993	0.099
763.200	-2.800	0.100
763.300	-18.041	0.100
763.400	2.383	0.100
763.500	-12.437	0.099
763.600	-23.481	0.100
763.700	-15.597	0.100
763.800	7.160	0.100
763.900	-26.598	0.100
764.000	-9.601	0.100
764.100	-15.757	0.100
764.200	-16.092	0.100
764.300	-0.657	0.100
764.400	-0.226	0.100
764.500	-12.044	0.100
764.600	-14.955	0.099
764.700	-0.018	0.100
764.800	-10.180	0.100
764.900	-21.100	0.099
765.000	-11.603	0.099
765.100	20.635	0.100
765.200	-4.111	0.100
765.300	-1.206	0.100
765.400	-17.896	0.100
765.500	-6.148	0.099
765.600	-12.601	0.099
765.700	-23.594	0.100
765.800	-10.409	0.100
765.900	-1.486	0.099
766.000	-9.892	0.100
766.100	-10.958	0.100
766.200	-3.113	0.100
766.300	-5.624	0.100
766.400	-6.783	0.100
766.500	-1.352	0.100
766.600	1.706	0.100
766.700	13.755	0.100
766.800	-29.391	0.100
766.900	-32.077	0.100
767.000	-6.962	0.100
767.100	-8.836	0.099
767.200	-1.267	0.100
767.300	-5.353	0.100
767.400	12.676	0.100
767.500	-3.453	0.100
767.600	-12.217	0.100
767.700	-8.387	0.100
767.800	-10.592	0.100
767.900	10.204	0.100
768.000	-16.443	0.100
768.100	-15.735	0.100
768.200	-12.444	0.100
768.300	-9.998	0.099
768.400	-4.605	0.100
768.500	-19.846	0.100
768.600	-3.564	0.100
768.700	-17.992	0.099
768.800	-5.331	0.100
768.900	-23.068	0.100
769.000	-19.060	0.100
769.100	-9.473	0.099
769.200	-12.641	0.100
769.300	-0.105	0.100
769.400	-10.270	0.100
769.500	-7.046	0.099
769.600	-9.358	0.100
769.700	-8.741	0.100
769.800	-4.594	0.100
769.900	10.209	0.100
770.000	-15.112	0.100
770.100	-7.087	0.100
770.200	-9.414	0.099
770.300	-13.183	0.100
770.400	-7.935	0.100
770.500	-10.749	0.100
770.600	0.655	0.100
770.700	-24.216	0.100
770.800	4.901	0.100
770.900	-17.773	0.100
771.000	-11.573	0.099
771.100	-9.243	0.100
771.200	-4.567	0.100
771.300	-16.835	0.100
771.400	0.857	0.100
771.500	-13.029	0.099
771.600	-12.339	0.100
771.700	0.581	0.100
771.800	-13.107	0.100
771.900	7.121	0.100
772.000	-4.116	0.100
772.100	-4.856	0.100
772.200	-3.680	0.100
772.300	-6.319	0.100
772.400	-9.275	0.100
772.500	-6.967	0.100
772.600	7.842	0.100
772.700	-28.842	0.100
772.800	-10.970	0.100
772.900	-20.629	0.100
773.000	-16.276	0.099
773.100	-5.511	0.100
773.200	-6.874	0.100
773.300	-17.479	0.099
773.400	-3.705	0.100
773.500	-14.173	0.100
773.600	-2.217	0.100
773.700	-4.987	0.100
773.800	-16.004	0.099
773.900	2.205	0.100
774.000	-23.427	0.099
774.100	8.837	0.100
774.200	2.084	0.100
774.300	-10.572	0.100
774.400	-11.294	0.100
774.500	-10.941	0.100
774.600	-12.474	0.100
774.700	-14.122	0.100
774.800	-13.155	0.100
774.900	-17.995	0.100
775.000	-3.139	0.100
775.100	-13.052	0.100
775.200	1.360	0.100
775.300	-7.727	0.099
775.400	-14.268	0.100
775.500	-10.024	0.100
775.600	-12.530	0.100
775.700	-8.305	0.100
775.800	-15.482	0.100
775.900	4.693	0.099
776.000	-5.293	0.099
776.100	-8.358	0.099
776.200	-14.511	0.100
776.300	1.791	0.100
776.400	-10.305	0.100
776.500	-11.442	0.100
776.600	-15.729	0.100
776.700	0.251	0.100
776.800	-5.864	0.100
776.900	-2.001	0.099
777.000	-22.018	0.100
777.100	-13.325	0.100
777.200	-10.017	0.100
777.300	-8.035	0.100
777.400	-9.118	0.100
777.500	-6.853	0.100
777.600	-15.675	0.100
777.700	-16.646	0.100
777.800	-2.083	0.100
777.900	-4.155	0.100
778.000	-3.472	0.099
778.100	1.299	0.100
778.200	-14.676	0.100
778.300	-7.780	0.100
778.400	-16.854	0.100
778.500	-7.861	0.100
778.600	-7.459	0.100
778.700	-2.034	0.099
778.800	-12.230	0.100
778.900	0.252	0.100
779.000	-14.235	0.100
779.100	-5.302	0.100
779.200	-4.063	0.099
779.300	1.949	0.100
779.400	-20.795	0.100
779.500	-17.406	0.100
779.600	-23.262	0.099
779.700	6.102	0.100
779.800	-20.366	0.100
779.900	-8.449	0.099
780.000	-11.442	0.099
780.100	-12.069	0.100
780.200	-4.279	0.099
780.300	-5.292	0.100
780.400	-6.321	0.100
780.500	-12.857	0.100
780.600	3.027	0.099
780.700	6.435	0.099
780.800	-8.201	0.100
780.900	4.935	0.100
781.000	6.472	0.100
781.100	-18.102	0.100
781.200	-7.812	0.100
781.300	4.066	0.100
781.400	-6.437	0.100
781.500	1.955	0.100
781.600	-3.884	0.100
781.700	2.694	0.100
781.800	0.169	0.100
781.900	6.362	0.100
782.000	3.126	0.100
782.100	-8.066	0.100
782.200	-12.100	0.100
782.300	10.219	0.100
782.400	7.963	0.100
782.500	3.077	0.100
782.600	-6.917	0.099
782.700	-4.768	0.100
782.800	7.604	0.100
782.900	-9.222	0.100
783.000	-8.234	0.100
783.100	-0.704	0.100
783.200	18.785	0.100
783.300	5.438	0.100
783.400	4.030	0.100
783.500	9.999	0.099
783.600	4.335	0.100
783.700	2.318	0.100
783.800	15.249	0.100
783.900	4.570	0.099
784.000	13.931	0.100
784.100	11.796	0.100
784.200	12.022	0.099
784.300	-2.858	0.099
784.400	4.270	0.100
784.500	17.533	0.100
784.600	9.667	0.100
784.700	-0.892	0.099
784.800	3.618	0.100
784.900	4.058	0.100
785.000	3.942	0.100
785.100	6.376	0.099
785.200	4.209	0.099
785.300	-5.116	0.100
785.400	5.551	0.099
785.500	2.197	0.099
785.600	29.730	0.100
785.700	17.259	0.099
785.800	2.846	0.100
785.900	1.016	0.100
786.000	14.222	0.100
786.100	11.231	0.100
786.200	7.323	0.100
786.300	1.032	0.100
786.400	2.235	0.099
786.500	4.324	0.100
786.600	3.944	0.100
786.700	10.329	0.099
786.800	8.234	0.099
786.900	25.790	0.099
787.000	-14.841	0.100
787.100	13.914	0.100
787.200	2.099	0.099
787.300	13.661	0.100
787.400	-11.470	0.100
787.500	9.724	0.099
787.600	-2.452	0.100
787.700	10.929	0.100
787.800	-2.698	0.099
787.900	-0.993	0.099
788.000	8.420	0.099
788.100	6.271	0.099
788.200	6.811	0.099
788.300	6.558	0.100
788.400	3.723	0.099
788.500	1.868	0.099
788.600	11.667	0.099
788.700	4.819	0.099
788.800	14.277	0.100
788.900	7.623	0.099
789.000	-1.998	0.099
789.100	21.489	0.100
789.200	6.794	0.099
789.300	1.628	0.099
789.400	5.735	0.099
789.500	-8.136	0.100
789.600	16.473	0.099
789.700	-3.061	0.100
789.800	-1.724	0.099
789.900	6.193	0.100
790.000	6.715	0.099
790.100	10.614	0.100
790.200	8.024	0.099
790.300	11.757	0.100
790.400	11.156	0.099
790.500	16.147	0.099
790.600	6.238	0.100
790.700	-2.263	0.100
790.800	9.922	0.099
790.900	13.578	0.100
791.000	6.740	0.100
791.100	8.172	0.100
791.200	7.305	0.100
791.300	23.874	0.100
791.400	5.142	0.099
791.500	13.273	0.100
791.600	-16.904	0.099
791.700	9.881	0.100
791.800	12.677	0.100
791.900	10.017	0.099
792.000	19.698	0.100
792.100	1.624	0.100
792.200	19.776	0.100
792.300	13.600	0.100
792.400	14.059	0.100
792.500	19.676	0.100
792.600	0.968	0.100
792.700	15.558	0.100
792.800	6.575	0.099
792.900	11.333	0.100
793.000	9.591	0.100
793.100	6.735	0.099
793.200	6.407	0.099
793.300	0.655	0.099
793.400	12.291	0.100
793.500	1.409	0.099
793.600	-0.230	0.099
793.700	11.700	0.099
793.800	12.644	0.100
793.900	0.374	0.100
794.000	18.193	0.099
794.100	10.206	0.100
794.200	7.543	0.099
794.300	10.782	0.099
794.400	11.147	0.099
794.500	15.707	0.099
794.600	13.178	0.099
794.700	12.952	0.099
794.800	13.698	0.099
794.900	20.709	0.099
795.000	2.603	0.099
795.100	10.172	0.099
795.200	14.641	0.100
795.300	18.123	0.099
795.400	9.874	0.100
795.500	14.789	0.099
795.600	11.425	0.100
795.700	2.514	0.099
795.800	19.383	0.099
795.900	19.588	0.099
796.000	10.378	0.099
796.100	5.339	0.099
796.200	12.597	0.099
796.300	16.668	0.100
796.400	21.942	0.100
796.500	5.605	0.099
796.600	15.543	0.100
796.700	11.309	0.100
796.800	8.709	0.099
796.900	16.642	0.099
797.000	17.321	0.100
797.100	-2.471	0.099
797.200	16.050	0.100
797.300	12.276	0.100
797.400	17.876	0.099
797.500	24.123	0.100
797.600	1.219	0.099
797.700	15.054	0.100
797.800	5.796	0.100
797.900	2.751	0.100
798.000	18.176	0.100
798.100	20.763	0.100
798.200	15.458	0.099
798.300	-4.264	0.099
798.400	20.472	0.100
798.500	15.184	0.100
798.600	14.029	0.099
798.700	9.720	0.100
798.800	8.639	0.100
798.900	15.863	0.099
799.000	12.864	0.100
799.100	10.715	0.099
799.200	7.731	0.099
799.300	15.058	0.099
799.400	19.227	0.099
799.500	29.932	0.100
799.600	15.516	0.099
799.700	20.786	0.099
799.800	16.274	0.099
799.900	31.437	0.100
800.000	2.869	0.100
