time /s	I /nA	E /V
0.100	-19.605	0.101
0.200	-14.169	0.101
0.300	-13.618	0.101
0.400	-18.996	0.101
0.500	-13.988	0.101
0.600	-22.083	0.101
0.700	-20.665	0.101
0.800	-15.746	0.101
0.900	-13.456	0.101
1.000	-15.212	0.101
1.100	-24.146	0.101
1.200	-21.104	0.101
1.300	-24.737	0.101
1.400	-29.211	0.101
1.500	-19.159	0.101
1.600	-18.743	0.101
1.700	-21.991	0.101
1.800	-13.114	0.101
1.900	-14.754	0.101
2.000	-26.068	0.101
2.100	-28.758	0.101
2.200	-10.688	0.101
2.300	-13.703	0.101
2.400	-25.756	0.101
2.500	-23.010	0.101
2.600	-24.313	0.101
2.700	-26.713	0.101
2.800	-23.274	0.101
2.900	-12.605	0.101
3.000	-10.817	0.101
3.100	-19.652	0.101
3.200	-15.137	0.101
3.300	0.658	0.101
3.400	-9.910	0.101
3.500	-18.814	0.101
3.600	-9.413	0.101
3.700	-27.990	0.101
3.800	-16.111	0.101
3.900	-10.629	0.101
4.000	-19.384	0.101
4.100	-34.259	0.101
4.200	-23.247	0.101
4.300	-18.102	0.101
4.400	-18.327	0.101
4.500	-22.474	0.101
4.600	-24.318	0.101
4.700	-14.308	0.101
4.800	-14.622	0.101
4.900	-14.358	0.101
5.000	-26.983	0.101
5.100	-30.795	0.101
5.200	-18.484	0.101
5.300	-10.749	0.101
5.400	-20.816	0.101
5.500	-13.149	0.101
5.600	-23.059	0.101
5.700	-23.272	0.101
5.800	-15.537	0.101
5.900	-9.516	0.101
6.000	-19.340	0.101
6.100	-25.499	0.101
6.200	-25.202	0.101
6.300	-18.655	0.101
6.400	-28.625	0.101
6.500	-20.597	0.101
6.600	-10.950	0.101
6.700	-21.533	0.101
6.800	-18.301	0.101
6.900	-18.915	0.101
7.000	-13.487	0.101
7.100	-10.761	0.101
7.200	-14.228	0.101
7.300	-17.830	0.101
7.400	-22.492	0.101
7.500	-24.803	0.101
7.600	-17.928	0.101
7.700	-25.538	0.101
7.800	-23.784	0.101
7.900	-11.104	0.101
8.000	-10.877	0.101
8.100	-20.702	0.101
8.200	-20.477	0.101
8.300	-22.065	0.101
8.400	-20.043	0.101
8.500	-20.741	0.101
8.600	-18.210	0.101
8.700	-25.289	0.101
8.800	-11.252	0.101
8.900	-16.237	0.101
9.000	-27.705	0.101
9.100	-24.706	0.101
9.200	-18.028	0.101
9.300	-16.142	0.101
9.400	-13.538	0.101
9.500	-18.542	0.101
9.600	-9.165	0.101
9.700	-23.327	0.101
9.800	-13.706	0.101
9.900	-21.498	0.101
10.000	-38.205	0.101
10.100	-7.457	0.101
10.200	-10.442	0.101
10.300	-8.592	0.101
10.400	-23.555	0.101
10.500	-20.504	0.101
10.600	-21.124	0.101
10.700	-19.252	0.101
10.800	-14.358	0.101
10.900	-9.951	0.101
11.000	-15.779	0.101
11.100	-20.947	0.101
11.200	-9.003	0.101
11.300	-14.373	0.101
11.400	-17.950	0.101
11.500	-8.373	0.101
11.600	-23.902	0.101
11.700	-23.909	0.101
11.800	-19.879	0.101
11.900	-7.105	0.101
12.000	-12.938	0.101
12.100	-9.622	0.101
12.200	-25.900	0.101
12.300	-14.953	0.101
12.400	-22.160	0.101
12.500	-19.006	0.101
12.600	-18.826	0.101
12.700	-18.473	0.101
12.800	-22.310	0.101
12.900	-10.820	0.101
13.000	-9.530	0.101
13.100	-19.566	0.101
13.200	-21.338	0.101
13.300	-22.968	0.101
13.400	-13.744	0.101
13.500	-15.310	0.101
13.600	-16.578	0.101
13.700	-12.575	0.101
13.800	-18.833	0.101
13.900	-27.779	0.101
14.000	-26.547	0.101
14.100	-18.480	0.101
14.200	-15.241	0.101
14.300	-26.874	0.101
14.400	-11.766	0.101
14.500	-16.497	0.101
14.600	-11.834	0.101
14.700	-4.825	0.101
14.800	-15.977	0.101
14.900	-19.270	0.101
15.000	-22.210	0.101
15.100	-19.353	0.101
15.200	-12.561	0.101
15.300	-16.269	0.101
15.400	-9.948	0.101
15.500	-16.478	0.101
15.600	-7.980	0.101
15.700	-19.923	0.101
15.800	-10.284	0.101
15.900	-15.830	0.101
16.000	-31.866	0.101
16.100	-26.920	0.101
16.200	-27.565	0.101
16.300	-27.412	0.101
16.400	-14.815	0.101
16.500	-2.095	0.101
16.600	-14.353	0.101
16.700	-11.170	0.101
16.800	-25.430	0.101
16.900	-36.239	0.101
17.000	-18.027	0.101
17.100	-15.468	0.101
17.200	-28.256	0.101
17.300	-16.685	0.101
17.400	-9.952	0.101
17.500	-18.346	0.101
17.600	-5.261	0.101
17.700	-23.292	0.101
17.800	-27.987	0.101
17.900	-24.048	0.101
18.000	-18.495	0.101
18.100	-19.619	0.101
18.200	-15.231	0.101
18.300	-14.904	0.101
18.400	-19.038	0.101
18.500	-14.542	0.101
18.600	-21.523	0.101
18.700	-11.937	0.101
18.800	-3.745	0.101
18.900	-14.109	0.101
19.000	-4.383	0.101
19.100	-12.256	0.101
19.200	-33.192	0.101
19.300	-20.171	0.101
19.400	-14.033	0.101
19.500	-15.858	0.101
19.600	-17.385	0.101
19.700	-18.057	0.101
19.800	-23.364	0.101
19.900	-22.202	0.101
20.000	-15.964	0.101
20.100	-15.731	0.101
20.200	-20.813	0.101
20.300	-8.449	0.101
20.400	-17.772	0.101
20.500	-23.336	0.101
20.600	-17.363	0.101
20.700	-22.948	0.101
20.800	-22.462	0.101
20.900	-13.042	0.101
21.000	-15.580	0.101
21.100	-15.613	0.101
21.200	-23.496	0.101
21.300	-14.287	0.101
21.400	-10.096	0.101
21.500	-12.789	0.101
21.600	-19.455	0.101
21.700	-11.528	0.101
21.800	-19.666	0.101
21.900	-24.893	0.101
22.000	-21.134	0.101
22.100	-14.834	0.101
22.200	-17.178	0.101
22.300	-17.326	0.101
22.400	-20.173	0.101
22.500	-13.621	0.101
22.600	-11.695	0.101
22.700	-26.289	0.101
22.800	-39.623	0.101
22.900	-21.787	0.101
23.000	-16.001	0.101
23.100	-15.443	0.101
23.200	-27.568	0.101
23.300	-26.467	0.101
23.400	-12.429	0.101
23.500	-9.517	0.101
23.600	-12.733	0.101
23.700	-23.164	0.101
23.800	-19.550	0.101
23.900	-9.050	0.101
24.000	-10.946	0.101
24.100	-18.217	0.101
24.200	-14.852	0.101
24.300	-14.976	0.101
24.400	-22.314	0.101
24.500	-17.542	0.101
24.600	-20.339	0.101
24.700	-24.934	0.101
24.800	-28.546	0.101
24.900	-24.772	0.101
25.000	-19.535	0.101
25.100	-14.924	0.101
25.200	-19.122	0.101
25.300	-20.308	0.101
25.400	-22.987	0.101
25.500	-18.384	0.101
25.600	-19.065	0.101
25.700	-16.493	0.101
25.800	-20.953	0.101
25.900	-18.681	0.101
26.000	-3.927	0.101
26.100	-17.010	0.101
26.200	-20.353	0.101
26.300	-27.624	0.101
26.400	-13.463	0.101
26.500	-6.712	0.101
26.600	-16.231	0.101
26.700	-18.739	0.101
26.800	-27.741	0.101
26.900	-21.520	0.101
27.000	-21.753	0.101
27.100	-25.022	0.101
27.200	-22.324	0.101
27.300	-20.229	0.101
27.400	-14.152	0.101
27.500	-9.889	0.101
27.600	-15.836	0.101
27.700	-26.847	0.101
27.800	-17.564	0.101
27.900	-23.613	0.101
28.000	-16.392	0.101
28.100	-4.556	0.101
28.200	-23.787	0.101
28.300	-12.090	0.101
28.400	-21.733	0.101
28.500	-14.237	0.101
28.600	-10.390	0.101
28.700	-24.819	0.101
28.800	-19.173	0.101
28.900	-24.022	0.101
29.000	-5.516	0.101
29.100	-23.314	0.101
29.200	-25.665	0.101
29.300	-15.817	0.101
29.400	-8.714	0.101
29.500	-10.385	0.101
29.600	-17.477	0.101
29.700	-19.180	0.101
29.800	-24.250	0.101
29.900	-16.162	0.101
30.000	-13.916	0.101
30.100	-9.445	0.101
30.200	-10.200	0.101
30.300	-14.646	0.101
30.400	-18.886	0.101
30.500	-3.067	0.101
30.600	0.282	0.101
30.700	-0.913	0.101
30.800	-4.956	0.101
30.900	5.452	0.101
31.000	-2.417	0.101
31.100	-1.193	0.101
31.200	3.110	0.101
31.300	5.837	0.101
31.400	2.756	0.101
31.500	9.418	0.101
31.600	11.020	0.101
31.700	12.743	0.101
31.800	16.343	0.101
31.900	25.803	0.101
32.000	24.503	0.101
32.100	26.335	0.101
32.200	16.621	0.101
32.300	28.428	0.101
32.400	16.767	0.101
32.500	27.470	0.101
32.600	20.020	0.101
32.700	15.561	0.101
32.800	28.617	0.101
32.900	41.142	0.101
33.000	33.050	0.101
33.100	38.146	0.101
33.200	30.611	0.101
33.300	46.731	0.101
33.400	39.447	0.101
33.500	33.876	0.101
33.600	37.206	0.101
33.700	26.270	0.101
33.800	35.433	0.101
33.900	27.503	0.101
34.000	38.142	0.101
34.100	40.229	0.101
34.200	40.442	0.101
34.300	35.667	0.101
34.400	28.883	0.101
34.500	34.707	0.101
34.600	37.131	0.101
34.700	38.418	0.101
34.800	42.458	0.101
34.900	43.177	0.101
35.000	52.386	0.101
35.100	54.422	0.101
35.200	43.038	0.101
35.300	51.993	0.101
35.400	45.537	0.101
35.500	62.410	0.101
35.600	57.321	0.101
35.700	53.545	0.101
35.800	53.046	0.101
35.900	48.740	0.101
36.000	61.515	0.101
36.100	56.935	0.101
36.200	61.274	0.101
36.300	58.701	0.101
36.400	54.958	0.101
36.500	68.924	0.101
36.600	76.651	0.101
36.700	75.218	0.101
36.800	64.235	0.101
36.900	65.658	0.101
37.000	71.434	0.101
37.100	75.794	0.101
37.200	77.107	0.101
37.300	78.942	0.101
37.400	75.167	0.101
37.500	72.488	0.101
37.600	69.991	0.101
37.700	81.595	0.101
37.800	90.317	0.101
37.900	84.502	0.101
38.000	89.913	0.101
38.100	86.878	0.101
38.200	104.244	0.101
38.300	86.697	0.101
38.400	90.545	0.101
38.500	86.378	0.101
38.600	84.565	0.101
38.700	83.274	0.101
38.800	92.079	0.101
38.900	100.334	0.101
39.000	99.929	0.101
39.100	104.036	0.101
39.200	102.406	0.101
39.300	103.631	0.101
39.400	108.168	0.101
39.500	100.074	0.101
39.600	106.223	0.101
39.700	118.105	0.101
39.800	110.290	0.101
39.900	107.910	0.101
40.000	122.778	0.101
40.100	102.295	0.101
40.200	109.996	0.101
40.300	119.649	0.101
40.400	112.676	0.101
40.500	124.601	0.101
40.600	125.238	0.101
40.700	120.207	0.101
40.800	123.288	0.101
40.900	121.904	0.101
41.000	116.657	0.101
41.100	105.037	0.101
41.200	113.325	0.101
41.300	138.181	0.101
41.400	127.650	0.101
41.500	135.008	0.101
41.600	132.302	0.101
41.700	115.668	0.101
41.800	121.857	0.101
41.900	113.682	0.101
42.000	123.189	0.101
42.100	116.651	0.101
42.200	124.455	0.101
42.300	118.436	0.101
42.400	128.192	0.101
42.500	121.240	0.101
42.600	131.618	0.101
42.700	126.689	0.101
42.800	122.772	0.101
42.900	113.557	0.101
43.000	124.833	0.101
43.100	123.453	0.101
43.200	129.333	0.101
43.300	119.332	0.101
43.400	131.322	0.101
43.500	124.658	0.101
43.600	125.109	0.101
43.700	124.167	0.101
43.800	120.502	0.101
43.900	123.279	0.101
44.000	121.119	0.101
44.100	118.094	0.101
44.200	114.516	0.101
44.300	123.517	0.101
44.400	125.102	0.101
44.500	118.821	0.101
44.600	117.510	0.101
44.700	109.346	0.101
44.800	115.321	0.101
44.900	112.509	0.101
45.000	118.849	0.101
45.100	115.360	0.101
45.200	113.605	0.101
45.300	118.988	0.101
45.400	107.026	0.101
45.500	116.142	0.101
45.600	119.539	0.101
45.700	115.513	0.101
45.800	106.634	0.101
45.900	103.712	0.101
46.000	103.169	0.101
46.100	109.553	0.101
46.200	109.644	0.101
46.300	107.331	0.101
46.400	113.530	0.101
46.500	110.842	0.101
46.600	112.602	0.101
46.700	100.443	0.101
46.800	109.332	0.101
46.900	108.278	0.101
47.000	106.860	0.101
47.100	103.660	0.101
47.200	92.426	0.101
47.300	97.178	0.101
47.400	93.586	0.101
47.500	85.497	0.101
47.600	97.083	0.101
47.700	99.806	0.101
47.800	105.071	0.101
47.900	101.107	0.101
48.000	100.284	0.101
48.100	92.277	0.101
48.200	90.507	0.101
48.300	105.015	0.101
48.400	93.839	0.101
48.500	96.123	0.101
48.600	96.273	0.101
48.700	89.903	0.101
48.800	95.505	0.101
48.900	88.791	0.101
49.000	82.854	0.101
49.100	83.940	0.101
49.200	78.978	0.101
49.300	78.057	0.101
49.400	90.903	0.101
49.500	86.715	0.101
49.600	100.723	0.101
49.700	86.155	0.101
49.800	82.737	0.101
49.900	85.420	0.101
50.000	81.149	0.101
50.100	70.142	0.101
50.200	74.733	0.101
50.300	77.067	0.101
50.400	70.185	0.101
50.500	67.685	0.101
50.600	77.638	0.101
50.700	81.195	0.101
50.800	75.355	0.101
50.900	80.346	0.101
51.000	86.522	0.101
51.100	82.408	0.101
51.200	82.711	0.101
51.300	73.115	0.101
51.400	59.192	0.101
51.500	70.402	0.101
51.600	69.879	0.101
51.700	75.954	0.101
51.800	72.664	0.101
51.900	74.772	0.101
52.000	76.549	0.101
52.100	71.652	0.101
52.200	74.420	0.101
52.300	80.501	0.101
52.400	75.798	0.101
52.500	70.864	0.101
52.600	67.883	0.101
52.700	64.873	0.101
52.800	64.960	0.101
52.900	68.277	0.101
53.000	68.316	0.101
53.100	55.962	0.101
53.200	67.911	0.101
53.300	55.536	0.101
53.400	57.346	0.101
53.500	59.385	0.101
53.600	62.729	0.101
53.700	68.652	0.101
53.800	74.779	0.101
53.900	88.592	0.101
54.000	80.169	0.101
54.100	67.749	0.101
54.200	79.249	0.101
54.300	71.042	0.101
54.400	72.393	0.101
54.500	66.014	0.101
54.600	57.225	0.101
54.700	74.735	0.101
54.800	58.799	0.101
54.900	65.532	0.101
55.000	63.299	0.101
55.100	69.381	0.101
55.200	60.298	0.101
55.300	61.758	0.101
55.400	61.268	0.101
55.500	57.561	0.101
55.600	54.292	0.101
55.700	56.338	0.101
55.800	60.996	0.101
55.900	66.374	0.101
56.000	64.700	0.101
56.100	65.107	0.101
56.200	66.568	0.101
56.300	63.174	0.101
56.400	71.709	0.101
56.500	67.991	0.101
56.600	58.036	0.101
56.700	52.607	0.101
56.800	49.673	0.101
56.900	50.233	0.101
57.000	55.518	0.101
57.100	56.252	0.101
57.200	55.448	0.101
57.300	73.198	0.101
57.400	59.395	0.101
57.500	69.147	0.101
57.600	66.662	0.101
57.700	59.639	0.101
57.800	53.364	0.101
57.900	61.854	0.101
58.000	53.155	0.101
58.100	54.661	0.101
58.200	70.228	0.101
58.300	58.095	0.101
58.400	63.922	0.101
58.500	58.281	0.101
58.600	66.753	0.101
58.700	58.125	0.101
58.800	63.991	0.101
58.900	60.366	0.101
59.000	72.766	0.101
59.100	60.047	0.101
59.200	61.465	0.101
59.300	71.391	0.101
59.400	66.319	0.101
59.500	68.453	0.101
59.600	70.304	0.101
59.700	71.835	0.101
59.800	72.904	0.101
59.900	78.074	0.101
60.000	63.258	0.101
60.100	64.723	0.101
60.200	55.306	0.101
60.300	62.331	0.101
60.400	64.397	0.101
60.500	65.561	0.101
60.600	65.227	0.101
60.700	59.746	0.101
60.800	48.456	0.101
60.900	52.424	0.101
61.000	54.156	0.101
61.100	53.043	0.101
61.200	59.676	0.101
61.300	70.656	0.101
61.400	76.125	0.101
61.500	66.055	0.101
61.600	63.065	0.101
61.700	61.671	0.101
61.800	67.674	0.101
61.900	52.408	0.101
62.000	53.224	0.101
62.100	53.761	0.101
62.200	67.386	0.101
62.300	68.504	0.101
62.400	60.864	0.101
62.500	65.072	0.101
62.600	67.532	0.101
62.700	63.967	0.101
62.800	70.472	0.101
62.900	56.932	0.101
63.000	59.339	0.101
63.100	63.414	0.101
63.200	77.160	0.101
63.300	61.453	0.101
63.400	61.200	0.101
63.500	65.120	0.101
63.600	62.545	0.101
63.700	57.414	0.101
63.800	58.988	0.101
63.900	73.191	0.101
64.000	64.888	0.101
64.100	75.040	0.101
64.200	70.957	0.101
64.300	71.830	0.101
64.400	70.038	0.101
64.500	59.380	0.101
64.600	51.991	0.101
64.700	63.784	0.101
64.800	70.668	0.101
64.900	65.482	0.101
65.000	71.187	0.101
65.100	68.047	0.101
65.200	60.299	0.101
65.300	85.360	0.101
65.400	65.089	0.101
65.500	71.127	0.101
65.600	67.544	0.101
65.700	70.667	0.101
65.800	64.739	0.101
65.900	54.076	0.101
66.000	58.115	0.101
66.100	65.174	0.101
66.200	65.334	0.101
66.300	63.948	0.101
66.400	65.150	0.101
66.500	68.043	0.101
66.600	68.165	0.101
66.700	63.629	0.101
66.800	70.864	0.101
66.900	74.107	0.101
67.000	76.658	0.101
67.100	68.725	0.101
67.200	74.144	0.101
67.300	76.457	0.101
67.400	68.825	0.101
67.500	65.844	0.101
67.600	61.177	0.101
67.700	67.731	0.101
67.800	67.259	0.101
67.900	72.459	0.101
68.000	72.504	0.101
68.100	75.511	0.101
68.200	70.410	0.101
68.300	67.451	0.101
68.400	61.252	0.101
68.500	68.255	0.101
68.600	63.059	0.101
68.700	68.846	0.101
68.800	67.915	0.101
68.900	76.105	0.101
69.000	71.123	0.101
69.100	69.894	0.101
69.200	58.657	0.101
69.300	74.453	0.101
69.400	65.635	0.101
69.500	64.914	0.101
69.600	55.923	0.101
69.700	53.971	0.101
69.800	70.689	0.101
69.900	73.009	0.101
70.000	75.431	0.101
70.100	73.370	0.101
70.200	73.309	0.101
70.300	63.940	0.101
70.400	66.336	0.101
70.500	74.572	0.101
70.600	82.137	0.101
70.700	79.117	0.101
70.800	74.593	0.101
70.900	87.729	0.101
71.000	84.309	0.101
71.100	70.398	0.101
71.200	75.956	0.101
71.300	72.879	0.101
71.400	59.839	0.101
71.500	67.882	0.101
71.600	62.116	0.101
71.700	70.785	0.101
71.800	75.847	0.101
71.900	73.097	0.101
72.000	61.182	0.101
72.100	65.625	0.101
72.200	64.119	0.101
72.300	79.758	0.101
72.400	72.483	0.101
72.500	73.057	0.101
72.600	69.082	0.101
72.700	62.282	0.101
72.800	71.681	0.101
72.900	78.953	0.101
73.000	86.977	0.101
73.100	77.130	0.101
73.200	73.437	0.101
73.300	70.488	0.101
73.400	75.153	0.101
73.500	72.672	0.101
73.600	77.273	0.101
73.700	67.366	0.101
73.800	72.725	0.101
73.900	67.288	0.101
74.000	63.781	0.101
74.100	72.628	0.101
74.200	84.269	0.101
74.300	86.019	0.101
74.400	85.079	0.101
74.500	76.673	0.101
74.600	74.124	0.101
74.700	73.228	0.101
74.800	68.746	0.101
74.900	75.873	0.101
75.000	75.887	0.101
75.100	71.690	0.101
75.200	70.190	0.101
75.300	73.916	0.101
75.400	82.313	0.101
75.500	82.037	0.101
75.600	69.540	0.101
75.700	69.281	0.101
75.800	68.727	0.101
75.900	75.371	0.101
76.000	76.173	0.101
76.100	73.428	0.101
76.200	72.576	0.101
76.300	66.255	0.101
76.400	75.172	0.101
76.500	75.650	0.101
76.600	80.309	0.101
76.700	69.308	0.101
76.800	74.897	0.101
76.900	85.243	0.101
77.000	86.357	0.101
77.100	75.336	0.101
77.200	64.632	0.101
77.300	72.168	0.101
77.400	82.351	0.101
77.500	78.754	0.101
77.600	80.504	0.101
77.700	76.714	0.101
77.800	81.985	0.101
77.900	80.470	0.101
78.000	81.669	0.101
78.100	80.259	0.101
78.200	58.851	0.101
78.300	58.532	0.101
78.400	70.131	0.101
78.500	72.946	0.101
78.600	77.643	0.101
78.700	71.148	0.101
78.800	69.104	0.101
78.900	76.991	0.101
79.000	80.827	0.101
79.100	76.180	0.101
79.200	61.446	0.101
79.300	76.786	0.101
79.400	74.647	0.101
79.500	81.976	0.101
79.600	84.352	0.101
79.700	84.740	0.101
79.800	76.379	0.101
79.900	74.611	0.101
80.000	72.356	0.101
80.100	67.780	0.101
80.200	69.979	0.101
80.300	71.749	0.101
80.400	70.200	0.101
80.500	93.387	0.101
80.600	88.686	0.101
80.700	90.855	0.101
80.800	87.255	0.101
80.900	80.301	0.101
81.000	79.970	0.101
81.100	83.119	0.101
81.200	83.233	0.101
81.300	77.516	0.101
81.400	84.569	0.101
81.500	84.233	0.101
81.600	69.906	0.101
81.700	74.877	0.101
81.800	65.910	0.101
81.900	78.177	0.101
82.000	75.707	0.101
82.100	79.139	0.101
82.200	78.503	0.101
82.300	86.373	0.101
82.400	75.905	0.101
82.500	80.700	0.101
82.600	80.560	0.101
82.700	74.473	0.101
82.800	75.349	0.101
82.900	79.821	0.101
83.000	79.033	0.101
83.100	63.424	0.101
83.200	75.652	0.101
83.300	74.145	0.101
83.400	75.395	0.101
83.500	79.214	0.101
83.600	83.467	0.101
83.700	76.895	0.101
83.800	82.424	0.101
83.900	90.020	0.101
84.000	78.514	0.101
84.100	86.828	0.101
84.200	76.149	0.101
84.300	74.665	0.101
84.400	80.064	0.101
84.500	82.252	0.101
84.600	78.991	0.101
84.700	77.365	0.101
84.800	73.209	0.101
84.900	87.823	0.101
85.000	81.747	0.101
85.100	77.856	0.101
85.200	74.484	0.101
85.300	78.868	0.101
85.400	91.348	0.101
85.500	93.733	0.101
85.600	98.842	0.101
85.700	84.687	0.101
85.800	77.466	0.101
85.900	76.143	0.101
86.000	81.350	0.101
86.100	89.796	0.101
86.200	93.894	0.101
86.300	90.992	0.101
86.400	76.748	0.101
86.500	83.708	0.101
86.600	75.213	0.101
86.700	68.436	0.101
86.800	86.882	0.101
86.900	78.454	0.101
87.000	80.146	0.101
87.100	86.981	0.101
87.200	75.116	0.101
87.300	78.215	0.101
87.400	82.524	0.101
87.500	86.544	0.101
87.600	81.949	0.101
87.700	73.282	0.101
87.800	90.465	0.101
87.900	81.950	0.101
88.000	89.211	0.101
88.100	87.445	0.101
88.200	90.873	0.101
88.300	83.564	0.101
88.400	77.481	0.101
88.500	89.579	0.101
88.600	92.624	0.101
88.700	84.767	0.101
88.800	87.672	0.101
88.900	84.142	0.101
89.000	78.483	0.101
89.100	78.443	0.101
89.200	92.843	0.101
89.300	81.409	0.101
89.400	70.192	0.101
89.500	70.944	0.101
89.600	79.216	0.101
89.700	88.458	0.101
89.800	97.444	0.101
89.900	81.383	0.101
90.000	78.790	0.101
90.100	71.194	0.101
90.200	76.188	0.101
90.300	73.238	0.101
90.400	66.012	0.101
90.500	60.758	0.101
90.600	61.334	0.101
90.700	66.186	0.101
90.800	69.750	0.101
90.900	57.131	0.101
91.000	65.136	0.101
91.100	51.306	0.101
91.200	47.592	0.101
91.300	50.121	0.101
91.400	37.138	0.101
91.500	40.058	0.101
91.600	40.587	0.101
91.700	33.807	0.101
91.800	30.683	0.101
91.900	29.527	0.101
92.000	32.950	0.101
92.100	26.221	0.101
92.200	40.050	0.101
92.300	19.908	0.101
92.400	19.114	0.101
92.500	13.352	0.101
92.600	25.511	0.101
92.700	19.223	0.101
92.800	23.230	0.101
92.900	11.225	0.101
93.000	6.985	0.101
93.100	8.463	0.101
93.200	10.772	0.101
93.300	-3.615	0.101
93.400	3.526	0.101
93.500	4.711	0.101
93.600	5.562	0.101
93.700	-0.889	0.101
93.800	-4.794	0.101
93.900	-11.986	0.101
94.000	-10.029	0.101
94.100	-3.368	0.101
94.200	0.835	0.101
94.300	-6.995	0.101
94.400	-2.907	0.101
94.500	-11.387	0.101
94.600	-4.823	0.101
94.700	-16.705	0.101
94.800	-26.030	0.101
94.900	-27.536	0.101
95.000	-16.503	0.101
95.100	-17.019	0.101
95.200	-5.707	0.101
95.300	-15.669	0.101
95.400	-28.986	0.101
95.500	-31.900	0.101
95.600	-32.557	0.101
95.700	-32.037	0.101
95.800	-33.327	0.101
95.900	-28.264	0.101
96.000	-25.649	0.101
96.100	-24.035	0.101
96.200	-25.588	0.101
96.300	-33.959	0.101
96.400	-36.289	0.101
96.500	-43.921	0.101
96.600	-30.988	0.101
96.700	-36.937	0.101
96.800	-26.823	0.101
96.900	-30.757	0.101
97.000	-43.395	0.101
97.100	-26.265	0.101
97.200	-31.099	0.101
97.300	-38.182	0.101
97.400	-35.749	0.101
97.500	-35.702	0.101
97.600	-33.314	0.101
97.700	-29.255	0.101
97.800	-27.166	0.101
97.900	-35.748	0.101
98.000	-19.216	0.101
98.100	-33.351	0.101
98.200	-31.015	0.101
98.300	-14.278	0.101
98.400	-13.627	0.101
98.500	-23.168	0.101
98.600	-25.114	0.101
98.700	-27.217	0.101
98.800	-29.910	0.101
98.900	-30.751	0.101
99.000	-27.373	0.101
99.100	-31.021	0.101
99.200	-31.171	0.101
99.300	-32.931	0.101
99.400	-29.069	0.101
99.500	-34.150	0.101
99.600	-32.863	0.101
99.700	-39.916	0.101
99.800	-32.604	0.101
99.900	-31.142	0.101
100.000	-23.061	0.101
100.100	-31.632	0.101
100.200	-33.781	0.101
100.300	-31.464	0.101
100.400	-28.093	0.101
100.500	-12.997	0.101
100.600	-11.168	0.101
100.700	-34.961	0.101
100.800	-24.654	0.101
100.900	-19.739	0.101
101.000	-27.180	0.101
101.100	-40.418	0.101
101.200	-28.537	0.101
101.300	-26.945	0.101
101.400	-20.273	0.101
101.500	-18.902	0.101
101.600	-28.505	0.101
101.700	-29.589	0.101
101.800	-31.185	0.101
101.900	-14.335	0.101
102.000	-13.401	0.101
102.100	-28.332	0.101
102.200	-21.475	0.101
102.300	-25.457	0.101
102.400	-30.278	0.101
102.500	-24.740	0.101
102.600	-27.043	0.101
102.700	-28.006	0.101
102.800	-17.735	0.101
102.900	-17.496	0.101
103.000	-29.336	0.101
103.100	-28.784	0.101
103.200	-19.472	0.101
103.300	-13.350	0.101
103.400	-7.174	0.101
103.500	-21.770	0.101
103.600	-30.520	0.101
103.700	-24.095	0.101
103.800	-16.682	0.101
103.900	-23.981	0.101
104.000	-23.025	0.101
104.100	-21.585	0.101
104.200	-15.228	0.101
104.300	-19.540	0.101
104.400	-11.952	0.101
104.500	-12.588	0.101
104.600	-18.260	0.101
104.700	-13.341	0.101
104.800	-13.084	0.101
104.900	-14.896	0.101
105.000	-12.999	0.101
105.100	-17.201	0.101
105.200	-10.974	0.101
105.300	-5.760	0.101
105.400	-15.267	0.101
105.500	-18.365	0.101
105.600	-20.319	0.101
105.700	-21.497	0.101
105.800	-19.468	0.101
105.900	-27.054	0.101
106.000	-20.859	0.101
106.100	-22.188	0.101
106.200	-23.344	0.101
106.300	-30.386	0.101
106.400	-14.908	0.101
106.500	-8.129	0.101
106.600	-11.850	0.101
106.700	-13.558	0.101
106.800	-18.711	0.101
106.900	-20.143	0.101
107.000	-20.924	0.101
107.100	-17.393	0.101
107.200	-13.398	0.101
107.300	-17.932	0.101
107.400	-24.107	0.101
107.500	-27.023	0.101
107.600	-5.987	0.101
107.700	-21.829	0.101
107.800	-3.769	0.101
107.900	-15.013	0.101
108.000	-7.190	0.101
108.100	-15.839	0.101
108.200	-19.915	0.101
108.300	-16.586	0.101
108.400	-13.256	0.101
108.500	-13.708	0.101
108.600	-7.667	0.101
108.700	-15.237	0.101
108.800	-3.469	0.101
108.900	-26.534	0.101
109.000	-12.527	0.101
109.100	-14.867	0.101
109.200	-20.381	0.101
109.300	-22.955	0.101
109.400	-16.385	0.101
109.500	-7.791	0.101
109.600	-11.787	0.101
109.700	-7.750	0.101
109.800	-19.156	0.101
109.900	-26.282	0.101
110.000	-21.113	0.101
110.100	-13.693	0.101
110.200	-16.221	0.101
110.300	-25.954	0.101
110.400	-16.188	0.101
110.500	-9.594	0.101
110.600	-25.341	0.101
110.700	-24.199	0.101
110.800	-16.508	0.101
110.900	-19.053	0.101
111.000	-13.909	0.101
111.100	-18.296	0.101
111.200	-24.769	0.101
111.300	-25.898	0.101
111.400	-9.734	0.101
111.500	-14.050	0.101
111.600	-19.333	0.101
111.700	-22.587	0.101
111.800	-25.241	0.101
111.900	-23.890	0.101
112.000	-31.878	0.101
112.100	-18.628	0.101
112.200	-15.622	0.101
112.300	-11.477	0.101
112.400	-20.183	0.101
112.500	-9.023	0.101
112.600	-22.627	0.101
112.700	-17.904	0.101
112.800	-7.289	0.101
112.900	-19.877	0.101
113.000	-23.830	0.101
113.100	-18.192	0.101
113.200	-25.169	0.101
113.300	-29.562	0.101
113.400	-18.577	0.101
113.500	-23.059	0.101
113.600	-27.259	0.101
113.700	-23.203	0.101
113.800	-24.385	0.101
113.900	-22.605	0.101
114.000	-19.451	0.101
114.100	-11.318	0.101
114.200	-17.289	0.101
114.300	-27.932	0.101
114.400	-25.904	0.101
114.500	-12.551	0.101
114.600	-14.860	0.101
114.700	-24.129	0.101
114.800	-23.268	0.101
114.900	-28.672	0.101
115.000	-29.133	0.101
115.100	-16.320	0.101
115.200	-16.037	0.101
115.300	-10.333	0.101
115.400	-15.782	0.101
115.500	-10.521	0.101
115.600	-16.272	0.101
115.700	-19.360	0.101
115.800	-12.222	0.101
115.900	-15.392	0.101
116.000	-24.041	0.101
116.100	-14.649	0.101
116.200	-28.687	0.101
116.300	-30.734	0.101
116.400	-28.006	0.101
116.500	-21.134	0.101
116.600	-18.955	0.101
116.700	-20.278	0.101
116.800	-28.927	0.101
116.900	-35.273	0.101
117.000	-21.844	0.101
117.100	-29.879	0.101
117.200	-21.787	0.101
117.300	-20.823	0.101
117.400	-22.075	0.101
117.500	-20.224	0.101
117.600	-18.174	0.101
117.700	-16.040	0.101
117.800	-20.036	0.101
117.900	-19.667	0.101
118.000	-19.771	0.101
118.100	-37.550	0.101
118.200	-38.629	0.101
118.300	-18.869	0.101
118.400	-34.110	0.101
118.500	-27.473	0.101
118.600	-29.138	0.101
118.700	-35.206	0.101
118.800	-30.687	0.101
118.900	-16.390	0.101
119.000	-12.963	0.101
119.100	-16.882	0.101
119.200	-21.085	0.101
119.300	-12.460	0.101
119.400	-18.260	0.101
119.500	-25.938	0.101
119.600	-29.524	0.101
119.700	-21.915	0.101
119.800	-28.018	0.101
119.900	-26.581	0.101
120.000	-22.515	0.101
120.100	-5.728	0.101
120.200	-11.014	0.101
120.300	-11.962	0.101
120.400	-30.762	0.101
120.500	-30.947	0.101
120.600	-26.203	0.101
120.700	-32.761	0.101
120.800	-15.707	0.101
120.900	-17.525	0.101
121.000	-25.379	0.101
121.100	-24.559	0.101
121.200	-19.589	0.101
121.300	-29.932	0.101
121.400	-24.208	0.101
121.500	-25.194	0.101
121.600	-25.889	0.101
121.700	-22.859	0.101
121.800	-21.937	0.101
121.900	-25.791	0.101
122.000	-21.163	0.101
122.100	-18.872	0.101
122.200	-15.268	0.101
122.300	-29.826	0.101
122.400	-25.068	0.101
122.500	-29.398	0.101
122.600	-25.463	0.101
122.700	-22.924	0.101
122.800	-21.361	0.101
122.900	-25.077	0.101
123.000	-28.036	0.101
123.100	-27.282	0.101
123.200	-29.365	0.101
123.300	-31.946	0.101
123.400	-12.578	0.101
123.500	-17.275	0.101
123.600	-26.621	0.101
123.700	-28.974	0.101
123.800	-28.640	0.101
123.900	-33.993	0.101
124.000	-39.514	0.101
124.100	-36.346	0.101
124.200	-24.463	0.101
124.300	-40.160	0.101
124.400	-33.015	0.101
124.500	-28.784	0.101
124.600	-27.034	0.101
124.700	-21.348	0.101
124.800	-26.678	0.101
124.900	-23.778	0.101
125.000	-23.853	0.101
125.100	-22.818	0.101
125.200	-21.161	0.101
125.300	-32.723	0.101
125.400	-31.650	0.101
125.500	-39.255	0.101
125.600	-35.843	0.101
125.700	-25.677	0.101
125.800	-29.706	0.101
125.900	-32.294	0.101
126.000	-31.361	0.101
126.100	-25.086	0.101
126.200	-22.493	0.101
126.300	-29.403	0.101
126.400	-34.671	0.101
126.500	-24.577	0.101
126.600	-28.462	0.101
126.700	-25.380	0.101
126.800	-37.467	0.101
126.900	-15.687	0.101
127.000	-16.183	0.101
127.100	-28.161	0.101
127.200	-28.507	0.101
127.300	-25.898	0.101
127.400	-26.934	0.101
127.500	-28.359	0.101
127.600	-31.602	0.101
127.700	-33.578	0.101
127.800	-32.018	0.101
127.900	-28.738	0.101
128.000	-24.694	0.101
128.100	-17.489	0.101
128.200	-31.545	0.101
128.300	-30.680	0.101
128.400	-28.580	0.101
128.500	-40.476	0.101
128.600	-32.967	0.101
128.700	-34.062	0.101
128.800	-29.090	0.101
128.900	-19.829	0.101
129.000	-27.618	0.101
129.100	-30.299	0.101
129.200	-27.751	0.101
129.300	-29.869	0.101
129.400	-29.231	0.101
129.500	-32.550	0.101
129.600	-28.968	0.101
129.700	-35.134	0.101
129.800	-32.937	0.101
129.900	-28.160	0.101
130.000	-17.471	0.101
130.100	-27.407	0.101
130.200	-21.561	0.101
130.300	-20.271	0.101
130.400	-30.398	0.101
130.500	-37.825	0.101
130.600	-32.936	0.101
130.700	-29.259	0.101
130.800	-32.286	0.101
130.900	-28.690	0.101
131.000	-23.728	0.101
131.100	-23.209	0.101
131.200	-22.102	0.101
131.300	-30.627	0.101
131.400	-37.394	0.101
131.500	-28.986	0.101
131.600	-34.128	0.101
131.700	-34.471	0.101
131.800	-25.970	0.101
131.900	-26.250	0.101
132.000	-26.344	0.101
132.100	-30.639	0.101
132.200	-35.342	0.101
132.300	-18.078	0.101
132.400	-34.914	0.101
132.500	-26.176	0.101
132.600	-29.132	0.101
132.700	-32.035	0.101
132.800	-37.144	0.101
132.900	-27.707	0.101
133.000	-32.145	0.101
133.100	-31.716	0.101
133.200	-31.416	0.101
133.300	-16.603	0.101
133.400	-32.845	0.101
133.500	-34.383	0.101
133.600	-32.804	0.101
133.700	-38.679	0.101
133.800	-26.473	0.101
133.900	-36.201	0.101
134.000	-36.460	0.101
134.100	-32.405	0.101
134.200	-38.315	0.101
134.300	-25.645	0.101
134.400	-31.300	0.101
134.500	-29.979	0.101
134.600	-25.191	0.101
134.700	-33.946	0.101
134.800	-36.256	0.101
134.900	-28.987	0.101
135.000	-33.412	0.101
135.100	-38.375	0.101
135.200	-36.915	0.101
135.300	-31.604	0.101
135.400	-25.044	0.101
135.500	-19.633	0.101
135.600	-37.559	0.101
135.700	-36.351	0.101
135.800	-23.777	0.101
135.900	-31.163	0.101
136.000	-28.622	0.101
136.100	-23.299	0.101
136.200	-27.797	0.101
136.300	-32.853	0.101
136.400	-25.002	0.101
136.500	-20.423	0.101
136.600	-23.467	0.101
136.700	-35.972	0.101
136.800	-23.323	0.101
136.900	-27.878	0.101
137.000	-32.027	0.101
137.100	-23.525	0.101
137.200	-23.876	0.101
137.300	-25.569	0.101
137.400	-27.328	0.101
137.500	-29.768	0.101
137.600	-38.463	0.101
137.700	-41.064	0.101
137.800	-44.026	0.101
137.900	-38.036	0.101
138.000	-40.088	0.101
138.100	-29.828	0.101
138.200	-32.048	0.101
138.300	-25.202	0.101
138.400	-18.365	0.101
138.500	-33.166	0.101
138.600	-31.703	0.101
138.700	-33.301	0.101
138.800	-31.726	0.101
138.900	-26.928	0.101
139.000	-33.240	0.101
139.100	-31.768	0.101
139.200	-38.646	0.101
139.300	-37.429	0.101
139.400	-26.631	0.101
139.500	-27.456	0.101
139.600	-25.516	0.101
139.700	-25.180	0.101
139.800	-24.858	0.101
139.900	-29.051	0.101
140.000	-31.076	0.101
140.100	-33.423	0.101
140.200	-25.707	0.101
140.300	-36.399	0.101
140.400	-33.663	0.101
140.500	-33.722	0.101
140.600	-40.636	0.101
140.700	-44.368	0.101
140.800	-28.435	0.101
140.900	-31.510	0.101
141.000	-25.641	0.101
141.100	-23.667	0.101
141.200	-21.779	0.101
141.300	-31.911	0.101
141.400	-39.999	0.101
141.500	-45.917	0.101
141.600	-38.213	0.101
141.700	-36.619	0.101
141.800	-25.723	0.101
141.900	-22.607	0.101
142.000	-25.512	0.101
142.100	-31.621	0.101
142.200	-37.770	0.101
142.300	-24.049	0.101
142.400	-30.966	0.101
142.500	-37.293	0.101
142.600	-38.048	0.101
142.700	-26.106	0.101
142.800	-22.839	0.101
142.900	-26.244	0.101
143.000	-24.510	0.101
143.100	-20.786	0.101
143.200	-25.921	0.101
143.300	-22.786	0.101
143.400	-21.062	0.101
143.500	-27.396	0.101
143.600	-28.801	0.101
143.700	-33.209	0.101
143.800	-37.100	0.101
143.900	-31.567	0.101
144.000	-25.565	0.101
144.100	-31.190	0.101
144.200	-44.466	0.101
144.300	-37.271	0.101
144.400	-32.246	0.101
144.500	-27.388	0.101
144.600	-25.453	0.101
144.700	-38.510	0.101
144.800	-40.614	0.101
144.900	-32.952	0.101
145.000	-31.300	0.101
145.100	-34.701	0.101
145.200	-30.720	0.101
145.300	-30.081	0.101
145.400	-30.952	0.101
145.500	-24.712	0.101
145.600	-37.347	0.101
145.700	-30.085	0.101
145.800	-30.667	0.101
145.900	-24.396	0.101
146.000	-18.637	0.101
146.100	-21.696	0.101
146.200	-38.248	0.101
146.300	-33.228	0.101
146.400	-17.506	0.101
146.500	-21.025	0.101
146.600	-38.292	0.101
146.700	-41.601	0.101
146.800	-28.462	0.101
146.900	-28.116	0.101
147.000	-27.486	0.101
147.100	-21.337	0.101
147.200	-17.013	0.101
147.300	-24.478	0.101
147.400	-36.120	0.101
147.500	-32.692	0.101
147.600	-38.158	0.101
147.700	-31.035	0.101
147.800	-26.634	0.101
147.900	-31.610	0.101
148.000	-31.225	0.101
148.100	-28.061	0.101
148.200	-41.585	0.101
148.300	-27.099	0.101
148.400	-25.780	0.101
148.500	-23.609	0.101
148.600	-37.243	0.101
148.700	-31.834	0.101
148.800	-38.753	0.101
148.900	-34.052	0.101
149.000	-33.572	0.101
149.100	-35.895	0.101
149.200	-36.931	0.101
149.300	-36.800	0.101
149.400	-24.403	0.101
149.500	-24.924	0.101
149.600	-20.813	0.101
149.700	-24.845	0.101
149.800	-33.041	0.101
149.900	-29.848	0.101
150.000	-25.340	0.101
150.100	-27.962	0.101
150.200	-30.584	0.101
150.300	-36.069	0.101
150.400	-21.742	0.101
150.500	-28.783	0.101
150.600	-30.793	0.101
150.700	-29.351	0.101
150.800	-24.343	0.101
150.900	-25.018	0.101
151.000	-28.143	0.101
151.100	-30.530	0.101
151.200	-28.263	0.101
151.300	-23.892	0.101
151.400	-31.518	0.101
151.500	-26.552	0.101
151.600	-39.524	0.101
151.700	-36.127	0.101
151.800	-29.503	0.101
151.900	-39.939	0.101
152.000	-29.602	0.101
152.100	-29.896	0.101
152.200	-33.347	0.101
152.300	-26.764	0.101
152.400	-30.793	0.101
152.500	-19.479	0.101
152.600	-22.443	0.101
152.700	-19.559	0.101
152.800	-21.986	0.101
152.900	-30.887	0.101
153.000	-36.836	0.101
153.100	-37.914	0.101
153.200	-30.673	0.101
153.300	-22.981	0.101
153.400	-42.649	0.101
153.500	-41.679	0.101
153.600	-32.717	0.101
153.700	-33.057	0.101
153.800	-34.090	0.101
153.900	-40.446	0.101
154.000	-26.804	0.101
154.100	-25.574	0.101
154.200	-19.903	0.101
154.300	-24.676	0.101
154.400	-15.357	0.101
154.500	-18.383	0.101
154.600	-21.216	0.101
154.700	-33.252	0.101
154.800	-22.859	0.101
154.900	-28.526	0.101
155.000	-34.919	0.101
155.100	-27.749	0.101
155.200	-22.463	0.101
155.300	-19.827	0.101
155.400	-37.717	0.101
155.500	-31.228	0.101
155.600	-34.566	0.101
155.700	-27.103	0.101
155.800	-21.910	0.101
155.900	-26.012	0.101
156.000	-34.337	0.101
156.100	-39.018	0.101
156.200	-26.071	0.101
156.300	-22.983	0.101
156.400	-23.911	0.101
156.500	-22.779	0.101
156.600	-12.461	0.101
156.700	-22.908	0.101
156.800	-29.980	0.101
156.900	-28.128	0.101
157.000	-38.204	0.101
157.100	-32.814	0.101
157.200	-38.767	0.101
157.300	-31.112	0.101
157.400	-26.928	0.101
157.500	-31.825	0.101
157.600	-40.659	0.101
157.700	-34.202	0.101
157.800	-32.225	0.101
157.900	-25.450	0.101
158.000	-23.109	0.101
158.100	-33.147	0.101
158.200	-23.374	0.101
158.300	-24.814	0.101
158.400	-25.160	0.101
158.500	-20.201	0.101
158.600	-21.420	0.101
158.700	-29.234	0.101
158.800	-19.623	0.101
158.900	-24.634	0.101
159.000	-29.208	0.101
159.100	-28.789	0.101
159.200	-21.139	0.101
159.300	-20.378	0.101
159.400	-26.874	0.101
159.500	-30.973	0.101
159.600	-29.898	0.101
159.700	-33.974	0.101
159.800	-32.922	0.101
159.900	-28.995	0.101
160.000	-30.959	0.101
160.100	-31.587	0.101
160.200	-22.253	0.101
160.300	-34.154	0.101
160.400	-19.772	0.101
160.500	-33.186	0.101
160.600	-35.573	0.101
160.700	-28.909	0.101
160.800	-22.665	0.101
160.900	-32.086	0.101
161.000	-26.999	0.101
161.100	-38.308	0.101
161.200	-29.204	0.101
161.300	-25.411	0.101
161.400	-30.061	0.101
161.500	-34.774	0.101
161.600	-28.297	0.101
161.700	-29.717	0.101
161.800	-20.844	0.101
161.900	-30.450	0.101
162.000	-29.618	0.101
162.100	-27.621	0.101
162.200	-31.078	0.101
162.300	-30.503	0.101
162.400	-25.067	0.101
162.500	-26.058	0.101
162.600	-20.710	0.101
162.700	-22.366	0.101
162.800	-27.221	0.101
162.900	-29.075	0.101
163.000	-25.293	0.101
163.100	-33.676	0.101
163.200	-25.672	0.101
163.300	-15.266	0.101
163.400	-19.376	0.101
163.500	-25.877	0.101
163.600	-29.564	0.101
163.700	-24.137	0.101
163.800	-27.318	0.101
163.900	-24.155	0.101
164.000	-20.250	0.101
164.100	-34.049	0.101
164.200	-27.049	0.101
164.300	-28.902	0.101
164.400	-30.293	0.101
164.500	-38.900	0.101
164.600	-32.345	0.101
164.700	-27.787	0.101
164.800	-34.945	0.101
164.900	-25.969	0.101
165.000	-13.979	0.101
165.100	-34.324	0.101
165.200	-27.848	0.101
165.300	-28.403	0.101
165.400	-34.160	0.101
165.500	-29.637	0.101
165.600	-28.342	0.101
165.700	-28.041	0.101
165.800	-11.665	0.101
165.900	-23.337	0.101
166.000	-40.687	0.101
166.100	-23.054	0.101
166.200	-22.961	0.101
166.300	-26.388	0.101
166.400	-39.827	0.101
166.500	-16.072	0.101
166.600	-34.647	0.101
166.700	-27.637	0.101
166.800	-29.921	0.101
166.900	-22.310	0.101
167.000	-23.587	0.101
167.100	-23.450	0.101
167.200	-30.911	0.101
167.300	-18.135	0.101
167.400	-23.473	0.101
167.500	-28.541	0.101
167.600	-32.092	0.101
167.700	-29.646	0.101
167.800	-36.837	0.101
167.900	-24.546	0.101
168.000	-15.415	0.101
168.100	-21.982	0.101
168.200	-19.111	0.101
168.300	-16.926	0.101
168.400	-35.365	0.101
168.500	-32.964	0.101
168.600	-30.816	0.101
168.700	-24.540	0.101
168.800	-32.388	0.101
168.900	-36.723	0.101
169.000	-23.858	0.101
169.100	-27.349	0.101
169.200	-27.177	0.101
169.300	-29.056	0.101
169.400	-34.403	0.101
169.500	-27.019	0.101
169.600	-23.113	0.101
169.700	-19.734	0.101
169.800	-20.612	0.101
169.900	-19.904	0.101
170.000	-26.044	0.101
170.100	-18.216	0.101
170.200	-34.004	0.101
170.300	-30.837	0.101
170.400	-30.500	0.101
170.500	-23.761	0.101
170.600	-25.844	0.101
170.700	-29.727	0.101
170.800	-21.664	0.101
170.900	-35.294	0.101
171.000	-28.390	0.101
171.100	-37.932	0.101
171.200	-33.154	0.101
171.300	-21.367	0.101
171.400	-25.854	0.101
171.500	-31.406	0.101
171.600	-28.717	0.101
171.700	-15.240	0.101
171.800	-19.835	0.101
171.900	-15.893	0.101
172.000	-24.557	0.101
172.100	-30.012	0.101
172.200	-33.730	0.101
172.300	-32.188	0.101
172.400	-15.121	0.101
172.500	-27.909	0.101
172.600	-23.377	0.101
172.700	-24.413	0.101
172.800	-30.813	0.101
172.900	-21.325	0.101
173.000	-27.176	0.101
173.100	-40.070	0.101
173.200	-32.636	0.101
173.300	-19.652	0.101
173.400	-20.348	0.101
173.500	-30.610	0.101
173.600	-29.540	0.101
173.700	-22.722	0.101
173.800	-9.286	0.101
173.900	-25.010	0.101
174.000	-25.684	0.101
174.100	-27.343	0.101
174.200	-37.166	0.101
174.300	-36.613	0.101
174.400	-37.925	0.101
174.500	-30.573	0.101
174.600	-27.874	0.101
174.700	-32.000	0.101
174.800	-17.265	0.101
174.900	-14.266	0.101
175.000	-27.477	0.101
175.100	-26.083	0.101
175.200	-20.021	0.101
175.300	-29.155	0.101
175.400	-31.741	0.101
175.500	-28.807	0.101
175.600	-18.090	0.101
175.700	-21.301	0.101
175.800	-19.770	0.101
175.900	-22.645	0.101
176.000	-29.442	0.101
176.100	-26.475	0.101
176.200	-24.534	0.101
176.300	-13.691	0.101
176.400	-22.346	0.101
176.500	-29.092	0.101
176.600	-29.861	0.101
176.700	-29.463	0.101
176.800	-24.140	0.101
176.900	-28.664	0.101
177.000	-17.842	0.101
177.100	-24.856	0.101
177.200	-26.362	0.101
177.300	-22.904	0.101
177.400	-25.765	0.101
177.500	-24.490	0.101
177.600	-20.275	0.101
177.700	-27.445	0.101
177.800	-31.090	0.101
177.900	-28.302	0.101
178.000	-23.816	0.101
178.100	-27.878	0.101
178.200	-12.946	0.101
178.300	-23.580	0.101
178.400	-36.012	0.101
178.500	-37.066	0.101
178.600	-38.546	0.101
178.700	-30.208	0.101
178.800	-30.919	0.101
178.900	-31.326	0.101
179.000	-23.483	0.101
179.100	-19.399	0.101
179.200	-14.018	0.101
179.300	-27.456	0.101
179.400	-31.081	0.101
179.500	-18.720	0.101
179.600	-18.144	0.101
179.700	-20.589	0.101
179.800	-21.504	0.101
179.900	-11.824	0.101
180.000	-34.241	0.101
180.100	-32.110	0.101
180.200	-18.727	0.101
180.300	-21.223	0.101
180.400	-17.137	0.101
180.500	-18.283	0.101
180.600	-17.997	0.101
180.700	-16.751	0.101
180.800	-7.383	0.101
180.900	-11.673	0.101
181.000	-4.686	0.101
181.100	8.769	0.101
181.200	6.263	0.101
181.300	14.918	0.101
181.400	18.696	0.101
181.500	13.838	0.101
181.600	7.687	0.101
181.700	9.731	0.101
181.800	23.905	0.101
181.900	22.278	0.101
182.000	29.103	0.101
182.100	24.551	0.101
182.200	32.006	0.101
182.300	26.262	0.101
182.400	32.268	0.101
182.500	33.791	0.101
182.600	34.222	0.101
182.700	42.636	0.101
182.800	39.317	0.101
182.900	29.288	0.101
183.000	25.638	0.101
183.100	35.700	0.101
183.200	37.913	0.101
183.300	39.813	0.101
183.400	35.292	0.101
183.500	35.443	0.101
183.600	37.862	0.101
183.700	47.369	0.101
183.800	42.051	0.101
183.900	48.237	0.101
184.000	39.668	0.101
184.100	37.364	0.101
184.200	42.782	0.101
184.300	43.875	0.101
184.400	43.384	0.101
184.500	45.418	0.101
184.600	45.218	0.101
184.700	36.880	0.101
184.800	50.470	0.101
184.900	50.381	0.101
185.000	48.515	0.101
185.100	37.871	0.101
185.200	44.704	0.101
185.300	48.983	0.101
185.400	31.095	0.101
185.500	27.961	0.101
185.600	33.735	0.101
185.700	40.744	0.101
185.800	38.024	0.101
185.900	35.794	0.101
186.000	39.853	0.101
186.100	54.883	0.101
186.200	38.638	0.101
186.300	42.772	0.101
186.400	50.536	0.101
186.500	35.172	0.101
186.600	48.897	0.101
186.700	42.504	0.101
186.800	45.307	0.101
186.900	53.002	0.101
187.000	40.900	0.101
187.100	43.858	0.101
187.200	42.107	0.101
187.300	43.868	0.101
187.400	42.028	0.101
187.500	37.879	0.101
187.600	34.392	0.101
187.700	38.308	0.101
187.800	36.776	0.101
187.900	47.155	0.101
188.000	42.738	0.101
188.100	62.145	0.101
188.200	65.943	0.101
188.300	55.387	0.101
188.400	46.896	0.101
188.500	51.248	0.101
188.600	40.825	0.101
188.700	52.524	0.101
188.800	47.935	0.101
188.900	52.058	0.101
189.000	58.785	0.101
189.100	50.013	0.101
189.200	57.869	0.101
189.300	48.124	0.101
189.400	43.493	0.101
189.500	56.359	0.101
189.600	51.360	0.101
189.700	46.801	0.101
189.800	50.754	0.101
189.900	61.883	0.101
190.000	47.470	0.101
190.100	56.630	0.101
190.200	66.744	0.101
190.300	57.261	0.101
190.400	57.609	0.101
190.500	56.489	0.101
190.600	62.672	0.101
190.700	71.259	0.101
190.800	64.404	0.101
190.900	65.019	0.101
191.000	65.216	0.101
191.100	62.535	0.101
191.200	65.043	0.101
191.300	67.784	0.101
191.400	75.691	0.101
191.500	72.620	0.101
191.600	65.905	0.101
191.700	66.860	0.101
191.800	73.403	0.101
191.900	79.750	0.101
192.000	77.195	0.101
192.100	73.858	0.101
192.200	79.148	0.101
192.300	80.437	0.101
192.400	77.276	0.101
192.500	78.818	0.101
192.600	71.818	0.101
192.700	87.053	0.101
192.800	89.120	0.101
192.900	87.490	0.101
193.000	89.190	0.101
193.100	91.513	0.101
193.200	83.062	0.101
193.300	81.814	0.101
193.400	94.033	0.101
193.500	95.663	0.101
193.600	97.158	0.101
193.700	94.531	0.101
193.800	93.500	0.101
193.900	106.927	0.101
194.000	98.072	0.101
194.100	109.781	0.101
194.200	96.002	0.101
194.300	102.574	0.101
194.400	95.289	0.101
194.500	97.868	0.101
194.600	99.646	0.101
194.700	97.363	0.101
194.800	89.356	0.101
194.900	94.550	0.101
195.000	94.059	0.101
195.100	102.057	0.101
195.200	99.567	0.101
195.300	105.811	0.101
195.400	111.624	0.101
195.500	115.609	0.101
195.600	106.949	0.101
195.700	108.621	0.101
195.800	116.827	0.101
195.900	109.517	0.101
196.000	108.224	0.101
196.100	109.133	0.101
196.200	109.685	0.101
196.300	104.707	0.101
196.400	114.541	0.101
196.500	102.754	0.101
196.600	110.328	0.101
196.700	103.825	0.101
196.800	109.768	0.101
196.900	119.915	0.101
197.000	117.091	0.101
197.100	123.691	0.101
197.200	117.364	0.101
197.300	111.050	0.101
197.400	98.449	0.101
197.500	111.245	0.101
197.600	116.523	0.101
197.700	115.046	0.101
197.800	126.474	0.101
197.900	136.712	0.101
198.000	130.076	0.101
198.100	120.945	0.101
198.200	118.261	0.101
198.300	117.116	0.101
198.400	124.450	0.101
198.500	131.859	0.101
198.600	128.910	0.101
198.700	119.317	0.101
198.800	115.921	0.101
198.900	113.772	0.101
199.000	118.911	0.101
199.100	127.082	0.101
199.200	119.336	0.101
199.300	113.212	0.101
199.400	110.006	0.101
199.500	122.166	0.101
199.600	117.306	0.101
199.700	125.658	0.101
199.800	127.154	0.101
199.900	137.265	0.101
200.000	127.232	0.101
200.100	118.303	0.101
200.200	122.044	0.101
200.300	116.419	0.101
200.400	116.660	0.101
200.500	107.154	0.101
200.600	115.710	0.101
200.700	116.476	0.101
200.800	105.767	0.101
200.900	107.501	0.101
201.000	130.375	0.101
201.100	126.273	0.101
201.200	118.700	0.101
201.300	119.752	0.101
201.400	117.328	0.101
201.500	132.773	0.101
201.600	117.943	0.101
201.700	119.433	0.101
201.800	114.686	0.101
201.900	125.918	0.101
202.000	121.287	0.101
202.100	112.496	0.101
202.200	121.648	0.101
202.300	122.976	0.101
202.400	127.312	0.101
202.500	127.013	0.101
202.600	113.385	0.101
202.700	110.646	0.101
202.800	116.425	0.101
202.900	116.620	0.101
203.000	112.292	0.101
203.100	118.962	0.101
203.200	119.665	0.101
203.300	113.234	0.101
203.400	130.214	0.101
203.500	132.171	0.101
203.600	122.643	0.101
203.700	114.335	0.101
203.800	124.500	0.101
203.900	113.866	0.101
204.000	123.931	0.101
204.100	117.222	0.101
204.200	120.404	0.101
204.300	122.351	0.101
204.400	120.495	0.101
204.500	130.177	0.101
204.600	127.450	0.101
204.700	119.449	0.101
204.800	122.368	0.101
204.900	130.693	0.101
205.000	126.382	0.101
205.100	111.327	0.101
205.200	113.746	0.101
205.300	117.518	0.101
205.400	121.766	0.101
205.500	107.373	0.101
205.600	114.456	0.101
205.700	112.458	0.101
205.800	111.332	0.101
205.900	122.748	0.101
206.000	125.957	0.101
206.100	120.645	0.101
206.200	110.960	0.101
206.300	112.600	0.101
206.400	110.239	0.101
206.500	111.528	0.101
206.600	112.260	0.101
206.700	116.482	0.101
206.800	109.870	0.101
206.900	111.283	0.101
207.000	127.081	0.101
207.100	112.604	0.101
207.200	125.197	0.101
207.300	131.014	0.101
207.400	117.405	0.101
207.500	127.842	0.101
207.600	119.972	0.101
207.700	117.036	0.101
207.800	112.803	0.101
207.900	125.454	0.101
208.000	121.451	0.101
208.100	115.605	0.101
208.200	121.850	0.101
208.300	124.268	0.101
208.400	122.855	0.101
208.500	100.368	0.101
208.600	103.513	0.101
208.700	110.090	0.101
208.800	107.185	0.101
208.900	109.646	0.101
209.000	116.487	0.101
209.100	122.152	0.101
209.200	118.015	0.101
209.300	117.357	0.101
209.400	106.915	0.101
209.500	121.076	0.101
209.600	110.510	0.101
209.700	105.062	0.101
209.800	112.759	0.101
209.900	108.963	0.101
210.000	109.940	0.101
210.100	112.166	0.101
210.200	102.841	0.101
210.300	108.940	0.101
210.400	110.234	0.101
210.500	117.858	0.101
210.600	129.924	0.101
210.700	115.564	0.101
210.800	110.958	0.101
210.900	115.048	0.101
211.000	120.523	0.101
211.100	117.430	0.101
211.200	108.443	0.101
211.300	105.226	0.101
211.400	94.864	0.101
211.500	99.465	0.101
211.600	107.843	0.101
211.700	125.106	0.101
211.800	116.485	0.101
211.900	111.516	0.101
212.000	118.620	0.101
212.100	116.879	0.101
212.200	109.149	0.101
212.300	111.370	0.101
212.400	110.498	0.101
212.500	112.828	0.101
212.600	111.929	0.101
212.700	113.103	0.101
212.800	110.821	0.101
212.900	115.727	0.101
213.000	105.470	0.101
213.100	108.497	0.101
213.200	120.809	0.101
213.300	115.722	0.101
213.400	106.034	0.101
213.500	109.893	0.101
213.600	102.223	0.101
213.700	109.041	0.101
213.800	120.442	0.101
213.900	111.838	0.101
214.000	125.792	0.101
214.100	123.528	0.101
214.200	133.423	0.101
214.300	122.414	0.101
214.400	118.276	0.101
214.500	113.584	0.101
214.600	109.183	0.101
214.700	109.019	0.101
214.800	118.910	0.101
214.900	124.144	0.101
215.000	101.922	0.101
215.100	111.236	0.101
215.200	127.955	0.101
215.300	116.567	0.101
215.400	123.273	0.101
215.500	106.768	0.101
215.600	111.826	0.101
215.700	108.742	0.101
215.800	107.191	0.101
215.900	95.313	0.101
216.000	104.219	0.101
216.100	108.187	0.101
216.200	119.341	0.101
216.300	128.376	0.101
216.400	125.469	0.101
216.500	119.258	0.101
216.600	105.069	0.101
216.700	108.803	0.101
216.800	108.145	0.101
216.900	118.899	0.101
217.000	117.377	0.101
217.100	117.684	0.101
217.200	100.171	0.101
217.300	107.396	0.101
217.400	118.699	0.101
217.500	115.364	0.101
217.600	118.954	0.101
217.700	125.844	0.101
217.800	115.923	0.101
217.900	117.998	0.101
218.000	110.862	0.101
218.100	114.209	0.101
218.200	107.060	0.101
218.300	109.294	0.101
218.400	109.146	0.101
218.500	104.760	0.101
218.600	123.114	0.101
218.700	116.466	0.101
218.800	109.370	0.101
218.900	110.240	0.101
219.000	116.525	0.101
219.100	107.659	0.101
219.200	106.553	0.101
219.300	107.404	0.101
219.400	110.855	0.101
219.500	121.321	0.101
219.600	111.320	0.101
219.700	111.716	0.101
219.800	108.297	0.101
219.900	107.345	0.101
220.000	110.476	0.101
220.100	114.790	0.101
220.200	121.589	0.101
220.300	115.141	0.101
220.400	122.706	0.101
220.500	124.509	0.101
220.600	115.112	0.101
220.700	115.123	0.101
220.800	126.361	0.101
220.900	108.875	0.101
221.000	104.610	0.101
221.100	109.129	0.101
221.200	109.299	0.101
221.300	111.712	0.101
221.400	113.332	0.101
221.500	105.449	0.101
221.600	109.127	0.101
221.700	108.662	0.101
221.800	107.401	0.101
221.900	117.103	0.101
222.000	110.795	0.101
222.100	114.506	0.101
222.200	117.463	0.101
222.300	100.561	0.101
222.400	110.279	0.101
222.500	112.691	0.101
222.600	110.795	0.101
222.700	105.502	0.101
222.800	105.475	0.101
222.900	119.073	0.101
223.000	108.901	0.101
223.100	114.600	0.101
223.200	95.944	0.101
223.300	120.278	0.101
223.400	114.367	0.101
223.500	109.913	0.101
223.600	103.316	0.101
223.700	108.784	0.101
223.800	103.555	0.101
223.900	110.417	0.101
224.000	113.227	0.101
224.100	121.184	0.101
224.200	110.157	0.101
224.300	111.819	0.101
224.400	117.683	0.101
224.500	119.410	0.101
224.600	115.287	0.101
224.700	100.178	0.101
224.800	102.462	0.101
224.900	107.678	0.101
225.000	110.703	0.101
225.100	114.751	0.101
225.200	100.642	0.101
225.300	111.964	0.101
225.400	110.475	0.101
225.500	116.336	0.101
225.600	120.293	0.101
225.700	109.367	0.101
225.800	111.956	0.101
225.900	110.231	0.101
226.000	118.667	0.101
226.100	115.788	0.101
226.200	101.980	0.101
226.300	99.787	0.101
226.400	109.020	0.101
226.500	119.064	0.101
226.600	120.720	0.101
226.700	120.966	0.101
226.800	115.013	0.101
226.900	113.318	0.101
227.000	106.754	0.101
227.100	110.442	0.101
227.200	106.552	0.101
227.300	110.426	0.101
227.400	101.943	0.101
227.500	104.778	0.101
227.600	114.320	0.101
227.700	112.097	0.101
227.800	112.199	0.101
227.900	121.754	0.101
228.000	119.271	0.101
228.100	110.394	0.101
228.200	109.991	0.101
228.300	105.093	0.101
228.400	115.993	0.101
228.500	122.094	0.101
228.600	113.577	0.101
228.700	115.553	0.101
228.800	115.557	0.101
228.900	120.514	0.101
229.000	110.849	0.101
229.100	108.540	0.101
229.200	112.838	0.101
229.300	101.234	0.101
229.400	112.900	0.101
229.500	122.627	0.101
229.600	117.390	0.101
229.700	111.891	0.101
229.800	109.740	0.101
229.900	119.147	0.101
230.000	108.724	0.101
230.100	110.715	0.101
230.200	113.416	0.101
230.300	110.738	0.101
230.400	100.858	0.101
230.500	109.799	0.101
230.600	109.138	0.101
230.700	106.093	0.101
230.800	108.597	0.101
230.900	107.007	0.101
231.000	114.705	0.101
231.100	115.594	0.101
231.200	120.534	0.101
231.300	121.398	0.101
231.400	124.484	0.101
231.500	120.282	0.101
231.600	120.007	0.101
231.700	112.833	0.101
231.800	109.761	0.101
231.900	109.962	0.101
232.000	101.495	0.101
232.100	98.885	0.101
232.200	104.358	0.101
232.300	102.754	0.101
232.400	100.032	0.101
232.500	107.034	0.101
232.600	115.072	0.101
232.700	113.105	0.101
232.800	110.969	0.101
232.900	116.322	0.101
233.000	101.681	0.101
233.100	103.009	0.101
233.200	121.419	0.101
233.300	106.541	0.101
233.400	100.669	0.101
233.500	107.540	0.101
233.600	102.985	0.101
233.700	120.733	0.101
233.800	116.712	0.101
233.900	108.982	0.101
234.000	110.707	0.101
234.100	119.360	0.101
234.200	116.311	0.101
234.300	110.137	0.101
234.400	108.386	0.101
234.500	102.403	0.101
234.600	119.276	0.101
234.700	109.832	0.101
234.800	114.968	0.101
234.900	115.500	0.101
235.000	96.868	0.101
235.100	98.952	0.101
235.200	110.456	0.101
235.300	108.137	0.101
235.400	113.835	0.101
235.500	122.149	0.101
235.600	111.487	0.101
235.700	107.483	0.101
235.800	104.924	0.101
235.900	113.522	0.101
236.000	101.030	0.101
236.100	112.377	0.101
236.200	119.255	0.101
236.300	113.728	0.101
236.400	125.059	0.101
236.500	117.427	0.101
236.600	122.777	0.101
236.700	106.520	0.101
236.800	103.931	0.101
236.900	108.047	0.101
237.000	107.403	0.101
237.100	123.987	0.101
237.200	111.139	0.101
237.300	111.774	0.101
237.400	115.277	0.101
237.500	105.551	0.101
237.600	108.157	0.101
237.700	112.085	0.101
237.800	117.501	0.101
237.900	113.883	0.101
238.000	113.076	0.101
238.100	106.519	0.101
238.200	102.698	0.101
238.300	100.175	0.101
238.400	119.301	0.101
238.500	118.675	0.101
238.600	115.636	0.101
238.700	108.063	0.101
238.800	112.372	0.101
238.900	106.924	0.101
239.000	111.142	0.101
239.100	105.931	0.101
239.200	107.756	0.101
239.300	105.220	0.101
239.400	111.316	0.101
239.500	104.802	0.101
239.600	110.965	0.101
239.700	109.487	0.101
239.800	110.893	0.101
239.900	103.281	0.101
240.000	102.317	0.101
240.100	92.480	0.101
240.200	107.532	0.101
240.300	102.851	0.101
240.400	108.011	0.101
240.500	110.499	0.101
240.600	103.493	0.101
240.700	78.790	0.101
240.800	85.406	0.101
240.900	97.601	0.101
241.000	90.429	0.101
241.100	63.135	0.101
241.200	78.091	0.101
241.300	69.478	0.101
241.400	74.746	0.101
241.500	73.940	0.101
241.600	78.659	0.101
241.700	74.621	0.101
241.800	62.036	0.101
241.900	54.195	0.101
242.000	55.889	0.101
242.100	44.058	0.101
242.200	47.537	0.101
242.300	45.988	0.101
242.400	57.967	0.101
242.500	37.868	0.101
242.600	37.898	0.101
242.700	49.860	0.101
242.800	50.348	0.101
242.900	50.096	0.101
243.000	38.922	0.101
243.100	40.158	0.101
243.200	33.105	0.101
243.300	29.527	0.101
243.400	41.855	0.101
243.500	26.226	0.101
243.600	22.362	0.101
243.700	30.473	0.101
243.800	35.149	0.101
243.900	22.850	0.101
244.000	18.511	0.101
244.100	15.213	0.101
244.200	9.308	0.101
244.300	16.617	0.101
244.400	20.926	0.101
244.500	19.710	0.101
244.600	14.308	0.101
244.700	16.516	0.101
244.800	11.687	0.101
244.900	14.284	0.101
245.000	4.290	0.101
245.100	14.472	0.101
245.200	11.804	0.101
245.300	6.016	0.101
245.400	10.043	0.101
245.500	7.529	0.101
245.600	3.514	0.101
245.700	12.443	0.101
245.800	9.222	0.101
245.900	11.920	0.101
246.000	8.462	0.101
246.100	6.014	0.101
246.200	16.181	0.101
246.300	6.954	0.101
246.400	-4.080	0.101
246.500	-2.578	0.101
246.600	4.382	0.101
246.700	8.901	0.101
246.800	0.053	0.101
246.900	-1.908	0.101
247.000	6.767	0.101
247.100	4.755	0.101
247.200	7.970	0.101
247.300	4.797	0.101
247.400	13.200	0.101
247.500	8.774	0.101
247.600	24.181	0.101
247.700	4.680	0.101
247.800	-6.183	0.101
247.900	2.358	0.101
248.000	3.869	0.101
248.100	16.156	0.101
248.200	1.930	0.101
248.300	1.705	0.101
248.400	-5.696	0.101
248.500	-2.975	0.101
248.600	-7.948	0.101
248.700	0.207	0.101
248.800	-2.384	0.101
248.900	-1.629	0.101
249.000	1.797	0.101
249.100	-7.389	0.101
249.200	5.572	0.101
249.300	2.299	0.101
249.400	-10.589	0.101
249.500	5.998	0.101
249.600	6.212	0.101
249.700	4.202	0.101
249.800	5.205	0.101
249.900	2.097	0.101
250.000	-9.214	0.101
250.100	-4.681	0.101
250.200	-6.650	0.101
250.300	0.422	0.101
250.400	4.528	0.101
250.500	-1.490	0.101
250.600	-2.055	0.101
250.700	-1.191	0.101
250.800	3.892	0.101
250.900	5.824	0.101
251.000	-6.608	0.101
251.100	-14.668	0.101
251.200	-14.138	0.101
251.300	-5.998	0.101
251.400	0.616	0.101
251.500	-3.885	0.101
251.600	0.005	0.101
251.700	-9.905	0.101
251.800	-13.993	0.101
251.900	-13.105	0.101
252.000	-9.286	0.101
252.100	-2.452	0.101
252.200	2.891	0.101
252.300	-3.550	0.101
252.400	-0.347	0.101
252.500	1.464	0.101
252.600	-4.089	0.101
252.700	-5.125	0.101
252.800	-17.150	0.101
252.900	-9.802	0.101
253.000	-7.117	0.101
253.100	-8.928	0.101
253.200	-1.968	0.101
253.300	-1.414	0.101
253.400	-2.568	0.101
253.500	-17.208	0.101
253.600	-11.211	0.101
253.700	-1.824	0.101
253.800	-9.048	0.101
253.900	-6.425	0.101
254.000	-12.958	0.101
254.100	-8.746	0.101
254.200	-11.074	0.101
254.300	-16.756	0.101
254.400	-14.277	0.101
254.500	-9.984	0.101
254.600	-6.302	0.101
254.700	-5.358	0.101
254.800	-19.892	0.101
254.900	-10.365	0.101
255.000	-17.621	0.101
255.100	-16.695	0.101
255.200	-17.022	0.101
255.300	-6.163	0.101
255.400	-9.043	0.101
255.500	-3.269	0.101
255.600	-14.765	0.101
255.700	-9.925	0.101
255.800	0.118	0.101
255.900	3.686	0.101
256.000	-11.043	0.101
256.100	-27.785	0.101
256.200	-21.425	0.101
256.300	-14.467	0.101
256.400	-24.975	0.101
256.500	-17.010	0.101
256.600	-22.136	0.101
256.700	-9.883	0.101
256.800	-14.849	0.101
256.900	-7.498	0.101
257.000	-3.326	0.101
257.100	-18.228	0.101
257.200	-28.835	0.101
257.300	-24.627	0.101
257.400	-21.296	0.101
257.500	-14.618	0.101
257.600	-14.835	0.101
257.700	-22.482	0.101
257.800	-26.609	0.101
257.900	-23.008	0.101
258.000	-22.922	0.101
258.100	-20.811	0.101
258.200	-27.505	0.101
258.300	-15.929	0.101
258.400	-19.217	0.101
258.500	-17.426	0.101
258.600	-12.347	0.101
258.700	-13.323	0.101
258.800	-13.690	0.101
258.900	-15.604	0.101
259.000	-17.588	0.101
259.100	-25.656	0.101
259.200	-24.283	0.101
259.300	-17.603	0.101
259.400	-17.133	0.101
259.500	-21.940	0.101
259.600	-14.204	0.101
259.700	-26.204	0.101
259.800	-26.684	0.101
259.900	-15.068	0.101
260.000	-22.970	0.101
260.100	-20.829	0.101
260.200	-27.247	0.101
260.300	-29.636	0.101
260.400	-37.250	0.101
260.500	-18.621	0.101
260.600	-13.287	0.101
260.700	-19.326	0.101
260.800	-18.679	0.101
260.900	-29.038	0.101
261.000	-24.114	0.101
261.100	-32.530	0.101
261.200	-23.022	0.101
261.300	-32.747	0.101
261.400	-36.590	0.101
261.500	-23.953	0.101
261.600	-24.686	0.101
261.700	-27.503	0.101
261.800	-31.923	0.101
261.900	-26.713	0.101
262.000	-28.192	0.101
262.100	-16.708	0.101
262.200	-24.479	0.101
262.300	-28.485	0.101
262.400	-27.533	0.101
262.500	-24.092	0.101
262.600	-21.494	0.101
262.700	-28.967	0.101
262.800	-28.870	0.101
262.900	-26.696	0.101
263.000	-19.985	0.101
263.100	-27.146	0.101
263.200	-22.767	0.101
263.300	-24.273	0.101
263.400	-29.527	0.101
263.500	-25.634	0.101
263.600	-30.650	0.101
263.700	-36.910	0.101
263.800	-28.676	0.101
263.900	-28.672	0.101
264.000	-23.968	0.101
264.100	-19.619	0.101
264.200	-34.729	0.101
264.300	-39.358	0.101
264.400	-24.003	0.101
264.500	-24.542	0.101
264.600	-28.059	0.101
264.700	-35.342	0.101
264.800	-40.054	0.101
264.900	-38.895	0.101
265.000	-34.488	0.101
265.100	-42.269	0.101
265.200	-30.838	0.101
265.300	-33.387	0.101
265.400	-30.519	0.101
265.500	-26.770	0.101
265.600	-35.126	0.101
265.700	-30.910	0.101
265.800	-38.506	0.101
265.900	-38.179	0.101
266.000	-33.283	0.101
266.100	-27.774	0.101
266.200	-45.147	0.101
266.300	-28.662	0.101
266.400	-25.472	0.101
266.500	-20.483	0.101
266.600	-44.796	0.101
266.700	-34.519	0.101
266.800	-21.704	0.101
266.900	-31.401	0.101
267.000	-29.668	0.101
267.100	-26.833	0.101
267.200	-34.594	0.101
267.300	-36.592	0.101
267.400	-39.478	0.101
267.500	-36.628	0.101
267.600	-37.956	0.101
267.700	-32.962	0.101
267.800	-30.839	0.101
267.900	-21.005	0.101
268.000	-40.078	0.101
268.100	-35.943	0.101
268.200	-37.285	0.101
268.300	-36.910	0.101
268.400	-33.851	0.101
268.500	-33.657	0.101
268.600	-34.458	0.101
268.700	-37.799	0.101
268.800	-36.087	0.101
268.900	-31.928	0.101
269.000	-24.807	0.101
269.100	-31.358	0.101
269.200	-40.916	0.101
269.300	-38.268	0.101
269.400	-32.218	0.101
269.500	-37.215	0.101
269.600	-38.806	0.101
269.700	-41.260	0.101
269.800	-37.472	0.101
269.900	-45.634	0.101
270.000	-35.120	0.101
270.100	-39.132	0.101
270.200	-51.185	0.101
270.300	-43.244	0.101
270.400	-36.626	0.101
270.500	-41.201	0.101
270.600	-40.731	0.101
270.700	-34.125	0.101
270.800	-43.215	0.101
270.900	-33.497	0.101
271.000	-38.342	0.101
271.100	-40.797	0.101
271.200	-38.504	0.101
271.300	-39.108	0.101
271.400	-49.993	0.101
271.500	-46.948	0.101
271.600	-38.867	0.101
271.700	-41.260	0.101
271.800	-41.341	0.101
271.900	-24.208	0.101
272.000	-36.757	0.101
272.100	-36.477	0.101
272.200	-45.212	0.101
272.300	-35.562	0.101
272.400	-47.006	0.101
272.500	-41.240	0.101
272.600	-36.372	0.101
272.700	-42.129	0.101
272.800	-53.322	0.101
272.900	-56.938	0.101
273.000	-41.549	0.101
273.100	-42.763	0.101
273.200	-39.694	0.101
273.300	-37.749	0.101
273.400	-39.072	0.101
273.500	-50.324	0.101
273.600	-43.224	0.101
273.700	-38.130	0.101
273.800	-31.584	0.101
273.900	-46.363	0.101
274.000	-31.300	0.101
274.100	-35.652	0.101
274.200	-35.044	0.101
274.300	-41.362	0.101
274.400	-43.673	0.101
274.500	-46.927	0.101
274.600	-40.390	0.101
274.700	-41.320	0.101
274.800	-46.272	0.101
274.900	-53.287	0.101
275.000	-57.305	0.101
275.100	-47.963	0.101
275.200	-41.828	0.101
275.300	-42.633	0.101
275.400	-44.785	0.101
275.500	-36.773	0.101
275.600	-41.872	0.101
275.700	-38.913	0.101
275.800	-36.336	0.101
275.900	-42.738	0.101
276.000	-40.310	0.101
276.100	-46.119	0.101
276.200	-45.236	0.101
276.300	-34.499	0.101
276.400	-36.997	0.101
276.500	-34.430	0.101
276.600	-37.277	0.101
276.700	-47.144	0.101
276.800	-45.951	0.101
276.900	-29.938	0.101
277.000	-39.924	0.101
277.100	-40.750	0.101
277.200	-42.256	0.101
277.300	-38.478	0.101
277.400	-38.089	0.101
277.500	-35.078	0.101
277.600	-46.168	0.101
277.700	-40.554	0.101
277.800	-42.596	0.101
277.900	-44.094	0.101
278.000	-52.590	0.101
278.100	-50.344	0.101
278.200	-48.778	0.101
278.300	-43.229	0.101
278.400	-42.988	0.101
278.500	-33.428	0.101
278.600	-41.720	0.101
278.700	-44.380	0.101
278.800	-39.892	0.101
278.900	-49.055	0.101
279.000	-47.352	0.101
279.100	-44.095	0.101
279.200	-40.359	0.101
279.300	-34.399	0.101
279.400	-32.860	0.101
279.500	-45.225	0.101
279.600	-36.250	0.101
279.700	-47.212	0.101
279.800	-59.334	0.101
279.900	-54.654	0.101
280.000	-48.413	0.101
280.100	-45.916	0.101
280.200	-49.595	0.101
280.300	-44.964	0.101
280.400	-47.791	0.101
280.500	-39.470	0.101
280.600	-48.947	0.101
280.700	-36.191	0.101
280.800	-48.092	0.101
280.900	-40.242	0.101
281.000	-42.072	0.101
281.100	-40.740	0.101
281.200	-34.072	0.101
281.300	-46.130	0.101
281.400	-48.695	0.101
281.500	-50.278	0.101
281.600	-38.912	0.101
281.700	-36.934	0.101
281.800	-40.412	0.101
281.900	-50.455	0.101
282.000	-53.810	0.101
282.100	-44.447	0.101
282.200	-38.151	0.101
282.300	-41.967	0.101
282.400	-49.578	0.101
282.500	-55.258	0.101
282.600	-44.455	0.101
282.700	-42.692	0.101
282.800	-43.163	0.101
282.900	-41.076	0.101
283.000	-36.285	0.101
283.100	-39.900	0.101
283.200	-38.204	0.101
283.300	-32.980	0.101
283.400	-36.829	0.101
283.500	-37.917	0.101
283.600	-29.049	0.101
283.700	-46.872	0.101
283.800	-55.986	0.101
283.900	-49.704	0.101
284.000	-45.881	0.101
284.100	-41.339	0.101
284.200	-46.174	0.101
284.300	-41.428	0.101
284.400	-46.458	0.101
284.500	-42.078	0.101
284.600	-37.943	0.101
284.700	-54.541	0.101
284.800	-46.294	0.101
284.900	-47.229	0.101
285.000	-37.907	0.101
285.100	-46.846	0.101
285.200	-57.923	0.101
285.300	-46.180	0.101
285.400	-32.186	0.101
285.500	-37.752	0.101
285.600	-42.377	0.101
285.700	-42.636	0.101
285.800	-47.973	0.101
285.900	-40.358	0.101
286.000	-34.925	0.101
286.100	-46.984	0.101
286.200	-50.136	0.101
286.300	-37.355	0.101
286.400	-47.934	0.101
286.500	-47.533	0.101
286.600	-44.485	0.101
286.700	-52.809	0.101
286.800	-40.353	0.101
286.900	-40.534	0.101
287.000	-30.247	0.101
287.100	-42.619	0.101
287.200	-52.975	0.101
287.300	-62.667	0.101
287.400	-58.277	0.101
287.500	-43.557	0.101
287.600	-37.435	0.101
287.700	-34.026	0.101
287.800	-37.126	0.101
287.900	-38.064	0.101
288.000	-45.367	0.101
288.100	-51.263	0.101
288.200	-52.739	0.101
288.300	-56.873	0.101
288.400	-40.514	0.101
288.500	-43.530	0.101
288.600	-31.414	0.101
288.700	-38.637	0.101
288.800	-33.799	0.101
288.900	-48.817	0.101
289.000	-42.439	0.101
289.100	-44.620	0.101
289.200	-42.369	0.101
289.300	-43.152	0.101
289.400	-40.616	0.101
289.500	-40.909	0.101
289.600	-51.578	0.101
289.700	-48.867	0.101
289.800	-43.934	0.101
289.900	-35.374	0.101
290.000	-41.589	0.101
290.100	-38.304	0.101
290.200	-41.060	0.101
290.300	-48.172	0.101
290.400	-33.853	0.101
290.500	-47.419	0.101
290.600	-51.581	0.101
290.700	-46.402	0.101
290.800	-48.332	0.101
290.900	-41.253	0.101
291.000	-53.956	0.101
291.100	-47.566	0.101
291.200	-42.626	0.101
291.300	-40.534	0.101
291.400	-39.370	0.101
291.500	-40.431	0.101
291.600	-39.960	0.101
291.700	-42.514	0.101
291.800	-40.129	0.101
291.900	-33.069	0.101
292.000	-35.865	0.101
292.100	-50.560	0.101
292.200	-46.529	0.101
292.300	-54.372	0.101
292.400	-43.369	0.101
292.500	-43.169	0.101
292.600	-45.037	0.101
292.700	-54.466	0.101
292.800	-45.442	0.101
292.900	-40.600	0.101
293.000	-43.361	0.101
293.100	-37.793	0.101
293.200	-47.697	0.101
293.300	-50.198	0.101
293.400	-48.206	0.101
293.500	-50.459	0.101
293.600	-45.641	0.101
293.700	-41.565	0.101
293.800	-45.644	0.101
293.900	-39.396	0.101
294.000	-38.294	0.101
294.100	-40.956	0.101
294.200	-33.454	0.101
294.300	-44.655	0.101
294.400	-40.814	0.101
294.500	-35.491	0.101
294.600	-22.947	0.101
294.700	-32.656	0.101
294.800	-38.303	0.101
294.900	-39.651	0.101
295.000	-47.130	0.101
295.100	-41.935	0.101
295.200	-46.643	0.101
295.300	-47.257	0.101
295.400	-47.812	0.101
295.500	-32.996	0.101
295.600	-38.933	0.101
295.700	-51.468	0.101
295.800	-56.063	0.101
295.900	-47.040	0.101
296.000	-48.432	0.101
296.100	-44.250	0.101
296.200	-43.762	0.101
296.300	-30.677	0.101
296.400	-43.878	0.101
296.500	-43.638	0.101
296.600	-50.135	0.101
296.700	-47.040	0.101
296.800	-49.036	0.101
296.900	-32.687	0.101
297.000	-37.829	0.101
297.100	-43.447	0.101
297.200	-52.435	0.101
297.300	-47.458	0.101
297.400	-34.112	0.101
297.500	-44.189	0.101
297.600	-35.248	0.101
297.700	-31.879	0.101
297.800	-37.937	0.101
297.900	-48.844	0.101
298.000	-43.195	0.101
298.100	-50.533	0.101
298.200	-49.029	0.101
298.300	-44.027	0.101
298.400	-38.928	0.101
298.500	-35.126	0.101
298.600	-39.775	0.101
298.700	-35.826	0.101
298.800	-42.888	0.101
298.900	-30.365	0.101
299.000	-45.574	0.101
299.100	-53.949	0.101
299.200	-44.681	0.101
299.300	-34.762	0.101
299.400	-28.438	0.101
299.500	-34.477	0.101
299.600	-42.197	0.101
299.700	-44.098	0.101
299.800	-46.958	0.101
299.900	-31.552	0.101
300.000	-40.945	0.101
300.100	-51.838	0.101
300.200	-53.400	0.101
300.300	-44.154	0.101
300.400	-40.006	0.101
300.500	-45.526	0.101
300.600	-49.520	0.101
300.700	-40.764	0.101
300.800	-46.678	0.101
300.900	-41.639	0.101
301.000	-36.214	0.101
301.100	-41.808	0.101
301.200	-35.144	0.101
301.300	-43.752	0.101
301.400	-30.983	0.101
301.500	-25.026	0.101
301.600	-46.193	0.101
301.700	-45.135	0.101
301.800	-53.105	0.101
301.900	-55.619	0.101
302.000	-46.939	0.101
302.100	-40.963	0.101
302.200	-35.676	0.101
302.300	-30.591	0.101
302.400	-36.426	0.101
302.500	-40.934	0.101
302.600	-45.642	0.101
302.700	-47.413	0.101
302.800	-50.000	0.101
302.900	-38.724	0.101
303.000	-39.030	0.101
303.100	-35.238	0.101
303.200	-36.572	0.101
303.300	-34.369	0.101
303.400	-37.429	0.101
303.500	-46.975	0.101
303.600	-46.485	0.101
303.700	-31.658	0.101
303.800	-33.514	0.101
303.900	-35.953	0.101
304.000	-56.431	0.101
304.100	-56.723	0.101
304.200	-44.950	0.101
304.300	-33.845	0.101
304.400	-38.326	0.101
304.500	-35.131	0.101
304.600	-44.062	0.101
304.700	-39.371	0.101
304.800	-38.038	0.101
304.900	-47.725	0.101
305.000	-32.076	0.101
305.100	-31.207	0.101
305.200	-39.490	0.101
305.300	-40.079	0.101
305.400	-31.302	0.101
305.500	-35.531	0.101
305.600	-28.176	0.101
305.700	-41.481	0.101
305.800	-49.225	0.101
305.900	-45.165	0.101
306.000	-38.629	0.101
306.100	-26.996	0.101
306.200	-27.255	0.101
306.300	-45.710	0.101
306.400	-47.981	0.101
306.500	-44.686	0.101
306.600	-36.499	0.101
306.700	-35.044	0.101
306.800	-41.810	0.101
306.900	-43.933	0.101
307.000	-45.162	0.101
307.100	-39.488	0.101
307.200	-49.185	0.101
307.300	-44.292	0.101
307.400	-49.829	0.101
307.500	-42.925	0.101
307.600	-38.562	0.101
307.700	-39.498	0.101
307.800	-42.557	0.101
307.900	-32.477	0.101
308.000	-38.263	0.101
308.100	-44.547	0.101
308.200	-43.781	0.101
308.300	-36.029	0.101
308.400	-47.560	0.101
308.500	-39.579	0.101
308.600	-24.307	0.101
308.700	-29.031	0.101
308.800	-38.132	0.101
308.900	-50.182	0.101
309.000	-39.396	0.101
309.100	-32.938	0.101
309.200	-35.807	0.101
309.300	-28.985	0.101
309.400	-35.831	0.101
309.500	-37.922	0.101
309.600	-48.022	0.101
309.700	-45.302	0.101
309.800	-45.725	0.101
309.900	-37.263	0.101
310.000	-43.604	0.101
310.100	-43.939	0.101
310.200	-39.341	0.101
310.300	-40.446	0.101
310.400	-42.098	0.101
310.500	-30.361	0.101
310.600	-43.293	0.101
310.700	-36.201	0.101
310.800	-31.983	0.101
310.900	-40.299	0.101
311.000	-47.336	0.101
311.100	-29.449	0.101
311.200	-32.324	0.101
311.300	-23.441	0.101
311.400	-35.522	0.101
311.500	-45.081	0.101
311.600	-37.843	0.101
311.700	-40.474	0.101
311.800	-40.292	0.101
311.900	-33.571	0.101
312.000	-42.852	0.101
312.100	-62.602	0.101
312.200	-43.811	0.101
312.300	-38.633	0.101
312.400	-43.965	0.101
312.500	-46.821	0.101
312.600	-48.618	0.101
312.700	-41.813	0.101
312.800	-38.201	0.101
312.900	-36.323	0.101
313.000	-37.353	0.101
313.100	-44.292	0.101
313.200	-24.130	0.101
313.300	-31.096	0.101
313.400	-34.200	0.101
313.500	-46.543	0.101
313.600	-42.540	0.101
313.700	-45.725	0.101
313.800	-40.163	0.101
313.900	-52.438	0.101
314.000	-33.881	0.101
314.100	-33.115	0.101
314.200	-39.539	0.101
314.300	-45.257	0.101
314.400	-40.227	0.101
314.500	-30.499	0.101
314.600	-31.228	0.101
314.700	-23.778	0.101
314.800	-33.111	0.101
314.900	-25.688	0.101
315.000	-47.766	0.101
315.100	-43.740	0.101
315.200	-43.328	0.101
315.300	-41.497	0.101
315.400	-29.540	0.101
315.500	-28.170	0.101
315.600	-36.200	0.101
315.700	-42.225	0.101
315.800	-35.060	0.101
315.900	-39.122	0.101
316.000	-37.837	0.101
316.100	-40.761	0.101
316.200	-46.280	0.101
316.300	-40.500	0.101
316.400	-44.562	0.101
316.500	-36.045	0.101
316.600	-29.051	0.101
316.700	-37.475	0.101
316.800	-36.737	0.101
316.900	-44.390	0.101
317.000	-37.584	0.101
317.100	-24.745	0.101
317.200	-33.024	0.101
317.300	-36.239	0.101
317.400	-32.978	0.101
317.500	-45.483	0.101
317.600	-39.023	0.101
317.700	-35.009	0.101
317.800	-34.136	0.101
317.900	-35.215	0.101
318.000	-34.600	0.101
318.100	-38.366	0.101
318.200	-45.841	0.101
318.300	-38.362	0.101
318.400	-44.868	0.101
318.500	-44.727	0.101
318.600	-45.025	0.101
318.700	-53.058	0.101
318.800	-31.822	0.101
318.900	-27.367	0.101
319.000	-24.996	0.101
319.100	-39.709	0.101
319.200	-38.040	0.101
319.300	-48.431	0.101
319.400	-48.296	0.101
319.500	-41.503	0.101
319.600	-37.798	0.101
319.700	-40.512	0.101
319.800	-41.233	0.101
319.900	-32.870	0.101
320.000	-30.174	0.101
320.100	-26.285	0.101
320.200	-32.921	0.101
320.300	-33.845	0.101
320.400	-34.671	0.101
320.500	-33.533	0.101
320.600	-38.304	0.101
320.700	-39.275	0.101
320.800	-42.164	0.101
320.900	-46.110	0.101
321.000	-39.257	0.101
321.100	-40.894	0.101
321.200	-49.528	0.101
321.300	-48.058	0.101
321.400	-38.921	0.101
321.500	-36.439	0.101
321.600	-39.659	0.101
321.700	-37.619	0.101
321.800	-37.305	0.101
321.900	-31.747	0.101
322.000	-42.061	0.101
322.100	-33.293	0.101
322.200	-38.246	0.101
322.300	-31.927	0.101
322.400	-34.827	0.101
322.500	-32.892	0.101
322.600	-28.684	0.101
322.700	-37.891	0.101
322.800	-35.197	0.101
322.900	-32.689	0.101
323.000	-29.270	0.101
323.100	-25.939	0.101
323.200	-41.605	0.101
323.300	-39.385	0.101
323.400	-37.451	0.101
323.500	-49.307	0.101
323.600	-44.434	0.101
323.700	-43.434	0.101
323.800	-27.614	0.101
323.900	-43.339	0.101
324.000	-42.813	0.101
324.100	-39.593	0.101
324.200	-39.467	0.101
324.300	-35.977	0.101
324.400	-21.902	0.101
324.500	-33.084	0.101
324.600	-35.408	0.101
324.700	-37.415	0.101
324.800	-27.006	0.101
324.900	-30.964	0.101
325.000	-46.578	0.101
325.100	-44.352	0.101
325.200	-42.279	0.101
325.300	-40.072	0.101
325.400	-41.058	0.101
325.500	-40.177	0.101
325.600	-36.221	0.101
325.700	-31.528	0.101
325.800	-35.301	0.101
325.900	-32.450	0.101
326.000	-31.125	0.101
326.100	-21.146	0.101
326.200	-43.808	0.101
326.300	-50.090	0.101
326.400	-35.727	0.101
326.500	-29.696	0.101
326.600	-24.178	0.101
326.700	-35.714	0.101
326.800	-42.993	0.101
326.900	-43.127	0.101
327.000	-29.493	0.101
327.100	-33.870	0.101
327.200	-42.664	0.101
327.300	-40.068	0.101
327.400	-44.356	0.101
327.500	-40.341	0.101
327.600	-30.993	0.101
327.700	-29.753	0.101
327.800	-35.460	0.101
327.900	-36.815	0.101
328.000	-38.684	0.101
328.100	-40.088	0.101
328.200	-39.403	0.101
328.300	-46.600	0.101
328.400	-40.491	0.101
328.500	-32.573	0.101
328.600	-37.450	0.101
328.700	-40.671	0.101
328.800	-36.065	0.101
328.900	-33.718	0.101
329.000	-35.903	0.101
329.100	-24.622	0.101
329.200	-29.739	0.101
329.300	-40.011	0.101
329.400	-43.466	0.101
329.500	-46.879	0.101
329.600	-41.045	0.101
329.700	-48.590	0.101
329.800	-42.110	0.101
329.900	-35.264	0.101
330.000	-39.975	0.101
330.100	-29.307	0.101
330.200	-30.467	0.101
330.300	-36.505	0.101
330.400	-21.924	0.101
330.500	-16.882	0.101
330.600	-28.693	0.101
330.700	-11.025	0.101
330.800	-21.687	0.101
330.900	-11.216	0.101
331.000	-4.573	0.101
331.100	1.655	0.101
331.200	-3.629	0.101
331.300	17.436	0.101
331.400	14.799	0.101
331.500	8.636	0.101
331.600	4.901	0.101
331.700	10.250	0.101
331.800	13.186	0.101
331.900	21.627	0.101
332.000	28.864	0.101
332.100	27.276	0.101
332.200	23.725	0.101
332.300	13.687	0.101
332.400	26.415	0.101
332.500	29.408	0.101
332.600	33.583	0.101
332.700	32.737	0.101
332.800	32.941	0.101
332.900	31.562	0.101
333.000	33.188	0.101
333.100	25.918	0.101
333.200	34.400	0.101
333.300	24.740	0.101
333.400	31.763	0.101
333.500	33.560	0.101
333.600	35.475	0.101
333.700	28.435	0.101
333.800	30.935	0.101
333.900	32.065	0.101
334.000	22.277	0.101
334.100	40.021	0.101
334.200	36.355	0.101
334.300	20.624	0.101
334.400	23.331	0.101
334.500	22.921	0.101
334.600	21.503	0.101
334.700	20.862	0.101
334.800	35.830	0.101
334.900	28.657	0.101
335.000	31.910	0.101
335.100	31.062	0.101
335.200	33.925	0.101
335.300	28.241	0.101
335.400	20.353	0.101
335.500	24.545	0.101
335.600	28.963	0.101
335.700	33.204	0.101
335.800	27.734	0.101
335.900	34.955	0.101
336.000	40.511	0.101
336.100	28.728	0.101
336.200	28.794	0.101
336.300	30.046	0.101
336.400	39.959	0.101
336.500	38.112	0.101
336.600	23.743	0.101
336.700	22.722	0.101
336.800	23.775	0.101
336.900	28.469	0.101
337.000	26.354	0.101
337.100	37.440	0.101
337.200	27.301	0.101
337.300	33.719	0.101
337.400	28.068	0.101
337.500	30.012	0.101
337.600	27.559	0.101
337.700	36.160	0.101
337.800	28.816	0.101
337.900	29.974	0.101
338.000	30.160	0.101
338.100	35.766	0.101
338.200	35.152	0.101
338.300	32.847	0.101
338.400	35.910	0.101
338.500	31.986	0.101
338.600	42.837	0.101
338.700	46.715	0.101
338.800	40.018	0.101
338.900	30.801	0.101
339.000	43.426	0.101
339.100	46.705	0.101
339.200	36.116	0.101
339.300	38.593	0.101
339.400	30.472	0.101
339.500	29.777	0.101
339.600	33.839	0.101
339.700	32.328	0.101
339.800	39.465	0.101
339.900	38.549	0.101
340.000	31.173	0.101
340.100	40.922	0.101
340.200	50.305	0.101
340.300	45.299	0.101
340.400	32.443	0.101
340.500	40.800	0.101
340.600	39.725	0.101
340.700	55.839	0.101
340.800	53.478	0.101
340.900	48.808	0.101
341.000	37.665	0.101
341.100	56.660	0.101
341.200	38.153	0.101
341.300	40.980	0.101
341.400	47.817	0.101
341.500	50.241	0.101
341.600	59.631	0.101
341.700	56.780	0.101
341.800	49.942	0.101
341.900	56.215	0.101
342.000	50.754	0.101
342.100	52.342	0.101
342.200	49.601	0.101
342.300	53.821	0.101
342.400	74.118	0.101
342.500	68.500	0.101
342.600	59.867	0.101
342.700	57.107	0.101
342.800	57.235	0.101
342.900	75.609	0.101
343.000	70.826	0.101
343.100	64.423	0.101
343.200	71.918	0.101
343.300	69.847	0.101
343.400	61.295	0.101
343.500	67.540	0.101
343.600	69.991	0.101
343.700	71.580	0.101
343.800	68.187	0.101
343.900	68.502	0.101
344.000	80.409	0.101
344.100	73.469	0.101
344.200	74.502	0.101
344.300	85.883	0.101
344.400	81.315	0.101
344.500	74.732	0.101
344.600	73.147	0.101
344.700	77.476	0.101
344.800	89.597	0.101
344.900	82.921	0.101
345.000	86.559	0.101
345.100	90.992	0.101
345.200	89.375	0.101
345.300	92.029	0.101
345.400	96.757	0.101
345.500	80.306	0.101
345.600	87.820	0.101
345.700	82.514	0.101
345.800	87.406	0.101
345.900	100.484	0.101
346.000	83.786	0.101
346.100	82.733	0.101
346.200	91.650	0.101
346.300	95.467	0.101
346.400	103.835	0.101
346.500	106.845	0.101
346.600	110.497	0.101
346.700	108.142	0.101
346.800	107.222	0.101
346.900	100.935	0.101
347.000	105.932	0.101
347.100	90.551	0.101
347.200	103.235	0.101
347.300	106.200	0.101
347.400	95.697	0.101
347.500	108.620	0.101
347.600	105.494	0.101
347.700	92.506	0.101
347.800	105.855	0.101
347.900	113.748	0.101
348.000	115.464	0.101
348.100	113.592	0.101
348.200	108.473	0.101
348.300	120.086	0.101
348.400	110.511	0.101
348.500	119.398	0.101
348.600	123.872	0.101
348.700	103.599	0.101
348.800	103.228	0.101
348.900	113.273	0.101
349.000	123.792	0.101
349.100	118.971	0.101
349.200	118.190	0.101
349.300	120.088	0.101
349.400	124.835	0.101
349.500	131.172	0.101
349.600	128.104	0.101
349.700	117.327	0.101
349.800	117.376	0.101
349.900	121.792	0.101
350.000	118.008	0.101
350.100	110.800	0.101
350.200	113.928	0.101
350.300	117.667	0.101
350.400	122.542	0.101
350.500	120.316	0.101
350.600	124.710	0.101
350.700	115.825	0.101
350.800	128.633	0.101
350.900	129.045	0.101
351.000	131.594	0.101
351.100	132.173	0.101
351.200	132.442	0.101
351.300	135.382	0.101
351.400	139.883	0.101
351.500	121.497	0.101
351.600	121.314	0.101
351.700	117.801	0.101
351.800	119.719	0.101
351.900	122.793	0.101
352.000	107.510	0.101
352.100	122.611	0.101
352.200	114.658	0.101
352.300	119.026	0.101
352.400	119.451	0.101
352.500	120.847	0.101
352.600	120.949	0.101
352.700	128.364	0.101
352.800	124.144	0.101
352.900	124.408	0.101
353.000	125.361	0.101
353.100	125.711	0.101
353.200	121.318	0.101
353.300	124.274	0.101
353.400	120.579	0.101
353.500	121.569	0.101
353.600	127.131	0.101
353.700	128.302	0.101
353.800	138.934	0.101
353.900	131.638	0.101
354.000	118.617	0.101
354.100	123.907	0.101
354.200	121.495	0.101
354.300	119.982	0.101
354.400	119.492	0.101
354.500	118.661	0.101
354.600	120.004	0.101
354.700	119.073	0.101
354.800	117.291	0.101
354.900	123.855	0.101
355.000	113.123	0.101
355.100	111.368	0.101
355.200	128.836	0.101
355.300	111.663	0.101
355.400	116.271	0.101
355.500	132.853	0.101
355.600	134.568	0.101
355.700	132.363	0.101
355.800	120.034	0.101
355.900	125.229	0.101
356.000	127.068	0.101
356.100	119.220	0.101
356.200	117.673	0.101
356.300	122.812	0.101
356.400	125.169	0.101
356.500	118.625	0.101
356.600	123.382	0.101
356.700	125.733	0.101
356.800	117.265	0.101
356.900	115.180	0.101
357.000	109.700	0.101
357.100	119.274	0.101
357.200	122.136	0.101
357.300	131.579	0.101
357.400	126.424	0.101
357.500	120.310	0.101
357.600	120.750	0.101
357.700	127.264	0.101
357.800	132.726	0.101
357.900	124.256	0.101
358.000	126.543	0.101
358.100	117.875	0.101
358.200	110.782	0.101
358.300	114.501	0.101
358.400	115.877	0.101
358.500	125.809	0.101
358.600	118.439	0.101
358.700	127.745	0.101
358.800	119.989	0.101
358.900	108.532	0.101
359.000	116.385	0.101
359.100	120.522	0.101
359.200	113.252	0.101
359.300	125.707	0.101
359.400	137.555	0.101
359.500	126.907	0.101
359.600	119.529	0.101
359.700	120.285	0.101
359.800	112.531	0.101
359.900	113.332	0.101
360.000	114.579	0.101
360.100	125.968	0.101
360.200	123.328	0.101
360.300	117.566	0.101
360.400	120.644	0.100
360.500	120.966	0.101
360.600	129.686	0.101
360.700	134.462	0.101
360.800	123.836	0.100
360.900	120.003	0.100
361.000	121.169	0.101
361.100	111.776	0.101
361.200	113.245	0.101
361.300	116.237	0.101
361.400	132.414	0.101
361.500	120.647	0.101
361.600	125.263	0.101
361.700	118.658	0.101
361.800	115.884	0.101
361.900	100.142	0.101
362.000	113.892	0.101
362.100	110.553	0.101
362.200	124.803	0.101
362.300	119.326	0.101
362.400	110.649	0.101
362.500	129.655	0.101
362.600	120.506	0.101
362.700	126.799	0.101
362.800	119.564	0.101
362.900	102.562	0.101
363.000	124.664	0.101
363.100	117.317	0.101
363.200	123.492	0.101
363.300	119.801	0.101
363.400	118.219	0.101
363.500	121.157	0.101
363.600	119.446	0.100
363.700	119.002	0.101
363.800	117.773	0.101
363.900	111.266	0.101
364.000	106.802	0.101
364.100	109.697	0.101
364.200	118.475	0.101
364.300	114.119	0.100
364.400	115.394	0.101
364.500	110.249	0.101
364.600	131.739	0.101
364.700	131.402	0.101
364.800	134.937	0.101
364.900	130.008	0.101
365.000	121.627	0.101
365.100	128.046	0.101
365.200	128.300	0.100
365.300	116.421	0.101
365.400	109.353	0.100
365.500	113.261	0.100
365.600	117.161	0.100
365.700	109.320	0.100
365.800	110.665	0.100
365.900	117.526	0.101
366.000	132.964	0.100
366.100	116.243	0.100
366.200	114.940	0.100
366.300	114.814	0.100
366.400	116.329	0.100
366.500	117.340	0.100
366.600	120.530	0.100
366.700	127.704	0.100
366.800	113.116	0.100
366.900	110.879	0.100
367.000	114.182	0.100
367.100	123.081	0.100
367.200	113.487	0.101
367.300	112.758	0.100
367.400	113.831	0.101
367.500	123.632	0.100
367.600	120.145	0.101
367.700	120.462	0.100
367.800	119.303	0.100
367.900	121.178	0.101
368.000	128.005	0.100
368.100	123.362	0.101
368.200	125.307	0.101
368.300	109.232	0.100
368.400	118.937	0.100
368.500	111.666	0.100
368.600	107.005	0.100
368.700	127.914	0.100
368.800	115.510	0.100
368.900	112.968	0.100
369.000	111.581	0.100
369.100	112.094	0.100
369.200	112.279	0.100
369.300	115.398	0.100
369.400	112.806	0.100
369.500	121.542	0.100
369.600	115.416	0.100
369.700	106.409	0.100
369.800	112.722	0.100
369.900	107.135	0.100
370.000	115.235	0.100
370.100	113.699	0.100
370.200	115.004	0.100
370.300	114.696	0.100
370.400	107.090	0.100
370.500	116.629	0.100
370.600	119.149	0.100
370.700	119.489	0.100
370.800	118.502	0.100
370.900	133.326	0.100
371.000	130.116	0.100
371.100	116.410	0.100
371.200	119.492	0.100
371.300	117.564	0.100
371.400	123.223	0.100
371.500	115.265	0.100
371.600	117.078	0.100
371.700	116.783	0.100
371.800	118.451	0.100
371.900	112.277	0.100
372.000	107.431	0.100
372.100	110.580	0.100
372.200	105.779	0.100
372.300	117.916	0.100
372.400	116.654	0.100
372.500	107.915	0.100
372.600	113.015	0.100
372.700	116.889	0.100
372.800	110.893	0.100
372.900	110.000	0.100
373.000	110.412	0.100
373.100	127.218	0.100
373.200	127.644	0.100
373.300	128.146	0.100
373.400	112.679	0.100
373.500	117.599	0.100
373.600	113.324	0.100
373.700	103.113	0.100
373.800	114.575	0.100
373.900	122.481	0.100
374.000	130.985	0.100
374.100	110.130	0.100
374.200	104.250	0.100
374.300	104.610	0.100
374.400	114.765	0.100
374.500	111.146	0.100
374.600	114.218	0.100
374.700	129.079	0.100
374.800	119.281	0.100
374.900	120.324	0.100
375.000	113.100	0.100
375.100	126.558	0.100
375.200	112.354	0.100
375.300	113.077	0.100
375.400	110.235	0.100
375.500	98.508	0.100
375.600	113.971	0.100
375.700	121.013	0.100
375.800	121.036	0.100
375.900	122.198	0.100
376.000	124.104	0.100
376.100	112.264	0.100
376.200	117.121	0.100
376.300	114.362	0.100
376.400	119.623	0.100
376.500	113.613	0.100
376.600	118.796	0.100
376.700	114.055	0.100
376.800	107.043	0.100
376.900	115.844	0.100
377.000	111.851	0.100
377.100	120.044	0.100
377.200	115.700	0.100
377.300	110.218	0.100
377.400	115.191	0.100
377.500	115.617	0.100
377.600	113.394	0.100
377.700	111.355	0.100
377.800	111.531	0.100
377.900	110.812	0.100
378.000	106.111	0.100
378.100	116.674	0.100
378.200	121.714	0.100
378.300	120.282	0.100
378.400	112.310	0.100
378.500	108.021	0.100
378.600	114.579	0.100
378.700	117.339	0.100
378.800	127.308	0.100
378.900	117.767	0.100
379.000	113.560	0.100
379.100	112.467	0.100
379.200	101.351	0.100
379.300	115.778	0.100
379.400	126.354	0.100
379.500	123.535	0.100
379.600	111.457	0.100
379.700	114.558	0.100
379.800	121.637	0.100
379.900	118.746	0.100
380.000	112.783	0.100
380.100	118.201	0.100
380.200	108.677	0.100
380.300	108.225	0.100
380.400	102.588	0.100
380.500	106.268	0.100
380.600	119.736	0.100
380.700	126.684	0.100
380.800	123.816	0.100
380.900	107.395	0.100
381.000	118.478	0.100
381.100	117.562	0.100
381.200	118.188	0.100
381.300	120.691	0.100
381.400	123.655	0.100
381.500	122.579	0.100
381.600	107.056	0.100
381.700	118.708	0.100
381.800	117.333	0.100
381.900	113.396	0.100
382.000	117.693	0.100
382.100	101.783	0.100
382.200	112.546	0.100
382.300	115.167	0.100
382.400	118.550	0.100
382.500	115.255	0.100
382.600	114.589	0.100
382.700	114.248	0.100
382.800	107.285	0.100
382.900	104.364	0.100
383.000	110.924	0.100
383.100	115.462	0.100
383.200	117.906	0.100
383.300	118.113	0.100
383.400	105.291	0.100
383.500	117.395	0.100
383.600	120.209	0.100
383.700	113.607	0.100
383.800	106.150	0.100
383.900	111.876	0.100
384.000	115.046	0.100
384.100	115.041	0.100
384.200	115.850	0.100
384.300	113.880	0.100
384.400	116.747	0.100
384.500	117.490	0.100
384.600	106.619	0.100
384.700	106.292	0.100
384.800	103.947	0.100
384.900	108.014	0.100
385.000	112.394	0.100
385.100	121.018	0.100
385.200	120.043	0.100
385.300	109.614	0.100
385.400	108.859	0.100
385.500	121.801	0.100
385.600	117.278	0.100
385.700	111.982	0.100
385.800	114.310	0.100
385.900	111.616	0.100
386.000	106.928	0.100
386.100	119.631	0.100
386.200	122.528	0.100
386.300	119.198	0.100
386.400	120.869	0.100
386.500	98.133	0.100
386.600	115.305	0.100
386.700	116.539	0.100
386.800	102.670	0.100
386.900	107.024	0.100
387.000	108.964	0.100
387.100	122.329	0.100
387.200	118.635	0.100
387.300	113.582	0.100
387.400	127.834	0.100
387.500	112.109	0.100
387.600	109.536	0.100
387.700	109.331	0.100
387.800	112.768	0.100
387.900	111.077	0.100
388.000	114.116	0.100
388.100	119.651	0.100
388.200	103.524	0.100
388.300	109.829	0.100
388.400	111.641	0.100
388.500	120.449	0.100
388.600	118.506	0.100
388.700	128.183	0.100
388.800	111.815	0.100
388.900	107.135	0.100
389.000	105.162	0.100
389.100	110.201	0.100
389.200	121.514	0.100
389.300	117.617	0.100
389.400	122.961	0.100
389.500	114.368	0.100
389.600	107.212	0.100
389.700	111.572	0.100
389.800	124.889	0.100
389.900	111.443	0.100
390.000	104.236	0.100
390.100	113.821	0.100
390.200	106.643	0.100
390.300	109.675	0.100
390.400	103.773	0.100
390.500	92.934	0.100
390.600	84.525	0.100
390.700	91.893	0.100
390.800	102.612	0.100
390.900	89.656	0.100
391.000	84.731	0.100
391.100	84.943	0.100
391.200	83.383	0.100
391.300	78.969	0.100
391.400	70.332	0.100
391.500	67.316	0.100
391.600	60.468	0.100
391.700	64.864	0.100
391.800	72.939	0.100
391.900	59.032	0.100
392.000	51.522	0.100
392.100	45.844	0.100
392.200	40.410	0.100
392.300	36.723	0.100
392.400	32.661	0.100
392.500	44.189	0.100
392.600	40.307	0.100
392.700	35.061	0.100
392.800	42.503	0.100
392.900	44.079	0.100
393.000	34.944	0.100
393.100	31.119	0.100
393.200	25.543	0.100
393.300	20.139	0.100
393.400	26.938	0.100
393.500	30.758	0.100
393.600	15.892	0.100
393.700	31.711	0.100
393.800	15.146	0.100
393.900	24.276	0.100
394.000	23.126	0.100
394.100	30.605	0.100
394.200	22.958	0.100
394.300	21.655	0.100
394.400	8.928	0.100
394.500	8.632	0.100
394.600	10.873	0.100
394.700	18.977	0.100
394.800	15.915	0.100
394.900	9.196	0.100
395.000	2.766	0.100
395.100	0.703	0.100
395.200	-0.900	0.100
395.300	12.508	0.100
395.400	15.097	0.100
395.500	5.557	0.100
395.600	3.695	0.100
395.700	2.622	0.100
395.800	2.103	0.100
395.900	-11.373	0.100
396.000	-1.135	0.100
396.100	2.416	0.100
396.200	2.355	0.100
396.300	8.415	0.100
396.400	8.388	0.100
396.500	8.323	0.100
396.600	17.490	0.100
396.700	14.221	0.100
396.800	7.373	0.100
396.900	15.399	0.100
397.000	4.756	0.100
397.100	4.760	0.100
397.200	2.462	0.100
397.300	-2.219	0.100
397.400	-11.176	0.100
397.500	2.238	0.100
397.600	18.849	0.100
397.700	1.849	0.100
397.800	1.421	0.100
397.900	-12.026	0.100
398.000	-4.337	0.100
398.100	-3.419	0.100
398.200	-2.494	0.100
398.300	3.673	0.100
398.400	18.031	0.100
398.500	5.296	0.100
398.600	-1.221	0.100
398.700	3.669	0.100
398.800	-3.328	0.100
398.900	-9.235	0.100
399.000	-8.854	0.100
399.100	3.017	0.100
399.200	0.224	0.100
399.300	-4.257	0.100
399.400	-0.433	0.100
399.500	-8.760	0.100
399.600	-6.498	0.100
399.700	-6.633	0.100
399.800	-2.311	0.100
399.900	-5.919	0.100
400.000	-0.319	0.100
400.100	-4.030	0.100
400.200	2.440	0.100
400.300	-2.570	0.100
400.400	-5.885	0.100
400.500	-14.787	0.100
400.600	4.205	0.100
400.700	2.766	0.100
400.800	-8.032	0.100
400.900	-7.707	0.100
401.000	-0.379	0.100
401.100	-5.237	0.100
401.200	-4.625	0.100
401.300	3.480	0.100
401.400	-10.779	0.100
401.500	-6.719	0.100
401.600	-11.792	0.100
401.700	-13.699	0.100
401.800	-15.177	0.100
401.900	-5.183	0.100
402.000	-17.710	0.100
402.100	-14.065	0.100
402.200	-9.162	0.100
402.300	-6.634	0.100
402.400	-4.852	0.100
402.500	-3.713	0.100
402.600	-16.714	0.100
402.700	-15.865	0.100
402.800	-12.042	0.100
402.900	-11.890	0.100
403.000	-11.395	0.100
403.100	-13.964	0.100
403.200	-15.026	0.100
403.300	-12.537	0.100
403.400	-12.219	0.100
403.500	-21.416	0.100
403.600	-19.693	0.100
403.700	-15.875	0.100
403.800	-18.235	0.100
403.900	-8.946	0.100
404.000	-11.679	0.100
404.100	-11.580	0.100
404.200	-23.687	0.100
404.300	-25.540	0.100
404.400	-21.896	0.100
404.500	-24.567	0.100
404.600	-12.140	0.100
404.700	-4.979	0.100
404.800	-4.457	0.100
404.900	-18.522	0.100
405.000	-17.044	0.100
405.100	-24.528	0.100
405.200	-21.074	0.100
405.300	-24.368	0.100
405.400	-18.395	0.100
405.500	-10.153	0.100
405.600	-23.245	0.100
405.700	-14.173	0.100
405.800	-17.557	0.100
405.900	-10.804	0.100
406.000	-18.649	0.100
406.100	-21.382	0.100
406.200	-7.701	0.100
406.300	-16.501	0.100
406.400	-19.331	0.100
406.500	-28.115	0.100
406.600	-14.507	0.100
406.700	-26.290	0.100
406.800	-23.875	0.100
406.900	-20.749	0.100
407.000	-22.984	0.100
407.100	-24.793	0.100
407.200	-31.381	0.100
407.300	-16.283	0.100
407.400	-16.146	0.100
407.500	-22.095	0.100
407.600	-23.665	0.100
407.700	-26.141	0.100
407.800	-25.710	0.100
407.900	-36.474	0.100
408.000	-34.845	0.100
408.100	-32.520	0.100
408.200	-30.328	0.100
408.300	-18.596	0.100
408.400	-28.831	0.100
408.500	-14.986	0.100
408.600	-18.938	0.100
408.700	-15.897	0.100
408.800	-35.947	0.100
408.900	-19.612	0.100
409.000	-31.999	0.100
409.100	-34.125	0.100
409.200	-42.959	0.100
409.300	-32.417	0.100
409.400	-31.184	0.100
409.500	-26.612	0.100
409.600	-26.678	0.100
409.700	-19.695	0.100
409.800	-26.659	0.100
409.900	-17.767	0.100
410.000	-34.007	0.100
410.100	-32.914	0.100
410.200	-24.447	0.100
410.300	-24.292	0.100
410.400	-22.096	0.100
410.500	-26.348	0.100
410.600	-29.428	0.100
410.700	-31.166	0.100
410.800	-36.779	0.100
410.900	-24.936	0.100
411.000	-29.978	0.100
411.100	-20.689	0.100
411.200	-40.635	0.100
411.300	-24.220	0.100
411.400	-33.971	0.100
411.500	-32.944	0.100
411.600	-30.351	0.100
411.700	-43.356	0.100
411.800	-29.280	0.100
411.900	-22.943	0.100
412.000	-34.152	0.100
412.100	-41.456	0.100
412.200	-36.315	0.100
412.300	-35.311	0.100
412.400	-25.838	0.100
412.500	-32.872	0.100
412.600	-38.010	0.100
412.700	-42.854	0.100
412.800	-41.296	0.100
412.900	-31.679	0.100
413.000	-32.729	0.100
413.100	-38.799	0.100
413.200	-27.621	0.100
413.300	-26.543	0.100
413.400	-32.131	0.100
413.500	-35.367	0.100
413.600	-34.677	0.100
413.700	-31.877	0.100
413.800	-31.685	0.100
413.900	-37.331	0.100
414.000	-32.045	0.100
414.100	-44.141	0.100
414.200	-49.614	0.100
414.300	-45.774	0.100
414.400	-33.824	0.100
414.500	-36.090	0.100
414.600	-34.524	0.100
414.700	-32.648	0.100
414.800	-28.537	0.100
414.900	-45.543	0.100
415.000	-41.955	0.100
415.100	-51.171	0.100
415.200	-38.345	0.100
415.300	-38.663	0.100
415.400	-38.834	0.100
415.500	-39.941	0.100
415.600	-53.649	0.100
415.700	-52.981	0.100
415.800	-49.375	0.100
415.900	-54.081	0.100
416.000	-45.154	0.100
416.100	-40.275	0.100
416.200	-33.089	0.100
416.300	-34.465	0.100
416.400	-35.818	0.100
416.500	-45.265	0.100
416.600	-54.821	0.100
416.700	-36.700	0.100
416.800	-35.812	0.100
416.900	-48.626	0.100
417.000	-44.347	0.100
417.100	-39.666	0.100
417.200	-27.184	0.100
417.300	-41.291	0.100
417.400	-27.270	0.100
417.500	-37.511	0.100
417.600	-44.951	0.100
417.700	-57.804	0.100
417.800	-47.039	0.100
417.900	-50.261	0.100
418.000	-39.491	0.100
418.100	-27.106	0.100
418.200	-44.879	0.100
418.300	-41.699	0.100
418.400	-40.674	0.100
418.500	-40.014	0.100
418.600	-54.392	0.100
418.700	-53.278	0.100
418.800	-37.534	0.100
418.900	-45.573	0.100
419.000	-48.050	0.100
419.100	-45.498	0.100
419.200	-47.969	0.100
419.300	-44.452	0.100
419.400	-31.320	0.100
419.500	-42.041	0.100
419.600	-53.483	0.100
419.700	-50.261	0.100
419.800	-44.781	0.100
419.900	-43.148	0.100
420.000	-33.855	0.100
420.100	-38.340	0.100
420.200	-44.257	0.100
420.300	-52.912	0.100
420.400	-49.603	0.100
420.500	-48.729	0.100
420.600	-45.025	0.100
420.700	-51.103	0.100
420.800	-47.253	0.100
420.900	-46.014	0.100
421.000	-41.756	0.100
421.100	-50.978	0.100
421.200	-46.418	0.100
421.300	-53.336	0.100
421.400	-49.503	0.100
421.500	-41.822	0.100
421.600	-37.219	0.100
421.700	-46.741	0.100
421.800	-46.182	0.100
421.900	-58.287	0.100
422.000	-52.411	0.100
422.100	-44.292	0.100
422.200	-49.940	0.100
422.300	-38.746	0.100
422.400	-49.054	0.100
422.500	-50.215	0.100
422.600	-45.559	0.100
422.700	-55.533	0.100
422.800	-48.197	0.100
422.900	-49.246	0.100
423.000	-48.742	0.100
423.100	-52.396	0.100
423.200	-40.182	0.100
423.300	-38.541	0.100
423.400	-40.796	0.100
423.500	-59.747	0.100
423.600	-38.500	0.100
423.700	-45.054	0.100
423.800	-60.227	0.100
423.900	-60.720	0.100
424.000	-54.574	0.100
424.100	-55.307	0.100
424.200	-53.043	0.100
424.300	-52.368	0.101
424.400	-57.354	0.101
424.500	-47.905	0.101
424.600	-42.820	0.101
424.700	-53.953	0.101
424.800	-63.421	0.101
424.900	-45.979	0.101
425.000	-51.167	0.101
425.100	-51.078	0.101
425.200	-49.017	0.101
425.300	-49.772	0.101
425.400	-47.267	0.101
425.500	-47.209	0.101
425.600	-44.038	0.101
425.700	-43.190	0.101
425.800	-49.798	0.101
425.900	-42.113	0.101
426.000	-51.786	0.101
426.100	-55.551	0.101
426.200	-48.544	0.101
426.300	-54.443	0.101
426.400	-60.619	0.101
426.500	-66.595	0.101
426.600	-54.959	0.101
426.700	-52.517	0.101
426.800	-41.027	0.101
426.900	-49.579	0.101
427.000	-56.432	0.101
427.100	-41.063	0.101
427.200	-54.603	0.101
427.300	-51.784	0.101
427.400	-45.508	0.101
427.500	-56.257	0.101
427.600	-60.964	0.101
427.700	-44.218	0.101
427.800	-42.360	0.101
427.900	-48.454	0.101
428.000	-44.270	0.101
428.100	-53.379	0.101
428.200	-53.248	0.101
428.300	-54.568	0.101
428.400	-60.803	0.101
428.500	-51.953	0.101
428.600	-48.967	0.101
428.700	-36.526	0.101
428.800	-43.443	0.101
428.900	-49.883	0.101
429.000	-49.622	0.101
429.100	-35.315	0.101
429.200	-39.142	0.101
429.300	-62.104	0.101
429.400	-48.917	0.101
429.500	-44.416	0.101
429.600	-59.910	0.101
429.700	-56.359	0.101
429.800	-54.098	0.101
429.900	-43.131	0.101
430.000	-48.345	0.101
430.100	-46.211	0.101
430.200	-55.388	0.101
430.300	-52.239	0.101
430.400	-56.772	0.101
430.500	-42.432	0.101
430.600	-43.766	0.101
430.700	-40.740	0.101
430.800	-47.877	0.101
430.900	-46.275	0.101
431.000	-54.353	0.101
431.100	-49.496	0.101
431.200	-53.381	0.101
431.300	-43.584	0.101
431.400	-42.220	0.101
431.500	-53.514	0.101
431.600	-48.471	0.101
431.700	-39.382	0.101
431.800	-48.783	0.101
431.900	-55.021	0.101
432.000	-63.326	0.101
432.100	-49.365	0.101
432.200	-61.150	0.101
432.300	-49.247	0.101
432.400	-51.495	0.101
432.500	-47.211	0.101
432.600	-44.212	0.101
432.700	-50.450	0.101
432.800	-46.996	0.101
432.900	-46.702	0.101
433.000	-50.517	0.101
433.100	-59.224	0.101
433.200	-51.775	0.101
433.300	-48.377	0.101
433.400	-39.761	0.101
433.500	-45.287	0.101
433.600	-51.727	0.101
433.700	-66.207	0.101
433.800	-62.860	0.101
433.900	-60.120	0.101
434.000	-48.820	0.101
434.100	-47.245	0.101
434.200	-45.296	0.101
434.300	-46.084	0.101
434.400	-40.221	0.101
434.500	-40.274	0.101
434.600	-40.581	0.101
434.700	-50.299	0.101
434.800	-46.454	0.101
434.900	-52.798	0.101
435.000	-50.708	0.101
435.100	-54.434	0.101
435.200	-54.069	0.101
435.300	-51.699	0.101
435.400	-52.919	0.101
435.500	-49.276	0.101
435.600	-50.816	0.101
435.700	-53.814	0.101
435.800	-50.595	0.101
435.900	-51.246	0.101
436.000	-55.569	0.101
436.100	-37.082	0.101
436.200	-32.758	0.101
436.300	-47.484	0.101
436.400	-42.167	0.101
436.500	-54.847	0.101
436.600	-47.437	0.101
436.700	-38.858	0.101
436.800	-50.799	0.101
436.900	-56.484	0.101
437.000	-63.654	0.101
437.100	-56.127	0.101
437.200	-48.818	0.101
437.300	-49.621	0.101
437.400	-39.114	0.101
437.500	-52.099	0.101
437.600	-44.645	0.101
437.700	-50.024	0.101
437.800	-44.083	0.101
437.900	-44.540	0.101
438.000	-50.885	0.101
438.100	-61.811	0.101
438.200	-53.538	0.101
438.300	-56.963	0.101
438.400	-44.080	0.101
438.500	-47.034	0.101
438.600	-51.987	0.101
438.700	-49.631	0.101
438.800	-42.903	0.101
438.900	-40.188	0.101
439.000	-49.573	0.101
439.100	-53.121	0.101
439.200	-57.859	0.101
439.300	-61.013	0.101
439.400	-54.275	0.101
439.500	-52.713	0.101
439.600	-45.539	0.101
439.700	-53.590	0.101
439.800	-49.454	0.101
439.900	-47.010	0.101
440.000	-50.158	0.101
440.100	-47.327	0.101
440.200	-52.138	0.101
440.300	-56.180	0.101
440.400	-52.376	0.101
440.500	-55.069	0.101
440.600	-55.943	0.101
440.700	-55.827	0.101
440.800	-55.585	0.101
440.900	-55.134	0.101
441.000	-40.893	0.101
441.100	-41.620	0.101
441.200	-50.113	0.101
441.300	-55.111	0.101
441.400	-48.884	0.101
441.500	-47.344	0.101
441.600	-53.314	0.101
441.700	-46.549	0.101
441.800	-50.711	0.101
441.900	-49.484	0.101
442.000	-43.599	0.101
442.100	-36.157	0.101
442.200	-42.878	0.101
442.300	-44.211	0.101
442.400	-48.116	0.101
442.500	-55.374	0.101
442.600	-47.509	0.101
442.700	-45.936	0.101
442.800	-46.266	0.101
442.900	-46.993	0.101
443.000	-49.458	0.101
443.100	-56.628	0.101
443.200	-59.511	0.101
443.300	-59.814	0.101
443.400	-45.339	0.101
443.500	-46.873	0.101
443.600	-44.933	0.101
443.700	-34.355	0.101
443.800	-53.970	0.101
443.900	-51.319	0.101
444.000	-50.278	0.101
444.100	-51.998	0.101
444.200	-63.581	0.101
444.300	-54.355	0.101
444.400	-49.038	0.101
444.500	-53.782	0.101
444.600	-50.991	0.101
444.700	-54.835	0.101
444.800	-48.101	0.101
444.900	-45.322	0.101
445.000	-49.498	0.101
445.100	-52.504	0.101
445.200	-48.615	0.101
445.300	-50.625	0.101
445.400	-33.514	0.101
445.500	-38.601	0.101
445.600	-28.048	0.101
445.700	-38.659	0.101
445.800	-51.780	0.101
445.900	-42.095	0.101
446.000	-44.348	0.101
446.100	-50.097	0.101
446.200	-55.980	0.101
446.300	-54.643	0.101
446.400	-57.792	0.101
446.500	-42.006	0.101
446.600	-40.064	0.101
446.700	-41.956	0.101
446.800	-52.872	0.101
446.900	-55.311	0.101
447.000	-55.360	0.101
447.100	-56.363	0.101
447.200	-44.866	0.101
447.300	-40.170	0.101
447.400	-45.568	0.101
447.500	-45.538	0.101
447.600	-44.051	0.101
447.700	-44.817	0.101
447.800	-52.003	0.101
447.900	-46.209	0.101
448.000	-50.067	0.101
448.100	-46.540	0.101
448.200	-45.908	0.101
448.300	-45.505	0.101
448.400	-47.989	0.101
448.500	-44.405	0.101
448.600	-45.478	0.101
448.700	-47.873	0.101
448.800	-43.181	0.101
448.900	-54.266	0.101
449.000	-44.024	0.101
449.100	-47.795	0.101
449.200	-39.631	0.101
449.300	-42.246	0.101
449.400	-48.406	0.101
449.500	-48.100	0.101
449.600	-41.093	0.101
449.700	-47.242	0.101
449.800	-53.477	0.101
449.900	-48.255	0.101
450.000	-50.214	0.101
450.100	-52.894	0.101
450.200	-46.698	0.101
450.300	-37.779	0.101
450.400	-49.931	0.101
450.500	-53.836	0.101
450.600	-55.609	0.101
450.700	-58.330	0.101
450.800	-59.232	0.101
450.900	-53.672	0.101
451.000	-34.133	0.101
451.100	-40.702	0.101
451.200	-37.491	0.101
451.300	-41.918	0.101
451.400	-46.342	0.101
451.500	-54.094	0.101
451.600	-53.875	0.101
451.700	-42.386	0.101
451.800	-47.792	0.101
451.900	-51.654	0.101
452.000	-50.403	0.101
452.100	-51.244	0.101
452.200	-41.011	0.101
452.300	-52.559	0.101
452.400	-46.956	0.101
452.500	-46.523	0.101
452.600	-43.260	0.101
452.700	-39.677	0.101
452.800	-43.524	0.101
452.900	-44.545	0.101
453.000	-52.346	0.101
453.100	-49.346	0.101
453.200	-55.797	0.101
453.300	-51.779	0.101
453.400	-39.289	0.101
453.500	-30.459	0.101
453.600	-60.487	0.101
453.700	-60.293	0.101
453.800	-41.229	0.101
453.900	-42.034	0.101
454.000	-49.548	0.101
454.100	-47.292	0.101
454.200	-49.073	0.101
454.300	-53.717	0.101
454.400	-54.324	0.101
454.500	-32.206	0.101
454.600	-42.212	0.101
454.700	-42.898	0.101
454.800	-60.972	0.101
454.900	-55.989	0.101
455.000	-42.339	0.101
455.100	-34.650	0.101
455.200	-31.576	0.101
455.300	-48.291	0.101
455.400	-41.455	0.101
455.500	-41.976	0.101
455.600	-45.066	0.101
455.700	-41.906	0.101
455.800	-52.887	0.101
455.900	-52.162	0.101
456.000	-50.018	0.101
456.100	-49.602	0.101
456.200	-40.822	0.101
456.300	-42.488	0.101
456.400	-37.050	0.101
456.500	-36.203	0.101
456.600	-41.698	0.101
456.700	-42.223	0.101
456.800	-35.768	0.101
456.900	-51.999	0.101
457.000	-50.974	0.101
457.100	-34.784	0.101
457.200	-40.234	0.101
457.300	-51.752	0.101
457.400	-46.532	0.101
457.500	-49.558	0.101
457.600	-47.966	0.101
457.700	-43.736	0.101
457.800	-48.488	0.101
457.900	-39.613	0.101
458.000	-50.019	0.101
458.100	-35.843	0.101
458.200	-51.366	0.101
458.300	-51.473	0.101
458.400	-49.681	0.101
458.500	-39.091	0.101
458.600	-41.209	0.101
458.700	-41.219	0.101
458.800	-53.344	0.101
458.900	-43.310	0.101
459.000	-49.588	0.101
459.100	-52.755	0.101
459.200	-40.063	0.101
459.300	-40.715	0.101
459.400	-54.690	0.101
459.500	-32.458	0.101
459.600	-52.474	0.101
459.700	-46.619	0.101
459.800	-42.931	0.101
459.900	-50.819	0.101
460.000	-48.449	0.101
460.100	-46.582	0.101
460.200	-44.151	0.101
460.300	-42.409	0.101
460.400	-51.249	0.101
460.500	-43.952	0.101
460.600	-46.195	0.101
460.700	-42.448	0.101
460.800	-35.933	0.101
460.900	-36.066	0.101
461.000	-48.995	0.101
461.100	-33.345	0.101
461.200	-26.761	0.101
461.300	-28.069	0.101
461.400	-35.348	0.101
461.500	-43.798	0.101
461.600	-35.402	0.101
461.700	-32.316	0.101
461.800	-28.576	0.101
461.900	-29.925	0.101
462.000	-29.476	0.101
462.100	-24.354	0.101
462.200	-36.469	0.101
462.300	-20.966	0.101
462.400	-23.696	0.101
462.500	-19.132	0.101
462.600	-23.258	0.101
462.700	-19.714	0.101
462.800	-23.380	0.101
462.900	-17.845	0.101
463.000	-19.989	0.101
463.100	-27.338	0.101
463.200	-30.196	0.101
463.300	-29.083	0.101
463.400	-15.916	0.101
463.500	-22.396	0.101
463.600	-25.307	0.101
463.700	-32.060	0.101
463.800	-34.704	0.101
463.900	-19.616	0.101
464.000	-28.338	0.101
464.100	-20.748	0.101
464.200	-21.250	0.101
464.300	-33.608	0.101
464.400	-30.560	0.101
464.500	-26.321	0.101
464.600	-23.628	0.101
464.700	-23.049	0.101
464.800	-36.241	0.101
464.900	-26.122	0.101
465.000	-30.181	0.101
465.100	-27.962	0.101
465.200	-22.861	0.101
465.300	-21.782	0.101
465.400	-17.351	0.101
465.500	-13.503	0.101
465.600	-22.844	0.101
465.700	-25.106	0.101
465.800	-24.184	0.101
465.900	-19.300	0.101
466.000	-25.215	0.101
466.100	-18.810	0.101
466.200	-23.059	0.101
466.300	-25.098	0.101
466.400	-21.677	0.101
466.500	-26.232	0.101
466.600	-27.104	0.101
466.700	-19.318	0.101
466.800	-16.390	0.101
466.900	-32.460	0.101
467.000	-39.177	0.101
467.100	-27.480	0.101
467.200	-29.425	0.101
467.300	-38.284	0.101
467.400	-24.507	0.101
467.500	-35.394	0.101
467.600	-12.971	0.101
467.700	-18.820	0.101
467.800	-15.850	0.101
467.900	-14.184	0.101
468.000	-35.128	0.101
468.100	-29.183	0.101
468.200	-22.276	0.101
468.300	-22.344	0.101
468.400	-19.934	0.101
468.500	-22.446	0.101
468.600	-23.261	0.101
468.700	-27.765	0.101
468.800	-24.111	0.101
468.900	-32.059	0.101
469.000	-30.334	0.101
469.100	-20.181	0.101
469.200	-18.349	0.101
469.300	-13.154	0.101
469.400	-14.125	0.101
469.500	-22.635	0.101
469.600	-12.134	0.101
469.700	-17.087	0.101
469.800	-19.412	0.101
469.900	-9.739	0.101
470.000	-19.354	0.101
470.100	-12.517	0.101
470.200	-25.512	0.101
470.300	-28.558	0.101
470.400	-19.118	0.101
470.500	-10.881	0.101
470.600	-10.830	0.101
470.700	-18.847	0.101
470.800	-18.597	0.101
470.900	-18.680	0.101
471.000	-17.738	0.101
471.100	-15.053	0.101
471.200	-20.265	0.101
471.300	-19.066	0.101
471.400	-14.981	0.101
471.500	-14.100	0.101
471.600	-16.122	0.101
471.700	-22.345	0.101
471.800	-23.041	0.101
471.900	-17.721	0.101
472.000	-14.948	0.101
472.100	-5.109	0.101
472.200	-18.183	0.101
472.300	-14.639	0.101
472.400	-6.721	0.101
472.500	-6.961	0.101
472.600	-25.077	0.101
472.700	-27.057	0.101
472.800	-16.661	0.101
472.900	-24.142	0.101
473.000	-22.430	0.101
473.100	-22.323	0.101
473.200	-21.266	0.101
473.300	-12.296	0.101
473.400	-10.382	0.101
473.500	-16.066	0.101
473.600	-17.324	0.101
473.700	-30.645	0.101
473.800	-27.222	0.101
473.900	-23.649	0.101
474.000	-22.463	0.101
474.100	-35.778	0.101
474.200	-31.493	0.101
474.300	-16.882	0.101
474.400	-16.710	0.101
474.500	-22.877	0.101
474.600	-15.725	0.101
474.700	-10.860	0.101
474.800	-13.501	0.101
474.900	-13.812	0.101
475.000	-0.554	0.101
475.100	-9.216	0.101
475.200	-12.385	0.101
475.300	-13.843	0.101
475.400	-17.729	0.101
475.500	-9.909	0.101
475.600	-1.666	0.101
475.700	-1.307	0.101
475.800	8.108	0.101
475.900	6.353	0.101
476.000	-1.481	0.101
476.100	1.893	0.101
476.200	-4.167	0.101
476.300	-3.662	0.101
476.400	-5.740	0.101
476.500	-5.980	0.101
476.600	-19.355	0.101
476.700	-19.240	0.101
476.800	-24.234	0.101
476.900	-28.702	0.101
477.000	-38.189	0.101
477.100	-25.584	0.101
477.200	-38.232	0.101
477.300	-36.974	0.101
477.400	-46.212	0.101
477.500	-30.900	0.101
477.600	-26.922	0.101
477.700	-28.553	0.101
477.800	-36.801	0.101
477.900	-35.787	0.101
478.000	-33.252	0.101
478.100	-23.493	0.101
478.200	-23.466	0.101
478.300	-19.157	0.101
478.400	-23.176	0.101
478.500	-33.284	0.101
478.600	-39.564	0.101
478.700	-39.075	0.101
478.800	-39.623	0.101
478.900	-24.114	0.101
479.000	-24.138	0.101
479.100	-30.421	0.101
479.200	-30.330	0.101
479.300	-25.343	0.101
479.400	-39.429	0.101
479.500	-29.802	0.101
479.600	-30.833	0.101
479.700	-35.629	0.101
479.800	-33.882	0.101
479.900	-39.102	0.101
480.000	-29.583	0.101
480.100	-25.845	0.101
480.200	-36.822	0.101
480.300	-30.461	0.101
480.400	-18.682	0.101
480.500	-29.800	0.101
480.600	-32.875	0.101
480.700	-39.061	0.101
480.800	-24.854	0.101
480.900	-17.228	0.101
481.000	-3.154	0.101
481.100	-3.345	0.101
481.200	2.636	0.101
481.300	1.820	0.101
481.400	9.598	0.101
481.500	8.319	0.101
481.600	6.131	0.101
481.700	8.370	0.101
481.800	11.996	0.101
481.900	12.955	0.101
482.000	21.471	0.101
482.100	25.672	0.101
482.200	20.558	0.101
482.300	17.494	0.101
482.400	25.454	0.101
482.500	25.690	0.101
482.600	33.235	0.101
482.700	31.616	0.101
482.800	28.837	0.101
482.900	18.361	0.101
483.000	26.761	0.101
483.100	38.574	0.101
483.200	26.899	0.101
483.300	17.310	0.101
483.400	31.083	0.101
483.500	34.856	0.101
483.600	24.228	0.101
483.700	24.771	0.101
483.800	35.101	0.101
483.900	27.953	0.101
484.000	26.130	0.101
484.100	16.571	0.101
484.200	21.143	0.101
484.300	29.329	0.101
484.400	29.243	0.101
484.500	35.384	0.101
484.600	30.723	0.101
484.700	31.546	0.101
484.800	38.340	0.101
484.900	29.820	0.101
485.000	24.420	0.101
485.100	15.930	0.101
485.200	15.318	0.101
485.300	28.423	0.101
485.400	20.316	0.101
485.500	29.025	0.101
485.600	35.886	0.101
485.700	24.829	0.101
485.800	28.902	0.101
485.900	21.100	0.101
486.000	17.847	0.101
486.100	14.801	0.101
486.200	14.909	0.101
486.300	11.824	0.101
486.400	13.760	0.101
486.500	18.005	0.101
486.600	20.239	0.101
486.700	34.073	0.101
486.800	20.270	0.101
486.900	18.950	0.101
487.000	23.317	0.101
487.100	26.491	0.101
487.200	36.592	0.101
487.300	31.052	0.101
487.400	23.547	0.101
487.500	23.146	0.101
487.600	14.198	0.101
487.700	16.385	0.101
487.800	21.405	0.101
487.900	27.601	0.101
488.000	32.161	0.101
488.100	47.059	0.101
488.200	36.353	0.101
488.300	26.606	0.101
488.400	19.955	0.101
488.500	28.666	0.101
488.600	37.177	0.101
488.700	32.954	0.101
488.800	38.375	0.101
488.900	35.194	0.101
489.000	33.643	0.101
489.100	27.148	0.101
489.200	30.204	0.101
489.300	29.212	0.101
489.400	41.758	0.101
489.500	39.208	0.101
489.600	22.065	0.101
489.700	27.050	0.101
489.800	26.360	0.101
489.900	31.179	0.101
490.000	35.954	0.101
490.100	55.331	0.101
490.200	50.103	0.101
490.300	35.733	0.101
490.400	48.163	0.101
490.500	43.340	0.101
490.600	40.301	0.101
490.700	44.160	0.101
490.800	37.312	0.101
490.900	42.085	0.101
491.000	33.947	0.101
491.100	35.781	0.101
491.200	36.130	0.101
491.300	51.205	0.101
491.400	48.415	0.101
491.500	50.614	0.101
491.600	49.891	0.101
491.700	54.302	0.101
491.800	60.091	0.101
491.900	50.121	0.101
492.000	51.736	0.101
492.100	51.579	0.101
492.200	48.093	0.101
492.300	51.427	0.101
492.400	48.958	0.101
492.500	60.454	0.101
492.600	63.955	0.101
492.700	51.971	0.101
492.800	60.901	0.101
492.900	41.774	0.101
493.000	48.918	0.101
493.100	59.575	0.101
493.200	56.124	0.101
493.300	53.069	0.101
493.400	56.862	0.101
493.500	70.356	0.101
493.600	67.341	0.101
493.700	75.220	0.101
493.800	60.919	0.101
493.900	60.408	0.101
494.000	57.834	0.101
494.100	63.407	0.101
494.200	63.195	0.101
494.300	72.869	0.101
494.400	66.204	0.101
494.500	86.698	0.101
494.600	70.128	0.101
494.700	68.204	0.101
494.800	69.430	0.101
494.900	69.712	0.101
495.000	59.695	0.101
495.100	70.453	0.101
495.200	71.135	0.101
495.300	76.274	0.101
495.400	82.557	0.101
495.500	96.983	0.101
495.600	92.349	0.101
495.700	87.865	0.101
495.800	79.110	0.101
495.900	90.357	0.101
496.000	96.629	0.101
496.100	93.778	0.101
496.200	80.609	0.101
496.300	78.490	0.101
496.400	90.137	0.101
496.500	93.420	0.101
496.600	96.602	0.101
496.700	95.601	0.101
496.800	86.473	0.101
496.900	79.866	0.101
497.000	92.692	0.101
497.100	79.420	0.101
497.200	99.246	0.101
497.300	97.466	0.101
497.400	104.972	0.101
497.500	107.602	0.101
497.600	95.984	0.101
497.700	98.547	0.101
497.800	105.348	0.101
497.900	108.730	0.101
498.000	109.011	0.101
498.100	110.050	0.101
498.200	109.504	0.101
498.300	111.622	0.101
498.400	109.894	0.101
498.500	109.073	0.101
498.600	113.313	0.101
498.700	106.961	0.101
498.800	117.319	0.101
498.900	109.874	0.101
499.000	112.422	0.101
499.100	107.524	0.101
499.200	110.245	0.101
499.300	103.865	0.101
499.400	110.486	0.101
499.500	111.456	0.101
499.600	120.443	0.101
499.700	118.250	0.101
499.800	108.548	0.101
499.900	113.322	0.101
500.000	115.878	0.101
500.100	121.017	0.101
500.200	113.110	0.101
500.300	122.169	0.101
500.400	124.058	0.101
500.500	121.444	0.101
500.600	130.051	0.101
500.700	127.187	0.101
500.800	121.929	0.101
500.900	128.270	0.101
501.000	122.551	0.101
501.100	127.528	0.101
501.200	128.972	0.101
501.300	132.194	0.101
501.400	117.853	0.101
501.500	112.998	0.101
501.600	123.780	0.101
501.700	131.400	0.101
501.800	136.315	0.101
501.900	135.193	0.101
502.000	125.578	0.101
502.100	117.591	0.101
502.200	112.051	0.101
502.300	130.978	0.101
502.400	131.960	0.101
502.500	133.419	0.101
502.600	124.413	0.101
502.700	123.294	0.101
502.800	117.283	0.101
502.900	124.885	0.101
503.000	117.898	0.101
503.100	126.086	0.101
503.200	130.723	0.101
503.300	133.561	0.101
503.400	130.898	0.101
503.500	131.953	0.101
503.600	125.014	0.101
503.700	136.789	0.101
503.800	123.432	0.101
503.900	122.321	0.101
504.000	115.360	0.101
504.100	128.441	0.101
504.200	125.130	0.101
504.300	130.219	0.101
504.400	115.132	0.101
504.500	115.836	0.101
504.600	126.687	0.101
504.700	128.924	0.101
504.800	132.726	0.101
504.900	133.743	0.101
505.000	123.339	0.101
505.100	119.854	0.101
505.200	113.668	0.101
505.300	114.273	0.101
505.400	119.332	0.101
505.500	124.539	0.101
505.600	126.525	0.101
505.700	130.988	0.101
505.800	133.597	0.101
505.900	123.242	0.101
506.000	126.976	0.101
506.100	125.809	0.101
506.200	124.868	0.101
506.300	125.339	0.101
506.400	115.671	0.101
506.500	130.342	0.101
506.600	122.823	0.101
506.700	123.613	0.101
506.800	125.585	0.101
506.900	131.823	0.101
507.000	125.253	0.101
507.100	126.784	0.101
507.200	126.229	0.101
507.300	120.075	0.101
507.400	123.273	0.101
507.500	133.345	0.101
507.600	129.130	0.101
507.700	105.185	0.101
507.800	113.464	0.101
507.900	122.855	0.101
508.000	122.647	0.101
508.100	117.208	0.101
508.200	111.100	0.101
508.300	124.640	0.101
508.400	121.972	0.101
508.500	127.520	0.101
508.600	121.376	0.101
508.700	119.073	0.101
508.800	115.600	0.101
508.900	116.951	0.101
509.000	114.739	0.101
509.100	118.589	0.101
509.200	117.395	0.101
509.300	125.340	0.101
509.400	132.825	0.101
509.500	122.169	0.101
509.600	116.032	0.101
509.700	114.623	0.101
509.800	125.668	0.101
509.900	124.645	0.101
510.000	110.954	0.101
510.100	124.429	0.101
510.200	117.067	0.101
510.300	117.748	0.101
510.400	118.801	0.101
510.500	123.556	0.101
510.600	127.954	0.101
510.700	125.283	0.101
510.800	121.137	0.101
510.900	115.804	0.101
511.000	110.051	0.101
511.100	122.807	0.101
511.200	118.218	0.101
511.300	106.832	0.101
511.400	106.275	0.101
511.500	108.348	0.101
511.600	120.539	0.101
511.700	125.590	0.101
511.800	122.339	0.101
511.900	121.124	0.101
512.000	115.191	0.101
512.100	117.900	0.101
512.200	120.048	0.101
512.300	125.445	0.101
512.400	125.229	0.101
512.500	126.773	0.101
512.600	130.758	0.101
512.700	125.246	0.101
512.800	126.163	0.101
512.900	108.369	0.101
513.000	114.166	0.101
513.100	123.355	0.101
513.200	112.560	0.101
513.300	116.066	0.101
513.400	115.666	0.101
513.500	122.420	0.101
513.600	118.437	0.101
513.700	107.323	0.101
513.800	114.658	0.101
513.900	128.412	0.101
514.000	120.605	0.101
514.100	121.266	0.101
514.200	108.681	0.101
514.300	117.498	0.101
514.400	116.985	0.101
514.500	106.532	0.101
514.600	114.865	0.101
514.700	108.133	0.101
514.800	116.733	0.101
514.900	115.731	0.101
515.000	125.220	0.101
515.100	118.102	0.101
515.200	108.913	0.101
515.300	105.544	0.101
515.400	115.279	0.101
515.500	114.793	0.101
515.600	123.292	0.101
515.700	120.246	0.101
515.800	124.036	0.101
515.900	118.529	0.101
516.000	107.892	0.101
516.100	119.643	0.101
516.200	118.817	0.101
516.300	123.208	0.101
516.400	114.113	0.101
516.500	121.668	0.101
516.600	107.986	0.101
516.700	116.820	0.101
516.800	116.282	0.101
516.900	111.757	0.101
517.000	115.564	0.101
517.100	118.398	0.101
517.200	114.117	0.101
517.300	119.115	0.101
517.400	111.606	0.101
517.500	124.250	0.101
517.600	115.369	0.101
517.700	101.071	0.101
517.800	112.201	0.101
517.900	114.308	0.101
518.000	111.832	0.101
518.100	111.611	0.101
518.200	116.378	0.101
518.300	113.504	0.101
518.400	130.445	0.101
518.500	120.428	0.101
518.600	123.397	0.101
518.700	125.475	0.101
518.800	116.910	0.101
518.900	118.464	0.101
519.000	114.656	0.101
519.100	109.504	0.101
519.200	107.799	0.101
519.300	108.902	0.101
519.400	118.041	0.101
519.500	114.213	0.101
519.600	114.855	0.101
519.700	109.654	0.101
519.800	106.959	0.101
519.900	120.990	0.101
520.000	122.335	0.101
520.100	123.190	0.101
520.200	114.762	0.101
520.300	108.603	0.101
520.400	121.921	0.101
520.500	109.686	0.101
520.600	108.860	0.101
520.700	115.227	0.101
520.800	114.323	0.101
520.900	121.633	0.101
521.000	116.017	0.101
521.100	98.701	0.101
521.200	108.190	0.101
521.300	113.154	0.101
521.400	117.032	0.101
521.500	118.569	0.101
521.600	116.966	0.101
521.700	112.972	0.101
521.800	111.637	0.101
521.900	117.027	0.101
522.000	117.604	0.101
522.100	124.864	0.101
522.200	113.959	0.101
522.300	116.043	0.101
522.400	117.362	0.101
522.500	117.481	0.101
522.600	113.874	0.101
522.700	117.111	0.101
522.800	109.707	0.101
522.900	120.635	0.101
523.000	113.818	0.101
523.100	110.599	0.101
523.200	111.224	0.101
523.300	125.029	0.101
523.400	109.819	0.101
523.500	112.502	0.101
523.600	121.431	0.101
523.700	122.399	0.101
523.800	120.644	0.101
523.900	121.534	0.101
524.000	118.217	0.101
524.100	118.476	0.101
524.200	116.383	0.101
524.300	120.562	0.101
524.400	126.424	0.101
524.500	110.914	0.101
524.600	101.405	0.101
524.700	110.572	0.101
524.800	114.829	0.101
524.900	121.189	0.101
525.000	105.444	0.101
525.100	108.928	0.101
525.200	104.141	0.101
525.300	115.389	0.101
525.400	118.458	0.101
525.500	108.569	0.101
525.600	112.170	0.101
525.700	108.512	0.101
525.800	109.054	0.101
525.900	122.269	0.101
526.000	124.940	0.101
526.100	123.875	0.101
526.200	135.121	0.101
526.300	125.109	0.101
526.400	119.624	0.101
526.500	115.222	0.101
526.600	112.880	0.101
526.700	97.408	0.101
526.800	114.211	0.101
526.900	118.470	0.101
527.000	114.308	0.101
527.100	120.464	0.101
527.200	116.419	0.101
527.300	122.077	0.101
527.400	122.799	0.101
527.500	107.736	0.101
527.600	110.833	0.101
527.700	121.023	0.101
527.800	107.896	0.101
527.900	111.879	0.101
528.000	111.484	0.101
528.100	128.643	0.101
528.200	120.559	0.101
528.300	110.485	0.101
528.400	105.698	0.101
528.500	108.326	0.101
528.600	107.619	0.101
528.700	106.602	0.101
528.800	110.682	0.101
528.900	117.629	0.101
529.000	115.763	0.101
529.100	123.842	0.101
529.200	112.152	0.101
529.300	113.485	0.101
529.400	105.636	0.101
529.500	108.287	0.101
529.600	106.682	0.101
529.700	107.177	0.101
529.800	112.479	0.101
529.900	113.001	0.101
530.000	115.420	0.101
530.100	120.313	0.101
530.200	117.088	0.101
530.300	107.349	0.101
530.400	108.013	0.101
530.500	115.621	0.101
530.600	98.830	0.101
530.700	124.326	0.101
530.800	118.102	0.101
530.900	123.710	0.101
531.000	120.726	0.101
531.100	115.537	0.101
531.200	119.361	0.101
531.300	117.132	0.101
531.400	115.316	0.101
531.500	117.325	0.101
531.600	125.065	0.101
531.700	119.070	0.101
531.800	116.105	0.101
531.900	101.956	0.101
532.000	114.468	0.101
532.100	110.263	0.101
532.200	119.907	0.101
532.300	111.006	0.101
532.400	110.376	0.101
532.500	117.611	0.101
532.600	111.375	0.101
532.700	111.319	0.101
532.800	105.169	0.101
532.900	103.340	0.101
533.000	113.428	0.101
533.100	118.835	0.101
533.200	118.491	0.101
533.300	111.790	0.101
533.400	109.084	0.101
533.500	107.118	0.101
533.600	110.344	0.101
533.700	104.838	0.101
533.800	112.391	0.101
533.900	112.997	0.101
534.000	106.960	0.101
534.100	119.911	0.101
534.200	125.945	0.101
534.300	124.122	0.101
534.400	102.381	0.101
534.500	121.078	0.101
534.600	123.795	0.101
534.700	119.153	0.101
534.800	119.726	0.101
534.900	113.347	0.101
535.000	105.684	0.101
535.100	110.301	0.101
535.200	112.328	0.101
535.300	122.449	0.101
535.400	118.703	0.101
535.500	123.600	0.101
535.600	120.621	0.101
535.700	100.805	0.101
535.800	109.976	0.101
535.900	109.622	0.101
536.000	118.455	0.101
536.100	114.086	0.101
536.200	112.686	0.101
536.300	108.058	0.101
536.400	110.864	0.101
536.500	114.948	0.101
536.600	109.746	0.101
536.700	122.136	0.101
536.800	104.900	0.101
536.900	104.017	0.101
537.000	108.374	0.101
537.100	112.859	0.101
537.200	106.855	0.101
537.300	105.026	0.101
537.400	101.979	0.101
537.500	116.090	0.101
537.600	116.204	0.101
537.700	111.047	0.101
537.800	117.623	0.101
537.900	116.319	0.101
538.000	122.856	0.101
538.100	96.040	0.101
538.200	110.118	0.101
538.300	110.275	0.101
538.400	100.572	0.101
538.500	108.264	0.101
538.600	108.493	0.101
538.700	124.379	0.101
538.800	122.552	0.101
538.900	117.492	0.101
539.000	112.888	0.101
539.100	114.429	0.101
539.200	105.563	0.101
539.300	106.350	0.101
539.400	108.444	0.101
539.500	112.898	0.101
539.600	114.927	0.101
539.700	106.297	0.101
539.800	110.253	0.101
539.900	112.303	0.101
540.000	113.197	0.101
540.100	129.542	0.101
540.200	121.081	0.101
540.300	108.784	0.101
540.400	115.049	0.101
540.500	99.828	0.101
540.600	85.568	0.101
540.700	85.153	0.101
540.800	83.160	0.101
540.900	87.737	0.101
541.000	86.661	0.101
541.100	84.906	0.101
541.200	70.078	0.101
541.300	63.373	0.101
541.400	66.508	0.101
541.500	69.755	0.101
541.600	77.930	0.101
541.700	48.802	0.101
541.800	48.579	0.101
541.900	54.676	0.101
542.000	38.654	0.101
542.100	42.135	0.101
542.200	43.424	0.101
542.300	46.112	0.101
542.400	24.307	0.101
542.500	34.870	0.101
542.600	42.940	0.101
542.700	50.767	0.101
542.800	42.618	0.101
542.900	22.081	0.101
543.000	22.594	0.101
543.100	13.977	0.101
543.200	16.428	0.101
543.300	11.255	0.101
543.400	24.591	0.101
543.500	22.333	0.101
543.600	20.986	0.101
543.700	33.723	0.101
543.800	34.340	0.101
543.900	25.374	0.101
544.000	22.865	0.101
544.100	10.441	0.101
544.200	16.570	0.101
544.300	-5.225	0.101
544.400	10.240	0.101
544.500	14.345	0.101
544.600	17.485	0.101
544.700	7.493	0.101
544.800	16.044	0.101
544.900	0.464	0.101
545.000	0.034	0.101
545.100	-4.566	0.101
545.200	0.563	0.101
545.300	3.669	0.101
545.400	10.727	0.101
545.500	7.327	0.101
545.600	12.712	0.101
545.700	11.028	0.101
545.800	1.662	0.101
545.900	-4.096	0.101
546.000	5.924	0.101
546.100	11.645	0.101
546.200	2.631	0.101
546.300	-0.118	0.101
546.400	4.358	0.101
546.500	-2.021	0.101
546.600	0.268	0.101
546.700	10.520	0.101
546.800	0.251	0.101
546.900	-0.438	0.101
547.000	-12.018	0.101
547.100	-11.325	0.101
547.200	-0.340	0.101
547.300	-4.173	0.101
547.400	-8.919	0.101
547.500	-30.173	0.101
547.600	-24.632	0.101
547.700	-15.783	0.101
547.800	-2.317	0.101
547.900	-0.031	0.101
548.000	-3.438	0.101
548.100	0.554	0.101
548.200	3.736	0.101
548.300	2.082	0.101
548.400	1.556	0.101
548.500	-1.721	0.101
548.600	-1.651	0.101
548.700	3.132	0.101
548.800	-4.528	0.101
548.900	-8.156	0.101
549.000	-11.029	0.101
549.100	-3.614	0.101
549.200	-3.019	0.101
549.300	10.455	0.101
549.400	10.013	0.101
549.500	0.573	0.101
549.600	2.960	0.101
549.700	-5.892	0.101
549.800	-10.663	0.101
549.900	-16.017	0.101
550.000	-16.882	0.101
550.100	-0.246	0.101
550.200	-5.065	0.101
550.300	0.034	0.101
550.400	-0.685	0.101
550.500	-9.898	0.101
550.600	-10.617	0.101
550.700	-4.536	0.101
550.800	-8.458	0.101
550.900	-14.089	0.101
551.000	-2.594	0.101
551.100	-13.041	0.101
551.200	-12.098	0.101
551.300	-16.263	0.101
551.400	-12.214	0.101
551.500	-8.605	0.101
551.600	-15.818	0.101
551.700	-12.423	0.101
551.800	-5.374	0.101
551.900	-14.102	0.101
552.000	-7.357	0.101
552.100	-8.546	0.101
552.200	-16.248	0.101
552.300	-17.180	0.101
552.400	-17.904	0.101
552.500	-22.125	0.101
552.600	-17.716	0.101
552.700	-13.755	0.101
552.800	-13.624	0.101
552.900	-10.922	0.101
553.000	-17.514	0.101
553.100	-13.761	0.101
553.200	-10.556	0.101
553.300	-2.477	0.101
553.400	-20.524	0.101
553.500	-22.946	0.101
553.600	-27.503	0.101
553.700	-9.971	0.101
553.800	-9.228	0.101
553.900	-17.026	0.101
554.000	-13.675	0.101
554.100	-7.107	0.101
554.200	-21.877	0.101
554.300	-14.047	0.101
554.400	-20.039	0.101
554.500	-20.773	0.101
554.600	-25.987	0.101
554.700	-29.389	0.101
554.800	-19.371	0.101
554.900	-15.600	0.101
555.000	-18.473	0.101
555.100	-30.130	0.101
555.200	-18.878	0.101
555.300	-23.390	0.101
555.400	-13.357	0.101
555.500	-18.143	0.101
555.600	-19.333	0.101
555.700	-24.324	0.101
555.800	-21.893	0.101
555.900	-13.389	0.101
556.000	-20.282	0.101
556.100	-21.614	0.101
556.200	-29.362	0.101
556.300	-15.137	0.101
556.400	-19.115	0.101
556.500	-28.100	0.101
556.600	-21.859	0.101
556.700	-25.428	0.101
556.800	-31.028	0.101
556.900	-19.451	0.101
557.000	-21.547	0.101
557.100	-17.957	0.101
557.200	-20.080	0.101
557.300	-24.868	0.101
557.400	-36.093	0.101
557.500	-29.214	0.101
557.600	-26.516	0.101
557.700	-29.076	0.101
557.800	-40.488	0.101
557.900	-16.921	0.101
558.000	-15.982	0.101
558.100	-27.703	0.101
558.200	-29.311	0.101
558.300	-29.381	0.101
558.400	-30.863	0.101
558.500	-19.648	0.101
558.600	-17.062	0.101
558.700	-22.084	0.101
558.800	-29.989	0.101
558.900	-27.610	0.101
559.000	-26.583	0.101
559.100	-32.462	0.101
559.200	-19.884	0.101
559.300	-28.457	0.101
559.400	-25.773	0.101
559.500	-41.368	0.101
559.600	-23.780	0.101
559.700	-41.654	0.101
559.800	-39.811	0.101
559.900	-38.198	0.101
560.000	-42.050	0.101
560.100	-35.422	0.101
560.200	-28.661	0.101
560.300	-37.038	0.101
560.400	-32.095	0.101
560.500	-26.641	0.101
560.600	-31.908	0.101
560.700	-34.152	0.101
560.800	-25.527	0.101
560.900	-26.935	0.101
561.000	-38.024	0.101
561.100	-34.955	0.101
561.200	-31.864	0.101
561.300	-39.897	0.101
561.400	-32.429	0.101
561.500	-33.263	0.101
561.600	-39.747	0.101
561.700	-35.900	0.101
561.800	-36.467	0.101
561.900	-37.461	0.101
562.000	-29.671	0.101
562.100	-34.619	0.101
562.200	-38.246	0.101
562.300	-37.841	0.101
562.400	-29.611	0.101
562.500	-41.022	0.101
562.600	-40.483	0.101
562.700	-36.831	0.101
562.800	-33.962	0.101
562.900	-33.340	0.101
563.000	-35.711	0.101
563.100	-40.562	0.101
563.200	-38.408	0.101
563.300	-29.820	0.101
563.400	-37.494	0.101
563.500	-29.675	0.101
563.600	-39.803	0.101
563.700	-34.061	0.101
563.800	-33.881	0.101
563.900	-41.538	0.101
564.000	-37.514	0.101
564.100	-37.137	0.101
564.200	-31.705	0.101
564.300	-40.593	0.101
564.400	-37.662	0.101
564.500	-43.530	0.101
564.600	-34.610	0.101
564.700	-33.302	0.101
564.800	-49.948	0.101
564.900	-46.141	0.101
565.000	-46.027	0.101
565.100	-30.872	0.101
565.200	-42.563	0.101
565.300	-47.141	0.101
565.400	-45.271	0.101
565.500	-36.475	0.101
565.600	-38.178	0.101
565.700	-46.543	0.101
565.800	-52.381	0.101
565.900	-40.735	0.101
566.000	-44.594	0.101
566.100	-45.621	0.101
566.200	-41.639	0.101
566.300	-35.303	0.101
566.400	-29.475	0.101
566.500	-30.453	0.101
566.600	-43.829	0.101
566.700	-50.515	0.101
566.800	-46.275	0.101
566.900	-46.008	0.101
567.000	-33.550	0.101
567.100	-49.180	0.101
567.200	-43.080	0.101
567.300	-40.092	0.101
567.400	-37.849	0.101
567.500	-49.561	0.101
567.600	-51.058	0.101
567.700	-48.756	0.101
567.800	-44.610	0.101
567.900	-44.742	0.101
568.000	-47.249	0.101
568.100	-40.117	0.101
568.200	-40.076	0.101
568.300	-46.596	0.101
568.400	-41.608	0.101
568.500	-38.259	0.101
568.600	-46.937	0.101
568.700	-54.164	0.101
568.800	-52.991	0.101
568.900	-46.945	0.101
569.000	-44.894	0.101
569.100	-37.555	0.101
569.200	-52.896	0.101
569.300	-63.763	0.101
569.400	-51.483	0.101
569.500	-40.371	0.101
569.600	-39.361	0.101
569.700	-45.236	0.101
569.800	-55.566	0.101
569.900	-44.607	0.101
570.000	-44.945	0.101
570.100	-52.003	0.101
570.200	-44.703	0.101
570.300	-43.016	0.101
570.400	-41.276	0.101
570.500	-48.805	0.101
570.600	-44.409	0.101
570.700	-49.037	0.101
570.800	-50.168	0.101
570.900	-63.471	0.101
571.000	-46.459	0.101
571.100	-53.224	0.101
571.200	-54.572	0.101
571.300	-50.408	0.101
571.400	-40.365	0.101
571.500	-42.598	0.101
571.600	-39.085	0.101
571.700	-51.453	0.101
571.800	-50.896	0.101
571.900	-59.180	0.101
572.000	-61.680	0.101
572.100	-54.049	0.101
572.200	-57.361	0.101
572.300	-56.120	0.101
572.400	-61.129	0.101
572.500	-53.939	0.101
572.600	-60.387	0.101
572.700	-58.221	0.101
572.800	-46.411	0.101
572.900	-43.976	0.101
573.000	-43.570	0.101
573.100	-47.646	0.101
573.200	-47.437	0.101
573.300	-53.668	0.101
573.400	-46.867	0.101
573.500	-40.990	0.101
573.600	-46.134	0.101
573.700	-57.434	0.101
573.800	-66.405	0.101
573.900	-54.555	0.101
574.000	-49.295	0.101
574.100	-47.641	0.101
574.200	-56.508	0.101
574.300	-52.743	0.101
574.400	-49.574	0.101
574.500	-59.904	0.101
574.600	-50.449	0.101
574.700	-43.599	0.101
574.800	-55.876	0.101
574.900	-60.877	0.101
575.000	-64.072	0.101
575.100	-53.521	0.101
575.200	-46.063	0.101
575.300	-43.308	0.101
575.400	-42.576	0.101
575.500	-53.726	0.101
575.600	-50.850	0.101
575.700	-61.656	0.101
575.800	-45.984	0.101
575.900	-54.634	0.101
576.000	-57.649	0.101
576.100	-55.133	0.101
576.200	-55.021	0.101
576.300	-59.741	0.101
576.400	-52.949	0.101
576.500	-51.576	0.101
576.600	-51.037	0.101
576.700	-64.720	0.101
576.800	-65.404	0.101
576.900	-62.660	0.101
577.000	-56.609	0.101
577.100	-45.799	0.101
577.200	-39.190	0.101
577.300	-42.933	0.101
577.400	-49.728	0.101
577.500	-41.079	0.101
577.600	-51.897	0.101
577.700	-48.042	0.101
577.800	-57.003	0.101
577.900	-69.345	0.101
578.000	-70.235	0.101
578.100	-55.489	0.101
578.200	-56.328	0.101
578.300	-57.880	0.101
578.400	-59.298	0.101
578.500	-61.835	0.101
578.600	-53.504	0.101
578.700	-47.264	0.101
578.800	-51.478	0.101
578.900	-53.721	0.101
579.000	-50.641	0.101
579.100	-59.570	0.101
579.200	-59.369	0.101
579.300	-54.174	0.101
579.400	-52.894	0.101
579.500	-53.507	0.101
579.600	-51.190	0.101
579.700	-52.533	0.101
579.800	-62.017	0.101
579.900	-38.889	0.101
580.000	-45.030	0.101
580.100	-52.630	0.101
580.200	-43.426	0.101
580.300	-51.082	0.101
580.400	-62.321	0.101
580.500	-53.197	0.101
580.600	-57.499	0.101
580.700	-57.391	0.101
580.800	-58.892	0.101
580.900	-61.286	0.101
581.000	-56.330	0.101
581.100	-61.863	0.101
581.200	-49.482	0.101
581.300	-52.849	0.101
581.400	-52.444	0.101
581.500	-45.457	0.101
581.600	-51.919	0.101
581.700	-55.702	0.101
581.800	-70.394	0.101
581.900	-65.702	0.101
582.000	-54.183	0.101
582.100	-55.681	0.101
582.200	-54.234	0.101
582.300	-55.498	0.101
582.400	-51.752	0.101
582.500	-54.624	0.101
582.600	-54.893	0.101
582.700	-55.990	0.101
582.800	-65.343	0.101
582.900	-55.040	0.101
583.000	-63.925	0.101
583.100	-62.931	0.101
583.200	-52.990	0.101
583.300	-46.085	0.101
583.400	-49.689	0.101
583.500	-49.788	0.101
583.600	-50.265	0.101
583.700	-59.049	0.101
583.800	-52.240	0.101
583.900	-61.130	0.101
584.000	-56.791	0.101
584.100	-61.397	0.101
584.200	-46.341	0.101
584.300	-37.279	0.101
584.400	-46.188	0.101
584.500	-57.688	0.101
584.600	-62.685	0.101
584.700	-61.679	0.101
584.800	-47.033	0.101
584.900	-44.730	0.101
585.000	-52.657	0.101
585.100	-51.411	0.101
585.200	-49.560	0.101
585.300	-45.130	0.101
585.400	-54.396	0.101
585.500	-50.386	0.101
585.600	-62.787	0.101
585.700	-53.359	0.101
585.800	-56.603	0.101
585.900	-55.285	0.101
586.000	-61.470	0.101
586.100	-65.705	0.101
586.200	-54.259	0.101
586.300	-60.137	0.101
586.400	-47.891	0.101
586.500	-55.756	0.101
586.600	-58.369	0.101
586.700	-52.641	0.101
586.800	-45.444	0.101
586.900	-58.083	0.101
587.000	-55.458	0.101
587.100	-58.298	0.101
587.200	-62.407	0.101
587.300	-60.025	0.101
587.400	-54.446	0.101
587.500	-57.881	0.101
587.600	-56.774	0.101
587.700	-58.746	0.101
587.800	-55.299	0.101
587.900	-61.416	0.101
588.000	-54.539	0.101
588.100	-51.937	0.101
588.200	-59.209	0.101
588.300	-62.463	0.101
588.400	-58.231	0.101
588.500	-54.483	0.101
588.600	-42.817	0.101
588.700	-51.322	0.101
588.800	-45.288	0.101
588.900	-35.223	0.101
589.000	-43.194	0.101
589.100	-58.865	0.101
589.200	-51.809	0.101
589.300	-54.995	0.101
589.400	-41.983	0.101
589.500	-50.765	0.101
589.600	-58.298	0.101
589.700	-59.510	0.101
589.800	-40.827	0.101
589.900	-59.541	0.101
590.000	-54.697	0.101
590.100	-46.883	0.101
590.200	-53.739	0.101
590.300	-58.731	0.101
590.400	-54.541	0.101
590.500	-48.147	0.101
590.600	-58.426	0.101
590.700	-52.698	0.101
590.800	-61.897	0.101
590.900	-63.899	0.101
591.000	-46.849	0.101
591.100	-61.066	0.101
591.200	-51.482	0.101
591.300	-57.008	0.101
591.400	-56.111	0.101
591.500	-49.352	0.101
591.600	-52.051	0.101
591.700	-56.333	0.101
591.800	-60.616	0.101
591.900	-41.320	0.101
592.000	-32.426	0.101
592.100	-41.557	0.101
592.200	-50.414	0.101
592.300	-57.676	0.101
592.400	-59.072	0.101
592.500	-61.065	0.101
592.600	-60.417	0.101
592.700	-49.751	0.101
592.800	-60.197	0.101
592.900	-54.485	0.101
593.000	-52.131	0.101
593.100	-65.362	0.101
593.200	-60.583	0.101
593.300	-44.246	0.101
593.400	-46.738	0.101
593.500	-49.619	0.101
593.600	-57.941	0.101
593.700	-56.787	0.101
593.800	-48.782	0.101
593.900	-58.375	0.101
594.000	-61.026	0.101
594.100	-54.686	0.101
594.200	-48.002	0.101
594.300	-44.858	0.101
594.400	-40.187	0.101
594.500	-47.945	0.101
594.600	-55.415	0.101
594.700	-58.243	0.101
594.800	-58.447	0.101
594.900	-49.927	0.101
595.000	-56.667	0.101
595.100	-68.798	0.101
595.200	-60.688	0.101
595.300	-57.597	0.101
595.400	-53.685	0.101
595.500	-51.513	0.101
595.600	-53.561	0.101
595.700	-56.242	0.101
595.800	-52.102	0.101
595.900	-44.670	0.101
596.000	-58.376	0.101
596.100	-46.093	0.101
596.200	-41.708	0.101
596.300	-44.054	0.101
596.400	-49.659	0.101
596.500	-44.267	0.101
596.600	-51.488	0.101
596.700	-46.448	0.101
596.800	-54.254	0.101
596.900	-47.009	0.101
597.000	-45.393	0.101
597.100	-57.453	0.101
597.200	-55.840	0.101
597.300	-64.353	0.101
597.400	-51.119	0.101
597.500	-62.051	0.101
597.600	-55.138	0.101
597.700	-57.038	0.101
597.800	-57.875	0.101
597.900	-61.692	0.101
598.000	-52.727	0.101
598.100	-50.818	0.101
598.200	-46.747	0.101
598.300	-54.156	0.101
598.400	-44.723	0.101
598.500	-48.844	0.101
598.600	-48.028	0.101
598.700	-42.105	0.101
598.800	-49.895	0.101
598.900	-49.127	0.101
599.000	-54.481	0.101
599.100	-49.492	0.101
599.200	-53.539	0.101
599.300	-42.481	0.101
599.400	-50.095	0.101
599.500	-49.804	0.101
599.600	-41.527	0.101
599.700	-50.957	0.101
599.800	-57.113	0.101
599.900	-59.291	0.101
600.000	-60.077	0.101
600.100	-59.204	0.101
600.200	-64.375	0.101
600.300	-52.667	0.101
600.400	-54.373	0.101
600.500	-47.844	0.101
600.600	-41.470	0.101
600.700	-46.850	0.101
600.800	-48.039	0.101
600.900	-51.645	0.101
601.000	-51.625	0.101
601.100	-45.269	0.101
601.200	-49.315	0.101
601.300	-71.733	0.101
601.400	-48.056	0.101
601.500	-45.883	0.101
601.600	-50.254	0.101
601.700	-47.506	0.101
601.800	-47.149	0.101
601.900	-47.216	0.101
602.000	-48.404	0.101
602.100	-51.668	0.101
602.200	-43.773	0.101
602.300	-46.314	0.101
602.400	-48.659	0.101
602.500	-52.802	0.101
602.600	-52.988	0.101
602.700	-43.268	0.101
602.800	-48.835	0.101
602.900	-52.173	0.101
603.000	-53.089	0.101
603.100	-50.845	0.101
603.200	-49.780	0.101
603.300	-61.131	0.101
603.400	-45.738	0.101
603.500	-51.556	0.101
603.600	-46.064	0.101
603.700	-40.101	0.101
603.800	-49.458	0.101
603.900	-45.036	0.101
604.000	-37.811	0.101
604.100	-46.238	0.101
604.200	-49.740	0.101
604.300	-55.904	0.101
604.400	-51.990	0.101
604.500	-46.710	0.101
604.600	-51.453	0.101
604.700	-51.407	0.101
604.800	-46.734	0.101
604.900	-53.083	0.101
605.000	-47.090	0.101
605.100	-50.181	0.101
605.200	-52.999	0.101
605.300	-56.306	0.101
605.400	-46.897	0.101
605.500	-52.845	0.101
605.600	-37.930	0.101
605.700	-48.617	0.101
605.800	-49.905	0.101
605.900	-52.475	0.101
606.000	-51.569	0.101
606.100	-51.088	0.101
606.200	-42.519	0.101
606.300	-42.323	0.101
606.400	-42.855	0.101
606.500	-41.631	0.101
606.600	-52.315	0.101
606.700	-53.445	0.101
606.800	-48.145	0.101
606.900	-46.044	0.101
607.000	-59.990	0.101
607.100	-55.639	0.101
607.200	-55.716	0.101
607.300	-52.405	0.101
607.400	-45.454	0.101
607.500	-50.648	0.101
607.600	-41.140	0.101
607.700	-44.843	0.101
607.800	-40.806	0.101
607.900	-43.657	0.101
608.000	-52.570	0.101
608.100	-56.788	0.101
608.200	-54.945	0.101
608.300	-53.397	0.101
608.400	-35.825	0.101
608.500	-41.760	0.101
608.600	-37.240	0.101
608.700	-46.785	0.101
608.800	-49.846	0.101
608.900	-48.879	0.101
609.000	-58.279	0.101
609.100	-49.365	0.101
609.200	-51.213	0.101
609.300	-47.823	0.101
609.400	-59.569	0.101
609.500	-42.917	0.101
609.600	-44.204	0.101
609.700	-49.162	0.101
609.800	-44.959	0.101
609.900	-57.605	0.101
610.000	-50.488	0.101
610.100	-59.573	0.101
610.200	-46.173	0.101
610.300	-47.211	0.101
610.400	-38.279	0.101
610.500	-50.644	0.101
610.600	-43.127	0.101
610.700	-53.755	0.101
610.800	-46.967	0.101
610.900	-44.853	0.101
611.000	-52.094	0.101
611.100	-58.432	0.101
611.200	-57.030	0.101
611.300	-44.341	0.101
611.400	-45.672	0.101
611.500	-43.046	0.101
611.600	-41.596	0.101
611.700	-50.757	0.101
611.800	-38.040	0.101
611.900	-45.780	0.101
612.000	-40.402	0.101
612.100	-49.099	0.101
612.200	-33.953	0.101
612.300	-40.836	0.101
612.400	-44.845	0.101
612.500	-50.007	0.101
612.600	-53.438	0.101
612.700	-39.369	0.101
612.800	-41.762	0.101
612.900	-52.211	0.101
613.000	-56.471	0.101
613.100	-63.460	0.101
613.200	-48.810	0.101
613.300	-54.188	0.101
613.400	-39.834	0.101
613.500	-38.057	0.101
613.600	-47.744	0.101
613.700	-39.637	0.101
613.800	-45.486	0.101
613.900	-42.673	0.101
614.000	-50.772	0.101
614.100	-62.415	0.101
614.200	-43.581	0.101
614.300	-41.251	0.101
614.400	-39.936	0.101
614.500	-43.407	0.101
614.600	-43.019	0.101
614.700	-54.644	0.101
614.800	-41.068	0.101
614.900	-53.186	0.101
615.000	-53.839	0.101
615.100	-41.383	0.101
615.200	-43.552	0.101
615.300	-55.305	0.101
615.400	-49.904	0.101
615.500	-41.028	0.101
615.600	-46.966	0.101
615.700	-43.561	0.101
615.800	-38.777	0.101
615.900	-50.580	0.101
616.000	-48.875	0.101
616.100	-38.148	0.101
616.200	-49.952	0.101
616.300	-50.314	0.101
616.400	-42.706	0.101
616.500	-42.192	0.101
616.600	-40.096	0.101
616.700	-36.503	0.101
616.800	-42.309	0.101
616.900	-43.506	0.101
617.000	-49.926	0.101
617.100	-57.008	0.101
617.200	-59.691	0.101
617.300	-33.401	0.101
617.400	-36.391	0.101
617.500	-43.538	0.101
617.600	-40.531	0.101
617.700	-39.621	0.101
617.800	-43.463	0.101
617.900	-35.754	0.101
618.000	-43.917	0.101
618.100	-44.073	0.101
618.200	-54.821	0.101
618.300	-43.931	0.101
618.400	-46.359	0.101
618.500	-48.760	0.101
618.600	-38.839	0.101
618.700	-49.206	0.101
618.800	-43.041	0.101
618.900	-35.936	0.101
619.000	-37.166	0.101
619.100	-30.486	0.101
619.200	-45.393	0.101
619.300	-30.122	0.101
619.400	-36.061	0.101
619.500	-35.644	0.101
619.600	-52.506	0.101
619.700	-43.921	0.101
619.800	-36.739	0.101
619.900	-46.968	0.101
620.000	-58.599	0.101
620.100	-47.143	0.101
620.200	-48.452	0.101
620.300	-49.150	0.101
620.400	-52.401	0.101
620.500	-50.389	0.101
620.600	-47.223	0.101
620.700	-39.003	0.101
620.800	-45.323	0.101
620.900	-47.951	0.101
621.000	-46.096	0.101
621.100	-50.891	0.101
621.200	-52.036	0.101
621.300	-46.109	0.101
621.400	-49.427	0.101
621.500	-48.232	0.101
621.600	-43.594	0.101
621.700	-43.366	0.101
621.800	-39.912	0.101
621.900	-38.283	0.101
622.000	-34.139	0.101
622.100	-40.253	0.101
622.200	-55.502	0.101
622.300	-57.586	0.101
622.400	-42.497	0.101
622.500	-40.508	0.101
622.600	-47.375	0.101
622.700	-41.884	0.101
622.800	-48.577	0.101
622.900	-42.927	0.101
623.000	-47.818	0.101
623.100	-40.076	0.101
623.200	-42.612	0.101
623.300	-51.536	0.101
623.400	-47.113	0.101
623.500	-33.635	0.101
623.600	-37.263	0.101
623.700	-46.752	0.101
623.800	-47.542	0.101
623.900	-60.190	0.101
624.000	-42.314	0.101
624.100	-56.114	0.101
624.200	-54.619	0.101
624.300	-37.781	0.101
624.400	-45.678	0.101
624.500	-51.382	0.101
624.600	-47.982	0.101
624.700	-41.913	0.101
624.800	-34.423	0.101
624.900	-36.639	0.101
625.000	-35.191	0.101
625.100	-27.364	0.101
625.200	-33.907	0.101
625.300	-41.479	0.101
625.400	-43.400	0.101
625.500	-38.900	0.101
625.600	-51.617	0.101
625.700	-45.513	0.101
625.800	-46.545	0.101
625.900	-45.647	0.101
626.000	-51.513	0.101
626.100	-45.586	0.101
626.200	-38.321	0.101
626.300	-40.269	0.101
626.400	-44.157	0.101
626.500	-48.683	0.101
626.600	-34.853	0.101
626.700	-39.933	0.101
626.800	-38.051	0.101
626.900	-51.118	0.101
627.000	-35.080	0.101
627.100	-47.103	0.101
627.200	-53.012	0.101
627.300	-49.041	0.101
627.400	-47.161	0.101
627.500	-35.319	0.101
627.600	-44.347	0.101
627.700	-28.833	0.101
627.800	-35.955	0.101
627.900	-33.347	0.101
628.000	-42.614	0.101
628.100	-50.801	0.101
628.200	-49.323	0.101
628.300	-43.727	0.101
628.400	-44.434	0.101
628.500	-41.641	0.101
628.600	-37.762	0.101
628.700	-47.187	0.101
628.800	-41.561	0.101
628.900	-50.864	0.101
629.000	-53.393	0.101
629.100	-55.305	0.101
629.200	-35.929	0.101
629.300	-36.285	0.101
629.400	-30.937	0.101
629.500	-42.079	0.101
629.600	-32.949	0.101
629.700	-44.834	0.101
629.800	-24.964	0.101
629.900	-39.625	0.101
630.000	-31.284	0.101
630.100	-38.383	0.101
630.200	-42.030	0.101
630.300	-48.245	0.101
630.400	-40.676	0.101
630.500	-44.423	0.101
630.600	-24.578	0.101
630.700	-29.183	0.101
630.800	-33.687	0.101
630.900	-22.614	0.101
631.000	-17.634	0.101
631.100	-11.716	0.101
631.200	-0.333	0.101
631.300	-6.867	0.101
631.400	-2.311	0.101
631.500	4.944	0.101
631.600	6.977	0.101
631.700	7.140	0.101
631.800	4.439	0.101
631.900	22.371	0.101
632.000	21.638	0.101
632.100	16.600	0.101
632.200	15.891	0.101
632.300	17.003	0.101
632.400	25.524	0.101
632.500	21.733	0.101
632.600	29.357	0.101
632.700	23.439	0.101
632.800	24.961	0.101
632.900	20.190	0.101
633.000	34.975	0.101
633.100	30.114	0.101
633.200	32.783	0.101
633.300	37.763	0.101
633.400	23.876	0.101
633.500	25.823	0.101
633.600	19.897	0.101
633.700	25.811	0.101
633.800	31.632	0.101
633.900	26.472	0.101
634.000	40.099	0.101
634.100	36.933	0.101
634.200	36.284	0.101
634.300	32.928	0.101
634.400	21.506	0.101
634.500	22.247	0.101
634.600	17.264	0.101
634.700	34.575	0.101
634.800	22.620	0.101
634.900	26.883	0.101
635.000	20.767	0.101
635.100	18.555	0.101
635.200	17.834	0.101
635.300	18.078	0.101
635.400	27.700	0.101
635.500	23.907	0.101
635.600	20.641	0.101
635.700	16.206	0.101
635.800	20.899	0.101
635.900	26.423	0.101
636.000	24.930	0.101
636.100	33.210	0.101
636.200	23.612	0.101
636.300	33.943	0.101
636.400	26.047	0.101
636.500	22.742	0.101
636.600	16.506	0.101
636.700	26.307	0.101
636.800	32.363	0.101
636.900	33.027	0.101
637.000	27.571	0.101
637.100	25.967	0.101
637.200	26.393	0.101
637.300	23.008	0.101
637.400	30.981	0.101
637.500	21.289	0.101
637.600	29.558	0.101
637.700	34.586	0.101
637.800	28.059	0.101
637.900	40.181	0.101
638.000	38.090	0.101
638.100	28.140	0.101
638.200	23.828	0.101
638.300	27.735	0.101
638.400	24.723	0.101
638.500	20.805	0.101
638.600	30.953	0.101
638.700	27.911	0.101
638.800	29.052	0.101
638.900	34.019	0.101
639.000	35.243	0.101
639.100	38.634	0.101
639.200	45.258	0.101
639.300	30.296	0.101
639.400	27.724	0.101
639.500	24.011	0.101
639.600	26.408	0.101
639.700	35.490	0.101
639.800	35.420	0.101
639.900	47.410	0.101
640.000	40.095	0.101
640.100	35.283	0.101
640.200	38.704	0.101
640.300	24.675	0.101
640.400	43.061	0.101
640.500	39.417	0.101
640.600	35.827	0.101
640.700	46.250	0.101
640.800	43.670	0.101
640.900	38.358	0.101
641.000	42.802	0.101
641.100	45.012	0.101
641.200	41.919	0.101
641.300	44.237	0.101
641.400	38.339	0.101
641.500	39.718	0.101
641.600	42.702	0.101
641.700	50.952	0.101
641.800	47.471	0.101
641.900	51.342	0.101
642.000	54.017	0.101
642.100	52.056	0.101
642.200	59.830	0.101
642.300	49.534	0.101
642.400	38.664	0.101
642.500	35.633	0.101
642.600	45.936	0.101
642.700	44.288	0.101
642.800	47.651	0.101
642.900	47.350	0.101
643.000	48.498	0.101
643.100	56.164	0.101
643.200	61.390	0.101
643.300	58.904	0.101
643.400	61.888	0.101
643.500	64.414	0.101
643.600	63.630	0.101
643.700	54.477	0.101
643.800	48.807	0.101
643.900	58.453	0.101
644.000	58.601	0.101
644.100	53.392	0.101
644.200	64.560	0.101
644.300	78.356	0.101
644.400	61.198	0.101
644.500	61.553	0.101
644.600	61.797	0.101
644.700	65.832	0.101
644.800	72.992	0.101
644.900	66.568	0.101
645.000	72.769	0.101
645.100	72.968	0.101
645.200	73.395	0.101
645.300	79.075	0.101
645.400	65.384	0.101
645.500	72.574	0.101
645.600	74.517	0.101
645.700	83.957	0.101
645.800	82.143	0.101
645.900	91.622	0.101
646.000	92.182	0.101
646.100	86.350	0.101
646.200	76.264	0.101
646.300	81.178	0.101
646.400	82.549	0.101
646.500	87.402	0.101
646.600	84.593	0.101
646.700	91.558	0.101
646.800	95.271	0.101
646.900	93.263	0.101
647.000	90.098	0.101
647.100	90.650	0.101
647.200	99.402	0.101
647.300	92.130	0.101
647.400	104.989	0.101
647.500	89.891	0.101
647.600	87.320	0.101
647.700	90.836	0.101
647.800	100.169	0.101
647.900	94.328	0.101
648.000	96.575	0.101
648.100	95.212	0.101
648.200	99.270	0.101
648.300	106.348	0.101
648.400	102.165	0.101
648.500	108.368	0.101
648.600	108.747	0.101
648.700	101.298	0.101
648.800	118.630	0.101
648.900	118.072	0.101
649.000	101.285	0.101
649.100	104.268	0.101
649.200	119.779	0.101
649.300	107.846	0.101
649.400	107.983	0.101
649.500	104.646	0.101
649.600	108.412	0.101
649.700	118.758	0.101
649.800	109.826	0.101
649.900	128.019	0.101
650.000	128.229	0.101
650.100	121.000	0.101
650.200	114.835	0.101
650.300	126.385	0.101
650.400	109.267	0.101
650.500	119.637	0.101
650.600	116.896	0.101
650.700	117.277	0.101
650.800	107.734	0.101
650.900	126.178	0.101
651.000	117.715	0.101
651.100	119.131	0.101
651.200	113.558	0.101
651.300	122.924	0.101
651.400	123.935	0.101
651.500	136.180	0.101
651.600	126.792	0.101
651.700	119.879	0.101
651.800	116.846	0.101
651.900	121.464	0.101
652.000	126.311	0.101
652.100	123.962	0.101
652.200	123.449	0.101
652.300	124.622	0.101
652.400	122.583	0.101
652.500	125.563	0.101
652.600	131.884	0.101
652.700	140.761	0.101
652.800	132.280	0.101
652.900	130.200	0.101
653.000	116.813	0.101
653.100	116.727	0.101
653.200	111.824	0.101
653.300	122.673	0.101
653.400	132.887	0.101
653.500	129.230	0.101
653.600	126.053	0.101
653.700	119.755	0.101
653.800	112.312	0.101
653.900	122.093	0.101
654.000	134.330	0.101
654.100	131.472	0.101
654.200	123.092	0.101
654.300	125.180	0.101
654.400	123.704	0.101
654.500	111.450	0.101
654.600	115.832	0.101
654.700	125.866	0.101
654.800	115.636	0.101
654.900	121.678	0.101
655.000	121.609	0.101
655.100	112.014	0.101
655.200	118.633	0.101
655.300	125.025	0.101
655.400	109.698	0.101
655.500	118.518	0.101
655.600	123.166	0.101
655.700	124.049	0.101
655.800	119.598	0.101
655.900	126.393	0.101
656.000	125.376	0.101
656.100	127.213	0.101
656.200	113.177	0.101
656.300	136.589	0.101
656.400	124.970	0.101
656.500	120.520	0.101
656.600	124.305	0.101
656.700	122.125	0.101
656.800	124.627	0.101
656.900	128.872	0.101
657.000	127.239	0.101
657.100	119.732	0.101
657.200	127.607	0.101
657.300	121.920	0.101
657.400	117.349	0.101
657.500	114.368	0.101
657.600	113.383	0.101
657.700	118.479	0.101
657.800	118.791	0.101
657.900	125.119	0.101
658.000	123.163	0.101
658.100	132.528	0.101
658.200	132.166	0.101
658.300	122.970	0.101
658.400	113.145	0.101
658.500	117.723	0.101
658.600	119.182	0.101
658.700	109.956	0.101
658.800	121.635	0.101
658.900	120.555	0.101
659.000	114.731	0.101
659.100	111.794	0.101
659.200	114.057	0.101
659.300	110.682	0.101
659.400	109.442	0.101
659.500	123.154	0.101
659.600	121.091	0.101
659.700	111.340	0.101
659.800	112.427	0.101
659.900	112.182	0.101
660.000	113.551	0.101
660.100	117.020	0.101
660.200	127.677	0.101
660.300	130.183	0.101
660.400	121.196	0.101
660.500	118.732	0.101
660.600	112.197	0.101
660.700	120.721	0.101
660.800	114.533	0.101
660.900	123.135	0.101
661.000	123.154	0.101
661.100	116.968	0.101
661.200	115.392	0.101
661.300	120.052	0.101
661.400	114.654	0.101
661.500	108.294	0.101
661.600	123.462	0.101
661.700	111.616	0.101
661.800	105.242	0.101
661.900	111.653	0.101
662.000	112.538	0.101
662.100	112.409	0.101
662.200	113.509	0.101
662.300	110.397	0.101
662.400	116.500	0.101
662.500	115.305	0.101
662.600	117.736	0.101
662.700	121.708	0.101
662.800	111.689	0.101
662.900	117.775	0.101
663.000	116.508	0.101
663.100	115.570	0.101
663.200	112.536	0.101
663.300	110.302	0.101
663.400	116.022	0.101
663.500	119.749	0.101
663.600	121.705	0.101
663.700	122.870	0.101
663.800	111.604	0.101
663.900	111.133	0.101
664.000	113.435	0.101
664.100	116.753	0.101
664.200	120.020	0.101
664.300	110.995	0.101
664.400	115.998	0.101
664.500	119.570	0.101
664.600	109.186	0.101
664.700	113.958	0.101
664.800	113.886	0.101
664.900	107.032	0.101
665.000	122.350	0.101
665.100	105.021	0.101
665.200	104.121	0.101
665.300	110.180	0.101
665.400	112.821	0.101
665.500	118.874	0.101
665.600	129.233	0.101
665.700	125.812	0.101
665.800	126.088	0.101
665.900	129.936	0.101
666.000	125.672	0.101
666.100	117.212	0.101
666.200	117.557	0.101
666.300	116.750	0.101
666.400	109.534	0.101
666.500	114.148	0.101
666.600	120.392	0.101
666.700	108.502	0.101
666.800	115.019	0.101
666.900	123.907	0.101
667.000	107.934	0.101
667.100	104.569	0.101
667.200	108.815	0.101
667.300	110.680	0.101
667.400	116.518	0.101
667.500	116.573	0.101
667.600	114.254	0.101
667.700	121.923	0.101
667.800	114.883	0.101
667.900	111.934	0.101
668.000	109.176	0.101
668.100	111.727	0.101
668.200	124.020	0.101
668.300	115.846	0.101
668.400	113.995	0.101
668.500	116.232	0.101
668.600	119.366	0.101
668.700	121.092	0.101
668.800	126.279	0.101
668.900	123.632	0.101
669.000	119.427	0.101
669.100	110.287	0.101
669.200	116.243	0.101
669.300	107.030	0.101
669.400	113.845	0.101
669.500	111.206	0.101
669.600	105.083	0.101
669.700	115.265	0.101
669.800	118.499	0.101
669.900	121.158	0.101
670.000	125.994	0.101
670.100	115.045	0.101
670.200	111.936	0.101
670.300	111.686	0.101
670.400	107.187	0.101
670.500	114.551	0.101
670.600	107.632	0.101
670.700	122.390	0.101
670.800	111.076	0.101
670.900	114.688	0.101
671.000	117.948	0.101
671.100	107.999	0.101
671.200	106.869	0.101
671.300	101.608	0.101
671.400	119.392	0.101
671.500	118.433	0.101
671.600	111.773	0.101
671.700	113.734	0.101
671.800	113.642	0.101
671.900	112.720	0.101
672.000	108.413	0.101
672.100	110.417	0.101
672.200	106.137	0.101
672.300	120.256	0.101
672.400	111.117	0.101
672.500	124.367	0.101
672.600	127.639	0.101
672.700	131.725	0.101
672.800	125.553	0.101
672.900	117.591	0.101
673.000	110.213	0.101
673.100	120.958	0.101
673.200	123.492	0.101
673.300	119.463	0.101
673.400	117.828	0.101
673.500	115.694	0.101
673.600	101.120	0.101
673.700	116.182	0.101
673.800	109.916	0.101
673.900	105.244	0.101
674.000	117.735	0.101
674.100	112.719	0.101
674.200	118.519	0.101
674.300	119.928	0.101
674.400	113.846	0.101
674.500	111.413	0.101
674.600	117.434	0.101
674.700	118.986	0.101
674.800	119.924	0.101
674.900	127.035	0.101
675.000	115.592	0.101
675.100	102.733	0.101
675.200	107.331	0.101
675.300	115.142	0.101
675.400	118.071	0.101
675.500	108.562	0.101
675.600	113.441	0.101
675.700	116.937	0.101
675.800	109.019	0.101
675.900	108.105	0.101
676.000	105.144	0.101
676.100	119.223	0.101
676.200	110.013	0.101
676.300	103.062	0.101
676.400	101.358	0.101
676.500	115.112	0.101
676.600	116.147	0.101
676.700	114.680	0.101
676.800	128.010	0.101
676.900	126.113	0.101
677.000	119.364	0.101
677.100	112.591	0.101
677.200	99.927	0.101
677.300	107.341	0.101
677.400	112.639	0.101
677.500	111.830	0.101
677.600	109.504	0.101
677.700	101.655	0.101
677.800	119.507	0.101
677.900	108.081	0.101
678.000	114.833	0.101
678.100	116.248	0.101
678.200	114.611	0.101
678.300	115.456	0.101
678.400	105.415	0.101
678.500	118.773	0.101
678.600	116.407	0.101
678.700	108.917	0.101
678.800	111.211	0.101
678.900	121.174	0.101
679.000	120.061	0.101
679.100	118.924	0.101
679.200	113.069	0.101
679.300	104.302	0.101
679.400	118.751	0.101
679.500	111.492	0.101
679.600	112.051	0.101
679.700	106.576	0.101
679.800	99.799	0.101
679.900	109.120	0.101
680.000	110.444	0.101
680.100	114.476	0.101
680.200	109.968	0.101
680.300	118.156	0.101
680.400	116.106	0.101
680.500	107.958	0.101
680.600	107.843	0.101
680.700	106.124	0.101
680.800	111.446	0.101
680.900	103.106	0.101
681.000	111.523	0.101
681.100	114.035	0.101
681.200	116.789	0.101
681.300	113.417	0.101
681.400	121.049	0.101
681.500	116.439	0.101
681.600	115.143	0.101
681.700	108.808	0.101
681.800	112.573	0.101
681.900	117.749	0.101
682.000	104.371	0.101
682.100	105.986	0.101
682.200	110.945	0.101
682.300	113.107	0.101
682.400	117.490	0.101
682.500	115.490	0.101
682.600	108.415	0.101
682.700	105.611	0.101
682.800	110.324	0.101
682.900	100.944	0.101
683.000	101.679	0.101
683.100	108.463	0.101
683.200	118.384	0.101
683.300	112.634	0.101
683.400	114.929	0.101
683.500	124.880	0.101
683.600	115.162	0.101
683.700	115.337	0.101
683.800	124.034	0.101
683.900	104.704	0.101
684.000	100.435	0.101
684.100	96.110	0.101
684.200	106.944	0.101
684.300	116.513	0.101
684.400	113.609	0.101
684.500	100.881	0.101
684.600	105.753	0.101
684.700	109.649	0.101
684.800	106.558	0.101
684.900	110.756	0.101
685.000	109.869	0.101
685.100	124.688	0.101
685.200	126.483	0.101
685.300	106.214	0.101
685.400	97.069	0.101
685.500	107.688	0.101
685.600	113.427	0.101
685.700	110.216	0.101
685.800	110.354	0.101
685.900	107.564	0.101
686.000	111.753	0.101
686.100	111.724	0.101
686.200	107.485	0.101
686.300	107.680	0.101
686.400	111.054	0.101
686.500	109.510	0.101
686.600	104.915	0.101
686.700	95.037	0.101
686.800	94.134	0.101
686.900	106.359	0.101
687.000	116.176	0.101
687.100	119.549	0.101
687.200	108.556	0.101
687.300	108.864	0.101
687.400	107.923	0.101
687.500	112.826	0.101
687.600	107.332	0.101
687.700	125.808	0.101
687.800	126.332	0.101
687.900	110.191	0.101
688.000	107.160	0.101
688.100	108.758	0.101
688.200	118.645	0.101
688.300	103.719	0.101
688.400	105.805	0.101
688.500	105.395	0.101
688.600	114.231	0.101
688.700	102.294	0.101
688.800	110.757	0.101
688.900	117.230	0.101
689.000	106.913	0.101
689.100	107.541	0.101
689.200	107.537	0.101
689.300	120.465	0.101
689.400	119.242	0.101
689.500	107.271	0.101
689.600	111.588	0.101
689.700	104.200	0.101
689.800	110.794	0.101
689.900	109.909	0.101
690.000	109.321	0.101
690.100	117.912	0.101
690.200	110.236	0.101
690.300	112.720	0.101
690.400	103.236	0.101
690.500	109.572	0.101
690.600	86.237	0.101
690.700	83.252	0.101
690.800	94.183	0.101
690.900	83.497	0.101
691.000	78.577	0.101
691.100	70.654	0.101
691.200	70.095	0.101
691.300	68.160	0.101
691.400	73.970	0.101
691.500	67.361	0.101
691.600	61.878	0.101
691.700	52.912	0.101
691.800	50.101	0.101
691.900	46.634	0.101
692.000	51.966	0.101
692.100	42.805	0.101
692.200	47.802	0.101
692.300	33.191	0.101
692.400	32.198	0.101
692.500	30.777	0.101
692.600	17.703	0.101
692.700	24.961	0.101
692.800	33.783	0.101
692.900	24.836	0.101
693.000	20.288	0.101
693.100	26.934	0.101
693.200	28.229	0.101
693.300	26.021	0.101
693.400	15.606	0.101
693.500	1.201	0.101
693.600	14.263	0.101
693.700	4.407	0.101
693.800	7.626	0.101
693.900	11.710	0.101
694.000	8.160	0.101
694.100	11.774	0.101
694.200	3.268	0.101
694.300	8.107	0.101
694.400	15.925	0.101
694.500	14.376	0.101
694.600	7.260	0.101
694.700	5.984	0.101
694.800	6.975	0.101
694.900	9.263	0.101
695.000	18.653	0.101
695.100	11.727	0.101
695.200	-1.204	0.101
695.300	-2.425	0.101
695.400	-3.038	0.101
695.500	-2.872	0.101
695.600	-11.296	0.101
695.700	2.670	0.101
695.800	3.874	0.101
695.900	4.732	0.101
696.000	-2.854	0.101
696.100	-0.670	0.101
696.200	3.220	0.101
696.300	1.435	0.101
696.400	7.672	0.101
696.500	3.242	0.101
696.600	-6.831	0.101
696.700	-8.643	0.101
696.800	1.125	0.101
696.900	-7.654	0.101
697.000	2.406	0.101
697.100	3.227	0.101
697.200	-2.875	0.101
697.300	-2.737	0.101
697.400	-6.188	0.101
697.500	-6.937	0.101
697.600	-2.288	0.101
697.700	2.947	0.101
697.800	4.605	0.101
697.900	-10.274	0.101
698.000	-8.299	0.101
698.100	1.715	0.101
698.200	-16.957	0.101
698.300	-4.103	0.101
698.400	-7.558	0.101
698.500	-9.907	0.101
698.600	-12.928	0.101
698.700	-7.876	0.101
698.800	-8.324	0.101
698.900	-5.157	0.101
699.000	-5.382	0.101
699.100	-9.617	0.101
699.200	-0.065	0.101
699.300	1.950	0.101
699.400	-8.024	0.101
699.500	-12.788	0.101
699.600	-5.830	0.101
699.700	-11.078	0.101
699.800	-18.670	0.101
699.900	-11.447	0.101
700.000	-16.639	0.101
700.100	-12.196	0.101
700.200	-13.146	0.101
700.300	-5.417	0.101
700.400	-6.031	0.101
700.500	-13.968	0.101
700.600	-7.429	0.101
700.700	-6.576	0.101
700.800	-5.412	0.101
700.900	-12.961	0.101
701.000	-17.786	0.101
701.100	-7.735	0.101
701.200	-11.194	0.101
701.300	-15.214	0.101
701.400	-14.839	0.101
701.500	-18.405	0.101
701.600	-22.977	0.101
701.700	-6.636	0.101
701.800	-10.094	0.101
701.900	-10.297	0.101
702.000	-6.160	0.101
702.100	-15.715	0.101
702.200	-16.406	0.101
702.300	-21.437	0.101
702.400	-38.549	0.101
702.500	-19.485	0.101
702.600	-15.371	0.101
702.700	-9.316	0.101
702.800	-15.337	0.101
702.900	-16.257	0.101
703.000	-8.522	0.101
703.100	-16.912	0.101
703.200	-19.316	0.101
703.300	-26.427	0.101
703.400	-32.132	0.101
703.500	-31.094	0.101
703.600	-19.461	0.101
703.700	-12.795	0.101
703.800	-27.742	0.101
703.900	-22.860	0.101
704.000	-21.658	0.101
704.100	-24.254	0.101
704.200	-22.130	0.101
704.300	-23.753	0.101
704.400	-24.039	0.101
704.500	-26.403	0.101
704.600	-26.665	0.101
704.700	-33.972	0.101
704.800	-30.889	0.101
704.900	-32.069	0.101
705.000	-27.881	0.101
705.100	-20.060	0.100
705.200	-33.196	0.101
705.300	-30.740	0.101
705.400	-27.496	0.101
705.500	-16.889	0.101
705.600	-24.033	0.101
705.700	-10.836	0.101
705.800	-18.702	0.101
705.900	-20.707	0.101
706.000	-27.111	0.101
706.100	-21.367	0.101
706.200	-22.678	0.101
706.300	-19.967	0.101
706.400	-26.663	0.101
706.500	-25.740	0.101
706.600	-33.728	0.101
706.700	-21.203	0.101
706.800	-22.383	0.101
706.900	-20.494	0.101
707.000	-19.912	0.101
707.100	-25.238	0.101
707.200	-25.548	0.101
707.300	-29.307	0.101
707.400	-25.996	0.101
707.500	-26.691	0.101
707.600	-37.936	0.101
707.700	-30.599	0.101
707.800	-36.186	0.101
707.900	-34.929	0.101
708.000	-29.877	0.101
708.100	-26.715	0.101
708.200	-22.555	0.101
708.300	-34.593	0.101
708.400	-31.121	0.101
708.500	-29.397	0.101
708.600	-20.543	0.101
708.700	-24.798	0.101
708.800	-28.674	0.101
708.900	-33.059	0.101
709.000	-33.678	0.101
709.100	-29.322	0.101
709.200	-27.718	0.101
709.300	-38.096	0.101
709.400	-28.017	0.101
709.500	-46.887	0.101
709.600	-28.006	0.101
709.700	-42.588	0.101
709.800	-34.240	0.100
709.900	-40.441	0.101
710.000	-36.570	0.101
710.100	-31.184	0.101
710.200	-26.592	0.101
710.300	-38.642	0.101
710.400	-48.276	0.101
710.500	-41.965	0.101
710.600	-30.159	0.101
710.700	-43.421	0.101
710.800	-35.385	0.101
710.900	-40.115	0.101
711.000	-43.784	0.101
711.100	-39.897	0.101
711.200	-50.699	0.101
711.300	-41.887	0.101
711.400	-31.831	0.101
711.500	-24.719	0.101
711.600	-37.167	0.101
711.700	-43.261	0.101
711.800	-44.609	0.100
711.900	-33.703	0.101
712.000	-34.648	0.101
712.100	-44.137	0.101
712.200	-48.916	0.101
712.300	-41.729	0.101
712.400	-43.885	0.101
712.500	-20.586	0.101
712.600	-22.067	0.101
712.700	-34.189	0.101
712.800	-32.658	0.100
712.900	-30.927	0.101
713.000	-44.699	0.101
713.100	-35.593	0.101
713.200	-41.311	0.101
713.300	-58.973	0.101
713.400	-52.663	0.101
713.500	-47.638	0.101
713.600	-50.145	0.101
713.700	-28.447	0.101
713.800	-39.761	0.101
713.900	-33.339	0.101
714.000	-45.507	0.101
714.100	-42.525	0.101
714.200	-45.034	0.101
714.300	-40.238	0.101
714.400	-31.118	0.101
714.500	-40.396	0.101
714.600	-39.492	0.101
714.700	-57.596	0.101
714.800	-47.598	0.101
714.900	-48.148	0.101
715.000	-42.931	0.101
715.100	-48.502	0.101
715.200	-47.186	0.101
715.300	-45.988	0.101
715.400	-46.728	0.101
715.500	-42.606	0.101
715.600	-46.968	0.101
715.700	-39.197	0.101
715.800	-45.014	0.101
715.900	-39.596	0.101
716.000	-43.477	0.101
716.100	-47.884	0.101
716.200	-43.975	0.101
716.300	-53.429	0.101
716.400	-45.328	0.101
716.500	-44.291	0.101
716.600	-43.233	0.101
716.700	-49.054	0.101
716.800	-54.446	0.101
716.900	-46.093	0.101
717.000	-50.019	0.101
717.100	-57.302	0.101
717.200	-55.333	0.101
717.300	-55.495	0.101
717.400	-56.321	0.101
717.500	-44.814	0.101
717.600	-39.321	0.101
717.700	-55.764	0.101
717.800	-54.964	0.101
717.900	-50.439	0.101
718.000	-47.222	0.101
718.100	-40.813	0.101
718.200	-53.612	0.101
718.300	-57.732	0.101
718.400	-43.588	0.101
718.500	-39.502	0.101
718.600	-54.945	0.101
718.700	-50.346	0.101
718.800	-55.246	0.101
718.900	-48.448	0.101
719.000	-44.511	0.101
719.100	-45.667	0.101
719.200	-52.203	0.101
719.300	-60.350	0.101
719.400	-49.645	0.101
719.500	-47.378	0.101
719.600	-54.103	0.101
719.700	-49.860	0.101
719.800	-38.682	0.101
719.900	-37.739	0.101
720.000	-35.491	0.101
720.100	-47.759	0.101
720.200	-51.412	0.101
720.300	-68.037	0.101
720.400	-51.700	0.101
720.500	-51.676	0.101
720.600	-59.548	0.101
720.700	-50.996	0.101
720.800	-49.299	0.101
720.900	-56.311	0.101
721.000	-54.971	0.101
721.100	-51.333	0.101
721.200	-61.099	0.101
721.300	-57.124	0.101
721.400	-55.286	0.101
721.500	-48.815	0.101
721.600	-50.080	0.101
721.700	-55.758	0.101
721.800	-65.389	0.101
721.900	-58.516	0.101
722.000	-51.171	0.101
722.100	-57.238	0.101
722.200	-46.134	0.101
722.300	-55.900	0.101
722.400	-49.847	0.101
722.500	-61.151	0.101
722.600	-55.590	0.101
722.700	-61.175	0.101
722.800	-52.875	0.101
722.900	-54.233	0.100
723.000	-44.016	0.101
723.100	-42.570	0.101
723.200	-54.006	0.101
723.300	-46.243	0.101
723.400	-45.188	0.101
723.500	-52.145	0.101
723.600	-51.636	0.101
723.700	-59.718	0.101
723.800	-55.764	0.101
723.900	-73.146	0.101
724.000	-61.181	0.101
724.100	-48.764	0.101
724.200	-57.824	0.101
724.300	-49.255	0.101
724.400	-55.813	0.101
724.500	-57.468	0.101
724.600	-60.942	0.101
724.700	-49.608	0.101
724.800	-59.254	0.101
724.900	-62.636	0.101
725.000	-59.765	0.101
725.100	-48.457	0.101
725.200	-50.447	0.101
725.300	-60.919	0.101
725.400	-56.976	0.101
725.500	-60.026	0.101
725.600	-64.838	0.101
725.700	-68.882	0.101
725.800	-55.223	0.101
725.900	-52.253	0.101
726.000	-46.651	0.101
726.100	-55.851	0.101
726.200	-64.781	0.101
726.300	-54.295	0.101
726.400	-66.967	0.101
726.500	-50.962	0.101
726.600	-60.015	0.101
726.700	-50.090	0.101
726.800	-55.674	0.101
726.900	-46.275	0.101
727.000	-55.068	0.101
727.100	-55.535	0.101
727.200	-59.223	0.101
727.300	-58.156	0.101
727.400	-58.570	0.101
727.500	-66.828	0.101
727.600	-57.788	0.101
727.700	-60.083	0.101
727.800	-53.561	0.101
727.900	-60.487	0.101
728.000	-58.228	0.101
728.100	-57.185	0.101
728.200	-66.189	0.101
728.300	-56.031	0.101
728.400	-65.342	0.101
728.500	-62.762	0.101
728.600	-53.489	0.101
728.700	-49.605	0.101
728.800	-57.224	0.101
728.900	-56.602	0.101
729.000	-63.153	0.101
729.100	-54.364	0.101
729.200	-54.093	0.101
729.300	-60.765	0.101
729.400	-59.195	0.101
729.500	-49.567	0.101
729.600	-65.467	0.101
729.700	-62.523	0.101
729.800	-47.141	0.100
729.900	-56.662	0.101
730.000	-57.845	0.101
730.100	-64.172	0.101
730.200	-62.908	0.101
730.300	-76.265	0.101
730.400	-63.596	0.101
730.500	-57.705	0.101
730.600	-55.054	0.101
730.700	-56.668	0.101
730.800	-45.947	0.101
730.900	-55.719	0.100
731.000	-60.620	0.101
731.100	-62.525	0.101
731.200	-59.385	0.101
731.300	-67.833	0.101
731.400	-61.529	0.101
731.500	-70.039	0.101
731.600	-61.430	0.101
731.700	-54.998	0.101
731.800	-63.905	0.101
731.900	-64.689	0.101
732.000	-59.078	0.101
732.100	-60.962	0.101
732.200	-52.189	0.101
732.300	-55.376	0.101
732.400	-50.720	0.101
732.500	-49.213	0.101
732.600	-59.398	0.101
732.700	-54.056	0.101
732.800	-67.140	0.101
732.900	-66.472	0.101
733.000	-60.906	0.101
733.100	-72.778	0.101
733.200	-51.893	0.101
733.300	-56.909	0.101
733.400	-57.638	0.101
733.500	-62.199	0.101
733.600	-53.652	0.101
733.700	-53.942	0.101
733.800	-61.797	0.101
733.900	-50.660	0.101
734.000	-68.474	0.101
734.100	-64.884	0.101
734.200	-64.611	0.101
734.300	-63.155	0.101
734.400	-65.310	0.101
734.500	-53.259	0.101
734.600	-65.841	0.101
734.700	-51.169	0.101
734.800	-54.836	0.101
734.900	-59.457	0.101
735.000	-69.054	0.101
735.100	-64.696	0.101
735.200	-60.381	0.101
735.300	-57.847	0.101
735.400	-56.983	0.101
735.500	-52.708	0.101
735.600	-64.720	0.101
735.700	-47.727	0.101
735.800	-51.143	0.101
735.900	-62.863	0.101
736.000	-66.135	0.101
736.100	-65.693	0.100
736.200	-46.198	0.101
736.300	-66.575	0.101
736.400	-63.765	0.101
736.500	-52.095	0.101
736.600	-57.129	0.101
736.700	-48.858	0.101
736.800	-50.988	0.101
736.900	-53.271	0.101
737.000	-65.475	0.101
737.100	-64.260	0.101
737.200	-64.527	0.101
737.300	-70.855	0.101
737.400	-57.316	0.101
737.500	-46.893	0.101
737.600	-56.338	0.101
737.700	-63.757	0.101
737.800	-60.352	0.101
737.900	-59.148	0.101
738.000	-59.302	0.101
738.100	-60.288	0.101
738.200	-65.750	0.101
738.300	-70.703	0.101
738.400	-66.837	0.101
738.500	-52.558	0.101
738.600	-48.828	0.101
738.700	-52.856	0.101
738.800	-53.833	0.101
738.900	-54.654	0.101
739.000	-61.846	0.101
739.100	-57.280	0.101
739.200	-67.985	0.101
739.300	-54.625	0.101
739.400	-48.252	0.101
739.500	-53.914	0.101
739.600	-50.982	0.101
739.700	-50.353	0.101
739.800	-53.893	0.101
739.900	-50.378	0.101
740.000	-39.732	0.101
740.100	-55.333	0.101
740.200	-64.139	0.101
740.300	-64.897	0.101
740.400	-55.710	0.101
740.500	-56.243	0.101
740.600	-54.686	0.101
740.700	-64.712	0.101
740.800	-61.578	0.101
740.900	-66.185	0.101
741.000	-63.171	0.101
741.100	-55.020	0.101
741.200	-61.464	0.101
741.300	-57.277	0.101
741.400	-62.034	0.100
741.500	-65.789	0.101
741.600	-63.628	0.101
741.700	-52.258	0.101
741.800	-61.485	0.101
741.900	-63.631	0.101
742.000	-54.109	0.101
742.100	-44.658	0.101
742.200	-44.398	0.101
742.300	-49.004	0.101
742.400	-54.273	0.101
742.500	-60.912	0.101
742.600	-57.170	0.101
742.700	-52.971	0.101
742.800	-55.377	0.101
742.900	-55.837	0.101
743.000	-54.800	0.101
743.100	-63.992	0.101
743.200	-51.843	0.101
743.300	-54.234	0.101
743.400	-48.961	0.101
743.500	-51.499	0.101
743.600	-49.015	0.101
743.700	-52.786	0.101
743.800	-54.170	0.101
743.900	-60.001	0.101
744.000	-59.115	0.101
744.100	-63.765	0.101
744.200	-57.937	0.101
744.300	-57.936	0.101
744.400	-57.125	0.101
744.500	-54.032	0.101
744.600	-52.548	0.101
744.700	-57.379	0.101
744.800	-60.749	0.101
744.900	-62.722	0.101
745.000	-58.058	0.101
745.100	-58.570	0.101
745.200	-56.498	0.101
745.300	-57.468	0.101
745.400	-66.557	0.101
745.500	-53.175	0.101
745.600	-45.703	0.101
745.700	-55.348	0.101
745.800	-54.194	0.101
745.900	-48.843	0.101
746.000	-58.607	0.101
746.100	-51.964	0.101
746.200	-54.341	0.101
746.300	-55.968	0.101
746.400	-57.588	0.101
746.500	-63.140	0.101
746.600	-48.787	0.101
746.700	-62.944	0.101
746.800	-60.660	0.101
746.900	-62.600	0.101
747.000	-60.830	0.101
747.100	-55.304	0.101
747.200	-53.267	0.101
747.300	-53.285	0.101
747.400	-45.602	0.101
747.500	-57.168	0.101
747.600	-54.988	0.101
747.700	-63.555	0.101
747.800	-51.103	0.101
747.900	-49.636	0.101
748.000	-48.375	0.101
748.100	-46.226	0.101
748.200	-61.659	0.101
748.300	-52.044	0.101
748.400	-59.418	0.101
748.500	-56.236	0.101
748.600	-56.488	0.101
748.700	-49.373	0.101
748.800	-56.004	0.101
748.900	-57.461	0.101
749.000	-57.580	0.101
749.100	-54.897	0.101
749.200	-59.695	0.101
749.300	-55.399	0.101
749.400	-56.976	0.101
749.500	-56.658	0.101
749.600	-63.062	0.101
749.700	-56.507	0.101
749.800	-51.011	0.101
749.900	-38.679	0.101
750.000	-51.814	0.101
750.100	-62.680	0.101
750.200	-60.079	0.101
750.300	-57.673	0.101
750.400	-61.474	0.101
750.500	-52.112	0.101
750.600	-55.992	0.101
750.700	-55.566	0.101
750.800	-54.351	0.101
750.900	-61.645	0.101
751.000	-60.974	0.101
751.100	-58.203	0.101
751.200	-44.500	0.101
751.300	-59.505	0.101
751.400	-49.339	0.101
751.500	-55.461	0.101
751.600	-58.067	0.101
751.700	-55.981	0.101
751.800	-53.100	0.101
751.900	-44.668	0.101
752.000	-52.399	0.101
752.100	-46.173	0.101
752.200	-46.195	0.101
752.300	-45.665	0.101
752.400	-55.458	0.101
752.500	-56.587	0.101
752.600	-52.255	0.101
752.700	-56.623	0.101
752.800	-51.420	0.101
752.900	-47.881	0.101
753.000	-57.428	0.101
753.100	-49.572	0.101
753.200	-55.489	0.101
753.300	-55.779	0.101
753.400	-47.952	0.101
753.500	-58.517	0.101
753.600	-53.253	0.101
753.700	-50.521	0.101
753.800	-54.790	0.101
753.900	-58.238	0.101
754.000	-52.570	0.101
754.100	-51.876	0.101
754.200	-44.288	0.101
754.300	-39.044	0.101
754.400	-45.921	0.100
754.500	-43.355	0.101
754.600	-45.731	0.101
754.700	-44.187	0.101
754.800	-60.301	0.101
754.900	-57.872	0.101
755.000	-61.690	0.101
755.100	-50.135	0.101
755.200	-60.281	0.101
755.300	-61.018	0.101
755.400	-56.311	0.101
755.500	-54.365	0.101
755.600	-55.579	0.101
755.700	-47.135	0.101
755.800	-52.951	0.101
755.900	-52.156	0.101
756.000	-42.240	0.101
756.100	-51.140	0.101
756.200	-49.491	0.101
756.300	-62.012	0.101
756.400	-57.069	0.101
756.500	-44.371	0.101
756.600	-54.736	0.101
756.700	-47.667	0.101
756.800	-52.662	0.101
756.900	-54.034	0.101
757.000	-58.338	0.101
757.100	-60.608	0.101
757.200	-44.428	0.101
757.300	-39.181	0.101
757.400	-59.764	0.101
757.500	-68.253	0.101
757.600	-48.084	0.101
757.700	-50.809	0.101
757.800	-44.807	0.101
757.900	-58.053	0.101
758.000	-51.437	0.101
758.100	-47.127	0.101
758.200	-41.147	0.101
758.300	-44.041	0.101
758.400	-49.204	0.101
758.500	-56.640	0.101
758.600	-52.368	0.101
758.700	-48.841	0.101
758.800	-56.749	0.101
758.900	-47.389	0.101
759.000	-47.395	0.101
759.100	-45.509	0.101
759.200	-45.928	0.101
759.300	-55.302	0.101
759.400	-60.866	0.101
759.500	-52.238	0.101
759.600	-57.592	0.101
759.700	-57.759	0.101
759.800	-52.045	0.101
759.900	-45.454	0.101
760.000	-48.955	0.101
760.100	-49.681	0.101
760.200	-46.763	0.101
760.300	-46.451	0.101
760.400	-51.802	0.101
760.500	-44.607	0.101
760.600	-42.680	0.101
760.700	-37.924	0.101
760.800	-50.076	0.101
760.900	-51.638	0.101
761.000	-44.894	0.101
761.100	-55.570	0.101
761.200	-45.569	0.101
761.300	-46.749	0.101
761.400	-51.396	0.101
761.500	-44.437	0.101
761.600	-49.515	0.101
761.700	-44.206	0.101
761.800	-59.384	0.101
761.900	-48.801	0.101
762.000	-52.487	0.101
762.100	-57.022	0.101
762.200	-53.994	0.101
762.300	-39.473	0.101
762.400	-49.590	0.101
762.500	-51.265	0.101
762.600	-43.628	0.101
762.700	-52.305	0.101
762.800	-53.926	0.101
762.900	-49.145	0.101
763.000	-52.251	0.101
763.100	-51.706	0.101
763.200	-55.646	0.101
763.300	-50.306	0.101
763.400	-36.976	0.101
763.500	-42.617	0.101
763.600	-59.505	0.101
763.700	-47.371	0.101
763.800	-53.886	0.101
763.900	-47.999	0.101
764.000	-35.524	0.101
764.100	-37.135	0.101
764.200	-47.829	0.101
764.300	-53.926	0.101
764.400	-47.706	0.101
764.500	-41.266	0.101
764.600	-42.961	0.101
764.700	-44.098	0.101
764.800	-44.918	0.101
764.900	-58.663	0.101
765.000	-57.001	0.101
765.100	-41.927	0.101
765.200	-49.715	0.101
765.300	-48.933	0.100
765.400	-57.201	0.101
765.500	-37.506	0.101
765.600	-54.254	0.101
765.700	-44.117	0.101
765.800	-53.210	0.101
765.900	-49.604	0.101
766.000	-50.779	0.101
766.100	-57.284	0.101
766.200	-54.277	0.101
766.300	-51.306	0.101
766.400	-44.484	0.101
766.500	-41.133	0.101
766.600	-37.468	0.101
766.700	-42.906	0.101
766.800	-49.401	0.101
766.900	-36.262	0.101
767.000	-45.517	0.101
767.100	-40.127	0.101
767.200	-45.994	0.101
767.300	-47.814	0.101
767.400	-39.051	0.101
767.500	-44.807	0.101
767.600	-48.999	0.101
767.700	-55.838	0.101
767.800	-38.327	0.101
767.900	-42.186	0.101
768.000	-45.608	0.101
768.100	-54.274	0.101
768.200	-62.860	0.101
768.300	-47.906	0.101
768.400	-40.445	0.101
768.500	-40.736	0.101
768.600	-46.908	0.101
768.700	-49.655	0.101
768.800	-49.635	0.101
768.900	-44.740	0.101
769.000	-48.741	0.101
769.100	-56.058	0.101
769.200	-52.709	0.101
769.300	-42.801	0.101
769.400	-37.600	0.101
769.500	-42.760	0.101
769.600	-49.541	0.101
769.700	-51.297	0.101
769.800	-46.899	0.101
769.900	-44.513	0.101
770.000	-44.792	0.101
770.100	-38.072	0.101
770.200	-46.520	0.101
770.300	-40.759	0.101
770.400	-44.196	0.101
770.500	-46.745	0.101
770.600	-34.874	0.101
770.700	-39.595	0.101
770.800	-42.913	0.101
770.900	-46.145	0.101
771.000	-43.434	0.101
771.100	-42.618	0.101
771.200	-47.504	0.101
771.300	-61.161	0.101
771.400	-47.774	0.101
771.500	-52.720	0.101
771.600	-50.197	0.101
771.700	-52.483	0.101
771.800	-52.479	0.101
771.900	-48.585	0.101
772.000	-46.260	0.101
772.100	-61.167	0.101
772.200	-43.904	0.101
772.300	-48.236	0.101
772.400	-45.979	0.101
772.500	-38.293	0.101
772.600	-42.611	0.101
772.700	-44.596	0.101
772.800	-54.916	0.101
772.900	-52.681	0.101
773.000	-53.134	0.100
773.100	-51.967	0.101
773.200	-45.550	0.101
773.300	-52.864	0.101
773.400	-55.521	0.101
773.500	-49.661	0.101
773.600	-46.167	0.101
773.700	-61.213	0.101
773.800	-48.889	0.101
773.900	-33.525	0.101
774.000	-33.387	0.101
774.100	-45.604	0.101
774.200	-43.360	0.101
774.300	-44.565	0.101
774.400	-52.482	0.101
774.500	-40.763	0.101
774.600	-47.074	0.101
774.700	-52.500	0.101
774.800	-61.806	0.101
774.900	-45.401	0.101
775.000	-45.133	0.101
775.100	-36.185	0.101
775.200	-43.812	0.101
775.300	-51.599	0.101
775.400	-41.810	0.101
775.500	-52.485	0.101
775.600	-43.715	0.101
775.700	-41.164	0.101
775.800	-52.523	0.101
775.900	-39.441	0.100
776.000	-42.691	0.101
776.100	-33.075	0.101
776.200	-43.972	0.101
776.300	-41.317	0.101
776.400	-37.191	0.101
776.500	-35.806	0.101
776.600	-43.664	0.101
776.700	-42.718	0.101
776.800	-49.604	0.101
776.900	-42.768	0.101
777.000	-47.352	0.101
777.100	-36.352	0.101
777.200	-41.556	0.101
777.300	-36.766	0.101
777.400	-41.359	0.101
777.500	-36.971	0.101
777.600	-37.599	0.101
777.700	-38.131	0.101
777.800	-48.473	0.101
777.900	-50.582	0.101
778.000	-48.105	0.101
778.100	-50.833	0.101
778.200	-49.805	0.101
778.300	-44.799	0.101
778.400	-51.714	0.101
778.500	-45.663	0.101
778.600	-48.271	0.101
778.700	-42.317	0.101
778.800	-38.090	0.101
778.900	-33.114	0.101
779.000	-36.882	0.101
779.100	-50.281	0.101
779.200	-42.009	0.101
779.300	-49.241	0.101
779.400	-46.196	0.101
779.500	-38.484	0.101
779.600	-47.947	0.101
779.700	-49.500	0.101
779.800	-48.478	0.101
779.900	-39.160	0.101
780.000	-44.660	0.101
780.100	-44.038	0.101
780.200	-22.433	0.101
780.300	-38.867	0.101
780.400	-42.109	0.101
780.500	-45.963	0.101
780.600	-32.396	0.101
780.700	-42.687	0.101
780.800	-38.388	0.101
780.900	-26.620	0.101
781.000	-16.364	0.101
781.100	-9.506	0.101
781.200	-8.948	0.101
781.300	-6.911	0.101
781.400	-3.754	0.101
781.500	-9.146	0.101
781.600	-8.805	0.101
781.700	4.048	0.101
781.800	2.581	0.101
781.900	11.110	0.101
782.000	24.538	0.100
782.100	12.298	0.101
782.200	22.443	0.101
782.300	11.008	0.101
782.400	26.564	0.101
782.500	14.560	0.101
782.600	13.619	0.100
782.700	32.288	0.101
782.800	22.576	0.101
782.900	24.370	0.101
783.000	25.609	0.101
783.100	20.649	0.101
783.200	25.603	0.101
783.300	13.214	0.101
783.400	10.710	0.101
783.500	14.666	0.101
783.600	32.110	0.101
783.700	45.317	0.101
783.800	36.807	0.101
783.900	21.101	0.101
784.000	27.214	0.101
784.100	27.014	0.101
784.200	32.312	0.101
784.300	33.859	0.101
784.400	25.394	0.101
784.500	22.715	0.101
784.600	18.009	0.101
784.700	31.982	0.101
784.800	25.315	0.101
784.900	20.611	0.101
785.000	15.357	0.101
785.100	17.515	0.101
785.200	22.742	0.101
785.300	19.330	0.101
785.400	12.448	0.101
785.500	34.838	0.101
785.600	38.820	0.101
785.700	24.943	0.101
785.800	16.800	0.101
785.900	14.558	0.101
786.000	24.378	0.101
786.100	29.938	0.101
786.200	30.626	0.101
786.300	24.993	0.101
786.400	21.399	0.101
786.500	15.992	0.101
786.600	18.967	0.101
786.700	10.165	0.101
786.800	23.550	0.101
786.900	19.990	0.101
787.000	21.798	0.101
787.100	30.466	0.101
787.200	25.945	0.101
787.300	23.513	0.101
787.400	23.504	0.101
787.500	12.201	0.101
787.600	28.245	0.101
787.700	17.914	0.101
787.800	23.805	0.101
787.900	17.833	0.101
788.000	13.392	0.101
788.100	32.866	0.101
788.200	33.796	0.101
788.300	31.656	0.101
788.400	37.598	0.101
788.500	28.138	0.101
788.600	31.097	0.101
788.700	28.216	0.101
788.800	26.098	0.101
788.900	20.944	0.101
789.000	24.723	0.101
789.100	33.761	0.101
789.200	23.506	0.101
789.300	33.869	0.101
789.400	28.245	0.101
789.500	32.582	0.101
789.600	28.658	0.101
789.700	25.783	0.101
789.800	30.658	0.101
789.900	29.802	0.101
790.000	31.597	0.101
790.100	45.350	0.101
790.200	31.247	0.101
790.300	31.840	0.101
790.400	41.856	0.101
790.500	28.045	0.101
790.600	21.245	0.101
790.700	44.260	0.101
790.800	50.787	0.101
790.900	34.919	0.101
791.000	37.536	0.101
791.100	40.056	0.101
791.200	37.037	0.101
791.300	34.271	0.101
791.400	46.084	0.101
791.500	40.787	0.101
791.600	42.857	0.101
791.700	46.343	0.101
791.800	36.321	0.101
791.900	36.540	0.101
792.000	47.690	0.101
792.100	52.575	0.101
792.200	48.528	0.101
792.300	48.240	0.101
792.400	46.644	0.101
792.500	54.105	0.101
792.600	48.074	0.101
792.700	50.404	0.101
792.800	52.058	0.101
792.900	43.297	0.101
793.000	49.556	0.101
793.100	51.744	0.101
793.200	62.869	0.101
793.300	50.486	0.101
793.400	34.723	0.101
793.500	42.386	0.101
793.600	49.751	0.101
793.700	55.634	0.101
793.800	63.346	0.101
793.900	58.227	0.101
794.000	64.451	0.101
794.100	58.647	0.101
794.200	47.333	0.101
794.300	55.888	0.101
794.400	58.256	0.101
794.500	54.708	0.101
794.600	63.119	0.101
794.700	68.555	0.101
794.800	59.660	0.101
794.900	65.135	0.101
795.000	63.847	0.101
795.100	65.371	0.101
795.200	74.618	0.101
795.300	72.658	0.101
795.400	68.987	0.101
795.500	81.482	0.101
795.600	62.386	0.101
795.700	67.472	0.101
795.800	79.208	0.101
795.900	78.277	0.101
796.000	68.483	0.101
796.100	66.098	0.101
796.200	72.016	0.101
796.300	70.484	0.101
796.400	73.958	0.101
796.500	87.909	0.101
796.600	86.884	0.101
796.700	75.815	0.101
796.800	82.128	0.101
796.900	85.555	0.101
797.000	95.630	0.101
797.100	83.557	0.101
797.200	83.081	0.101
797.300	88.966	0.101
797.400	88.795	0.101
797.500	91.274	0.101
797.600	80.526	0.101
797.700	89.510	0.101
797.800	97.024	0.101
797.900	99.374	0.101
798.000	93.705	0.101
798.100	104.176	0.101
798.200	100.747	0.101
798.300	104.752	0.101
798.400	108.771	0.101
798.500	100.012	0.101
798.600	100.229	0.101
798.700	105.352	0.101
798.800	104.113	0.101
798.900	98.399	0.101
799.000	100.883	0.101
799.100	93.464	0.101
799.200	89.444	0.101
799.300	96.829	0.101
799.400	103.710	0.101
799.500	105.960	0.101
799.600	112.500	0.101
799.700	115.106	0.101
799.800	108.585	0.101
799.900	111.271	0.101
800.000	105.818	0.101
