time /s	I /nA	E /V
0.100	-28.613	0.100
0.200	-19.988	0.100
0.300	-18.203	0.100
0.400	-29.431	0.100
0.500	-20.443	0.100
0.600	-20.042	0.100
0.700	-27.399	0.100
0.800	-21.439	0.100
0.900	-24.167	0.100
1.000	-21.152	0.100
1.100	-24.457	0.100
1.200	-16.560	0.100
1.300	-19.213	0.100
1.400	-24.908	0.100
1.500	-17.068	0.100
1.600	-19.798	0.100
1.700	-27.395	0.100
1.800	-23.692	0.100
1.900	-22.873	0.100
2.000	-18.352	0.100
2.100	-20.021	0.100
2.200	-18.607	0.100
2.300	-27.066	0.100
2.400	-17.024	0.100
2.500	-17.846	0.100
2.600	-21.217	0.100
2.700	-21.674	0.100
2.800	-18.692	0.100
2.900	-24.554	0.100
3.000	-26.311	0.100
3.100	-24.175	0.100
3.200	-22.200	0.100
3.300	-20.941	0.100
3.400	-25.024	0.100
3.500	-22.557	0.100
3.600	-16.652	0.100
3.700	-5.019	0.100
3.800	-22.349	0.100
3.900	-17.161	0.100
4.000	-30.121	0.100
4.100	-28.605	0.100
4.200	-25.373	0.100
4.300	-27.882	0.100
4.400	-17.458	0.100
4.500	-28.366	0.100
4.600	-26.255	0.100
4.700	-16.916	0.100
4.800	-24.409	0.100
4.900	-23.454	0.100
5.000	-26.281	0.100
5.100	-20.196	0.100
5.200	-24.751	0.100
5.300	-11.870	0.100
5.400	-29.588	0.100
5.500	-29.169	0.100
5.600	-32.529	0.100
5.700	-16.280	0.100
5.800	-19.475	0.100
5.900	-17.012	0.100
6.000	-10.631	0.100
6.100	-10.054	0.100
6.200	-23.028	0.100
6.300	-19.787	0.100
6.400	-13.377	0.100
6.500	-24.578	0.100
6.600	-21.406	0.100
6.700	-27.325	0.100
6.800	-19.679	0.100
6.900	-18.018	0.100
7.000	-20.159	0.100
7.100	-26.945	0.100
7.200	-27.825	0.100
7.300	-21.367	0.100
7.400	-24.811	0.100
7.500	-27.526	0.100
7.600	-29.772	0.100
7.700	-26.021	0.100
7.800	-21.055	0.100
7.900	-25.905	0.100
8.000	-27.789	0.100
8.100	-21.228	0.100
8.200	-22.539	0.100
8.300	-19.059	0.100
8.400	-22.993	0.100
8.500	-11.370	0.100
8.600	-24.934	0.100
8.700	-24.396	0.100
8.800	-14.463	0.100
8.900	-21.198	0.100
9.000	-20.742	0.100
9.100	-25.526	0.100
9.200	-25.938	0.100
9.300	-21.108	0.100
9.400	-15.952	0.100
9.500	-22.411	0.100
9.600	-22.713	0.100
9.700	-23.084	0.100
9.800	-18.601	0.100
9.900	-23.566	0.100
10.000	-16.183	0.100
10.100	-13.985	0.100
10.200	-21.177	0.100
10.300	-19.442	0.100
10.400	-21.698	0.100
10.500	-19.864	0.100
10.600	-24.334	0.100
10.700	-22.074	0.100
10.800	-13.637	0.100
10.900	-21.290	0.100
11.000	-27.471	0.100
11.100	-19.753	0.100
11.200	-19.760	0.100
11.300	-24.659	0.100
11.400	-22.215	0.100
11.500	-19.234	0.100
11.600	-16.251	0.100
11.700	-21.378	0.100
11.800	-22.407	0.100
11.900	-21.379	0.100
12.000	-22.714	0.100
12.100	-25.518	0.100
12.200	-22.784	0.100
12.300	-18.517	0.100
12.400	-22.218	0.100
12.500	-17.768	0.100
12.600	-16.614	0.100
12.700	-17.988	0.100
12.800	-27.239	0.100
12.900	-17.469	0.100
13.000	-22.805	0.100
13.100	-17.866	0.100
13.200	-25.928	0.100
13.300	-19.815	0.100
13.400	-22.251	0.100
13.500	-17.703	0.100
13.600	-15.230	0.100
13.700	-20.630	0.100
13.800	-23.109	0.100
13.900	-20.678	0.100
14.000	-23.644	0.100
14.100	-19.494	0.100
14.200	-15.969	0.100
14.300	-22.241	0.100
14.400	-23.564	0.100
14.500	-19.534	0.100
14.600	-24.813	0.100
14.700	-21.973	0.100
14.800	-20.779	0.100
14.900	-22.077	0.100
15.000	-22.371	0.100
15.100	-20.833	0.100
15.200	-14.779	0.100
15.300	-23.089	0.100
15.400	-18.326	0.100
15.500	-18.179	0.100
15.600	-23.913	0.100
15.700	-15.932	0.100
15.800	-16.963	0.100
15.900	-21.923	0.100
16.000	-24.552	0.100
16.100	-12.200	0.100
16.200	-9.149	0.100
16.300	-12.893	0.100
16.400	-20.063	0.100
16.500	-15.587	0.100
16.600	-29.282	0.100
16.700	-26.256	0.100
16.800	-31.963	0.100
16.900	-20.976	0.100
17.000	-15.036	0.100
17.100	-8.583	0.100
17.200	-18.886	0.100
17.300	-16.297	0.100
17.400	-19.720	0.100
17.500	-16.979	0.100
17.600	-23.530	0.100
17.700	-16.179	0.100
17.800	-27.142	0.100
17.900	-20.593	0.100
18.000	-23.843	0.100
18.100	-30.388	0.100
18.200	-26.417	0.100
18.300	-20.082	0.100
18.400	-15.010	0.100
18.500	-23.071	0.100
18.600	-22.655	0.100
18.700	-30.101	0.100
18.800	-13.090	0.100
18.900	-16.183	0.100
19.000	-21.455	0.100
19.100	-16.463	0.100
19.200	-18.184	0.100
19.300	-13.322	0.100
19.400	-21.003	0.100
19.500	-28.395	0.100
19.600	-24.636	0.100
19.700	-19.588	0.100
19.800	-20.393	0.100
19.900	-19.289	0.100
20.000	-21.450	0.100
20.100	-22.880	0.100
20.200	-25.926	0.100
20.300	-17.346	0.100
20.400	-22.679	0.100
20.500	-23.363	0.100
20.600	-15.606	0.100
20.700	-24.578	0.100
20.800	-20.499	0.100
20.900	-29.997	0.100
21.000	-25.040	0.100
21.100	-21.242	0.100
21.200	-25.457	0.100
21.300	-16.740	0.100
21.400	-22.048	0.100
21.500	-17.222	0.100
21.600	-18.676	0.100
21.700	-11.224	0.100
21.800	-14.121	0.100
21.900	-14.064	0.100
22.000	-30.972	0.100
22.100	-20.628	0.100
22.200	-20.321	0.100
22.300	-25.739	0.100
22.400	-18.536	0.100
22.500	-27.964	0.100
22.600	-16.119	0.100
22.700	-17.006	0.100
22.800	-20.548	0.100
22.900	-18.077	0.100
23.000	-26.836	0.100
23.100	-23.714	0.100
23.200	-18.577	0.100
23.300	-29.723	0.100
23.400	-16.939	0.100
23.500	-19.996	0.100
23.600	-18.569	0.100
23.700	-17.198	0.100
23.800	-16.699	0.100
23.900	-12.250	0.100
24.000	-20.639	0.100
24.100	-18.444	0.100
24.200	-9.892	0.100
24.300	-23.509	0.100
24.400	-17.683	0.100
24.500	-28.466	0.100
24.600	-23.770	0.100
24.700	-16.028	0.100
24.800	-20.118	0.100
24.900	-26.624	0.100
25.000	-18.531	0.100
25.100	-15.006	0.100
25.200	-19.878	0.100
25.300	-12.623	0.100
25.400	-22.457	0.100
25.500	-18.884	0.100
25.600	-10.943	0.100
25.700	-24.055	0.100
25.800	-27.851	0.100
25.900	-25.847	0.100
26.000	-17.098	0.100
26.100	-18.902	0.100
26.200	-18.813	0.100
26.300	-16.348	0.100
26.400	-13.382	0.100
26.500	-19.624	0.100
26.600	-22.097	0.100
26.700	-19.068	0.100
26.800	-18.071	0.100
26.900	-22.931	0.100
27.000	-23.518	0.100
27.100	-29.132	0.100
27.200	-23.174	0.100
27.300	-28.830	0.100
27.400	-13.955	0.100
27.500	-10.866	0.100
27.600	-20.790	0.100
27.700	-21.523	0.100
27.800	-24.213	0.100
27.900	-15.498	0.100
28.000	-22.638	0.100
28.100	-12.180	0.100
28.200	-21.896	0.100
28.300	-21.334	0.100
28.400	-21.275	0.100
28.500	-16.268	0.100
28.600	-18.906	0.100
28.700	-17.367	0.100
28.800	-22.991	0.100
28.900	-21.300	0.100
29.000	-18.330	0.100
29.100	-24.716	0.100
29.200	-10.781	0.100
29.300	-27.195	0.100
29.400	-19.084	0.100
29.500	-25.764	0.100
29.600	-13.428	0.100
29.700	-18.839	0.100
29.800	-16.974	0.100
29.900	-17.303	0.100
30.000	-29.226	0.100
30.100	-22.860	0.100
30.200	-20.369	0.100
30.300	-20.144	0.100
30.400	-6.442	0.100
30.500	-6.858	0.100
30.600	-5.483	0.100
30.700	-16.246	0.100
30.800	-11.373	0.100
30.900	-9.854	0.100
31.000	-4.448	0.100
31.100	-3.148	0.100
31.200	3.138	0.100
31.300	-2.916	0.100
31.400	-5.202	0.100
31.500	-1.094	0.100
31.600	12.619	0.100
31.700	16.046	0.100
31.800	1.558	0.100
31.900	13.130	0.100
32.000	15.073	0.100
32.100	5.099	0.100
32.200	4.884	0.100
32.300	7.738	0.100
32.400	20.497	0.100
32.500	13.114	0.100
32.600	9.378	0.100
32.700	14.665	0.100
32.800	10.981	0.100
32.900	15.857	0.100
33.000	10.597	0.100
33.100	21.154	0.100
33.200	12.627	0.100
33.300	19.527	0.100
33.400	19.777	0.100
33.500	14.224	0.100
33.600	16.506	0.100
33.700	13.876	0.100
33.800	24.058	0.100
33.900	24.566	0.100
34.000	15.857	0.100
34.100	13.543	0.100
34.200	12.739	0.100
34.300	6.365	0.100
34.400	18.359	0.100
34.500	18.006	0.100
34.600	18.202	0.100
34.700	15.024	0.100
34.800	13.414	0.100
34.900	16.241	0.100
35.000	19.100	0.100
35.100	12.953	0.100
35.200	15.081	0.100
35.300	1.269	0.100
35.400	6.005	0.100
35.500	5.489	0.100
35.600	0.202	0.100
35.700	18.253	0.100
35.800	17.585	0.100
35.900	7.569	0.100
36.000	8.649	0.100
36.100	15.243	0.100
36.200	7.185	0.100
36.300	7.612	0.100
36.400	16.253	0.100
36.500	10.632	0.100
36.600	9.440	0.100
36.700	21.912	0.100
36.800	8.168	0.100
36.900	-2.132	0.100
37.000	9.764	0.100
37.100	9.994	0.100
37.200	11.833	0.100
37.300	23.175	0.100
37.400	13.378	0.100
37.500	9.948	0.100
37.600	2.448	0.100
37.700	9.531	0.100
37.800	22.962	0.100
37.900	7.397	0.100
38.000	9.166	0.100
38.100	9.855	0.100
38.200	10.809	0.100
38.300	10.458	0.100
38.400	15.389	0.100
38.500	13.758	0.100
38.600	21.024	0.100
38.700	18.736	0.100
38.800	11.080	0.100
38.900	27.661	0.100
39.000	13.033	0.100
39.100	3.237	0.100
39.200	11.611	0.100
39.300	12.336	0.100
39.400	21.756	0.100
39.500	19.400	0.100
39.600	13.256	0.100
39.700	15.305	0.100
39.800	16.529	0.100
39.900	15.196	0.100
40.000	16.761	0.100
40.100	12.046	0.100
40.200	10.151	0.100
40.300	17.894	0.100
40.400	5.706	0.100
40.500	16.569	0.100
40.600	17.247	0.100
40.700	27.655	0.100
40.800	17.532	0.100
40.900	10.121	0.100
41.000	13.460	0.100
41.100	14.090	0.100
41.200	18.212	0.100
41.300	13.234	0.100
41.400	14.438	0.100
41.500	13.431	0.100
41.600	18.732	0.100
41.700	9.496	0.100
41.800	14.426	0.100
41.900	19.779	0.100
42.000	18.554	0.100
42.100	18.224	0.100
42.200	18.170	0.100
42.300	18.569	0.100
42.400	15.023	0.100
42.500	10.623	0.100
42.600	9.477	0.100
42.700	29.572	0.100
42.800	22.054	0.100
42.900	22.532	0.100
43.000	14.571	0.100
43.100	12.608	0.100
43.200	19.396	0.100
43.300	13.475	0.100
43.400	16.984	0.100
43.500	27.061	0.100
43.600	12.061	0.100
43.700	15.990	0.100
43.800	29.549	0.100
43.900	21.055	0.100
44.000	11.343	0.100
44.100	26.197	0.100
44.200	22.440	0.100
44.300	16.487	0.100
44.400	17.526	0.100
44.500	19.140	0.100
44.600	4.323	0.100
44.700	31.028	0.100
44.800	22.172	0.100
44.900	18.650	0.100
45.000	20.604	0.100
45.100	15.063	0.100
45.200	20.619	0.100
45.300	19.404	0.100
45.400	17.256	0.100
45.500	21.049	0.100
45.600	21.183	0.100
45.700	19.351	0.100
45.800	14.917	0.100
45.900	21.405	0.100
46.000	31.416	0.100
46.100	19.764	0.100
46.200	19.314	0.100
46.300	13.031	0.100
46.400	17.598	0.100
46.500	27.191	0.100
46.600	26.303	0.100
46.700	13.903	0.100
46.800	11.301	0.100
46.900	26.994	0.100
47.000	19.490	0.100
47.100	22.538	0.100
47.200	23.889	0.100
47.300	23.534	0.100
47.400	30.433	0.100
47.500	21.852	0.100
47.600	21.713	0.100
47.700	9.736	0.100
47.800	15.535	0.100
47.900	26.875	0.100
48.000	18.032	0.100
48.100	34.004	0.100
48.200	21.789	0.100
48.300	25.638	0.100
48.400	25.057	0.100
48.500	26.697	0.100
48.600	17.871	0.100
48.700	24.757	0.100
48.800	23.932	0.100
48.900	19.735	0.100
49.000	22.707	0.100
49.100	25.015	0.100
49.200	32.051	0.100
49.300	29.907	0.100
49.400	22.463	0.100
49.500	18.761	0.100
49.600	24.530	0.100
49.700	27.218	0.100
49.800	20.829	0.100
49.900	27.433	0.100
50.000	19.330	0.100
50.100	23.827	0.100
50.200	33.106	0.100
50.300	23.780	0.100
50.400	28.091	0.100
50.500	34.842	0.100
50.600	23.442	0.100
50.700	26.102	0.100
50.800	26.335	0.100
50.900	20.805	0.100
51.000	27.757	0.100
51.100	30.301	0.100
51.200	28.583	0.100
51.300	21.449	0.100
51.400	29.672	0.100
51.500	34.132	0.100
51.600	31.725	0.100
51.700	26.399	0.100
51.800	23.593	0.100
51.900	21.843	0.100
52.000	27.678	0.100
52.100	34.486	0.100
52.200	38.134	0.100
52.300	35.256	0.100
52.400	37.463	0.100
52.500	23.717	0.100
52.600	30.682	0.100
52.700	32.974	0.100
52.800	35.774	0.100
52.900	33.700	0.100
53.000	35.111	0.100
53.100	28.320	0.100
53.200	27.457	0.100
53.300	26.233	0.100
53.400	27.557	0.100
53.500	32.937	0.100
53.600	25.032	0.100
53.700	38.668	0.100
53.800	36.014	0.100
53.900	37.268	0.100
54.000	38.592	0.100
54.100	38.183	0.100
54.200	29.162	0.100
54.300	44.425	0.100
54.400	25.103	0.100
54.500	25.056	0.100
54.600	30.101	0.100
54.700	36.163	0.100
54.800	37.347	0.100
54.900	23.654	0.100
55.000	29.612	0.100
55.100	28.529	0.100
55.200	31.099	0.100
55.300	36.558	0.100
55.400	40.842	0.100
55.500	31.493	0.100
55.600	31.101	0.100
55.700	34.054	0.100
55.800	36.091	0.100
55.900	33.088	0.100
56.000	33.548	0.100
56.100	27.865	0.100
56.200	31.512	0.100
56.300	36.405	0.100
56.400	31.085	0.100
56.500	37.441	0.100
56.600	35.323	0.100
56.700	33.008	0.100
56.800	35.613	0.100
56.900	30.422	0.100
57.000	33.391	0.100
57.100	34.119	0.100
57.200	33.897	0.100
57.300	31.063	0.100
57.400	28.960	0.100
57.500	34.390	0.100
57.600	40.161	0.100
57.700	30.360	0.100
57.800	38.993	0.100
57.900	34.171	0.100
58.000	34.621	0.100
58.100	40.288	0.100
58.200	36.547	0.100
58.300	33.931	0.100
58.400	37.020	0.100
58.500	37.328	0.100
58.600	20.890	0.100
58.700	34.443	0.100
58.800	41.724	0.100
58.900	27.764	0.100
59.000	31.827	0.100
59.100	42.956	0.100
59.200	38.848	0.100
59.300	39.377	0.100
59.400	42.632	0.100
59.500	36.210	0.100
59.600	34.355	0.100
59.700	31.331	0.100
59.800	31.203	0.100
59.900	38.941	0.100
60.000	33.892	0.100
60.100	31.870	0.100
60.200	36.408	0.100
60.300	40.957	0.100
60.400	37.303	0.100
60.500	37.077	0.100
60.600	32.720	0.100
60.700	29.735	0.100
60.800	40.614	0.100
60.900	36.655	0.100
61.000	31.612	0.100
61.100	31.208	0.100
61.200	39.572	0.100
61.300	42.459	0.100
61.400	33.011	0.100
61.500	35.164	0.100
61.600	44.164	0.100
61.700	38.292	0.100
61.800	41.557	0.100
61.900	46.214	0.100
62.000	43.019	0.100
62.100	45.736	0.100
62.200	40.900	0.100
62.300	37.552	0.100
62.400	37.361	0.100
62.500	40.674	0.100
62.600	43.674	0.100
62.700	42.437	0.100
62.800	45.391	0.100
62.900	34.040	0.100
63.000	33.599	0.100
63.100	37.214	0.100
63.200	32.104	0.100
63.300	38.087	0.100
63.400	36.414	0.100
63.500	32.917	0.100
63.600	25.876	0.100
63.700	36.586	0.100
63.800	38.936	0.100
63.900	36.613	0.100
64.000	41.413	0.100
64.100	39.112	0.100
64.200	38.280	0.100
64.300	44.142	0.100
64.400	31.664	0.100
64.500	44.233	0.100
64.600	29.024	0.100
64.700	31.673	0.100
64.800	40.648	0.100
64.900	34.554	0.100
65.000	40.238	0.100
65.100	39.833	0.100
65.200	38.117	0.100
65.300	42.194	0.100
65.400	38.430	0.100
65.500	28.841	0.100
65.600	36.617	0.100
65.700	35.494	0.100
65.800	32.665	0.100
65.900	37.586	0.100
66.000	44.224	0.100
66.100	37.743	0.100
66.200	37.671	0.100
66.300	41.593	0.100
66.400	38.041	0.100
66.500	46.441	0.100
66.600	38.622	0.100
66.700	42.231	0.100
66.800	33.929	0.100
66.900	33.443	0.100
67.000	37.376	0.100
67.100	47.329	0.100
67.200	43.406	0.100
67.300	35.183	0.100
67.400	48.374	0.100
67.500	45.799	0.100
67.600	48.220	0.100
67.700	34.718	0.100
67.800	40.884	0.100
67.900	42.665	0.100
68.000	51.405	0.100
68.100	42.093	0.100
68.200	41.185	0.100
68.300	41.111	0.100
68.400	38.941	0.100
68.500	34.991	0.100
68.600	45.034	0.100
68.700	40.120	0.100
68.800	49.187	0.100
68.900	40.167	0.100
69.000	32.101	0.100
69.100	35.361	0.100
69.200	30.541	0.100
69.300	30.669	0.100
69.400	36.640	0.100
69.500	42.479	0.100
69.600	49.894	0.100
69.700	45.751	0.100
69.800	44.382	0.100
69.900	43.659	0.100
70.000	37.188	0.100
70.100	45.076	0.100
70.200	37.861	0.100
70.300	39.904	0.100
70.400	43.878	0.100
70.500	49.345	0.100
70.600	43.987	0.100
70.700	41.402	0.100
70.800	38.635	0.100
70.900	43.699	0.100
71.000	41.501	0.100
71.100	41.205	0.100
71.200	43.244	0.100
71.300	39.496	0.100
71.400	43.808	0.100
71.500	34.411	0.100
71.600	38.244	0.100
71.700	45.205	0.100
71.800	29.958	0.100
71.900	34.183	0.100
72.000	47.376	0.100
72.100	39.015	0.100
72.200	52.372	0.100
72.300	38.971	0.100
72.400	34.249	0.100
72.500	44.165	0.100
72.600	45.242	0.100
72.700	42.088	0.100
72.800	46.246	0.100
72.900	41.281	0.100
73.000	36.414	0.100
73.100	38.844	0.100
73.200	43.784	0.100
73.300	43.848	0.100
73.400	50.849	0.100
73.500	44.984	0.100
73.600	39.956	0.100
73.700	43.448	0.100
73.800	44.578	0.100
73.900	46.279	0.100
74.000	46.019	0.100
74.100	47.990	0.100
74.200	44.355	0.100
74.300	36.604	0.100
74.400	48.896	0.100
74.500	42.453	0.100
74.600	32.233	0.100
74.700	41.078	0.100
74.800	34.337	0.100
74.900	40.689	0.100
75.000	42.445	0.100
75.100	43.706	0.100
75.200	47.190	0.100
75.300	44.310	0.100
75.400	42.907	0.100
75.500	40.129	0.100
75.600	47.020	0.100
75.700	32.176	0.100
75.800	36.088	0.100
75.900	43.394	0.100
76.000	40.952	0.100
76.100	38.361	0.100
76.200	37.124	0.100
76.300	39.380	0.100
76.400	42.282	0.100
76.500	49.272	0.100
76.600	35.630	0.100
76.700	34.511	0.100
76.800	41.010	0.100
76.900	47.377	0.100
77.000	44.319	0.100
77.100	39.582	0.100
77.200	46.191	0.100
77.300	41.959	0.100
77.400	35.383	0.100
77.500	46.676	0.100
77.600	40.619	0.100
77.700	49.121	0.100
77.800	41.548	0.100
77.900	49.290	0.100
78.000	45.946	0.100
78.100	45.711	0.100
78.200	32.796	0.100
78.300	40.294	0.100
78.400	39.965	0.100
78.500	42.946	0.100
78.600	47.412	0.100
78.700	44.529	0.100
78.800	44.323	0.100
78.900	40.919	0.100
79.000	44.324	0.100
79.100	39.583	0.100
79.200	47.941	0.100
79.300	41.876	0.100
79.400	48.313	0.100
79.500	47.351	0.100
79.600	41.354	0.100
79.700	40.072	0.100
79.800	39.386	0.100
79.900	50.979	0.100
80.000	44.091	0.100
80.100	44.568	0.100
80.200	41.637	0.100
80.300	35.126	0.100
80.400	40.602	0.100
80.500	33.429	0.100
80.600	37.158	0.100
80.700	38.478	0.100
80.800	51.521	0.100
80.900	43.728	0.100
81.000	37.063	0.100
81.100	42.319	0.100
81.200	42.567	0.100
81.300	30.367	0.100
81.400	49.019	0.100
81.500	46.164	0.100
81.600	36.854	0.100
81.700	41.358	0.100
81.800	41.721	0.100
81.900	43.012	0.100
82.000	39.605	0.100
82.100	46.192	0.100
82.200	37.271	0.100
82.300	32.213	0.100
82.400	27.036	0.100
82.500	36.200	0.100
82.600	37.609	0.100
82.700	44.679	0.100
82.800	48.996	0.100
82.900	45.714	0.100
83.000	30.189	0.100
83.100	47.163	0.100
83.200	43.160	0.100
83.300	37.084	0.100
83.400	45.870	0.100
83.500	38.922	0.100
83.600	44.781	0.100
83.700	45.558	0.100
83.800	40.752	0.100
83.900	48.912	0.100
84.000	38.452	0.100
84.100	35.064	0.100
84.200	37.500	0.100
84.300	37.995	0.100
84.400	41.531	0.100
84.500	38.637	0.100
84.600	45.326	0.100
84.700	42.230	0.100
84.800	40.409	0.100
84.900	43.007	0.100
85.000	42.966	0.100
85.100	47.782	0.100
85.200	36.236	0.100
85.300	35.725	0.100
85.400	35.697	0.100
85.500	34.443	0.100
85.600	42.642	0.100
85.700	41.896	0.100
85.800	43.050	0.100
85.900	32.019	0.100
86.000	31.927	0.100
86.100	40.409	0.100
86.200	38.276	0.100
86.300	37.050	0.100
86.400	46.436	0.100
86.500	29.202	0.100
86.600	34.713	0.100
86.700	46.229	0.100
86.800	40.932	0.100
86.900	41.972	0.100
87.000	47.267	0.100
87.100	41.017	0.100
87.200	31.993	0.100
87.300	32.624	0.100
87.400	37.721	0.100
87.500	40.279	0.100
87.600	41.462	0.100
87.700	38.357	0.100
87.800	45.210	0.100
87.900	36.431	0.100
88.000	40.000	0.100
88.100	31.535	0.100
88.200	36.580	0.100
88.300	31.886	0.100
88.400	41.549	0.100
88.500	35.714	0.100
88.600	39.783	0.100
88.700	39.164	0.100
88.800	43.656	0.100
88.900	44.281	0.100
89.000	43.373	0.100
89.100	34.804	0.100
89.200	30.569	0.100
89.300	35.293	0.100
89.400	37.510	0.100
89.500	45.097	0.100
89.600	39.001	0.100
89.700	39.145	0.100
89.800	38.001	0.100
89.900	34.683	0.100
90.000	35.573	0.100
90.100	40.407	0.100
90.200	31.539	0.100
90.300	39.652	0.100
90.400	38.308	0.100
90.500	38.357	0.100
90.600	40.700	0.100
90.700	36.220	0.100
90.800	36.564	0.100
90.900	27.318	0.100
91.000	27.445	0.100
91.100	33.441	0.100
91.200	31.879	0.100
91.300	21.808	0.100
91.400	18.771	0.100
91.500	19.066	0.100
91.600	12.296	0.100
91.700	16.453	0.100
91.800	13.723	0.100
91.900	15.257	0.100
92.000	18.041	0.100
92.100	20.202	0.100
92.200	9.858	0.100
92.300	6.003	0.100
92.400	13.811	0.100
92.500	12.648	0.100
92.600	21.491	0.100
92.700	18.000	0.100
92.800	9.485	0.100
92.900	-3.582	0.100
93.000	3.192	0.100
93.100	5.320	0.100
93.200	2.963	0.100
93.300	9.760	0.100
93.400	5.928	0.100
93.500	8.176	0.100
93.600	3.150	0.100
93.700	-1.602	0.100
93.800	5.224	0.100
93.900	2.284	0.100
94.000	-2.774	0.100
94.100	-2.460	0.100
94.200	-1.659	0.100
94.300	-3.678	0.100
94.400	4.884	0.100
94.500	3.892	0.100
94.600	2.871	0.100
94.700	4.029	0.100
94.800	13.524	0.100
94.900	0.006	0.100
95.000	0.825	0.100
95.100	3.007	0.100
95.200	-1.541	0.100
95.300	5.255	0.100
95.400	-1.377	0.100
95.500	-2.295	0.100
95.600	1.690	0.100
95.700	6.411	0.100
95.800	1.311	0.100
95.900	0.799	0.100
96.000	-3.112	0.100
96.100	-1.156	0.100
96.200	6.902	0.100
96.300	4.731	0.100
96.400	2.377	0.100
96.500	0.312	0.100
96.600	5.761	0.100
96.700	1.657	0.100
96.800	-3.465	0.100
96.900	3.394	0.100
97.000	-4.139	0.100
97.100	-3.130	0.100
97.200	-1.981	0.100
97.300	3.372	0.100
97.400	-3.826	0.100
97.500	1.171	0.100
97.600	-0.180	0.100
97.700	1.577	0.100
97.800	-6.415	0.100
97.900	-7.856	0.100
98.000	5.450	0.100
98.100	-3.888	0.100
98.200	5.187	0.100
98.300	8.124	0.100
98.400	0.085	0.100
98.500	-7.982	0.100
98.600	-2.162	0.100
98.700	6.042	0.100
98.800	-4.319	0.100
98.900	-1.648	0.100
99.000	-8.180	0.100
99.100	-6.171	0.100
99.200	1.796	0.100
99.300	7.951	0.100
99.400	-9.731	0.100
99.500	-8.942	0.100
99.600	4.551	0.100
99.700	5.328	0.100
99.800	-5.305	0.100
99.900	-4.656	0.100
100.000	-3.019	0.100
100.100	-4.066	0.100
100.200	-2.658	0.100
100.300	0.488	0.100
100.400	6.447	0.100
100.500	-8.328	0.100
100.600	-4.560	0.100
100.700	-6.575	0.100
100.800	-4.281	0.100
100.900	-8.816	0.100
101.000	-0.416	0.100
101.100	-3.260	0.100
101.200	4.903	0.100
101.300	-1.240	0.100
101.400	0.502	0.100
101.500	-8.482	0.100
101.600	-2.413	0.100
101.700	-3.135	0.100
101.800	-3.061	0.100
101.900	-1.448	0.100
102.000	-8.208	0.100
102.100	-8.386	0.100
102.200	-2.649	0.100
102.300	0.182	0.100
102.400	-8.263	0.100
102.500	1.960	0.100
102.600	-2.849	0.100
102.700	-9.224	0.100
102.800	-7.433	0.100
102.900	1.848	0.100
103.000	-4.978	0.100
103.100	-4.554	0.100
103.200	-8.272	0.100
103.300	-7.231	0.100
103.400	-10.455	0.100
103.500	1.579	0.100
103.600	7.436	0.100
103.700	-7.397	0.100
103.800	-2.644	0.100
103.900	-0.820	0.100
104.000	-18.107	0.100
104.100	-5.101	0.100
104.200	-3.284	0.100
104.300	-6.534	0.100
104.400	-3.502	0.100
104.500	-4.646	0.100
104.600	-2.433	0.100
104.700	-3.653	0.100
104.800	-9.160	0.100
104.900	-11.996	0.100
105.000	-8.480	0.100
105.100	-10.463	0.100
105.200	-4.369	0.100
105.300	-4.165	0.100
105.400	-9.696	0.100
105.500	-7.213	0.100
105.600	-2.383	0.100
105.700	-17.368	0.100
105.800	-15.424	0.100
105.900	-14.617	0.100
106.000	-10.523	0.100
106.100	-3.629	0.100
106.200	-3.143	0.100
106.300	-5.987	0.100
106.400	-13.368	0.100
106.500	-19.707	0.100
106.600	-7.478	0.100
106.700	2.747	0.100
106.800	-12.258	0.100
106.900	-9.206	0.100
107.000	-11.827	0.100
107.100	-17.236	0.100
107.200	-6.422	0.100
107.300	-9.357	0.100
107.400	-6.400	0.100
107.500	-8.387	0.100
107.600	-14.579	0.100
107.700	-19.516	0.100
107.800	-14.669	0.100
107.900	-10.987	0.100
108.000	-0.508	0.100
108.100	-12.758	0.100
108.200	-3.264	0.100
108.300	-12.636	0.100
108.400	-15.694	0.100
108.500	-17.240	0.100
108.600	-2.024	0.100
108.700	-12.562	0.100
108.800	-12.271	0.100
108.900	-10.434	0.100
109.000	-15.178	0.100
109.100	-12.205	0.100
109.200	-13.824	0.100
109.300	-14.143	0.100
109.400	-8.869	0.100
109.500	-11.284	0.100
109.600	-18.711	0.100
109.700	-10.612	0.100
109.800	-4.384	0.100
109.900	-11.988	0.100
110.000	-6.757	0.100
110.100	-16.299	0.100
110.200	-15.205	0.100
110.300	-12.785	0.100
110.400	-8.670	0.100
110.500	-13.655	0.100
110.600	-12.806	0.100
110.700	-0.783	0.100
110.800	-15.527	0.100
110.900	-20.053	0.100
111.000	-19.576	0.100
111.100	-13.944	0.100
111.200	-8.513	0.100
111.300	-18.162	0.100
111.400	-13.170	0.100
111.500	-17.786	0.100
111.600	-13.997	0.100
111.700	-12.104	0.100
111.800	-18.312	0.100
111.900	-15.512	0.100
112.000	-5.319	0.100
112.100	-15.340	0.100
112.200	-6.457	0.100
112.300	-18.930	0.100
112.400	-16.787	0.100
112.500	-12.615	0.100
112.600	-8.957	0.100
112.700	-21.157	0.100
112.800	-21.884	0.100
112.900	-11.300	0.100
113.000	-12.754	0.100
113.100	-18.866	0.100
113.200	-15.994	0.100
113.300	-7.549	0.100
113.400	-24.215	0.100
113.500	-18.269	0.100
113.600	-13.439	0.100
113.700	-10.428	0.100
113.800	-21.281	0.100
113.900	-21.848	0.100
114.000	-20.628	0.100
114.100	-15.127	0.100
114.200	-13.747	0.100
114.300	-13.289	0.100
114.400	-4.634	0.100
114.500	-10.110	0.100
114.600	-17.123	0.100
114.700	-18.569	0.100
114.800	-15.716	0.100
114.900	-14.244	0.100
115.000	-8.612	0.100
115.100	-9.124	0.100
115.200	-21.274	0.100
115.300	-29.755	0.100
115.400	-12.574	0.100
115.500	-17.454	0.100
115.600	-16.754	0.100
115.700	-23.528	0.100
115.800	-19.810	0.100
115.900	-20.282	0.100
116.000	-24.631	0.100
116.100	-19.648	0.100
116.200	-19.480	0.100
116.300	-15.111	0.100
116.400	-18.347	0.100
116.500	-19.960	0.100
116.600	-22.325	0.100
116.700	-22.029	0.100
116.800	-18.426	0.100
116.900	-21.970	0.100
117.000	-23.689	0.100
117.100	-24.930	0.100
117.200	-18.322	0.100
117.300	-21.560	0.100
117.400	-19.933	0.100
117.500	-16.344	0.100
117.600	-16.424	0.100
117.700	-18.484	0.100
117.800	-21.611	0.100
117.900	-18.250	0.100
118.000	-21.105	0.100
118.100	-11.403	0.100
118.200	-20.088	0.100
118.300	-30.739	0.100
118.400	-8.827	0.100
118.500	-18.559	0.100
118.600	-13.180	0.100
118.700	-18.451	0.100
118.800	-25.007	0.100
118.900	-30.423	0.100
119.000	-19.336	0.100
119.100	-24.699	0.100
119.200	-18.482	0.100
119.300	-14.943	0.100
119.400	-25.501	0.100
119.500	-16.418	0.100
119.600	-16.211	0.100
119.700	-14.257	0.100
119.800	-23.019	0.100
119.900	-16.142	0.100
120.000	-22.820	0.100
120.100	-22.633	0.100
120.200	-18.764	0.100
120.300	-20.043	0.100
120.400	-17.000	0.100
120.500	-16.645	0.100
120.600	-16.106	0.100
120.700	-29.020	0.100
120.800	-19.412	0.100
120.900	-29.777	0.100
121.000	-17.683	0.100
121.100	-21.771	0.100
121.200	-21.411	0.100
121.300	-22.489	0.100
121.400	-26.181	0.100
121.500	-26.012	0.100
121.600	-28.381	0.100
121.700	-21.454	0.100
121.800	-26.200	0.100
121.900	-20.892	0.100
122.000	-23.786	0.100
122.100	-24.611	0.100
122.200	-19.558	0.100
122.300	-15.931	0.100
122.400	-25.931	0.100
122.500	-23.816	0.100
122.600	-16.924	0.100
122.700	-19.346	0.100
122.800	-26.759	0.100
122.900	-33.444	0.100
123.000	-26.481	0.100
123.100	-13.191	0.100
123.200	-18.824	0.100
123.300	-27.403	0.100
123.400	-27.830	0.100
123.500	-21.844	0.100
123.600	-17.997	0.100
123.700	-23.778	0.100
123.800	-24.787	0.100
123.900	-30.462	0.100
124.000	-20.692	0.100
124.100	-24.433	0.100
124.200	-18.078	0.100
124.300	-22.930	0.100
124.400	-26.264	0.100
124.500	-25.858	0.100
124.600	-26.969	0.100
124.700	-27.549	0.100
124.800	-22.387	0.100
124.900	-27.027	0.100
125.000	-27.202	0.100
125.100	-28.338	0.100
125.200	-18.640	0.100
125.300	-17.047	0.100
125.400	-29.878	0.100
125.500	-28.150	0.100
125.600	-25.582	0.100
125.700	-30.601	0.100
125.800	-33.392	0.100
125.900	-28.463	0.100
126.000	-24.794	0.100
126.100	-34.172	0.100
126.200	-23.791	0.100
126.300	-30.181	0.100
126.400	-31.933	0.100
126.500	-27.467	0.100
126.600	-23.405	0.100
126.700	-24.168	0.100
126.800	-22.804	0.100
126.900	-23.079	0.100
127.000	-26.266	0.100
127.100	-28.972	0.100
127.200	-36.001	0.100
127.300	-21.968	0.100
127.400	-22.981	0.100
127.500	-17.231	0.100
127.600	-30.867	0.100
127.700	-27.569	0.100
127.800	-32.484	0.100
127.900	-31.690	0.100
128.000	-24.541	0.100
128.100	-19.631	0.100
128.200	-24.773	0.100
128.300	-20.998	0.100
128.400	-20.517	0.100
128.500	-31.737	0.100
128.600	-18.504	0.100
128.700	-24.741	0.100
128.800	-32.515	0.100
128.900	-21.583	0.100
129.000	-26.635	0.100
129.100	-21.132	0.100
129.200	-21.329	0.100
129.300	-27.768	0.100
129.400	-27.649	0.100
129.500	-27.561	0.100
129.600	-30.439	0.100
129.700	-26.274	0.100
129.800	-33.866	0.100
129.900	-18.559	0.100
130.000	-24.531	0.100
130.100	-25.230	0.100
130.200	-32.535	0.100
130.300	-31.120	0.100
130.400	-33.955	0.100
130.500	-29.096	0.100
130.600	-23.758	0.100
130.700	-23.526	0.100
130.800	-36.100	0.100
130.900	-32.026	0.100
131.000	-16.221	0.100
131.100	-23.096	0.100
131.200	-23.618	0.100
131.300	-36.520	0.100
131.400	-22.809	0.100
131.500	-18.565	0.100
131.600	-26.287	0.100
131.700	-27.547	0.100
131.800	-25.504	0.100
131.900	-31.586	0.100
132.000	-22.956	0.100
132.100	-29.626	0.100
132.200	-26.418	0.100
132.300	-23.409	0.100
132.400	-30.428	0.100
132.500	-30.433	0.100
132.600	-32.374	0.100
132.700	-31.582	0.100
132.800	-34.026	0.100
132.900	-33.228	0.100
133.000	-29.013	0.100
133.100	-34.877	0.100
133.200	-20.237	0.100
133.300	-22.198	0.100
133.400	-18.405	0.100
133.500	-25.570	0.100
133.600	-34.530	0.100
133.700	-29.735	0.100
133.800	-33.058	0.100
133.900	-25.227	0.100
134.000	-21.795	0.100
134.100	-32.705	0.100
134.200	-29.256	0.100
134.300	-24.674	0.100
134.400	-26.609	0.100
134.500	-29.170	0.100
134.600	-24.206	0.100
134.700	-31.833	0.100
134.800	-28.421	0.100
134.900	-24.790	0.100
135.000	-29.616	0.100
135.100	-29.324	0.100
135.200	-24.091	0.100
135.300	-26.804	0.100
135.400	-30.216	0.100
135.500	-31.006	0.100
135.600	-41.546	0.100
135.700	-38.040	0.100
135.800	-30.647	0.100
135.900	-27.184	0.100
136.000	-25.858	0.100
136.100	-27.529	0.100
136.200	-29.139	0.100
136.300	-26.821	0.100
136.400	-25.296	0.100
136.500	-26.332	0.100
136.600	-23.560	0.100
136.700	-32.563	0.100
136.800	-21.931	0.100
136.900	-28.725	0.100
137.000	-34.705	0.100
137.100	-26.083	0.100
137.200	-29.714	0.100
137.300	-26.772	0.100
137.400	-25.751	0.100
137.500	-16.311	0.100
137.600	-21.517	0.100
137.700	-33.495	0.100
137.800	-27.470	0.100
137.900	-29.513	0.100
138.000	-34.876	0.100
138.100	-27.461	0.100
138.200	-24.317	0.100
138.300	-25.889	0.100
138.400	-25.500	0.100
138.500	-32.736	0.100
138.600	-36.557	0.100
138.700	-32.648	0.100
138.800	-33.853	0.100
138.900	-34.806	0.100
139.000	-34.673	0.100
139.100	-21.692	0.100
139.200	-28.847	0.100
139.300	-28.841	0.100
139.400	-28.096	0.100
139.500	-36.065	0.100
139.600	-25.390	0.100
139.700	-32.671	0.100
139.800	-19.677	0.100
139.900	-21.873	0.100
140.000	-30.903	0.100
140.100	-40.673	0.100
140.200	-31.958	0.100
140.300	-29.294	0.100
140.400	-15.081	0.100
140.500	-24.998	0.100
140.600	-25.472	0.100
140.700	-34.096	0.100
140.800	-32.403	0.100
140.900	-24.977	0.100
141.000	-28.724	0.100
141.100	-31.302	0.100
141.200	-26.382	0.100
141.300	-28.026	0.100
141.400	-32.209	0.100
141.500	-28.928	0.100
141.600	-27.949	0.100
141.700	-17.985	0.100
141.800	-28.896	0.100
141.900	-37.899	0.100
142.000	-36.473	0.100
142.100	-19.161	0.100
142.200	-24.719	0.100
142.300	-26.659	0.100
142.400	-32.060	0.100
142.500	-24.332	0.100
142.600	-34.348	0.100
142.700	-28.666	0.100
142.800	-29.204	0.100
142.900	-18.147	0.100
143.000	-26.226	0.100
143.100	-30.499	0.100
143.200	-32.812	0.100
143.300	-17.911	0.100
143.400	-25.521	0.100
143.500	-30.143	0.100
143.600	-29.345	0.100
143.700	-39.817	0.100
143.800	-24.033	0.100
143.900	-30.901	0.100
144.000	-28.383	0.100
144.100	-18.626	0.100
144.200	-29.634	0.100
144.300	-30.642	0.100
144.400	-25.975	0.100
144.500	-24.233	0.100
144.600	-38.817	0.100
144.700	-26.560	0.100
144.800	-31.018	0.100
144.900	-31.844	0.100
145.000	-32.088	0.100
145.100	-29.506	0.100
145.200	-34.065	0.100
145.300	-24.612	0.100
145.400	-29.254	0.100
145.500	-31.542	0.100
145.600	-25.164	0.100
145.700	-31.369	0.100
145.800	-21.597	0.100
145.900	-19.482	0.100
146.000	-25.702	0.100
146.100	-26.149	0.100
146.200	-29.388	0.100
146.300	-35.915	0.100
146.400	-25.084	0.100
146.500	-27.719	0.100
146.600	-30.603	0.100
146.700	-30.726	0.100
146.800	-32.608	0.100
146.900	-27.939	0.100
147.000	-26.316	0.100
147.100	-27.731	0.100
147.200	-27.070	0.100
147.300	-24.264	0.100
147.400	-27.085	0.100
147.500	-26.882	0.100
147.600	-19.789	0.100
147.700	-32.749	0.100
147.800	-39.887	0.100
147.900	-15.111	0.100
148.000	-26.202	0.100
148.100	-32.958	0.100
148.200	-35.491	0.100
148.300	-24.329	0.100
148.400	-25.666	0.100
148.500	-33.773	0.100
148.600	-28.527	0.100
148.700	-33.106	0.100
148.800	-32.490	0.100
148.900	-25.357	0.100
149.000	-28.338	0.100
149.100	-22.804	0.100
149.200	-23.815	0.100
149.300	-24.453	0.100
149.400	-29.643	0.100
149.500	-26.996	0.100
149.600	-27.662	0.100
149.700	-33.335	0.100
149.800	-30.465	0.100
149.900	-32.515	0.100
150.000	-22.867	0.100
150.100	-29.345	0.100
150.200	-31.842	0.100
150.300	-27.483	0.100
150.400	-30.289	0.100
150.500	-33.463	0.100
150.600	-29.203	0.100
150.700	-22.993	0.100
150.800	-26.024	0.100
150.900	-29.370	0.100
151.000	-29.301	0.100
151.100	-23.988	0.100
151.200	-20.461	0.100
151.300	-26.844	0.100
151.400	-25.258	0.100
151.500	-23.311	0.100
151.600	-27.736	0.100
151.700	-19.842	0.100
151.800	-29.228	0.100
151.900	-30.600	0.100
152.000	-23.778	0.100
152.100	-29.011	0.100
152.200	-25.523	0.100
152.300	-26.591	0.100
152.400	-28.900	0.100
152.500	-25.780	0.100
152.600	-22.975	0.100
152.700	-35.837	0.100
152.800	-28.213	0.100
152.900	-29.012	0.100
153.000	-34.916	0.100
153.100	-31.422	0.100
153.200	-28.951	0.100
153.300	-30.982	0.100
153.400	-26.286	0.100
153.500	-22.888	0.100
153.600	-22.817	0.100
153.700	-20.065	0.100
153.800	-28.587	0.100
153.900	-29.605	0.100
154.000	-23.924	0.100
154.100	-29.566	0.100
154.200	-25.374	0.100
154.300	-27.526	0.100
154.400	-33.917	0.100
154.500	-25.434	0.100
154.600	-23.903	0.100
154.700	-31.666	0.100
154.800	-32.113	0.100
154.900	-20.986	0.100
155.000	-16.953	0.100
155.100	-30.651	0.100
155.200	-22.897	0.100
155.300	-30.591	0.100
155.400	-29.858	0.100
155.500	-16.449	0.100
155.600	-25.717	0.100
155.700	-25.835	0.100
155.800	-28.374	0.100
155.900	-28.779	0.100
156.000	-32.071	0.100
156.100	-23.357	0.100
156.200	-21.894	0.100
156.300	-22.772	0.100
156.400	-33.670	0.100
156.500	-21.856	0.100
156.600	-29.620	0.100
156.700	-34.700	0.100
156.800	-26.186	0.100
156.900	-21.342	0.100
157.000	-15.443	0.100
157.100	-21.574	0.100
157.200	-26.870	0.100
157.300	-24.583	0.100
157.400	-20.735	0.100
157.500	-30.727	0.100
157.600	-28.262	0.100
157.700	-26.130	0.100
157.800	-24.956	0.100
157.900	-20.838	0.100
158.000	-18.751	0.100
158.100	-35.376	0.100
158.200	-28.343	0.100
158.300	-26.540	0.100
158.400	-22.238	0.100
158.500	-33.056	0.100
158.600	-29.550	0.100
158.700	-24.849	0.100
158.800	-23.718	0.100
158.900	-24.485	0.100
159.000	-26.921	0.100
159.100	-25.155	0.100
159.200	-19.658	0.100
159.300	-20.192	0.100
159.400	-35.702	0.100
159.500	-17.674	0.100
159.600	-25.177	0.100
159.700	-18.806	0.100
159.800	-21.906	0.100
159.900	-23.273	0.100
160.000	-28.204	0.100
160.100	-27.897	0.100
160.200	-22.862	0.100
160.300	-26.731	0.100
160.400	-28.414	0.100
160.500	-25.969	0.100
160.600	-21.632	0.100
160.700	-32.550	0.100
160.800	-22.739	0.100
160.900	-22.423	0.100
161.000	-33.234	0.100
161.100	-30.718	0.100
161.200	-25.034	0.100
161.300	-21.129	0.100
161.400	-21.006	0.100
161.500	-22.518	0.100
161.600	-35.031	0.100
161.700	-28.105	0.100
161.800	-25.841	0.100
161.900	-22.974	0.100
162.000	-24.137	0.100
162.100	-24.331	0.100
162.200	-22.734	0.100
162.300	-23.900	0.100
162.400	-21.564	0.100
162.500	-25.816	0.100
162.600	-24.471	0.100
162.700	-21.929	0.100
162.800	-32.814	0.100
162.900	-22.065	0.100
163.000	-32.309	0.100
163.100	-33.300	0.100
163.200	-25.342	0.100
163.300	-18.720	0.100
163.400	-17.265	0.100
163.500	-15.862	0.100
163.600	-32.748	0.100
163.700	-30.291	0.100
163.800	-21.882	0.100
163.900	-25.690	0.100
164.000	-30.113	0.100
164.100	-33.862	0.100
164.200	-28.539	0.100
164.300	-23.161	0.100
164.400	-28.944	0.100
164.500	-34.867	0.100
164.600	-26.197	0.100
164.700	-17.586	0.100
164.800	-17.784	0.100
164.900	-22.795	0.100
165.000	-21.452	0.100
165.100	-23.402	0.100
165.200	-33.007	0.100
165.300	-37.134	0.100
165.400	-24.907	0.100
165.500	-23.187	0.100
165.600	-26.941	0.100
165.700	-19.906	0.100
165.800	-21.472	0.100
165.900	-21.556	0.100
166.000	-27.851	0.100
166.100	-28.117	0.100
166.200	-33.641	0.100
166.300	-21.050	0.100
166.400	-23.737	0.100
166.500	-22.071	0.100
166.600	-20.497	0.100
166.700	-29.575	0.100
166.800	-20.443	0.100
166.900	-32.352	0.100
167.000	-20.852	0.100
167.100	-21.544	0.100
167.200	-16.810	0.100
167.300	-23.379	0.100
167.400	-20.062	0.100
167.500	-21.659	0.100
167.600	-21.081	0.100
167.700	-26.920	0.100
167.800	-31.416	0.100
167.900	-26.706	0.100
168.000	-20.489	0.100
168.100	-18.957	0.100
168.200	-30.643	0.100
168.300	-28.328	0.100
168.400	-18.976	0.100
168.500	-24.348	0.100
168.600	-34.409	0.100
168.700	-30.417	0.100
168.800	-35.549	0.100
168.900	-17.823	0.100
169.000	-16.076	0.100
169.100	-23.279	0.100
169.200	-28.335	0.100
169.300	-23.531	0.100
169.400	-27.819	0.100
169.500	-29.389	0.100
169.600	-18.920	0.100
169.700	-26.873	0.100
169.800	-26.751	0.100
169.900	-29.825	0.100
170.000	-20.796	0.100
170.100	-30.199	0.100
170.200	-21.283	0.100
170.300	-21.244	0.100
170.400	-25.777	0.100
170.500	-26.461	0.100
170.600	-25.955	0.100
170.700	-27.692	0.100
170.800	-17.055	0.100
170.900	-17.273	0.100
171.000	-17.471	0.100
171.100	-30.120	0.100
171.200	-23.713	0.100
171.300	-29.567	0.100
171.400	-21.972	0.100
171.500	-14.917	0.100
171.600	-22.955	0.100
171.700	-19.831	0.100
171.800	-34.195	0.100
171.900	-33.112	0.100
172.000	-23.203	0.100
172.100	-13.975	0.100
172.200	-28.963	0.100
172.300	-23.592	0.100
172.400	-30.085	0.100
172.500	-25.804	0.100
172.600	-24.901	0.100
172.700	-32.073	0.100
172.800	-29.394	0.100
172.900	-30.128	0.100
173.000	-23.474	0.100
173.100	-15.972	0.100
173.200	-17.851	0.100
173.300	-17.208	0.100
173.400	-29.204	0.100
173.500	-23.480	0.100
173.600	-23.778	0.100
173.700	-19.822	0.100
173.800	-10.183	0.100
173.900	-23.197	0.100
174.000	-23.301	0.100
174.100	-21.795	0.100
174.200	-14.521	0.100
174.300	-21.736	0.100
174.400	-24.486	0.100
174.500	-21.823	0.100
174.600	-21.341	0.100
174.700	-35.278	0.100
174.800	-20.063	0.100
174.900	-18.195	0.100
175.000	-26.999	0.100
175.100	-22.712	0.100
175.200	-22.323	0.100
175.300	-26.333	0.100
175.400	-33.321	0.100
175.500	-20.675	0.100
175.600	-28.101	0.100
175.700	-21.044	0.100
175.800	-23.429	0.100
175.900	-26.978	0.100
176.000	-21.037	0.100
176.100	-24.823	0.100
176.200	-26.377	0.100
176.300	-25.396	0.100
176.400	-23.150	0.100
176.500	-17.961	0.100
176.600	-16.919	0.100
176.700	-24.231	0.100
176.800	-25.834	0.100
176.900	-25.888	0.100
177.000	-18.525	0.100
177.100	-23.342	0.100
177.200	-29.563	0.100
177.300	-26.039	0.100
177.400	-18.884	0.100
177.500	-25.948	0.100
177.600	-15.993	0.100
177.700	-26.582	0.100
177.800	-27.115	0.100
177.900	-19.093	0.100
178.000	-23.658	0.100
178.100	-23.917	0.100
178.200	-28.097	0.100
178.300	-27.738	0.100
178.400	-23.375	0.100
178.500	-22.908	0.100
178.600	-23.560	0.100
178.700	-29.634	0.100
178.800	-16.094	0.100
178.900	-17.365	0.100
179.000	-27.486	0.100
179.100	-21.848	0.100
179.200	-22.530	0.100
179.300	-24.247	0.100
179.400	-22.614	0.100
179.500	-20.966	0.100
179.600	-13.962	0.100
179.700	-27.243	0.100
179.800	-27.787	0.100
179.900	-19.417	0.100
180.000	-24.822	0.100
180.100	-15.966	0.100
180.200	-17.921	0.100
180.300	-28.403	0.100
180.400	-25.432	0.100
180.500	-16.248	0.100
180.600	-15.395	0.100
180.700	-15.481	0.100
180.800	-18.152	0.100
180.900	-29.111	0.100
181.000	-15.855	0.100
181.100	-12.456	0.100
181.200	-4.853	0.100
181.300	-4.491	0.100
181.400	-6.915	0.100
181.500	-3.498	0.100
181.600	-1.480	0.100
181.700	5.628	0.100
181.800	11.597	0.100
181.900	5.456	0.100
182.000	1.736	0.100
182.100	13.038	0.100
182.200	6.791	0.100
182.300	14.191	0.100
182.400	6.264	0.100
182.500	12.505	0.100
182.600	13.614	0.100
182.700	21.875	0.100
182.800	18.297	0.100
182.900	18.794	0.100
183.000	12.709	0.100
183.100	10.080	0.100
183.200	17.157	0.100
183.300	12.340	0.100
183.400	22.903	0.100
183.500	17.481	0.100
183.600	19.863	0.100
183.700	16.799	0.100
183.800	13.939	0.100
183.900	17.743	0.100
184.000	19.738	0.100
184.100	16.391	0.100
184.200	19.563	0.100
184.300	27.771	0.100
184.400	14.017	0.100
184.500	18.362	0.100
184.600	20.145	0.100
184.700	16.452	0.100
184.800	14.449	0.100
184.900	18.972	0.100
185.000	20.450	0.100
185.100	18.919	0.100
185.200	11.353	0.100
185.300	15.268	0.100
185.400	16.575	0.100
185.500	17.612	0.100
185.600	14.212	0.100
185.700	8.876	0.100
185.800	18.757	0.100
185.900	11.405	0.100
186.000	9.757	0.100
186.100	20.232	0.100
186.200	11.500	0.100
186.300	17.204	0.100
186.400	18.961	0.100
186.500	16.397	0.100
186.600	15.208	0.100
186.700	12.401	0.100
186.800	16.552	0.100
186.900	8.426	0.100
187.000	7.208	0.100
187.100	15.461	0.100
187.200	10.044	0.100
187.300	15.368	0.100
187.400	16.832	0.100
187.500	12.902	0.100
187.600	16.401	0.100
187.700	16.455	0.100
187.800	16.255	0.100
187.900	9.119	0.100
188.000	8.971	0.100
188.100	8.459	0.100
188.200	13.452	0.100
188.300	9.787	0.100
188.400	13.058	0.100
188.500	13.874	0.100
188.600	13.566	0.100
188.700	13.888	0.100
188.800	12.542	0.100
188.900	12.048	0.100
189.000	16.340	0.100
189.100	12.942	0.100
189.200	13.638	0.100
189.300	17.788	0.100
189.400	18.325	0.100
189.500	4.493	0.100
189.600	11.089	0.100
189.700	15.956	0.100
189.800	17.260	0.100
189.900	9.242	0.100
190.000	6.132	0.100
190.100	27.300	0.100
190.200	18.626	0.100
190.300	11.735	0.100
190.400	15.942	0.100
190.500	20.181	0.100
190.600	18.269	0.100
190.700	3.711	0.100
190.800	5.713	0.100
190.900	12.409	0.100
191.000	18.948	0.100
191.100	18.091	0.100
191.200	11.656	0.100
191.300	12.130	0.100
191.400	19.331	0.100
191.500	18.460	0.100
191.600	11.918	0.100
191.700	17.212	0.100
191.800	24.342	0.100
191.900	16.545	0.100
192.000	11.484	0.100
192.100	12.232	0.100
192.200	13.062	0.100
192.300	17.174	0.100
192.400	20.047	0.100
192.500	22.317	0.100
192.600	5.200	0.100
192.700	18.573	0.100
192.800	19.900	0.100
192.900	13.291	0.100
193.000	5.745	0.100
193.100	23.624	0.100
193.200	10.333	0.100
193.300	20.989	0.100
193.400	24.679	0.100
193.500	13.972	0.100
193.600	16.448	0.100
193.700	18.649	0.100
193.800	15.415	0.100
193.900	18.790	0.100
194.000	22.008	0.100
194.100	24.890	0.100
194.200	13.198	0.100
194.300	22.827	0.100
194.400	23.120	0.100
194.500	24.895	0.100
194.600	12.502	0.100
194.700	24.999	0.100
194.800	10.784	0.100
194.900	14.305	0.100
195.000	20.293	0.100
195.100	25.727	0.100
195.200	11.006	0.100
195.300	27.844	0.100
195.400	34.156	0.100
195.500	8.312	0.100
195.600	14.386	0.100
195.700	22.497	0.100
195.800	17.064	0.100
195.900	15.141	0.100
196.000	22.664	0.100
196.100	27.017	0.100
196.200	16.617	0.100
196.300	18.568	0.100
196.400	28.591	0.100
196.500	21.751	0.100
196.600	26.885	0.100
196.700	20.624	0.100
196.800	17.337	0.100
196.900	24.371	0.100
197.000	31.217	0.100
197.100	20.048	0.100
197.200	16.298	0.100
197.300	23.593	0.100
197.400	19.288	0.100
197.500	22.575	0.100
197.600	26.453	0.100
197.700	27.005	0.100
197.800	26.011	0.100
197.900	18.691	0.100
198.000	22.488	0.100
198.100	21.711	0.100
198.200	23.567	0.100
198.300	25.511	0.100
198.400	20.960	0.100
198.500	22.508	0.100
198.600	22.926	0.100
198.700	30.861	0.100
198.800	31.595	0.100
198.900	30.333	0.100
199.000	34.039	0.100
199.100	22.757	0.100
199.200	26.470	0.100
199.300	27.093	0.100
199.400	23.832	0.100
199.500	17.506	0.100
199.600	31.867	0.100
199.700	24.763	0.100
199.800	18.706	0.100
199.900	31.538	0.100
200.000	19.667	0.100
200.100	20.248	0.100
200.200	29.276	0.100
200.300	35.573	0.100
200.400	35.253	0.100
200.500	31.307	0.100
200.600	19.186	0.100
200.700	41.480	0.100
200.800	27.721	0.100
200.900	22.304	0.100
201.000	32.203	0.100
201.100	27.159	0.100
201.200	30.392	0.100
201.300	23.816	0.100
201.400	33.037	0.100
201.500	39.551	0.100
201.600	33.723	0.100
201.700	27.808	0.100
201.800	34.977	0.100
201.900	27.969	0.100
202.000	37.186	0.100
202.100	39.741	0.100
202.200	36.784	0.100
202.300	33.199	0.100
202.400	29.109	0.100
202.500	34.067	0.100
202.600	33.100	0.100
202.700	31.816	0.100
202.800	28.245	0.100
202.900	28.095	0.100
203.000	32.462	0.100
203.100	27.510	0.100
203.200	38.190	0.100
203.300	30.743	0.100
203.400	41.564	0.100
203.500	27.562	0.100
203.600	27.760	0.100
203.700	29.066	0.100
203.800	38.842	0.100
203.900	38.315	0.100
204.000	34.040	0.100
204.100	35.570	0.100
204.200	33.934	0.100
204.300	41.869	0.100
204.400	31.205	0.100
204.500	33.856	0.100
204.600	41.487	0.100
204.700	39.380	0.100
204.800	32.578	0.100
204.900	33.907	0.100
205.000	34.261	0.100
205.100	38.939	0.100
205.200	39.455	0.100
205.300	36.723	0.100
205.400	34.958	0.100
205.500	35.368	0.100
205.600	33.260	0.100
205.700	40.446	0.100
205.800	44.923	0.100
205.900	37.632	0.100
206.000	35.537	0.100
206.100	39.057	0.100
206.200	40.297	0.100
206.300	36.722	0.100
206.400	41.591	0.100
206.500	35.892	0.100
206.600	43.623	0.100
206.700	43.738	0.100
206.800	37.516	0.100
206.900	40.219	0.100
207.000	40.137	0.100
207.100	43.090	0.100
207.200	47.885	0.100
207.300	36.946	0.100
207.400	37.695	0.100
207.500	39.537	0.100
207.600	35.739	0.100
207.700	46.479	0.100
207.800	46.122	0.100
207.900	44.859	0.100
208.000	41.256	0.100
208.100	44.770	0.100
208.200	29.338	0.100
208.300	41.908	0.100
208.400	44.251	0.100
208.500	34.801	0.100
208.600	41.498	0.100
208.700	43.374	0.100
208.800	42.322	0.100
208.900	39.980	0.100
209.000	48.839	0.100
209.100	44.229	0.100
209.200	37.244	0.100
209.300	43.248	0.100
209.400	41.643	0.100
209.500	40.170	0.100
209.600	38.440	0.100
209.700	36.266	0.100
209.800	45.841	0.100
209.900	44.000	0.100
210.000	45.469	0.100
210.100	45.397	0.100
210.200	45.101	0.100
210.300	44.946	0.100
210.400	34.456	0.100
210.500	45.246	0.100
210.600	40.088	0.100
210.700	40.009	0.100
210.800	46.946	0.100
210.900	35.092	0.100
211.000	43.948	0.100
211.100	45.395	0.100
211.200	45.784	0.100
211.300	37.375	0.100
211.400	47.001	0.100
211.500	48.952	0.100
211.600	51.031	0.100
211.700	43.615	0.100
211.800	37.635	0.100
211.900	40.516	0.100
212.000	44.650	0.100
212.100	44.170	0.100
212.200	53.131	0.100
212.300	42.326	0.100
212.400	32.571	0.100
212.500	47.489	0.100
212.600	49.567	0.100
212.700	42.039	0.100
212.800	46.591	0.100
212.900	48.817	0.100
213.000	54.817	0.100
213.100	41.885	0.100
213.200	37.830	0.100
213.300	48.975	0.100
213.400	38.862	0.100
213.500	50.906	0.100
213.600	50.601	0.100
213.700	41.218	0.100
213.800	47.154	0.100
213.900	46.629	0.100
214.000	48.266	0.100
214.100	43.844	0.100
214.200	47.801	0.100
214.300	43.091	0.100
214.400	38.796	0.100
214.500	48.290	0.100
214.600	52.089	0.100
214.700	48.585	0.100
214.800	44.809	0.100
214.900	47.870	0.100
215.000	53.959	0.100
215.100	47.063	0.100
215.200	42.185	0.100
215.300	45.684	0.100
215.400	43.601	0.100
215.500	50.928	0.100
215.600	53.476	0.100
215.700	42.056	0.100
215.800	49.701	0.100
215.900	45.861	0.100
216.000	33.938	0.100
216.100	49.586	0.100
216.200	48.369	0.100
216.300	50.641	0.100
216.400	46.284	0.100
216.500	52.010	0.100
216.600	44.108	0.100
216.700	38.172	0.100
216.800	41.695	0.100
216.900	46.917	0.100
217.000	47.426	0.100
217.100	43.856	0.100
217.200	53.326	0.100
217.300	53.469	0.100
217.400	51.891	0.100
217.500	47.799	0.100
217.600	49.420	0.100
217.700	42.377	0.100
217.800	50.914	0.100
217.900	42.244	0.100
218.000	45.784	0.100
218.100	39.983	0.100
218.200	38.400	0.100
218.300	54.267	0.100
218.400	46.973	0.100
218.500	44.373	0.100
218.600	50.350	0.100
218.700	50.257	0.100
218.800	52.811	0.100
218.900	41.332	0.100
219.000	47.024	0.100
219.100	58.139	0.100
219.200	55.591	0.100
219.300	54.124	0.100
219.400	53.109	0.100
219.500	40.382	0.100
219.600	50.443	0.100
219.700	45.113	0.100
219.800	51.319	0.100
219.900	49.675	0.100
220.000	51.124	0.100
220.100	41.992	0.100
220.200	38.714	0.100
220.300	43.427	0.100
220.400	49.373	0.100
220.500	43.579	0.100
220.600	45.757	0.100
220.700	45.182	0.100
220.800	54.389	0.100
220.900	50.347	0.100
221.000	52.933	0.100
221.100	50.201	0.100
221.200	47.441	0.100
221.300	46.538	0.100
221.400	49.400	0.100
221.500	42.850	0.100
221.600	51.257	0.100
221.700	40.579	0.100
221.800	48.080	0.100
221.900	50.794	0.100
222.000	49.285	0.100
222.100	41.939	0.100
222.200	54.472	0.100
222.300	44.965	0.100
222.400	47.478	0.100
222.500	42.925	0.100
222.600	52.569	0.100
222.700	42.405	0.100
222.800	52.850	0.100
222.900	54.447	0.100
223.000	55.025	0.100
223.100	39.787	0.100
223.200	51.604	0.100
223.300	35.361	0.100
223.400	45.272	0.100
223.500	51.946	0.100
223.600	41.674	0.100
223.700	50.027	0.100
223.800	45.425	0.100
223.900	51.429	0.100
224.000	42.921	0.100
224.100	44.851	0.100
224.200	49.817	0.100
224.300	43.982	0.100
224.400	48.005	0.100
224.500	51.702	0.100
224.600	46.819	0.100
224.700	50.259	0.100
224.800	53.637	0.100
224.900	45.869	0.100
225.000	59.649	0.100
225.100	49.302	0.100
225.200	47.130	0.100
225.300	39.465	0.100
225.400	47.471	0.100
225.500	45.005	0.100
225.600	44.452	0.100
225.700	54.552	0.100
225.800	52.414	0.100
225.900	47.259	0.100
226.000	34.928	0.100
226.100	41.700	0.100
226.200	51.914	0.100
226.300	48.629	0.100
226.400	41.698	0.100
226.500	47.702	0.100
226.600	46.779	0.100
226.700	47.976	0.100
226.800	47.228	0.100
226.900	49.211	0.100
227.000	47.147	0.100
227.100	47.444	0.100
227.200	41.406	0.100
227.300	50.035	0.100
227.400	48.334	0.100
227.500	46.761	0.100
227.600	49.900	0.100
227.700	45.903	0.100
227.800	33.800	0.100
227.900	46.369	0.100
228.000	41.115	0.100
228.100	45.186	0.100
228.200	57.106	0.100
228.300	54.158	0.100
228.400	42.539	0.100
228.500	50.245	0.100
228.600	49.328	0.100
228.700	45.564	0.100
228.800	35.498	0.100
228.900	39.626	0.100
229.000	50.333	0.100
229.100	42.178	0.100
229.200	51.005	0.100
229.300	58.917	0.100
229.400	45.588	0.100
229.500	41.272	0.100
229.600	47.749	0.100
229.700	42.896	0.100
229.800	44.922	0.100
229.900	52.976	0.100
230.000	52.139	0.100
230.100	51.962	0.100
230.200	48.182	0.100
230.300	45.299	0.100
230.400	47.450	0.100
230.500	47.848	0.100
230.600	52.683	0.100
230.700	44.981	0.100
230.800	40.810	0.100
230.900	44.128	0.100
231.000	49.110	0.100
231.100	51.948	0.100
231.200	47.394	0.100
231.300	37.709	0.100
231.400	40.305	0.100
231.500	45.517	0.100
231.600	35.119	0.100
231.700	53.627	0.100
231.800	50.859	0.100
231.900	45.909	0.100
232.000	46.437	0.100
232.100	42.223	0.100
232.200	35.850	0.100
232.300	39.333	0.100
232.400	47.179	0.100
232.500	51.276	0.100
232.600	43.303	0.100
232.700	47.415	0.100
232.800	52.939	0.100
232.900	52.302	0.100
233.000	44.226	0.100
233.100	47.105	0.100
233.200	44.343	0.100
233.300	41.567	0.100
233.400	43.117	0.100
233.500	39.293	0.100
233.600	56.370	0.100
233.700	51.853	0.100
233.800	50.195	0.100
233.900	54.106	0.100
234.000	42.561	0.100
234.100	41.791	0.100
234.200	44.341	0.100
234.300	39.198	0.100
234.400	47.295	0.100
234.500	49.520	0.100
234.600	46.044	0.100
234.700	40.973	0.100
234.800	46.637	0.100
234.900	50.854	0.100
235.000	47.323	0.100
235.100	47.633	0.100
235.200	44.887	0.100
235.300	45.529	0.100
235.400	51.546	0.100
235.500	42.680	0.100
235.600	49.345	0.100
235.700	38.831	0.100
235.800	50.472	0.100
235.900	41.131	0.100
236.000	46.107	0.100
236.100	47.601	0.100
236.200	46.587	0.100
236.300	40.614	0.100
236.400	43.224	0.100
236.500	42.381	0.100
236.600	41.926	0.100
236.700	46.000	0.100
236.800	48.620	0.100
236.900	49.173	0.100
237.000	48.645	0.100
237.100	39.130	0.100
237.200	46.440	0.100
237.300	50.301	0.100
237.400	46.956	0.100
237.500	46.325	0.100
237.600	40.238	0.100
237.700	51.380	0.100
237.800	54.877	0.100
237.900	56.056	0.100
238.000	53.668	0.100
238.100	38.634	0.100
238.200	33.602	0.100
238.300	44.774	0.100
238.400	43.353	0.100
238.500	50.776	0.100
238.600	53.160	0.100
238.700	49.937	0.100
238.800	52.211	0.100
238.900	43.422	0.100
239.000	42.457	0.100
239.100	39.369	0.100
239.200	51.215	0.100
239.300	46.593	0.100
239.400	41.094	0.100
239.500	51.759	0.100
239.600	36.966	0.100
239.700	46.982	0.100
239.800	36.077	0.100
239.900	38.515	0.100
240.000	46.050	0.100
240.100	46.787	0.100
240.200	44.715	0.100
240.300	48.163	0.100
240.400	43.857	0.100
240.500	44.443	0.100
240.600	38.183	0.100
240.700	35.593	0.100
240.800	38.918	0.100
240.900	40.245	0.100
241.000	34.342	0.100
241.100	35.452	0.100
241.200	24.864	0.100
241.300	27.939	0.100
241.400	30.326	0.100
241.500	32.235	0.100
241.600	28.310	0.100
241.700	29.221	0.100
241.800	20.302	0.100
241.900	14.871	0.100
242.000	25.681	0.100
242.100	21.249	0.100
242.200	22.403	0.100
242.300	10.850	0.100
242.400	10.970	0.100
242.500	12.018	0.100
242.600	20.205	0.100
242.700	20.152	0.100
242.800	14.220	0.100
242.900	15.150	0.100
243.000	23.273	0.100
243.100	15.431	0.100
243.200	6.964	0.100
243.300	3.183	0.100
243.400	13.342	0.100
243.500	4.660	0.100
243.600	9.611	0.100
243.700	10.295	0.100
243.800	9.402	0.100
243.900	6.236	0.100
244.000	9.789	0.100
244.100	14.075	0.100
244.200	5.205	0.100
244.300	2.912	0.100
244.400	2.744	0.100
244.500	8.464	0.100
244.600	8.149	0.100
244.700	4.129	0.100
244.800	2.010	0.100
244.900	6.980	0.100
245.000	4.661	0.100
245.100	2.584	0.100
245.200	0.278	0.100
245.300	2.420	0.100
245.400	15.034	0.100
245.500	11.214	0.100
245.600	8.453	0.100
245.700	-6.112	0.100
245.800	4.063	0.100
245.900	5.193	0.100
246.000	0.232	0.100
246.100	0.697	0.100
246.200	0.950	0.100
246.300	3.980	0.100
246.400	9.003	0.100
246.500	7.156	0.100
246.600	-0.257	0.100
246.700	0.243	0.100
246.800	-1.140	0.100
246.900	0.789	0.100
247.000	3.987	0.100
247.100	-6.105	0.100
247.200	1.904	0.100
247.300	3.864	0.100
247.400	-0.084	0.100
247.500	3.658	0.100
247.600	-2.094	0.100
247.700	-3.676	0.100
247.800	4.008	0.100
247.900	1.428	0.100
248.000	1.802	0.100
248.100	-1.531	0.100
248.200	-5.170	0.100
248.300	6.540	0.100
248.400	8.475	0.100
248.500	-3.143	0.100
248.600	-4.263	0.100
248.700	-1.169	0.100
248.800	-0.652	0.100
248.900	13.902	0.100
249.000	7.678	0.100
249.100	-5.068	0.100
249.200	1.017	0.100
249.300	-0.185	0.100
249.400	-7.040	0.100
249.500	-8.607	0.100
249.600	3.281	0.100
249.700	3.873	0.100
249.800	-1.196	0.100
249.900	-1.384	0.100
250.000	-8.361	0.100
250.100	-7.904	0.100
250.200	5.144	0.100
250.300	-7.927	0.100
250.400	-5.374	0.100
250.500	0.943	0.100
250.600	5.813	0.100
250.700	-1.342	0.100
250.800	3.510	0.100
250.900	-6.919	0.100
251.000	-9.361	0.100
251.100	-4.400	0.100
251.200	-5.917	0.100
251.300	-15.711	0.100
251.400	-5.566	0.100
251.500	-11.182	0.100
251.600	-11.467	0.100
251.700	-9.677	0.100
251.800	-6.286	0.100
251.900	-2.960	0.100
252.000	-0.461	0.100
252.100	-3.082	0.100
252.200	-7.679	0.100
252.300	0.079	0.100
252.400	1.773	0.100
252.500	-9.260	0.100
252.600	-5.969	0.100
252.700	-7.460	0.100
252.800	-7.414	0.100
252.900	-4.633	0.100
253.000	-8.261	0.100
253.100	-5.843	0.100
253.200	-11.277	0.100
253.300	-7.714	0.100
253.400	-9.112	0.100
253.500	-3.484	0.100
253.600	-10.569	0.100
253.700	-7.663	0.100
253.800	-3.122	0.100
253.900	-17.412	0.100
254.000	-5.759	0.100
254.100	-4.649	0.100
254.200	-14.088	0.100
254.300	-4.880	0.100
254.400	-12.887	0.100
254.500	-17.290	0.100
254.600	-7.505	0.100
254.700	-15.146	0.100
254.800	-7.689	0.100
254.900	-3.049	0.100
255.000	-6.202	0.100
255.100	-9.802	0.100
255.200	0.179	0.100
255.300	-6.993	0.100
255.400	-7.253	0.100
255.500	-5.668	0.100
255.600	-12.393	0.100
255.700	-7.354	0.100
255.800	-15.743	0.100
255.900	-9.615	0.100
256.000	-17.291	0.100
256.100	-14.654	0.100
256.200	-13.589	0.100
256.300	-3.767	0.100
256.400	-8.018	0.100
256.500	-6.645	0.100
256.600	-8.777	0.100
256.700	-6.137	0.100
256.800	-10.204	0.100
256.900	-14.920	0.100
257.000	-22.714	0.100
257.100	-16.239	0.100
257.200	-8.216	0.100
257.300	-15.059	0.100
257.400	-13.854	0.100
257.500	-13.037	0.100
257.600	-11.647	0.100
257.700	-4.269	0.100
257.800	-13.326	0.100
257.900	-6.969	0.100
258.000	-5.781	0.100
258.100	-5.180	0.100
258.200	-14.709	0.100
258.300	-14.500	0.100
258.400	-13.143	0.100
258.500	-14.956	0.100
258.600	-21.339	0.100
258.700	-16.468	0.100
258.800	-12.175	0.100
258.900	-13.055	0.100
259.000	-20.939	0.100
259.100	-13.599	0.100
259.200	-16.412	0.100
259.300	-16.910	0.100
259.400	-14.053	0.100
259.500	-11.829	0.100
259.600	-11.758	0.100
259.700	-8.712	0.100
259.800	-10.121	0.100
259.900	-17.736	0.100
260.000	-16.501	0.100
260.100	-14.035	0.100
260.200	-10.350	0.100
260.300	-17.671	0.100
260.400	-15.640	0.100
260.500	-16.206	0.100
260.600	-16.079	0.100
260.700	-9.699	0.100
260.800	-14.389	0.100
260.900	-16.742	0.100
261.000	-9.003	0.100
261.100	-15.995	0.100
261.200	-20.285	0.100
261.300	-15.146	0.100
261.400	-16.156	0.100
261.500	-12.347	0.100
261.600	-23.106	0.100
261.700	-16.896	0.100
261.800	-23.762	0.100
261.900	-15.715	0.100
262.000	-14.806	0.100
262.100	-12.313	0.100
262.200	-11.902	0.100
262.300	-27.888	0.100
262.400	-12.433	0.100
262.500	-12.704	0.100
262.600	-11.825	0.100
262.700	-19.041	0.100
262.800	-15.402	0.100
262.900	-15.720	0.100
263.000	-17.292	0.100
263.100	-18.547	0.100
263.200	-17.699	0.100
263.300	-23.038	0.100
263.400	-18.210	0.100
263.500	-11.982	0.100
263.600	-16.098	0.100
263.700	-15.899	0.100
263.800	-18.172	0.100
263.900	-23.921	0.100
264.000	-23.356	0.100
264.100	-13.523	0.100
264.200	-7.644	0.100
264.300	-20.058	0.100
264.400	-19.396	0.100
264.500	-18.369	0.100
264.600	-21.972	0.100
264.700	-16.093	0.100
264.800	-21.248	0.100
264.900	-18.246	0.100
265.000	-21.536	0.100
265.100	-20.019	0.100
265.200	-16.756	0.100
265.300	-16.872	0.100
265.400	-18.897	0.100
265.500	-25.468	0.100
265.600	-24.207	0.100
265.700	-14.452	0.100
265.800	-24.710	0.100
265.900	-15.243	0.100
266.000	-24.640	0.100
266.100	-16.550	0.100
266.200	-26.936	0.100
266.300	-18.242	0.100
266.400	-23.792	0.100
266.500	-27.135	0.100
266.600	-13.888	0.100
266.700	-20.849	0.100
266.800	-25.543	0.100
266.900	-27.035	0.100
267.000	-26.615	0.100
267.100	-19.697	0.100
267.200	-21.002	0.100
267.300	-18.304	0.100
267.400	-24.671	0.100
267.500	-17.340	0.100
267.600	-27.507	0.100
267.700	-26.532	0.100
267.800	-23.687	0.100
267.900	-18.147	0.100
268.000	-20.179	0.100
268.100	-20.316	0.100
268.200	-25.080	0.100
268.300	-17.408	0.100
268.400	-20.231	0.100
268.500	-21.710	0.100
268.600	-26.808	0.100
268.700	-26.648	0.100
268.800	-21.779	0.100
268.900	-30.958	0.100
269.000	-28.030	0.100
269.100	-29.985	0.100
269.200	-24.900	0.100
269.300	-26.302	0.100
269.400	-29.583	0.100
269.500	-21.742	0.100
269.600	-26.659	0.100
269.700	-26.360	0.100
269.800	-26.702	0.100
269.900	-22.404	0.100
270.000	-21.340	0.100
270.100	-19.718	0.100
270.200	-30.969	0.100
270.300	-32.824	0.100
270.400	-16.259	0.100
270.500	-28.830	0.100
270.600	-28.333	0.100
270.700	-30.466	0.100
270.800	-31.911	0.100
270.900	-24.271	0.100
271.000	-12.546	0.100
271.100	-26.146	0.100
271.200	-23.862	0.100
271.300	-24.314	0.100
271.400	-17.822	0.100
271.500	-35.822	0.100
271.600	-34.345	0.100
271.700	-25.653	0.100
271.800	-24.563	0.100
271.900	-26.188	0.100
272.000	-31.993	0.100
272.100	-35.529	0.100
272.200	-25.354	0.100
272.300	-28.796	0.100
272.400	-25.676	0.100
272.500	-27.384	0.100
272.600	-33.241	0.100
272.700	-20.230	0.100
272.800	-27.988	0.100
272.900	-30.555	0.100
273.000	-27.656	0.100
273.100	-29.197	0.100
273.200	-18.545	0.100
273.300	-27.963	0.100
273.400	-28.257	0.100
273.500	-29.055	0.100
273.600	-30.337	0.100
273.700	-26.212	0.100
273.800	-38.407	0.100
273.900	-26.212	0.100
274.000	-22.014	0.100
274.100	-21.874	0.100
274.200	-26.610	0.100
274.300	-33.202	0.100
274.400	-21.765	0.100
274.500	-20.738	0.100
274.600	-38.113	0.100
274.700	-33.174	0.100
274.800	-35.836	0.100
274.900	-24.167	0.100
275.000	-20.312	0.100
275.100	-37.732	0.100
275.200	-35.283	0.100
275.300	-31.385	0.100
275.400	-28.461	0.100
275.500	-32.971	0.100
275.600	-27.231	0.100
275.700	-36.030	0.100
275.800	-27.127	0.100
275.900	-30.055	0.100
276.000	-28.639	0.100
276.100	-27.032	0.100
276.200	-28.277	0.100
276.300	-32.718	0.100
276.400	-31.042	0.100
276.500	-31.479	0.100
276.600	-37.981	0.100
276.700	-35.130	0.100
276.800	-36.969	0.100
276.900	-36.904	0.100
277.000	-26.053	0.100
277.100	-27.799	0.100
277.200	-35.807	0.100
277.300	-35.049	0.100
277.400	-30.600	0.100
277.500	-31.289	0.100
277.600	-33.181	0.100
277.700	-28.433	0.100
277.800	-27.228	0.100
277.900	-32.340	0.100
278.000	-37.478	0.100
278.100	-28.528	0.100
278.200	-27.772	0.100
278.300	-34.332	0.100
278.400	-27.882	0.100
278.500	-35.194	0.100
278.600	-34.318	0.100
278.700	-36.866	0.100
278.800	-30.044	0.100
278.900	-30.266	0.100
279.000	-30.999	0.100
279.100	-34.819	0.100
279.200	-32.784	0.100
279.300	-38.016	0.100
279.400	-31.339	0.100
279.500	-27.888	0.100
279.600	-34.037	0.100
279.700	-33.819	0.100
279.800	-30.369	0.100
279.900	-24.472	0.100
280.000	-24.725	0.100
280.100	-22.716	0.100
280.200	-24.748	0.100
280.300	-28.662	0.100
280.400	-33.684	0.100
280.500	-35.820	0.100
280.600	-30.693	0.100
280.700	-28.928	0.100
280.800	-36.701	0.100
280.900	-28.793	0.100
281.000	-24.482	0.100
281.100	-30.705	0.100
281.200	-30.385	0.100
281.300	-39.971	0.100
281.400	-31.944	0.100
281.500	-23.754	0.100
281.600	-30.868	0.100
281.700	-36.144	0.100
281.800	-27.303	0.100
281.900	-22.802	0.100
282.000	-42.025	0.100
282.100	-34.486	0.100
282.200	-30.091	0.100
282.300	-31.332	0.100
282.400	-34.027	0.100
282.500	-34.339	0.100
282.600	-32.364	0.100
282.700	-33.166	0.100
282.800	-29.647	0.100
282.900	-31.316	0.100
283.000	-38.228	0.100
283.100	-31.671	0.100
283.200	-21.805	0.100
283.300	-30.300	0.100
283.400	-39.179	0.100
283.500	-37.170	0.100
283.600	-31.819	0.100
283.700	-29.427	0.100
283.800	-33.759	0.100
283.900	-27.242	0.100
284.000	-32.792	0.100
284.100	-33.051	0.100
284.200	-36.485	0.100
284.300	-33.859	0.100
284.400	-40.191	0.100
284.500	-40.241	0.100
284.600	-31.240	0.100
284.700	-31.316	0.100
284.800	-27.955	0.100
284.900	-22.189	0.100
285.000	-33.785	0.100
285.100	-32.220	0.100
285.200	-21.045	0.100
285.300	-29.852	0.100
285.400	-35.208	0.100
285.500	-31.745	0.100
285.600	-28.253	0.100
285.700	-21.924	0.100
285.800	-35.902	0.100
285.900	-30.314	0.100
286.000	-33.687	0.100
286.100	-22.431	0.100
286.200	-34.910	0.100
286.300	-21.827	0.100
286.400	-21.958	0.100
286.500	-26.434	0.100
286.600	-31.491	0.100
286.700	-37.703	0.100
286.800	-34.723	0.100
286.900	-26.567	0.100
287.000	-33.616	0.100
287.100	-34.262	0.100
287.200	-32.672	0.100
287.300	-37.423	0.100
287.400	-27.062	0.100
287.500	-34.653	0.100
287.600	-28.830	0.100
287.700	-25.089	0.100
287.800	-30.421	0.100
287.900	-33.875	0.100
288.000	-27.194	0.100
288.100	-37.511	0.100
288.200	-32.502	0.100
288.300	-28.797	0.100
288.400	-29.243	0.100
288.500	-31.724	0.100
288.600	-30.464	0.100
288.700	-40.404	0.100
288.800	-29.764	0.100
288.900	-31.571	0.100
289.000	-43.880	0.100
289.100	-34.027	0.100
289.200	-27.392	0.100
289.300	-33.274	0.100
289.400	-28.020	0.100
289.500	-32.774	0.100
289.600	-28.211	0.100
289.700	-32.295	0.100
289.800	-26.352	0.100
289.900	-25.631	0.100
290.000	-33.651	0.100
290.100	-26.030	0.100
290.200	-37.196	0.100
290.300	-42.576	0.100
290.400	-26.359	0.100
290.500	-27.961	0.100
290.600	-27.648	0.100
290.700	-31.466	0.100
290.800	-39.267	0.100
290.900	-37.831	0.100
291.000	-24.911	0.100
291.100	-30.998	0.100
291.200	-29.771	0.100
291.300	-25.896	0.100
291.400	-30.845	0.100
291.500	-35.433	0.100
291.600	-36.445	0.100
291.700	-31.131	0.100
291.800	-35.315	0.100
291.900	-31.178	0.100
292.000	-26.303	0.100
292.100	-26.065	0.100
292.200	-25.566	0.100
292.300	-24.311	0.100
292.400	-30.202	0.100
292.500	-37.656	0.100
292.600	-26.250	0.100
292.700	-27.954	0.100
292.800	-31.741	0.100
292.900	-35.905	0.100
293.000	-32.423	0.100
293.100	-30.367	0.100
293.200	-31.660	0.100
293.300	-30.081	0.100
293.400	-29.477	0.100
293.500	-37.178	0.100
293.600	-27.007	0.100
293.700	-24.652	0.100
293.800	-29.694	0.100
293.900	-32.504	0.100
294.000	-37.218	0.100
294.100	-31.982	0.100
294.200	-21.325	0.100
294.300	-27.180	0.100
294.400	-27.534	0.100
294.500	-41.295	0.100
294.600	-35.220	0.100
294.700	-31.179	0.100
294.800	-31.300	0.100
294.900	-31.610	0.100
295.000	-24.302	0.100
295.100	-19.018	0.100
295.200	-33.264	0.100
295.300	-33.901	0.100
295.400	-31.531	0.100
295.500	-34.502	0.100
295.600	-27.897	0.100
295.700	-22.903	0.100
295.800	-30.694	0.100
295.900	-42.340	0.100
296.000	-33.430	0.100
296.100	-22.640	0.100
296.200	-22.662	0.100
296.300	-22.828	0.100
296.400	-30.913	0.100
296.500	-23.293	0.100
296.600	-28.879	0.100
296.700	-31.990	0.100
296.800	-26.266	0.100
296.900	-25.757	0.100
297.000	-29.541	0.100
297.100	-28.939	0.100
297.200	-28.364	0.100
297.300	-26.989	0.100
297.400	-40.790	0.100
297.500	-30.929	0.100
297.600	-26.397	0.100
297.700	-27.805	0.100
297.800	-38.759	0.100
297.900	-43.417	0.100
298.000	-25.417	0.100
298.100	-24.993	0.100
298.200	-25.372	0.100
298.300	-29.688	0.100
298.400	-25.607	0.100
298.500	-31.459	0.100
298.600	-26.419	0.100
298.700	-33.117	0.100
298.800	-24.183	0.100
298.900	-33.002	0.100
299.000	-27.779	0.100
299.100	-22.280	0.100
299.200	-27.686	0.100
299.300	-25.893	0.100
299.400	-26.160	0.100
299.500	-31.645	0.100
299.600	-27.267	0.100
299.700	-24.384	0.100
299.800	-27.367	0.100
299.900	-35.572	0.100
300.000	-29.448	0.100
300.100	-26.220	0.100
300.200	-28.691	0.100
300.300	-30.278	0.100
300.400	-32.564	0.100
300.500	-33.898	0.100
300.600	-26.060	0.100
300.700	-30.632	0.100
300.800	-36.614	0.100
300.900	-23.350	0.100
301.000	-23.744	0.100
301.100	-29.230	0.100
301.200	-24.389	0.100
301.300	-32.810	0.100
301.400	-29.397	0.100
301.500	-25.496	0.100
301.600	-27.191	0.100
301.700	-31.122	0.100
301.800	-36.606	0.100
301.900	-29.251	0.100
302.000	-20.095	0.100
302.100	-26.180	0.100
302.200	-25.211	0.100
302.300	-24.223	0.100
302.400	-27.768	0.100
302.500	-24.673	0.100
302.600	-25.699	0.100
302.700	-29.321	0.100
302.800	-26.114	0.100
302.900	-16.982	0.100
303.000	-29.284	0.100
303.100	-38.777	0.100
303.200	-26.809	0.100
303.300	-21.527	0.100
303.400	-26.830	0.100
303.500	-23.887	0.100
303.600	-28.724	0.100
303.700	-26.928	0.100
303.800	-28.402	0.100
303.900	-30.050	0.100
304.000	-33.420	0.100
304.100	-35.202	0.100
304.200	-23.120	0.100
304.300	-23.659	0.100
304.400	-23.039	0.100
304.500	-22.180	0.100
304.600	-21.946	0.100
304.700	-30.589	0.100
304.800	-35.504	0.100
304.900	-32.773	0.100
305.000	-25.051	0.100
305.100	-19.101	0.100
305.200	-33.190	0.100
305.300	-32.248	0.100
305.400	-29.681	0.100
305.500	-28.927	0.100
305.600	-29.808	0.100
305.700	-25.259	0.100
305.800	-32.002	0.100
305.900	-24.663	0.100
306.000	-33.371	0.100
306.100	-28.780	0.100
306.200	-32.317	0.100
306.300	-33.177	0.100
306.400	-24.060	0.100
306.500	-21.589	0.100
306.600	-27.684	0.100
306.700	-24.235	0.100
306.800	-31.616	0.100
306.900	-29.424	0.100
307.000	-30.589	0.100
307.100	-28.328	0.100
307.200	-27.585	0.100
307.300	-24.226	0.100
307.400	-24.915	0.100
307.500	-33.411	0.100
307.600	-26.642	0.100
307.700	-18.965	0.100
307.800	-28.205	0.100
307.900	-27.597	0.100
308.000	-26.697	0.100
308.100	-31.817	0.100
308.200	-31.088	0.100
308.300	-26.496	0.100
308.400	-28.724	0.100
308.500	-21.234	0.100
308.600	-28.240	0.100
308.700	-22.195	0.100
308.800	-29.951	0.100
308.900	-32.131	0.100
309.000	-39.808	0.100
309.100	-20.301	0.100
309.200	-19.566	0.100
309.300	-28.984	0.100
309.400	-19.395	0.100
309.500	-29.934	0.100
309.600	-29.575	0.100
309.700	-21.550	0.100
309.800	-20.781	0.100
309.900	-23.337	0.100
310.000	-30.105	0.100
310.100	-22.390	0.100
310.200	-32.686	0.100
310.300	-26.902	0.100
310.400	-25.696	0.100
310.500	-18.221	0.100
310.600	-21.210	0.100
310.700	-22.994	0.100
310.800	-29.979	0.100
310.900	-30.109	0.100
311.000	-34.204	0.100
311.100	-25.614	0.100
311.200	-19.897	0.100
311.300	-22.038	0.100
311.400	-31.556	0.100
311.500	-24.231	0.100
311.600	-30.756	0.100
311.700	-32.261	0.100
311.800	-22.981	0.100
311.900	-25.055	0.100
312.000	-18.698	0.100
312.100	-20.926	0.100
312.200	-32.517	0.100
312.300	-18.452	0.100
312.400	-31.629	0.100
312.500	-23.532	0.100
312.600	-17.922	0.100
312.700	-16.977	0.100
312.800	-29.895	0.100
312.900	-24.800	0.100
313.000	-25.146	0.100
313.100	-26.787	0.100
313.200	-21.734	0.100
313.300	-17.953	0.100
313.400	-33.410	0.100
313.500	-28.462	0.100
313.600	-27.274	0.100
313.700	-30.270	0.100
313.800	-23.787	0.100
313.900	-17.511	0.100
314.000	-32.446	0.100
314.100	-22.005	0.100
314.200	-25.786	0.100
314.300	-20.132	0.100
314.400	-16.378	0.100
314.500	-33.038	0.100
314.600	-33.157	0.100
314.700	-20.101	0.100
314.800	-24.295	0.100
314.900	-29.170	0.100
315.000	-19.188	0.100
315.100	-23.406	0.100
315.200	-25.812	0.100
315.300	-27.274	0.100
315.400	-27.652	0.100
315.500	-18.332	0.100
315.600	-31.888	0.100
315.700	-28.468	0.100
315.800	-31.323	0.100
315.900	-22.015	0.100
316.000	-25.750	0.100
316.100	-19.405	0.100
316.200	-18.777	0.100
316.300	-23.866	0.100
316.400	-22.578	0.100
316.500	-33.979	0.100
316.600	-31.085	0.100
316.700	-12.036	0.100
316.800	-19.159	0.100
316.900	-32.334	0.100
317.000	-27.100	0.100
317.100	-26.247	0.100
317.200	-30.521	0.100
317.300	-31.571	0.100
317.400	-26.168	0.100
317.500	-19.610	0.100
317.600	-18.023	0.100
317.700	-19.609	0.100
317.800	-33.548	0.100
317.900	-25.869	0.100
318.000	-32.290	0.100
318.100	-26.294	0.100
318.200	-29.438	0.100
318.300	-24.796	0.100
318.400	-26.675	0.100
318.500	-24.888	0.100
318.600	-27.357	0.100
318.700	-21.941	0.100
318.800	-22.918	0.100
318.900	-32.429	0.100
319.000	-21.214	0.100
319.100	-16.484	0.100
319.200	-18.375	0.100
319.300	-20.517	0.100
319.400	-25.200	0.100
319.500	-26.777	0.100
319.600	-21.973	0.100
319.700	-26.537	0.100
319.800	-25.167	0.100
319.900	-25.882	0.100
320.000	-27.802	0.100
320.100	-23.696	0.100
320.200	-20.763	0.100
320.300	-31.277	0.100
320.400	-24.795	0.100
320.500	-17.234	0.100
320.600	-21.464	0.100
320.700	-33.145	0.100
320.800	-18.174	0.100
320.900	-18.368	0.100
321.000	-24.303	0.100
321.100	-20.772	0.100
321.200	-27.080	0.100
321.300	-21.793	0.100
321.400	-22.495	0.100
321.500	-27.423	0.100
321.600	-24.937	0.100
321.700	-23.095	0.100
321.800	-31.660	0.100
321.900	-29.334	0.100
322.000	-20.668	0.100
322.100	-17.854	0.100
322.200	-21.082	0.100
322.300	-23.791	0.100
322.400	-30.116	0.100
322.500	-22.173	0.100
322.600	-19.535	0.100
322.700	-29.328	0.100
322.800	-22.978	0.100
322.900	-27.439	0.100
323.000	-25.860	0.100
323.100	-13.380	0.100
323.200	-21.515	0.100
323.300	-29.734	0.100
323.400	-20.494	0.100
323.500	-26.557	0.100
323.600	-26.770	0.100
323.700	-16.943	0.100
323.800	-29.703	0.100
323.900	-23.160	0.100
324.000	-20.324	0.100
324.100	-19.787	0.100
324.200	-34.931	0.100
324.300	-19.264	0.100
324.400	-17.291	0.100
324.500	-22.211	0.100
324.600	-24.425	0.100
324.700	-22.279	0.100
324.800	-30.046	0.100
324.900	-28.387	0.100
325.000	-24.485	0.100
325.100	-19.784	0.100
325.200	-22.941	0.100
325.300	-24.874	0.100
325.400	-21.496	0.100
325.500	-20.827	0.100
325.600	-20.919	0.100
325.700	-15.622	0.100
325.800	-18.613	0.100
325.900	-24.621	0.100
326.000	-26.739	0.100
326.100	-25.220	0.100
326.200	-24.517	0.100
326.300	-25.695	0.100
326.400	-15.915	0.100
326.500	-25.733	0.100
326.600	-20.127	0.100
326.700	-21.958	0.100
326.800	-18.825	0.100
326.900	-18.618	0.100
327.000	-22.998	0.100
327.100	-22.117	0.100
327.200	-29.007	0.100
327.300	-29.188	0.100
327.400	-24.200	0.100
327.500	-23.192	0.100
327.600	-31.353	0.100
327.700	-22.279	0.100
327.800	-22.248	0.100
327.900	-31.426	0.100
328.000	-23.573	0.100
328.100	-32.142	0.100
328.200	-18.876	0.100
328.300	-22.895	0.100
328.400	-26.237	0.100
328.500	-20.129	0.100
328.600	-16.992	0.100
328.700	-20.913	0.100
328.800	-24.781	0.100
328.900	-21.704	0.100
329.000	-22.949	0.100
329.100	-22.996	0.100
329.200	-32.501	0.100
329.300	-23.812	0.100
329.400	-22.762	0.100
329.500	-22.331	0.100
329.600	-22.521	0.100
329.700	-20.222	0.100
329.800	-18.564	0.100
329.900	-22.770	0.100
330.000	-26.038	0.100
330.100	-30.036	0.100
330.200	-19.428	0.100
330.300	-19.637	0.100
330.400	-22.105	0.100
330.500	-17.342	0.100
330.600	-14.558	0.100
330.700	-21.425	0.100
330.800	-22.671	0.100
330.900	-7.815	0.100
331.000	-16.676	0.100
331.100	-9.183	0.100
331.200	-3.203	0.100
331.300	-8.634	0.100
331.400	-2.941	0.100
331.500	0.236	0.100
331.600	8.314	0.100
331.700	0.865	0.100
331.800	11.245	0.100
331.900	3.326	0.100
332.000	13.687	0.100
332.100	10.208	0.100
332.200	21.227	0.100
332.300	19.711	0.100
332.400	19.055	0.100
332.500	9.878	0.100
332.600	15.213	0.100
332.700	9.037	0.100
332.800	21.016	0.100
332.900	24.579	0.100
333.000	21.245	0.100
333.100	25.725	0.100
333.200	21.728	0.100
333.300	20.499	0.100
333.400	25.682	0.100
333.500	22.271	0.100
333.600	17.895	0.100
333.700	29.459	0.100
333.800	21.713	0.100
333.900	24.692	0.100
334.000	21.113	0.100
334.100	20.877	0.100
334.200	15.824	0.100
334.300	10.839	0.100
334.400	23.960	0.100
334.500	22.750	0.100
334.600	22.089	0.100
334.700	21.611	0.100
334.800	12.527	0.100
334.900	16.158	0.100
335.000	14.406	0.100
335.100	16.276	0.100
335.200	21.475	0.100
335.300	17.673	0.100
335.400	12.371	0.100
335.500	12.238	0.100
335.600	19.695	0.100
335.700	17.653	0.100
335.800	17.325	0.100
335.900	6.713	0.100
336.000	14.399	0.100
336.100	21.834	0.100
336.200	18.990	0.100
336.300	10.743	0.100
336.400	1.227	0.100
336.500	14.414	0.100
336.600	21.925	0.100
336.700	18.581	0.100
336.800	15.724	0.100
336.900	19.931	0.100
337.000	16.647	0.100
337.100	18.921	0.100
337.200	15.663	0.100
337.300	17.292	0.100
337.400	9.043	0.100
337.500	15.511	0.100
337.600	15.152	0.100
337.700	13.901	0.100
337.800	16.869	0.100
337.900	9.694	0.100
338.000	14.020	0.100
338.100	18.471	0.100
338.200	14.756	0.100
338.300	21.835	0.100
338.400	20.959	0.100
338.500	14.662	0.100
338.600	7.352	0.100
338.700	19.635	0.100
338.800	21.653	0.100
338.900	6.120	0.100
339.000	11.888	0.100
339.100	15.121	0.100
339.200	14.526	0.100
339.300	13.540	0.100
339.400	19.669	0.100
339.500	17.694	0.100
339.600	15.926	0.100
339.700	15.541	0.100
339.800	12.660	0.100
339.900	23.945	0.100
340.000	21.826	0.100
340.100	18.500	0.100
340.200	17.364	0.100
340.300	14.715	0.100
340.400	17.024	0.100
340.500	16.986	0.100
340.600	9.466	0.100
340.700	17.136	0.100
340.800	15.474	0.100
340.900	17.653	0.100
341.000	18.820	0.100
341.100	14.689	0.100
341.200	20.637	0.100
341.300	23.524	0.100
341.400	20.827	0.100
341.500	18.478	0.100
341.600	26.889	0.100
341.700	20.152	0.100
341.800	16.555	0.100
341.900	24.997	0.100
342.000	18.837	0.100
342.100	13.144	0.100
342.200	17.681	0.100
342.300	19.029	0.100
342.400	16.263	0.100
342.500	12.519	0.100
342.600	15.645	0.100
342.700	14.205	0.100
342.800	18.249	0.100
342.900	15.607	0.100
343.000	15.951	0.100
343.100	21.116	0.100
343.200	17.824	0.100
343.300	17.146	0.100
343.400	14.687	0.100
343.500	14.815	0.100
343.600	24.286	0.100
343.700	26.037	0.100
343.800	26.667	0.100
343.900	22.040	0.100
344.000	19.180	0.100
344.100	25.881	0.100
344.200	22.179	0.100
344.300	19.138	0.100
344.400	6.869	0.100
344.500	14.749	0.100
344.600	18.924	0.100
344.700	21.480	0.100
344.800	22.321	0.100
344.900	30.876	0.100
345.000	25.543	0.100
345.100	19.802	0.100
345.200	22.200	0.100
345.300	25.260	0.100
345.400	28.755	0.100
345.500	23.196	0.100
345.600	23.936	0.100
345.700	13.229	0.100
345.800	29.337	0.100
345.900	23.331	0.100
346.000	23.993	0.100
346.100	20.587	0.100
346.200	31.553	0.100
346.300	24.612	0.100
346.400	17.084	0.100
346.500	16.490	0.100
346.600	16.992	0.100
346.700	17.668	0.100
346.800	28.480	0.100
346.900	28.211	0.100
347.000	18.661	0.100
347.100	11.443	0.100
347.200	19.575	0.100
347.300	26.440	0.100
347.400	26.409	0.100
347.500	26.509	0.100
347.600	25.114	0.100
347.700	36.067	0.100
347.800	19.571	0.100
347.900	16.795	0.100
348.000	30.147	0.100
348.100	24.306	0.100
348.200	23.996	0.100
348.300	21.482	0.100
348.400	27.987	0.100
348.500	34.739	0.100
348.600	30.747	0.100
348.700	26.269	0.100
348.800	27.471	0.100
348.900	26.806	0.100
349.000	29.903	0.100
349.100	31.147	0.100
349.200	28.949	0.100
349.300	19.126	0.100
349.400	25.515	0.100
349.500	34.472	0.100
349.600	35.034	0.100
349.700	31.015	0.100
349.800	25.128	0.100
349.900	34.541	0.100
350.000	37.398	0.100
350.100	22.821	0.100
350.200	18.720	0.100
350.300	27.101	0.100
350.400	25.785	0.100
350.500	35.112	0.100
350.600	34.981	0.100
350.700	33.872	0.100
350.800	29.966	0.100
350.900	25.555	0.100
351.000	26.858	0.100
351.100	32.167	0.100
351.200	38.922	0.100
351.300	33.488	0.100
351.400	36.850	0.100
351.500	29.834	0.100
351.600	32.003	0.100
351.700	27.637	0.100
351.800	39.541	0.100
351.900	37.443	0.100
352.000	37.187	0.100
352.100	33.921	0.100
352.200	35.679	0.100
352.300	31.706	0.100
352.400	31.954	0.100
352.500	38.018	0.100
352.600	19.403	0.100
352.700	45.742	0.100
352.800	34.613	0.100
352.900	37.053	0.100
353.000	30.289	0.100
353.100	35.856	0.100
353.200	39.050	0.100
353.300	37.542	0.100
353.400	38.384	0.100
353.500	31.758	0.100
353.600	28.812	0.100
353.700	40.643	0.100
353.800	41.413	0.100
353.900	34.277	0.100
354.000	43.893	0.100
354.100	29.094	0.100
354.200	46.929	0.100
354.300	39.031	0.100
354.400	27.572	0.100
354.500	36.745	0.100
354.600	35.829	0.100
354.700	44.089	0.100
354.800	34.763	0.100
354.900	38.241	0.100
355.000	48.270	0.100
355.100	41.131	0.100
355.200	30.646	0.100
355.300	37.056	0.100
355.400	51.103	0.100
355.500	45.958	0.100
355.600	38.552	0.100
355.700	41.224	0.100
355.800	41.712	0.100
355.900	39.812	0.100
356.000	37.597	0.100
356.100	35.039	0.100
356.200	45.053	0.100
356.300	42.552	0.100
356.400	37.096	0.100
356.500	44.632	0.100
356.600	40.028	0.100
356.700	45.795	0.100
356.800	46.639	0.100
356.900	39.304	0.100
357.000	47.957	0.100
357.100	42.732	0.100
357.200	40.307	0.100
357.300	46.443	0.100
357.400	49.375	0.100
357.500	49.749	0.100
357.600	47.778	0.100
357.700	48.415	0.100
357.800	42.646	0.100
357.900	39.787	0.100
358.000	48.357	0.100
358.100	41.830	0.100
358.200	48.761	0.100
358.300	44.894	0.100
358.400	48.904	0.100
358.500	46.875	0.100
358.600	46.559	0.100
358.700	40.810	0.100
358.800	42.485	0.100
358.900	41.272	0.100
359.000	47.893	0.100
359.100	44.767	0.100
359.200	47.310	0.100
359.300	44.442	0.100
359.400	46.014	0.100
359.500	48.826	0.100
359.600	48.328	0.100
359.700	50.936	0.100
359.800	49.660	0.100
359.900	44.310	0.100
360.000	35.924	0.100
360.100	43.562	0.100
360.200	52.980	0.100
360.300	47.478	0.100
360.400	52.433	0.100
360.500	48.909	0.100
360.600	44.517	0.100
360.700	42.481	0.100
360.800	44.435	0.100
360.900	51.618	0.100
361.000	38.935	0.100
361.100	53.980	0.100
361.200	46.132	0.100
361.300	50.651	0.100
361.400	53.767	0.100
361.500	56.434	0.100
361.600	51.825	0.100
361.700	42.917	0.100
361.800	49.615	0.100
361.900	45.634	0.100
362.000	48.868	0.100
362.100	48.224	0.100
362.200	52.747	0.100
362.300	59.808	0.100
362.400	44.924	0.100
362.500	51.994	0.100
362.600	51.028	0.100
362.700	49.997	0.100
362.800	44.687	0.100
362.900	44.691	0.100
363.000	51.126	0.100
363.100	56.883	0.100
363.200	45.421	0.100
363.300	53.611	0.100
363.400	47.981	0.100
363.500	55.729	0.100
363.600	53.275	0.100
363.700	48.763	0.100
363.800	51.477	0.100
363.900	45.239	0.100
364.000	58.222	0.100
364.100	51.357	0.100
364.200	50.203	0.100
364.300	49.680	0.100
364.400	56.127	0.100
364.500	52.370	0.100
364.600	51.394	0.100
364.700	63.547	0.100
364.800	47.584	0.100
364.900	49.472	0.100
365.000	59.455	0.100
365.100	51.184	0.100
365.200	50.100	0.100
365.300	48.078	0.100
365.400	51.133	0.100
365.500	52.654	0.100
365.600	39.521	0.100
365.700	47.892	0.100
365.800	55.160	0.100
365.900	54.207	0.100
366.000	51.483	0.100
366.100	56.470	0.100
366.200	46.152	0.100
366.300	51.398	0.100
366.400	58.562	0.100
366.500	49.592	0.100
366.600	52.353	0.100
366.700	56.299	0.100
366.800	54.379	0.100
366.900	53.271	0.100
367.000	55.401	0.100
367.100	44.953	0.100
367.200	51.682	0.100
367.300	49.867	0.100
367.400	47.985	0.100
367.500	41.077	0.100
367.600	50.050	0.100
367.700	47.534	0.100
367.800	44.076	0.100
367.900	52.382	0.100
368.000	49.147	0.100
368.100	52.198	0.100
368.200	51.855	0.100
368.300	53.493	0.100
368.400	56.419	0.100
368.500	54.248	0.100
368.600	48.365	0.100
368.700	52.404	0.100
368.800	48.249	0.100
368.900	55.327	0.100
369.000	58.948	0.100
369.100	53.150	0.100
369.200	44.899	0.100
369.300	47.819	0.100
369.400	53.624	0.100
369.500	58.604	0.100
369.600	56.971	0.100
369.700	54.813	0.100
369.800	56.288	0.100
369.900	48.996	0.100
370.000	48.023	0.100
370.100	52.210	0.100
370.200	59.780	0.100
370.300	51.657	0.100
370.400	56.942	0.100
370.500	57.678	0.100
370.600	52.664	0.100
370.700	51.427	0.100
370.800	52.014	0.100
370.900	51.982	0.100
371.000	46.404	0.100
371.100	46.734	0.100
371.200	44.882	0.100
371.300	48.422	0.100
371.400	49.909	0.100
371.500	50.801	0.100
371.600	58.190	0.100
371.700	57.411	0.100
371.800	52.857	0.100
371.900	54.988	0.100
372.000	54.729	0.100
372.100	48.267	0.100
372.200	56.108	0.100
372.300	50.584	0.100
372.400	59.663	0.100
372.500	57.055	0.100
372.600	48.794	0.100
372.700	46.306	0.100
372.800	44.059	0.100
372.900	50.809	0.100
373.000	42.286	0.100
373.100	56.232	0.100
373.200	49.398	0.100
373.300	58.842	0.100
373.400	49.336	0.100
373.500	48.374	0.100
373.600	52.562	0.100
373.700	53.937	0.100
373.800	45.740	0.100
373.900	52.223	0.100
374.000	55.045	0.100
374.100	48.739	0.100
374.200	43.894	0.100
374.300	55.320	0.100
374.400	55.967	0.100
374.500	44.332	0.100
374.600	51.084	0.100
374.700	44.313	0.100
374.800	47.321	0.100
374.900	46.972	0.100
375.000	50.818	0.100
375.100	62.057	0.100
375.200	53.759	0.100
375.300	50.168	0.100
375.400	55.234	0.100
375.500	51.656	0.100
375.600	45.575	0.100
375.700	52.943	0.100
375.800	54.024	0.100
375.900	61.151	0.100
376.000	54.865	0.100
376.100	49.223	0.100
376.200	55.711	0.100
376.300	54.173	0.100
376.400	48.141	0.100
376.500	59.119	0.100
376.600	57.497	0.100
376.700	50.431	0.100
376.800	42.633	0.100
376.900	46.323	0.100
377.000	60.144	0.100
377.100	40.123	0.100
377.200	50.658	0.100
377.300	50.839	0.100
377.400	43.861	0.100
377.500	46.100	0.100
377.600	49.361	0.100
377.700	51.835	0.100
377.800	51.910	0.100
377.900	53.999	0.100
378.000	50.938	0.100
378.100	45.851	0.100
378.200	52.172	0.100
378.300	52.702	0.100
378.400	54.522	0.100
378.500	58.593	0.100
378.600	55.789	0.100
378.700	51.944	0.100
378.800	52.080	0.100
378.900	50.038	0.100
379.000	47.723	0.100
379.100	51.169	0.100
379.200	48.662	0.100
379.300	60.775	0.100
379.400	47.828	0.100
379.500	49.560	0.100
379.600	51.279	0.100
379.700	50.518	0.100
379.800	48.614	0.100
379.900	45.134	0.100
380.000	53.155	0.100
380.100	50.582	0.100
380.200	56.496	0.100
380.300	56.953	0.100
380.400	52.655	0.100
380.500	51.167	0.100
380.600	61.888	0.100
380.700	51.470	0.100
380.800	51.633	0.100
380.900	43.723	0.100
381.000	44.587	0.100
381.100	45.678	0.100
381.200	55.834	0.100
381.300	55.987	0.100
381.400	39.891	0.100
381.500	53.713	0.100
381.600	49.605	0.100
381.700	49.957	0.100
381.800	48.066	0.100
381.900	61.381	0.100
382.000	59.137	0.100
382.100	49.914	0.100
382.200	49.635	0.100
382.300	54.612	0.100
382.400	45.401	0.100
382.500	45.130	0.100
382.600	51.952	0.100
382.700	52.766	0.100
382.800	49.687	0.100
382.900	55.311	0.100
383.000	52.616	0.100
383.100	47.657	0.100
383.200	36.831	0.100
383.300	43.663	0.100
383.400	49.193	0.100
383.500	48.182	0.100
383.600	54.200	0.100
383.700	44.128	0.100
383.800	50.816	0.100
383.900	46.407	0.100
384.000	44.776	0.100
384.100	51.193	0.100
384.200	42.852	0.100
384.300	47.067	0.100
384.400	57.582	0.100
384.500	50.670	0.100
384.600	43.823	0.100
384.700	46.035	0.100
384.800	60.340	0.100
384.900	51.639	0.100
385.000	52.307	0.100
385.100	47.676	0.100
385.200	51.059	0.100
385.300	42.685	0.100
385.400	39.863	0.100
385.500	53.917	0.100
385.600	48.207	0.100
385.700	41.911	0.100
385.800	50.806	0.100
385.900	47.028	0.100
386.000	53.654	0.100
386.100	60.055	0.100
386.200	50.519	0.100
386.300	47.547	0.100
386.400	52.240	0.100
386.500	40.078	0.100
386.600	42.776	0.100
386.700	44.613	0.100
386.800	46.819	0.100
386.900	51.835	0.100
387.000	50.448	0.100
387.100	54.424	0.100
387.200	45.727	0.100
387.300	38.783	0.100
387.400	48.934	0.100
387.500	39.662	0.100
387.600	46.093	0.100
387.700	58.375	0.100
387.800	51.019	0.100
387.900	47.052	0.100
388.000	44.657	0.100
388.100	46.868	0.100
388.200	49.102	0.100
388.300	46.307	0.100
388.400	59.321	0.100
388.500	53.551	0.100
388.600	40.347	0.100
388.700	47.239	0.100
388.800	51.968	0.100
388.900	48.098	0.100
389.000	49.647	0.100
389.100	45.947	0.100
389.200	45.834	0.100
389.300	51.333	0.100
389.400	47.586	0.100
389.500	47.122	0.100
389.600	40.696	0.100
389.700	46.437	0.100
389.800	52.182	0.100
389.900	49.871	0.100
390.000	49.071	0.100
390.100	41.676	0.100
390.200	53.706	0.100
390.300	52.475	0.100
390.400	43.764	0.100
390.500	35.264	0.100
390.600	42.029	0.100
390.700	41.627	0.100
390.800	45.722	0.100
390.900	42.563	0.100
391.000	39.475	0.100
391.100	31.252	0.100
391.200	30.512	0.100
391.300	27.519	0.100
391.400	28.360	0.100
391.500	30.184	0.100
391.600	31.749	0.100
391.700	20.650	0.100
391.800	33.282	0.100
391.900	15.799	0.100
392.000	25.391	0.100
392.100	14.830	0.100
392.200	18.306	0.100
392.300	19.096	0.100
392.400	17.699	0.100
392.500	13.255	0.100
392.600	20.795	0.100
392.700	22.457	0.100
392.800	20.351	0.100
392.900	7.272	0.100
393.000	11.637	0.100
393.100	13.967	0.100
393.200	10.475	0.100
393.300	10.803	0.100
393.400	15.209	0.100
393.500	3.316	0.100
393.600	4.795	0.100
393.700	14.457	0.100
393.800	9.064	0.100
393.900	7.484	0.100
394.000	12.591	0.100
394.100	6.027	0.100
394.200	4.943	0.100
394.300	13.146	0.100
394.400	10.471	0.100
394.500	0.119	0.100
394.600	-3.086	0.100
394.700	10.090	0.100
394.800	6.370	0.100
394.900	2.358	0.100
395.000	6.752	0.100
395.100	9.747	0.100
395.200	5.013	0.100
395.300	6.459	0.100
395.400	11.852	0.100
395.500	-1.833	0.100
395.600	-7.542	0.100
395.700	5.148	0.100
395.800	5.229	0.100
395.900	-1.757	0.100
396.000	15.870	0.100
396.100	4.846	0.100
396.200	1.598	0.100
396.300	5.760	0.100
396.400	-1.517	0.100
396.500	9.097	0.100
396.600	9.794	0.100
396.700	0.112	0.100
396.800	0.647	0.100
396.900	2.497	0.100
397.000	-3.580	0.100
397.100	-0.104	0.100
397.200	9.909	0.100
397.300	3.582	0.100
397.400	-2.129	0.100
397.500	7.354	0.100
397.600	3.336	0.100
397.700	-1.010	0.100
397.800	5.973	0.100
397.900	-2.099	0.100
398.000	3.977	0.100
398.100	0.637	0.100
398.200	3.852	0.100
398.300	10.409	0.100
398.400	-0.866	0.100
398.500	1.061	0.100
398.600	-2.510	0.100
398.700	1.790	0.100
398.800	2.676	0.100
398.900	-4.519	0.100
399.000	-1.269	0.100
399.100	-2.271	0.100
399.200	-5.528	0.100
399.300	-7.449	0.100
399.400	2.095	0.100
399.500	-2.705	0.100
399.600	1.464	0.100
399.700	0.899	0.100
399.800	-4.214	0.100
399.900	-6.644	0.100
400.000	-2.503	0.100
400.100	4.507	0.100
400.200	3.731	0.100
400.300	3.318	0.100
400.400	-6.519	0.100
400.500	-8.622	0.100
400.600	-5.004	0.100
400.700	2.879	0.100
400.800	4.434	0.100
400.900	-1.728	0.100
401.000	-4.373	0.100
401.100	-9.813	0.100
401.200	-3.199	0.100
401.300	-11.618	0.100
401.400	-4.989	0.100
401.500	-1.291	0.100
401.600	2.667	0.100
401.700	-7.660	0.100
401.800	-2.231	0.100
401.900	-1.287	0.100
402.000	-4.224	0.100
402.100	-9.866	0.100
402.200	-2.437	0.100
402.300	-0.366	0.100
402.400	-2.920	0.100
402.500	-11.125	0.100
402.600	-11.946	0.100
402.700	-2.582	0.100
402.800	-3.059	0.100
402.900	-4.145	0.100
403.000	-5.512	0.100
403.100	-9.252	0.100
403.200	-8.189	0.100
403.300	-2.679	0.100
403.400	-6.079	0.100
403.500	-7.032	0.100
403.600	-17.659	0.100
403.700	-8.096	0.100
403.800	2.994	0.100
403.900	-11.832	0.100
404.000	-9.369	0.100
404.100	-12.254	0.100
404.200	-7.513	0.100
404.300	-3.583	0.100
404.400	-7.512	0.100
404.500	-4.750	0.100
404.600	-12.212	0.100
404.700	-11.687	0.100
404.800	-6.215	0.100
404.900	-9.049	0.100
405.000	-10.175	0.100
405.100	-2.639	0.100
405.200	-7.183	0.100
405.300	-5.233	0.100
405.400	-16.779	0.100
405.500	-6.547	0.100
405.600	-6.712	0.100
405.700	-6.873	0.100
405.800	-20.608	0.100
405.900	-11.358	0.100
406.000	-14.294	0.100
406.100	-19.944	0.100
406.200	-10.361	0.100
406.300	-16.195	0.100
406.400	-7.168	0.100
406.500	-6.124	0.100
406.600	-11.212	0.100
406.700	-13.235	0.100
406.800	-8.443	0.100
406.900	-8.050	0.100
407.000	-14.193	0.100
407.100	-15.728	0.100
407.200	-14.416	0.100
407.300	-5.108	0.100
407.400	-8.100	0.100
407.500	-9.186	0.100
407.600	-8.585	0.100
407.700	-15.131	0.100
407.800	-11.377	0.100
407.900	-13.633	0.100
408.000	-15.225	0.100
408.100	-12.470	0.100
408.200	-15.306	0.100
408.300	-15.937	0.100
408.400	-10.985	0.100
408.500	-3.514	0.100
408.600	-15.784	0.100
408.700	-9.623	0.100
408.800	-12.337	0.100
408.900	-16.084	0.100
409.000	-14.170	0.100
409.100	-13.489	0.100
409.200	-19.495	0.100
409.300	-14.218	0.100
409.400	-7.584	0.100
409.500	-13.085	0.100
409.600	-10.658	0.100
409.700	-15.972	0.100
409.800	-14.650	0.100
409.900	-17.183	0.100
410.000	-17.054	0.100
410.100	-18.699	0.100
410.200	-9.148	0.100
410.300	-7.901	0.100
410.400	-15.473	0.100
410.500	-16.739	0.100
410.600	-15.677	0.100
410.700	-12.405	0.100
410.800	-17.619	0.100
410.900	-19.710	0.100
411.000	-9.218	0.100
411.100	-13.124	0.100
411.200	-19.523	0.100
411.300	-22.584	0.100
411.400	-24.680	0.100
411.500	-10.788	0.100
411.600	-19.027	0.100
411.700	-20.269	0.100
411.800	-10.236	0.100
411.900	-16.810	0.100
412.000	-8.565	0.100
412.100	-14.550	0.100
412.200	-9.554	0.100
412.300	-18.522	0.100
412.400	-15.388	0.100
412.500	-24.174	0.100
412.600	-17.851	0.100
412.700	-16.036	0.100
412.800	-12.805	0.100
412.900	-15.669	0.100
413.000	-18.561	0.100
413.100	-28.059	0.100
413.200	-17.592	0.100
413.300	-16.278	0.100
413.400	-10.638	0.100
413.500	-15.706	0.100
413.600	-21.927	0.100
413.700	-27.580	0.100
413.800	-17.732	0.100
413.900	-14.564	0.100
414.000	-14.872	0.100
414.100	-13.807	0.100
414.200	-17.392	0.100
414.300	-22.945	0.100
414.400	-21.530	0.100
414.500	-16.780	0.100
414.600	-17.885	0.100
414.700	-23.039	0.100
414.800	-20.662	0.100
414.900	-9.197	0.100
415.000	-24.557	0.100
415.100	-21.561	0.100
415.200	-23.651	0.100
415.300	-15.100	0.100
415.400	-17.183	0.100
415.500	-20.164	0.100
415.600	-12.465	0.100
415.700	-11.398	0.100
415.800	-20.182	0.100
415.900	-15.088	0.100
416.000	-11.983	0.100
416.100	-22.219	0.100
416.200	-23.806	0.100
416.300	-13.410	0.100
416.400	-23.753	0.100
416.500	-28.340	0.100
416.600	-23.954	0.100
416.700	-17.964	0.100
416.800	-23.656	0.100
416.900	-16.821	0.100
417.000	-28.606	0.100
417.100	-21.936	0.100
417.200	-23.922	0.100
417.300	-17.370	0.100
417.400	-25.318	0.100
417.500	-26.354	0.100
417.600	-19.329	0.100
417.700	-24.708	0.100
417.800	-22.577	0.100
417.900	-25.782	0.100
418.000	-31.213	0.100
418.100	-17.165	0.100
418.200	-21.300	0.100
418.300	-23.415	0.100
418.400	-24.140	0.100
418.500	-15.129	0.100
418.600	-16.763	0.100
418.700	-28.980	0.100
418.800	-11.192	0.100
418.900	-21.674	0.100
419.000	-22.378	0.100
419.100	-19.519	0.100
419.200	-21.453	0.100
419.300	-28.373	0.100
419.400	-26.548	0.100
419.500	-23.438	0.100
419.600	-22.460	0.100
419.700	-22.468	0.100
419.800	-26.033	0.100
419.900	-28.184	0.100
420.000	-25.431	0.100
420.100	-18.230	0.100
420.200	-28.470	0.100
420.300	-19.103	0.100
420.400	-34.131	0.100
420.500	-24.895	0.100
420.600	-27.117	0.100
420.700	-25.610	0.100
420.800	-20.444	0.100
420.900	-10.036	0.100
421.000	-32.142	0.100
421.100	-29.689	0.100
421.200	-26.683	0.100
421.300	-27.491	0.100
421.400	-28.735	0.100
421.500	-24.511	0.100
421.600	-19.333	0.100
421.700	-24.969	0.100
421.800	-28.479	0.100
421.900	-32.179	0.100
422.000	-28.623	0.100
422.100	-21.577	0.100
422.200	-22.606	0.100
422.300	-22.226	0.100
422.400	-20.367	0.100
422.500	-19.803	0.100
422.600	-30.015	0.100
422.700	-28.368	0.100
422.800	-32.318	0.100
422.900	-32.864	0.100
423.000	-24.588	0.100
423.100	-23.686	0.100
423.200	-23.610	0.100
423.300	-29.551	0.100
423.400	-31.946	0.100
423.500	-30.984	0.100
423.600	-32.724	0.100
423.700	-29.322	0.100
423.800	-28.548	0.100
423.900	-27.041	0.100
424.000	-31.508	0.100
424.100	-22.541	0.100
424.200	-29.281	0.100
424.300	-35.485	0.100
424.400	-29.390	0.100
424.500	-31.491	0.100
424.600	-22.552	0.100
424.700	-28.602	0.100
424.800	-37.430	0.100
424.900	-36.892	0.100
425.000	-26.274	0.100
425.100	-25.070	0.100
425.200	-27.527	0.100
425.300	-31.058	0.100
425.400	-26.678	0.100
425.500	-23.017	0.100
425.600	-29.755	0.100
425.700	-33.472	0.100
425.800	-27.004	0.100
425.900	-27.846	0.100
426.000	-31.033	0.100
426.100	-31.354	0.100
426.200	-36.592	0.100
426.300	-34.131	0.100
426.400	-24.913	0.100
426.500	-31.296	0.100
426.600	-25.850	0.100
426.700	-34.327	0.100
426.800	-29.014	0.100
426.900	-33.639	0.100
427.000	-34.983	0.100
427.100	-31.097	0.100
427.200	-29.404	0.100
427.300	-33.785	0.100
427.400	-34.955	0.100
427.500	-33.665	0.100
427.600	-26.707	0.100
427.700	-23.707	0.100
427.800	-32.228	0.100
427.900	-31.973	0.100
428.000	-24.069	0.100
428.100	-32.320	0.100
428.200	-28.562	0.100
428.300	-40.138	0.100
428.400	-38.272	0.100
428.500	-32.876	0.100
428.600	-32.421	0.100
428.700	-36.431	0.100
428.800	-30.922	0.100
428.900	-33.047	0.100
429.000	-31.579	0.100
429.100	-21.313	0.100
429.200	-35.157	0.100
429.300	-30.961	0.100
429.400	-20.991	0.100
429.500	-37.214	0.100
429.600	-26.937	0.100
429.700	-38.689	0.100
429.800	-37.900	0.100
429.900	-30.605	0.100
430.000	-28.511	0.100
430.100	-25.854	0.100
430.200	-32.302	0.100
430.300	-30.079	0.100
430.400	-35.571	0.100
430.500	-34.572	0.100
430.600	-32.691	0.100
430.700	-26.882	0.100
430.800	-29.257	0.100
430.900	-28.014	0.100
431.000	-32.281	0.100
431.100	-35.795	0.100
431.200	-36.017	0.100
431.300	-25.074	0.100
431.400	-34.209	0.100
431.500	-28.474	0.100
431.600	-33.269	0.100
431.700	-28.243	0.100
431.800	-27.577	0.100
431.900	-30.666	0.100
432.000	-28.778	0.100
432.100	-35.402	0.100
432.200	-33.435	0.100
432.300	-36.181	0.100
432.400	-37.041	0.100
432.500	-39.463	0.100
432.600	-28.490	0.100
432.700	-36.488	0.100
432.800	-24.189	0.100
432.900	-28.323	0.100
433.000	-33.118	0.100
433.100	-29.453	0.100
433.200	-34.630	0.100
433.300	-33.290	0.100
433.400	-25.590	0.100
433.500	-43.520	0.100
433.600	-40.671	0.100
433.700	-30.781	0.100
433.800	-22.954	0.100
433.900	-32.311	0.100
434.000	-32.475	0.100
434.100	-34.268	0.100
434.200	-36.788	0.100
434.300	-28.775	0.100
434.400	-32.065	0.100
434.500	-27.398	0.100
434.600	-37.281	0.100
434.700	-31.807	0.100
434.800	-29.261	0.100
434.900	-30.051	0.100
435.000	-35.551	0.100
435.100	-30.598	0.100
435.200	-33.256	0.100
435.300	-36.074	0.100
435.400	-26.188	0.100
435.500	-29.045	0.100
435.600	-35.055	0.100
435.700	-24.721	0.100
435.800	-35.740	0.100
435.900	-39.353	0.100
436.000	-38.606	0.100
436.100	-36.995	0.100
436.200	-41.765	0.100
436.300	-35.953	0.100
436.400	-24.883	0.100
436.500	-32.751	0.100
436.600	-31.458	0.100
436.700	-33.489	0.100
436.800	-38.278	0.100
436.900	-25.536	0.100
437.000	-27.461	0.100
437.100	-31.143	0.100
437.200	-31.144	0.100
437.300	-31.648	0.100
437.400	-33.527	0.100
437.500	-24.518	0.100
437.600	-27.764	0.100
437.700	-31.706	0.100
437.800	-27.694	0.100
437.900	-22.040	0.100
438.000	-27.189	0.100
438.100	-31.761	0.100
438.200	-33.938	0.100
438.300	-34.155	0.100
438.400	-32.842	0.100
438.500	-32.279	0.100
438.600	-35.464	0.100
438.700	-22.034	0.100
438.800	-40.979	0.100
438.900	-42.335	0.100
439.000	-28.995	0.100
439.100	-33.730	0.100
439.200	-32.633	0.100
439.300	-28.922	0.100
439.400	-30.501	0.100
439.500	-32.392	0.100
439.600	-32.400	0.100
439.700	-28.815	0.100
439.800	-38.417	0.100
439.900	-34.117	0.100
440.000	-26.530	0.100
440.100	-35.350	0.100
440.200	-29.094	0.100
440.300	-30.311	0.100
440.400	-32.624	0.100
440.500	-35.181	0.100
440.600	-35.933	0.100
440.700	-36.420	0.100
440.800	-26.572	0.100
440.900	-31.355	0.100
441.000	-23.301	0.100
441.100	-36.256	0.100
441.200	-24.177	0.100
441.300	-29.994	0.100
441.400	-35.240	0.100
441.500	-33.847	0.100
441.600	-28.255	0.100
441.700	-25.847	0.100
441.800	-35.572	0.100
441.900	-32.907	0.100
442.000	-31.194	0.100
442.100	-25.968	0.100
442.200	-32.163	0.100
442.300	-29.982	0.100
442.400	-31.998	0.100
442.500	-23.468	0.100
442.600	-36.484	0.100
442.700	-37.245	0.100
442.800	-32.280	0.100
442.900	-33.335	0.100
443.000	-30.007	0.100
443.100	-34.581	0.100
443.200	-41.089	0.100
443.300	-23.540	0.100
443.400	-25.840	0.100
443.500	-24.648	0.100
443.600	-26.833	0.100
443.700	-29.666	0.100
443.800	-38.274	0.100
443.900	-30.216	0.100
444.000	-41.501	0.100
444.100	-28.665	0.100
444.200	-26.702	0.100
444.300	-23.282	0.100
444.400	-30.444	0.100
444.500	-35.455	0.100
444.600	-31.485	0.100
444.700	-26.044	0.100
444.800	-24.409	0.100
444.900	-30.905	0.100
445.000	-27.185	0.100
445.100	-29.695	0.100
445.200	-33.054	0.100
445.300	-36.031	0.100
445.400	-27.695	0.100
445.500	-26.622	0.100
445.600	-34.307	0.100
445.700	-29.463	0.100
445.800	-32.491	0.100
445.900	-30.543	0.100
446.000	-28.831	0.100
446.100	-47.073	0.100
446.200	-40.807	0.100
446.300	-33.672	0.100
446.400	-33.127	0.100
446.500	-21.953	0.100
446.600	-25.250	0.100
446.700	-34.156	0.100
446.800	-35.803	0.100
446.900	-29.680	0.100
447.000	-23.551	0.100
447.100	-24.179	0.100
447.200	-38.391	0.100
447.300	-35.166	0.100
447.400	-37.819	0.100
447.500	-26.265	0.100
447.600	-32.321	0.100
447.700	-26.124	0.100
447.800	-32.456	0.100
447.900	-23.223	0.100
448.000	-32.766	0.100
448.100	-35.101	0.100
448.200	-37.007	0.100
448.300	-25.231	0.100
448.400	-27.152	0.100
448.500	-28.438	0.100
448.600	-28.756	0.100
448.700	-34.038	0.100
448.800	-30.479	0.100
448.900	-23.504	0.100
449.000	-35.034	0.100
449.100	-26.860	0.100
449.200	-19.447	0.100
449.300	-26.353	0.100
449.400	-36.203	0.100
449.500	-36.018	0.100
449.600	-30.261	0.100
449.700	-28.852	0.100
449.800	-30.561	0.100
449.900	-22.483	0.100
450.000	-28.231	0.100
450.100	-27.914	0.100
450.200	-31.851	0.100
450.300	-28.634	0.100
450.400	-25.867	0.100
450.500	-29.525	0.100
450.600	-39.529	0.100
450.700	-39.606	0.100
450.800	-30.430	0.100
450.900	-29.226	0.100
451.000	-28.537	0.100
451.100	-36.319	0.100
451.200	-29.475	0.100
451.300	-36.203	0.100
451.400	-30.412	0.100
451.500	-28.930	0.100
451.600	-28.543	0.100
451.700	-26.625	0.100
451.800	-33.226	0.100
451.900	-29.426	0.100
452.000	-28.497	0.100
452.100	-22.306	0.100
452.200	-26.257	0.100
452.300	-26.333	0.100
452.400	-19.483	0.100
452.500	-24.597	0.100
452.600	-32.042	0.100
452.700	-27.243	0.100
452.800	-42.962	0.100
452.900	-28.879	0.100
453.000	-34.941	0.100
453.100	-39.899	0.100
453.200	-25.377	0.100
453.300	-28.417	0.100
453.400	-28.319	0.100
453.500	-28.100	0.100
453.600	-33.838	0.100
453.700	-35.045	0.100
453.800	-26.212	0.100
453.900	-29.653	0.100
454.000	-25.544	0.100
454.100	-23.945	0.100
454.200	-29.250	0.100
454.300	-29.961	0.100
454.400	-33.580	0.100
454.500	-39.004	0.100
454.600	-24.651	0.100
454.700	-24.967	0.100
454.800	-23.164	0.100
454.900	-27.659	0.100
455.000	-31.269	0.100
455.100	-34.380	0.100
455.200	-22.743	0.100
455.300	-19.799	0.100
455.400	-26.730	0.100
455.500	-28.668	0.100
455.600	-22.768	0.100
455.700	-27.062	0.100
455.800	-29.743	0.100
455.900	-32.358	0.100
456.000	-26.720	0.100
456.100	-26.270	0.100
456.200	-26.260	0.100
456.300	-25.085	0.100
456.400	-27.730	0.100
456.500	-31.169	0.100
456.600	-24.502	0.100
456.700	-31.364	0.100
456.800	-28.577	0.100
456.900	-31.431	0.100
457.000	-35.386	0.100
457.100	-26.210	0.100
457.200	-22.520	0.100
457.300	-26.478	0.100
457.400	-17.608	0.100
457.500	-13.971	0.100
457.600	-31.866	0.100
457.700	-30.170	0.100
457.800	-30.607	0.100
457.900	-27.567	0.100
458.000	-19.345	0.100
458.100	-23.081	0.100
458.200	-26.284	0.100
458.300	-37.689	0.100
458.400	-30.606	0.100
458.500	-22.833	0.100
458.600	-25.147	0.100
458.700	-28.354	0.100
458.800	-27.154	0.100
458.900	-31.679	0.100
459.000	-23.303	0.100
459.100	-22.050	0.100
459.200	-26.182	0.100
459.300	-29.465	0.100
459.400	-29.286	0.100
459.500	-26.099	0.100
459.600	-27.284	0.100
459.700	-27.457	0.100
459.800	-19.060	0.100
459.900	-22.615	0.100
460.000	-28.094	0.100
460.100	-20.013	0.100
460.200	-37.011	0.100
460.300	-24.784	0.100
460.400	-28.206	0.100
460.500	-24.367	0.100
460.600	-27.752	0.100
460.700	-26.629	0.100
460.800	-25.912	0.100
460.900	-23.170	0.100
461.000	-22.730	0.100
461.100	-32.397	0.100
461.200	-27.737	0.100
461.300	-19.358	0.100
461.400	-34.180	0.100
461.500	-29.256	0.100
461.600	-25.607	0.100
461.700	-25.208	0.100
461.800	-18.277	0.100
461.900	-30.641	0.100
462.000	-25.091	0.100
462.100	-28.716	0.100
462.200	-17.845	0.100
462.300	-24.615	0.100
462.400	-22.393	0.100
462.500	-32.966	0.100
462.600	-28.877	0.100
462.700	-22.255	0.100
462.800	-25.406	0.100
462.900	-32.130	0.100
463.000	-26.652	0.100
463.100	-28.978	0.100
463.200	-26.749	0.100
463.300	-26.279	0.100
463.400	-30.145	0.100
463.500	-16.689	0.100
463.600	-26.819	0.100
463.700	-16.660	0.100
463.800	-22.399	0.100
463.900	-29.259	0.100
464.000	-30.280	0.100
464.100	-31.019	0.100
464.200	-39.144	0.100
464.300	-23.520	0.100
464.400	-24.876	0.100
464.500	-18.695	0.100
464.600	-32.557	0.100
464.700	-16.677	0.100
464.800	-29.843	0.100
464.900	-22.228	0.100
465.000	-28.151	0.100
465.100	-23.064	0.100
465.200	-38.342	0.100
465.300	-26.549	0.100
465.400	-9.602	0.100
465.500	-19.015	0.100
465.600	-20.142	0.100
465.700	-17.647	0.100
465.800	-25.170	0.100
465.900	-26.976	0.100
466.000	-27.976	0.100
466.100	-24.619	0.100
466.200	-26.701	0.100
466.300	-22.987	0.100
466.400	-31.080	0.100
466.500	-15.022	0.100
466.600	-19.642	0.100
466.700	-23.665	0.100
466.800	-22.992	0.100
466.900	-35.252	0.100
467.000	-31.735	0.100
467.100	-22.203	0.100
467.200	-22.683	0.100
467.300	-18.073	0.100
467.400	-26.369	0.100
467.500	-18.804	0.100
467.600	-19.995	0.100
467.700	-26.542	0.100
467.800	-29.562	0.100
467.900	-25.355	0.100
468.000	-25.434	0.100
468.100	-29.404	0.100
468.200	-21.810	0.100
468.300	-27.232	0.100
468.400	-20.221	0.100
468.500	-23.082	0.100
468.600	-23.757	0.100
468.700	-22.301	0.100
468.800	-18.287	0.100
468.900	-24.417	0.100
469.000	-20.493	0.100
469.100	-25.920	0.100
469.200	-25.332	0.100
469.300	-26.920	0.100
469.400	-28.328	0.100
469.500	-26.823	0.100
469.600	-19.516	0.100
469.700	-30.090	0.100
469.800	-24.317	0.100
469.900	-24.190	0.100
470.000	-22.793	0.100
470.100	-22.511	0.100
470.200	-18.935	0.100
470.300	-22.282	0.100
470.400	-30.473	0.100
470.500	-22.182	0.100
470.600	-26.178	0.100
470.700	-26.239	0.100
470.800	-25.462	0.100
470.900	-23.093	0.100
471.000	-16.233	0.100
471.100	-19.183	0.100
471.200	-22.333	0.100
471.300	-23.798	0.100
471.400	-18.371	0.100
471.500	-18.231	0.100
471.600	-23.074	0.100
471.700	-24.365	0.100
471.800	-29.084	0.100
471.900	-27.518	0.100
472.000	-14.760	0.100
472.100	-21.069	0.100
472.200	-26.366	0.100
472.300	-22.276	0.100
472.400	-15.178	0.100
472.500	-31.367	0.100
472.600	-19.201	0.100
472.700	-22.256	0.100
472.800	-27.038	0.100
472.900	-21.181	0.100
473.000	-16.547	0.100
473.100	-25.536	0.100
473.200	-22.875	0.100
473.300	-23.797	0.100
473.400	-26.968	0.100
473.500	-18.882	0.100
473.600	-15.450	0.100
473.700	-19.979	0.100
473.800	-26.780	0.100
473.900	-25.359	0.100
474.000	-28.032	0.100
474.100	-17.890	0.100
474.200	-29.327	0.100
474.300	-21.886	0.100
474.400	-17.970	0.100
474.500	-24.648	0.100
474.600	-21.824	0.100
474.700	-17.365	0.100
474.800	-28.058	0.100
474.900	-20.874	0.100
475.000	-18.301	0.100
475.100	-16.763	0.100
475.200	-26.396	0.100
475.300	-21.670	0.100
475.400	-25.635	0.100
475.500	-24.183	0.100
475.600	-20.527	0.100
475.700	-15.031	0.100
475.800	-14.418	0.100
475.900	-26.695	0.100
476.000	-33.380	0.100
476.100	-20.214	0.100
476.200	-29.728	0.100
476.300	-23.257	0.100
476.400	-27.341	0.100
476.500	-15.598	0.100
476.600	-24.414	0.100
476.700	-17.706	0.100
476.800	-28.059	0.100
476.900	-30.523	0.100
477.000	-33.955	0.100
477.100	-23.046	0.100
477.200	-21.471	0.100
477.300	-28.036	0.100
477.400	-15.805	0.100
477.500	-22.707	0.100
477.600	-24.459	0.100
477.700	-26.533	0.100
477.800	-19.683	0.100
477.900	-19.646	0.100
478.000	-28.781	0.100
478.100	-26.079	0.100
478.200	-20.325	0.100
478.300	-21.456	0.100
478.400	-21.529	0.100
478.500	-20.587	0.100
478.600	-13.677	0.100
478.700	-24.244	0.100
478.800	-27.233	0.100
478.900	-30.342	0.100
479.000	-28.629	0.100
479.100	-21.098	0.100
479.200	-18.681	0.100
479.300	-20.419	0.100
479.400	-27.069	0.100
479.500	-17.700	0.100
479.600	-26.700	0.100
479.700	-20.564	0.100
479.800	-28.997	0.100
479.900	-16.627	0.100
480.000	-24.041	0.100
480.100	-21.488	0.100
480.200	-18.809	0.100
480.300	-25.675	0.100
480.400	-32.198	0.100
480.500	-21.790	0.100
480.600	-16.235	0.100
480.700	-18.721	0.100
480.800	-16.258	0.100
480.900	-17.733	0.100
481.000	-9.254	0.100
481.100	-9.878	0.100
481.200	-9.914	0.100
481.300	-7.730	0.100
481.400	-2.116	0.100
481.500	-3.291	0.100
481.600	0.089	0.100
481.700	9.992	0.100
481.800	5.784	0.100
481.900	12.799	0.100
482.000	12.437	0.100
482.100	16.155	0.100
482.200	9.340	0.100
482.300	18.615	0.100
482.400	13.906	0.100
482.500	7.679	0.100
482.600	18.289	0.100
482.700	13.992	0.100
482.800	24.655	0.100
482.900	28.579	0.100
483.000	14.136	0.100
483.100	18.793	0.100
483.200	19.603	0.100
483.300	25.323	0.100
483.400	26.034	0.100
483.500	21.930	0.100
483.600	24.920	0.100
483.700	17.475	0.100
483.800	29.379	0.100
483.900	9.355	0.100
484.000	21.165	0.100
484.100	22.472	0.100
484.200	22.566	0.100
484.300	20.798	0.100
484.400	18.168	0.100
484.500	24.273	0.100
484.600	22.377	0.100
484.700	19.948	0.100
484.800	16.866	0.100
484.900	11.729	0.100
485.000	21.949	0.100
485.100	30.219	0.100
485.200	20.925	0.100
485.300	18.375	0.100
485.400	18.850	0.100
485.500	6.571	0.100
485.600	16.089	0.100
485.700	21.840	0.100
485.800	22.826	0.100
485.900	13.472	0.100
486.000	20.424	0.100
486.100	11.601	0.100
486.200	11.303	0.100
486.300	17.785	0.100
486.400	14.466	0.100
486.500	17.512	0.100
486.600	16.625	0.100
486.700	15.809	0.100
486.800	14.649	0.100
486.900	9.869	0.100
487.000	14.597	0.100
487.100	19.939	0.100
487.200	12.458	0.100
487.300	14.916	0.100
487.400	10.041	0.100
487.500	18.193	0.100
487.600	18.317	0.100
487.700	24.186	0.100
487.800	20.165	0.100
487.900	17.641	0.100
488.000	11.899	0.100
488.100	21.864	0.100
488.200	23.401	0.100
488.300	14.592	0.100
488.400	12.884	0.100
488.500	12.808	0.100
488.600	13.835	0.100
488.700	16.951	0.100
488.800	15.713	0.100
488.900	13.143	0.100
489.000	19.174	0.100
489.100	25.772	0.100
489.200	17.148	0.100
489.300	9.608	0.100
489.400	19.041	0.100
489.500	14.085	0.100
489.600	13.001	0.100
489.700	12.024	0.100
489.800	15.910	0.100
489.900	21.099	0.100
490.000	15.821	0.100
490.100	22.328	0.100
490.200	11.537	0.100
490.300	15.212	0.100
490.400	26.039	0.100
490.500	13.355	0.100
490.600	9.769	0.100
490.700	17.184	0.100
490.800	16.290	0.100
490.900	22.445	0.100
491.000	21.509	0.100
491.100	20.924	0.100
491.200	18.668	0.100
491.300	22.905	0.100
491.400	22.970	0.100
491.500	16.767	0.100
491.600	17.831	0.100
491.700	19.190	0.100
491.800	22.388	0.100
491.900	26.898	0.100
492.000	16.340	0.100
492.100	26.380	0.100
492.200	28.446	0.100
492.300	21.240	0.100
492.400	20.851	0.100
492.500	14.425	0.100
492.600	19.136	0.100
492.700	17.181	0.100
492.800	20.900	0.100
492.900	19.121	0.100
493.000	19.855	0.100
493.100	18.601	0.100
493.200	11.145	0.100
493.300	24.397	0.100
493.400	23.129	0.100
493.500	18.093	0.100
493.600	23.347	0.100
493.700	28.250	0.100
493.800	16.485	0.100
493.900	22.775	0.100
494.000	17.894	0.100
494.100	22.695	0.100
494.200	18.700	0.100
494.300	16.083	0.100
494.400	20.772	0.100
494.500	28.192	0.100
494.600	20.359	0.100
494.700	21.232	0.100
494.800	18.957	0.100
494.900	22.252	0.100
495.000	27.601	0.100
495.100	24.986	0.100
495.200	25.058	0.100
495.300	21.860	0.100
495.400	28.893	0.100
495.500	29.879	0.100
495.600	27.730	0.100
495.700	21.018	0.100
495.800	20.165	0.100
495.900	22.454	0.100
496.000	22.865	0.100
496.100	22.702	0.100
496.200	21.741	0.100
496.300	20.626	0.100
496.400	20.296	0.100
496.500	27.321	0.100
496.600	19.523	0.100
496.700	23.211	0.100
496.800	30.131	0.100
496.900	25.217	0.100
497.000	33.325	0.100
497.100	24.514	0.100
497.200	23.215	0.100
497.300	20.425	0.100
497.400	28.092	0.100
497.500	28.595	0.100
497.600	24.044	0.100
497.700	19.937	0.100
497.800	24.427	0.100
497.900	24.188	0.100
498.000	25.730	0.100
498.100	26.381	0.100
498.200	31.738	0.100
498.300	21.726	0.100
498.400	21.511	0.100
498.500	30.123	0.100
498.600	19.881	0.100
498.700	30.658	0.100
498.800	34.148	0.100
498.900	44.768	0.100
499.000	27.339	0.100
499.100	34.631	0.100
499.200	24.227	0.100
499.300	29.130	0.100
499.400	32.552	0.100
499.500	27.851	0.100
499.600	23.802	0.100
499.700	21.711	0.100
499.800	21.550	0.100
499.900	22.594	0.100
500.000	30.375	0.100
500.100	33.223	0.100
500.200	26.936	0.100
500.300	40.568	0.100
500.400	26.589	0.100
500.500	30.846	0.100
500.600	32.505	0.100
500.700	39.295	0.100
500.800	44.182	0.100
500.900	22.581	0.100
501.000	24.650	0.100
501.100	32.623	0.100
501.200	33.433	0.100
501.300	35.326	0.100
501.400	31.932	0.100
501.500	34.099	0.100
501.600	40.933	0.100
501.700	38.823	0.100
501.800	26.014	0.100
501.900	34.615	0.100
502.000	33.711	0.100
502.100	40.552	0.100
502.200	25.883	0.100
502.300	27.648	0.100
502.400	35.826	0.100
502.500	32.760	0.100
502.600	26.426	0.100
502.700	35.798	0.100
502.800	31.477	0.100
502.900	37.402	0.100
503.000	42.276	0.100
503.100	36.511	0.100
503.200	35.275	0.100
503.300	25.240	0.100
503.400	41.866	0.100
503.500	36.446	0.100
503.600	46.242	0.100
503.700	45.879	0.100
503.800	30.657	0.100
503.900	37.248	0.100
504.000	40.294	0.100
504.100	38.644	0.100
504.200	40.741	0.100
504.300	40.467	0.100
504.400	41.997	0.100
504.500	39.997	0.100
504.600	36.866	0.100
504.700	38.232	0.100
504.800	35.687	0.100
504.900	38.883	0.100
505.000	39.652	0.100
505.100	37.224	0.100
505.200	39.171	0.100
505.300	37.288	0.100
505.400	35.726	0.100
505.500	40.128	0.100
505.600	43.906	0.100
505.700	42.487	0.100
505.800	47.304	0.100
505.900	44.755	0.100
506.000	43.167	0.100
506.100	38.579	0.100
506.200	37.980	0.100
506.300	51.621	0.100
506.400	43.699	0.100
506.500	42.251	0.100
506.600	46.315	0.100
506.700	42.517	0.100
506.800	38.379	0.100
506.900	29.639	0.100
507.000	44.157	0.100
507.100	38.828	0.100
507.200	43.668	0.100
507.300	42.032	0.100
507.400	48.496	0.100
507.500	43.164	0.100
507.600	46.847	0.100
507.700	50.611	0.100
507.800	40.312	0.100
507.900	46.237	0.100
508.000	45.708	0.100
508.100	47.484	0.100
508.200	49.713	0.100
508.300	49.213	0.100
508.400	46.808	0.100
508.500	49.131	0.100
508.600	49.850	0.100
508.700	44.565	0.100
508.800	51.648	0.100
508.900	48.768	0.100
509.000	53.577	0.100
509.100	53.610	0.100
509.200	50.068	0.100
509.300	49.291	0.100
509.400	53.630	0.100
509.500	47.297	0.100
509.600	47.461	0.100
509.700	51.400	0.100
509.800	51.557	0.100
509.900	49.030	0.100
510.000	44.767	0.100
510.100	57.966	0.100
510.200	50.644	0.100
510.300	38.509	0.100
510.400	45.695	0.100
510.500	48.353	0.100
510.600	52.596	0.100
510.700	47.478	0.100
510.800	55.517	0.100
510.900	53.424	0.100
511.000	50.614	0.100
511.100	45.557	0.100
511.200	57.239	0.100
511.300	49.901	0.100
511.400	54.885	0.100
511.500	61.900	0.100
511.600	42.783	0.100
511.700	47.636	0.100
511.800	45.585	0.100
511.900	58.797	0.100
512.000	52.182	0.100
512.100	51.252	0.100
512.200	54.311	0.100
512.300	54.361	0.100
512.400	54.618	0.100
512.500	44.119	0.100
512.600	47.859	0.100
512.700	51.114	0.100
512.800	53.638	0.100
512.900	59.386	0.100
513.000	42.772	0.100
513.100	52.252	0.100
513.200	55.490	0.100
513.300	48.618	0.100
513.400	47.888	0.100
513.500	41.924	0.100
513.600	51.941	0.100
513.700	60.727	0.100
513.800	58.772	0.100
513.900	55.747	0.100
514.000	51.625	0.100
514.100	53.339	0.100
514.200	49.397	0.100
514.300	55.825	0.100
514.400	52.139	0.100
514.500	47.994	0.100
514.600	42.254	0.100
514.700	50.013	0.100
514.800	51.339	0.100
514.900	47.857	0.100
515.000	51.593	0.100
515.100	51.983	0.100
515.200	48.269	0.100
515.300	58.746	0.100
515.400	58.158	0.100
515.500	47.409	0.100
515.600	48.409	0.100
515.700	57.497	0.100
515.800	55.822	0.100
515.900	46.435	0.100
516.000	48.666	0.100
516.100	54.768	0.100
516.200	53.574	0.100
516.300	59.463	0.100
516.400	56.675	0.100
516.500	48.680	0.100
516.600	52.443	0.100
516.700	55.345	0.100
516.800	52.155	0.100
516.900	55.286	0.100
517.000	52.984	0.100
517.100	56.899	0.100
517.200	52.584	0.100
517.300	45.337	0.100
517.400	54.705	0.100
517.500	58.517	0.100
517.600	54.839	0.100
517.700	60.489	0.100
517.800	55.399	0.100
517.900	49.212	0.100
518.000	49.230	0.100
518.100	45.816	0.100
518.200	48.607	0.100
518.300	44.844	0.100
518.400	57.151	0.100
518.500	56.951	0.100
518.600	55.893	0.100
518.700	52.985	0.100
518.800	45.395	0.100
518.900	43.361	0.100
519.000	49.718	0.100
519.100	51.077	0.100
519.200	50.058	0.100
519.300	59.155	0.100
519.400	55.509	0.100
519.500	54.105	0.100
519.600	54.267	0.100
519.700	59.226	0.100
519.800	49.474	0.100
519.900	53.799	0.100
520.000	52.553	0.100
520.100	57.464	0.100
520.200	54.327	0.100
520.300	53.771	0.100
520.400	57.443	0.100
520.500	53.993	0.100
520.600	59.115	0.100
520.700	50.279	0.100
520.800	57.397	0.100
520.900	48.370	0.100
521.000	54.916	0.100
521.100	55.074	0.100
521.200	43.023	0.100
521.300	52.133	0.100
521.400	42.646	0.100
521.500	48.705	0.100
521.600	46.025	0.100
521.700	49.388	0.100
521.800	54.025	0.100
521.900	54.321	0.100
522.000	53.323	0.100
522.100	51.041	0.100
522.200	52.576	0.100
522.300	56.417	0.100
522.400	58.329	0.100
522.500	49.898	0.100
522.600	51.404	0.100
522.700	55.929	0.100
522.800	52.994	0.100
522.900	47.504	0.100
523.000	50.439	0.100
523.100	49.424	0.100
523.200	50.423	0.100
523.300	52.150	0.100
523.400	48.978	0.100
523.500	51.758	0.100
523.600	48.286	0.100
523.700	61.935	0.100
523.800	59.064	0.100
523.900	58.158	0.100
524.000	54.200	0.100
524.100	55.431	0.100
524.200	48.362	0.100
524.300	50.553	0.100
524.400	54.312	0.100
524.500	44.289	0.100
524.600	59.743	0.100
524.700	53.342	0.100
524.800	54.341	0.100
524.900	50.201	0.100
525.000	51.095	0.100
525.100	46.173	0.100
525.200	65.616	0.100
525.300	61.045	0.100
525.400	51.371	0.100
525.500	52.410	0.100
525.600	49.031	0.100
525.700	48.967	0.100
525.800	48.403	0.100
525.900	53.094	0.100
526.000	49.325	0.100
526.100	50.238	0.100
526.200	53.170	0.100
526.300	51.695	0.100
526.400	54.491	0.100
526.500	45.426	0.100
526.600	54.538	0.100
526.700	48.441	0.100
526.800	56.737	0.100
526.900	51.537	0.100
527.000	49.902	0.100
527.100	43.517	0.100
527.200	46.949	0.100
527.300	50.835	0.100
527.400	49.534	0.100
527.500	49.956	0.100
527.600	56.779	0.100
527.700	49.521	0.100
527.800	54.676	0.100
527.900	56.361	0.100
528.000	60.641	0.100
528.100	54.391	0.100
528.200	50.125	0.100
528.300	45.530	0.100
528.400	55.147	0.100
528.500	61.375	0.100
528.600	46.706	0.100
528.700	48.799	0.100
528.800	47.616	0.100
528.900	53.577	0.100
529.000	55.243	0.100
529.100	48.443	0.100
529.200	45.851	0.100
529.300	44.264	0.100
529.400	50.270	0.100
529.500	54.736	0.100
529.600	50.802	0.100
529.700	47.795	0.100
529.800	45.038	0.100
529.900	49.632	0.100
530.000	61.063	0.100
530.100	54.384	0.100
530.200	60.119	0.100
530.300	48.550	0.100
530.400	51.775	0.100
530.500	41.857	0.100
530.600	51.973	0.100
530.700	54.127	0.100
530.800	51.931	0.100
530.900	45.358	0.100
531.000	44.470	0.100
531.100	42.679	0.100
531.200	45.579	0.100
531.300	57.973	0.100
531.400	51.485	0.100
531.500	52.455	0.100
531.600	54.640	0.100
531.700	49.270	0.100
531.800	46.677	0.100
531.900	37.714	0.100
532.000	46.898	0.100
532.100	44.832	0.100
532.200	45.923	0.100
532.300	52.962	0.100
532.400	54.336	0.100
532.500	50.608	0.100
532.600	49.980	0.100
532.700	46.365	0.100
532.800	52.910	0.100
532.900	52.183	0.100
533.000	55.599	0.100
533.100	49.881	0.100
533.200	53.682	0.100
533.300	43.806	0.100
533.400	41.046	0.100
533.500	49.198	0.100
533.600	49.441	0.100
533.700	51.211	0.100
533.800	51.891	0.100
533.900	48.328	0.100
534.000	44.313	0.100
534.100	50.085	0.100
534.200	42.179	0.100
534.300	50.648	0.100
534.400	55.445	0.100
534.500	50.128	0.100
534.600	44.975	0.100
534.700	53.443	0.100
534.800	37.087	0.100
534.900	51.133	0.100
535.000	57.616	0.100
535.100	46.475	0.100
535.200	48.680	0.100
535.300	47.522	0.100
535.400	44.557	0.100
535.500	48.727	0.100
535.600	48.881	0.100
535.700	46.497	0.100
535.800	41.415	0.100
535.900	40.342	0.100
536.000	50.631	0.100
536.100	44.692	0.100
536.200	51.911	0.100
536.300	61.361	0.100
536.400	60.506	0.100
536.500	51.703	0.100
536.600	46.508	0.100
536.700	48.567	0.100
536.800	42.998	0.100
536.900	44.339	0.100
537.000	50.632	0.100
537.100	40.560	0.100
537.200	51.772	0.100
537.300	55.694	0.100
537.400	44.463	0.100
537.500	46.621	0.100
537.600	47.345	0.100
537.700	45.788	0.100
537.800	45.244	0.100
537.900	47.344	0.100
538.000	48.501	0.100
538.100	53.896	0.100
538.200	44.253	0.100
538.300	55.206	0.100
538.400	54.234	0.100
538.500	46.221	0.100
538.600	53.826	0.100
538.700	49.828	0.100
538.800	46.177	0.100
538.900	38.965	0.100
539.000	41.981	0.100
539.100	41.388	0.100
539.200	50.963	0.100
539.300	49.177	0.100
539.400	54.062	0.100
539.500	43.753	0.100
539.600	59.349	0.100
539.700	46.007	0.100
539.800	50.050	0.100
539.900	44.837	0.100
540.000	47.625	0.100
540.100	50.386	0.100
540.200	49.158	0.100
540.300	42.890	0.100
540.400	54.301	0.100
540.500	53.430	0.100
540.600	37.318	0.100
540.700	41.704	0.100
540.800	48.054	0.100
540.900	44.078	0.100
541.000	42.276	0.100
541.100	36.814	0.100
541.200	29.805	0.100
541.300	29.473	0.100
541.400	33.204	0.100
541.500	21.246	0.100
541.600	33.478	0.100
541.700	23.314	0.100
541.800	21.515	0.100
541.900	25.434	0.101
542.000	19.783	0.101
542.100	10.619	0.101
542.200	19.636	0.101
542.300	19.094	0.101
542.400	12.595	0.101
542.500	10.962	0.101
542.600	15.267	0.101
542.700	15.647	0.101
542.800	12.708	0.101
542.900	21.906	0.101
543.000	12.842	0.101
543.100	4.544	0.101
543.200	5.047	0.101
543.300	8.167	0.101
543.400	-1.390	0.101
543.500	10.197	0.101
543.600	7.472	0.101
543.700	13.515	0.101
543.800	3.030	0.101
543.900	2.094	0.101
544.000	13.279	0.101
544.100	5.864	0.101
544.200	8.777	0.101
544.300	10.841	0.101
544.400	-3.405	0.101
544.500	3.024	0.101
544.600	2.496	0.101
544.700	9.717	0.101
544.800	3.088	0.101
544.900	-0.853	0.101
545.000	7.673	0.101
545.100	4.429	0.101
545.200	-1.832	0.101
545.300	6.115	0.101
545.400	2.488	0.101
545.500	10.568	0.101
545.600	2.841	0.101
545.700	6.038	0.101
545.800	-1.370	0.101
545.900	6.124	0.101
546.000	-1.586	0.101
546.100	5.566	0.101
546.200	1.433	0.101
546.300	5.979	0.101
546.400	1.616	0.101
546.500	5.526	0.101
546.600	4.105	0.101
546.700	-1.608	0.101
546.800	-2.679	0.101
546.900	2.189	0.101
547.000	1.078	0.101
547.100	1.016	0.101
547.200	-1.135	0.101
547.300	5.382	0.101
547.400	2.383	0.101
547.500	1.080	0.101
547.600	2.234	0.101
547.700	-3.132	0.101
547.800	-10.327	0.101
547.900	5.520	0.101
548.000	9.343	0.101
548.100	2.541	0.101
548.200	4.377	0.101
548.300	2.274	0.101
548.400	0.832	0.101
548.500	-0.591	0.101
548.600	1.445	0.101
548.700	1.432	0.101
548.800	0.787	0.101
548.900	0.325	0.101
549.000	-6.075	0.101
549.100	1.179	0.101
549.200	0.867	0.101
549.300	-3.036	0.101
549.400	-1.396	0.101
549.500	-5.833	0.101
549.600	3.427	0.101
549.700	2.457	0.101
549.800	4.265	0.101
549.900	0.285	0.101
550.000	-3.825	0.101
550.100	2.330	0.101
550.200	2.138	0.101
550.300	-8.654	0.101
550.400	-5.532	0.101
550.500	7.027	0.101
550.600	2.964	0.101
550.700	-2.800	0.101
550.800	3.066	0.101
550.900	-8.052	0.101
551.000	-8.838	0.101
551.100	-6.010	0.101
551.200	-5.589	0.101
551.300	-13.700	0.101
551.400	-9.714	0.101
551.500	2.451	0.101
551.600	2.099	0.101
551.700	3.278	0.101
551.800	3.443	0.101
551.900	-1.472	0.101
552.000	-2.574	0.101
552.100	-8.137	0.101
552.200	-6.307	0.101
552.300	-6.797	0.101
552.400	2.027	0.101
552.500	-2.123	0.101
552.600	-0.033	0.101
552.700	-1.413	0.101
552.800	-6.320	0.101
552.900	-7.910	0.101
553.000	-7.100	0.101
553.100	-0.972	0.101
553.200	-6.710	0.101
553.300	-8.305	0.101
553.400	-7.224	0.101
553.500	-11.655	0.101
553.600	-1.543	0.101
553.700	-4.669	0.101
553.800	-6.024	0.101
553.900	-18.837	0.101
554.000	-16.316	0.101
554.100	-5.109	0.101
554.200	-2.855	0.101
554.300	-4.841	0.101
554.400	-2.937	0.101
554.500	-12.901	0.101
554.600	-1.812	0.101
554.700	-5.588	0.101
554.800	-1.912	0.101
554.900	-2.858	0.101
555.000	-18.484	0.101
555.100	-2.808	0.101
555.200	-7.268	0.101
555.300	-13.057	0.101
555.400	-12.282	0.101
555.500	-4.592	0.101
555.600	-6.751	0.101
555.700	-9.493	0.101
555.800	-3.838	0.101
555.900	1.008	0.101
556.000	-3.839	0.101
556.100	-5.165	0.101
556.200	-13.652	0.101
556.300	-20.859	0.101
556.400	-16.870	0.101
556.500	-17.917	0.101
556.600	-7.307	0.101
556.700	-8.999	0.101
556.800	-3.467	0.101
556.900	-12.245	0.101
557.000	-23.201	0.101
557.100	-11.371	0.101
557.200	-14.271	0.101
557.300	-10.524	0.101
557.400	-20.748	0.101
557.500	-7.001	0.101
557.600	-6.379	0.101
557.700	-12.229	0.101
557.800	-16.377	0.101
557.900	-16.398	0.101
558.000	-9.148	0.101
558.100	-8.058	0.101
558.200	-15.908	0.101
558.300	-24.008	0.101
558.400	-19.523	0.101
558.500	-17.394	0.101
558.600	-15.077	0.101
558.700	-11.018	0.101
558.800	-9.706	0.101
558.900	-15.316	0.101
559.000	-7.779	0.101
559.100	-13.771	0.101
559.200	-14.919	0.101
559.300	-14.656	0.101
559.400	-9.016	0.101
559.500	-25.653	0.101
559.600	-15.766	0.101
559.700	-18.287	0.101
559.800	-16.135	0.101
559.900	-9.976	0.101
560.000	-16.202	0.101
560.100	-13.518	0.101
560.200	-12.781	0.101
560.300	-14.643	0.101
560.400	-15.880	0.101
560.500	-6.258	0.101
560.600	-23.683	0.101
560.700	-15.024	0.101
560.800	-16.620	0.101
560.900	-17.366	0.101
561.000	-15.626	0.101
561.100	-18.097	0.101
561.200	-12.999	0.101
561.300	-12.393	0.101
561.400	-13.412	0.101
561.500	-10.256	0.101
561.600	-20.747	0.101
561.700	-11.332	0.101
561.800	-15.607	0.101
561.900	-13.089	0.101
562.000	-16.744	0.101
562.100	-24.067	0.101
562.200	-15.415	0.101
562.300	-8.059	0.101
562.400	-11.139	0.101
562.500	-23.636	0.101
562.600	-26.575	0.101
562.700	-23.389	0.101
562.800	-21.810	0.101
562.900	-13.350	0.101
563.000	-18.192	0.100
563.100	-13.200	0.100
563.200	-20.789	0.100
563.300	-20.686	0.100
563.400	-19.309	0.100
563.500	-13.861	0.100
563.600	-21.393	0.101
563.700	-20.111	0.100
563.800	-14.432	0.100
563.900	-22.234	0.100
564.000	-20.599	0.100
564.100	-14.070	0.100
564.200	-12.184	0.100
564.300	-21.485	0.100
564.400	-22.678	0.100
564.500	-24.554	0.100
564.600	-20.334	0.100
564.700	-20.631	0.100
564.800	-19.530	0.100
564.900	-21.885	0.100
565.000	-14.582	0.100
565.100	-20.283	0.100
565.200	-20.271	0.100
565.300	-21.346	0.100
565.400	-30.842	0.100
565.500	-18.383	0.100
565.600	-15.562	0.100
565.700	-23.264	0.100
565.800	-30.980	0.100
565.900	-25.187	0.100
566.000	-23.835	0.100
566.100	-13.331	0.100
566.200	-21.041	0.100
566.300	-25.959	0.100
566.400	-25.000	0.100
566.500	-25.695	0.100
566.600	-21.846	0.100
566.700	-27.501	0.100
566.800	-17.284	0.100
566.900	-28.638	0.100
567.000	-17.918	0.100
567.100	-12.870	0.100
567.200	-19.431	0.100
567.300	-15.801	0.100
567.400	-19.552	0.100
567.500	-21.445	0.100
567.600	-16.142	0.100
567.700	-23.636	0.100
567.800	-23.103	0.100
567.900	-27.110	0.100
568.000	-24.383	0.100
568.100	-20.197	0.100
568.200	-25.470	0.100
568.300	-14.760	0.100
568.400	-27.482	0.100
568.500	-28.821	0.100
568.600	-21.912	0.100
568.700	-26.836	0.100
568.800	-23.458	0.100
568.900	-23.417	0.100
569.000	-16.015	0.100
569.100	-27.891	0.100
569.200	-21.212	0.100
569.300	-21.847	0.100
569.400	-24.497	0.100
569.500	-24.701	0.100
569.600	-20.259	0.100
569.700	-23.658	0.100
569.800	-16.448	0.100
569.900	-25.670	0.100
570.000	-28.490	0.100
570.100	-32.425	0.100
570.200	-26.838	0.100
570.300	-15.423	0.100
570.400	-22.915	0.100
570.500	-22.186	0.100
570.600	-23.426	0.100
570.700	-29.346	0.100
570.800	-29.816	0.100
570.900	-12.694	0.100
571.000	-26.680	0.100
571.100	-31.062	0.100
571.200	-23.671	0.100
571.300	-26.394	0.100
571.400	-28.022	0.100
571.500	-22.115	0.100
571.600	-21.999	0.100
571.700	-23.015	0.100
571.800	-30.000	0.100
571.900	-20.756	0.100
572.000	-24.558	0.100
572.100	-25.232	0.100
572.200	-29.135	0.100
572.300	-31.738	0.100
572.400	-33.173	0.100
572.500	-20.521	0.100
572.600	-33.013	0.100
572.700	-22.513	0.100
572.800	-32.408	0.100
572.900	-21.497	0.100
573.000	-20.533	0.100
573.100	-28.609	0.100
573.200	-23.735	0.100
573.300	-37.649	0.100
573.400	-30.062	0.100
573.500	-23.000	0.100
573.600	-20.884	0.100
573.700	-32.183	0.100
573.800	-36.380	0.100
573.900	-30.905	0.100
574.000	-25.934	0.100
574.100	-23.358	0.100
574.200	-34.571	0.100
574.300	-21.404	0.100
574.400	-27.117	0.100
574.500	-30.212	0.100
574.600	-26.852	0.100
574.700	-34.062	0.100
574.800	-25.313	0.100
574.900	-28.613	0.100
575.000	-30.395	0.100
575.100	-26.295	0.100
575.200	-30.675	0.100
575.300	-29.518	0.100
575.400	-30.398	0.100
575.500	-31.318	0.100
575.600	-31.876	0.100
575.700	-24.215	0.100
575.800	-24.342	0.100
575.900	-28.587	0.100
576.000	-27.492	0.100
576.100	-23.207	0.100
576.200	-28.469	0.100
576.300	-29.442	0.100
576.400	-42.586	0.100
576.500	-31.570	0.100
576.600	-30.409	0.100
576.700	-30.580	0.100
576.800	-26.982	0.100
576.900	-29.258	0.100
577.000	-26.496	0.100
577.100	-33.620	0.100
577.200	-29.055	0.100
577.300	-23.162	0.100
577.400	-30.338	0.100
577.500	-29.477	0.100
577.600	-32.576	0.100
577.700	-32.955	0.100
577.800	-39.678	0.100
577.900	-23.335	0.100
578.000	-29.425	0.100
578.100	-26.336	0.100
578.200	-30.157	0.100
578.300	-28.339	0.100
578.400	-26.175	0.100
578.500	-35.105	0.100
578.600	-26.130	0.100
578.700	-31.854	0.100
578.800	-36.517	0.100
578.900	-29.802	0.100
579.000	-34.040	0.100
579.100	-27.972	0.100
579.200	-25.019	0.100
579.300	-34.905	0.100
579.400	-41.675	0.100
579.500	-33.407	0.100
579.600	-32.850	0.100
579.700	-39.980	0.100
579.800	-27.210	0.100
579.900	-25.178	0.100
580.000	-34.723	0.100
580.100	-33.105	0.100
580.200	-28.203	0.100
580.300	-31.272	0.100
580.400	-27.348	0.100
580.500	-36.353	0.100
580.600	-39.955	0.100
580.700	-34.907	0.100
580.800	-26.621	0.100
580.900	-26.740	0.100
581.000	-31.934	0.100
581.100	-29.060	0.100
581.200	-33.905	0.100
581.300	-29.633	0.100
581.400	-27.173	0.100
581.500	-38.724	0.100
581.600	-30.971	0.100
581.700	-34.137	0.100
581.800	-22.102	0.100
581.900	-31.465	0.100
582.000	-27.750	0.100
582.100	-32.881	0.100
582.200	-23.168	0.100
582.300	-34.317	0.100
582.400	-39.009	0.100
582.500	-33.667	0.100
582.600	-35.290	0.100
582.700	-36.199	0.100
582.800	-28.246	0.100
582.900	-32.214	0.100
583.000	-30.805	0.100
583.100	-40.732	0.100
583.200	-30.720	0.100
583.300	-27.248	0.100
583.400	-29.850	0.100
583.500	-35.930	0.100
583.600	-37.102	0.100
583.700	-35.417	0.100
583.800	-29.481	0.100
583.900	-23.098	0.100
584.000	-26.148	0.100
584.100	-28.237	0.100
584.200	-33.015	0.100
584.300	-37.248	0.100
584.400	-40.284	0.100
584.500	-31.722	0.100
584.600	-36.448	0.100
584.700	-35.723	0.100
584.800	-28.618	0.100
584.900	-28.365	0.100
585.000	-33.765	0.100
585.100	-40.036	0.100
585.200	-30.454	0.100
585.300	-37.334	0.100
585.400	-26.972	0.100
585.500	-28.279	0.100
585.600	-35.561	0.100
585.700	-40.492	0.100
585.800	-33.494	0.100
585.900	-24.770	0.100
586.000	-27.928	0.100
586.100	-31.042	0.100
586.200	-32.868	0.100
586.300	-40.491	0.100
586.400	-31.176	0.100
586.500	-29.839	0.100
586.600	-37.268	0.100
586.700	-34.520	0.100
586.800	-33.325	0.100
586.900	-19.220	0.100
587.000	-30.942	0.100
587.100	-37.796	0.100
587.200	-35.951	0.100
587.300	-27.479	0.100
587.400	-31.361	0.100
587.500	-35.316	0.100
587.600	-29.082	0.100
587.700	-36.067	0.100
587.800	-32.940	0.100
587.900	-24.993	0.100
588.000	-27.847	0.100
588.100	-29.437	0.100
588.200	-41.304	0.100
588.300	-30.153	0.100
588.400	-33.704	0.100
588.500	-30.484	0.100
588.600	-36.231	0.100
588.700	-29.435	0.100
588.800	-37.342	0.100
588.900	-27.793	0.100
589.000	-31.707	0.100
589.100	-37.582	0.100
589.200	-43.271	0.100
589.300	-31.369	0.100
589.400	-29.638	0.100
589.500	-26.552	0.100
589.600	-34.617	0.100
589.700	-31.841	0.100
589.800	-33.707	0.100
589.900	-40.957	0.100
590.000	-34.502	0.100
590.100	-28.889	0.100
590.200	-34.455	0.100
590.300	-34.886	0.100
590.400	-23.933	0.100
590.500	-31.642	0.100
590.600	-36.967	0.100
590.700	-42.637	0.100
590.800	-38.776	0.100
590.900	-35.751	0.100
591.000	-36.099	0.100
591.100	-31.821	0.100
591.200	-28.245	0.100
591.300	-28.991	0.100
591.400	-35.475	0.100
591.500	-27.608	0.100
591.600	-33.308	0.100
591.700	-30.527	0.100
591.800	-26.252	0.100
591.900	-30.282	0.100
592.000	-29.053	0.100
592.100	-34.985	0.100
592.200	-30.205	0.100
592.300	-19.341	0.100
592.400	-43.132	0.100
592.500	-38.369	0.100
592.600	-32.238	0.100
592.700	-30.047	0.100
592.800	-30.810	0.100
592.900	-31.715	0.100
593.000	-25.603	0.100
593.100	-40.423	0.100
593.200	-30.413	0.100
593.300	-18.608	0.100
593.400	-31.744	0.100
593.500	-40.752	0.100
593.600	-37.177	0.100
593.700	-30.424	0.100
593.800	-36.646	0.100
593.900	-29.066	0.100
594.000	-22.352	0.100
594.100	-27.941	0.100
594.200	-33.621	0.100
594.300	-39.176	0.100
594.400	-32.162	0.100
594.500	-32.772	0.100
594.600	-33.687	0.100
594.700	-31.813	0.100
594.800	-33.990	0.100
594.900	-42.850	0.100
595.000	-32.681	0.100
595.100	-31.112	0.100
595.200	-26.800	0.100
595.300	-30.961	0.100
595.400	-34.378	0.100
595.500	-36.410	0.100
595.600	-36.246	0.100
595.700	-38.104	0.100
595.800	-36.135	0.100
595.900	-28.048	0.100
596.000	-36.547	0.100
596.100	-32.825	0.100
596.200	-24.871	0.100
596.300	-22.417	0.100
596.400	-29.322	0.100
596.500	-42.065	0.100
596.600	-27.491	0.100
596.700	-26.485	0.100
596.800	-22.796	0.100
596.900	-28.676	0.100
597.000	-31.911	0.100
597.100	-33.637	0.100
597.200	-35.351	0.100
597.300	-32.201	0.100
597.400	-28.882	0.100
597.500	-35.511	0.100
597.600	-28.934	0.100
597.700	-30.506	0.100
597.800	-32.849	0.100
597.900	-34.626	0.100
598.000	-30.145	0.100
598.100	-35.275	0.100
598.200	-27.109	0.100
598.300	-24.363	0.100
598.400	-31.236	0.100
598.500	-33.769	0.100
598.600	-38.923	0.100
598.700	-32.240	0.100
598.800	-23.962	0.100
598.900	-23.472	0.100
599.000	-31.740	0.100
599.100	-33.672	0.100
599.200	-28.395	0.100
599.300	-24.124	0.100
599.400	-25.156	0.100
599.500	-27.489	0.100
599.600	-26.417	0.100
599.700	-35.087	0.100
599.800	-35.167	0.100
599.900	-37.575	0.100
600.000	-39.880	0.100
600.100	-34.787	0.100
600.200	-21.445	0.100
600.300	-30.535	0.100
600.400	-24.684	0.100
600.500	-24.819	0.100
600.600	-29.745	0.100
600.700	-30.391	0.100
600.800	-28.778	0.100
600.900	-28.117	0.100
601.000	-37.248	0.100
601.100	-33.177	0.100
601.200	-27.971	0.100
601.300	-24.601	0.100
601.400	-32.825	0.100
601.500	-32.134	0.100
601.600	-23.572	0.100
601.700	-31.005	0.100
601.800	-26.436	0.100
601.900	-32.122	0.100
602.000	-30.893	0.100
602.100	-34.141	0.100
602.200	-32.113	0.100
602.300	-33.505	0.100
602.400	-26.792	0.100
602.500	-29.230	0.100
602.600	-33.637	0.100
602.700	-25.738	0.100
602.800	-17.083	0.100
602.900	-26.325	0.100
603.000	-38.136	0.100
603.100	-37.984	0.100
603.200	-28.755	0.100
603.300	-20.746	0.100
603.400	-28.987	0.100
603.500	-32.783	0.100
603.600	-32.122	0.100
603.700	-31.667	0.100
603.800	-25.740	0.100
603.900	-31.310	0.100
604.000	-33.947	0.100
604.100	-32.264	0.100
604.200	-29.498	0.100
604.300	-21.090	0.100
604.400	-32.832	0.100
604.500	-28.349	0.100
604.600	-26.631	0.100
604.700	-33.418	0.100
604.800	-29.905	0.100
604.900	-28.188	0.100
605.000	-27.072	0.100
605.100	-20.205	0.100
605.200	-29.457	0.100
605.300	-24.328	0.100
605.400	-35.354	0.100
605.500	-25.211	0.100
605.600	-27.495	0.100
605.700	-24.741	0.100
605.800	-24.445	0.100
605.900	-37.807	0.100
606.000	-27.205	0.100
606.100	-25.524	0.100
606.200	-33.236	0.100
606.300	-34.559	0.100
606.400	-28.677	0.100
606.500	-29.448	0.100
606.600	-28.842	0.100
606.700	-31.135	0.100
606.800	-17.445	0.100
606.900	-28.368	0.100
607.000	-31.714	0.100
607.100	-29.820	0.100
607.200	-29.651	0.100
607.300	-27.066	0.100
607.400	-32.054	0.100
607.500	-33.760	0.100
607.600	-36.060	0.100
607.700	-25.202	0.100
607.800	-25.000	0.100
607.900	-26.472	0.100
608.000	-28.920	0.100
608.100	-27.314	0.100
608.200	-29.523	0.100
608.300	-32.915	0.100
608.400	-25.210	0.100
608.500	-24.869	0.100
608.600	-23.220	0.100
608.700	-26.585	0.100
608.800	-20.060	0.100
608.900	-32.182	0.100
609.000	-38.805	0.100
609.100	-34.704	0.100
609.200	-20.691	0.100
609.300	-19.454	0.100
609.400	-27.139	0.100
609.500	-34.603	0.100
609.600	-35.192	0.100
609.700	-25.769	0.100
609.800	-27.701	0.100
609.900	-25.188	0.100
610.000	-29.970	0.100
610.100	-18.198	0.100
610.200	-20.683	0.100
610.300	-31.910	0.100
610.400	-27.110	0.100
610.500	-33.559	0.100
610.600	-28.610	0.100
610.700	-29.381	0.100
610.800	-22.033	0.100
610.900	-25.779	0.100
611.000	-27.686	0.100
611.100	-26.594	0.100
611.200	-25.907	0.100
611.300	-26.964	0.100
611.400	-26.607	0.100
611.500	-22.306	0.100
611.600	-20.037	0.100
611.700	-24.683	0.100
611.800	-32.360	0.100
611.900	-31.685	0.100
612.000	-29.238	0.100
612.100	-32.463	0.100
612.200	-23.182	0.100
612.300	-23.672	0.100
612.400	-25.967	0.100
612.500	-23.043	0.100
612.600	-26.591	0.100
612.700	-32.025	0.100
612.800	-24.495	0.100
612.900	-19.025	0.100
613.000	-28.792	0.100
613.100	-26.839	0.100
613.200	-24.522	0.100
613.300	-28.708	0.100
613.400	-25.959	0.100
613.500	-28.444	0.100
613.600	-32.724	0.100
613.700	-33.000	0.100
613.800	-28.992	0.100
613.900	-23.712	0.100
614.000	-23.908	0.100
614.100	-29.599	0.100
614.200	-20.387	0.100
614.300	-36.949	0.100
614.400	-27.698	0.100
614.500	-24.303	0.100
614.600	-24.129	0.100
614.700	-25.936	0.100
614.800	-19.977	0.100
614.900	-25.942	0.100
615.000	-27.799	0.100
615.100	-28.156	0.100
615.200	-17.484	0.100
615.300	-30.867	0.100
615.400	-27.766	0.100
615.500	-30.612	0.100
615.600	-29.404	0.100
615.700	-21.765	0.100
615.800	-21.588	0.100
615.900	-21.972	0.100
616.000	-33.602	0.100
616.100	-28.661	0.100
616.200	-26.391	0.100
616.300	-17.309	0.100
616.400	-19.665	0.100
616.500	-20.556	0.100
616.600	-32.040	0.100
616.700	-36.071	0.100
616.800	-26.772	0.100
616.900	-30.545	0.100
617.000	-29.625	0.100
617.100	-22.632	0.100
617.200	-30.468	0.100
617.300	-28.016	0.100
617.400	-28.065	0.100
617.500	-24.931	0.100
617.600	-26.295	0.100
617.700	-34.786	0.100
617.800	-20.116	0.100
617.900	-26.536	0.100
618.000	-24.478	0.100
618.100	-28.376	0.100
618.200	-23.516	0.100
618.300	-23.957	0.100
618.400	-26.105	0.100
618.500	-24.519	0.100
618.600	-27.747	0.100
618.700	-25.509	0.100
618.800	-20.283	0.100
618.900	-23.961	0.100
619.000	-31.086	0.100
619.100	-26.903	0.100
619.200	-19.136	0.100
619.300	-25.133	0.100
619.400	-27.573	0.100
619.500	-29.550	0.100
619.600	-19.601	0.100
619.700	-25.594	0.100
619.800	-29.951	0.100
619.900	-30.663	0.100
620.000	-28.702	0.100
620.100	-20.180	0.100
620.200	-20.071	0.100
620.300	-28.088	0.100
620.400	-25.830	0.100
620.500	-26.581	0.100
620.600	-18.906	0.100
620.700	-18.462	0.100
620.800	-19.341	0.100
620.900	-14.188	0.100
621.000	-33.801	0.100
621.100	-26.719	0.100
621.200	-19.580	0.100
621.300	-10.401	0.100
621.400	-27.920	0.100
621.500	-26.578	0.100
621.600	-25.951	0.100
621.700	-20.029	0.100
621.800	-18.564	0.100
621.900	-18.874	0.100
622.000	-27.384	0.100
622.100	-28.141	0.100
622.200	-27.230	0.100
622.300	-25.917	0.100
622.400	-20.775	0.100
622.500	-21.085	0.100
622.600	-20.843	0.100
622.700	-23.621	0.100
622.800	-22.160	0.100
622.900	-29.230	0.100
623.000	-26.538	0.100
623.100	-33.598	0.100
623.200	-20.870	0.100
623.300	-30.112	0.100
623.400	-20.210	0.100
623.500	-26.381	0.100
623.600	-23.007	0.100
623.700	-20.762	0.100
623.800	-22.562	0.100
623.900	-24.921	0.100
624.000	-24.378	0.100
624.100	-27.502	0.100
624.200	-25.659	0.100
624.300	-17.812	0.100
624.400	-32.868	0.100
624.500	-17.866	0.100
624.600	-21.273	0.100
624.700	-19.207	0.100
624.800	-20.677	0.100
624.900	-22.998	0.100
625.000	-23.428	0.100
625.100	-23.520	0.100
625.200	-21.613	0.100
625.300	-16.833	0.100
625.400	-18.884	0.100
625.500	-21.118	0.100
625.600	-25.379	0.100
625.700	-24.558	0.100
625.800	-32.193	0.100
625.900	-31.909	0.100
626.000	-19.258	0.100
626.100	-18.238	0.100
626.200	-31.098	0.100
626.300	-25.367	0.100
626.400	-20.222	0.100
626.500	-20.498	0.100
626.600	-26.001	0.100
626.700	-14.118	0.100
626.800	-18.422	0.100
626.900	-23.143	0.100
627.000	-26.652	0.100
627.100	-25.589	0.100
627.200	-30.519	0.100
627.300	-23.050	0.100
627.400	-26.850	0.100
627.500	-20.958	0.100
627.600	-15.026	0.100
627.700	-18.999	0.100
627.800	-24.892	0.100
627.900	-20.969	0.100
628.000	-22.659	0.100
628.100	-23.129	0.100
628.200	-23.161	0.100
628.300	-27.333	0.100
628.400	-15.732	0.100
628.500	-28.870	0.100
628.600	-16.692	0.100
628.700	-27.938	0.100
628.800	-20.884	0.100
628.900	-15.784	0.100
629.000	-19.001	0.100
629.100	-15.613	0.100
629.200	-19.620	0.100
629.300	-26.139	0.100
629.400	-23.988	0.100
629.500	-22.688	0.100
629.600	-23.062	0.100
629.700	-21.324	0.100
629.800	-25.652	0.100
629.900	-25.312	0.100
630.000	-20.698	0.100
630.100	-22.755	0.100
630.200	-23.424	0.100
630.300	-21.230	0.100
630.400	-21.045	0.100
630.500	-21.538	0.100
630.600	-20.208	0.100
630.700	-16.131	0.100
630.800	-18.287	0.100
630.900	-20.122	0.100
631.000	-18.559	0.100
631.100	-7.631	0.100
631.200	-3.891	0.100
631.300	4.508	0.100
631.400	0.394	0.100
631.500	-0.854	0.100
631.600	-1.134	0.100
631.700	1.515	0.100
631.800	5.084	0.100
631.900	10.163	0.100
632.000	17.232	0.100
632.100	17.974	0.100
632.200	13.715	0.100
632.300	9.684	0.100
632.400	20.550	0.100
632.500	19.993	0.100
632.600	25.352	0.100
632.700	18.991	0.100
632.800	20.485	0.100
632.900	16.431	0.100
633.000	15.110	0.100
633.100	33.004	0.100
633.200	32.162	0.100
633.300	27.068	0.100
633.400	26.088	0.100
633.500	33.476	0.100
633.600	28.805	0.100
633.700	29.056	0.100
633.800	31.848	0.100
633.900	25.627	0.100
634.000	15.841	0.100
634.100	25.142	0.100
634.200	20.067	0.100
634.300	25.322	0.100
634.400	23.077	0.100
634.500	30.530	0.100
634.600	21.258	0.100
634.700	16.341	0.100
634.800	25.873	0.100
634.900	31.768	0.100
635.000	25.416	0.100
635.100	22.975	0.100
635.200	18.030	0.100
635.300	16.019	0.100
635.400	23.460	0.100
635.500	17.706	0.100
635.600	24.135	0.100
635.700	28.055	0.100
635.800	19.265	0.100
635.900	19.796	0.100
636.000	18.116	0.100
636.100	11.785	0.100
636.200	18.040	0.100
636.300	20.783	0.100
636.400	25.787	0.100
636.500	23.697	0.100
636.600	17.660	0.100
636.700	18.050	0.100
636.800	23.231	0.100
636.900	21.598	0.100
637.000	21.633	0.100
637.100	12.248	0.100
637.200	13.351	0.100
637.300	21.775	0.100
637.400	19.006	0.100
637.500	16.146	0.100
637.600	19.854	0.100
637.700	18.248	0.100
637.800	21.490	0.100
637.900	12.523	0.100
638.000	10.841	0.100
638.100	18.513	0.100
638.200	20.586	0.100
638.300	21.341	0.100
638.400	11.627	0.100
638.500	15.125	0.100
638.600	20.357	0.100
638.700	21.915	0.100
638.800	20.036	0.100
638.900	17.530	0.100
639.000	23.375	0.100
639.100	21.779	0.100
639.200	15.332	0.100
639.300	10.783	0.100
639.400	9.634	0.100
639.500	8.530	0.100
639.600	19.261	0.100
639.700	23.958	0.100
639.800	17.506	0.100
639.900	23.622	0.100
640.000	24.762	0.100
640.100	27.036	0.100
640.200	20.984	0.100
640.300	11.913	0.100
640.400	11.906	0.100
640.500	21.251	0.100
640.600	12.183	0.100
640.700	25.482	0.100
640.800	24.336	0.100
640.900	20.319	0.100
641.000	20.856	0.100
641.100	19.701	0.100
641.200	17.829	0.100
641.300	15.162	0.100
641.400	14.503	0.100
641.500	14.579	0.100
641.600	19.569	0.100
641.700	24.575	0.100
641.800	22.522	0.100
641.900	22.974	0.100
642.000	19.054	0.100
642.100	27.731	0.100
642.200	14.601	0.100
642.300	16.423	0.100
642.400	23.429	0.100
642.500	24.676	0.100
642.600	17.420	0.100
642.700	29.664	0.100
642.800	16.861	0.100
642.900	20.862	0.100
643.000	17.126	0.100
643.100	27.421	0.100
643.200	25.977	0.100
643.300	25.513	0.100
643.400	15.819	0.100
643.500	25.393	0.100
643.600	19.538	0.100
643.700	16.569	0.100
643.800	23.262	0.100
643.900	29.444	0.100
644.000	29.425	0.100
644.100	17.625	0.100
644.200	19.507	0.100
644.300	22.087	0.100
644.400	24.039	0.100
644.500	28.392	0.100
644.600	18.911	0.100
644.700	25.619	0.100
644.800	29.488	0.100
644.900	19.798	0.100
645.000	21.612	0.100
645.100	21.820	0.100
645.200	24.444	0.100
645.300	21.834	0.100
645.400	21.139	0.100
645.500	24.486	0.100
645.600	31.997	0.100
645.700	33.286	0.100
645.800	29.403	0.100
645.900	21.082	0.100
646.000	21.096	0.100
646.100	26.348	0.100
646.200	29.168	0.100
646.300	23.207	0.100
646.400	20.862	0.100
646.500	20.039	0.100
646.600	19.222	0.100
646.700	29.186	0.100
646.800	28.087	0.100
646.900	25.019	0.100
647.000	19.501	0.100
647.100	21.036	0.100
647.200	25.428	0.100
647.300	26.455	0.100
647.400	24.798	0.100
647.500	22.795	0.100
647.600	31.542	0.100
647.700	32.847	0.100
647.800	32.063	0.100
647.900	32.030	0.100
648.000	23.388	0.100
648.100	36.085	0.100
648.200	24.449	0.100
648.300	17.162	0.100
648.400	27.717	0.100
648.500	30.715	0.100
648.600	37.894	0.100
648.700	31.133	0.100
648.800	31.581	0.100
648.900	24.714	0.100
649.000	30.160	0.100
649.100	26.768	0.100
649.200	30.651	0.100
649.300	23.503	0.100
649.400	27.651	0.100
649.500	27.539	0.100
649.600	33.175	0.100
649.700	40.348	0.100
649.800	35.179	0.100
649.900	36.021	0.100
650.000	31.310	0.100
650.100	27.374	0.100
650.200	36.269	0.100
650.300	31.273	0.100
650.400	26.445	0.100
650.500	30.125	0.100
650.600	31.334	0.100
650.700	31.443	0.100
650.800	33.130	0.100
650.900	35.654	0.100
651.000	37.167	0.100
651.100	38.912	0.100
651.200	43.386	0.100
651.300	28.894	0.100
651.400	34.415	0.100
651.500	41.450	0.100
651.600	32.424	0.100
651.700	26.999	0.100
651.800	26.622	0.100
651.900	41.025	0.100
652.000	42.904	0.100
652.100	35.241	0.100
652.200	33.523	0.100
652.300	41.513	0.100
652.400	36.978	0.100
652.500	30.705	0.100
652.600	35.412	0.100
652.700	47.068	0.100
652.800	43.643	0.100
652.900	43.320	0.100
653.000	34.385	0.100
653.100	37.781	0.100
653.200	32.323	0.100
653.300	36.756	0.100
653.400	46.499	0.100
653.500	46.827	0.100
653.600	39.705	0.100
653.700	37.089	0.100
653.800	44.462	0.100
653.900	39.952	0.100
654.000	45.911	0.100
654.100	35.247	0.100
654.200	44.388	0.100
654.300	41.675	0.100
654.400	35.453	0.100
654.500	41.829	0.100
654.600	35.325	0.100
654.700	39.552	0.100
654.800	47.025	0.100
654.900	42.067	0.100
655.000	44.669	0.100
655.100	45.956	0.100
655.200	41.649	0.100
655.300	37.367	0.100
655.400	44.622	0.100
655.500	51.291	0.100
655.600	43.515	0.100
655.700	47.791	0.100
655.800	43.601	0.100
655.900	46.310	0.100
656.000	49.865	0.100
656.100	49.491	0.100
656.200	40.171	0.100
656.300	46.997	0.100
656.400	44.905	0.100
656.500	41.938	0.100
656.600	43.314	0.100
656.700	44.995	0.100
656.800	51.586	0.100
656.900	49.294	0.100
657.000	52.224	0.100
657.100	47.161	0.100
657.200	46.310	0.100
657.300	44.691	0.100
657.400	39.644	0.100
657.500	52.526	0.100
657.600	50.209	0.100
657.700	48.375	0.100
657.800	44.657	0.100
657.900	46.635	0.100
658.000	53.524	0.100
658.100	38.650	0.100
658.200	41.874	0.100
658.300	49.548	0.100
658.400	50.526	0.100
658.500	49.628	0.100
658.600	52.453	0.100
658.700	43.774	0.100
658.800	52.534	0.100
658.900	51.237	0.100
659.000	50.859	0.100
659.100	46.116	0.100
659.200	40.774	0.100
659.300	48.019	0.100
659.400	51.151	0.100
659.500	55.618	0.100
659.600	46.616	0.100
659.700	52.571	0.100
659.800	54.173	0.100
659.900	51.874	0.100
660.000	47.276	0.100
660.100	47.594	0.100
660.200	48.558	0.100
660.300	47.425	0.100
660.400	51.856	0.100
660.500	55.240	0.100
660.600	55.612	0.100
660.700	46.526	0.100
660.800	49.281	0.100
660.900	49.795	0.100
661.000	61.312	0.100
661.100	50.648	0.100
661.200	48.196	0.100
661.300	53.172	0.100
661.400	51.286	0.100
661.500	59.472	0.100
661.600	50.380	0.100
661.700	54.495	0.100
661.800	49.207	0.100
661.900	54.355	0.100
662.000	50.208	0.100
662.100	57.508	0.100
662.200	44.366	0.100
662.300	53.219	0.100
662.400	52.042	0.100
662.500	47.344	0.100
662.600	48.990	0.100
662.700	53.946	0.100
662.800	67.028	0.100
662.900	54.436	0.100
663.000	52.453	0.100
663.100	56.786	0.100
663.200	59.038	0.100
663.300	51.102	0.100
663.400	48.204	0.100
663.500	49.085	0.100
663.600	47.217	0.100
663.700	45.060	0.100
663.800	53.599	0.100
663.900	48.160	0.100
664.000	53.076	0.100
664.100	46.340	0.100
664.200	58.757	0.100
664.300	57.878	0.100
664.400	54.124	0.100
664.500	49.408	0.100
664.600	49.722	0.100
664.700	56.098	0.100
664.800	52.119	0.100
664.900	44.250	0.100
665.000	55.225	0.100
665.100	59.015	0.100
665.200	48.648	0.100
665.300	46.017	0.100
665.400	46.861	0.100
665.500	53.131	0.100
665.600	60.494	0.100
665.700	59.980	0.100
665.800	49.387	0.100
665.900	54.472	0.100
666.000	64.451	0.100
666.100	51.530	0.100
666.200	54.714	0.100
666.300	55.947	0.100
666.400	43.991	0.100
666.500	57.615	0.100
666.600	57.563	0.100
666.700	53.950	0.100
666.800	55.039	0.100
666.900	48.397	0.100
667.000	52.974	0.100
667.100	60.144	0.100
667.200	66.618	0.100
667.300	60.402	0.100
667.400	52.603	0.100
667.500	47.471	0.100
667.600	50.047	0.100
667.700	57.606	0.100
667.800	53.596	0.100
667.900	57.605	0.100
668.000	49.916	0.100
668.100	59.235	0.100
668.200	53.199	0.100
668.300	52.682	0.100
668.400	63.346	0.100
668.500	54.100	0.100
668.600	51.216	0.100
668.700	54.398	0.100
668.800	54.869	0.100
668.900	51.439	0.100
669.000	53.667	0.100
669.100	57.133	0.100
669.200	59.141	0.100
669.300	53.399	0.100
669.400	50.439	0.100
669.500	52.618	0.100
669.600	60.206	0.100
669.700	59.557	0.100
669.800	44.836	0.100
669.900	47.668	0.100
670.000	54.057	0.100
670.100	51.836	0.100
670.200	52.290	0.100
670.300	53.704	0.100
670.400	51.311	0.100
670.500	53.035	0.100
670.600	56.569	0.100
670.700	51.947	0.100
670.800	51.614	0.100
670.900	51.004	0.100
671.000	51.118	0.100
671.100	57.664	0.100
671.200	51.041	0.100
671.300	62.595	0.100
671.400	59.586	0.100
671.500	56.558	0.100
671.600	50.766	0.100
671.700	51.103	0.100
671.800	53.003	0.100
671.900	49.272	0.100
672.000	48.236	0.100
672.100	45.533	0.100
672.200	57.402	0.100
672.300	54.112	0.100
672.400	47.109	0.100
672.500	49.115	0.100
672.600	49.826	0.100
672.700	46.287	0.100
672.800	58.077	0.100
672.900	59.436	0.100
673.000	52.159	0.100
673.100	47.578	0.100
673.200	47.776	0.100
673.300	48.065	0.100
673.400	54.733	0.100
673.500	48.625	0.100
673.600	59.206	0.100
673.700	52.673	0.100
673.800	52.506	0.100
673.900	51.396	0.100
674.000	51.842	0.100
674.100	54.820	0.100
674.200	50.179	0.100
674.300	59.511	0.100
674.400	53.080	0.100
674.500	49.512	0.100
674.600	51.474	0.100
674.700	60.119	0.100
674.800	49.384	0.100
674.900	52.598	0.100
675.000	42.907	0.100
675.100	40.212	0.100
675.200	49.387	0.100
675.300	58.499	0.100
675.400	47.933	0.100
675.500	50.142	0.100
675.600	54.355	0.100
675.700	55.442	0.100
675.800	46.661	0.100
675.900	48.057	0.100
676.000	52.468	0.100
676.100	52.038	0.100
676.200	45.961	0.100
676.300	54.419	0.100
676.400	55.574	0.100
676.500	41.644	0.100
676.600	64.259	0.100
676.700	46.333	0.100
676.800	51.767	0.100
676.900	49.435	0.100
677.000	45.767	0.100
677.100	53.909	0.100
677.200	47.447	0.100
677.300	53.704	0.100
677.400	55.954	0.100
677.500	49.852	0.100
677.600	50.526	0.100
677.700	52.186	0.100
677.800	60.597	0.100
677.900	59.406	0.100
678.000	44.769	0.100
678.100	50.094	0.100
678.200	52.380	0.100
678.300	46.977	0.100
678.400	50.789	0.100
678.500	49.257	0.100
678.600	45.854	0.100
678.700	60.453	0.100
678.800	51.078	0.100
678.900	49.657	0.100
679.000	40.079	0.100
679.100	42.120	0.100
679.200	63.952	0.100
679.300	58.057	0.100
679.400	47.962	0.100
679.500	53.788	0.100
679.600	56.153	0.100
679.700	45.232	0.100
679.800	50.055	0.100
679.900	43.652	0.100
680.000	48.350	0.100
680.100	55.629	0.100
680.200	49.905	0.100
680.300	50.416	0.100
680.400	54.753	0.100
680.500	58.160	0.100
680.600	52.005	0.100
680.700	53.581	0.100
680.800	42.669	0.100
680.900	42.563	0.100
681.000	45.066	0.100
681.100	57.040	0.100
681.200	58.609	0.100
681.300	44.022	0.100
681.400	47.815	0.100
681.500	53.203	0.100
681.600	42.525	0.100
681.700	50.994	0.100
681.800	53.634	0.100
681.900	49.278	0.100
682.000	52.255	0.100
682.100	44.429	0.100
682.200	39.230	0.100
682.300	47.143	0.100
682.400	45.682	0.100
682.500	46.263	0.100
682.600	53.143	0.100
682.700	55.681	0.100
682.800	54.210	0.100
682.900	46.538	0.100
683.000	49.770	0.100
683.100	50.494	0.100
683.200	52.875	0.100
683.300	49.653	0.100
683.400	58.478	0.100
683.500	55.059	0.100
683.600	48.464	0.100
683.700	42.585	0.100
683.800	41.813	0.100
683.900	52.095	0.100
684.000	56.868	0.100
684.100	48.713	0.100
684.200	42.555	0.100
684.300	44.724	0.100
684.400	48.146	0.100
684.500	45.640	0.100
684.600	45.642	0.100
684.700	48.744	0.100
684.800	54.171	0.100
684.900	53.833	0.100
685.000	53.176	0.100
685.100	49.613	0.100
685.200	62.480	0.100
685.300	45.919	0.100
685.400	48.016	0.100
685.500	49.313	0.100
685.600	58.656	0.100
685.700	47.340	0.100
685.800	46.922	0.100
685.900	47.059	0.100
686.000	48.111	0.100
686.100	53.062	0.100
686.200	48.744	0.100
686.300	53.000	0.100
686.400	53.161	0.100
686.500	49.194	0.100
686.600	46.951	0.100
686.700	47.014	0.100
686.800	66.688	0.100
686.900	50.496	0.100
687.000	44.246	0.100
687.100	42.134	0.100
687.200	45.556	0.100
687.300	46.208	0.100
687.400	49.717	0.100
687.500	42.252	0.100
687.600	46.337	0.100
687.700	52.830	0.100
687.800	52.440	0.100
687.900	46.413	0.100
688.000	48.814	0.100
688.100	56.431	0.100
688.200	56.281	0.100
688.300	52.431	0.100
688.400	54.123	0.100
688.500	40.334	0.100
688.600	41.020	0.100
688.700	48.519	0.100
688.800	49.262	0.100
688.900	47.748	0.100
689.000	46.767	0.100
689.100	49.568	0.100
689.200	53.025	0.100
689.300	47.650	0.100
689.400	52.085	0.100
689.500	48.640	0.100
689.600	43.185	0.100
689.700	46.002	0.100
689.800	52.196	0.100
689.900	40.573	0.100
690.000	41.504	0.100
690.100	44.887	0.100
690.200	57.995	0.100
690.300	48.024	0.100
690.400	50.380	0.100
690.500	53.003	0.100
690.600	40.177	0.100
690.700	41.339	0.100
690.800	39.166	0.100
690.900	42.793	0.100
691.000	40.804	0.100
691.100	42.242	0.100
691.200	29.134	0.100
691.300	24.098	0.100
691.400	30.008	0.100
691.500	27.709	0.100
691.600	24.653	0.100
691.700	23.245	0.100
691.800	22.094	0.100
691.900	21.041	0.100
692.000	23.998	0.100
692.100	22.939	0.100
692.200	18.955	0.100
692.300	12.743	0.100
692.400	18.610	0.100
692.500	5.799	0.100
692.600	1.543	0.100
692.700	6.687	0.100
692.800	4.167	0.100
692.900	10.300	0.100
693.000	15.305	0.100
693.100	14.823	0.100
693.200	5.859	0.100
693.300	12.117	0.100
693.400	11.484	0.100
693.500	4.971	0.100
693.600	5.740	0.100
693.700	6.039	0.100
693.800	3.539	0.100
693.900	7.834	0.100
694.000	1.557	0.100
694.100	8.794	0.100
694.200	8.074	0.100
694.300	5.183	0.100
694.400	0.105	0.100
694.500	11.640	0.100
694.600	6.889	0.100
694.700	6.352	0.100
694.800	-3.909	0.100
694.900	-5.821	0.100
695.000	11.072	0.100
695.100	6.345	0.100
695.200	-3.566	0.100
695.300	-2.125	0.100
695.400	-4.033	0.100
695.500	5.457	0.100
695.600	0.637	0.100
695.700	-10.823	0.100
695.800	2.190	0.100
695.900	-2.224	0.100
696.000	10.097	0.100
696.100	-0.715	0.100
696.200	0.963	0.100
696.300	-5.519	0.100
696.400	1.782	0.100
696.500	0.666	0.100
696.600	3.676	0.100
696.700	4.633	0.100
696.800	5.108	0.100
696.900	-9.488	0.100
697.000	-6.500	0.100
697.100	1.154	0.100
697.200	-3.647	0.100
697.300	2.690	0.100
697.400	5.998	0.100
697.500	-3.649	0.100
697.600	-10.435	0.100
697.700	-1.873	0.100
697.800	6.972	0.100
697.900	3.522	0.100
698.000	-0.342	0.100
698.100	8.146	0.100
698.200	-0.753	0.100
698.300	-4.396	0.100
698.400	-0.893	0.100
698.500	7.149	0.100
698.600	-4.852	0.100
698.700	-11.061	0.100
698.800	2.066	0.100
698.900	0.296	0.100
699.000	1.513	0.100
699.100	-5.455	0.100
699.200	-3.641	0.100
699.300	1.638	0.100
699.400	-4.127	0.100
699.500	-0.180	0.100
699.600	-1.038	0.100
699.700	0.229	0.100
699.800	-2.428	0.100
699.900	-12.853	0.100
700.000	-3.877	0.100
700.100	6.479	0.100
700.200	1.653	0.100
700.300	-2.895	0.100
700.400	-1.920	0.100
700.500	-2.433	0.100
700.600	-4.188	0.100
700.700	-0.448	0.100
700.800	0.536	0.100
700.900	-10.163	0.100
701.000	-13.332	0.100
701.100	-7.951	0.100
701.200	-2.447	0.100
701.300	-11.449	0.100
701.400	-5.416	0.100
701.500	-0.970	0.100
701.600	-6.270	0.100
701.700	-14.021	0.100
701.800	0.488	0.100
701.900	-7.513	0.100
702.000	-3.877	0.100
702.100	-4.010	0.100
702.200	-4.372	0.100
702.300	-11.987	0.100
702.400	-6.278	0.100
702.500	-5.195	0.100
702.600	-1.748	0.100
702.700	-11.550	0.100
702.800	-6.182	0.100
702.900	-19.267	0.100
703.000	-8.797	0.100
703.100	-16.713	0.100
703.200	-1.903	0.100
703.300	1.214	0.100
703.400	-2.665	0.100
703.500	-6.805	0.100
703.600	-5.113	0.100
703.700	3.688	0.100
703.800	-11.395	0.100
703.900	-13.082	0.100
704.000	-10.967	0.100
704.100	-14.462	0.100
704.200	-8.083	0.100
704.300	-9.110	0.100
704.400	-1.939	0.100
704.500	-3.994	0.100
704.600	-18.472	0.100
704.700	1.320	0.100
704.800	-8.918	0.100
704.900	-14.514	0.100
705.000	1.422	0.100
705.100	-2.931	0.100
705.200	-8.770	0.100
705.300	-19.697	0.100
705.400	-8.039	0.100
705.500	-15.221	0.100
705.600	-6.911	0.100
705.700	-15.688	0.100
705.800	-12.757	0.100
705.900	-4.748	0.100
706.000	-8.091	0.100
706.100	-3.601	0.100
706.200	-10.318	0.100
706.300	-16.803	0.100
706.400	-9.436	0.100
706.500	-12.475	0.100
706.600	-11.343	0.100
706.700	-16.024	0.100
706.800	-5.782	0.100
706.900	-4.865	0.100
707.000	-15.189	0.100
707.100	-13.402	0.100
707.200	-11.644	0.100
707.300	-14.906	0.100
707.400	-10.576	0.100
707.500	-10.665	0.100
707.600	-9.512	0.100
707.700	-9.294	0.100
707.800	-11.463	0.100
707.900	-20.913	0.100
708.000	-10.201	0.100
708.100	-11.685	0.100
708.200	-9.531	0.100
708.300	-13.955	0.100
708.400	-15.139	0.100
708.500	-19.500	0.100
708.600	-13.445	0.100
708.700	-19.379	0.100
708.800	-12.391	0.100
708.900	-13.090	0.100
709.000	-14.356	0.100
709.100	-17.261	0.100
709.200	-15.755	0.100
709.300	-12.844	0.100
709.400	-22.717	0.100
709.500	-12.150	0.100
709.600	-12.017	0.100
709.700	-10.675	0.100
709.800	-17.133	0.100
709.900	-16.144	0.100
710.000	-14.425	0.100
710.100	-16.031	0.100
710.200	-16.812	0.100
710.300	-17.368	0.100
710.400	-12.676	0.100
710.500	-7.265	0.100
710.600	-17.127	0.100
710.700	-17.364	0.100
710.800	-14.725	0.100
710.900	-10.340	0.100
711.000	-26.079	0.100
711.100	-22.013	0.100
711.200	-14.449	0.100
711.300	-14.787	0.100
711.400	-13.028	0.100
711.500	-25.485	0.100
711.600	-15.186	0.100
711.700	-18.624	0.100
711.800	-19.119	0.100
711.900	-20.133	0.100
712.000	-14.974	0.100
712.100	-12.784	0.100
712.200	-18.681	0.100
712.300	-23.175	0.100
712.400	-23.335	0.100
712.500	-12.115	0.100
712.600	-15.765	0.100
712.700	-18.943	0.100
712.800	-20.418	0.100
712.900	-21.628	0.100
713.000	-15.698	0.100
713.100	-20.145	0.100
713.200	-22.364	0.100
713.300	-20.160	0.100
713.400	-22.044	0.100
713.500	-16.938	0.100
713.600	-13.126	0.100
713.700	-16.272	0.100
713.800	-17.886	0.100
713.900	-19.981	0.100
714.000	-18.116	0.100
714.100	-20.368	0.100
714.200	-26.458	0.100
714.300	-20.304	0.100
714.400	-13.064	0.100
714.500	-17.387	0.100
714.600	-19.970	0.100
714.700	-18.777	0.100
714.800	-20.263	0.100
714.900	-18.183	0.100
715.000	-27.497	0.100
715.100	-23.096	0.100
715.200	-17.881	0.100
715.300	-19.212	0.100
715.400	-25.107	0.100
715.500	-25.829	0.100
715.600	-15.206	0.100
715.700	-23.527	0.100
715.800	-19.155	0.100
715.900	-17.357	0.100
716.000	-20.529	0.100
716.100	-17.955	0.100
716.200	-25.137	0.100
716.300	-16.367	0.100
716.400	-24.222	0.100
716.500	-20.156	0.100
716.600	-29.035	0.100
716.700	-22.703	0.100
716.800	-20.070	0.100
716.900	-23.219	0.100
717.000	-20.739	0.100
717.100	-27.939	0.100
717.200	-30.112	0.100
717.300	-13.421	0.100
717.400	-16.413	0.100
717.500	-19.123	0.100
717.600	-30.417	0.100
717.700	-26.809	0.100
717.800	-23.064	0.100
717.900	-18.547	0.100
718.000	-15.497	0.100
718.100	-28.241	0.100
718.200	-22.459	0.100
718.300	-29.602	0.100
718.400	-22.526	0.100
718.500	-24.640	0.100
718.600	-21.229	0.100
718.700	-8.188	0.100
718.800	-18.061	0.100
718.900	-26.035	0.100
719.000	-29.933	0.100
719.100	-25.999	0.100
719.200	-31.357	0.100
719.300	-30.543	0.100
719.400	-26.190	0.100
719.500	-18.772	0.100
719.600	-24.676	0.100
719.700	-31.847	0.100
719.800	-20.999	0.100
719.900	-26.329	0.100
720.000	-22.139	0.100
720.100	-26.856	0.100
720.200	-30.999	0.100
720.300	-26.947	0.100
720.400	-20.668	0.100
720.500	-25.691	0.100
720.600	-30.109	0.100
720.700	-25.047	0.100
720.800	-22.260	0.100
720.900	-28.984	0.100
721.000	-24.204	0.100
721.100	-21.034	0.100
721.200	-26.451	0.100
721.300	-30.082	0.100
721.400	-27.413	0.100
721.500	-27.176	0.100
721.600	-25.269	0.100
721.700	-21.287	0.100
721.800	-23.802	0.100
721.900	-21.093	0.100
722.000	-28.556	0.100
722.100	-24.702	0.100
722.200	-25.481	0.100
722.300	-25.550	0.100
722.400	-30.220	0.100
722.500	-18.896	0.100
722.600	-25.279	0.100
722.700	-28.015	0.100
722.800	-32.644	0.100
722.900	-22.004	0.100
723.000	-34.549	0.100
723.100	-25.017	0.100
723.200	-24.810	0.100
723.300	-29.847	0.100
723.400	-24.225	0.100
723.500	-34.446	0.100
723.600	-33.469	0.100
723.700	-33.404	0.100
723.800	-22.379	0.100
723.900	-25.278	0.100
724.000	-20.020	0.100
724.100	-29.383	0.100
724.200	-25.975	0.100
724.300	-29.210	0.100
724.400	-28.338	0.100
724.500	-30.419	0.100
724.600	-30.423	0.100
724.700	-26.776	0.100
724.800	-24.390	0.100
724.900	-28.540	0.100
725.000	-37.181	0.100
725.100	-29.775	0.100
725.200	-28.446	0.100
725.300	-23.891	0.100
725.400	-33.255	0.100
725.500	-27.443	0.100
725.600	-27.840	0.100
725.700	-33.534	0.100
725.800	-38.133	0.100
725.900	-34.998	0.100
726.000	-29.199	0.100
726.100	-28.992	0.100
726.200	-29.053	0.100
726.300	-30.647	0.100
726.400	-24.684	0.100
726.500	-27.617	0.100
726.600	-28.262	0.100
726.700	-33.161	0.100
726.800	-37.821	0.100
726.900	-28.453	0.100
727.000	-16.092	0.100
727.100	-31.138	0.100
727.200	-23.733	0.100
727.300	-35.228	0.100
727.400	-32.937	0.100
727.500	-25.269	0.100
727.600	-32.085	0.100
727.700	-23.984	0.100
727.800	-31.313	0.100
727.900	-33.963	0.100
728.000	-29.620	0.100
728.100	-37.894	0.100
728.200	-24.023	0.100
728.300	-37.221	0.100
728.400	-29.878	0.100
728.500	-29.162	0.100
728.600	-32.340	0.100
728.700	-32.417	0.100
728.800	-31.144	0.100
728.900	-33.240	0.100
729.000	-29.598	0.100
729.100	-32.259	0.100
729.200	-32.581	0.100
729.300	-40.184	0.100
729.400	-31.357	0.100
729.500	-26.087	0.100
729.600	-29.241	0.100
729.700	-30.715	0.100
729.800	-22.823	0.100
729.900	-35.592	0.100
730.000	-38.833	0.100
730.100	-28.715	0.100
730.200	-31.892	0.100
730.300	-27.631	0.100
730.400	-26.916	0.100
730.500	-46.457	0.100
730.600	-27.411	0.100
730.700	-32.945	0.100
730.800	-31.086	0.100
730.900	-20.792	0.100
731.000	-34.849	0.100
731.100	-30.167	0.100
731.200	-32.212	0.100
731.300	-35.634	0.100
731.400	-36.188	0.100
731.500	-35.815	0.100
731.600	-45.331	0.100
731.700	-27.956	0.100
731.800	-21.484	0.100
731.900	-26.773	0.100
732.000	-26.642	0.100
732.100	-26.092	0.100
732.200	-32.854	0.100
732.300	-38.550	0.100
732.400	-35.900	0.100
732.500	-31.222	0.100
732.600	-38.624	0.100
732.700	-41.726	0.100
732.800	-23.808	0.100
732.900	-34.867	0.100
733.000	-32.288	0.100
733.100	-32.827	0.100
733.200	-41.407	0.100
733.300	-31.944	0.100
733.400	-24.182	0.100
733.500	-34.257	0.100
733.600	-33.548	0.100
733.700	-33.999	0.100
733.800	-28.050	0.100
733.900	-30.632	0.100
734.000	-33.356	0.100
734.100	-27.521	0.100
734.200	-28.514	0.100
734.300	-30.019	0.100
734.400	-33.683	0.100
734.500	-37.760	0.100
734.600	-31.144	0.100
734.700	-36.494	0.100
734.800	-35.508	0.100
734.900	-38.131	0.100
735.000	-29.140	0.100
735.100	-34.357	0.100
735.200	-35.374	0.100
735.300	-38.128	0.100
735.400	-34.942	0.100
735.500	-38.112	0.100
735.600	-37.432	0.100
735.700	-35.339	0.100
735.800	-28.834	0.100
735.900	-32.015	0.100
736.000	-31.639	0.100
736.100	-29.351	0.100
736.200	-37.856	0.100
736.300	-35.986	0.100
736.400	-28.766	0.100
736.500	-31.784	0.100
736.600	-37.327	0.100
736.700	-29.514	0.100
736.800	-32.851	0.100
736.900	-35.624	0.100
737.000	-39.909	0.100
737.100	-23.061	0.100
737.200	-29.233	0.100
737.300	-32.640	0.100
737.400	-33.790	0.100
737.500	-32.782	0.100
737.600	-32.036	0.100
737.700	-32.460	0.100
737.800	-24.475	0.100
737.900	-37.328	0.100
738.000	-36.282	0.100
738.100	-35.449	0.100
738.200	-32.695	0.100
738.300	-26.758	0.100
738.400	-32.597	0.100
738.500	-32.351	0.100
738.600	-30.235	0.100
738.700	-34.474	0.100
738.800	-37.075	0.100
738.900	-39.000	0.100
739.000	-29.077	0.100
739.100	-36.918	0.100
739.200	-30.905	0.100
739.300	-28.608	0.100
739.400	-25.146	0.100
739.500	-26.012	0.100
739.600	-37.313	0.100
739.700	-39.180	0.100
739.800	-32.484	0.100
739.900	-27.016	0.100
740.000	-31.289	0.100
740.100	-36.626	0.100
740.200	-34.681	0.100
740.300	-34.289	0.100
740.400	-35.701	0.100
740.500	-27.928	0.100
740.600	-32.863	0.100
740.700	-33.413	0.100
740.800	-30.929	0.100
740.900	-36.980	0.100
741.000	-28.930	0.100
741.100	-31.497	0.100
741.200	-42.525	0.100
741.300	-31.923	0.100
741.400	-31.363	0.100
741.500	-35.293	0.100
741.600	-40.096	0.100
741.700	-32.891	0.100
741.800	-35.119	0.100
741.900	-36.774	0.100
742.000	-32.005	0.100
742.100	-29.889	0.100
742.200	-27.327	0.100
742.300	-37.710	0.100
742.400	-30.814	0.100
742.500	-33.535	0.100
742.600	-28.650	0.100
742.700	-26.919	0.100
742.800	-34.378	0.100
742.900	-37.961	0.100
743.000	-28.548	0.100
743.100	-38.270	0.100
743.200	-33.237	0.100
743.300	-33.007	0.100
743.400	-33.734	0.100
743.500	-39.292	0.100
743.600	-32.930	0.100
743.700	-40.325	0.100
743.800	-43.459	0.100
743.900	-31.077	0.100
744.000	-27.903	0.100
744.100	-26.017	0.100
744.200	-26.359	0.100
744.300	-26.334	0.100
744.400	-26.831	0.100
744.500	-32.163	0.100
744.600	-32.892	0.100
744.700	-39.133	0.100
744.800	-37.058	0.100
744.900	-31.512	0.100
745.000	-24.130	0.100
745.100	-38.727	0.100
745.200	-30.565	0.100
745.300	-28.879	0.100
745.400	-31.472	0.100
745.500	-33.411	0.100
745.600	-35.767	0.100
745.700	-25.310	0.100
745.800	-34.392	0.100
745.900	-39.072	0.100
746.000	-31.255	0.100
746.100	-26.675	0.100
746.200	-29.900	0.100
746.300	-32.108	0.100
746.400	-31.913	0.100
746.500	-44.586	0.100
746.600	-39.845	0.100
746.700	-29.472	0.100
746.800	-34.822	0.100
746.900	-29.933	0.100
747.000	-32.233	0.100
747.100	-39.794	0.100
747.200	-36.102	0.100
747.300	-31.332	0.100
747.400	-29.267	0.100
747.500	-29.849	0.100
747.600	-36.312	0.100
747.700	-28.589	0.100
747.800	-32.890	0.100
747.900	-38.031	0.100
748.000	-31.647	0.100
748.100	-31.859	0.100
748.200	-34.097	0.100
748.300	-38.762	0.100
748.400	-38.532	0.100
748.500	-34.459	0.100
748.600	-27.863	0.100
748.700	-27.896	0.100
748.800	-26.681	0.100
748.900	-23.244	0.100
749.000	-24.487	0.100
749.100	-24.926	0.100
749.200	-29.776	0.100
749.300	-30.161	0.100
749.400	-26.960	0.100
749.500	-27.091	0.100
749.600	-28.074	0.100
749.700	-24.136	0.100
749.800	-35.411	0.100
749.900	-32.386	0.100
750.000	-40.665	0.100
750.100	-39.841	0.100
750.200	-36.339	0.100
750.300	-35.912	0.100
750.400	-27.114	0.100
750.500	-25.391	0.100
750.600	-35.539	0.100
750.700	-28.644	0.100
750.800	-35.529	0.100
750.900	-34.709	0.100
751.000	-29.495	0.100
751.100	-24.818	0.100
751.200	-33.172	0.100
751.300	-22.668	0.100
751.400	-29.926	0.100
751.500	-25.255	0.100
751.600	-35.233	0.100
751.700	-26.946	0.100
751.800	-26.031	0.100
751.900	-22.082	0.100
752.000	-32.521	0.100
752.100	-37.032	0.100
752.200	-38.420	0.100
752.300	-29.960	0.100
752.400	-28.269	0.100
752.500	-25.155	0.100
752.600	-34.298	0.100
752.700	-28.473	0.100
752.800	-30.271	0.100
752.900	-24.072	0.100
753.000	-32.263	0.100
753.100	-27.834	0.100
753.200	-26.176	0.100
753.300	-26.847	0.100
753.400	-31.825	0.100
753.500	-25.633	0.100
753.600	-40.693	0.100
753.700	-31.887	0.100
753.800	-28.263	0.100
753.900	-31.738	0.100
754.000	-26.488	0.100
754.100	-31.477	0.100
754.200	-32.306	0.100
754.300	-31.658	0.100
754.400	-36.551	0.100
754.500	-23.216	0.100
754.600	-28.932	0.100
754.700	-32.641	0.100
754.800	-33.125	0.100
754.900	-34.355	0.100
755.000	-35.712	0.100
755.100	-31.315	0.100
755.200	-34.393	0.100
755.300	-30.909	0.100
755.400	-27.194	0.100
755.500	-35.372	0.100
755.600	-27.934	0.100
755.700	-27.591	0.100
755.800	-31.298	0.100
755.900	-38.857	0.100
756.000	-30.190	0.100
756.100	-27.771	0.100
756.200	-25.377	0.100
756.300	-25.666	0.100
756.400	-35.280	0.100
756.500	-31.913	0.100
756.600	-23.134	0.100
756.700	-20.803	0.100
756.800	-34.694	0.100
756.900	-36.317	0.100
757.000	-29.408	0.100
757.100	-33.515	0.100
757.200	-26.513	0.100
757.300	-33.053	0.100
757.400	-18.251	0.100
757.500	-27.731	0.100
757.600	-29.580	0.100
757.700	-22.924	0.100
757.800	-39.963	0.100
757.900	-22.038	0.100
758.000	-35.394	0.100
758.100	-28.541	0.100
758.200	-27.781	0.100
758.300	-27.239	0.100
758.400	-29.109	0.100
758.500	-25.238	0.100
758.600	-34.374	0.100
758.700	-21.130	0.100
758.800	-24.473	0.100
758.900	-34.308	0.100
759.000	-39.941	0.100
759.100	-37.444	0.100
759.200	-24.124	0.100
759.300	-26.513	0.100
759.400	-28.360	0.100
759.500	-30.558	0.100
759.600	-27.135	0.100
759.700	-26.654	0.100
759.800	-23.255	0.100
759.900	-29.828	0.100
760.000	-30.623	0.100
760.100	-28.955	0.100
760.200	-27.876	0.100
760.300	-24.865	0.100
760.400	-33.640	0.100
760.500	-17.375	0.100
760.600	-19.527	0.100
760.700	-23.972	0.100
760.800	-27.452	0.100
760.900	-27.732	0.100
761.000	-32.062	0.100
761.100	-26.845	0.100
761.200	-38.092	0.100
761.300	-27.813	0.100
761.400	-25.959	0.100
761.500	-26.459	0.100
761.600	-26.890	0.100
761.700	-25.198	0.100
761.800	-26.284	0.100
761.900	-27.892	0.100
762.000	-29.925	0.100
762.100	-31.440	0.100
762.200	-28.442	0.100
762.300	-17.648	0.100
762.400	-20.050	0.100
762.500	-38.536	0.100
762.600	-33.767	0.100
762.700	-26.305	0.100
762.800	-15.259	0.100
762.900	-23.862	0.100
763.000	-26.603	0.100
763.100	-19.654	0.100
763.200	-30.424	0.100
763.300	-31.841	0.100
763.400	-30.386	0.100
763.500	-34.415	0.100
763.600	-27.114	0.100
763.700	-28.981	0.100
763.800	-25.238	0.100
763.900	-31.826	0.100
764.000	-26.943	0.100
764.100	-20.238	0.100
764.200	-33.542	0.100
764.300	-25.607	0.100
764.400	-26.628	0.100
764.500	-33.335	0.100
764.600	-22.441	0.100
764.700	-23.230	0.100
764.800	-23.758	0.100
764.900	-27.114	0.100
765.000	-30.318	0.100
765.100	-26.465	0.100
765.200	-22.362	0.100
765.300	-31.407	0.100
765.400	-26.483	0.100
765.500	-35.885	0.100
765.600	-21.635	0.100
765.700	-22.694	0.100
765.800	-24.542	0.100
765.900	-28.332	0.100
766.000	-28.971	0.100
766.100	-29.172	0.100
766.200	-27.117	0.100
766.300	-28.100	0.100
766.400	-19.111	0.100
766.500	-24.805	0.100
766.600	-22.800	0.100
766.700	-18.740	0.100
766.800	-27.602	0.100
766.900	-21.679	0.100
767.000	-31.292	0.100
767.100	-36.752	0.100
767.200	-30.894	0.100
767.300	-16.900	0.100
767.400	-23.514	0.100
767.500	-18.575	0.100
767.600	-32.283	0.100
767.700	-19.494	0.100
767.800	-20.486	0.100
767.900	-26.852	0.100
768.000	-27.322	0.100
768.100	-29.972	0.100
768.200	-27.256	0.100
768.300	-29.211	0.100
768.400	-26.274	0.100
768.500	-26.038	0.100
768.600	-23.632	0.100
768.700	-23.658	0.100
768.800	-27.516	0.100
768.900	-35.044	0.100
769.000	-22.937	0.100
769.100	-30.095	0.100
769.200	-22.557	0.100
769.300	-17.517	0.100
769.400	-28.303	0.100
769.500	-27.712	0.100
769.600	-27.128	0.100
769.700	-31.471	0.100
769.800	-28.336	0.100
769.900	-21.136	0.100
770.000	-28.036	0.100
770.100	-25.346	0.100
770.200	-23.409	0.100
770.300	-31.993	0.100
770.400	-23.207	0.100
770.500	-31.556	0.100
770.600	-30.685	0.100
770.700	-19.492	0.100
770.800	-23.904	0.100
770.900	-26.462	0.100
771.000	-14.952	0.100
771.100	-20.422	0.100
771.200	-20.916	0.100
771.300	-35.655	0.100
771.400	-23.899	0.100
771.500	-20.589	0.100
771.600	-15.216	0.100
771.700	-17.562	0.100
771.800	-24.136	0.100
771.900	-27.395	0.100
772.000	-19.939	0.100
772.100	-31.035	0.100
772.200	-29.900	0.100
772.300	-16.725	0.100
772.400	-24.692	0.100
772.500	-27.219	0.100
772.600	-20.964	0.100
772.700	-25.845	0.100
772.800	-20.599	0.100
772.900	-19.041	0.100
773.000	-25.464	0.100
773.100	-29.402	0.100
773.200	-25.525	0.100
773.300	-23.593	0.100
773.400	-21.718	0.100
773.500	-22.344	0.100
773.600	-22.158	0.100
773.700	-29.282	0.100
773.800	-17.890	0.100
773.900	-31.232	0.100
774.000	-26.031	0.100
774.100	-23.197	0.100
774.200	-19.880	0.100
774.300	-20.092	0.100
774.400	-25.793	0.100
774.500	-24.681	0.100
774.600	-22.601	0.100
774.700	-16.711	0.100
774.800	-18.029	0.100
774.900	-23.057	0.100
775.000	-26.026	0.100
775.100	-27.986	0.100
775.200	-18.406	0.100
775.300	-21.737	0.100
775.400	-24.738	0.100
775.500	-18.655	0.100
775.600	-22.106	0.100
775.700	-21.392	0.100
775.800	-19.010	0.100
775.900	-16.581	0.100
776.000	-19.845	0.100
776.100	-20.353	0.100
776.200	-19.601	0.100
776.300	-23.510	0.100
776.400	-28.761	0.100
776.500	-35.438	0.100
776.600	-20.204	0.100
776.700	-23.721	0.100
776.800	-23.857	0.100
776.900	-18.183	0.100
777.000	-25.966	0.100
777.100	-33.395	0.100
777.200	-30.598	0.100
777.300	-30.158	0.100
777.400	-18.507	0.100
777.500	-16.783	0.100
777.600	-19.364	0.100
777.700	-26.117	0.100
777.800	-19.615	0.100
777.900	-22.053	0.100
778.000	-18.658	0.100
778.100	-18.532	0.100
778.200	-19.529	0.100
778.300	-23.901	0.100
778.400	-21.913	0.100
778.500	-21.082	0.100
778.600	-21.637	0.100
778.700	-27.316	0.100
778.800	-27.019	0.100
778.900	-16.446	0.100
779.000	-21.193	0.100
779.100	-21.065	0.100
779.200	-26.216	0.100
779.300	-21.425	0.100
779.400	-25.002	0.100
779.500	-11.490	0.100
779.600	-22.208	0.100
779.700	-22.613	0.100
779.800	-19.753	0.100
779.900	-23.725	0.100
780.000	-15.100	0.100
780.100	-22.843	0.100
780.200	-32.987	0.100
780.300	-26.541	0.100
780.400	-12.614	0.100
780.500	-22.667	0.100
780.600	-17.163	0.100
780.700	-23.235	0.100
780.800	-19.669	0.100
780.900	-17.315	0.100
781.000	-14.094	0.100
781.100	-11.542	0.100
781.200	-12.642	0.100
781.300	1.800	0.100
781.400	-1.373	0.100
781.500	4.897	0.100
781.600	13.437	0.100
781.700	5.731	0.100
781.800	2.379	0.100
781.900	9.054	0.100
782.000	10.929	0.100
782.100	14.106	0.100
782.200	27.344	0.100
782.300	20.052	0.100
782.400	25.368	0.100
782.500	22.486	0.100
782.600	18.969	0.100
782.700	24.015	0.100
782.800	25.659	0.100
782.900	29.778	0.100
783.000	33.071	0.100
783.100	26.099	0.100
783.200	22.046	0.100
783.300	32.956	0.100
783.400	23.678	0.100
783.500	30.082	0.100
783.600	21.564	0.100
783.700	24.734	0.100
783.800	22.422	0.100
783.900	30.939	0.100
784.000	22.391	0.100
784.100	33.794	0.100
784.200	25.734	0.100
784.300	31.609	0.100
784.400	23.666	0.100
784.500	26.795	0.100
784.600	19.847	0.100
784.700	28.234	0.100
784.800	19.115	0.100
784.900	19.756	0.100
785.000	22.909	0.100
785.100	22.985	0.100
785.200	26.572	0.100
785.300	29.513	0.100
785.400	25.861	0.100
785.500	24.394	0.100
785.600	23.574	0.100
785.700	19.468	0.100
785.800	16.331	0.100
785.900	17.909	0.100
786.000	24.720	0.100
786.100	25.670	0.100
786.200	18.713	0.100
786.300	15.869	0.100
786.400	11.134	0.100
786.500	21.870	0.100
786.600	18.668	0.100
786.700	20.564	0.100
786.800	22.643	0.100
786.900	13.481	0.100
787.000	13.568	0.100
787.100	18.217	0.100
787.200	16.131	0.100
787.300	25.099	0.100
787.400	11.740	0.100
787.500	13.401	0.100
787.600	23.737	0.100
787.700	17.960	0.100
787.800	12.849	0.100
787.900	19.905	0.100
788.000	18.673	0.100
788.100	11.463	0.100
788.200	28.839	0.100
788.300	18.964	0.100
788.400	23.329	0.100
788.500	18.142	0.100
788.600	18.724	0.100
788.700	21.325	0.100
788.800	12.826	0.100
788.900	13.594	0.100
789.000	26.701	0.100
789.100	15.498	0.100
789.200	28.278	0.100
789.300	23.773	0.100
789.400	14.902	0.100
789.500	22.885	0.100
789.600	27.031	0.100
789.700	21.940	0.100
789.800	18.423	0.100
789.900	24.476	0.100
790.000	26.558	0.100
790.100	12.957	0.100
790.200	14.327	0.100
790.300	13.737	0.100
790.400	21.275	0.100
790.500	25.986	0.100
790.600	22.396	0.100
790.700	16.551	0.100
790.800	12.851	0.100
790.900	26.818	0.100
791.000	13.375	0.100
791.100	21.700	0.100
791.200	18.161	0.100
791.300	16.685	0.100
791.400	23.535	0.100
791.500	19.161	0.100
791.600	32.029	0.100
791.700	29.106	0.100
791.800	18.286	0.100
791.900	13.751	0.100
792.000	20.910	0.100
792.100	28.474	0.100
792.200	24.600	0.100
792.300	18.749	0.100
792.400	22.200	0.100
792.500	20.262	0.100
792.600	28.267	0.100
792.700	22.039	0.100
792.800	23.022	0.100
792.900	16.760	0.100
793.000	20.575	0.100
793.100	25.585	0.100
793.200	18.387	0.100
793.300	28.267	0.100
793.400	25.452	0.100
793.500	21.074	0.100
793.600	25.227	0.100
793.700	29.098	0.100
793.800	21.162	0.100
793.900	19.527	0.100
794.000	21.062	0.100
794.100	20.320	0.100
794.200	29.303	0.100
794.300	27.771	0.100
794.400	21.077	0.100
794.500	28.914	0.100
794.600	30.792	0.100
794.700	19.979	0.100
794.800	25.589	0.100
794.900	28.419	0.100
795.000	26.143	0.100
795.100	29.967	0.100
795.200	19.313	0.100
795.300	27.627	0.100
795.400	29.030	0.100
795.500	24.604	0.100
795.600	24.298	0.100
795.700	27.664	0.100
795.800	26.818	0.100
795.900	29.973	0.100
796.000	28.502	0.100
796.100	23.940	0.100
796.200	19.501	0.100
796.300	25.424	0.100
796.400	27.593	0.100
796.500	29.845	0.100
796.600	24.672	0.100
796.700	28.988	0.100
796.800	19.390	0.100
796.900	19.630	0.100
797.000	17.994	0.100
797.100	22.511	0.100
797.200	26.680	0.100
797.300	34.639	0.100
797.400	29.493	0.100
797.500	26.040	0.100
797.600	36.848	0.100
797.700	24.478	0.100
797.800	28.459	0.100
797.900	30.886	0.100
798.000	28.713	0.100
798.100	31.941	0.100
798.200	30.684	0.100
798.300	37.417	0.100
798.400	28.650	0.100
798.500	26.793	0.100
798.600	29.478	0.100
798.700	31.418	0.100
798.800	31.017	0.100
798.900	23.871	0.100
799.000	38.048	0.100
799.100	29.865	0.100
799.200	37.046	0.100
799.300	20.264	0.100
799.400	25.113	0.100
799.500	38.569	0.100
799.600	32.356	0.100
799.700	26.515	0.100
799.800	34.502	0.100
799.900	28.635	0.100
800.000	24.946	0.100
