time /s	I /nA	E /V
0.100	-26.587	0.100
0.200	-36.665	0.100
0.300	-30.067	0.100
0.400	-31.670	0.100
0.500	-30.074	0.100
0.600	-19.279	0.100
0.700	-17.903	0.100
0.800	-33.359	0.100
0.900	-43.146	0.100
1.000	-30.897	0.100
1.100	-22.412	0.100
1.200	-21.632	0.100
1.300	-23.477	0.100
1.400	-29.087	0.100
1.500	-24.185	0.100
1.600	-25.983	0.100
1.700	-28.546	0.100
1.800	-23.347	0.100
1.900	-19.076	0.100
2.000	-28.109	0.100
2.100	-38.467	0.100
2.200	-33.387	0.100
2.300	-32.727	0.100
2.400	-33.775	0.100
2.500	-21.817	0.100
2.600	-17.680	0.100
2.700	-31.033	0.100
2.800	-24.847	0.100
2.900	-26.826	0.100
3.000	-25.381	0.100
3.100	-25.236	0.100
3.200	-24.690	0.100
3.300	-30.258	0.100
3.400	-24.752	0.100
3.500	-18.050	0.100
3.600	-18.976	0.100
3.700	-17.548	0.100
3.800	-22.506	0.100
3.900	-25.659	0.100
4.000	-33.035	0.100
4.100	-27.013	0.100
4.200	-27.566	0.100
4.300	-31.458	0.100
4.400	-23.030	0.100
4.500	-18.481	0.100
4.600	-21.257	0.100
4.700	-22.484	0.100
4.800	-25.913	0.100
4.900	-29.988	0.100
5.000	-21.021	0.100
5.100	-27.875	0.100
5.200	-28.044	0.100
5.300	-29.456	0.100
5.400	-22.908	0.100
5.500	-26.827	0.100
5.600	-21.638	0.100
5.700	-28.458	0.100
5.800	-33.761	0.100
5.900	-30.835	0.100
6.000	-29.515	0.100
6.100	-29.921	0.100
6.200	-19.648	0.100
6.300	-25.561	0.100
6.400	-27.208	0.100
6.500	-21.630	0.100
6.600	-32.349	0.100
6.700	-23.970	0.100
6.800	-24.352	0.100
6.900	-30.938	0.100
7.000	-25.774	0.100
7.100	-15.993	0.100
7.200	-26.688	0.100
7.300	-27.327	0.100
7.400	-27.759	0.100
7.500	-30.620	0.100
7.600	-26.470	0.100
7.700	-30.132	0.100
7.800	-28.755	0.100
7.900	-16.587	0.100
8.000	-27.147	0.100
8.100	-28.523	0.100
8.200	-23.745	0.100
8.300	-24.331	0.100
8.400	-23.159	0.100
8.500	-32.756	0.100
8.600	-22.134	0.100
8.700	-24.399	0.100
8.800	-24.357	0.100
8.900	-20.217	0.100
9.000	-34.849	0.100
9.100	-20.796	0.100
9.200	-20.846	0.100
9.300	-25.829	0.100
9.400	-30.389	0.100
9.500	-32.306	0.100
9.600	-25.238	0.100
9.700	-34.919	0.100
9.800	-23.302	0.100
9.900	-21.251	0.100
10.000	-21.932	0.100
10.100	-24.748	0.100
10.200	-23.586	0.100
10.300	-16.622	0.100
10.400	-26.712	0.100
10.500	-20.173	0.100
10.600	-35.140	0.100
10.700	-27.746	0.100
10.800	-28.315	0.100
10.900	-23.629	0.100
11.000	-19.511	0.100
11.100	-17.187	0.100
11.200	-22.705	0.100
11.300	-23.294	0.100
11.400	-25.103	0.100
11.500	-26.235	0.100
11.600	-25.747	0.100
11.700	-29.201	0.100
11.800	-29.463	0.100
11.900	-27.446	0.100
12.000	-18.650	0.100
12.100	-21.492	0.100
12.200	-30.058	0.100
12.300	-24.839	0.100
12.400	-24.891	0.100
12.500	-23.640	0.100
12.600	-24.180	0.100
12.700	-22.551	0.100
12.800	-17.752	0.100
12.900	-24.123	0.100
13.000	-26.847	0.100
13.100	-32.336	0.100
13.200	-24.953	0.100
13.300	-27.414	0.100
13.400	-22.849	0.100
13.500	-24.912	0.100
13.600	-28.428	0.100
13.700	-23.681	0.100
13.800	-24.975	0.100
13.900	-21.358	0.100
14.000	-25.265	0.100
14.100	-27.540	0.100
14.200	-25.845	0.100
14.300	-21.379	0.100
14.400	-19.522	0.100
14.500	-18.101	0.100
14.600	-24.497	0.100
14.700	-28.963	0.100
14.800	-29.473	0.100
14.900	-22.861	0.100
15.000	-31.219	0.100
15.100	-30.238	0.100
15.200	-16.652	0.100
15.300	-23.198	0.100
15.400	-24.594	0.100
15.500	-19.572	0.100
15.600	-28.181	0.100
15.700	-16.029	0.100
15.800	-21.905	0.100
15.900	-23.526	0.100
16.000	-21.050	0.100
16.100	-26.332	0.100
16.200	-23.033	0.100
16.300	-26.292	0.100
16.400	-22.733	0.100
16.500	-21.337	0.100
16.600	-26.582	0.100
16.700	-26.961	0.100
16.800	-38.098	0.100
16.900	-28.079	0.100
17.000	-21.474	0.100
17.100	-19.552	0.100
17.200	-21.132	0.100
17.300	-24.131	0.100
17.400	-30.014	0.100
17.500	-30.703	0.100
17.600	-23.738	0.100
17.700	-33.110	0.100
17.800	-23.922	0.100
17.900	-30.892	0.100
18.000	-25.926	0.100
18.100	-27.749	0.100
18.200	-22.579	0.100
18.300	-24.262	0.100
18.400	-25.120	0.100
18.500	-24.992	0.100
18.600	-18.311	0.100
18.700	-29.174	0.100
18.800	-19.559	0.100
18.900	-21.259	0.100
19.000	-26.487	0.100
19.100	-27.198	0.100
19.200	-26.423	0.100
19.300	-24.314	0.100
19.400	-21.036	0.100
19.500	-21.760	0.100
19.600	-17.076	0.100
19.700	-17.170	0.100
19.800	-25.825	0.100
19.900	-27.931	0.100
20.000	-30.801	0.100
20.100	-30.885	0.100
20.200	-25.865	0.100
20.300	-14.330	0.100
20.400	-25.711	0.100
20.500	-32.176	0.100
20.600	-26.070	0.100
20.700	-25.297	0.100
20.800	-22.611	0.100
20.900	-19.817	0.100
21.000	-19.752	0.100
21.100	-36.817	0.100
21.200	-23.691	0.100
21.300	-24.203	0.100
21.400	-22.465	0.100
21.500	-20.891	0.100
21.600	-24.279	0.100
21.700	-20.284	0.100
21.800	-22.388	0.100
21.900	-8.486	0.100
22.000	-23.082	0.100
22.100	-35.742	0.100
22.200	-21.693	0.100
22.300	-23.120	0.100
22.400	-22.143	0.100
22.500	-24.204	0.100
22.600	-22.736	0.100
22.700	-29.551	0.100
22.800	-34.656	0.100
22.900	-27.735	0.100
23.000	-15.498	0.100
23.100	-24.816	0.100
23.200	-28.409	0.100
23.300	-23.939	0.100
23.400	-17.673	0.100
23.500	-18.002	0.100
23.600	-19.548	0.100
23.700	-18.022	0.100
23.800	-24.675	0.100
23.900	-30.592	0.100
24.000	-19.764	0.100
24.100	-27.358	0.100
24.200	-26.275	0.100
24.300	-29.775	0.100
24.400	-27.157	0.100
24.500	-28.688	0.100
24.600	-24.572	0.100
24.700	-33.399	0.100
24.800	-24.469	0.100
24.900	-27.653	0.100
25.000	-16.702	0.100
25.100	-24.641	0.100
25.200	-25.267	0.100
25.300	-18.407	0.100
25.400	-27.158	0.100
25.500	-30.082	0.100
25.600	-27.604	0.100
25.700	-22.513	0.100
25.800	-18.205	0.100
25.900	-19.320	0.100
26.000	-31.865	0.100
26.100	-34.053	0.100
26.200	-23.917	0.100
26.300	-26.000	0.100
26.400	-23.199	0.100
26.500	-20.739	0.100
26.600	-14.677	0.100
26.700	-26.066	0.100
26.800	-27.262	0.100
26.900	-25.047	0.100
27.000	-32.122	0.100
27.100	-18.854	0.100
27.200	-31.187	0.100
27.300	-22.970	0.100
27.400	-19.708	0.100
27.500	-30.744	0.100
27.600	-25.644	0.100
27.700	-22.452	0.100
27.800	-28.178	0.100
27.900	-24.191	0.100
28.000	-19.750	0.100
28.100	-29.393	0.100
28.200	-23.213	0.100
28.300	-21.016	0.100
28.400	-27.466	0.100
28.500	-15.065	0.100
28.600	-24.555	0.100
28.700	-19.264	0.100
28.800	-27.907	0.100
28.900	-25.450	0.100
29.000	-24.951	0.100
29.100	-26.801	0.100
29.200	-17.099	0.100
29.300	-26.328	0.100
29.400	-19.582	0.100
29.500	-30.825	0.100
29.600	-24.028	0.100
29.700	-34.988	0.100
29.800	-37.171	0.100
29.900	-21.846	0.100
30.000	-26.076	0.100
30.100	-23.260	0.100
30.200	-14.054	0.100
30.300	-31.110	0.100
30.400	-22.345	0.100
30.500	-15.892	0.100
30.600	-10.043	0.100
30.700	-8.542	0.100
30.800	-8.663	0.100
30.900	-12.602	0.100
31.000	-6.022	0.100
31.100	-13.034	0.100
31.200	-9.590	0.100
31.300	-3.530	0.100
31.400	-15.212	0.100
31.500	-11.605	0.100
31.600	1.667	0.100
31.700	-1.299	0.100
31.800	-1.918	0.100
31.900	1.526	0.100
32.000	-10.069	0.100
32.100	-4.594	0.100
32.200	-3.717	0.100
32.300	-5.935	0.100
32.400	-6.849	0.100
32.500	-8.981	0.100
32.600	6.720	0.100
32.700	3.208	0.100
32.800	2.481	0.100
32.900	-5.818	0.100
33.000	7.438	0.100
33.100	-2.432	0.100
33.200	-3.481	0.100
33.300	0.955	0.100
33.400	-0.301	0.100
33.500	5.487	0.100
33.600	-1.298	0.100
33.700	-3.007	0.100
33.800	2.768	0.100
33.900	2.434	0.100
34.000	-5.074	0.100
34.100	-11.228	0.100
34.200	2.913	0.100
34.300	8.863	0.100
34.400	3.569	0.100
34.500	11.202	0.100
34.600	-3.117	0.100
34.700	4.300	0.100
34.800	2.890	0.100
34.900	2.766	0.100
35.000	1.589	0.100
35.100	4.635	0.100
35.200	-1.039	0.100
35.300	5.330	0.100
35.400	-4.810	0.100
35.500	15.037	0.100
35.600	2.242	0.100
35.700	-4.629	0.100
35.800	1.027	0.100
35.900	4.353	0.100
36.000	-2.538	0.100
36.100	3.713	0.100
36.200	9.709	0.100
36.300	4.745	0.100
36.400	10.117	0.100
36.500	-0.216	0.100
36.600	-3.007	0.100
36.700	-4.180	0.100
36.800	5.889	0.100
36.900	3.234	0.100
37.000	15.816	0.100
37.100	9.124	0.100
37.200	3.025	0.100
37.300	-6.017	0.100
37.400	11.457	0.100
37.500	2.114	0.100
37.600	9.015	0.100
37.700	4.610	0.100
37.800	6.339	0.100
37.900	6.918	0.100
38.000	3.149	0.100
38.100	3.264	0.100
38.200	15.196	0.100
38.300	15.145	0.100
38.400	7.681	0.100
38.500	9.175	0.100
38.600	4.951	0.100
38.700	4.212	0.100
38.800	11.767	0.100
38.900	14.454	0.100
39.000	13.236	0.100
39.100	6.604	0.100
39.200	4.606	0.100
39.300	13.984	0.100
39.400	14.902	0.100
39.500	5.649	0.100
39.600	4.053	0.100
39.700	14.543	0.100
39.800	14.803	0.100
39.900	12.779	0.100
40.000	7.194	0.100
40.100	15.696	0.100
40.200	15.826	0.100
40.300	15.461	0.100
40.400	5.673	0.100
40.500	0.251	0.100
40.600	7.703	0.100
40.700	13.047	0.100
40.800	13.496	0.100
40.900	13.101	0.100
41.000	22.747	0.100
41.100	21.829	0.100
41.200	11.316	0.100
41.300	9.298	0.100
41.400	12.005	0.100
41.500	19.531	0.100
41.600	14.117	0.100
41.700	23.515	0.100
41.800	14.039	0.100
41.900	28.849	0.100
42.000	24.086	0.100
42.100	27.782	0.100
42.200	10.882	0.100
42.300	12.617	0.100
42.400	11.681	0.100
42.500	20.591	0.100
42.600	27.807	0.100
42.700	20.142	0.100
42.800	21.240	0.100
42.900	22.410	0.100
43.000	24.166	0.100
43.100	18.473	0.100
43.200	19.777	0.100
43.300	28.209	0.100
43.400	33.052	0.100
43.500	32.944	0.100
43.600	29.188	0.100
43.700	25.096	0.100
43.800	25.309	0.100
43.900	22.305	0.100
44.000	34.191	0.100
44.100	27.443	0.100
44.200	21.701	0.100
44.300	24.519	0.100
44.400	22.923	0.100
44.500	24.137	0.100
44.600	23.203	0.100
44.700	30.794	0.100
44.800	20.992	0.100
44.900	18.848	0.100
45.000	32.795	0.100
45.100	31.001	0.100
45.200	38.706	0.100
45.300	26.810	0.100
45.400	36.662	0.100
45.500	36.182	0.100
45.600	36.071	0.100
45.700	34.859	0.100
45.800	37.205	0.100
45.900	28.500	0.100
46.000	22.451	0.100
46.100	24.228	0.100
46.200	32.459	0.100
46.300	33.716	0.100
46.400	30.653	0.100
46.500	28.155	0.100
46.600	29.761	0.100
46.700	40.408	0.100
46.800	24.040	0.100
46.900	29.345	0.100
47.000	36.407	0.100
47.100	39.633	0.100
47.200	28.981	0.100
47.300	29.760	0.100
47.400	39.773	0.100
47.500	37.502	0.100
47.600	42.678	0.100
47.700	32.905	0.100
47.800	25.840	0.100
47.900	35.550	0.100
48.000	33.098	0.100
48.100	31.377	0.100
48.200	41.770	0.100
48.300	35.181	0.100
48.400	33.217	0.100
48.500	27.130	0.100
48.600	36.310	0.100
48.700	27.982	0.100
48.800	40.031	0.100
48.900	39.481	0.100
49.000	35.706	0.100
49.100	38.557	0.100
49.200	34.487	0.100
49.300	34.391	0.100
49.400	29.865	0.100
49.500	38.090	0.100
49.600	44.493	0.100
49.700	36.911	0.100
49.800	31.037	0.100
49.900	34.436	0.100
50.000	35.078	0.100
50.100	42.425	0.100
50.200	41.540	0.100
50.300	41.195	0.100
50.400	33.679	0.100
50.500	42.243	0.100
50.600	35.843	0.100
50.700	35.263	0.100
50.800	35.708	0.100
50.900	41.520	0.100
51.000	37.305	0.100
51.100	37.440	0.100
51.200	44.945	0.100
51.300	36.918	0.100
51.400	41.451	0.100
51.500	31.660	0.100
51.600	32.057	0.100
51.700	33.542	0.100
51.800	29.356	0.100
51.900	30.879	0.100
52.000	44.059	0.100
52.100	29.643	0.100
52.200	35.634	0.100
52.300	30.768	0.100
52.400	37.969	0.100
52.500	35.787	0.100
52.600	38.715	0.100
52.700	38.150	0.100
52.800	43.694	0.100
52.900	35.457	0.100
53.000	35.644	0.100
53.100	41.262	0.100
53.200	38.363	0.100
53.300	38.810	0.100
53.400	36.969	0.100
53.500	33.861	0.100
53.600	29.487	0.100
53.700	38.496	0.100
53.800	39.506	0.100
53.900	45.340	0.100
54.000	42.207	0.100
54.100	37.832	0.100
54.200	46.748	0.100
54.300	36.263	0.100
54.400	38.519	0.100
54.500	36.914	0.100
54.600	32.997	0.100
54.700	37.900	0.100
54.800	34.572	0.100
54.900	44.072	0.100
55.000	36.540	0.100
55.100	41.031	0.100
55.200	44.443	0.100
55.300	39.678	0.100
55.400	32.290	0.100
55.500	32.885	0.100
55.600	37.440	0.100
55.700	37.392	0.100
55.800	38.366	0.100
55.900	38.863	0.100
56.000	34.798	0.100
56.100	29.702	0.100
56.200	44.658	0.100
56.300	41.595	0.100
56.400	32.352	0.100
56.500	48.245	0.100
56.600	35.763	0.100
56.700	28.963	0.100
56.800	44.417	0.100
56.900	35.162	0.100
57.000	43.259	0.100
57.100	40.913	0.100
57.200	32.035	0.100
57.300	34.325	0.100
57.400	39.752	0.100
57.500	35.870	0.100
57.600	31.226	0.100
57.700	45.516	0.100
57.800	41.789	0.100
57.900	43.291	0.100
58.000	44.732	0.100
58.100	40.281	0.100
58.200	40.270	0.100
58.300	40.992	0.100
58.400	49.826	0.100
58.500	35.636	0.100
58.600	41.415	0.100
58.700	38.105	0.100
58.800	42.349	0.100
58.900	30.004	0.100
59.000	39.026	0.100
59.100	36.364	0.100
59.200	37.075	0.100
59.300	32.455	0.100
59.400	37.345	0.100
59.500	42.972	0.100
59.600	54.708	0.100
59.700	44.485	0.100
59.800	44.021	0.100
59.900	37.959	0.100
60.000	53.218	0.100
60.100	51.259	0.100
60.200	44.132	0.100
60.300	47.552	0.100
60.400	44.426	0.100
60.500	48.668	0.100
60.600	47.638	0.100
60.700	44.774	0.100
60.800	44.509	0.100
60.900	35.867	0.100
61.000	41.931	0.100
61.100	37.795	0.100
61.200	36.385	0.100
61.300	34.929	0.100
61.400	46.987	0.100
61.500	39.525	0.100
61.600	46.711	0.100
61.700	40.604	0.100
61.800	50.202	0.100
61.900	38.896	0.100
62.000	39.926	0.100
62.100	50.439	0.100
62.200	45.699	0.100
62.300	41.320	0.100
62.400	43.236	0.100
62.500	49.434	0.100
62.600	46.126	0.100
62.700	45.011	0.100
62.800	43.236	0.100
62.900	39.766	0.100
63.000	48.975	0.100
63.100	39.698	0.100
63.200	39.872	0.100
63.300	36.093	0.100
63.400	48.197	0.100
63.500	43.786	0.100
63.600	45.358	0.100
63.700	45.688	0.100
63.800	34.307	0.100
63.900	32.475	0.100
64.000	37.959	0.100
64.100	49.432	0.100
64.200	47.810	0.100
64.300	47.592	0.100
64.400	53.793	0.100
64.500	43.088	0.100
64.600	52.780	0.100
64.700	36.631	0.100
64.800	46.325	0.100
64.900	48.260	0.100
65.000	48.750	0.100
65.100	52.057	0.100
65.200	41.580	0.100
65.300	39.897	0.100
65.400	38.309	0.100
65.500	32.408	0.100
65.600	52.891	0.100
65.700	46.475	0.100
65.800	49.995	0.100
65.900	51.017	0.100
66.000	49.298	0.100
66.100	50.310	0.100
66.200	46.938	0.100
66.300	46.718	0.100
66.400	40.989	0.100
66.500	43.531	0.100
66.600	43.266	0.100
66.700	55.306	0.100
66.800	49.640	0.100
66.900	46.621	0.100
67.000	37.373	0.100
67.100	46.196	0.100
67.200	41.351	0.100
67.300	36.011	0.100
67.400	44.723	0.100
67.500	51.079	0.100
67.600	38.182	0.100
67.700	49.207	0.100
67.800	51.288	0.100
67.900	44.825	0.100
68.000	46.362	0.100
68.100	42.766	0.100
68.200	36.846	0.100
68.300	42.646	0.100
68.400	40.259	0.100
68.500	43.888	0.100
68.600	39.479	0.100
68.700	55.364	0.100
68.800	53.401	0.100
68.900	53.713	0.100
69.000	38.087	0.100
69.100	51.227	0.100
69.200	47.526	0.100
69.300	34.015	0.100
69.400	39.392	0.100
69.500	44.391	0.100
69.600	39.995	0.100
69.700	41.893	0.100
69.800	53.855	0.100
69.900	55.279	0.100
70.000	53.949	0.100
70.100	49.708	0.100
70.200	39.895	0.100
70.300	48.467	0.100
70.400	40.092	0.100
70.500	44.119	0.100
70.600	54.918	0.100
70.700	50.290	0.100
70.800	41.048	0.100
70.900	44.528	0.100
71.000	47.442	0.100
71.100	45.387	0.100
71.200	51.927	0.100
71.300	47.494	0.100
71.400	41.634	0.100
71.500	47.104	0.100
71.600	55.015	0.100
71.700	43.149	0.100
71.800	45.521	0.100
71.900	43.072	0.100
72.000	43.857	0.100
72.100	57.282	0.100
72.200	46.106	0.100
72.300	49.070	0.100
72.400	54.514	0.100
72.500	47.857	0.100
72.600	48.236	0.100
72.700	49.134	0.100
72.800	50.439	0.100
72.900	44.818	0.100
73.000	50.213	0.100
73.100	40.767	0.100
73.200	47.664	0.100
73.300	51.556	0.100
73.400	50.812	0.100
73.500	51.809	0.100
73.600	44.762	0.100
73.700	42.960	0.100
73.800	46.251	0.100
73.900	46.439	0.100
74.000	53.390	0.100
74.100	41.671	0.100
74.200	39.477	0.100
74.300	47.311	0.100
74.400	36.791	0.100
74.500	47.800	0.100
74.600	42.327	0.100
74.700	43.188	0.100
74.800	53.283	0.100
74.900	44.710	0.100
75.000	47.295	0.100
75.100	47.295	0.100
75.200	51.040	0.100
75.300	51.278	0.100
75.400	40.265	0.100
75.500	50.350	0.100
75.600	50.335	0.100
75.700	61.757	0.100
75.800	43.744	0.100
75.900	29.397	0.100
76.000	35.877	0.100
76.100	54.280	0.100
76.200	58.654	0.100
76.300	47.498	0.100
76.400	45.282	0.100
76.500	47.461	0.100
76.600	41.934	0.100
76.700	56.004	0.100
76.800	46.489	0.100
76.900	46.485	0.100
77.000	38.185	0.100
77.100	46.051	0.100
77.200	45.484	0.100
77.300	45.995	0.100
77.400	50.874	0.100
77.500	49.693	0.100
77.600	51.830	0.100
77.700	48.302	0.100
77.800	52.669	0.100
77.900	42.569	0.100
78.000	45.049	0.100
78.100	46.612	0.100
78.200	52.866	0.100
78.300	47.852	0.100
78.400	42.216	0.100
78.500	49.749	0.100
78.600	52.026	0.100
78.700	36.949	0.100
78.800	47.325	0.100
78.900	41.571	0.100
79.000	42.324	0.100
79.100	44.514	0.100
79.200	53.385	0.100
79.300	57.320	0.100
79.400	48.876	0.100
79.500	48.409	0.100
79.600	49.133	0.100
79.700	37.616	0.100
79.800	38.671	0.100
79.900	45.755	0.100
80.000	43.075	0.100
80.100	55.487	0.100
80.200	42.428	0.100
80.300	44.280	0.100
80.400	47.573	0.100
80.500	46.719	0.100
80.600	44.502	0.100
80.700	44.510	0.100
80.800	50.038	0.100
80.900	52.286	0.100
81.000	48.023	0.100
81.100	56.370	0.100
81.200	51.881	0.100
81.300	49.534	0.100
81.400	44.783	0.100
81.500	40.156	0.100
81.600	52.287	0.100
81.700	42.972	0.100
81.800	53.286	0.100
81.900	52.980	0.100
82.000	46.305	0.100
82.100	49.089	0.100
82.200	37.155	0.100
82.300	42.425	0.100
82.400	45.855	0.100
82.500	46.583	0.100
82.600	53.056	0.100
82.700	47.333	0.100
82.800	40.754	0.100
82.900	42.016	0.100
83.000	48.741	0.100
83.100	64.336	0.100
83.200	46.936	0.100
83.300	42.938	0.100
83.400	46.626	0.100
83.500	44.657	0.100
83.600	46.609	0.100
83.700	45.153	0.100
83.800	48.711	0.100
83.900	56.678	0.100
84.000	51.142	0.100
84.100	36.772	0.100
84.200	53.133	0.100
84.300	50.992	0.100
84.400	50.968	0.100
84.500	49.102	0.100
84.600	43.976	0.100
84.700	48.165	0.100
84.800	45.722	0.100
84.900	45.250	0.100
85.000	47.546	0.100
85.100	46.271	0.100
85.200	41.381	0.100
85.300	51.203	0.100
85.400	55.410	0.100
85.500	42.087	0.100
85.600	42.191	0.100
85.700	47.339	0.100
85.800	40.321	0.100
85.900	54.337	0.100
86.000	34.655	0.100
86.100	61.302	0.100
86.200	48.326	0.100
86.300	43.202	0.100
86.400	45.280	0.100
86.500	47.734	0.100
86.600	44.832	0.100
86.700	41.843	0.100
86.800	47.329	0.100
86.900	60.744	0.100
87.000	47.283	0.100
87.100	46.149	0.100
87.200	48.548	0.100
87.300	50.070	0.100
87.400	45.112	0.100
87.500	54.349	0.100
87.600	52.612	0.100
87.700	49.284	0.100
87.800	43.811	0.100
87.900	52.809	0.100
88.000	54.337	0.100
88.100	48.603	0.100
88.200	49.310	0.100
88.300	49.896	0.100
88.400	48.162	0.100
88.500	45.647	0.100
88.600	38.044	0.100
88.700	50.811	0.100
88.800	50.711	0.100
88.900	44.042	0.100
89.000	43.952	0.100
89.100	47.392	0.100
89.200	50.741	0.100
89.300	44.071	0.100
89.400	50.774	0.100
89.500	52.196	0.100
89.600	50.167	0.100
89.700	48.334	0.100
89.800	55.001	0.100
89.900	47.976	0.100
90.000	44.847	0.100
90.100	48.245	0.100
90.200	43.291	0.100
90.300	43.954	0.100
90.400	44.221	0.100
90.500	38.814	0.100
90.600	37.559	0.100
90.700	39.423	0.100
90.800	42.954	0.100
90.900	45.505	0.100
91.000	27.542	0.100
91.100	30.350	0.100
91.200	24.513	0.100
91.300	29.073	0.100
91.400	23.517	0.100
91.500	27.067	0.100
91.600	21.123	0.100
91.700	30.844	0.100
91.800	24.053	0.100
91.900	12.401	0.100
92.000	21.254	0.100
92.100	28.487	0.100
92.200	26.085	0.100
92.300	15.867	0.100
92.400	11.555	0.100
92.500	7.151	0.100
92.600	10.636	0.100
92.700	-1.292	0.100
92.800	-0.842	0.100
92.900	14.216	0.100
93.000	7.627	0.100
93.100	9.490	0.100
93.200	11.885	0.100
93.300	0.922	0.100
93.400	-4.925	0.100
93.500	4.138	0.100
93.600	-2.132	0.100
93.700	2.139	0.100
93.800	-3.495	0.100
93.900	-2.089	0.100
94.000	8.301	0.100
94.100	3.402	0.100
94.200	12.143	0.100
94.300	4.052	0.100
94.400	7.748	0.100
94.500	-0.274	0.100
94.600	1.715	0.100
94.700	-6.147	0.100
94.800	-5.060	0.100
94.900	-1.217	0.100
95.000	-0.199	0.100
95.100	-0.482	0.100
95.200	3.182	0.100
95.300	-1.374	0.100
95.400	8.100	0.100
95.500	2.377	0.100
95.600	4.135	0.100
95.700	2.607	0.100
95.800	-12.333	0.100
95.900	-10.134	0.100
96.000	8.824	0.100
96.100	5.295	0.100
96.200	-4.954	0.100
96.300	-3.164	0.100
96.400	10.211	0.100
96.500	8.702	0.100
96.600	4.105	0.100
96.700	2.653	0.100
96.800	-9.654	0.100
96.900	-11.028	0.100
97.000	-0.364	0.100
97.100	4.796	0.100
97.200	-1.206	0.100
97.300	-1.953	0.100
97.400	3.739	0.100
97.500	-0.532	0.100
97.600	-1.487	0.100
97.700	-2.293	0.100
97.800	-0.421	0.100
97.900	-0.233	0.100
98.000	-6.599	0.100
98.100	-3.369	0.100
98.200	-8.820	0.100
98.300	-1.785	0.100
98.400	-7.534	0.100
98.500	0.745	0.100
98.600	2.458	0.100
98.700	2.510	0.100
98.800	0.697	0.100
98.900	10.500	0.100
99.000	-5.110	0.100
99.100	0.283	0.100
99.200	-13.216	0.100
99.300	-6.487	0.100
99.400	-2.330	0.100
99.500	0.913	0.100
99.600	-1.619	0.100
99.700	-4.892	0.100
99.800	-1.446	0.100
99.900	5.317	0.100
100.000	-6.351	0.100
100.100	-6.399	0.100
100.200	-12.306	0.100
100.300	-5.666	0.100
100.400	-8.385	0.100
100.500	-8.109	0.100
100.600	-0.972	0.100
100.700	-1.427	0.100
100.800	-7.345	0.100
100.900	-5.170	0.100
101.000	-7.879	0.100
101.100	-5.737	0.100
101.200	-12.222	0.100
101.300	-5.289	0.100
101.400	-2.392	0.100
101.500	2.035	0.100
101.600	-6.943	0.100
101.700	-5.615	0.100
101.800	-7.602	0.100
101.900	-13.456	0.100
102.000	-5.566	0.100
102.100	-7.963	0.100
102.200	-5.478	0.100
102.300	1.894	0.100
102.400	-7.357	0.100
102.500	-4.354	0.100
102.600	0.675	0.100
102.700	2.996	0.100
102.800	-10.528	0.100
102.900	-11.485	0.100
103.000	-13.337	0.100
103.100	-11.124	0.100
103.200	-7.673	0.100
103.300	-0.785	0.100
103.400	-8.746	0.100
103.500	-11.819	0.100
103.600	-12.777	0.100
103.700	-1.371	0.100
103.800	-4.494	0.100
103.900	-12.098	0.100
104.000	-15.080	0.100
104.100	-8.057	0.100
104.200	-2.980	0.100
104.300	-7.091	0.100
104.400	-12.775	0.100
104.500	-6.209	0.100
104.600	-5.463	0.100
104.700	-2.221	0.100
104.800	-9.038	0.100
104.900	-10.846	0.100
105.000	-7.118	0.100
105.100	3.200	0.100
105.200	-14.220	0.100
105.300	-4.056	0.100
105.400	-14.727	0.100
105.500	-8.912	0.100
105.600	-8.114	0.100
105.700	-10.544	0.100
105.800	-17.929	0.100
105.900	-5.569	0.100
106.000	-6.659	0.100
106.100	-11.958	0.100
106.200	-10.210	0.100
106.300	-10.121	0.100
106.400	-8.127	0.100
106.500	-6.407	0.100
106.600	-14.137	0.100
106.700	-9.674	0.100
106.800	-11.222	0.100
106.900	-12.644	0.100
107.000	-17.640	0.100
107.100	-10.392	0.100
107.200	-7.570	0.100
107.300	-8.218	0.100
107.400	-15.783	0.100
107.500	-11.045	0.100
107.600	-22.008	0.100
107.700	-13.655	0.100
107.800	-3.639	0.100
107.900	-14.843	0.100
108.000	-1.780	0.100
108.100	-15.469	0.100
108.200	-20.213	0.100
108.300	-18.370	0.100
108.400	-13.201	0.100
108.500	-18.260	0.100
108.600	-20.051	0.100
108.700	-12.386	0.100
108.800	-12.816	0.100
108.900	-9.011	0.100
109.000	-18.901	0.100
109.100	-6.265	0.100
109.200	-12.635	0.100
109.300	-19.006	0.100
109.400	-14.194	0.100
109.500	-9.145	0.100
109.600	-13.206	0.100
109.700	-11.652	0.100
109.800	-10.561	0.100
109.900	-19.464	0.100
110.000	-21.914	0.100
110.100	-16.799	0.100
110.200	-15.866	0.100
110.300	-4.119	0.100
110.400	-9.268	0.100
110.500	-10.764	0.100
110.600	-6.703	0.100
110.700	-16.495	0.100
110.800	-20.293	0.100
110.900	-9.222	0.100
111.000	-12.465	0.100
111.100	-8.375	0.100
111.200	-18.805	0.100
111.300	-20.878	0.100
111.400	-13.469	0.100
111.500	-27.124	0.100
111.600	-15.477	0.100
111.700	-9.794	0.100
111.800	-17.813	0.100
111.900	-17.678	0.100
112.000	-8.423	0.100
112.100	-9.166	0.100
112.200	-18.645	0.100
112.300	-20.044	0.100
112.400	-17.191	0.100
112.500	-22.079	0.100
112.600	-20.874	0.100
112.700	-11.428	0.100
112.800	-21.386	0.100
112.900	-22.774	0.100
113.000	-11.707	0.100
113.100	-14.215	0.100
113.200	-16.414	0.100
113.300	-12.349	0.100
113.400	-21.182	0.100
113.500	-14.717	0.100
113.600	-19.637	0.100
113.700	-14.219	0.100
113.800	-17.805	0.100
113.900	-27.261	0.100
114.000	-19.250	0.100
114.100	-14.662	0.100
114.200	-14.145	0.100
114.300	-17.970	0.100
114.400	-15.987	0.100
114.500	-16.790	0.100
114.600	-16.811	0.100
114.700	-9.269	0.100
114.800	-17.307	0.100
114.900	-28.815	0.100
115.000	-24.628	0.100
115.100	-12.198	0.100
115.200	-10.393	0.100
115.300	-13.002	0.100
115.400	-14.390	0.100
115.500	-14.469	0.100
115.600	-21.790	0.100
115.700	-9.004	0.100
115.800	-17.045	0.100
115.900	-28.104	0.100
116.000	-29.183	0.100
116.100	-17.483	0.100
116.200	-16.584	0.100
116.300	-13.034	0.100
116.400	-13.334	0.100
116.500	-21.158	0.100
116.600	-17.071	0.100
116.700	-17.990	0.100
116.800	-14.765	0.100
116.900	-16.795	0.100
117.000	-28.894	0.100
117.100	-18.501	0.100
117.200	-25.009	0.100
117.300	-22.500	0.100
117.400	-27.571	0.100
117.500	-11.981	0.100
117.600	-18.779	0.100
117.700	-22.613	0.100
117.800	-22.741	0.100
117.900	-21.795	0.100
118.000	-16.853	0.100
118.100	-16.655	0.100
118.200	-14.747	0.100
118.300	-27.276	0.100
118.400	-25.399	0.100
118.500	-22.489	0.100
118.600	-24.133	0.100
118.700	-15.325	0.100
118.800	-15.790	0.100
118.900	-17.006	0.100
119.000	-21.968	0.100
119.100	-31.800	0.100
119.200	-20.248	0.100
119.300	-27.387	0.100
119.400	-21.193	0.100
119.500	-25.002	0.100
119.600	-22.937	0.100
119.700	-24.649	0.100
119.800	-27.241	0.100
119.900	-20.070	0.100
120.000	-21.822	0.100
120.100	-20.321	0.100
120.200	-18.340	0.100
120.300	-21.215	0.100
120.400	-21.709	0.100
120.500	-27.791	0.100
120.600	-23.381	0.100
120.700	-21.636	0.100
120.800	-28.165	0.100
120.900	-20.216	0.100
121.000	-24.974	0.100
121.100	-24.575	0.100
121.200	-26.442	0.100
121.300	-18.600	0.100
121.400	-26.802	0.100
121.500	-28.956	0.100
121.600	-17.951	0.100
121.700	-20.692	0.100
121.800	-29.932	0.100
121.900	-24.217	0.100
122.000	-20.396	0.100
122.100	-7.858	0.100
122.200	-29.163	0.100
122.300	-32.458	0.100
122.400	-22.071	0.100
122.500	-30.935	0.100
122.600	-25.643	0.100
122.700	-26.722	0.100
122.800	-28.049	0.100
122.900	-28.018	0.100
123.000	-25.223	0.100
123.100	-25.721	0.100
123.200	-33.339	0.100
123.300	-22.280	0.100
123.400	-27.021	0.100
123.500	-21.318	0.100
123.600	-14.443	0.100
123.700	-24.821	0.100
123.800	-31.051	0.100
123.900	-23.130	0.100
124.000	-23.388	0.100
124.100	-31.408	0.100
124.200	-24.623	0.100
124.300	-21.516	0.100
124.400	-35.950	0.100
124.500	-27.956	0.100
124.600	-25.674	0.100
124.700	-26.451	0.100
124.800	-25.816	0.100
124.900	-29.031	0.100
125.000	-23.911	0.100
125.100	-25.059	0.100
125.200	-28.676	0.100
125.300	-15.813	0.100
125.400	-24.776	0.100
125.500	-26.136	0.100
125.600	-21.974	0.100
125.700	-29.230	0.100
125.800	-30.799	0.100
125.900	-30.103	0.100
126.000	-29.991	0.100
126.100	-33.962	0.100
126.200	-25.304	0.100
126.300	-27.663	0.100
126.400	-17.179	0.100
126.500	-22.509	0.100
126.600	-22.273	0.100
126.700	-26.926	0.100
126.800	-32.524	0.100
126.900	-25.073	0.100
127.000	-28.945	0.100
127.100	-33.615	0.100
127.200	-29.993	0.100
127.300	-28.180	0.100
127.400	-28.658	0.100
127.500	-38.911	0.100
127.600	-32.802	0.100
127.700	-23.980	0.100
127.800	-27.353	0.100
127.900	-21.644	0.100
128.000	-29.883	0.100
128.100	-27.320	0.100
128.200	-36.757	0.100
128.300	-38.606	0.100
128.400	-29.052	0.100
128.500	-32.578	0.100
128.600	-26.982	0.100
128.700	-33.600	0.100
128.800	-29.651	0.100
128.900	-36.433	0.100
129.000	-33.326	0.100
129.100	-19.302	0.100
129.200	-30.557	0.100
129.300	-31.344	0.100
129.400	-29.826	0.100
129.500	-30.024	0.100
129.600	-24.342	0.100
129.700	-25.538	0.100
129.800	-24.037	0.100
129.900	-23.437	0.100
130.000	-34.996	0.100
130.100	-28.027	0.100
130.200	-46.098	0.100
130.300	-33.987	0.100
130.400	-27.476	0.100
130.500	-22.314	0.100
130.600	-19.690	0.100
130.700	-30.678	0.100
130.800	-36.149	0.100
130.900	-34.616	0.100
131.000	-30.845	0.100
131.100	-26.219	0.100
131.200	-37.594	0.100
131.300	-33.015	0.100
131.400	-23.267	0.100
131.500	-25.654	0.100
131.600	-36.548	0.100
131.700	-31.548	0.100
131.800	-31.076	0.100
131.900	-33.668	0.100
132.000	-30.810	0.100
132.100	-21.929	0.100
132.200	-25.920	0.100
132.300	-37.158	0.100
132.400	-31.843	0.100
132.500	-27.271	0.100
132.600	-34.127	0.100
132.700	-31.670	0.100
132.800	-26.096	0.100
132.900	-35.635	0.100
133.000	-35.932	0.100
133.100	-27.671	0.100
133.200	-24.378	0.100
133.300	-33.823	0.100
133.400	-23.782	0.100
133.500	-33.146	0.100
133.600	-37.757	0.100
133.700	-36.588	0.100
133.800	-26.279	0.100
133.900	-25.481	0.100
134.000	-30.217	0.100
134.100	-36.061	0.100
134.200	-36.258	0.100
134.300	-33.591	0.100
134.400	-29.037	0.100
134.500	-35.986	0.100
134.600	-27.900	0.100
134.700	-27.519	0.100
134.800	-28.652	0.100
134.900	-25.801	0.100
135.000	-36.476	0.100
135.100	-36.145	0.100
135.200	-28.345	0.100
135.300	-33.393	0.100
135.400	-32.734	0.100
135.500	-41.831	0.100
135.600	-30.662	0.100
135.700	-31.612	0.100
135.800	-41.624	0.100
135.900	-39.957	0.100
136.000	-34.650	0.100
136.100	-29.717	0.100
136.200	-30.477	0.100
136.300	-37.260	0.100
136.400	-35.467	0.100
136.500	-34.164	0.100
136.600	-31.007	0.100
136.700	-24.726	0.100
136.800	-22.452	0.100
136.900	-25.673	0.100
137.000	-34.233	0.100
137.100	-25.362	0.100
137.200	-32.499	0.100
137.300	-32.398	0.100
137.400	-32.677	0.100
137.500	-32.522	0.100
137.600	-35.689	0.100
137.700	-30.017	0.100
137.800	-35.004	0.100
137.900	-30.848	0.100
138.000	-27.560	0.100
138.100	-29.088	0.100
138.200	-16.825	0.100
138.300	-29.732	0.100
138.400	-15.088	0.100
138.500	-23.278	0.100
138.600	-38.355	0.100
138.700	-28.189	0.100
138.800	-33.257	0.100
138.900	-36.320	0.100
139.000	-34.061	0.100
139.100	-40.190	0.100
139.200	-36.739	0.100
139.300	-25.774	0.100
139.400	-29.569	0.100
139.500	-31.364	0.100
139.600	-38.996	0.100
139.700	-27.316	0.100
139.800	-35.927	0.100
139.900	-29.337	0.100
140.000	-33.244	0.100
140.100	-28.296	0.100
140.200	-37.493	0.100
140.300	-31.547	0.100
140.400	-33.006	0.100
140.500	-31.302	0.100
140.600	-35.304	0.100
140.700	-20.863	0.100
140.800	-27.564	0.100
140.900	-37.227	0.100
141.000	-35.331	0.100
141.100	-37.413	0.100
141.200	-39.001	0.100
141.300	-41.461	0.100
141.400	-34.566	0.100
141.500	-33.639	0.100
141.600	-36.744	0.100
141.700	-28.690	0.100
141.800	-24.583	0.100
141.900	-23.662	0.100
142.000	-32.154	0.100
142.100	-35.367	0.100
142.200	-38.761	0.100
142.300	-34.870	0.100
142.400	-30.190	0.100
142.500	-32.330	0.100
142.600	-23.866	0.100
142.700	-21.130	0.100
142.800	-28.092	0.100
142.900	-31.958	0.100
143.000	-30.462	0.100
143.100	-36.492	0.100
143.200	-29.304	0.100
143.300	-21.757	0.100
143.400	-30.051	0.100
143.500	-33.924	0.100
143.600	-39.906	0.100
143.700	-35.651	0.100
143.800	-27.931	0.100
143.900	-37.285	0.100
144.000	-34.614	0.100
144.100	-32.264	0.100
144.200	-34.522	0.100
144.300	-26.584	0.100
144.400	-29.828	0.100
144.500	-32.048	0.100
144.600	-25.271	0.100
144.700	-29.390	0.100
144.800	-26.729	0.100
144.900	-33.138	0.100
145.000	-36.247	0.100
145.100	-26.026	0.100
145.200	-25.321	0.100
145.300	-18.906	0.100
145.400	-28.800	0.100
145.500	-38.546	0.100
145.600	-31.374	0.100
145.700	-26.797	0.100
145.800	-27.941	0.100
145.900	-36.697	0.100
146.000	-38.069	0.100
146.100	-35.805	0.100
146.200	-35.432	0.100
146.300	-29.956	0.100
146.400	-28.868	0.100
146.500	-35.608	0.100
146.600	-28.062	0.100
146.700	-34.719	0.100
146.800	-40.207	0.100
146.900	-37.324	0.100
147.000	-30.872	0.100
147.100	-35.299	0.100
147.200	-18.528	0.100
147.300	-23.393	0.100
147.400	-34.562	0.100
147.500	-37.018	0.100
147.600	-35.416	0.100
147.700	-34.414	0.100
147.800	-34.783	0.100
147.900	-23.557	0.100
148.000	-30.175	0.100
148.100	-34.238	0.100
148.200	-33.946	0.100
148.300	-33.820	0.100
148.400	-30.895	0.100
148.500	-30.975	0.100
148.600	-36.041	0.100
148.700	-38.078	0.100
148.800	-22.774	0.100
148.900	-24.999	0.100
149.000	-26.374	0.100
149.100	-30.379	0.100
149.200	-22.536	0.100
149.300	-36.825	0.100
149.400	-25.654	0.100
149.500	-29.213	0.100
149.600	-34.196	0.100
149.700	-39.903	0.100
149.800	-31.166	0.100
149.900	-33.964	0.100
150.000	-18.064	0.100
150.100	-30.406	0.100
150.200	-21.127	0.100
150.300	-30.403	0.100
150.400	-34.800	0.100
150.500	-32.742	0.100
150.600	-24.079	0.100
150.700	-37.476	0.100
150.800	-25.153	0.100
150.900	-30.070	0.100
151.000	-31.847	0.100
151.100	-44.730	0.100
151.200	-36.837	0.100
151.300	-21.293	0.100
151.400	-21.615	0.100
151.500	-33.910	0.100
151.600	-31.201	0.100
151.700	-36.206	0.100
151.800	-30.252	0.100
151.900	-30.834	0.100
152.000	-29.847	0.100
152.100	-23.378	0.100
152.200	-31.841	0.100
152.300	-31.808	0.100
152.400	-33.500	0.100
152.500	-31.391	0.100
152.600	-24.025	0.100
152.700	-28.020	0.100
152.800	-29.682	0.100
152.900	-29.852	0.100
153.000	-40.827	0.100
153.100	-33.533	0.100
153.200	-40.284	0.100
153.300	-31.792	0.100
153.400	-31.465	0.100
153.500	-25.188	0.100
153.600	-30.118	0.100
153.700	-33.409	0.100
153.800	-20.558	0.100
153.900	-20.668	0.100
154.000	-36.666	0.100
154.100	-32.511	0.100
154.200	-29.136	0.100
154.300	-23.559	0.100
154.400	-23.817	0.100
154.500	-28.529	0.100
154.600	-33.571	0.100
154.700	-32.636	0.100
154.800	-31.959	0.100
154.900	-40.351	0.100
155.000	-25.850	0.100
155.100	-19.280	0.100
155.200	-24.365	0.100
155.300	-33.720	0.100
155.400	-38.130	0.100
155.500	-33.335	0.100
155.600	-26.514	0.100
155.700	-31.866	0.100
155.800	-32.060	0.100
155.900	-19.757	0.100
156.000	-28.229	0.100
156.100	-32.247	0.100
156.200	-30.743	0.100
156.300	-32.816	0.100
156.400	-33.607	0.100
156.500	-23.331	0.100
156.600	-36.147	0.100
156.700	-31.257	0.100
156.800	-35.990	0.100
156.900	-29.613	0.100
157.000	-30.916	0.100
157.100	-27.087	0.100
157.200	-28.108	0.100
157.300	-29.267	0.100
157.400	-33.998	0.100
157.500	-41.420	0.100
157.600	-30.042	0.100
157.700	-23.417	0.100
157.800	-28.611	0.100
157.900	-27.636	0.100
158.000	-31.946	0.100
158.100	-31.348	0.100
158.200	-33.406	0.100
158.300	-28.672	0.100
158.400	-37.956	0.100
158.500	-27.264	0.100
158.600	-26.194	0.100
158.700	-27.422	0.100
158.800	-38.302	0.100
158.900	-34.366	0.100
159.000	-27.725	0.100
159.100	-25.539	0.100
159.200	-25.805	0.100
159.300	-31.741	0.100
159.400	-27.687	0.100
159.500	-31.762	0.100
159.600	-29.728	0.100
159.700	-27.492	0.100
159.800	-26.776	0.100
159.900	-32.337	0.100
160.000	-29.424	0.100
160.100	-24.998	0.100
160.200	-30.641	0.100
160.300	-26.924	0.100
160.400	-33.581	0.100
160.500	-25.614	0.100
160.600	-31.073	0.100
160.700	-27.295	0.100
160.800	-29.843	0.100
160.900	-28.769	0.100
161.000	-31.016	0.100
161.100	-31.093	0.100
161.200	-29.773	0.100
161.300	-30.303	0.100
161.400	-22.715	0.100
161.500	-26.765	0.100
161.600	-37.107	0.100
161.700	-30.069	0.100
161.800	-31.826	0.100
161.900	-25.549	0.100
162.000	-28.160	0.100
162.100	-27.450	0.100
162.200	-31.574	0.100
162.300	-26.620	0.100
162.400	-27.707	0.100
162.500	-23.442	0.100
162.600	-33.839	0.100
162.700	-21.960	0.100
162.800	-26.380	0.100
162.900	-31.547	0.100
163.000	-22.472	0.100
163.100	-25.095	0.100
163.200	-38.822	0.100
163.300	-27.932	0.100
163.400	-21.471	0.100
163.500	-27.969	0.100
163.600	-35.764	0.100
163.700	-34.069	0.100
163.800	-26.181	0.100
163.900	-15.787	0.100
164.000	-34.984	0.100
164.100	-22.473	0.100
164.200	-27.557	0.100
164.300	-22.435	0.100
164.400	-24.566	0.100
164.500	-25.563	0.100
164.600	-34.443	0.100
164.700	-23.843	0.100
164.800	-30.403	0.100
164.900	-29.861	0.100
165.000	-28.863	0.100
165.100	-22.230	0.100
165.200	-29.456	0.100
165.300	-38.123	0.100
165.400	-33.535	0.100
165.500	-31.662	0.100
165.600	-24.661	0.100
165.700	-16.644	0.100
165.800	-23.709	0.100
165.900	-21.678	0.100
166.000	-29.382	0.100
166.100	-29.247	0.100
166.200	-26.154	0.100
166.300	-21.637	0.100
166.400	-25.565	0.100
166.500	-29.295	0.100
166.600	-45.070	0.100
166.700	-34.086	0.100
166.800	-31.456	0.100
166.900	-33.896	0.100
167.000	-22.747	0.100
167.100	-28.028	0.100
167.200	-28.586	0.100
167.300	-27.067	0.100
167.400	-33.204	0.100
167.500	-34.575	0.100
167.600	-22.993	0.100
167.700	-35.279	0.100
167.800	-33.404	0.100
167.900	-31.233	0.100
168.000	-25.694	0.100
168.100	-28.493	0.100
168.200	-27.433	0.100
168.300	-24.205	0.100
168.400	-33.014	0.100
168.500	-32.402	0.100
168.600	-30.080	0.100
168.700	-27.273	0.100
168.800	-28.702	0.100
168.900	-30.293	0.100
169.000	-33.785	0.100
169.100	-29.034	0.100
169.200	-26.632	0.100
169.300	-27.845	0.100
169.400	-27.135	0.100
169.500	-23.475	0.100
169.600	-32.419	0.100
169.700	-37.878	0.100
169.800	-24.819	0.100
169.900	-23.868	0.100
170.000	-20.989	0.100
170.100	-23.355	0.100
170.200	-35.883	0.100
170.300	-26.459	0.100
170.400	-26.844	0.100
170.500	-24.300	0.100
170.600	-31.064	0.100
170.700	-27.184	0.100
170.800	-21.840	0.100
170.900	-25.213	0.100
171.000	-18.570	0.100
171.100	-27.578	0.100
171.200	-22.238	0.100
171.300	-29.049	0.100
171.400	-34.967	0.100
171.500	-39.059	0.100
171.600	-28.216	0.100
171.700	-37.289	0.100
171.800	-22.698	0.100
171.900	-29.213	0.100
172.000	-27.227	0.100
172.100	-31.181	0.100
172.200	-29.699	0.100
172.300	-29.420	0.100
172.400	-31.367	0.100
172.500	-23.362	0.100
172.600	-19.350	0.100
172.700	-20.808	0.100
172.800	-30.772	0.100
172.900	-28.971	0.100
173.000	-32.739	0.100
173.100	-31.467	0.100
173.200	-20.388	0.100
173.300	-29.092	0.100
173.400	-30.155	0.100
173.500	-27.284	0.100
173.600	-27.420	0.100
173.700	-28.034	0.100
173.800	-24.441	0.100
173.900	-18.886	0.100
174.000	-25.333	0.100
174.100	-35.002	0.100
174.200	-25.451	0.100
174.300	-36.691	0.100
174.400	-20.904	0.100
174.500	-25.881	0.100
174.600	-32.645	0.100
174.700	-23.114	0.100
174.800	-16.646	0.100
174.900	-17.809	0.100
175.000	-21.937	0.100
175.100	-29.995	0.100
175.200	-35.170	0.100
175.300	-28.625	0.100
175.400	-29.638	0.100
175.500	-28.684	0.100
175.600	-27.113	0.100
175.700	-26.671	0.100
175.800	-33.012	0.100
175.900	-23.152	0.100
176.000	-16.705	0.100
176.100	-31.021	0.100
176.200	-29.839	0.100
176.300	-29.828	0.100
176.400	-25.933	0.100
176.500	-28.572	0.100
176.600	-30.094	0.100
176.700	-25.048	0.100
176.800	-23.625	0.100
176.900	-16.058	0.100
177.000	-22.768	0.100
177.100	-26.823	0.100
177.200	-23.650	0.100
177.300	-22.028	0.100
177.400	-29.177	0.100
177.500	-27.789	0.100
177.600	-27.321	0.100
177.700	-24.626	0.100
177.800	-36.714	0.100
177.900	-27.541	0.100
178.000	-14.823	0.100
178.100	-27.419	0.100
178.200	-28.543	0.100
178.300	-19.310	0.100
178.400	-32.503	0.100
178.500	-34.246	0.100
178.600	-31.554	0.100
178.700	-17.694	0.100
178.800	-29.533	0.100
178.900	-29.117	0.100
179.000	-32.330	0.100
179.100	-29.590	0.100
179.200	-33.451	0.100
179.300	-20.427	0.100
179.400	-33.230	0.100
179.500	-24.107	0.100
179.600	-20.688	0.100
179.700	-29.408	0.100
179.800	-24.517	0.100
179.900	-25.618	0.100
180.000	-29.407	0.100
180.100	-26.410	0.100
180.200	-28.275	0.100
180.300	-28.828	0.100
180.400	-17.261	0.100
180.500	-16.416	0.100
180.600	-26.154	0.100
180.700	-25.214	0.100
180.800	-13.789	0.100
180.900	-13.645	0.100
181.000	-12.865	0.100
181.100	-11.741	0.100
181.200	-19.829	0.100
181.300	-14.658	0.100
181.400	0.128	0.100
181.500	-1.370	0.100
181.600	-1.978	0.100
181.700	-0.091	0.100
181.800	-11.728	0.100
181.900	-3.513	0.100
182.000	5.186	0.100
182.100	-6.826	0.100
182.200	-1.901	0.100
182.300	-0.508	0.100
182.400	1.171	0.100
182.500	1.375	0.100
182.600	-2.730	0.100
182.700	-9.946	0.100
182.800	2.083	0.100
182.900	5.168	0.100
183.000	5.638	0.100
183.100	2.240	0.100
183.200	0.717	0.100
183.300	0.939	0.100
183.400	-10.159	0.100
183.500	2.330	0.100
183.600	3.475	0.100
183.700	-0.518	0.100
183.800	13.955	0.100
183.900	13.770	0.100
184.000	6.354	0.100
184.100	0.612	0.100
184.200	2.929	0.100
184.300	8.535	0.100
184.400	11.772	0.100
184.500	-6.114	0.100
184.600	8.833	0.100
184.700	-3.112	0.100
184.800	4.565	0.100
184.900	5.928	0.100
185.000	8.108	0.100
185.100	3.033	0.100
185.200	13.126	0.100
185.300	5.681	0.100
185.400	10.279	0.100
185.500	6.420	0.100
185.600	11.408	0.100
185.700	7.794	0.100
185.800	10.413	0.100
185.900	5.028	0.100
186.000	13.626	0.100
186.100	2.404	0.100
186.200	0.210	0.100
186.300	-3.888	0.100
186.400	7.989	0.100
186.500	6.959	0.100
186.600	11.185	0.100
186.700	4.120	0.100
186.800	5.876	0.100
186.900	9.456	0.100
187.000	24.472	0.100
187.100	7.320	0.100
187.200	2.050	0.100
187.300	1.470	0.100
187.400	13.017	0.100
187.500	6.813	0.100
187.600	-5.047	0.100
187.700	9.963	0.100
187.800	11.764	0.100
187.900	7.696	0.100
188.000	18.753	0.100
188.100	9.125	0.100
188.200	10.547	0.100
188.300	5.519	0.100
188.400	10.818	0.100
188.500	12.700	0.100
188.600	7.612	0.100
188.700	13.614	0.100
188.800	1.035	0.100
188.900	7.339	0.100
189.000	-0.554	0.100
189.100	6.571	0.100
189.200	7.386	0.100
189.300	15.992	0.100
189.400	13.466	0.100
189.500	9.051	0.100
189.600	8.978	0.100
189.700	4.766	0.100
189.800	18.506	0.100
189.900	14.160	0.100
190.000	10.382	0.100
190.100	16.439	0.100
190.200	15.167	0.100
190.300	14.492	0.100
190.400	10.951	0.100
190.500	13.539	0.100
190.600	16.131	0.100
190.700	12.386	0.100
190.800	18.164	0.100
190.900	16.067	0.100
191.000	5.739	0.100
191.100	7.454	0.100
191.200	20.987	0.100
191.300	16.566	0.100
191.400	13.116	0.100
191.500	18.098	0.100
191.600	14.376	0.100
191.700	20.877	0.100
191.800	22.055	0.100
191.900	15.249	0.100
192.000	18.286	0.100
192.100	17.969	0.100
192.200	10.320	0.100
192.300	21.387	0.100
192.400	28.902	0.100
192.500	22.711	0.100
192.600	20.479	0.100
192.700	14.276	0.100
192.800	19.016	0.100
192.900	20.256	0.100
193.000	9.487	0.100
193.100	8.736	0.100
193.200	14.629	0.100
193.300	22.672	0.100
193.400	26.150	0.100
193.500	24.216	0.100
193.600	22.139	0.100
193.700	27.672	0.100
193.800	16.668	0.100
193.900	22.577	0.100
194.000	23.897	0.100
194.100	20.883	0.100
194.200	25.226	0.100
194.300	21.148	0.100
194.400	25.848	0.100
194.500	29.085	0.100
194.600	24.116	0.100
194.700	26.668	0.100
194.800	26.513	0.100
194.900	33.524	0.100
195.000	23.021	0.100
195.100	34.779	0.100
195.200	23.543	0.100
195.300	43.442	0.100
195.400	28.706	0.100
195.500	27.924	0.100
195.600	28.997	0.100
195.700	36.732	0.100
195.800	28.457	0.100
195.900	23.618	0.100
196.000	29.634	0.100
196.100	43.227	0.100
196.200	37.277	0.100
196.300	21.386	0.100
196.400	30.263	0.100
196.500	23.136	0.100
196.600	26.374	0.100
196.700	28.413	0.100
196.800	31.368	0.100
196.900	29.497	0.100
197.000	31.859	0.100
197.100	36.136	0.100
197.200	47.042	0.100
197.300	29.092	0.100
197.400	23.292	0.100
197.500	38.565	0.100
197.600	49.607	0.100
197.700	31.657	0.100
197.800	29.495	0.100
197.900	42.395	0.100
198.000	31.715	0.100
198.100	40.986	0.100
198.200	34.903	0.100
198.300	35.956	0.100
198.400	44.037	0.100
198.500	34.230	0.100
198.600	44.524	0.100
198.700	38.473	0.100
198.800	30.725	0.100
198.900	30.540	0.100
199.000	45.456	0.100
199.100	43.850	0.100
199.200	46.500	0.100
199.300	43.373	0.100
199.400	37.258	0.100
199.500	39.494	0.100
199.600	49.454	0.100
199.700	49.991	0.100
199.800	44.065	0.100
199.900	35.052	0.100
200.000	47.074	0.100
200.100	39.563	0.100
200.200	37.301	0.100
200.300	48.270	0.100
200.400	43.379	0.100
200.500	48.604	0.100
200.600	35.909	0.100
200.700	49.274	0.100
200.800	45.140	0.100
200.900	36.855	0.100
201.000	50.038	0.100
201.100	41.754	0.100
201.200	46.094	0.100
201.300	51.419	0.100
201.400	46.106	0.100
201.500	42.292	0.100
201.600	46.842	0.100
201.700	44.384	0.100
201.800	37.790	0.100
201.900	40.239	0.100
202.000	43.577	0.100
202.100	46.121	0.100
202.200	39.258	0.100
202.300	47.751	0.100
202.400	43.744	0.100
202.500	43.815	0.100
202.600	43.526	0.100
202.700	48.930	0.100
202.800	49.419	0.100
202.900	45.357	0.100
203.000	42.816	0.100
203.100	45.816	0.100
203.200	50.361	0.100
203.300	51.447	0.100
203.400	49.443	0.100
203.500	43.326	0.100
203.600	51.746	0.100
203.700	55.791	0.100
203.800	45.058	0.100
203.900	58.573	0.100
204.000	47.916	0.100
204.100	42.289	0.100
204.200	47.000	0.100
204.300	42.209	0.100
204.400	53.574	0.100
204.500	46.751	0.100
204.600	43.961	0.100
204.700	54.645	0.100
204.800	47.593	0.100
204.900	45.087	0.100
205.000	45.491	0.100
205.100	49.102	0.100
205.200	43.421	0.100
205.300	53.719	0.100
205.400	57.636	0.100
205.500	51.240	0.100
205.600	41.073	0.100
205.700	51.388	0.100
205.800	52.478	0.100
205.900	53.855	0.100
206.000	56.404	0.100
206.100	56.362	0.100
206.200	41.373	0.100
206.300	47.314	0.100
206.400	50.974	0.100
206.500	49.944	0.100
206.600	66.032	0.100
206.700	55.286	0.100
206.800	49.727	0.100
206.900	49.923	0.100
207.000	42.353	0.100
207.100	51.278	0.100
207.200	50.226	0.100
207.300	44.538	0.100
207.400	51.230	0.100
207.500	46.357	0.100
207.600	52.534	0.100
207.700	45.894	0.100
207.800	51.689	0.100
207.900	51.368	0.100
208.000	48.142	0.100
208.100	47.613	0.100
208.200	48.324	0.100
208.300	51.719	0.100
208.400	45.033	0.100
208.500	57.133	0.100
208.600	54.214	0.100
208.700	51.307	0.100
208.800	49.336	0.100
208.900	40.615	0.100
209.000	50.406	0.100
209.100	55.157	0.100
209.200	52.382	0.100
209.300	54.004	0.100
209.400	44.616	0.100
209.500	56.780	0.100
209.600	49.735	0.100
209.700	42.643	0.100
209.800	48.520	0.100
209.900	55.073	0.100
210.000	59.361	0.100
210.100	50.040	0.100
210.200	56.543	0.100
210.300	48.731	0.100
210.400	50.989	0.100
210.500	56.103	0.100
210.600	46.731	0.100
210.700	50.891	0.100
210.800	53.224	0.100
210.900	44.978	0.100
211.000	39.614	0.100
211.100	44.573	0.100
211.200	52.422	0.100
211.300	53.215	0.100
211.400	59.895	0.100
211.500	56.609	0.100
211.600	44.518	0.100
211.700	51.664	0.100
211.800	56.991	0.100
211.900	53.346	0.100
212.000	54.495	0.100
212.100	50.807	0.100
212.200	43.207	0.100
212.300	45.362	0.100
212.400	43.795	0.100
212.500	48.953	0.100
212.600	45.985	0.100
212.700	43.122	0.100
212.800	49.720	0.100
212.900	51.993	0.100
213.000	61.012	0.100
213.100	44.531	0.100
213.200	53.757	0.100
213.300	45.632	0.100
213.400	39.708	0.100
213.500	52.221	0.100
213.600	53.644	0.100
213.700	48.817	0.100
213.800	48.716	0.100
213.900	55.817	0.100
214.000	49.402	0.100
214.100	45.844	0.100
214.200	60.487	0.100
214.300	55.886	0.100
214.400	46.704	0.100
214.500	33.656	0.100
214.600	43.466	0.100
214.700	50.309	0.100
214.800	61.452	0.100
214.900	52.403	0.100
215.000	59.083	0.100
215.100	55.746	0.100
215.200	48.992	0.100
215.300	42.902	0.100
215.400	46.164	0.100
215.500	49.421	0.100
215.600	59.806	0.100
215.700	52.978	0.100
215.800	57.398	0.100
215.900	56.547	0.100
216.000	60.284	0.100
216.100	46.728	0.100
216.200	52.962	0.100
216.300	54.221	0.100
216.400	55.124	0.100
216.500	43.883	0.100
216.600	40.688	0.100
216.700	49.546	0.100
216.800	43.127	0.100
216.900	58.341	0.100
217.000	54.287	0.100
217.100	51.498	0.100
217.200	50.139	0.100
217.300	46.121	0.100
217.400	53.119	0.100
217.500	47.475	0.100
217.600	52.957	0.100
217.700	60.384	0.100
217.800	57.117	0.100
217.900	53.120	0.100
218.000	48.062	0.100
218.100	52.948	0.100
218.200	49.710	0.100
218.300	49.091	0.100
218.400	54.680	0.100
218.500	56.128	0.100
218.600	60.857	0.100
218.700	48.103	0.100
218.800	45.696	0.100
218.900	41.764	0.100
219.000	43.659	0.100
219.100	52.793	0.100
219.200	48.482	0.100
219.300	63.586	0.100
219.400	46.415	0.100
219.500	51.683	0.100
219.600	42.836	0.100
219.700	55.099	0.100
219.800	46.367	0.100
219.900	53.908	0.100
220.000	52.487	0.100
220.100	54.577	0.100
220.200	59.351	0.100
220.300	50.593	0.100
220.400	53.019	0.100
220.500	59.475	0.100
220.600	56.319	0.100
220.700	52.566	0.100
220.800	40.238	0.100
220.900	45.122	0.100
221.000	51.336	0.100
221.100	51.516	0.100
221.200	57.516	0.100
221.300	52.840	0.100
221.400	50.460	0.100
221.500	52.647	0.100
221.600	57.132	0.100
221.700	61.919	0.100
221.800	51.215	0.100
221.900	51.460	0.100
222.000	58.036	0.100
222.100	43.760	0.100
222.200	47.578	0.100
222.300	54.174	0.100
222.400	47.012	0.100
222.500	45.343	0.100
222.600	57.815	0.100
222.700	57.537	0.100
222.800	54.291	0.100
222.900	45.712	0.100
223.000	48.864	0.100
223.100	60.310	0.100
223.200	55.193	0.100
223.300	52.965	0.100
223.400	54.153	0.100
223.500	50.775	0.100
223.600	47.949	0.100
223.700	55.774	0.100
223.800	43.022	0.100
223.900	41.550	0.100
224.000	45.292	0.100
224.100	58.572	0.100
224.200	41.734	0.100
224.300	49.037	0.100
224.400	55.223	0.100
224.500	49.906	0.100
224.600	54.572	0.100
224.700	53.534	0.100
224.800	43.278	0.100
224.900	53.461	0.100
225.000	54.728	0.100
225.100	52.682	0.100
225.200	53.639	0.100
225.300	56.172	0.100
225.400	51.581	0.100
225.500	47.893	0.100
225.600	43.318	0.100
225.700	47.007	0.100
225.800	55.253	0.100
225.900	52.246	0.100
226.000	53.841	0.100
226.100	49.603	0.100
226.200	49.622	0.100
226.300	53.588	0.100
226.400	53.503	0.100
226.500	47.645	0.100
226.600	47.696	0.100
226.700	46.484	0.100
226.800	47.185	0.100
226.900	39.838	0.100
227.000	51.359	0.100
227.100	53.781	0.100
227.200	54.059	0.100
227.300	59.294	0.100
227.400	50.529	0.100
227.500	53.421	0.100
227.600	44.993	0.100
227.700	51.276	0.100
227.800	49.633	0.100
227.900	46.367	0.100
228.000	43.213	0.100
228.100	51.751	0.100
228.200	51.060	0.100
228.300	60.355	0.100
228.400	53.326	0.100
228.500	52.012	0.100
228.600	51.239	0.100
228.700	56.955	0.100
228.800	48.361	0.100
228.900	51.550	0.100
229.000	56.282	0.100
229.100	56.272	0.100
229.200	51.202	0.100
229.300	55.496	0.100
229.400	46.643	0.100
229.500	48.698	0.100
229.600	53.489	0.100
229.700	55.029	0.100
229.800	52.347	0.100
229.900	49.291	0.100
230.000	55.526	0.100
230.100	58.393	0.100
230.200	45.838	0.100
230.300	45.335	0.100
230.400	45.637	0.100
230.500	41.529	0.100
230.600	41.904	0.100
230.700	56.912	0.100
230.800	56.968	0.100
230.900	46.564	0.100
231.000	51.492	0.100
231.100	49.032	0.100
231.200	49.523	0.100
231.300	57.244	0.100
231.400	54.186	0.100
231.500	51.323	0.100
231.600	44.944	0.100
231.700	53.397	0.100
231.800	53.361	0.100
231.900	57.584	0.100
232.000	49.659	0.100
232.100	52.447	0.100
232.200	48.274	0.100
232.300	47.439	0.100
232.400	51.446	0.100
232.500	49.167	0.100
232.600	43.542	0.100
232.700	53.913	0.100
232.800	53.222	0.100
232.900	53.783	0.100
233.000	46.723	0.100
233.100	54.973	0.100
233.200	49.300	0.100
233.300	48.824	0.100
233.400	59.873	0.100
233.500	53.665	0.100
233.600	37.792	0.100
233.700	46.978	0.100
233.800	51.534	0.100
233.900	46.678	0.100
234.000	56.170	0.100
234.100	54.821	0.100
234.200	59.058	0.100
234.300	55.716	0.100
234.400	54.670	0.100
234.500	54.272	0.100
234.600	47.634	0.100
234.700	48.829	0.100
234.800	55.606	0.100
234.900	51.111	0.100
235.000	48.971	0.100
235.100	48.102	0.100
235.200	50.830	0.100
235.300	49.507	0.100
235.400	48.449	0.100
235.500	56.941	0.100
235.600	47.679	0.100
235.700	55.254	0.100
235.800	48.427	0.100
235.900	50.268	0.100
236.000	62.049	0.100
236.100	47.344	0.100
236.200	52.491	0.100
236.300	53.466	0.100
236.400	61.558	0.100
236.500	56.407	0.100
236.600	52.677	0.100
236.700	47.442	0.100
236.800	53.931	0.100
236.900	55.018	0.100
237.000	53.667	0.100
237.100	44.390	0.100
237.200	45.980	0.100
237.300	36.353	0.100
237.400	46.539	0.100
237.500	51.984	0.100
237.600	59.602	0.100
237.700	53.534	0.100
237.800	54.444	0.100
237.900	48.290	0.100
238.000	44.370	0.100
238.100	49.677	0.100
238.200	50.514	0.100
238.300	54.494	0.100
238.400	52.233	0.100
238.500	52.754	0.100
238.600	49.130	0.100
238.700	45.464	0.100
238.800	49.708	0.100
238.900	51.633	0.100
239.000	46.672	0.100
239.100	44.380	0.100
239.200	35.140	0.100
239.300	48.980	0.100
239.400	53.813	0.100
239.500	61.369	0.100
239.600	55.055	0.100
239.700	47.653	0.100
239.800	53.707	0.100
239.900	40.579	0.100
240.000	45.453	0.100
240.100	54.363	0.100
240.200	42.459	0.100
240.300	51.270	0.100
240.400	52.410	0.100
240.500	42.706	0.100
240.600	33.523	0.100
240.700	35.614	0.100
240.800	44.188	0.100
240.900	39.148	0.100
241.000	39.500	0.100
241.100	30.530	0.100
241.200	30.371	0.100
241.300	27.714	0.100
241.400	21.905	0.100
241.500	20.265	0.100
241.600	13.147	0.100
241.700	18.133	0.100
241.800	20.731	0.100
241.900	14.432	0.100
242.000	14.809	0.100
242.100	12.215	0.100
242.200	18.314	0.100
242.300	8.150	0.100
242.400	6.133	0.100
242.500	12.822	0.100
242.600	11.706	0.100
242.700	10.024	0.100
242.800	11.678	0.100
242.900	7.409	0.100
243.000	1.941	0.100
243.100	2.838	0.100
243.200	2.531	0.100
243.300	-0.070	0.100
243.400	3.651	0.100
243.500	18.099	0.100
243.600	10.624	0.100
243.700	3.614	0.100
243.800	-0.520	0.100
243.900	7.900	0.100
244.000	3.841	0.100
244.100	6.385	0.100
244.200	-0.375	0.100
244.300	-3.877	0.100
244.400	-1.939	0.100
244.500	-8.235	0.100
244.600	8.806	0.100
244.700	14.813	0.100
244.800	-6.630	0.100
244.900	-2.996	0.100
245.000	-3.559	0.100
245.100	-4.896	0.100
245.200	-6.333	0.100
245.300	6.541	0.100
245.400	4.936	0.100
245.500	-2.402	0.100
245.600	-4.158	0.100
245.700	0.998	0.100
245.800	-4.806	0.100
245.900	0.178	0.100
246.000	-3.465	0.100
246.100	3.834	0.100
246.200	5.453	0.100
246.300	-3.356	0.100
246.400	5.584	0.100
246.500	-6.270	0.100
246.600	-4.350	0.100
246.700	1.283	0.100
246.800	-1.531	0.100
246.900	3.813	0.100
247.000	8.133	0.100
247.100	-2.491	0.100
247.200	-7.268	0.100
247.300	-5.400	0.100
247.400	-16.897	0.100
247.500	-12.235	0.100
247.600	-6.352	0.100
247.700	-9.374	0.100
247.800	-9.496	0.100
247.900	-4.463	0.100
248.000	-6.978	0.100
248.100	-5.300	0.100
248.200	-6.452	0.100
248.300	-3.771	0.100
248.400	-3.918	0.100
248.500	-8.381	0.100
248.600	-9.335	0.100
248.700	2.304	0.100
248.800	8.130	0.100
248.900	2.598	0.100
249.000	-3.969	0.100
249.100	-11.601	0.100
249.200	-4.667	0.100
249.300	-8.443	0.100
249.400	-8.819	0.100
249.500	-9.238	0.100
249.600	-14.327	0.100
249.700	-13.308	0.100
249.800	-11.699	0.100
249.900	-13.425	0.100
250.000	-8.781	0.100
250.100	4.752	0.100
250.200	-6.822	0.100
250.300	-3.189	0.100
250.400	-7.167	0.100
250.500	-7.289	0.100
250.600	-5.683	0.100
250.700	4.983	0.100
250.800	-1.812	0.100
250.900	-0.552	0.100
251.000	-5.471	0.100
251.100	-16.769	0.100
251.200	-1.300	0.100
251.300	-15.802	0.100
251.400	-2.808	0.100
251.500	-6.551	0.100
251.600	-4.890	0.100
251.700	-7.285	0.100
251.800	-14.801	0.100
251.900	0.040	0.100
252.000	-3.144	0.100
252.100	-13.188	0.100
252.200	-10.911	0.100
252.300	-6.847	0.100
252.400	-0.670	0.100
252.500	-10.139	0.100
252.600	-5.920	0.100
252.700	-7.865	0.100
252.800	-10.592	0.100
252.900	-11.484	0.100
253.000	-13.525	0.100
253.100	-21.489	0.100
253.200	-16.202	0.100
253.300	-15.187	0.100
253.400	-12.959	0.100
253.500	-18.262	0.100
253.600	-6.320	0.100
253.700	-3.918	0.100
253.800	-15.692	0.100
253.900	-7.236	0.100
254.000	-20.543	0.100
254.100	-17.252	0.100
254.200	-18.298	0.100
254.300	-14.519	0.100
254.400	-7.739	0.100
254.500	-11.464	0.100
254.600	-14.093	0.100
254.700	-14.674	0.100
254.800	-15.182	0.100
254.900	-12.142	0.100
255.000	-7.287	0.100
255.100	-5.721	0.100
255.200	-11.013	0.100
255.300	-19.058	0.100
255.400	-23.795	0.100
255.500	-14.783	0.100
255.600	-11.821	0.100
255.700	-8.753	0.100
255.800	-1.590	0.100
255.900	-10.042	0.100
256.000	-19.037	0.100
256.100	-20.594	0.100
256.200	-25.534	0.100
256.300	-8.549	0.100
256.400	-13.627	0.100
256.500	-9.406	0.100
256.600	-13.841	0.100
256.700	-18.779	0.100
256.800	-23.204	0.100
256.900	-14.526	0.100
257.000	-11.705	0.100
257.100	-13.432	0.100
257.200	-13.793	0.100
257.300	-11.021	0.100
257.400	-14.418	0.100
257.500	-16.805	0.100
257.600	-17.189	0.100
257.700	-12.236	0.100
257.800	-18.570	0.100
257.900	-15.993	0.100
258.000	-12.456	0.100
258.100	-26.597	0.100
258.200	-17.394	0.100
258.300	-16.070	0.100
258.400	-12.393	0.100
258.500	-12.925	0.100
258.600	-18.664	0.100
258.700	-19.183	0.100
258.800	-4.981	0.100
258.900	-20.645	0.100
259.000	-21.558	0.100
259.100	-21.605	0.100
259.200	-16.934	0.100
259.300	-28.142	0.100
259.400	-17.555	0.100
259.500	-23.646	0.100
259.600	-22.778	0.100
259.700	-16.450	0.100
259.800	-18.706	0.100
259.900	-24.307	0.100
260.000	-22.599	0.100
260.100	-9.134	0.100
260.200	-12.766	0.100
260.300	-17.488	0.100
260.400	-14.991	0.100
260.500	-22.384	0.100
260.600	-13.057	0.100
260.700	-1.305	0.100
260.800	-20.098	0.100
260.900	-15.785	0.100
261.000	-23.547	0.100
261.100	-19.434	0.100
261.200	-21.073	0.100
261.300	-15.555	0.100
261.400	-19.112	0.100
261.500	-21.560	0.100
261.600	-25.535	0.100
261.700	-25.068	0.100
261.800	-24.532	0.100
261.900	-17.422	0.100
262.000	-17.769	0.100
262.100	-22.334	0.100
262.200	-23.592	0.100
262.300	-19.466	0.100
262.400	-16.930	0.100
262.500	-22.525	0.100
262.600	-18.983	0.100
262.700	-9.843	0.100
262.800	-23.821	0.100
262.900	-28.328	0.100
263.000	-22.656	0.100
263.100	-16.942	0.100
263.200	-14.489	0.100
263.300	-22.422	0.100
263.400	-21.000	0.100
263.500	-25.364	0.100
263.600	-25.193	0.100
263.700	-25.145	0.100
263.800	-15.612	0.100
263.900	-32.098	0.100
264.000	-32.931	0.100
264.100	-29.287	0.100
264.200	-22.650	0.100
264.300	-26.778	0.100
264.400	-25.399	0.100
264.500	-23.869	0.100
264.600	-15.786	0.100
264.700	-25.621	0.100
264.800	-20.120	0.100
264.900	-26.205	0.100
265.000	-23.946	0.100
265.100	-18.912	0.100
265.200	-23.265	0.100
265.300	-19.228	0.100
265.400	-22.543	0.100
265.500	-29.179	0.100
265.600	-23.847	0.100
265.700	-24.822	0.100
265.800	-21.839	0.100
265.900	-24.707	0.100
266.000	-21.337	0.100
266.100	-23.238	0.100
266.200	-22.628	0.100
266.300	-20.508	0.100
266.400	-22.773	0.100
266.500	-24.256	0.100
266.600	-18.394	0.100
266.700	-28.180	0.100
266.800	-25.018	0.100
266.900	-31.851	0.100
267.000	-22.599	0.100
267.100	-26.160	0.100
267.200	-25.835	0.100
267.300	-31.776	0.100
267.400	-24.625	0.100
267.500	-26.259	0.100
267.600	-19.180	0.100
267.700	-24.794	0.100
267.800	-31.320	0.100
267.900	-25.170	0.100
268.000	-22.739	0.100
268.100	-33.563	0.100
268.200	-25.559	0.100
268.300	-37.695	0.100
268.400	-22.873	0.100
268.500	-13.458	0.100
268.600	-27.551	0.100
268.700	-32.267	0.100
268.800	-37.949	0.100
268.900	-36.462	0.100
269.000	-25.388	0.100
269.100	-29.862	0.100
269.200	-23.793	0.100
269.300	-34.346	0.100
269.400	-24.883	0.100
269.500	-27.479	0.100
269.600	-24.723	0.100
269.700	-20.788	0.100
269.800	-29.895	0.100
269.900	-30.896	0.100
270.000	-27.167	0.100
270.100	-34.317	0.100
270.200	-29.372	0.100
270.300	-29.920	0.100
270.400	-37.044	0.100
270.500	-40.063	0.100
270.600	-32.258	0.100
270.700	-19.486	0.100
270.800	-29.150	0.100
270.900	-40.086	0.100
271.000	-40.992	0.100
271.100	-36.256	0.100
271.200	-33.974	0.100
271.300	-24.444	0.100
271.400	-27.893	0.100
271.500	-25.356	0.100
271.600	-33.280	0.100
271.700	-32.277	0.100
271.800	-25.310	0.100
271.900	-18.845	0.100
272.000	-28.011	0.100
272.100	-35.386	0.100
272.200	-26.768	0.100
272.300	-41.382	0.100
272.400	-23.925	0.100
272.500	-23.237	0.100
272.600	-27.620	0.100
272.700	-34.490	0.100
272.800	-29.161	0.100
272.900	-28.947	0.100
273.000	-32.693	0.100
273.100	-31.221	0.100
273.200	-27.436	0.100
273.300	-35.276	0.100
273.400	-31.804	0.100
273.500	-36.627	0.100
273.600	-27.931	0.100
273.700	-31.734	0.100
273.800	-28.313	0.100
273.900	-33.834	0.100
274.000	-27.509	0.100
274.100	-38.462	0.100
274.200	-36.611	0.100
274.300	-28.429	0.100
274.400	-30.957	0.100
274.500	-27.915	0.100
274.600	-30.398	0.100
274.700	-30.774	0.100
274.800	-41.825	0.100
274.900	-28.250	0.100
275.000	-31.286	0.100
275.100	-33.716	0.100
275.200	-27.453	0.100
275.300	-40.295	0.100
275.400	-36.164	0.100
275.500	-43.295	0.100
275.600	-36.968	0.100
275.700	-28.520	0.100
275.800	-38.534	0.100
275.900	-35.843	0.100
276.000	-33.969	0.100
276.100	-40.123	0.100
276.200	-29.375	0.100
276.300	-37.894	0.100
276.400	-44.555	0.100
276.500	-38.630	0.100
276.600	-37.678	0.100
276.700	-33.182	0.100
276.800	-23.337	0.100
276.900	-35.469	0.100
277.000	-29.768	0.100
277.100	-34.306	0.100
277.200	-30.372	0.100
277.300	-49.321	0.100
277.400	-33.989	0.100
277.500	-32.214	0.100
277.600	-30.464	0.100
277.700	-26.274	0.100
277.800	-34.402	0.100
277.900	-29.759	0.100
278.000	-30.930	0.100
278.100	-27.960	0.100
278.200	-28.215	0.100
278.300	-42.614	0.100
278.400	-35.117	0.100
278.500	-28.641	0.100
278.600	-27.893	0.100
278.700	-47.444	0.100
278.800	-38.863	0.100
278.900	-37.222	0.100
279.000	-39.778	0.100
279.100	-31.296	0.100
279.200	-34.772	0.100
279.300	-30.039	0.100
279.400	-32.697	0.100
279.500	-34.489	0.100
279.600	-38.138	0.100
279.700	-38.092	0.100
279.800	-37.292	0.100
279.900	-33.368	0.100
280.000	-33.239	0.100
280.100	-27.205	0.100
280.200	-36.381	0.100
280.300	-33.372	0.100
280.400	-29.956	0.100
280.500	-34.705	0.100
280.600	-37.996	0.100
280.700	-27.125	0.100
280.800	-30.066	0.100
280.900	-34.863	0.100
281.000	-37.925	0.100
281.100	-38.325	0.100
281.200	-32.980	0.100
281.300	-35.602	0.100
281.400	-40.668	0.100
281.500	-33.524	0.100
281.600	-45.474	0.100
281.700	-42.480	0.100
281.800	-33.025	0.100
281.900	-41.312	0.100
282.000	-26.773	0.100
282.100	-36.514	0.100
282.200	-34.238	0.100
282.300	-41.400	0.100
282.400	-28.393	0.100
282.500	-33.874	0.100
282.600	-27.905	0.100
282.700	-31.499	0.100
282.800	-37.406	0.100
282.900	-39.544	0.100
283.000	-32.559	0.100
283.100	-23.361	0.100
283.200	-32.701	0.100
283.300	-29.286	0.100
283.400	-36.037	0.100
283.500	-32.971	0.100
283.600	-32.725	0.100
283.700	-37.003	0.100
283.800	-44.069	0.100
283.900	-38.105	0.100
284.000	-44.746	0.100
284.100	-36.203	0.100
284.200	-34.279	0.100
284.300	-34.175	0.100
284.400	-30.119	0.100
284.500	-27.856	0.100
284.600	-49.902	0.100
284.700	-33.722	0.100
284.800	-40.279	0.100
284.900	-31.230	0.101
285.000	-37.949	0.100
285.100	-37.368	0.100
285.200	-31.213	0.100
285.300	-45.416	0.100
285.400	-37.493	0.100
285.500	-31.469	0.100
285.600	-28.772	0.100
285.700	-23.226	0.100
285.800	-36.109	0.100
285.900	-30.250	0.100
286.000	-43.255	0.100
286.100	-41.725	0.100
286.200	-30.446	0.100
286.300	-36.838	0.100
286.400	-37.151	0.100
286.500	-38.487	0.100
286.600	-27.233	0.100
286.700	-32.914	0.100
286.800	-36.555	0.100
286.900	-44.883	0.100
287.000	-39.562	0.100
287.100	-42.286	0.100
287.200	-42.197	0.100
287.300	-30.510	0.100
287.400	-35.888	0.100
287.500	-31.235	0.100
287.600	-24.872	0.100
287.700	-34.710	0.100
287.800	-35.195	0.100
287.900	-40.671	0.101
288.000	-36.357	0.100
288.100	-35.298	0.100
288.200	-32.002	0.100
288.300	-40.881	0.100
288.400	-41.723	0.100
288.500	-37.189	0.100
288.600	-37.852	0.100
288.700	-29.209	0.100
288.800	-42.192	0.100
288.900	-42.638	0.100
289.000	-32.588	0.100
289.100	-24.963	0.100
289.200	-24.855	0.100
289.300	-36.600	0.100
289.400	-36.024	0.100
289.500	-32.691	0.100
289.600	-38.557	0.100
289.700	-37.162	0.101
289.800	-36.523	0.101
289.900	-35.305	0.100
290.000	-32.714	0.100
290.100	-34.835	0.101
290.200	-32.866	0.100
290.300	-34.073	0.101
290.400	-44.867	0.101
290.500	-27.336	0.101
290.600	-39.313	0.101
290.700	-32.161	0.101
290.800	-32.693	0.101
290.900	-31.748	0.101
291.000	-37.202	0.101
291.100	-34.325	0.101
291.200	-31.108	0.101
291.300	-42.184	0.100
291.400	-28.153	0.101
291.500	-39.128	0.101
291.600	-41.081	0.100
291.700	-30.149	0.100
291.800	-40.520	0.101
291.900	-47.320	0.101
292.000	-29.770	0.101
292.100	-36.939	0.101
292.200	-37.173	0.100
292.300	-38.019	0.101
292.400	-24.865	0.101
292.500	-32.431	0.101
292.600	-36.461	0.101
292.700	-34.156	0.100
292.800	-36.132	0.101
292.900	-41.275	0.101
293.000	-36.026	0.101
293.100	-32.437	0.100
293.200	-45.888	0.101
293.300	-25.894	0.101
293.400	-34.983	0.101
293.500	-37.136	0.101
293.600	-30.347	0.101
293.700	-38.244	0.100
293.800	-31.163	0.100
293.900	-40.491	0.101
294.000	-20.927	0.101
294.100	-37.762	0.100
294.200	-34.248	0.101
294.300	-30.476	0.100
294.400	-35.809	0.101
294.500	-41.555	0.101
294.600	-42.188	0.101
294.700	-35.699	0.100
294.800	-33.585	0.101
294.900	-37.291	0.101
295.000	-31.615	0.101
295.100	-47.863	0.100
295.200	-35.165	0.101
295.300	-30.972	0.101
295.400	-40.917	0.101
295.500	-26.207	0.101
295.600	-31.931	0.101
295.700	-33.084	0.101
295.800	-35.597	0.101
295.900	-33.788	0.101
296.000	-39.743	0.101
296.100	-39.393	0.101
296.200	-24.621	0.101
296.300	-31.983	0.101
296.400	-33.589	0.101
296.500	-34.877	0.101
296.600	-39.465	0.101
296.700	-35.529	0.101
296.800	-43.302	0.101
296.900	-34.361	0.101
297.000	-28.040	0.101
297.100	-35.926	0.101
297.200	-36.978	0.101
297.300	-31.300	0.101
297.400	-32.792	0.101
297.500	-35.497	0.101
297.600	-35.848	0.101
297.700	-32.317	0.101
297.800	-33.191	0.101
297.900	-37.181	0.101
298.000	-33.031	0.101
298.100	-34.110	0.101
298.200	-38.842	0.101
298.300	-32.405	0.101
298.400	-38.501	0.101
298.500	-27.846	0.101
298.600	-20.056	0.101
298.700	-28.386	0.101
298.800	-34.663	0.101
298.900	-41.877	0.101
299.000	-33.375	0.101
299.100	-31.125	0.101
299.200	-34.051	0.101
299.300	-32.300	0.101
299.400	-29.043	0.101
299.500	-47.205	0.101
299.600	-40.097	0.101
299.700	-38.698	0.101
299.800	-38.057	0.101
299.900	-38.727	0.101
300.000	-36.388	0.101
300.100	-35.528	0.101
300.200	-32.483	0.101
300.300	-34.013	0.101
300.400	-31.831	0.101
300.500	-34.374	0.101
300.600	-29.044	0.101
300.700	-38.879	0.101
300.800	-33.759	0.101
300.900	-27.933	0.101
301.000	-43.627	0.101
301.100	-32.540	0.101
301.200	-25.848	0.101
301.300	-34.441	0.101
301.400	-35.765	0.101
301.500	-29.175	0.101
301.600	-32.295	0.101
301.700	-32.427	0.101
301.800	-25.271	0.101
301.900	-29.315	0.101
302.000	-36.649	0.101
302.100	-34.641	0.101
302.200	-26.769	0.101
302.300	-35.500	0.101
302.400	-32.381	0.101
302.500	-28.206	0.101
302.600	-35.329	0.101
302.700	-22.912	0.101
302.800	-20.545	0.101
302.900	-21.686	0.101
303.000	-23.623	0.101
303.100	-28.847	0.101
303.200	-24.280	0.101
303.300	-40.873	0.101
303.400	-35.798	0.101
303.500	-34.442	0.101
303.600	-38.742	0.101
303.700	-37.630	0.101
303.800	-28.595	0.101
303.900	-33.765	0.101
304.000	-29.288	0.101
304.100	-36.355	0.101
304.200	-28.626	0.101
304.300	-29.521	0.101
304.400	-37.056	0.101
304.500	-30.322	0.101
304.600	-28.039	0.101
304.700	-36.024	0.101
304.800	-37.726	0.101
304.900	-33.380	0.101
305.000	-26.216	0.101
305.100	-30.605	0.101
305.200	-32.666	0.101
305.300	-41.051	0.101
305.400	-33.435	0.101
305.500	-38.954	0.101
305.600	-30.977	0.101
305.700	-33.914	0.101
305.800	-29.373	0.101
305.900	-36.655	0.101
306.000	-29.586	0.101
306.100	-39.516	0.101
306.200	-41.343	0.101
306.300	-30.747	0.101
306.400	-33.213	0.101
306.500	-37.914	0.101
306.600	-27.238	0.101
306.700	-31.011	0.101
306.800	-34.036	0.101
306.900	-38.234	0.101
307.000	-36.984	0.101
307.100	-31.012	0.101
307.200	-39.308	0.101
307.300	-28.400	0.101
307.400	-34.720	0.101
307.500	-26.519	0.101
307.600	-30.037	0.101
307.700	-39.802	0.101
307.800	-31.153	0.101
307.900	-29.960	0.101
308.000	-31.217	0.101
308.100	-32.506	0.101
308.200	-38.861	0.101
308.300	-41.494	0.101
308.400	-30.098	0.101
308.500	-28.632	0.101
308.600	-36.683	0.101
308.700	-34.282	0.101
308.800	-38.916	0.101
308.900	-28.352	0.101
309.000	-33.961	0.101
309.100	-32.285	0.101
309.200	-32.769	0.101
309.300	-30.463	0.101
309.400	-29.016	0.101
309.500	-39.716	0.101
309.600	-36.444	0.101
309.700	-29.662	0.101
309.800	-31.880	0.101
309.900	-32.079	0.101
310.000	-30.504	0.101
310.100	-34.061	0.101
310.200	-31.217	0.101
310.300	-38.681	0.101
310.400	-33.929	0.101
310.500	-46.782	0.101
310.600	-26.344	0.101
310.700	-27.635	0.101
310.800	-32.761	0.101
310.900	-41.134	0.101
311.000	-31.193	0.101
311.100	-33.908	0.101
311.200	-35.576	0.101
311.300	-26.824	0.101
311.400	-36.965	0.101
311.500	-32.412	0.101
311.600	-31.633	0.101
311.700	-40.678	0.101
311.800	-32.954	0.101
311.900	-30.729	0.101
312.000	-31.597	0.101
312.100	-34.252	0.101
312.200	-38.049	0.101
312.300	-21.931	0.101
312.400	-23.192	0.101
312.500	-26.871	0.101
312.600	-46.600	0.101
312.700	-25.930	0.101
312.800	-23.725	0.101
312.900	-32.051	0.101
313.000	-44.409	0.101
313.100	-30.676	0.101
313.200	-31.411	0.101
313.300	-28.617	0.101
313.400	-46.249	0.101
313.500	-26.772	0.101
313.600	-27.128	0.101
313.700	-33.652	0.101
313.800	-23.787	0.101
313.900	-24.796	0.101
314.000	-32.680	0.101
314.100	-32.541	0.101
314.200	-39.530	0.101
314.300	-38.418	0.101
314.400	-34.549	0.101
314.500	-37.018	0.101
314.600	-29.868	0.101
314.700	-22.716	0.101
314.800	-26.222	0.101
314.900	-36.479	0.101
315.000	-38.037	0.101
315.100	-33.512	0.101
315.200	-38.951	0.101
315.300	-30.140	0.101
315.400	-30.641	0.101
315.500	-32.022	0.101
315.600	-24.191	0.101
315.700	-28.835	0.101
315.800	-38.575	0.101
315.900	-32.510	0.101
316.000	-24.657	0.101
316.100	-36.272	0.101
316.200	-33.534	0.101
316.300	-35.299	0.101
316.400	-34.094	0.101
316.500	-28.644	0.101
316.600	-24.300	0.101
316.700	-29.689	0.101
316.800	-29.210	0.101
316.900	-28.137	0.101
317.000	-22.916	0.101
317.100	-34.866	0.101
317.200	-36.295	0.101
317.300	-31.694	0.101
317.400	-36.799	0.101
317.500	-23.416	0.101
317.600	-31.268	0.101
317.700	-35.088	0.101
317.800	-29.246	0.101
317.900	-23.972	0.101
318.000	-32.442	0.101
318.100	-21.071	0.101
318.200	-33.017	0.101
318.300	-18.729	0.101
318.400	-27.462	0.101
318.500	-35.981	0.101
318.600	-31.336	0.101
318.700	-26.928	0.101
318.800	-38.438	0.101
318.900	-39.042	0.101
319.000	-36.036	0.101
319.100	-24.416	0.101
319.200	-23.570	0.101
319.300	-27.124	0.101
319.400	-28.079	0.101
319.500	-36.956	0.101
319.600	-34.032	0.101
319.700	-28.169	0.101
319.800	-29.826	0.101
319.900	-32.279	0.101
320.000	-31.002	0.101
320.100	-40.022	0.101
320.200	-28.786	0.101
320.300	-25.223	0.101
320.400	-19.379	0.101
320.500	-23.313	0.101
320.600	-23.871	0.101
320.700	-39.615	0.101
320.800	-36.432	0.101
320.900	-38.850	0.101
321.000	-35.239	0.101
321.100	-26.656	0.101
321.200	-40.525	0.101
321.300	-31.319	0.101
321.400	-42.214	0.101
321.500	-28.000	0.101
321.600	-27.164	0.101
321.700	-31.247	0.101
321.800	-30.187	0.101
321.900	-28.410	0.101
322.000	-36.435	0.101
322.100	-30.192	0.101
322.200	-34.545	0.101
322.300	-20.271	0.101
322.400	-27.137	0.101
322.500	-27.978	0.101
322.600	-33.792	0.101
322.700	-29.834	0.101
322.800	-23.129	0.101
322.900	-26.561	0.101
323.000	-33.921	0.101
323.100	-24.717	0.101
323.200	-29.563	0.101
323.300	-25.705	0.101
323.400	-31.996	0.101
323.500	-33.810	0.101
323.600	-38.007	0.101
323.700	-26.940	0.101
323.800	-21.566	0.101
323.900	-28.172	0.101
324.000	-34.786	0.101
324.100	-34.994	0.101
324.200	-38.059	0.101
324.300	-32.642	0.101
324.400	-34.314	0.101
324.500	-27.952	0.101
324.600	-27.298	0.101
324.700	-35.037	0.101
324.800	-23.266	0.101
324.900	-38.472	0.101
325.000	-30.863	0.101
325.100	-20.855	0.101
325.200	-28.622	0.101
325.300	-27.548	0.101
325.400	-26.867	0.101
325.500	-28.614	0.101
325.600	-30.782	0.101
325.700	-32.253	0.101
325.800	-32.150	0.101
325.900	-29.103	0.101
326.000	-30.546	0.101
326.100	-39.448	0.101
326.200	-34.298	0.101
326.300	-43.344	0.101
326.400	-26.741	0.101
326.500	-35.360	0.101
326.600	-33.172	0.101
326.700	-35.148	0.101
326.800	-18.952	0.101
326.900	-28.881	0.101
327.000	-27.173	0.101
327.100	-29.074	0.101
327.200	-35.787	0.101
327.300	-32.495	0.101
327.400	-25.515	0.101
327.500	-29.888	0.101
327.600	-28.866	0.101
327.700	-23.436	0.101
327.800	-30.279	0.101
327.900	-26.759	0.101
328.000	-23.643	0.101
328.100	-36.007	0.101
328.200	-40.876	0.101
328.300	-38.043	0.101
328.400	-37.120	0.101
328.500	-33.352	0.101
328.600	-23.466	0.101
328.700	-33.641	0.101
328.800	-31.933	0.101
328.900	-36.536	0.101
329.000	-23.121	0.101
329.100	-17.856	0.101
329.200	-17.206	0.101
329.300	-24.480	0.101
329.400	-38.430	0.101
329.500	-35.632	0.101
329.600	-32.530	0.101
329.700	-26.413	0.101
329.800	-35.634	0.101
329.900	-19.279	0.101
330.000	-28.155	0.101
330.100	-28.930	0.101
330.200	-21.123	0.101
330.300	-28.336	0.101
330.400	-31.773	0.101
330.500	-24.190	0.101
330.600	-18.072	0.101
330.700	-16.861	0.101
330.800	-24.616	0.101
330.900	-28.212	0.101
331.000	-20.123	0.101
331.100	-13.323	0.101
331.200	-15.280	0.101
331.300	-13.011	0.101
331.400	-14.039	0.101
331.500	-9.155	0.101
331.600	-8.234	0.101
331.700	-10.441	0.101
331.800	-12.239	0.101
331.900	-1.210	0.101
332.000	-2.287	0.101
332.100	3.221	0.101
332.200	-6.166	0.101
332.300	11.312	0.101
332.400	-7.484	0.101
332.500	-1.072	0.101
332.600	8.334	0.101
332.700	-1.903	0.101
332.800	11.055	0.101
332.900	1.015	0.101
333.000	-1.040	0.101
333.100	-3.854	0.101
333.200	-0.137	0.101
333.300	1.162	0.101
333.400	-0.236	0.101
333.500	2.862	0.101
333.600	-0.431	0.101
333.700	10.944	0.101
333.800	5.968	0.101
333.900	3.134	0.101
334.000	21.958	0.101
334.100	10.782	0.101
334.200	-2.578	0.101
334.300	1.306	0.101
334.400	2.588	0.101
334.500	1.570	0.101
334.600	3.725	0.101
334.700	4.735	0.100
334.800	6.046	0.100
334.900	6.757	0.100
335.000	0.167	0.100
335.100	6.743	0.100
335.200	10.548	0.100
335.300	0.691	0.100
335.400	5.743	0.100
335.500	5.964	0.100
335.600	9.025	0.100
335.700	4.274	0.100
335.800	16.128	0.100
335.900	5.823	0.100
336.000	11.225	0.100
336.100	10.245	0.100
336.200	0.188	0.100
336.300	10.559	0.100
336.400	8.036	0.100
336.500	4.295	0.100
336.600	-2.283	0.100
336.700	0.863	0.100
336.800	0.793	0.100
336.900	16.382	0.100
337.000	7.008	0.100
337.100	12.291	0.100
337.200	14.861	0.100
337.300	-2.454	0.100
337.400	10.516	0.100
337.500	8.594	0.100
337.600	6.791	0.100
337.700	2.037	0.100
337.800	4.227	0.100
337.900	5.247	0.100
338.000	7.358	0.100
338.100	4.601	0.100
338.200	10.498	0.100
338.300	15.188	0.100
338.400	7.336	0.100
338.500	1.957	0.100
338.600	-0.572	0.100
338.700	-0.395	0.100
338.800	15.402	0.100
338.900	10.899	0.100
339.000	9.979	0.100
339.100	13.509	0.100
339.200	2.099	0.100
339.300	13.499	0.100
339.400	7.283	0.100
339.500	12.978	0.100
339.600	3.212	0.100
339.700	11.669	0.100
339.800	15.030	0.100
339.900	9.844	0.100
340.000	9.059	0.100
340.100	14.007	0.100
340.200	3.549	0.100
340.300	8.629	0.100
340.400	10.548	0.100
340.500	9.228	0.100
340.600	14.207	0.100
340.700	8.609	0.100
340.800	16.151	0.100
340.900	10.442	0.100
341.000	13.745	0.100
341.100	13.601	0.100
341.200	1.146	0.100
341.300	15.050	0.100
341.400	17.702	0.100
341.500	19.663	0.100
341.600	19.079	0.100
341.700	28.386	0.100
341.800	13.326	0.100
341.900	0.030	0.100
342.000	11.821	0.100
342.100	5.661	0.100
342.200	11.783	0.100
342.300	17.690	0.100
342.400	12.445	0.100
342.500	17.251	0.100
342.600	11.479	0.100
342.700	17.442	0.100
342.800	15.894	0.100
342.900	5.322	0.100
343.000	15.125	0.100
343.100	14.969	0.100
343.200	12.497	0.100
343.300	24.952	0.100
343.400	19.968	0.100
343.500	17.237	0.100
343.600	16.687	0.100
343.700	3.863	0.100
343.800	27.591	0.100
343.900	20.474	0.100
344.000	15.652	0.100
344.100	22.541	0.100
344.200	15.597	0.100
344.300	16.369	0.100
344.400	17.531	0.100
344.500	18.706	0.100
344.600	19.425	0.100
344.700	20.189	0.100
344.800	25.672	0.100
344.900	22.187	0.100
345.000	18.810	0.100
345.100	19.142	0.100
345.200	26.772	0.100
345.300	23.216	0.100
345.400	21.399	0.100
345.500	25.784	0.100
345.600	14.516	0.100
345.700	25.593	0.100
345.800	41.751	0.100
345.900	29.102	0.100
346.000	26.348	0.100
346.100	21.701	0.100
346.200	26.483	0.100
346.300	25.708	0.100
346.400	24.003	0.100
346.500	20.401	0.100
346.600	34.741	0.100
346.700	31.275	0.100
346.800	30.375	0.100
346.900	26.812	0.100
347.000	23.471	0.100
347.100	29.947	0.100
347.200	38.342	0.100
347.300	22.655	0.100
347.400	28.834	0.100
347.500	25.551	0.100
347.600	31.467	0.100
347.700	48.374	0.100
347.800	38.667	0.100
347.900	37.814	0.100
348.000	30.681	0.100
348.100	37.738	0.100
348.200	27.894	0.100
348.300	23.253	0.100
348.400	40.946	0.100
348.500	34.230	0.100
348.600	38.495	0.100
348.700	36.470	0.100
348.800	30.375	0.100
348.900	34.175	0.100
349.000	34.489	0.100
349.100	42.767	0.100
349.200	39.500	0.100
349.300	33.341	0.100
349.400	43.996	0.100
349.500	30.803	0.100
349.600	35.598	0.100
349.700	50.275	0.100
349.800	40.841	0.100
349.900	43.252	0.100
350.000	41.302	0.100
350.100	38.215	0.100
350.200	40.476	0.100
350.300	41.621	0.100
350.400	48.379	0.100
350.500	37.520	0.100
350.600	46.684	0.100
350.700	36.809	0.100
350.800	39.261	0.100
350.900	41.473	0.100
351.000	38.666	0.100
351.100	39.833	0.100
351.200	54.993	0.100
351.300	53.400	0.100
351.400	45.745	0.100
351.500	42.175	0.100
351.600	55.388	0.100
351.700	47.872	0.100
351.800	40.022	0.100
351.900	40.228	0.100
352.000	54.880	0.100
352.100	45.915	0.100
352.200	44.354	0.100
352.300	36.727	0.100
352.400	43.686	0.100
352.500	56.308	0.100
352.600	46.624	0.100
352.700	55.949	0.100
352.800	44.572	0.100
352.900	29.643	0.100
353.000	41.599	0.100
353.100	47.483	0.100
353.200	52.373	0.100
353.300	58.314	0.100
353.400	52.688	0.100
353.500	48.609	0.100
353.600	43.111	0.100
353.700	38.456	0.100
353.800	47.448	0.100
353.900	43.058	0.100
354.000	46.039	0.100
354.100	49.046	0.100
354.200	46.323	0.100
354.300	43.624	0.100
354.400	41.658	0.100
354.500	49.293	0.100
354.600	55.323	0.100
354.700	57.345	0.100
354.800	53.409	0.100
354.900	55.887	0.100
355.000	60.954	0.100
355.100	58.078	0.100
355.200	40.189	0.100
355.300	40.395	0.100
355.400	53.361	0.100
355.500	55.470	0.100
355.600	42.419	0.100
355.700	48.830	0.100
355.800	47.725	0.100
355.900	54.543	0.100
356.000	52.617	0.100
356.100	57.565	0.100
356.200	51.587	0.100
356.300	45.999	0.100
356.400	54.628	0.100
356.500	57.980	0.100
356.600	47.910	0.100
356.700	52.123	0.100
356.800	48.731	0.100
356.900	46.853	0.100
357.000	48.544	0.100
357.100	47.670	0.100
357.200	52.308	0.100
357.300	48.879	0.100
357.400	44.135	0.100
357.500	43.317	0.100
357.600	53.161	0.100
357.700	47.912	0.100
357.800	55.598	0.100
357.900	46.570	0.100
358.000	50.998	0.100
358.100	50.119	0.100
358.200	57.259	0.100
358.300	62.371	0.100
358.400	59.505	0.100
358.500	57.113	0.100
358.600	36.902	0.100
358.700	43.733	0.100
358.800	53.607	0.100
358.900	52.088	0.100
359.000	49.094	0.100
359.100	52.740	0.100
359.200	54.361	0.100
359.300	56.599	0.100
359.400	40.579	0.100
359.500	56.149	0.100
359.600	49.454	0.100
359.700	48.352	0.100
359.800	54.088	0.100
359.900	47.597	0.100
360.000	50.359	0.100
360.100	44.036	0.100
360.200	55.440	0.100
360.300	50.740	0.100
360.400	57.479	0.100
360.500	53.120	0.100
360.600	54.560	0.100
360.700	54.485	0.100
360.800	53.026	0.100
360.900	66.807	0.100
361.000	53.467	0.100
361.100	53.632	0.100
361.200	54.547	0.100
361.300	42.631	0.100
361.400	59.546	0.100
361.500	56.631	0.100
361.600	47.614	0.100
361.700	55.815	0.100
361.800	50.031	0.100
361.900	59.124	0.100
362.000	62.037	0.100
362.100	47.629	0.100
362.200	61.354	0.100
362.300	40.317	0.100
362.400	54.165	0.100
362.500	51.084	0.100
362.600	45.123	0.100
362.700	43.708	0.100
362.800	66.067	0.100
362.900	58.143	0.100
363.000	46.612	0.100
363.100	59.699	0.100
363.200	48.420	0.100
363.300	47.103	0.100
363.400	62.515	0.100
363.500	52.105	0.100
363.600	49.690	0.100
363.700	47.447	0.100
363.800	53.204	0.100
363.900	52.285	0.100
364.000	55.549	0.100
364.100	47.928	0.100
364.200	48.047	0.100
364.300	40.338	0.100
364.400	52.835	0.100
364.500	51.989	0.100
364.600	55.164	0.100
364.700	55.089	0.100
364.800	51.026	0.100
364.900	47.232	0.100
365.000	56.504	0.100
365.100	54.911	0.100
365.200	50.484	0.100
365.300	53.808	0.100
365.400	54.254	0.100
365.500	53.486	0.100
365.600	54.389	0.100
365.700	53.797	0.100
365.800	56.820	0.100
365.900	60.752	0.100
366.000	57.849	0.100
366.100	54.648	0.100
366.200	46.620	0.100
366.300	52.409	0.100
366.400	52.049	0.100
366.500	55.109	0.100
366.600	54.833	0.100
366.700	53.730	0.100
366.800	56.573	0.100
366.900	50.295	0.100
367.000	56.344	0.100
367.100	51.201	0.100
367.200	55.685	0.100
367.300	51.747	0.100
367.400	51.441	0.100
367.500	55.460	0.100
367.600	58.935	0.100
367.700	52.143	0.100
367.800	50.675	0.100
367.900	50.656	0.100
368.000	51.082	0.100
368.100	42.419	0.100
368.200	46.288	0.100
368.300	53.297	0.100
368.400	60.698	0.100
368.500	53.772	0.100
368.600	49.962	0.100
368.700	50.226	0.100
368.800	46.818	0.100
368.900	58.103	0.100
369.000	57.140	0.100
369.100	56.187	0.100
369.200	60.750	0.100
369.300	54.483	0.100
369.400	54.320	0.100
369.500	56.914	0.100
369.600	51.805	0.100
369.700	52.284	0.100
369.800	56.640	0.100
369.900	56.750	0.100
370.000	52.333	0.100
370.100	53.058	0.100
370.200	51.241	0.100
370.300	55.856	0.100
370.400	47.646	0.100
370.500	59.876	0.100
370.600	51.383	0.100
370.700	53.672	0.100
370.800	51.769	0.100
370.900	54.833	0.100
371.000	37.304	0.100
371.100	55.010	0.100
371.200	43.006	0.100
371.300	51.536	0.100
371.400	56.323	0.100
371.500	48.349	0.100
371.600	43.899	0.100
371.700	50.643	0.100
371.800	49.835	0.100
371.900	54.298	0.100
372.000	56.155	0.100
372.100	57.698	0.100
372.200	52.214	0.100
372.300	59.729	0.100
372.400	54.791	0.100
372.500	62.023	0.100
372.600	58.886	0.100
372.700	53.295	0.100
372.800	50.240	0.100
372.900	51.205	0.100
373.000	55.673	0.100
373.100	60.991	0.100
373.200	62.052	0.100
373.300	40.462	0.100
373.400	42.484	0.100
373.500	50.532	0.100
373.600	60.043	0.100
373.700	54.721	0.100
373.800	52.229	0.100
373.900	41.799	0.100
374.000	52.366	0.100
374.100	52.848	0.100
374.200	56.051	0.100
374.300	48.058	0.100
374.400	49.484	0.100
374.500	44.265	0.100
374.600	53.848	0.100
374.700	48.718	0.100
374.800	48.224	0.100
374.900	51.425	0.100
375.000	48.712	0.100
375.100	51.015	0.100
375.200	51.368	0.100
375.300	41.325	0.100
375.400	43.626	0.100
375.500	61.602	0.100
375.600	50.448	0.100
375.700	53.282	0.100
375.800	54.633	0.100
375.900	54.261	0.100
376.000	49.850	0.100
376.100	55.524	0.100
376.200	49.590	0.100
376.300	57.982	0.100
376.400	50.309	0.100
376.500	53.719	0.100
376.600	51.996	0.100
376.700	60.226	0.100
376.800	49.422	0.100
376.900	51.038	0.100
377.000	50.021	0.100
377.100	53.293	0.100
377.200	48.490	0.100
377.300	54.233	0.100
377.400	52.272	0.100
377.500	54.474	0.100
377.600	44.288	0.100
377.700	51.415	0.100
377.800	60.913	0.100
377.900	58.082	0.100
378.000	49.963	0.100
378.100	41.764	0.100
378.200	54.942	0.100
378.300	54.122	0.100
378.400	48.352	0.100
378.500	58.979	0.100
378.600	46.337	0.100
378.700	51.551	0.100
378.800	53.135	0.100
378.900	42.924	0.100
379.000	35.855	0.100
379.100	47.530	0.100
379.200	49.372	0.100
379.300	52.915	0.100
379.400	48.945	0.100
379.500	62.847	0.100
379.600	52.418	0.100
379.700	53.206	0.100
379.800	55.150	0.100
379.900	48.736	0.100
380.000	44.459	0.100
380.100	55.412	0.100
380.200	61.690	0.100
380.300	59.015	0.100
380.400	48.513	0.100
380.500	44.620	0.100
380.600	55.123	0.100
380.700	52.980	0.100
380.800	53.527	0.100
380.900	51.264	0.100
381.000	45.038	0.100
381.100	50.585	0.100
381.200	46.043	0.100
381.300	46.766	0.100
381.400	65.113	0.100
381.500	56.161	0.100
381.600	48.079	0.100
381.700	53.618	0.100
381.800	49.089	0.100
381.900	45.530	0.100
382.000	44.423	0.100
382.100	52.728	0.100
382.200	56.007	0.100
382.300	56.938	0.100
382.400	48.211	0.100
382.500	55.015	0.100
382.600	48.546	0.100
382.700	47.173	0.100
382.800	51.620	0.100
382.900	47.846	0.100
383.000	51.214	0.100
383.100	57.469	0.100
383.200	54.125	0.100
383.300	52.716	0.100
383.400	50.371	0.100
383.500	53.858	0.100
383.600	54.627	0.100
383.700	54.312	0.100
383.800	52.038	0.100
383.900	54.091	0.100
384.000	55.674	0.100
384.100	45.740	0.100
384.200	53.650	0.100
384.300	50.038	0.100
384.400	57.880	0.100
384.500	46.896	0.100
384.600	47.782	0.100
384.700	44.780	0.100
384.800	51.800	0.100
384.900	52.256	0.100
385.000	53.096	0.100
385.100	53.823	0.100
385.200	47.175	0.100
385.300	42.216	0.100
385.400	51.130	0.100
385.500	50.422	0.100
385.600	49.987	0.100
385.700	56.241	0.100
385.800	54.396	0.100
385.900	60.593	0.100
386.000	52.944	0.100
386.100	53.276	0.100
386.200	45.115	0.100
386.300	55.862	0.100
386.400	51.579	0.100
386.500	54.562	0.100
386.600	45.558	0.100
386.700	53.886	0.100
386.800	48.695	0.100
386.900	46.635	0.100
387.000	46.622	0.100
387.100	42.614	0.100
387.200	49.934	0.100
387.300	62.621	0.100
387.400	62.213	0.100
387.500	55.367	0.100
387.600	52.141	0.100
387.700	55.019	0.100
387.800	47.283	0.100
387.900	46.715	0.100
388.000	56.697	0.100
388.100	47.723	0.100
388.200	45.222	0.100
388.300	52.229	0.100
388.400	53.673	0.100
388.500	48.835	0.100
388.600	46.834	0.100
388.700	57.983	0.100
388.800	52.497	0.100
388.900	65.068	0.100
389.000	48.513	0.100
389.100	50.611	0.100
389.200	43.009	0.100
389.300	56.979	0.100
389.400	58.743	0.100
389.500	46.297	0.100
389.600	41.626	0.100
389.700	40.929	0.100
389.800	53.133	0.100
389.900	54.881	0.100
390.000	56.935	0.100
390.100	54.426	0.100
390.200	54.284	0.100
390.300	49.566	0.100
390.400	45.810	0.100
390.500	48.141	0.100
390.600	41.881	0.100
390.700	37.401	0.100
390.800	36.986	0.100
390.900	34.650	0.100
391.000	35.720	0.100
391.100	42.309	0.100
391.200	32.814	0.100
391.300	18.062	0.100
391.400	30.733	0.100
391.500	24.909	0.100
391.600	15.729	0.100
391.700	11.639	0.100
391.800	21.283	0.100
391.900	14.383	0.100
392.000	12.384	0.100
392.100	9.617	0.100
392.200	13.208	0.100
392.300	13.138	0.100
392.400	8.746	0.100
392.500	4.217	0.100
392.600	3.958	0.100
392.700	3.549	0.100
392.800	18.017	0.100
392.900	11.204	0.100
393.000	-0.115	0.100
393.100	-5.899	0.100
393.200	4.025	0.100
393.300	8.746	0.100
393.400	6.328	0.100
393.500	2.344	0.100
393.600	-3.110	0.100
393.700	-3.513	0.100
393.800	7.847	0.100
393.900	6.556	0.100
394.000	6.642	0.100
394.100	7.266	0.100
394.200	-1.301	0.100
394.300	12.973	0.100
394.400	-1.704	0.100
394.500	-6.124	0.100
394.600	-3.348	0.100
394.700	0.684	0.100
394.800	-1.073	0.100
394.900	8.107	0.100
395.000	-5.134	0.100
395.100	1.277	0.100
395.200	7.087	0.100
395.300	-8.813	0.100
395.400	-5.450	0.100
395.500	1.624	0.100
395.600	6.557	0.100
395.700	-3.865	0.100
395.800	-5.315	0.100
395.900	-7.444	0.100
396.000	-0.497	0.100
396.100	3.874	0.100
396.200	-5.530	0.100
396.300	-6.119	0.100
396.400	-4.349	0.100
396.500	5.685	0.100
396.600	-2.576	0.100
396.700	-10.934	0.100
396.800	3.623	0.100
396.900	3.527	0.100
397.000	-7.688	0.100
397.100	-8.427	0.100
397.200	-9.020	0.100
397.300	-7.988	0.100
397.400	-2.366	0.100
397.500	-0.387	0.100
397.600	1.753	0.100
397.700	-0.965	0.100
397.800	-6.648	0.100
397.900	-3.184	0.100
398.000	-8.804	0.100
398.100	-12.122	0.100
398.200	-19.452	0.100
398.300	-4.305	0.100
398.400	-10.297	0.100
398.500	-2.087	0.100
398.600	-0.190	0.100
398.700	1.231	0.100
398.800	-3.107	0.100
398.900	2.198	0.100
399.000	-12.237	0.100
399.100	-9.028	0.100
399.200	-7.042	0.100
399.300	-12.256	0.100
399.400	-8.988	0.100
399.500	-13.768	0.100
399.600	0.610	0.100
399.700	-8.017	0.100
399.800	-6.774	0.100
399.900	4.307	0.100
400.000	-15.411	0.100
400.100	-13.968	0.100
400.200	-15.770	0.100
400.300	-10.512	0.100
400.400	-7.649	0.100
400.500	0.439	0.100
400.600	-5.276	0.100
400.700	-16.745	0.100
400.800	-11.333	0.100
400.900	-9.089	0.100
401.000	-11.093	0.100
401.100	-3.035	0.100
401.200	-11.778	0.100
401.300	-8.997	0.100
401.400	-2.601	0.100
401.500	-11.275	0.100
401.600	-18.930	0.100
401.700	-9.268	0.100
401.800	-2.129	0.100
401.900	-11.782	0.100
402.000	-19.945	0.100
402.100	-22.997	0.100
402.200	-18.403	0.100
402.300	-8.124	0.100
402.400	-11.055	0.100
402.500	-2.789	0.100
402.600	-4.741	0.100
402.700	-10.483	0.100
402.800	-15.617	0.100
402.900	-19.853	0.100
403.000	-14.396	0.100
403.100	-17.331	0.100
403.200	-11.518	0.100
403.300	-18.869	0.100
403.400	-13.978	0.100
403.500	-4.683	0.100
403.600	-7.069	0.100
403.700	-8.220	0.100
403.800	-17.780	0.100
403.900	-8.095	0.100
404.000	-16.098	0.100
404.100	-14.759	0.100
404.200	-13.245	0.100
404.300	-11.549	0.100
404.400	-14.365	0.100
404.500	-19.883	0.100
404.600	-5.313	0.100
404.700	-14.203	0.100
404.800	-24.290	0.100
404.900	-18.055	0.100
405.000	-20.265	0.100
405.100	-11.884	0.100
405.200	-11.034	0.100
405.300	-6.125	0.100
405.400	-14.497	0.100
405.500	-14.506	0.100
405.600	-19.321	0.100
405.700	-31.427	0.100
405.800	-17.598	0.100
405.900	-14.755	0.100
406.000	-14.592	0.100
406.100	-16.977	0.100
406.200	-20.501	0.100
406.300	-17.431	0.100
406.400	-22.001	0.100
406.500	-16.870	0.100
406.600	-20.255	0.100
406.700	-11.174	0.100
406.800	-11.594	0.100
406.900	-13.319	0.100
407.000	-16.423	0.100
407.100	-22.640	0.100
407.200	-22.303	0.100
407.300	-11.146	0.100
407.400	-9.025	0.100
407.500	-18.620	0.100
407.600	-15.123	0.100
407.700	-10.651	0.100
407.800	-15.793	0.100
407.900	-15.833	0.100
408.000	-29.449	0.100
408.100	-21.704	0.100
408.200	-15.483	0.100
408.300	-4.827	0.100
408.400	-24.324	0.100
408.500	-20.198	0.100
408.600	-24.159	0.100
408.700	-25.772	0.100
408.800	-19.716	0.100
408.900	-23.141	0.100
409.000	-28.358	0.100
409.100	-19.786	0.100
409.200	-24.952	0.100
409.300	-18.545	0.100
409.400	-28.161	0.100
409.500	-12.270	0.100
409.600	-18.947	0.100
409.700	-21.933	0.100
409.800	-11.749	0.100
409.900	-29.556	0.100
410.000	-18.493	0.100
410.100	-26.329	0.100
410.200	-20.947	0.100
410.300	-14.667	0.100
410.400	-16.763	0.100
410.500	-14.062	0.100
410.600	-20.058	0.100
410.700	-17.929	0.100
410.800	-17.562	0.100
410.900	-19.134	0.100
411.000	-26.013	0.100
411.100	-10.415	0.100
411.200	-15.679	0.100
411.300	-24.412	0.100
411.400	-20.008	0.100
411.500	-26.887	0.100
411.600	-16.844	0.100
411.700	-16.292	0.100
411.800	-19.406	0.100
411.900	-26.680	0.100
412.000	-13.807	0.100
412.100	-18.202	0.100
412.200	-22.106	0.100
412.300	-25.659	0.100
412.400	-26.972	0.100
412.500	-25.167	0.100
412.600	-27.088	0.100
412.700	-32.035	0.100
412.800	-29.660	0.100
412.900	-20.853	0.100
413.000	-36.038	0.100
413.100	-20.191	0.100
413.200	-22.181	0.100
413.300	-25.180	0.100
413.400	-13.878	0.100
413.500	-18.860	0.100
413.600	-27.406	0.100
413.700	-22.697	0.100
413.800	-23.672	0.100
413.900	-28.175	0.100
414.000	-20.357	0.100
414.100	-30.739	0.100
414.200	-32.391	0.100
414.300	-27.281	0.100
414.400	-24.241	0.100
414.500	-22.299	0.100
414.600	-22.902	0.100
414.700	-24.219	0.100
414.800	-28.057	0.100
414.900	-27.331	0.100
415.000	-17.465	0.100
415.100	-26.995	0.100
415.200	-25.912	0.100
415.300	-22.083	0.100
415.400	-25.598	0.100
415.500	-26.716	0.100
415.600	-29.887	0.100
415.700	-28.013	0.100
415.800	-25.687	0.100
415.900	-21.952	0.100
416.000	-32.030	0.100
416.100	-30.855	0.100
416.200	-27.530	0.100
416.300	-24.104	0.100
416.400	-27.471	0.100
416.500	-29.119	0.100
416.600	-32.893	0.100
416.700	-22.089	0.100
416.800	-25.983	0.100
416.900	-32.283	0.100
417.000	-25.709	0.100
417.100	-35.216	0.100
417.200	-22.880	0.100
417.300	-25.523	0.100
417.400	-21.432	0.100
417.500	-31.951	0.100
417.600	-26.131	0.100
417.700	-28.635	0.100
417.800	-24.020	0.100
417.900	-27.190	0.100
418.000	-30.110	0.100
418.100	-29.929	0.100
418.200	-27.632	0.100
418.300	-25.634	0.100
418.400	-19.468	0.100
418.500	-37.759	0.100
418.600	-35.500	0.100
418.700	-27.971	0.100
418.800	-26.853	0.100
418.900	-25.741	0.100
419.000	-26.057	0.100
419.100	-31.990	0.100
419.200	-26.523	0.100
419.300	-33.737	0.100
419.400	-33.902	0.100
419.500	-35.811	0.100
419.600	-35.836	0.100
419.700	-21.457	0.100
419.800	-26.938	0.100
419.900	-21.731	0.100
420.000	-32.570	0.100
420.100	-34.525	0.100
420.200	-29.090	0.100
420.300	-38.622	0.100
420.400	-34.582	0.100
420.500	-30.392	0.100
420.600	-33.055	0.100
420.700	-22.650	0.100
420.800	-22.401	0.100
420.900	-30.518	0.100
421.000	-41.157	0.100
421.100	-16.565	0.100
421.200	-29.496	0.100
421.300	-38.092	0.100
421.400	-42.761	0.100
421.500	-32.738	0.100
421.600	-36.649	0.100
421.700	-35.006	0.100
421.800	-28.379	0.100
421.900	-32.621	0.100
422.000	-40.142	0.100
422.100	-31.296	0.100
422.200	-19.705	0.100
422.300	-23.388	0.100
422.400	-32.317	0.100
422.500	-43.246	0.100
422.600	-38.560	0.100
422.700	-37.673	0.100
422.800	-31.662	0.100
422.900	-33.556	0.100
423.000	-30.180	0.100
423.100	-39.716	0.100
423.200	-30.751	0.100
423.300	-36.765	0.100
423.400	-33.784	0.100
423.500	-25.961	0.100
423.600	-31.266	0.100
423.700	-43.766	0.100
423.800	-39.257	0.100
423.900	-39.909	0.100
424.000	-19.524	0.100
424.100	-37.841	0.100
424.200	-36.479	0.100
424.300	-40.732	0.100
424.400	-29.243	0.100
424.500	-36.404	0.100
424.600	-37.986	0.100
424.700	-37.414	0.100
424.800	-39.890	0.100
424.900	-31.476	0.100
425.000	-38.149	0.100
425.100	-43.624	0.100
425.200	-36.985	0.100
425.300	-30.294	0.100
425.400	-35.498	0.100
425.500	-29.144	0.100
425.600	-27.984	0.100
425.700	-30.246	0.100
425.800	-39.557	0.100
425.900	-34.974	0.100
426.000	-28.175	0.100
426.100	-33.954	0.100
426.200	-35.879	0.100
426.300	-34.642	0.100
426.400	-41.886	0.100
426.500	-37.369	0.100
426.600	-35.702	0.100
426.700	-32.130	0.100
426.800	-29.288	0.100
426.900	-37.108	0.100
427.000	-29.516	0.100
427.100	-36.797	0.100
427.200	-46.363	0.100
427.300	-36.211	0.100
427.400	-34.278	0.100
427.500	-37.218	0.100
427.600	-38.447	0.100
427.700	-35.999	0.100
427.800	-31.740	0.100
427.900	-28.208	0.100
428.000	-37.345	0.100
428.100	-37.675	0.100
428.200	-34.033	0.100
428.300	-41.808	0.100
428.400	-42.059	0.100
428.500	-31.780	0.100
428.600	-33.418	0.100
428.700	-36.660	0.100
428.800	-36.176	0.100
428.900	-39.696	0.100
429.000	-36.258	0.100
429.100	-42.706	0.100
429.200	-37.979	0.100
429.300	-41.751	0.100
429.400	-34.710	0.100
429.500	-40.349	0.100
429.600	-35.468	0.100
429.700	-42.647	0.100
429.800	-36.184	0.100
429.900	-27.209	0.100
430.000	-37.326	0.100
430.100	-35.200	0.100
430.200	-34.396	0.100
430.300	-35.018	0.100
430.400	-34.331	0.100
430.500	-32.880	0.100
430.600	-46.275	0.100
430.700	-35.796	0.100
430.800	-41.978	0.100
430.900	-48.477	0.100
431.000	-28.202	0.100
431.100	-29.367	0.100
431.200	-36.649	0.100
431.300	-35.584	0.100
431.400	-45.919	0.100
431.500	-46.833	0.100
431.600	-33.489	0.100
431.700	-38.025	0.100
431.800	-35.082	0.100
431.900	-36.978	0.100
432.000	-25.408	0.100
432.100	-30.841	0.100
432.200	-39.719	0.100
432.300	-37.700	0.100
432.400	-32.396	0.100
432.500	-39.273	0.100
432.600	-40.425	0.100
432.700	-34.421	0.100
432.800	-38.161	0.100
432.900	-36.252	0.100
433.000	-38.069	0.100
433.100	-34.663	0.100
433.200	-41.515	0.100
433.300	-43.058	0.100
433.400	-42.111	0.100
433.500	-32.320	0.100
433.600	-33.330	0.100
433.700	-33.189	0.100
433.800	-38.768	0.100
433.900	-43.086	0.100
434.000	-44.739	0.100
434.100	-37.759	0.100
434.200	-40.153	0.100
434.300	-42.720	0.100
434.400	-50.417	0.100
434.500	-40.001	0.100
434.600	-28.096	0.100
434.700	-31.372	0.100
434.800	-29.290	0.100
434.900	-36.260	0.100
435.000	-38.512	0.100
435.100	-31.627	0.100
435.200	-40.182	0.100
435.300	-33.725	0.100
435.400	-28.673	0.100
435.500	-31.466	0.100
435.600	-47.346	0.100
435.700	-46.730	0.100
435.800	-41.836	0.100
435.900	-31.179	0.100
436.000	-33.275	0.100
436.100	-43.788	0.100
436.200	-29.731	0.100
436.300	-43.371	0.100
436.400	-44.283	0.100
436.500	-32.758	0.100
436.600	-23.748	0.100
436.700	-37.503	0.100
436.800	-36.845	0.100
436.900	-42.090	0.100
437.000	-46.539	0.100
437.100	-39.270	0.100
437.200	-45.255	0.100
437.300	-40.837	0.100
437.400	-35.529	0.100
437.500	-38.030	0.100
437.600	-27.011	0.100
437.700	-24.934	0.100
437.800	-40.548	0.100
437.900	-44.606	0.100
438.000	-47.272	0.100
438.100	-30.868	0.100
438.200	-40.368	0.100
438.300	-51.203	0.100
438.400	-38.476	0.100
438.500	-26.865	0.100
438.600	-32.738	0.100
438.700	-42.226	0.100
438.800	-33.945	0.100
438.900	-43.859	0.100
439.000	-38.142	0.100
439.100	-38.187	0.100
439.200	-35.405	0.100
439.300	-34.850	0.100
439.400	-41.562	0.100
439.500	-42.002	0.100
439.600	-35.809	0.100
439.700	-37.800	0.100
439.800	-43.977	0.100
439.900	-28.006	0.100
440.000	-26.418	0.100
440.100	-49.286	0.100
440.200	-42.852	0.100
440.300	-37.914	0.100
440.400	-24.098	0.100
440.500	-31.064	0.100
440.600	-36.986	0.100
440.700	-34.168	0.100
440.800	-36.776	0.100
440.900	-38.297	0.100
441.000	-22.061	0.100
441.100	-30.173	0.100
441.200	-33.030	0.100
441.300	-45.657	0.100
441.400	-41.444	0.100
441.500	-38.241	0.100
441.600	-43.795	0.100
441.700	-41.506	0.100
441.800	-36.085	0.100
441.900	-44.573	0.100
442.000	-41.322	0.100
442.100	-38.943	0.100
442.200	-32.270	0.100
442.300	-37.893	0.100
442.400	-36.991	0.100
442.500	-43.321	0.100
442.600	-37.379	0.100
442.700	-30.273	0.100
442.800	-26.764	0.100
442.900	-29.939	0.100
443.000	-38.103	0.100
443.100	-38.536	0.100
443.200	-36.385	0.100
443.300	-39.494	0.100
443.400	-38.812	0.100
443.500	-37.029	0.100
443.600	-57.245	0.100
443.700	-29.912	0.100
443.800	-44.025	0.100
443.900	-46.347	0.100
444.000	-45.885	0.100
444.100	-40.661	0.100
444.200	-36.987	0.100
444.300	-30.013	0.100
444.400	-34.931	0.100
444.500	-42.661	0.100
444.600	-36.246	0.100
444.700	-37.686	0.100
444.800	-35.309	0.100
444.900	-41.831	0.100
445.000	-39.560	0.100
445.100	-40.958	0.100
445.200	-40.278	0.100
445.300	-39.470	0.100
445.400	-30.576	0.100
445.500	-41.465	0.100
445.600	-45.101	0.100
445.700	-32.156	0.100
445.800	-35.937	0.100
445.900	-34.778	0.100
446.000	-24.037	0.100
446.100	-33.592	0.100
446.200	-40.586	0.100
446.300	-38.076	0.100
446.400	-37.482	0.100
446.500	-33.791	0.100
446.600	-35.655	0.100
446.700	-30.707	0.100
446.800	-38.434	0.100
446.900	-37.121	0.100
447.000	-37.633	0.100
447.100	-26.214	0.100
447.200	-31.044	0.100
447.300	-28.245	0.100
447.400	-26.179	0.100
447.500	-41.153	0.100
447.600	-29.869	0.100
447.700	-37.714	0.100
447.800	-42.099	0.100
447.900	-29.996	0.100
448.000	-27.676	0.100
448.100	-41.930	0.100
448.200	-52.429	0.100
448.300	-34.253	0.100
448.400	-37.554	0.100
448.500	-30.181	0.100
448.600	-27.298	0.100
448.700	-29.331	0.100
448.800	-38.342	0.100
448.900	-33.490	0.100
449.000	-37.099	0.100
449.100	-39.937	0.100
449.200	-42.115	0.100
449.300	-39.273	0.100
449.400	-39.980	0.100
449.500	-41.972	0.100
449.600	-37.438	0.100
449.700	-33.886	0.100
449.800	-40.843	0.100
449.900	-32.817	0.100
450.000	-33.156	0.100
450.100	-23.666	0.100
450.200	-33.364	0.100
450.300	-49.131	0.100
450.400	-45.863	0.100
450.500	-32.414	0.100
450.600	-41.973	0.100
450.700	-33.812	0.100
450.800	-27.590	0.100
450.900	-29.093	0.100
451.000	-40.006	0.100
451.100	-39.186	0.100
451.200	-37.285	0.100
451.300	-23.614	0.100
451.400	-43.775	0.100
451.500	-24.236	0.100
451.600	-34.774	0.100
451.700	-39.336	0.100
451.800	-41.862	0.100
451.900	-38.797	0.100
452.000	-32.482	0.100
452.100	-23.352	0.100
452.200	-37.782	0.100
452.300	-34.412	0.100
452.400	-36.834	0.100
452.500	-29.982	0.100
452.600	-34.219	0.100
452.700	-44.602	0.100
452.800	-33.401	0.100
452.900	-25.846	0.100
453.000	-42.509	0.100
453.100	-45.763	0.100
453.200	-39.857	0.100
453.300	-28.721	0.100
453.400	-31.484	0.100
453.500	-43.003	0.100
453.600	-38.277	0.100
453.700	-37.962	0.100
453.800	-42.723	0.100
453.900	-36.998	0.100
454.000	-29.281	0.100
454.100	-34.102	0.100
454.200	-32.260	0.100
454.300	-37.257	0.100
454.400	-34.546	0.100
454.500	-30.959	0.100
454.600	-44.349	0.100
454.700	-39.625	0.100
454.800	-41.626	0.100
454.900	-33.699	0.100
455.000	-31.424	0.100
455.100	-46.115	0.100
455.200	-36.735	0.100
455.300	-30.840	0.100
455.400	-32.351	0.100
455.500	-29.874	0.100
455.600	-32.588	0.100
455.700	-45.229	0.100
455.800	-37.571	0.100
455.900	-41.103	0.100
456.000	-29.677	0.100
456.100	-34.522	0.100
456.200	-34.373	0.100
456.300	-39.545	0.100
456.400	-34.481	0.100
456.500	-33.299	0.100
456.600	-30.733	0.100
456.700	-31.834	0.100
456.800	-40.789	0.100
456.900	-32.854	0.100
457.000	-30.226	0.100
457.100	-32.536	0.100
457.200	-29.920	0.100
457.300	-35.664	0.100
457.400	-40.956	0.100
457.500	-33.612	0.100
457.600	-35.618	0.100
457.700	-28.571	0.100
457.800	-21.854	0.100
457.900	-27.615	0.100
458.000	-38.713	0.100
458.100	-39.441	0.100
458.200	-45.213	0.100
458.300	-30.153	0.100
458.400	-39.462	0.100
458.500	-38.556	0.100
458.600	-36.046	0.100
458.700	-35.391	0.100
458.800	-34.537	0.100
458.900	-30.029	0.100
459.000	-32.190	0.100
459.100	-45.745	0.100
459.200	-43.355	0.100
459.300	-35.220	0.100
459.400	-26.159	0.100
459.500	-38.621	0.100
459.600	-37.977	0.100
459.700	-38.232	0.100
459.800	-34.361	0.100
459.900	-37.831	0.100
460.000	-44.548	0.100
460.100	-26.499	0.100
460.200	-29.880	0.100
460.300	-34.280	0.100
460.400	-33.554	0.100
460.500	-36.501	0.100
460.600	-35.154	0.100
460.700	-31.590	0.100
460.800	-36.991	0.100
460.900	-32.367	0.100
461.000	-34.319	0.100
461.100	-44.978	0.100
461.200	-31.136	0.100
461.300	-33.472	0.100
461.400	-31.828	0.100
461.500	-37.814	0.100
461.600	-33.343	0.100
461.700	-41.542	0.100
461.800	-29.993	0.100
461.900	-34.166	0.100
462.000	-39.387	0.100
462.100	-27.980	0.100
462.200	-31.264	0.100
462.300	-46.314	0.100
462.400	-22.369	0.100
462.500	-36.201	0.100
462.600	-37.882	0.100
462.700	-37.400	0.100
462.800	-39.996	0.100
462.900	-27.868	0.100
463.000	-37.679	0.100
463.100	-39.558	0.100
463.200	-33.512	0.100
463.300	-31.712	0.100
463.400	-33.323	0.100
463.500	-19.756	0.100
463.600	-29.204	0.100
463.700	-35.043	0.100
463.800	-34.672	0.100
463.900	-25.604	0.100
464.000	-41.753	0.100
464.100	-45.444	0.100
464.200	-30.666	0.100
464.300	-33.044	0.100
464.400	-35.656	0.100
464.500	-29.754	0.100
464.600	-27.958	0.100
464.700	-21.490	0.100
464.800	-27.745	0.100
464.900	-41.723	0.100
465.000	-38.575	0.100
465.100	-26.545	0.100
465.200	-37.397	0.100
465.300	-34.202	0.100
465.400	-42.950	0.100
465.500	-28.289	0.100
465.600	-35.722	0.100
465.700	-35.760	0.100
465.800	-38.574	0.100
465.900	-38.161	0.100
466.000	-33.662	0.100
466.100	-31.527	0.100
466.200	-31.871	0.100
466.300	-42.922	0.100
466.400	-39.342	0.100
466.500	-33.864	0.100
466.600	-41.996	0.100
466.700	-34.211	0.100
466.800	-36.794	0.100
466.900	-30.293	0.100
467.000	-28.583	0.100
467.100	-35.552	0.100
467.200	-38.202	0.100
467.300	-46.836	0.100
467.400	-34.841	0.100
467.500	-29.613	0.100
467.600	-21.721	0.100
467.700	-27.640	0.100
467.800	-45.759	0.100
467.900	-34.523	0.100
468.000	-22.850	0.100
468.100	-26.872	0.100
468.200	-37.245	0.100
468.300	-41.710	0.100
468.400	-38.386	0.100
468.500	-34.470	0.100
468.600	-28.953	0.100
468.700	-38.963	0.100
468.800	-28.913	0.100
468.900	-34.927	0.100
469.000	-31.578	0.100
469.100	-32.172	0.100
469.200	-35.823	0.100
469.300	-28.883	0.100
469.400	-28.327	0.100
469.500	-32.214	0.100
469.600	-35.873	0.100
469.700	-39.269	0.100
469.800	-26.227	0.100
469.900	-38.064	0.100
470.000	-37.370	0.100
470.100	-37.026	0.100
470.200	-38.685	0.100
470.300	-34.633	0.100
470.400	-38.125	0.100
470.500	-30.221	0.100
470.600	-38.634	0.100
470.700	-25.181	0.100
470.800	-30.269	0.100
470.900	-39.601	0.100
471.000	-31.648	0.100
471.100	-28.518	0.100
471.200	-23.261	0.100
471.300	-29.867	0.100
471.400	-26.738	0.100
471.500	-39.762	0.100
471.600	-33.822	0.100
471.700	-36.924	0.100
471.800	-23.423	0.100
471.900	-35.178	0.100
472.000	-29.492	0.100
472.100	-36.489	0.100
472.200	-40.782	0.100
472.300	-38.841	0.100
472.400	-25.591	0.100
472.500	-36.611	0.100
472.600	-27.009	0.100
472.700	-31.028	0.100
472.800	-28.710	0.100
472.900	-24.524	0.100
473.000	-36.607	0.100
473.100	-29.466	0.100
473.200	-31.970	0.100
473.300	-29.898	0.100
473.400	-32.333	0.100
473.500	-41.920	0.100
473.600	-37.681	0.100
473.700	-26.300	0.100
473.800	-23.788	0.100
473.900	-33.982	0.100
474.000	-28.667	0.100
474.100	-32.349	0.100
474.200	-32.147	0.100
474.300	-31.935	0.100
474.400	-28.158	0.100
474.500	-15.933	0.100
474.600	-27.067	0.100
474.700	-25.631	0.100
474.800	-41.078	0.100
474.900	-32.494	0.100
475.000	-34.559	0.100
475.100	-24.790	0.100
475.200	-37.352	0.100
475.300	-25.423	0.100
475.400	-36.735	0.100
475.500	-33.248	0.100
475.600	-30.506	0.100
475.700	-39.458	0.100
475.800	-23.350	0.100
475.900	-35.067	0.100
476.000	-25.464	0.100
476.100	-36.795	0.100
476.200	-38.905	0.100
476.300	-42.557	0.100
476.400	-24.431	0.100
476.500	-35.499	0.100
476.600	-24.023	0.100
476.700	-17.870	0.100
476.800	-27.203	0.100
476.900	-30.827	0.100
477.000	-26.861	0.100
477.100	-35.842	0.100
477.200	-35.015	0.100
477.300	-39.424	0.100
477.400	-32.496	0.100
477.500	-29.569	0.100
477.600	-31.447	0.100
477.700	-27.696	0.100
477.800	-31.620	0.100
477.900	-33.174	0.100
478.000	-28.698	0.100
478.100	-21.304	0.100
478.200	-26.414	0.100
478.300	-36.253	0.100
478.400	-36.456	0.100
478.500	-37.877	0.100
478.600	-21.686	0.100
478.700	-34.240	0.100
478.800	-36.296	0.100
478.900	-27.847	0.100
479.000	-35.559	0.100
479.100	-31.753	0.100
479.200	-28.129	0.100
479.300	-25.449	0.100
479.400	-33.951	0.100
479.500	-30.909	0.100
479.600	-33.913	0.100
479.700	-27.949	0.100
479.800	-36.104	0.100
479.900	-42.982	0.100
480.000	-28.347	0.100
480.100	-24.917	0.100
480.200	-33.389	0.100
480.300	-32.311	0.100
480.400	-27.954	0.100
480.500	-41.303	0.100
480.600	-16.475	0.100
480.700	-23.664	0.100
480.800	-21.995	0.100
480.900	-14.742	0.100
481.000	-19.961	0.100
481.100	-12.094	0.100
481.200	-17.247	0.100
481.300	-11.104	0.100
481.400	-15.523	0.100
481.500	-11.085	0.100
481.600	-12.603	0.100
481.700	-8.486	0.100
481.800	-11.204	0.100
481.900	-10.037	0.100
482.000	-7.070	0.100
482.100	0.626	0.100
482.200	0.048	0.100
482.300	-5.961	0.100
482.400	5.550	0.100
482.500	8.923	0.100
482.600	7.996	0.100
482.700	-11.393	0.100
482.800	-6.101	0.100
482.900	0.358	0.100
483.000	4.699	0.100
483.100	-3.676	0.100
483.200	4.987	0.100
483.300	6.603	0.100
483.400	-1.911	0.100
483.500	3.282	0.100
483.600	8.322	0.100
483.700	-5.895	0.100
483.800	-6.000	0.100
483.900	1.514	0.100
484.000	2.708	0.100
484.100	2.283	0.100
484.200	10.588	0.100
484.300	4.417	0.100
484.400	-2.818	0.100
484.500	5.103	0.100
484.600	4.595	0.100
484.700	-1.121	0.100
484.800	6.060	0.100
484.900	4.721	0.100
485.000	5.982	0.100
485.100	5.409	0.100
485.200	1.500	0.100
485.300	-4.769	0.100
485.400	-3.595	0.100
485.500	1.554	0.100
485.600	1.873	0.100
485.700	0.808	0.100
485.800	10.072	0.100
485.900	5.113	0.100
486.000	6.956	0.100
486.100	-0.040	0.100
486.200	2.271	0.100
486.300	8.209	0.100
486.400	15.771	0.100
486.500	8.498	0.100
486.600	2.145	0.100
486.700	-9.727	0.100
486.800	6.199	0.100
486.900	3.058	0.100
487.000	3.918	0.100
487.100	7.265	0.100
487.200	9.639	0.100
487.300	6.570	0.100
487.400	6.048	0.100
487.500	13.974	0.100
487.600	0.284	0.100
487.700	4.708	0.100
487.800	1.908	0.100
487.900	4.655	0.100
488.000	10.151	0.100
488.100	10.025	0.100
488.200	-1.404	0.100
488.300	0.177	0.100
488.400	4.959	0.100
488.500	7.095	0.100
488.600	6.122	0.100
488.700	1.978	0.100
488.800	16.957	0.100
488.900	18.707	0.100
489.000	-5.953	0.100
489.100	9.780	0.100
489.200	4.798	0.100
489.300	3.545	0.100
489.400	14.969	0.100
489.500	4.371	0.100
489.600	12.841	0.100
489.700	0.281	0.100
489.800	8.701	0.100
489.900	14.717	0.100
490.000	6.717	0.100
490.100	16.413	0.100
490.200	15.607	0.100
490.300	7.118	0.100
490.400	13.646	0.100
490.500	9.956	0.100
490.600	6.425	0.100
490.700	15.855	0.100
490.800	9.538	0.100
490.900	6.597	0.100
491.000	1.899	0.100
491.100	20.902	0.100
491.200	13.252	0.100
491.300	12.728	0.100
491.400	12.728	0.100
491.500	11.262	0.100
491.600	6.608	0.100
491.700	7.840	0.100
491.800	9.405	0.100
491.900	9.829	0.100
492.000	8.405	0.100
492.100	15.156	0.100
492.200	14.392	0.100
492.300	15.053	0.100
492.400	13.008	0.100
492.500	22.437	0.100
492.600	16.684	0.100
492.700	9.911	0.100
492.800	10.764	0.100
492.900	9.530	0.100
493.000	6.744	0.100
493.100	12.643	0.100
493.200	14.428	0.100
493.300	23.887	0.100
493.400	14.700	0.100
493.500	25.051	0.100
493.600	13.439	0.100
493.700	15.567	0.100
493.800	17.154	0.100
493.900	14.953	0.100
494.000	17.469	0.100
494.100	11.328	0.100
494.200	17.028	0.100
494.300	12.956	0.100
494.400	23.102	0.100
494.500	16.258	0.100
494.600	15.888	0.100
494.700	24.750	0.100
494.800	20.273	0.100
494.900	25.447	0.100
495.000	22.076	0.100
495.100	13.311	0.100
495.200	17.996	0.100
495.300	16.123	0.100
495.400	20.970	0.100
495.500	28.848	0.100
495.600	23.858	0.100
495.700	28.889	0.100
495.800	21.362	0.100
495.900	29.706	0.100
496.000	23.082	0.100
496.100	29.329	0.100
496.200	24.698	0.100
496.300	19.890	0.100
496.400	37.638	0.100
496.500	23.316	0.100
496.600	33.198	0.100
496.700	31.568	0.100
496.800	31.694	0.100
496.900	27.688	0.100
497.000	26.197	0.100
497.100	30.840	0.100
497.200	25.838	0.100
497.300	24.746	0.100
497.400	28.127	0.100
497.500	33.131	0.100
497.600	29.130	0.100
497.700	29.452	0.100
497.800	28.260	0.100
497.900	24.329	0.100
498.000	27.944	0.100
498.100	32.741	0.100
498.200	39.920	0.100
498.300	28.829	0.100
498.400	30.666	0.100
498.500	37.753	0.100
498.600	35.571	0.100
498.700	38.249	0.100
498.800	28.120	0.100
498.900	42.751	0.100
499.000	31.428	0.100
499.100	40.509	0.100
499.200	46.468	0.100
499.300	46.061	0.100
499.400	40.388	0.100
499.500	40.190	0.100
499.600	40.898	0.100
499.700	37.807	0.100
499.800	48.137	0.100
499.900	41.715	0.100
500.000	46.006	0.100
500.100	45.817	0.100
500.200	38.872	0.100
500.300	51.057	0.100
500.400	51.767	0.100
500.500	40.280	0.100
500.600	42.360	0.100
500.700	45.105	0.100
500.800	38.267	0.100
500.900	33.433	0.100
501.000	42.941	0.100
501.100	40.857	0.100
501.200	46.757	0.100
501.300	41.340	0.100
501.400	37.015	0.100
501.500	52.528	0.100
501.600	44.333	0.100
501.700	44.051	0.100
501.800	36.991	0.100
501.900	51.492	0.100
502.000	55.752	0.100
502.100	48.767	0.100
502.200	44.252	0.100
502.300	44.115	0.100
502.400	46.305	0.100
502.500	39.380	0.100
502.600	46.865	0.100
502.700	40.870	0.100
502.800	51.692	0.100
502.900	49.500	0.100
503.000	50.279	0.100
503.100	60.000	0.100
503.200	46.244	0.100
503.300	52.293	0.100
503.400	40.232	0.100
503.500	44.227	0.100
503.600	45.221	0.100
503.700	48.586	0.100
503.800	47.983	0.100
503.900	46.705	0.100
504.000	51.773	0.100
504.100	49.796	0.100
504.200	39.973	0.100
504.300	52.324	0.100
504.400	47.051	0.100
504.500	43.683	0.100
504.600	44.275	0.100
504.700	52.037	0.100
504.800	46.735	0.100
504.900	62.229	0.100
505.000	51.135	0.100
505.100	42.296	0.100
505.200	50.735	0.100
505.300	47.374	0.100
505.400	53.874	0.100
505.500	52.875	0.100
505.600	47.611	0.100
505.700	45.539	0.100
505.800	51.323	0.100
505.900	53.373	0.100
506.000	53.162	0.100
506.100	45.292	0.100
506.200	51.500	0.100
506.300	48.835	0.100
506.400	50.500	0.100
506.500	58.917	0.100
506.600	47.611	0.100
506.700	46.005	0.100
506.800	56.329	0.100
506.900	49.459	0.100
507.000	42.937	0.100
507.100	48.638	0.100
507.200	44.122	0.100
507.300	60.042	0.100
507.400	55.848	0.100
507.500	48.899	0.100
507.600	49.174	0.100
507.700	50.302	0.100
507.800	51.696	0.100
507.900	51.561	0.100
508.000	56.135	0.100
508.100	47.823	0.100
508.200	53.614	0.100
508.300	55.697	0.100
508.400	50.375	0.100
508.500	51.870	0.100
508.600	46.024	0.100
508.700	54.267	0.100
508.800	55.388	0.100
508.900	45.700	0.100
509.000	45.649	0.100
509.100	60.355	0.100
509.200	46.536	0.100
509.300	54.253	0.100
509.400	45.661	0.100
509.500	53.955	0.100
509.600	57.815	0.100
509.700	49.795	0.100
509.800	49.536	0.100
509.900	51.436	0.100
510.000	52.573	0.100
510.100	47.919	0.100
510.200	51.908	0.100
510.300	53.538	0.100
510.400	53.136	0.100
510.500	45.591	0.100
510.600	63.441	0.100
510.700	52.383	0.100
510.800	52.656	0.100
510.900	44.628	0.100
511.000	59.354	0.100
511.100	59.784	0.100
511.200	55.426	0.100
511.300	55.780	0.100
511.400	40.494	0.100
511.500	57.009	0.100
511.600	48.817	0.100
511.700	49.934	0.100
511.800	54.531	0.100
511.900	45.489	0.100
512.000	51.810	0.100
512.100	49.357	0.100
512.200	44.642	0.100
512.300	48.391	0.100
512.400	51.137	0.100
512.500	51.281	0.100
512.600	52.401	0.100
512.700	49.594	0.100
512.800	46.533	0.100
512.900	50.648	0.100
513.000	47.274	0.100
513.100	51.820	0.100
513.200	46.738	0.100
513.300	53.710	0.100
513.400	61.122	0.100
513.500	49.046	0.100
513.600	57.882	0.100
513.700	54.713	0.100
513.800	46.943	0.100
513.900	43.165	0.100
514.000	52.050	0.100
514.100	51.186	0.100
514.200	51.912	0.100
514.300	55.782	0.100
514.400	48.667	0.100
514.500	49.445	0.100
514.600	57.355	0.100
514.700	47.610	0.100
514.800	51.476	0.100
514.900	49.999	0.100
515.000	47.597	0.100
515.100	52.125	0.100
515.200	51.070	0.100
515.300	48.085	0.100
515.400	54.461	0.100
515.500	47.203	0.100
515.600	57.886	0.100
515.700	57.612	0.100
515.800	54.845	0.100
515.900	50.439	0.100
516.000	52.165	0.100
516.100	54.725	0.100
516.200	51.148	0.100
516.300	51.712	0.100
516.400	50.530	0.100
516.500	53.765	0.100
516.600	49.705	0.100
516.700	51.449	0.100
516.800	54.044	0.100
516.900	49.245	0.100
517.000	55.382	0.100
517.100	44.184	0.100
517.200	51.538	0.100
517.300	52.839	0.100
517.400	57.119	0.100
517.500	53.925	0.100
517.600	47.896	0.100
517.700	47.696	0.100
517.800	51.573	0.100
517.900	52.829	0.100
518.000	55.760	0.100
518.100	48.650	0.100
518.200	54.961	0.100
518.300	49.300	0.100
518.400	49.558	0.100
518.500	44.136	0.100
518.600	48.992	0.100
518.700	47.058	0.100
518.800	43.981	0.100
518.900	57.940	0.100
519.000	57.265	0.100
519.100	47.470	0.100
519.200	54.671	0.100
519.300	54.272	0.100
519.400	55.961	0.100
519.500	47.218	0.100
519.600	53.561	0.100
519.700	51.255	0.100
519.800	48.104	0.100
519.900	53.409	0.100
520.000	50.304	0.100
520.100	52.352	0.100
520.200	47.535	0.100
520.300	58.942	0.100
520.400	54.983	0.100
520.500	48.208	0.100
520.600	53.534	0.100
520.700	54.141	0.100
520.800	48.134	0.100
520.900	37.346	0.100
521.000	47.416	0.100
521.100	59.712	0.100
521.200	49.992	0.100
521.300	52.505	0.100
521.400	56.393	0.100
521.500	52.806	0.100
521.600	49.893	0.100
521.700	55.345	0.100
521.800	56.864	0.100
521.900	49.135	0.100
522.000	43.640	0.100
522.100	52.438	0.100
522.200	50.237	0.100
522.300	53.712	0.100
522.400	55.943	0.100
522.500	49.498	0.100
522.600	48.698	0.100
522.700	56.194	0.100
522.800	46.718	0.100
522.900	49.223	0.100
523.000	46.084	0.100
523.100	45.737	0.100
523.200	50.583	0.100
523.300	47.902	0.100
523.400	50.703	0.100
523.500	57.282	0.100
523.600	61.052	0.100
523.700	56.793	0.100
523.800	51.739	0.100
523.900	50.710	0.100
524.000	43.158	0.100
524.100	52.193	0.100
524.200	46.484	0.100
524.300	51.650	0.100
524.400	57.077	0.100
524.500	47.502	0.100
524.600	56.249	0.100
524.700	50.618	0.100
524.800	54.354	0.100
524.900	53.765	0.100
525.000	57.109	0.100
525.100	55.536	0.100
525.200	54.641	0.100
525.300	62.161	0.100
525.400	59.200	0.100
525.500	52.033	0.100
525.600	50.690	0.100
525.700	50.171	0.100
525.800	42.834	0.100
525.900	57.575	0.100
526.000	55.672	0.100
526.100	53.622	0.100
526.200	53.211	0.100
526.300	46.535	0.100
526.400	53.468	0.100
526.500	56.261	0.100
526.600	56.898	0.100
526.700	48.116	0.100
526.800	46.365	0.100
526.900	52.313	0.100
527.000	50.990	0.100
527.100	45.382	0.100
527.200	52.320	0.100
527.300	61.523	0.100
527.400	45.289	0.100
527.500	43.176	0.100
527.600	53.323	0.100
527.700	49.681	0.100
527.800	55.227	0.100
527.900	48.503	0.100
528.000	52.973	0.100
528.100	57.733	0.100
528.200	42.612	0.100
528.300	47.653	0.100
528.400	48.806	0.100
528.500	55.168	0.100
528.600	52.824	0.100
528.700	54.483	0.100
528.800	53.417	0.100
528.900	48.881	0.100
529.000	41.269	0.100
529.100	46.161	0.100
529.200	48.215	0.100
529.300	59.622	0.100
529.400	49.553	0.100
529.500	46.278	0.100
529.600	48.877	0.100
529.700	47.496	0.100
529.800	51.423	0.100
529.900	49.065	0.100
530.000	52.207	0.100
530.100	50.507	0.100
530.200	55.919	0.100
530.300	50.902	0.100
530.400	55.782	0.100
530.500	39.949	0.100
530.600	57.070	0.100
530.700	49.089	0.100
530.800	44.897	0.100
530.900	47.647	0.100
531.000	52.564	0.100
531.100	56.045	0.100
531.200	60.542	0.100
531.300	48.434	0.100
531.400	45.615	0.100
531.500	46.568	0.100
531.600	47.511	0.100
531.700	55.858	0.100
531.800	47.755	0.100
531.900	46.932	0.100
532.000	58.278	0.100
532.100	55.677	0.100
532.200	54.920	0.100
532.300	56.391	0.100
532.400	52.049	0.100
532.500	55.879	0.100
532.600	58.919	0.100
532.700	58.447	0.100
532.800	51.247	0.100
532.900	46.264	0.100
533.000	51.638	0.100
533.100	41.030	0.100
533.200	49.833	0.100
533.300	36.952	0.100
533.400	54.800	0.100
533.500	50.296	0.100
533.600	44.926	0.100
533.700	53.638	0.100
533.800	55.339	0.100
533.900	61.586	0.100
534.000	57.942	0.100
534.100	54.501	0.100
534.200	41.945	0.100
534.300	44.880	0.100
534.400	46.204	0.100
534.500	53.958	0.100
534.600	43.813	0.100
534.700	54.161	0.100
534.800	53.850	0.100
534.900	55.393	0.100
535.000	55.634	0.100
535.100	47.634	0.100
535.200	40.200	0.100
535.300	49.757	0.100
535.400	51.532	0.100
535.500	44.696	0.100
535.600	52.446	0.100
535.700	52.402	0.100
535.800	54.360	0.100
535.900	45.951	0.100
536.000	33.295	0.100
536.100	52.615	0.100
536.200	60.798	0.100
536.300	48.258	0.100
536.400	63.336	0.100
536.500	49.798	0.100
536.600	42.473	0.100
536.700	41.130	0.100
536.800	62.220	0.100
536.900	48.819	0.100
537.000	44.215	0.100
537.100	47.753	0.100
537.200	50.229	0.100
537.300	57.887	0.100
537.400	47.292	0.100
537.500	58.278	0.100
537.600	55.155	0.100
537.700	50.518	0.100
537.800	50.045	0.100
537.900	49.649	0.100
538.000	54.012	0.100
538.100	54.902	0.100
538.200	43.507	0.100
538.300	52.487	0.100
538.400	48.075	0.100
538.500	46.319	0.100
538.600	43.344	0.100
538.700	44.592	0.100
538.800	49.959	0.100
538.900	45.559	0.100
539.000	43.283	0.100
539.100	54.463	0.100
539.200	51.181	0.100
539.300	55.746	0.100
539.400	49.445	0.100
539.500	47.931	0.100
539.600	52.545	0.100
539.700	52.675	0.100
539.800	53.723	0.100
539.900	46.592	0.100
540.000	49.112	0.100
540.100	47.341	0.100
540.200	57.192	0.100
540.300	50.566	0.100
540.400	49.718	0.100
540.500	47.349	0.100
540.600	37.484	0.100
540.700	49.255	0.100
540.800	39.107	0.100
540.900	38.703	0.100
541.000	44.969	0.100
541.100	26.524	0.100
541.200	30.174	0.100
541.300	23.898	0.100
541.400	21.849	0.100
541.500	14.687	0.100
541.600	19.812	0.100
541.700	22.385	0.100
541.800	25.947	0.100
541.900	23.803	0.100
542.000	18.770	0.100
542.100	0.208	0.100
542.200	5.591	0.100
542.300	11.462	0.100
542.400	8.218	0.100
542.500	4.257	0.100
542.600	2.782	0.100
542.700	3.582	0.100
542.800	9.736	0.100
542.900	6.365	0.100
543.000	5.451	0.100
543.100	-0.710	0.100
543.200	0.461	0.100
543.300	-5.992	0.100
543.400	1.096	0.100
543.500	-3.524	0.100
543.600	-4.321	0.100
543.700	6.878	0.100
543.800	7.402	0.100
543.900	2.306	0.100
544.000	3.182	0.100
544.100	-1.776	0.100
544.200	-9.941	0.100
544.300	-14.513	0.100
544.400	-6.895	0.100
544.500	-0.292	0.100
544.600	-5.513	0.100
544.700	0.319	0.100
544.800	5.580	0.100
544.900	0.702	0.100
545.000	-7.415	0.100
545.100	-5.849	0.100
545.200	2.998	0.100
545.300	-5.098	0.100
545.400	2.235	0.100
545.500	-16.066	0.100
545.600	-6.764	0.100
545.700	-19.326	0.100
545.800	-3.870	0.100
545.900	6.279	0.100
546.000	-8.402	0.100
546.100	-10.977	0.100
546.200	-5.715	0.100
546.300	-8.140	0.100
546.400	0.255	0.100
546.500	-2.132	0.100
546.600	-1.750	0.100
546.700	-7.359	0.100
546.800	1.001	0.100
546.900	-21.719	0.100
547.000	-11.910	0.100
547.100	3.138	0.100
547.200	1.269	0.100
547.300	-2.578	0.100
547.400	-3.397	0.100
547.500	-8.104	0.100
547.600	-11.761	0.100
547.700	-9.240	0.100
547.800	-18.961	0.100
547.900	-6.287	0.100
548.000	-4.517	0.100
548.100	-11.028	0.100
548.200	-18.417	0.100
548.300	-5.118	0.100
548.400	-5.035	0.100
548.500	-0.251	0.100
548.600	-12.864	0.100
548.700	-16.467	0.100
548.800	-6.491	0.100
548.900	-7.059	0.100
549.000	-7.050	0.100
549.100	-3.560	0.100
549.200	-21.440	0.100
549.300	-10.824	0.100
549.400	3.024	0.100
549.500	3.122	0.100
549.600	-12.132	0.100
549.700	-5.243	0.100
549.800	-4.876	0.100
549.900	-11.487	0.100
550.000	-10.838	0.100
550.100	-14.705	0.100
550.200	-5.352	0.100
550.300	-10.787	0.100
550.400	-2.061	0.100
550.500	-5.315	0.100
550.600	-14.164	0.100
550.700	-14.868	0.100
550.800	-10.611	0.100
550.900	4.882	0.100
551.000	-11.673	0.100
551.100	-17.199	0.100
551.200	-19.371	0.100
551.300	-12.883	0.100
551.400	-10.024	0.100
551.500	-16.719	0.100
551.600	-7.420	0.100
551.700	-19.663	0.100
551.800	-12.211	0.100
551.900	-3.201	0.100
552.000	-5.499	0.100
552.100	-11.884	0.100
552.200	-9.773	0.100
552.300	-31.084	0.100
552.400	-20.093	0.100
552.500	-17.123	0.100
552.600	-18.337	0.100
552.700	-16.056	0.100
552.800	-13.307	0.100
552.900	-5.681	0.100
553.000	-10.909	0.100
553.100	-5.709	0.100
553.200	-6.742	0.100
553.300	-21.270	0.100
553.400	-25.607	0.100
553.500	-14.978	0.100
553.600	-15.511	0.100
553.700	-12.703	0.100
553.800	-4.940	0.100
553.900	-17.065	0.100
554.000	-10.455	0.100
554.100	-10.469	0.100
554.200	-16.325	0.100
554.300	-12.635	0.100
554.400	-23.224	0.100
554.500	-25.073	0.100
554.600	-15.007	0.100
554.700	-10.636	0.100
554.800	-19.213	0.100
554.900	-9.506	0.100
555.000	-20.431	0.100
555.100	-19.156	0.100
555.200	-14.965	0.100
555.300	-12.016	0.100
555.400	-12.526	0.100
555.500	-24.039	0.100
555.600	-14.356	0.100
555.700	-11.344	0.100
555.800	-20.178	0.100
555.900	-8.676	0.100
556.000	-17.470	0.100
556.100	-16.441	0.100
556.200	-13.585	0.100
556.300	-20.616	0.100
556.400	-17.798	0.100
556.500	-15.313	0.100
556.600	-24.899	0.100
556.700	-21.110	0.100
556.800	-18.835	0.100
556.900	-12.039	0.100
557.000	-12.724	0.100
557.100	-11.250	0.100
557.200	-22.561	0.100
557.300	-11.520	0.100
557.400	-29.370	0.100
557.500	-29.516	0.100
557.600	-19.359	0.100
557.700	-18.002	0.100
557.800	-12.257	0.100
557.900	-16.651	0.100
558.000	-21.836	0.100
558.100	-17.992	0.100
558.200	-29.305	0.100
558.300	-20.709	0.100
558.400	-18.179	0.100
558.500	-26.264	0.100
558.600	-24.881	0.100
558.700	-20.184	0.100
558.800	-10.455	0.100
558.900	-6.016	0.100
559.000	-16.003	0.100
559.100	-18.609	0.100
559.200	-24.239	0.100
559.300	-23.653	0.100
559.400	-24.789	0.100
559.500	-25.118	0.100
559.600	-26.203	0.100
559.700	-29.556	0.100
559.800	-27.324	0.100
559.900	-26.634	0.100
560.000	-19.457	0.100
560.100	-25.057	0.100
560.200	-36.660	0.100
560.300	-28.670	0.100
560.400	-21.228	0.100
560.500	-25.105	0.100
560.600	-17.514	0.100
560.700	-23.608	0.100
560.800	-25.461	0.100
560.900	-29.743	0.100
561.000	-28.350	0.100
561.100	-22.279	0.100
561.200	-14.597	0.100
561.300	-26.536	0.100
561.400	-27.633	0.100
561.500	-32.320	0.100
561.600	-28.272	0.100
561.700	-22.914	0.100
561.800	-21.708	0.100
561.900	-29.437	0.100
562.000	-29.601	0.100
562.100	-23.918	0.100
562.200	-31.443	0.100
562.300	-23.319	0.100
562.400	-19.344	0.100
562.500	-17.876	0.100
562.600	-21.631	0.100
562.700	-27.396	0.100
562.800	-30.907	0.100
562.900	-21.451	0.100
563.000	-31.373	0.100
563.100	-25.795	0.100
563.200	-23.916	0.100
563.300	-22.316	0.100
563.400	-25.218	0.100
563.500	-29.303	0.100
563.600	-28.338	0.100
563.700	-23.297	0.100
563.800	-24.796	0.100
563.900	-27.831	0.100
564.000	-28.158	0.100
564.100	-22.814	0.100
564.200	-30.833	0.100
564.300	-30.471	0.100
564.400	-26.494	0.100
564.500	-29.584	0.100
564.600	-26.426	0.100
564.700	-20.694	0.100
564.800	-18.148	0.100
564.900	-33.777	0.100
565.000	-33.455	0.100
565.100	-26.604	0.100
565.200	-20.036	0.100
565.300	-23.732	0.100
565.400	-34.522	0.100
565.500	-24.131	0.100
565.600	-26.290	0.100
565.700	-35.903	0.100
565.800	-28.744	0.100
565.900	-24.464	0.100
566.000	-32.488	0.100
566.100	-23.041	0.100
566.200	-39.902	0.100
566.300	-32.800	0.100
566.400	-29.869	0.100
566.500	-29.829	0.100
566.600	-26.897	0.100
566.700	-29.609	0.100
566.800	-26.570	0.100
566.900	-30.631	0.100
567.000	-38.182	0.100
567.100	-34.953	0.100
567.200	-27.769	0.100
567.300	-26.216	0.100
567.400	-23.170	0.100
567.500	-27.528	0.100
567.600	-28.825	0.100
567.700	-22.637	0.100
567.800	-29.893	0.100
567.900	-28.167	0.100
568.000	-41.071	0.100
568.100	-30.076	0.100
568.200	-21.919	0.100
568.300	-41.985	0.100
568.400	-38.423	0.100
568.500	-42.543	0.100
568.600	-39.910	0.100
568.700	-33.021	0.100
568.800	-25.140	0.100
568.900	-24.886	0.100
569.000	-24.216	0.100
569.100	-33.625	0.100
569.200	-38.452	0.100
569.300	-28.279	0.100
569.400	-31.363	0.100
569.500	-31.657	0.100
569.600	-30.150	0.100
569.700	-30.341	0.100
569.800	-32.293	0.100
569.900	-33.989	0.100
570.000	-31.816	0.100
570.100	-35.108	0.100
570.200	-32.914	0.100
570.300	-33.737	0.100
570.400	-30.184	0.100
570.500	-31.239	0.100
570.600	-26.747	0.100
570.700	-37.343	0.100
570.800	-37.372	0.100
570.900	-37.337	0.100
571.000	-35.538	0.100
571.100	-36.265	0.100
571.200	-39.464	0.100
571.300	-38.746	0.100
571.400	-26.905	0.100
571.500	-31.537	0.100
571.600	-32.437	0.100
571.700	-37.993	0.100
571.800	-26.638	0.100
571.900	-37.470	0.100
572.000	-45.907	0.100
572.100	-25.095	0.100
572.200	-25.301	0.100
572.300	-37.807	0.100
572.400	-42.353	0.100
572.500	-37.480	0.100
572.600	-41.505	0.100
572.700	-31.299	0.100
572.800	-29.035	0.100
572.900	-35.033	0.100
573.000	-40.875	0.100
573.100	-29.692	0.100
573.200	-32.543	0.100
573.300	-39.653	0.100
573.400	-35.631	0.100
573.500	-28.874	0.100
573.600	-35.843	0.100
573.700	-43.539	0.100
573.800	-33.480	0.100
573.900	-38.849	0.100
574.000	-35.052	0.100
574.100	-44.334	0.100
574.200	-30.067	0.100
574.300	-38.506	0.100
574.400	-39.659	0.100
574.500	-33.246	0.100
574.600	-31.172	0.100
574.700	-36.978	0.100
574.800	-35.685	0.100
574.900	-26.850	0.100
575.000	-39.115	0.100
575.100	-31.574	0.100
575.200	-39.945	0.100
575.300	-35.450	0.100
575.400	-36.114	0.100
575.500	-35.452	0.100
575.600	-41.950	0.100
575.700	-52.447	0.100
575.800	-37.858	0.100
575.900	-36.128	0.100
576.000	-36.432	0.100
576.100	-39.165	0.100
576.200	-29.034	0.100
576.300	-40.092	0.100
576.400	-28.251	0.100
576.500	-39.621	0.100
576.600	-31.160	0.100
576.700	-34.865	0.100
576.800	-49.773	0.100
576.900	-38.497	0.100
577.000	-34.307	0.100
577.100	-38.591	0.100
577.200	-41.132	0.100
577.300	-39.800	0.100
577.400	-29.202	0.100
577.500	-33.059	0.100
577.600	-48.341	0.100
577.700	-40.662	0.100
577.800	-35.974	0.100
577.900	-40.709	0.100
578.000	-40.263	0.100
578.100	-42.012	0.100
578.200	-43.938	0.100
578.300	-39.886	0.100
578.400	-43.878	0.100
578.500	-40.270	0.100
578.600	-28.109	0.100
578.700	-37.399	0.100
578.800	-42.218	0.100
578.900	-44.701	0.100
579.000	-42.665	0.100
579.100	-40.207	0.100
579.200	-45.446	0.100
579.300	-45.110	0.100
579.400	-38.023	0.100
579.500	-25.880	0.100
579.600	-37.828	0.100
579.700	-46.687	0.100
579.800	-42.830	0.100
579.900	-48.508	0.100
580.000	-39.370	0.100
580.100	-32.281	0.100
580.200	-41.234	0.100
580.300	-33.504	0.100
580.400	-34.575	0.100
580.500	-45.828	0.100
580.600	-30.641	0.100
580.700	-36.334	0.100
580.800	-39.654	0.100
580.900	-37.690	0.100
581.000	-48.009	0.100
581.100	-43.270	0.100
581.200	-39.927	0.100
581.300	-38.643	0.100
581.400	-31.048	0.100
581.500	-33.953	0.100
581.600	-39.310	0.100
581.700	-39.273	0.100
581.800	-42.308	0.100
581.900	-43.988	0.100
582.000	-44.878	0.100
582.100	-46.561	0.100
582.200	-40.084	0.100
582.300	-39.135	0.100
582.400	-43.158	0.100
582.500	-36.718	0.100
582.600	-38.000	0.100
582.700	-42.301	0.100
582.800	-43.219	0.100
582.900	-39.724	0.100
583.000	-29.206	0.100
583.100	-34.892	0.100
583.200	-35.885	0.100
583.300	-41.932	0.100
583.400	-40.926	0.100
583.500	-38.225	0.100
583.600	-54.081	0.100
583.700	-35.555	0.100
583.800	-42.772	0.100
583.900	-34.306	0.100
584.000	-34.694	0.100
584.100	-40.254	0.100
584.200	-32.253	0.100
584.300	-43.677	0.100
584.400	-33.619	0.100
584.500	-42.991	0.100
584.600	-39.925	0.100
584.700	-43.171	0.100
584.800	-43.675	0.100
584.900	-37.623	0.100
585.000	-36.748	0.100
585.100	-40.984	0.100
585.200	-41.278	0.100
585.300	-41.668	0.100
585.400	-43.536	0.100
585.500	-37.728	0.100
585.600	-24.017	0.100
585.700	-40.913	0.100
585.800	-36.490	0.100
585.900	-45.525	0.100
586.000	-42.888	0.100
586.100	-33.735	0.100
586.200	-36.481	0.100
586.300	-35.950	0.100
586.400	-31.403	0.100
586.500	-43.139	0.100
586.600	-36.201	0.100
586.700	-44.641	0.100
586.800	-40.566	0.100
586.900	-34.015	0.100
587.000	-47.878	0.100
587.100	-40.079	0.100
587.200	-39.749	0.100
587.300	-26.854	0.100
587.400	-40.047	0.100
587.500	-42.340	0.100
587.600	-35.274	0.100
587.700	-35.178	0.100
587.800	-38.623	0.100
587.900	-47.474	0.100
588.000	-36.173	0.100
588.100	-30.997	0.100
588.200	-49.170	0.100
588.300	-39.595	0.100
588.400	-30.808	0.100
588.500	-44.362	0.100
588.600	-36.230	0.100
588.700	-39.870	0.100
588.800	-34.575	0.100
588.900	-33.149	0.100
589.000	-36.707	0.100
589.100	-42.251	0.100
589.200	-41.377	0.100
589.300	-43.183	0.100
589.400	-35.458	0.100
589.500	-38.821	0.100
589.600	-46.075	0.100
589.700	-36.332	0.100
589.800	-35.775	0.100
589.900	-36.968	0.100
590.000	-35.971	0.100
590.100	-37.731	0.100
590.200	-27.665	0.100
590.300	-45.835	0.100
590.400	-42.974	0.100
590.500	-36.630	0.100
590.600	-36.812	0.100
590.700	-26.166	0.100
590.800	-42.575	0.100
590.900	-43.719	0.100
591.000	-48.375	0.100
591.100	-38.315	0.100
591.200	-41.715	0.100
591.300	-42.228	0.100
591.400	-45.237	0.100
591.500	-41.580	0.100
591.600	-39.344	0.100
591.700	-31.797	0.100
591.800	-41.811	0.100
591.900	-40.227	0.100
592.000	-37.444	0.100
592.100	-38.866	0.100
592.200	-32.362	0.100
592.300	-42.817	0.100
592.400	-35.687	0.100
592.500	-39.579	0.100
592.600	-41.208	0.100
592.700	-31.208	0.100
592.800	-37.815	0.100
592.900	-50.408	0.100
593.000	-40.363	0.100
593.100	-43.525	0.100
593.200	-34.530	0.100
593.300	-38.164	0.100
593.400	-34.252	0.100
593.500	-39.026	0.100
593.600	-41.619	0.100
593.700	-40.961	0.100
593.800	-40.019	0.100
593.900	-40.331	0.100
594.000	-46.650	0.100
594.100	-44.416	0.100
594.200	-40.269	0.100
594.300	-32.000	0.100
594.400	-37.503	0.100
594.500	-36.188	0.100
594.600	-37.464	0.100
594.700	-35.265	0.100
594.800	-45.415	0.100
594.900	-41.359	0.100
595.000	-41.434	0.100
595.100	-43.274	0.100
595.200	-36.134	0.100
595.300	-36.090	0.100
595.400	-35.556	0.100
595.500	-30.400	0.100
595.600	-31.882	0.100
595.700	-36.424	0.100
595.800	-37.282	0.100
595.900	-37.818	0.100
596.000	-41.429	0.100
596.100	-36.948	0.100
596.200	-39.478	0.100
596.300	-38.615	0.100
596.400	-36.948	0.100
596.500	-37.858	0.100
596.600	-39.453	0.100
596.700	-30.722	0.100
596.800	-40.247	0.100
596.900	-45.017	0.100
597.000	-43.465	0.100
597.100	-34.583	0.100
597.200	-32.770	0.100
597.300	-29.225	0.100
597.400	-30.117	0.100
597.500	-41.625	0.100
597.600	-44.513	0.100
597.700	-45.571	0.100
597.800	-40.859	0.100
597.900	-34.279	0.100
598.000	-37.312	0.100
598.100	-35.682	0.100
598.200	-42.662	0.100
598.300	-38.327	0.100
598.400	-39.760	0.100
598.500	-39.930	0.100
598.600	-37.181	0.100
598.700	-42.340	0.100
598.800	-39.591	0.100
598.900	-38.168	0.100
599.000	-40.984	0.100
599.100	-32.243	0.100
599.200	-36.028	0.100
599.300	-35.371	0.100
599.400	-33.666	0.100
599.500	-40.568	0.100
599.600	-39.609	0.100
599.700	-34.194	0.100
599.800	-36.812	0.100
599.900	-40.774	0.100
600.000	-37.751	0.100
600.100	-36.022	0.100
600.200	-42.683	0.100
600.300	-42.126	0.100
600.400	-35.218	0.100
600.500	-30.560	0.100
600.600	-38.671	0.100
600.700	-30.671	0.100
600.800	-29.264	0.100
600.900	-42.022	0.100
601.000	-33.230	0.100
601.100	-42.426	0.100
601.200	-39.273	0.100
601.300	-40.803	0.100
601.400	-39.511	0.100
601.500	-42.533	0.100
601.600	-37.185	0.100
601.700	-34.911	0.100
601.800	-28.461	0.100
601.900	-27.657	0.100
602.000	-41.866	0.100
602.100	-44.988	0.100
602.200	-40.008	0.100
602.300	-28.502	0.100
602.400	-39.457	0.100
602.500	-36.693	0.100
602.600	-35.479	0.100
602.700	-41.837	0.100
602.800	-34.419	0.100
602.900	-38.335	0.100
603.000	-32.100	0.100
603.100	-38.700	0.100
603.200	-32.904	0.100
603.300	-47.068	0.100
603.400	-42.274	0.100
603.500	-33.641	0.100
603.600	-36.492	0.100
603.700	-39.389	0.100
603.800	-40.666	0.100
603.900	-39.585	0.100
604.000	-33.219	0.100
604.100	-38.890	0.100
604.200	-38.534	0.100
604.300	-30.664	0.100
604.400	-31.268	0.100
604.500	-36.992	0.100
604.600	-33.873	0.100
604.700	-37.250	0.100
604.800	-40.670	0.100
604.900	-33.155	0.100
605.000	-35.082	0.100
605.100	-47.499	0.100
605.200	-33.168	0.100
605.300	-41.113	0.100
605.400	-31.457	0.100
605.500	-30.539	0.100
605.600	-35.885	0.100
605.700	-39.417	0.100
605.800	-41.093	0.100
605.900	-37.316	0.100
606.000	-29.770	0.100
606.100	-38.163	0.100
606.200	-30.211	0.100
606.300	-45.927	0.100
606.400	-46.137	0.100
606.500	-32.232	0.100
606.600	-34.589	0.100
606.700	-33.684	0.100
606.800	-29.162	0.100
606.900	-32.312	0.100
607.000	-36.047	0.100
607.100	-41.240	0.100
607.200	-37.371	0.100
607.300	-40.730	0.100
607.400	-48.443	0.100
607.500	-25.975	0.100
607.600	-32.314	0.100
607.700	-45.555	0.100
607.800	-29.229	0.100
607.900	-34.325	0.100
608.000	-44.117	0.100
608.100	-56.185	0.100
608.200	-37.123	0.100
608.300	-43.296	0.100
608.400	-34.696	0.100
608.500	-31.363	0.100
608.600	-33.884	0.100
608.700	-40.943	0.100
608.800	-37.728	0.100
608.900	-32.265	0.100
609.000	-33.882	0.100
609.100	-37.060	0.100
609.200	-46.255	0.100
609.300	-39.320	0.100
609.400	-36.105	0.100
609.500	-30.835	0.100
609.600	-30.838	0.100
609.700	-45.640	0.100
609.800	-31.968	0.100
609.900	-36.870	0.100
610.000	-41.444	0.100
610.100	-28.333	0.100
610.200	-33.819	0.100
610.300	-34.182	0.100
610.400	-41.048	0.100
610.500	-24.734	0.100
610.600	-32.750	0.100
610.700	-35.896	0.100
610.800	-45.254	0.100
610.900	-32.130	0.100
611.000	-31.003	0.100
611.100	-32.855	0.100
611.200	-40.945	0.100
611.300	-47.166	0.100
611.400	-33.544	0.100
611.500	-33.508	0.100
611.600	-39.459	0.100
611.700	-38.677	0.100
611.800	-27.803	0.100
611.900	-35.464	0.100
612.000	-46.138	0.100
612.100	-35.333	0.100
612.200	-42.333	0.100
612.300	-38.572	0.100
612.400	-30.362	0.100
612.500	-31.790	0.100
612.600	-39.859	0.100
612.700	-43.387	0.100
612.800	-34.860	0.100
612.900	-40.364	0.100
613.000	-33.912	0.100
613.100	-40.222	0.100
613.200	-42.329	0.100
613.300	-33.916	0.100
613.400	-27.408	0.100
613.500	-31.611	0.100
613.600	-26.528	0.100
613.700	-41.305	0.100
613.800	-34.073	0.100
613.900	-37.729	0.100
614.000	-32.832	0.100
614.100	-37.919	0.100
614.200	-28.693	0.100
614.300	-31.174	0.100
614.400	-34.574	0.100
614.500	-38.462	0.100
614.600	-32.895	0.100
614.700	-33.525	0.100
614.800	-27.672	0.100
614.900	-46.055	0.100
615.000	-47.712	0.100
615.100	-31.993	0.100
615.200	-42.551	0.100
615.300	-33.513	0.100
615.400	-28.822	0.100
615.500	-30.507	0.100
615.600	-31.518	0.100
615.700	-42.780	0.100
615.800	-35.090	0.100
615.900	-32.550	0.100
616.000	-31.503	0.100
616.100	-26.627	0.100
616.200	-38.474	0.100
616.300	-36.890	0.100
616.400	-40.330	0.100
616.500	-33.329	0.100
616.600	-27.202	0.100
616.700	-39.335	0.100
616.800	-29.643	0.100
616.900	-27.698	0.100
617.000	-36.456	0.100
617.100	-37.402	0.100
617.200	-27.012	0.100
617.300	-39.535	0.100
617.400	-31.971	0.100
617.500	-32.094	0.100
617.600	-30.165	0.100
617.700	-33.502	0.100
617.800	-30.224	0.100
617.900	-29.947	0.100
618.000	-27.520	0.100
618.100	-37.171	0.100
618.200	-35.031	0.100
618.300	-37.436	0.100
618.400	-25.209	0.100
618.500	-29.717	0.100
618.600	-30.806	0.100
618.700	-39.127	0.100
618.800	-38.905	0.100
618.900	-34.995	0.100
619.000	-28.101	0.100
619.100	-28.540	0.100
619.200	-40.423	0.100
619.300	-38.310	0.100
619.400	-27.107	0.100
619.500	-33.535	0.100
619.600	-29.762	0.100
619.700	-32.615	0.100
619.800	-34.724	0.100
619.900	-28.178	0.100
620.000	-23.319	0.100
620.100	-34.590	0.100
620.200	-46.283	0.100
620.300	-38.601	0.100
620.400	-38.077	0.100
620.500	-48.082	0.100
620.600	-38.250	0.100
620.700	-30.865	0.100
620.800	-37.535	0.100
620.900	-38.920	0.100
621.000	-30.103	0.100
621.100	-19.903	0.100
621.200	-27.771	0.100
621.300	-48.847	0.100
621.400	-42.887	0.100
621.500	-26.933	0.100
621.600	-32.070	0.100
621.700	-31.876	0.100
621.800	-27.508	0.100
621.900	-27.988	0.100
622.000	-29.881	0.100
622.100	-28.831	0.100
622.200	-34.964	0.100
622.300	-40.217	0.100
622.400	-40.796	0.100
622.500	-41.761	0.100
622.600	-36.067	0.100
622.700	-34.775	0.100
622.800	-35.386	0.100
622.900	-31.752	0.100
623.000	-33.030	0.100
623.100	-25.967	0.100
623.200	-42.670	0.100
623.300	-32.029	0.100
623.400	-22.674	0.100
623.500	-35.160	0.100
623.600	-31.125	0.100
623.700	-35.653	0.100
623.800	-33.221	0.100
623.900	-34.306	0.100
624.000	-41.838	0.100
624.100	-36.087	0.100
624.200	-25.307	0.100
624.300	-30.002	0.100
624.400	-37.465	0.100
624.500	-36.463	0.100
624.600	-32.865	0.100
624.700	-31.457	0.100
624.800	-31.378	0.100
624.900	-32.483	0.100
625.000	-38.659	0.100
625.100	-49.458	0.100
625.200	-37.713	0.100
625.300	-29.388	0.100
625.400	-38.995	0.100
625.500	-26.987	0.100
625.600	-26.103	0.100
625.700	-27.251	0.100
625.800	-33.749	0.100
625.900	-35.440	0.100
626.000	-32.269	0.100
626.100	-31.666	0.100
626.200	-32.527	0.100
626.300	-34.842	0.100
626.400	-34.842	0.100
626.500	-36.744	0.100
626.600	-35.007	0.100
626.700	-28.271	0.100
626.800	-27.761	0.100
626.900	-32.671	0.100
627.000	-37.891	0.100
627.100	-35.424	0.100
627.200	-45.487	0.100
627.300	-45.008	0.100
627.400	-34.364	0.100
627.500	-25.203	0.100
627.600	-22.048	0.100
627.700	-34.925	0.100
627.800	-38.680	0.100
627.900	-34.035	0.100
628.000	-29.362	0.100
628.100	-29.565	0.100
628.200	-34.101	0.100
628.300	-33.826	0.100
628.400	-49.536	0.100
628.500	-39.623	0.100
628.600	-33.866	0.100
628.700	-35.808	0.100
628.800	-39.210	0.100
628.900	-29.710	0.100
629.000	-28.932	0.100
629.100	-31.090	0.100
629.200	-37.063	0.100
629.300	-38.776	0.100
629.400	-38.893	0.100
629.500	-33.819	0.100
629.600	-26.121	0.100
629.700	-30.353	0.100
629.800	-39.903	0.100
629.900	-37.921	0.100
630.000	-30.212	0.100
630.100	-33.969	0.100
630.200	-34.187	0.100
630.300	-31.399	0.100
630.400	-22.315	0.100
630.500	-27.945	0.100
630.600	-29.400	0.100
630.700	-30.180	0.100
630.800	-26.250	0.100
630.900	-26.553	0.100
631.000	-17.646	0.100
631.100	-12.105	0.100
631.200	-17.913	0.100
631.300	-13.447	0.100
631.400	-8.735	0.100
631.500	-5.225	0.100
631.600	-5.721	0.100
631.700	-9.381	0.100
631.800	0.928	0.100
631.900	-0.425	0.100
632.000	-1.966	0.100
632.100	-3.228	0.100
632.200	-4.042	0.100
632.300	-3.963	0.100
632.400	-3.506	0.100
632.500	-4.233	0.100
632.600	7.342	0.100
632.700	1.567	0.100
632.800	1.149	0.100
632.900	-2.527	0.100
633.000	-1.084	0.100
633.100	-0.605	0.100
633.200	-1.939	0.100
633.300	-7.173	0.100
633.400	1.123	0.100
633.500	11.803	0.100
633.600	12.450	0.100
633.700	-3.443	0.100
633.800	10.716	0.100
633.900	0.489	0.100
634.000	-0.298	0.100
634.100	-3.194	0.100
634.200	1.201	0.100
634.300	5.610	0.100
634.400	9.621	0.100
634.500	5.633	0.100
634.600	-3.645	0.100
634.700	5.806	0.100
634.800	7.938	0.100
634.900	6.224	0.100
635.000	0.768	0.100
635.100	1.334	0.100
635.200	-1.865	0.100
635.300	9.208	0.100
635.400	18.207	0.100
635.500	9.407	0.100
635.600	10.101	0.100
635.700	7.048	0.100
635.800	0.183	0.100
635.900	5.122	0.100
636.000	3.844	0.100
636.100	15.445	0.100
636.200	6.906	0.100
636.300	-2.655	0.100
636.400	9.501	0.100
636.500	0.680	0.100
636.600	0.493	0.100
636.700	11.476	0.100
636.800	11.495	0.100
636.900	8.205	0.100
637.000	2.141	0.100
637.100	2.622	0.100
637.200	3.593	0.100
637.300	0.302	0.100
637.400	5.562	0.100
637.500	5.741	0.100
637.600	3.615	0.100
637.700	4.672	0.100
637.800	6.731	0.100
637.900	2.647	0.100
638.000	7.230	0.100
638.100	1.655	0.100
638.200	2.737	0.100
638.300	-1.413	0.100
638.400	1.119	0.100
638.500	0.573	0.100
638.600	10.940	0.100
638.700	9.462	0.100
638.800	11.412	0.100
638.900	5.327	0.100
639.000	3.613	0.100
639.100	1.001	0.100
639.200	8.885	0.100
639.300	7.866	0.100
639.400	16.954	0.100
639.500	-0.493	0.100
639.600	5.751	0.100
639.700	7.950	0.100
639.800	9.857	0.100
639.900	11.952	0.100
640.000	9.984	0.100
640.100	12.392	0.100
640.200	17.310	0.100
640.300	15.669	0.100
640.400	8.344	0.100
640.500	5.851	0.100
640.600	11.039	0.100
640.700	8.056	0.100
640.800	13.967	0.100
640.900	16.607	0.100
641.000	15.327	0.100
641.100	0.703	0.100
641.200	10.909	0.100
641.300	3.668	0.100
641.400	17.581	0.100
641.500	16.788	0.100
641.600	16.885	0.100
641.700	6.155	0.100
641.800	7.297	0.100
641.900	10.764	0.100
642.000	13.715	0.100
642.100	13.322	0.100
642.200	13.549	0.100
642.300	7.341	0.100
642.400	10.382	0.100
642.500	17.479	0.100
642.600	6.564	0.100
642.700	12.638	0.100
642.800	20.745	0.100
642.900	11.953	0.100
643.000	17.447	0.100
643.100	22.082	0.100
643.200	10.189	0.100
643.300	20.659	0.100
643.400	13.546	0.100
643.500	19.360	0.100
643.600	9.443	0.100
643.700	16.426	0.100
643.800	19.414	0.100
643.900	9.426	0.100
644.000	13.840	0.100
644.100	22.513	0.100
644.200	17.207	0.100
644.300	20.168	0.100
644.400	16.808	0.100
644.500	20.789	0.100
644.600	11.673	0.100
644.700	20.899	0.100
644.800	15.064	0.100
644.900	17.011	0.100
645.000	16.414	0.100
645.100	14.974	0.100
645.200	17.018	0.100
645.300	24.373	0.100
645.400	20.483	0.100
645.500	24.212	0.100
645.600	27.430	0.100
645.700	25.937	0.100
645.800	28.401	0.100
645.900	21.633	0.100
646.000	26.181	0.100
646.100	29.306	0.100
646.200	22.545	0.100
646.300	23.330	0.100
646.400	30.770	0.100
646.500	27.068	0.100
646.600	28.803	0.100
646.700	15.739	0.100
646.800	35.995	0.100
646.900	27.706	0.100
647.000	36.832	0.100
647.100	24.102	0.100
647.200	27.684	0.100
647.300	25.910	0.100
647.400	22.151	0.100
647.500	30.541	0.100
647.600	28.777	0.100
647.700	28.935	0.100
647.800	40.363	0.100
647.900	32.733	0.100
648.000	27.400	0.100
648.100	24.993	0.100
648.200	32.249	0.100
648.300	29.346	0.100
648.400	35.304	0.100
648.500	35.519	0.100
648.600	38.435	0.100
648.700	44.334	0.100
648.800	38.380	0.100
648.900	35.090	0.100
649.000	45.379	0.100
649.100	41.548	0.100
649.200	42.165	0.100
649.300	35.860	0.100
649.400	36.221	0.100
649.500	29.753	0.100
649.600	34.895	0.100
649.700	52.868	0.100
649.800	41.478	0.100
649.900	43.703	0.100
650.000	38.031	0.100
650.100	29.431	0.100
650.200	42.692	0.100
650.300	41.166	0.100
650.400	47.225	0.100
650.500	40.497	0.100
650.600	50.340	0.100
650.700	36.623	0.100
650.800	35.945	0.100
650.900	34.100	0.100
651.000	51.709	0.100
651.100	52.352	0.100
651.200	47.482	0.100
651.300	50.681	0.100
651.400	50.099	0.100
651.500	49.044	0.100
651.600	45.370	0.100
651.700	49.167	0.100
651.800	53.475	0.100
651.900	39.264	0.100
652.000	44.799	0.100
652.100	41.552	0.100
652.200	48.262	0.100
652.300	40.883	0.100
652.400	41.322	0.100
652.500	43.891	0.100
652.600	53.513	0.100
652.700	45.068	0.100
652.800	40.530	0.100
652.900	38.307	0.100
653.000	47.571	0.100
653.100	59.777	0.100
653.200	50.429	0.100
653.300	53.030	0.100
653.400	52.233	0.100
653.500	48.441	0.100
653.600	50.503	0.100
653.700	50.547	0.100
653.800	53.843	0.100
653.900	51.115	0.100
654.000	53.121	0.100
654.100	45.199	0.100
654.200	49.947	0.100
654.300	50.425	0.100
654.400	51.421	0.100
654.500	47.810	0.100
654.600	52.452	0.100
654.700	54.791	0.100
654.800	45.403	0.100
654.900	55.020	0.100
655.000	47.719	0.100
655.100	45.958	0.100
655.200	54.432	0.100
655.300	55.263	0.100
655.400	49.338	0.100
655.500	50.329	0.100
655.600	47.492	0.100
655.700	43.394	0.100
655.800	55.657	0.100
655.900	62.979	0.100
656.000	53.713	0.100
656.100	48.703	0.100
656.200	46.933	0.100
656.300	53.305	0.100
656.400	49.100	0.100
656.500	53.574	0.100
656.600	53.864	0.100
656.700	55.046	0.100
656.800	46.703	0.100
656.900	55.622	0.100
657.000	46.275	0.100
657.100	54.507	0.100
657.200	59.131	0.100
657.300	49.847	0.100
657.400	56.682	0.100
657.500	45.875	0.100
657.600	47.957	0.100
657.700	47.509	0.100
657.800	54.451	0.100
657.900	47.715	0.100
658.000	56.040	0.100
658.100	55.738	0.100
658.200	49.308	0.100
658.300	44.050	0.100
658.400	51.672	0.100
658.500	54.047	0.100
658.600	54.050	0.100
658.700	58.749	0.100
658.800	57.294	0.100
658.900	49.863	0.100
659.000	44.138	0.100
659.100	48.486	0.100
659.200	49.089	0.100
659.300	42.073	0.100
659.400	53.041	0.100
659.500	58.923	0.100
659.600	40.571	0.100
659.700	58.017	0.100
659.800	46.612	0.100
659.900	47.819	0.100
660.000	54.752	0.100
660.100	55.153	0.100
660.200	56.771	0.100
660.300	54.207	0.100
660.400	53.632	0.100
660.500	50.832	0.100
660.600	43.341	0.100
660.700	55.991	0.100
660.800	49.637	0.100
660.900	54.720	0.100
661.000	50.027	0.100
661.100	54.186	0.100
661.200	52.555	0.100
661.300	53.737	0.100
661.400	53.395	0.100
661.500	60.391	0.100
661.600	55.490	0.100
661.700	52.902	0.100
661.800	56.975	0.100
661.900	56.816	0.100
662.000	51.632	0.100
662.100	52.673	0.100
662.200	52.361	0.100
662.300	60.448	0.100
662.400	56.334	0.100
662.500	53.252	0.100
662.600	49.378	0.100
662.700	50.321	0.100
662.800	49.224	0.100
662.900	52.797	0.100
663.000	53.430	0.100
663.100	41.055	0.100
663.200	39.674	0.100
663.300	50.557	0.100
663.400	55.381	0.100
663.500	54.374	0.100
663.600	57.409	0.100
663.700	53.525	0.100
663.800	51.150	0.100
663.900	38.443	0.100
664.000	46.613	0.100
664.100	51.391	0.100
664.200	58.955	0.100
664.300	60.348	0.100
664.400	52.833	0.100
664.500	50.123	0.100
664.600	50.949	0.100
664.700	55.775	0.100
664.800	51.512	0.100
664.900	48.847	0.100
665.000	49.800	0.100
665.100	51.097	0.100
665.200	47.200	0.100
665.300	51.553	0.100
665.400	55.026	0.100
665.500	57.864	0.100
665.600	54.634	0.100
665.700	55.378	0.100
665.800	53.326	0.100
665.900	49.290	0.100
666.000	52.470	0.100
666.100	49.545	0.100
666.200	52.052	0.100
666.300	51.637	0.100
666.400	51.484	0.100
666.500	53.558	0.100
666.600	43.031	0.100
666.700	52.531	0.100
666.800	49.975	0.100
666.900	53.675	0.100
667.000	48.228	0.100
667.100	48.611	0.100
667.200	52.429	0.100
667.300	56.994	0.100
667.400	51.373	0.100
667.500	54.801	0.100
667.600	54.539	0.100
667.700	49.216	0.100
667.800	55.842	0.100
667.900	57.807	0.100
668.000	52.600	0.100
668.100	55.549	0.100
668.200	54.456	0.100
668.300	42.069	0.100
668.400	47.841	0.100
668.500	58.677	0.100
668.600	56.856	0.100
668.700	51.081	0.100
668.800	45.896	0.100
668.900	49.373	0.100
669.000	51.394	0.100
669.100	61.711	0.100
669.200	51.345	0.100
669.300	54.778	0.100
669.400	55.263	0.100
669.500	57.712	0.100
669.600	54.684	0.100
669.700	49.819	0.100
669.800	48.636	0.100
669.900	52.723	0.100
670.000	55.006	0.100
670.100	54.016	0.100
670.200	55.529	0.100
670.300	50.549	0.100
670.400	58.909	0.100
670.500	47.887	0.100
670.600	51.213	0.100
670.700	53.435	0.100
670.800	45.807	0.100
670.900	47.118	0.100
671.000	50.598	0.100
671.100	50.076	0.100
671.200	53.490	0.100
671.300	51.566	0.100
671.400	58.440	0.100
671.500	59.066	0.100
671.600	60.204	0.100
671.700	49.175	0.100
671.800	48.324	0.100
671.900	45.727	0.100
672.000	48.980	0.100
672.100	38.515	0.100
672.200	48.610	0.100
672.300	53.356	0.100
672.400	57.936	0.100
672.500	56.332	0.100
672.600	55.067	0.100
672.700	50.472	0.100
672.800	47.743	0.100
672.900	58.109	0.100
673.000	47.053	0.100
673.100	48.184	0.100
673.200	46.766	0.100
673.300	40.410	0.100
673.400	53.219	0.100
673.500	44.529	0.100
673.600	48.480	0.100
673.700	61.246	0.100
673.800	56.968	0.100
673.900	50.088	0.100
674.000	49.857	0.100
674.100	62.310	0.100
674.200	50.122	0.100
674.300	50.408	0.100
674.400	45.853	0.100
674.500	50.901	0.100
674.600	60.516	0.100
674.700	57.590	0.100
674.800	60.980	0.100
674.900	55.956	0.100
675.000	57.472	0.100
675.100	47.302	0.100
675.200	50.682	0.100
675.300	36.802	0.100
675.400	43.553	0.100
675.500	46.630	0.100
675.600	58.520	0.100
675.700	42.610	0.100
675.800	56.729	0.100
675.900	53.910	0.100
676.000	50.701	0.100
676.100	49.584	0.100
676.200	51.780	0.100
676.300	54.537	0.100
676.400	52.537	0.100
676.500	53.810	0.100
676.600	51.337	0.100
676.700	46.671	0.100
676.800	51.526	0.100
676.900	45.491	0.100
677.000	55.012	0.100
677.100	37.790	0.100
677.200	55.038	0.100
677.300	58.144	0.100
677.400	61.471	0.100
677.500	47.211	0.100
677.600	44.520	0.100
677.700	56.950	0.100
677.800	60.739	0.100
677.900	48.638	0.100
678.000	53.266	0.100
678.100	57.189	0.100
678.200	57.727	0.100
678.300	52.750	0.100
678.400	53.094	0.100
678.500	50.472	0.100
678.600	54.930	0.100
678.700	52.312	0.100
678.800	47.355	0.100
678.900	51.196	0.100
679.000	51.561	0.100
679.100	55.946	0.100
679.200	54.344	0.100
679.300	57.104	0.100
679.400	40.098	0.100
679.500	45.292	0.100
679.600	50.106	0.100
679.700	47.963	0.100
679.800	44.383	0.100
679.900	53.501	0.100
680.000	49.127	0.100
680.100	56.572	0.100
680.200	59.809	0.100
680.300	49.427	0.100
680.400	53.088	0.100
680.500	58.493	0.100
680.600	57.010	0.100
680.700	38.378	0.100
680.800	43.628	0.100
680.900	53.065	0.100
681.000	48.132	0.100
681.100	47.403	0.100
681.200	44.064	0.100
681.300	42.065	0.100
681.400	60.772	0.100
681.500	51.688	0.100
681.600	59.504	0.100
681.700	58.970	0.100
681.800	44.360	0.100
681.900	55.093	0.100
682.000	52.020	0.100
682.100	51.724	0.100
682.200	55.407	0.100
682.300	45.976	0.100
682.400	51.613	0.100
682.500	52.759	0.100
682.600	62.605	0.100
682.700	51.550	0.100
682.800	47.112	0.100
682.900	51.649	0.100
683.000	61.547	0.100
683.100	44.458	0.100
683.200	54.654	0.100
683.300	57.414	0.100
683.400	53.146	0.100
683.500	45.908	0.100
683.600	56.907	0.100
683.700	51.741	0.100
683.800	44.183	0.100
683.900	49.191	0.100
684.000	49.475	0.100
684.100	55.502	0.100
684.200	54.590	0.100
684.300	59.964	0.100
684.400	54.843	0.100
684.500	54.420	0.100
684.600	57.126	0.100
684.700	36.561	0.100
684.800	45.739	0.100
684.900	48.582	0.100
685.000	44.717	0.100
685.100	59.264	0.100
685.200	57.162	0.100
685.300	53.062	0.100
685.400	51.403	0.100
685.500	51.600	0.100
685.600	47.206	0.100
685.700	55.790	0.100
685.800	48.717	0.100
685.900	52.340	0.100
686.000	60.024	0.100
686.100	42.636	0.100
686.200	51.743	0.100
686.300	48.720	0.100
686.400	45.515	0.100
686.500	50.701	0.100
686.600	48.406	0.100
686.700	50.512	0.100
686.800	43.366	0.100
686.900	55.771	0.100
687.000	55.625	0.100
687.100	46.145	0.100
687.200	58.171	0.100
687.300	59.255	0.100
687.400	48.223	0.100
687.500	55.541	0.100
687.600	40.673	0.100
687.700	58.465	0.100
687.800	54.909	0.100
687.900	55.687	0.100
688.000	49.549	0.100
688.100	45.821	0.100
688.200	45.442	0.100
688.300	42.496	0.100
688.400	52.342	0.100
688.500	53.126	0.100
688.600	53.970	0.100
688.700	43.468	0.100
688.800	54.234	0.100
688.900	47.437	0.100
689.000	51.965	0.100
689.100	50.920	0.100
689.200	42.640	0.100
689.300	43.281	0.100
689.400	48.151	0.100
689.500	45.862	0.100
689.600	65.254	0.100
689.700	56.516	0.100
689.800	54.867	0.100
689.900	53.584	0.100
690.000	40.033	0.100
690.100	44.594	0.100
690.200	48.256	0.100
690.300	56.713	0.100
690.400	54.473	0.100
690.500	47.577	0.100
690.600	54.149	0.100
690.700	42.173	0.100
690.800	35.346	0.100
690.900	40.103	0.100
691.000	35.131	0.100
691.100	34.502	0.100
691.200	30.808	0.100
691.300	29.547	0.100
691.400	29.084	0.100
691.500	17.879	0.100
691.600	11.546	0.100
691.700	7.191	0.100
691.800	26.872	0.100
691.900	21.552	0.100
692.000	16.804	0.100
692.100	16.370	0.100
692.200	6.081	0.100
692.300	7.449	0.100
692.400	1.256	0.100
692.500	8.610	0.100
692.600	4.287	0.100
692.700	10.670	0.100
692.800	10.376	0.100
692.900	1.206	0.100
693.000	-3.339	0.100
693.100	-0.435	0.100
693.200	4.331	0.100
693.300	-1.078	0.100
693.400	-5.647	0.100
693.500	-4.599	0.100
693.600	0.854	0.100
693.700	7.231	0.100
693.800	4.324	0.100
693.900	-0.532	0.100
694.000	-10.362	0.100
694.100	-9.658	0.100
694.200	-8.216	0.100
694.300	-5.777	0.100
694.400	-4.081	0.100
694.500	2.496	0.100
694.600	-8.184	0.100
694.700	-4.274	0.100
694.800	-8.648	0.100
694.900	1.197	0.100
695.000	0.450	0.100
695.100	-10.519	0.100
695.200	-11.309	0.100
695.300	-12.857	0.100
695.400	-20.881	0.100
695.500	-14.193	0.100
695.600	-9.475	0.100
695.700	-11.563	0.100
695.800	-3.425	0.100
695.900	-0.389	0.100
696.000	-5.400	0.100
696.100	-4.099	0.100
696.200	-8.678	0.100
696.300	1.255	0.100
696.400	-6.206	0.100
696.500	-4.599	0.100
696.600	-9.092	0.100
696.700	-4.148	0.100
696.800	-15.511	0.100
696.900	-9.107	0.100
697.000	-4.132	0.100
697.100	-4.676	0.100
697.200	-18.698	0.100
697.300	-0.240	0.100
697.400	-8.001	0.100
697.500	6.754	0.100
697.600	-8.678	0.100
697.700	-17.260	0.100
697.800	-6.054	0.100
697.900	-9.764	0.100
698.000	-4.816	0.100
698.100	-10.779	0.100
698.200	-2.729	0.100
698.300	-0.498	0.100
698.400	-11.252	0.100
698.500	-14.227	0.100
698.600	2.811	0.100
698.700	-5.715	0.100
698.800	-13.415	0.100
698.900	-5.925	0.100
699.000	-7.027	0.100
699.100	-3.228	0.100
699.200	-12.338	0.100
699.300	-7.477	0.100
699.400	-6.851	0.100
699.500	-10.717	0.100
699.600	-8.855	0.100
699.700	-4.559	0.100
699.800	-6.331	0.100
699.900	-10.186	0.100
700.000	-13.209	0.100
700.100	-7.432	0.100
700.200	-8.758	0.100
700.300	-12.205	0.100
700.400	-15.641	0.100
700.500	-11.394	0.100
700.600	-11.106	0.100
700.700	-15.162	0.100
700.800	-11.902	0.100
700.900	-13.145	0.100
701.000	-7.154	0.100
701.100	-7.661	0.100
701.200	-12.297	0.100
701.300	-6.411	0.100
701.400	-13.512	0.100
701.500	-16.399	0.100
701.600	-13.753	0.100
701.700	-11.104	0.100
701.800	-12.831	0.100
701.900	-9.487	0.100
702.000	-17.988	0.100
702.100	-11.882	0.100
702.200	-11.641	0.100
702.300	-11.594	0.100
702.400	-11.141	0.100
702.500	-21.374	0.100
702.600	-18.598	0.100
702.700	-19.340	0.100
702.800	-15.890	0.100
702.900	-14.249	0.100
703.000	-16.498	0.100
703.100	-17.827	0.100
703.200	-15.414	0.100
703.300	-13.045	0.100
703.400	-10.194	0.100
703.500	-8.080	0.100
703.600	-18.299	0.100
703.700	-9.542	0.100
703.800	-14.101	0.100
703.900	-12.090	0.100
704.000	-7.866	0.100
704.100	-15.536	0.100
704.200	-18.791	0.100
704.300	-14.515	0.100
704.400	-17.349	0.100
704.500	-12.130	0.100
704.600	-8.153	0.100
704.700	-28.001	0.100
704.800	-29.058	0.100
704.900	-20.640	0.100
705.000	-6.338	0.100
705.100	-11.643	0.100
705.200	-19.345	0.100
705.300	-16.329	0.100
705.400	-23.564	0.100
705.500	-21.009	0.100
705.600	-11.851	0.100
705.700	-22.936	0.100
705.800	-12.797	0.100
705.900	-11.769	0.100
706.000	-13.471	0.100
706.100	-15.667	0.100
706.200	-24.289	0.100
706.300	-22.586	0.100
706.400	-13.559	0.100
706.500	-21.062	0.100
706.600	-21.846	0.100
706.700	-20.762	0.100
706.800	-21.585	0.100
706.900	-15.983	0.100
707.000	-9.054	0.100
707.100	-16.079	0.100
707.200	-10.856	0.100
707.300	-20.841	0.100
707.400	-27.944	0.100
707.500	-17.117	0.100
707.600	-13.808	0.100
707.700	-12.527	0.100
707.800	-25.217	0.100
707.900	-28.626	0.100
708.000	-17.195	0.100
708.100	-12.632	0.100
708.200	-23.447	0.100
708.300	-18.575	0.100
708.400	-27.736	0.100
708.500	-29.974	0.100
708.600	-29.696	0.100
708.700	-23.300	0.100
708.800	-16.021	0.100
708.900	-19.281	0.100
709.000	-26.106	0.100
709.100	-26.750	0.100
709.200	-18.329	0.100
709.300	-9.309	0.100
709.400	-13.666	0.100
709.500	-21.602	0.100
709.600	-10.296	0.100
709.700	-21.857	0.100
709.800	-29.329	0.100
709.900	-24.077	0.100
710.000	-20.108	0.100
710.100	-32.564	0.100
710.200	-30.046	0.100
710.300	-21.200	0.100
710.400	-28.489	0.100
710.500	-28.448	0.100
710.600	-27.723	0.100
710.700	-14.441	0.100
710.800	-23.327	0.100
710.900	-26.645	0.100
711.000	-23.823	0.100
711.100	-18.030	0.100
711.200	-24.846	0.100
711.300	-23.471	0.100
711.400	-21.240	0.100
711.500	-26.721	0.100
711.600	-27.588	0.100
711.700	-20.729	0.100
711.800	-14.465	0.100
711.900	-26.939	0.100
712.000	-27.498	0.100
712.100	-19.320	0.100
712.200	-35.210	0.100
712.300	-22.952	0.100
712.400	-21.170	0.100
712.500	-23.016	0.100
712.600	-20.250	0.100
712.700	-23.050	0.100
712.800	-24.406	0.100
712.900	-17.005	0.100
713.000	-28.385	0.100
713.100	-33.430	0.100
713.200	-34.244	0.100
713.300	-23.831	0.100
713.400	-34.049	0.100
713.500	-28.150	0.100
713.600	-24.102	0.100
713.700	-17.743	0.100
713.800	-23.720	0.100
713.900	-24.178	0.100
714.000	-31.619	0.100
714.100	-39.594	0.100
714.200	-32.099	0.100
714.300	-30.999	0.100
714.400	-18.578	0.100
714.500	-30.334	0.100
714.600	-28.434	0.100
714.700	-27.956	0.100
714.800	-27.230	0.100
714.900	-20.098	0.100
715.000	-25.577	0.100
715.100	-26.629	0.100
715.200	-35.530	0.100
715.300	-35.318	0.100
715.400	-22.437	0.100
715.500	-22.642	0.100
715.600	-35.127	0.100
715.700	-28.967	0.100
715.800	-29.177	0.100
715.900	-34.343	0.100
716.000	-39.954	0.100
716.100	-27.667	0.100
716.200	-30.983	0.100
716.300	-34.274	0.100
716.400	-27.739	0.100
716.500	-24.916	0.100
716.600	-31.207	0.100
716.700	-24.033	0.100
716.800	-31.051	0.100
716.900	-33.712	0.100
717.000	-33.698	0.100
717.100	-32.864	0.100
717.200	-25.612	0.100
717.300	-26.456	0.100
717.400	-32.496	0.100
717.500	-29.039	0.100
717.600	-30.747	0.100
717.700	-26.976	0.100
717.800	-32.645	0.100
717.900	-33.336	0.100
718.000	-34.984	0.100
718.100	-27.992	0.100
718.200	-45.787	0.100
718.300	-22.432	0.100
718.400	-25.939	0.100
718.500	-27.030	0.100
718.600	-32.048	0.100
718.700	-39.939	0.100
718.800	-38.077	0.100
718.900	-40.623	0.100
719.000	-33.043	0.100
719.100	-34.380	0.100
719.200	-31.811	0.100
719.300	-35.331	0.100
719.400	-26.225	0.100
719.500	-27.108	0.100
719.600	-43.058	0.100
719.700	-33.704	0.100
719.800	-39.026	0.100
719.900	-33.888	0.100
720.000	-31.399	0.100
720.100	-29.441	0.100
720.200	-33.029	0.100
720.300	-38.407	0.100
720.400	-34.381	0.100
720.500	-35.707	0.100
720.600	-24.348	0.100
720.700	-43.026	0.100
720.800	-34.548	0.100
720.900	-30.764	0.100
721.000	-27.675	0.100
721.100	-37.320	0.100
721.200	-32.960	0.100
721.300	-29.495	0.100
721.400	-33.640	0.100
721.500	-34.095	0.100
721.600	-43.290	0.100
721.700	-27.703	0.100
721.800	-25.273	0.100
721.900	-39.402	0.100
722.000	-28.761	0.100
722.100	-30.957	0.100
722.200	-28.072	0.100
722.300	-40.556	0.100
722.400	-36.376	0.100
722.500	-45.660	0.100
722.600	-32.739	0.100
722.700	-49.084	0.100
722.800	-38.250	0.100
722.900	-35.509	0.100
723.000	-37.942	0.100
723.100	-36.950	0.100
723.200	-41.197	0.100
723.300	-35.902	0.100
723.400	-44.161	0.100
723.500	-33.730	0.100
723.600	-34.209	0.100
723.700	-42.575	0.100
723.800	-47.555	0.100
723.900	-27.824	0.100
724.000	-35.368	0.100
724.100	-36.259	0.100
724.200	-32.082	0.100
724.300	-31.058	0.100
724.400	-37.880	0.100
724.500	-48.300	0.100
724.600	-50.110	0.100
724.700	-36.379	0.100
724.800	-33.466	0.100
724.900	-36.216	0.100
725.000	-39.387	0.100
725.100	-38.385	0.100
725.200	-35.203	0.100
725.300	-41.814	0.100
725.400	-40.606	0.100
725.500	-29.878	0.100
725.600	-38.913	0.100
725.700	-32.892	0.100
725.800	-35.910	0.100
725.900	-38.619	0.100
726.000	-48.326	0.100
726.100	-40.856	0.100
726.200	-41.187	0.100
726.300	-30.535	0.100
726.400	-48.706	0.100
726.500	-37.470	0.100
726.600	-32.421	0.100
726.700	-42.141	0.100
726.800	-38.568	0.100
726.900	-49.476	0.100
727.000	-37.273	0.100
727.100	-38.003	0.100
727.200	-39.501	0.100
727.300	-38.792	0.100
727.400	-31.755	0.100
727.500	-39.675	0.100
727.600	-44.665	0.100
727.700	-46.864	0.100
727.800	-48.442	0.100
727.900	-39.641	0.100
728.000	-42.282	0.100
728.100	-38.032	0.100
728.200	-43.389	0.100
728.300	-41.677	0.100
728.400	-38.394	0.100
728.500	-41.618	0.100
728.600	-43.388	0.100
728.700	-37.432	0.100
728.800	-48.258	0.100
728.900	-40.611	0.100
729.000	-36.115	0.100
729.100	-40.205	0.100
729.200	-30.185	0.100
729.300	-30.780	0.100
729.400	-39.157	0.100
729.500	-27.755	0.100
729.600	-36.357	0.100
729.700	-44.047	0.100
729.800	-39.810	0.100
729.900	-42.950	0.100
730.000	-39.125	0.100
730.100	-43.738	0.100
730.200	-42.401	0.100
730.300	-31.517	0.100
730.400	-44.410	0.100
730.500	-32.230	0.100
730.600	-36.932	0.100
730.700	-35.046	0.100
730.800	-38.031	0.100
730.900	-32.743	0.100
731.000	-46.555	0.100
731.100	-42.745	0.100
731.200	-42.763	0.100
731.300	-44.583	0.100
731.400	-44.542	0.100
731.500	-42.560	0.100
731.600	-42.860	0.100
731.700	-37.332	0.100
731.800	-36.770	0.100
731.900	-33.283	0.100
732.000	-42.197	0.100
732.100	-36.616	0.100
732.200	-39.095	0.100
732.300	-38.652	0.100
732.400	-39.982	0.100
732.500	-45.787	0.100
732.600	-42.626	0.100
732.700	-39.827	0.100
732.800	-32.332	0.100
732.900	-46.393	0.100
733.000	-44.146	0.100
733.100	-47.014	0.100
733.200	-43.738	0.100
733.300	-38.328	0.100
733.400	-40.783	0.100
733.500	-52.544	0.100
733.600	-37.260	0.100
733.700	-32.272	0.100
733.800	-31.673	0.100
733.900	-38.292	0.100
734.000	-42.864	0.100
734.100	-44.378	0.100
734.200	-37.363	0.100
734.300	-44.388	0.100
734.400	-39.895	0.100
734.500	-32.127	0.100
734.600	-33.400	0.100
734.700	-38.881	0.100
734.800	-46.492	0.100
734.900	-47.190	0.100
735.000	-40.883	0.100
735.100	-31.455	0.100
735.200	-36.005	0.100
735.300	-42.203	0.100
735.400	-44.010	0.100
735.500	-35.936	0.100
735.600	-35.706	0.100
735.700	-41.670	0.100
735.800	-39.417	0.100
735.900	-35.793	0.100
736.000	-42.307	0.100
736.100	-46.017	0.100
736.200	-49.102	0.100
736.300	-50.367	0.100
736.400	-44.106	0.100
736.500	-41.355	0.100
736.600	-44.501	0.100
736.700	-49.429	0.100
736.800	-47.080	0.100
736.900	-36.018	0.100
737.000	-37.890	0.100
737.100	-45.101	0.100
737.200	-40.061	0.100
737.300	-39.902	0.100
737.400	-38.925	0.100
737.500	-34.943	0.100
737.600	-36.127	0.100
737.700	-36.944	0.100
737.800	-44.919	0.100
737.900	-33.483	0.100
738.000	-28.997	0.100
738.100	-44.146	0.100
738.200	-46.155	0.100
738.300	-43.677	0.100
738.400	-33.418	0.100
738.500	-32.430	0.100
738.600	-43.572	0.100
738.700	-45.925	0.100
738.800	-31.826	0.100
738.900	-41.946	0.100
739.000	-42.315	0.100
739.100	-48.993	0.100
739.200	-42.605	0.100
739.300	-42.850	0.100
739.400	-33.301	0.100
739.500	-46.894	0.100
739.600	-44.302	0.100
739.700	-32.693	0.100
739.800	-33.192	0.100
739.900	-56.050	0.100
740.000	-50.794	0.100
740.100	-36.873	0.100
740.200	-40.998	0.100
740.300	-51.842	0.100
740.400	-42.521	0.100
740.500	-37.655	0.100
740.600	-29.326	0.100
740.700	-39.991	0.100
740.800	-34.213	0.100
740.900	-33.677	0.100
741.000	-37.587	0.100
741.100	-38.619	0.100
741.200	-34.231	0.100
741.300	-40.381	0.100
741.400	-41.783	0.100
741.500	-42.992	0.100
741.600	-36.489	0.100
741.700	-26.735	0.100
741.800	-40.334	0.100
741.900	-40.046	0.100
742.000	-41.915	0.100
742.100	-36.109	0.100
742.200	-40.564	0.100
742.300	-44.308	0.100
742.400	-40.159	0.100
742.500	-33.020	0.100
742.600	-34.861	0.100
742.700	-35.176	0.100
742.800	-42.919	0.100
742.900	-43.164	0.100
743.000	-39.830	0.100
743.100	-38.585	0.100
743.200	-45.245	0.100
743.300	-31.351	0.100
743.400	-39.103	0.100
743.500	-40.153	0.100
743.600	-40.711	0.100
743.700	-37.178	0.100
743.800	-41.064	0.100
743.900	-37.438	0.100
744.000	-50.637	0.100
744.100	-39.808	0.100
744.200	-30.537	0.100
744.300	-44.229	0.100
744.400	-50.640	0.100
744.500	-37.555	0.100
744.600	-42.388	0.100
744.700	-46.616	0.100
744.800	-43.091	0.100
744.900	-44.732	0.100
745.000	-42.520	0.100
745.100	-39.794	0.100
745.200	-34.921	0.100
745.300	-36.862	0.100
745.400	-41.234	0.100
745.500	-44.737	0.100
745.600	-46.395	0.100
745.700	-35.381	0.100
745.800	-35.382	0.100
745.900	-33.968	0.100
746.000	-41.829	0.100
746.100	-36.746	0.100
746.200	-42.466	0.100
746.300	-44.143	0.100
746.400	-43.823	0.100
746.500	-36.103	0.100
746.600	-39.179	0.100
746.700	-41.547	0.100
746.800	-45.288	0.100
746.900	-45.314	0.100
747.000	-41.167	0.100
747.100	-35.444	0.100
747.200	-37.751	0.100
747.300	-43.122	0.100
747.400	-40.170	0.100
747.500	-40.039	0.100
747.600	-47.160	0.100
747.700	-45.133	0.100
747.800	-32.237	0.100
747.900	-31.583	0.100
748.000	-36.167	0.100
748.100	-36.480	0.100
748.200	-43.136	0.100
748.300	-33.721	0.100
748.400	-39.072	0.100
748.500	-35.326	0.100
748.600	-32.500	0.100
748.700	-40.272	0.100
748.800	-40.385	0.100
748.900	-35.876	0.100
749.000	-39.063	0.100
749.100	-45.646	0.100
749.200	-44.852	0.100
749.300	-26.307	0.100
749.400	-35.043	0.100
749.500	-33.887	0.100
749.600	-42.035	0.100
749.700	-41.647	0.100
749.800	-38.977	0.100
749.900	-37.420	0.100
750.000	-32.030	0.100
750.100	-39.097	0.100
750.200	-45.309	0.100
750.300	-39.699	0.100
750.400	-35.376	0.100
750.500	-34.922	0.100
750.600	-38.430	0.100
750.700	-35.087	0.100
750.800	-32.830	0.100
750.900	-45.204	0.100
751.000	-37.741	0.100
751.100	-35.696	0.100
751.200	-31.085	0.100
751.300	-36.478	0.100
751.400	-37.884	0.100
751.500	-33.039	0.100
751.600	-37.830	0.100
751.700	-38.149	0.100
751.800	-44.708	0.100
751.900	-31.783	0.100
752.000	-33.895	0.100
752.100	-32.889	0.100
752.200	-42.807	0.100
752.300	-36.465	0.100
752.400	-30.594	0.100
752.500	-39.539	0.100
752.600	-33.515	0.100
752.700	-41.674	0.100
752.800	-39.894	0.100
752.900	-31.567	0.100
753.000	-42.860	0.100
753.100	-45.366	0.100
753.200	-37.205	0.100
753.300	-41.613	0.100
753.400	-46.924	0.100
753.500	-32.306	0.100
753.600	-44.455	0.100
753.700	-36.190	0.100
753.800	-40.681	0.100
753.900	-43.520	0.100
754.000	-42.097	0.100
754.100	-39.968	0.100
754.200	-39.966	0.100
754.300	-31.211	0.100
754.400	-35.824	0.100
754.500	-43.134	0.100
754.600	-28.439	0.100
754.700	-31.506	0.100
754.800	-45.496	0.100
754.900	-45.405	0.100
755.000	-30.356	0.100
755.100	-33.434	0.100
755.200	-30.822	0.100
755.300	-33.228	0.100
755.400	-42.593	0.100
755.500	-41.355	0.100
755.600	-40.849	0.100
755.700	-33.754	0.100
755.800	-35.890	0.100
755.900	-39.792	0.100
756.000	-37.326	0.100
756.100	-45.597	0.100
756.200	-39.631	0.100
756.300	-39.110	0.100
756.400	-38.366	0.100
756.500	-37.280	0.100
756.600	-35.619	0.100
756.700	-36.418	0.100
756.800	-41.151	0.100
756.900	-39.042	0.100
757.000	-36.409	0.100
757.100	-29.994	0.100
757.200	-39.743	0.100
757.300	-28.726	0.100
757.400	-26.891	0.100
757.500	-27.004	0.100
757.600	-30.597	0.100
757.700	-28.628	0.100
757.800	-47.593	0.100
757.900	-39.514	0.100
758.000	-38.633	0.100
758.100	-34.298	0.100
758.200	-37.646	0.100
758.300	-33.506	0.100
758.400	-44.776	0.100
758.500	-30.848	0.100
758.600	-34.381	0.100
758.700	-25.662	0.100
758.800	-27.180	0.100
758.900	-41.511	0.100
759.000	-38.612	0.100
759.100	-33.177	0.100
759.200	-33.139	0.100
759.300	-42.257	0.100
759.400	-38.130	0.100
759.500	-33.240	0.100
759.600	-22.991	0.100
759.700	-32.925	0.100
759.800	-31.482	0.100
759.900	-35.954	0.100
760.000	-36.539	0.100
760.100	-36.749	0.100
760.200	-37.255	0.100
760.300	-38.811	0.100
760.400	-44.031	0.100
760.500	-41.858	0.100
760.600	-29.338	0.100
760.700	-37.059	0.100
760.800	-32.739	0.100
760.900	-39.368	0.100
761.000	-32.758	0.100
761.100	-38.157	0.100
761.200	-35.884	0.100
761.300	-40.488	0.100
761.400	-39.540	0.100
761.500	-33.914	0.100
761.600	-37.102	0.100
761.700	-25.314	0.100
761.800	-33.686	0.100
761.900	-30.576	0.100
762.000	-38.585	0.100
762.100	-34.620	0.100
762.200	-41.941	0.100
762.300	-39.874	0.100
762.400	-33.386	0.100
762.500	-37.544	0.100
762.600	-36.860	0.100
762.700	-37.541	0.100
762.800	-33.010	0.100
762.900	-36.958	0.100
763.000	-42.737	0.100
763.100	-32.273	0.100
763.200	-28.692	0.100
763.300	-34.798	0.100
763.400	-32.217	0.100
763.500	-34.985	0.100
763.600	-32.789	0.100
763.700	-28.336	0.100
763.800	-31.131	0.100
763.900	-39.650	0.100
764.000	-36.389	0.100
764.100	-41.996	0.100
764.200	-39.909	0.100
764.300	-38.644	0.100
764.400	-37.729	0.100
764.500	-35.730	0.100
764.600	-35.580	0.100
764.700	-30.133	0.100
764.800	-31.635	0.100
764.900	-28.515	0.100
765.000	-48.484	0.100
765.100	-38.867	0.100
765.200	-29.326	0.100
765.300	-26.766	0.100
765.400	-32.456	0.100
765.500	-35.787	0.100
765.600	-31.980	0.100
765.700	-39.180	0.100
765.800	-28.743	0.100
765.900	-33.137	0.100
766.000	-38.433	0.100
766.100	-34.801	0.100
766.200	-33.966	0.100
766.300	-41.338	0.100
766.400	-38.806	0.100
766.500	-33.536	0.100
766.600	-33.998	0.100
766.700	-35.549	0.100
766.800	-32.704	0.100
766.900	-33.702	0.100
767.000	-33.119	0.100
767.100	-38.105	0.100
767.200	-42.017	0.100
767.300	-35.875	0.100
767.400	-32.943	0.100
767.500	-29.411	0.100
767.600	-34.300	0.100
767.700	-32.621	0.100
767.800	-38.880	0.100
767.900	-36.623	0.100
768.000	-34.218	0.100
768.100	-28.961	0.100
768.200	-34.334	0.100
768.300	-24.679	0.100
768.400	-33.944	0.100
768.500	-48.459	0.100
768.600	-39.731	0.100
768.700	-33.901	0.100
768.800	-36.716	0.100
768.900	-34.554	0.100
769.000	-42.095	0.100
769.100	-35.816	0.100
769.200	-41.586	0.100
769.300	-32.963	0.100
769.400	-28.607	0.100
769.500	-29.365	0.100
769.600	-31.879	0.100
769.700	-35.409	0.100
769.800	-28.525	0.100
769.900	-38.889	0.100
770.000	-33.095	0.100
770.100	-28.150	0.100
770.200	-38.971	0.100
770.300	-30.119	0.100
770.400	-36.211	0.100
770.500	-34.609	0.100
770.600	-34.597	0.100
770.700	-36.542	0.100
770.800	-40.008	0.100
770.900	-34.128	0.100
771.000	-36.838	0.100
771.100	-38.840	0.100
771.200	-36.876	0.100
771.300	-28.573	0.100
771.400	-41.251	0.100
771.500	-35.636	0.100
771.600	-33.656	0.100
771.700	-28.197	0.100
771.800	-26.776	0.100
771.900	-45.781	0.100
772.000	-32.513	0.100
772.100	-34.145	0.100
772.200	-36.336	0.100
772.300	-41.892	0.100
772.400	-27.891	0.100
772.500	-32.137	0.100
772.600	-41.974	0.100
772.700	-33.381	0.100
772.800	-30.241	0.100
772.900	-32.255	0.100
773.000	-28.448	0.100
773.100	-35.317	0.100
773.200	-28.159	0.100
773.300	-23.964	0.100
773.400	-36.227	0.100
773.500	-38.840	0.100
773.600	-22.099	0.100
773.700	-40.943	0.100
773.800	-37.758	0.100
773.900	-36.065	0.100
774.000	-42.110	0.100
774.100	-31.697	0.100
774.200	-33.470	0.100
774.300	-32.130	0.100
774.400	-45.298	0.100
774.500	-31.507	0.100
774.600	-24.953	0.100
774.700	-31.538	0.100
774.800	-35.326	0.100
774.900	-39.341	0.100
775.000	-39.057	0.100
775.100	-34.694	0.100
775.200	-21.140	0.100
775.300	-29.322	0.100
775.400	-31.663	0.100
775.500	-37.564	0.100
775.600	-32.486	0.100
775.700	-38.233	0.100
775.800	-31.262	0.100
775.900	-29.517	0.100
776.000	-34.112	0.100
776.100	-37.887	0.100
776.200	-35.349	0.100
776.300	-38.440	0.100
776.400	-39.435	0.100
776.500	-29.905	0.100
776.600	-36.496	0.100
776.700	-28.252	0.100
776.800	-38.983	0.100
776.900	-43.020	0.100
777.000	-33.447	0.100
777.100	-31.550	0.100
777.200	-32.321	0.100
777.300	-34.067	0.100
777.400	-32.484	0.100
777.500	-26.078	0.100
777.600	-31.080	0.100
777.700	-34.757	0.100
777.800	-35.189	0.100
777.900	-33.238	0.100
778.000	-35.517	0.100
778.100	-38.165	0.100
778.200	-33.185	0.100
778.300	-37.571	0.100
778.400	-30.760	0.100
778.500	-33.787	0.100
778.600	-25.291	0.100
778.700	-40.753	0.100
778.800	-19.825	0.100
778.900	-29.844	0.100
779.000	-33.370	0.100
779.100	-31.401	0.100
779.200	-34.198	0.100
779.300	-38.511	0.100
779.400	-35.090	0.100
779.500	-29.527	0.100
779.600	-31.632	0.100
779.700	-29.953	0.100
779.800	-32.063	0.100
779.900	-32.216	0.100
780.000	-28.988	0.100
780.100	-24.364	0.100
780.200	-31.600	0.100
780.300	-45.193	0.100
780.400	-24.713	0.100
780.500	-36.758	0.100
780.600	-37.187	0.100
780.700	-14.957	0.100
780.800	-19.003	0.100
780.900	-21.831	0.100
781.000	-22.364	0.100
781.100	-27.387	0.100
781.200	-23.456	0.100
781.300	-16.577	0.100
781.400	-8.967	0.100
781.500	0.892	0.100
781.600	-3.532	0.100
781.700	-4.619	0.100
781.800	-10.741	0.100
781.900	-7.600	0.100
782.000	8.728	0.100
782.100	1.800	0.100
782.200	-1.469	0.100
782.300	6.210	0.100
782.400	-9.991	0.100
782.500	12.854	0.100
782.600	-1.967	0.100
782.700	6.525	0.100
782.800	9.904	0.100
782.900	7.456	0.100
783.000	6.502	0.100
783.100	0.835	0.100
783.200	3.718	0.100
783.300	4.322	0.100
783.400	2.049	0.100
783.500	13.069	0.100
783.600	9.951	0.100
783.700	4.671	0.100
783.800	-4.125	0.100
783.900	4.667	0.100
784.000	6.299	0.100
784.100	7.679	0.100
784.200	5.576	0.100
784.300	3.947	0.100
784.400	9.760	0.100
784.500	2.057	0.100
784.600	10.520	0.100
784.700	-4.090	0.100
784.800	8.454	0.100
784.900	5.914	0.100
785.000	1.644	0.100
785.100	6.988	0.100
785.200	-4.328	0.100
785.300	8.998	0.100
785.400	16.162	0.100
785.500	3.852	0.100
785.600	5.618	0.100
785.700	8.423	0.100
785.800	4.507	0.100
785.900	-1.815	0.100
786.000	-3.584	0.100
786.100	3.767	0.100
786.200	1.211	0.100
786.300	3.515	0.100
786.400	7.087	0.100
786.500	1.922	0.100
786.600	6.224	0.100
786.700	2.668	0.100
786.800	3.690	0.100
786.900	1.437	0.100
787.000	0.212	0.100
787.100	10.323	0.100
787.200	2.898	0.100
787.300	1.557	0.100
787.400	-0.321	0.100
787.500	-3.210	0.100
787.600	6.521	0.100
787.700	3.283	0.100
787.800	13.951	0.100
787.900	9.221	0.100
788.000	10.913	0.100
788.100	6.329	0.100
788.200	-1.706	0.100
788.300	2.782	0.100
788.400	5.070	0.100
788.500	8.747	0.100
788.600	12.715	0.100
788.700	8.644	0.100
788.800	-0.667	0.100
788.900	10.041	0.100
789.000	5.373	0.100
789.100	10.235	0.100
789.200	11.049	0.100
789.300	-8.951	0.100
789.400	2.127	0.100
789.500	15.452	0.100
789.600	9.566	0.100
789.700	14.166	0.100
789.800	13.355	0.100
789.900	21.258	0.100
790.000	11.221	0.100
790.100	8.644	0.100
790.200	5.882	0.100
790.300	5.625	0.100
790.400	7.018	0.100
790.500	6.594	0.100
790.600	9.636	0.100
790.700	11.724	0.100
790.800	6.530	0.100
790.900	12.253	0.100
791.000	10.455	0.100
791.100	13.618	0.100
791.200	9.196	0.100
791.300	20.814	0.100
791.400	9.687	0.100
791.500	17.596	0.100
791.600	15.210	0.100
791.700	13.245	0.100
791.800	9.192	0.100
791.900	1.764	0.100
792.000	15.067	0.100
792.100	20.781	0.100
792.200	3.661	0.100
792.300	7.840	0.100
792.400	17.828	0.100
792.500	16.188	0.100
792.600	14.156	0.100
792.700	19.623	0.100
792.800	16.506	0.100
792.900	20.535	0.100
793.000	14.904	0.100
793.100	15.879	0.100
793.200	17.690	0.100
793.300	12.872	0.100
793.400	28.186	0.100
793.500	14.236	0.100
793.600	2.362	0.100
793.700	9.275	0.100
793.800	19.599	0.100
793.900	22.737	0.100
794.000	19.617	0.100
794.100	5.088	0.100
794.200	17.418	0.100
794.300	10.804	0.100
794.400	26.064	0.100
794.500	17.456	0.100
794.600	18.253	0.100
794.700	23.359	0.100
794.800	16.235	0.100
794.900	14.783	0.100
795.000	17.349	0.100
795.100	25.174	0.100
795.200	18.011	0.100
795.300	22.510	0.100
795.400	28.659	0.100
795.500	22.452	0.100
795.600	23.023	0.100
795.700	21.851	0.100
795.800	27.417	0.100
795.900	21.973	0.100
796.000	24.964	0.100
796.100	21.358	0.100
796.200	31.390	0.100
796.300	30.029	0.100
796.400	20.287	0.100
796.500	29.496	0.100
796.600	25.449	0.100
796.700	22.907	0.100
796.800	30.185	0.100
796.900	34.528	0.100
797.000	22.981	0.100
797.100	34.531	0.100
797.200	31.999	0.100
797.300	28.081	0.100
797.400	25.499	0.100
797.500	28.154	0.100
797.600	28.861	0.100
797.700	29.923	0.100
797.800	34.454	0.100
797.900	32.709	0.100
798.000	31.820	0.100
798.100	34.634	0.100
798.200	36.761	0.100
798.300	34.003	0.100
798.400	33.987	0.100
798.500	28.939	0.100
798.600	29.845	0.100
798.700	27.533	0.100
798.800	42.150	0.100
798.900	45.192	0.100
799.000	28.963	0.100
799.100	29.768	0.100
799.200	34.758	0.100
799.300	39.079	0.100
799.400	38.637	0.100
799.500	46.313	0.100
799.600	44.754	0.100
799.700	38.497	0.100
799.800	42.413	0.100
799.900	39.501	0.100
800.000	44.855	0.100
