time /s	I /nA	E /V
0.100	-43.575	0.100
0.200	-41.533	0.100
0.300	-35.595	0.100
0.400	-32.644	0.100
0.500	-26.613	0.100
0.600	-17.086	0.100
0.700	-32.852	0.100
0.800	-24.915	0.100
0.900	-27.071	0.100
1.000	-32.285	0.100
1.100	-33.844	0.100
1.200	-32.222	0.100
1.300	-25.599	0.100
1.400	-27.624	0.100
1.500	-33.168	0.100
1.600	-34.684	0.100
1.700	-38.438	0.100
1.800	-41.191	0.100
1.900	-28.489	0.100
2.000	-32.011	0.100
2.100	-37.282	0.100
2.200	-32.020	0.100
2.300	-31.336	0.100
2.400	-31.928	0.100
2.500	-33.390	0.100
2.600	-37.689	0.100
2.700	-35.836	0.100
2.800	-31.777	0.100
2.900	-32.888	0.100
3.000	-32.734	0.100
3.100	-29.423	0.100
3.200	-33.925	0.100
3.300	-40.948	0.100
3.400	-33.441	0.100
3.500	-34.230	0.100
3.600	-29.325	0.100
3.700	-34.720	0.100
3.800	-36.978	0.100
3.900	-32.020	0.100
4.000	-25.667	0.100
4.100	-30.554	0.100
4.200	-29.608	0.100
4.300	-29.913	0.100
4.400	-41.603	0.100
4.500	-26.981	0.100
4.600	-36.626	0.100
4.700	-33.918	0.100
4.800	-31.300	0.100
4.900	-36.972	0.100
5.000	-36.082	0.100
5.100	-31.195	0.100
5.200	-39.034	0.100
5.300	-31.333	0.100
5.400	-38.678	0.100
5.500	-28.541	0.100
5.600	-20.991	0.100
5.700	-29.365	0.100
5.800	-36.085	0.100
5.900	-31.152	0.100
6.000	-33.617	0.100
6.100	-33.540	0.100
6.200	-29.345	0.100
6.300	-33.394	0.100
6.400	-33.543	0.100
6.500	-35.271	0.100
6.600	-32.501	0.100
6.700	-28.170	0.100
6.800	-25.012	0.100
6.900	-24.646	0.100
7.000	-30.247	0.100
7.100	-30.320	0.100
7.200	-23.395	0.100
7.300	-31.728	0.100
7.400	-35.479	0.100
7.500	-32.157	0.100
7.600	-24.048	0.100
7.700	-23.410	0.100
7.800	-23.208	0.100
7.900	-44.746	0.100
8.000	-38.096	0.100
8.100	-26.850	0.100
8.200	-31.002	0.100
8.300	-23.626	0.100
8.400	-30.099	0.100
8.500	-36.079	0.100
8.600	-32.281	0.100
8.700	-38.465	0.100
8.800	-27.827	0.100
8.900	-31.203	0.100
9.000	-30.749	0.100
9.100	-29.183	0.100
9.200	-32.745	0.100
9.300	-35.007	0.100
9.400	-26.555	0.100
9.500	-26.305	0.100
9.600	-30.531	0.100
9.700	-27.456	0.100
9.800	-33.885	0.100
9.900	-34.842	0.100
10.000	-27.988	0.100
10.100	-28.608	0.100
10.200	-28.429	0.100
10.300	-34.465	0.100
10.400	-28.887	0.100
10.500	-33.984	0.100
10.600	-28.943	0.100
10.700	-30.443	0.100
10.800	-27.262	0.100
10.900	-30.536	0.100
11.000	-35.213	0.100
11.100	-31.013	0.100
11.200	-28.962	0.100
11.300	-24.475	0.100
11.400	-29.390	0.100
11.500	-17.674	0.100
11.600	-36.298	0.100
11.700	-36.202	0.100
11.800	-28.831	0.100
11.900	-34.768	0.100
12.000	-30.954	0.100
12.100	-26.506	0.100
12.200	-37.568	0.100
12.300	-32.888	0.100
12.400	-29.345	0.100
12.500	-31.928	0.100
12.600	-35.980	0.100
12.700	-29.829	0.100
12.800	-29.798	0.100
12.900	-33.069	0.100
13.000	-33.454	0.100
13.100	-40.694	0.100
13.200	-27.890	0.100
13.300	-29.697	0.100
13.400	-28.079	0.100
13.500	-35.034	0.100
13.600	-41.985	0.100
13.700	-24.565	0.100
13.800	-29.207	0.100
13.900	-32.834	0.100
14.000	-25.465	0.100
14.100	-29.604	0.100
14.200	-28.701	0.100
14.300	-37.770	0.100
14.400	-32.377	0.100
14.500	-31.319	0.100
14.600	-35.105	0.100
14.700	-29.878	0.100
14.800	-19.846	0.100
14.900	-27.900	0.100
15.000	-41.829	0.100
15.100	-34.417	0.100
15.200	-34.952	0.100
15.300	-31.376	0.100
15.400	-20.777	0.100
15.500	-24.868	0.100
15.600	-29.304	0.100
15.700	-36.890	0.100
15.800	-30.658	0.100
15.900	-31.090	0.100
16.000	-32.051	0.100
16.100	-26.320	0.100
16.200	-32.303	0.100
16.300	-26.887	0.100
16.400	-27.312	0.100
16.500	-32.904	0.100
16.600	-32.195	0.100
16.700	-26.786	0.100
16.800	-32.331	0.100
16.900	-34.547	0.100
17.000	-29.130	0.100
17.100	-21.895	0.100
17.200	-27.868	0.100
17.300	-25.151	0.100
17.400	-28.331	0.100
17.500	-31.534	0.100
17.600	-34.363	0.100
17.700	-34.882	0.100
17.800	-31.712	0.100
17.900	-29.060	0.100
18.000	-31.304	0.100
18.100	-22.231	0.100
18.200	-19.420	0.100
18.300	-19.412	0.100
18.400	-32.741	0.100
18.500	-33.409	0.100
18.600	-40.669	0.100
18.700	-26.138	0.100
18.800	-25.549	0.100
18.900	-27.732	0.100
19.000	-25.544	0.100
19.100	-26.027	0.100
19.200	-27.681	0.100
19.300	-22.685	0.100
19.400	-29.907	0.100
19.500	-20.245	0.100
19.600	-28.969	0.100
19.700	-33.788	0.100
19.800	-30.651	0.100
19.900	-31.629	0.100
20.000	-27.814	0.100
20.100	-30.825	0.100
20.200	-28.199	0.100
20.300	-27.813	0.100
20.400	-21.839	0.100
20.500	-27.725	0.100
20.600	-27.958	0.100
20.700	-34.955	0.100
20.800	-25.875	0.100
20.900	-33.280	0.100
21.000	-29.288	0.100
21.100	-21.425	0.100
21.200	-31.199	0.100
21.300	-29.631	0.100
21.400	-29.568	0.100
21.500	-27.606	0.100
21.600	-28.446	0.100
21.700	-31.492	0.100
21.800	-26.378	0.100
21.900	-40.352	0.100
22.000	-31.548	0.100
22.100	-28.293	0.100
22.200	-35.167	0.100
22.300	-23.242	0.100
22.400	-28.445	0.100
22.500	-32.715	0.100
22.600	-28.576	0.100
22.700	-36.296	0.100
22.800	-30.156	0.100
22.900	-31.197	0.100
23.000	-27.988	0.100
23.100	-32.235	0.100
23.200	-39.340	0.100
23.300	-32.101	0.100
23.400	-34.110	0.100
23.500	-26.495	0.100
23.600	-16.387	0.100
23.700	-23.264	0.100
23.800	-34.609	0.100
23.900	-24.646	0.100
24.000	-33.067	0.100
24.100	-28.026	0.100
24.200	-29.149	0.100
24.300	-32.253	0.100
24.400	-30.142	0.100
24.500	-27.491	0.100
24.600	-19.398	0.100
24.700	-29.560	0.100
24.800	-26.648	0.100
24.900	-27.731	0.100
25.000	-26.007	0.100
25.100	-31.586	0.100
25.200	-35.114	0.100
25.300	-28.046	0.100
25.400	-35.972	0.100
25.500	-34.325	0.100
25.600	-20.153	0.100
25.700	-26.467	0.100
25.800	-22.800	0.100
25.900	-27.791	0.100
26.000	-23.899	0.100
26.100	-28.913	0.100
26.200	-40.193	0.100
26.300	-32.051	0.100
26.400	-36.394	0.100
26.500	-35.320	0.100
26.600	-24.878	0.100
26.700	-23.755	0.100
26.800	-30.861	0.100
26.900	-30.574	0.100
27.000	-38.611	0.100
27.100	-23.989	0.100
27.200	-28.087	0.100
27.300	-28.257	0.100
27.400	-29.121	0.100
27.500	-31.570	0.100
27.600	-35.175	0.100
27.700	-33.018	0.100
27.800	-22.779	0.100
27.900	-23.864	0.100
28.000	-25.990	0.100
28.100	-31.057	0.100
28.200	-27.170	0.100
28.300	-32.986	0.100
28.400	-27.218	0.100
28.500	-27.570	0.100
28.600	-27.165	0.100
28.700	-38.628	0.100
28.800	-27.145	0.100
28.900	-28.835	0.100
29.000	-27.706	0.100
29.100	-22.733	0.100
29.200	-24.631	0.100
29.300	-29.516	0.100
29.400	-28.367	0.100
29.500	-24.613	0.100
29.600	-29.770	0.100
29.700	-24.455	0.100
29.800	-30.835	0.100
29.900	-34.856	0.100
30.000	-24.863	0.100
30.100	-20.717	0.100
30.200	-14.191	0.100
30.300	-14.424	0.100
30.400	-28.650	0.100
30.500	-18.836	0.100
30.600	-18.705	0.100
30.700	-29.316	0.100
30.800	-6.445	0.100
30.900	-6.599	0.100
31.000	-11.773	0.100
31.100	-7.115	0.100
31.200	-1.161	0.100
31.300	-2.666	0.100
31.400	1.276	0.100
31.500	4.619	0.100
31.600	-0.292	0.100
31.700	3.036	0.100
31.800	0.317	0.100
31.900	-1.310	0.100
32.000	4.361	0.100
32.100	0.990	0.100
32.200	8.715	0.100
32.300	2.754	0.100
32.400	3.179	0.100
32.500	4.313	0.100
32.600	2.269	0.100
32.700	11.968	0.100
32.800	16.504	0.100
32.900	8.775	0.100
33.000	-0.796	0.100
33.100	1.306	0.100
33.200	2.210	0.100
33.300	5.713	0.100
33.400	9.781	0.100
33.500	6.586	0.100
33.600	0.420	0.100
33.700	8.249	0.100
33.800	6.226	0.100
33.900	4.607	0.100
34.000	0.770	0.100
34.100	-2.282	0.100
34.200	9.062	0.100
34.300	6.812	0.100
34.400	0.145	0.100
34.500	5.723	0.100
34.600	1.706	0.100
34.700	-3.426	0.100
34.800	2.463	0.100
34.900	10.013	0.100
35.000	19.289	0.100
35.100	2.579	0.100
35.200	6.186	0.100
35.300	11.764	0.100
35.400	11.353	0.100
35.500	7.318	0.100
35.600	0.395	0.100
35.700	3.687	0.100
35.800	-0.642	0.100
35.900	3.461	0.100
36.000	5.686	0.100
36.100	1.201	0.100
36.200	-7.848	0.100
36.300	6.940	0.100
36.400	2.284	0.100
36.500	5.208	0.100
36.600	8.393	0.100
36.700	-2.797	0.100
36.800	-3.129	0.100
36.900	-2.454	0.100
37.000	3.227	0.100
37.100	13.074	0.100
37.200	7.979	0.100
37.300	-10.476	0.100
37.400	-2.926	0.100
37.500	7.857	0.100
37.600	0.572	0.100
37.700	8.238	0.100
37.800	13.765	0.100
37.900	5.618	0.100
38.000	9.906	0.100
38.100	14.601	0.100
38.200	-4.230	0.100
38.300	13.195	0.100
38.400	1.994	0.100
38.500	-7.638	0.100
38.600	5.522	0.100
38.700	6.729	0.100
38.800	-2.163	0.100
38.900	6.347	0.100
39.000	1.554	0.100
39.100	7.082	0.100
39.200	3.927	0.100
39.300	3.959	0.100
39.400	2.578	0.100
39.500	-1.900	0.100
39.600	8.130	0.100
39.700	3.884	0.100
39.800	7.606	0.100
39.900	13.694	0.100
40.000	-0.039	0.100
40.100	1.306	0.100
40.200	0.115	0.100
40.300	10.258	0.100
40.400	12.391	0.100
40.500	7.749	0.100
40.600	4.936	0.100
40.700	0.334	0.100
40.800	4.502	0.100
40.900	12.710	0.100
41.000	10.933	0.100
41.100	6.465	0.100
41.200	-6.744	0.100
41.300	6.781	0.100
41.400	9.807	0.100
41.500	0.176	0.100
41.600	-8.573	0.100
41.700	18.574	0.100
41.800	0.001	0.100
41.900	7.960	0.100
42.000	5.820	0.100
42.100	9.569	0.100
42.200	6.795	0.100
42.300	2.900	0.100
42.400	6.975	0.100
42.500	11.393	0.100
42.600	10.523	0.100
42.700	-3.500	0.100
42.800	16.345	0.100
42.900	-1.881	0.100
43.000	13.605	0.100
43.100	13.898	0.100
43.200	12.793	0.100
43.300	7.226	0.100
43.400	17.221	0.100
43.500	5.832	0.100
43.600	16.900	0.100
43.700	6.775	0.100
43.800	10.833	0.100
43.900	13.148	0.100
44.000	11.552	0.100
44.100	10.766	0.100
44.200	7.167	0.100
44.300	9.989	0.100
44.400	17.063	0.100
44.500	12.865	0.100
44.600	15.652	0.100
44.700	14.189	0.100
44.800	10.227	0.100
44.900	10.259	0.100
45.000	12.217	0.100
45.100	12.171	0.100
45.200	15.644	0.100
45.300	10.259	0.100
45.400	13.915	0.100
45.500	6.626	0.100
45.600	8.902	0.100
45.700	12.163	0.100
45.800	9.054	0.100
45.900	16.483	0.100
46.000	11.013	0.100
46.100	19.106	0.100
46.200	18.850	0.100
46.300	21.423	0.100
46.400	22.838	0.100
46.500	24.628	0.100
46.600	18.774	0.100
46.700	19.432	0.100
46.800	17.750	0.100
46.900	21.011	0.100
47.000	30.716	0.100
47.100	15.150	0.100
47.200	25.063	0.100
47.300	34.436	0.100
47.400	32.560	0.100
47.500	27.291	0.100
47.600	25.351	0.100
47.700	21.638	0.100
47.800	15.915	0.100
47.900	32.543	0.100
48.000	21.626	0.100
48.100	26.300	0.100
48.200	22.621	0.100
48.300	30.352	0.100
48.400	23.692	0.100
48.500	35.848	0.100
48.600	30.572	0.100
48.700	31.475	0.100
48.800	28.270	0.100
48.900	21.673	0.100
49.000	28.476	0.100
49.100	21.499	0.100
49.200	30.072	0.100
49.300	29.426	0.100
49.400	34.855	0.100
49.500	34.046	0.100
49.600	38.423	0.100
49.700	21.782	0.100
49.800	30.152	0.100
49.900	19.897	0.100
50.000	30.858	0.100
50.100	34.381	0.100
50.200	38.981	0.100
50.300	39.534	0.100
50.400	42.912	0.100
50.500	24.731	0.100
50.600	37.804	0.100
50.700	44.411	0.100
50.800	33.738	0.100
50.900	35.924	0.100
51.000	34.877	0.100
51.100	24.146	0.100
51.200	24.638	0.100
51.300	36.708	0.100
51.400	38.401	0.100
51.500	40.145	0.101
51.600	32.735	0.101
51.700	40.089	0.101
51.800	39.360	0.101
51.900	40.000	0.101
52.000	30.877	0.101
52.100	47.017	0.101
52.200	42.103	0.101
52.300	34.934	0.101
52.400	41.015	0.101
52.500	44.628	0.101
52.600	44.751	0.101
52.700	32.044	0.101
52.800	33.281	0.101
52.900	39.730	0.101
53.000	39.629	0.101
53.100	43.519	0.101
53.200	44.570	0.101
53.300	49.007	0.101
53.400	40.991	0.101
53.500	40.676	0.101
53.600	42.244	0.101
53.700	41.518	0.101
53.800	45.729	0.101
53.900	39.642	0.101
54.000	41.113	0.101
54.100	32.933	0.101
54.200	41.522	0.101
54.300	41.849	0.101
54.400	38.037	0.101
54.500	40.416	0.101
54.600	42.611	0.101
54.700	37.321	0.101
54.800	48.641	0.101
54.900	42.027	0.101
55.000	39.493	0.101
55.100	38.538	0.101
55.200	44.485	0.101
55.300	39.014	0.101
55.400	37.268	0.101
55.500	41.315	0.101
55.600	45.847	0.101
55.700	47.572	0.101
55.800	50.709	0.101
55.900	37.005	0.101
56.000	35.058	0.101
56.100	55.213	0.101
56.200	48.247	0.101
56.300	43.636	0.101
56.400	47.679	0.101
56.500	37.773	0.101
56.600	37.865	0.101
56.700	44.497	0.101
56.800	41.796	0.101
56.900	58.139	0.101
57.000	46.285	0.101
57.100	45.161	0.101
57.200	42.870	0.101
57.300	41.647	0.101
57.400	49.281	0.101
57.500	51.367	0.101
57.600	56.848	0.101
57.700	41.419	0.101
57.800	45.269	0.101
57.900	48.115	0.101
58.000	49.163	0.101
58.100	37.223	0.101
58.200	46.338	0.101
58.300	48.920	0.101
58.400	43.567	0.101
58.500	48.940	0.101
58.600	40.215	0.101
58.700	42.686	0.101
58.800	50.974	0.101
58.900	48.316	0.101
59.000	57.427	0.101
59.100	49.935	0.101
59.200	56.224	0.101
59.300	43.243	0.101
59.400	47.149	0.101
59.500	39.462	0.101
59.600	40.170	0.101
59.700	49.098	0.101
59.800	45.490	0.101
59.900	51.688	0.101
60.000	54.561	0.101
60.100	54.449	0.101
60.200	53.010	0.101
60.300	46.526	0.101
60.400	50.696	0.101
60.500	43.961	0.101
60.600	49.825	0.101
60.700	48.099	0.101
60.800	53.459	0.101
60.900	49.894	0.101
61.000	51.884	0.101
61.100	52.028	0.101
61.200	50.776	0.101
61.300	51.284	0.101
61.400	60.349	0.101
61.500	53.659	0.101
61.600	42.833	0.101
61.700	45.005	0.101
61.800	52.793	0.101
61.900	50.822	0.101
62.000	51.404	0.101
62.100	53.233	0.101
62.200	52.459	0.101
62.300	52.146	0.101
62.400	41.852	0.101
62.500	49.536	0.101
62.600	54.243	0.101
62.700	55.507	0.101
62.800	53.799	0.101
62.900	51.616	0.101
63.000	52.367	0.101
63.100	50.741	0.101
63.200	56.250	0.101
63.300	54.067	0.101
63.400	50.990	0.101
63.500	46.437	0.101
63.600	48.234	0.101
63.700	51.289	0.101
63.800	54.096	0.101
63.900	45.567	0.101
64.000	58.332	0.101
64.100	52.828	0.101
64.200	43.330	0.101
64.300	50.419	0.101
64.400	56.413	0.101
64.500	54.120	0.101
64.600	57.335	0.101
64.700	46.724	0.101
64.800	43.489	0.101
64.900	57.219	0.101
65.000	56.986	0.101
65.100	59.363	0.101
65.200	57.197	0.101
65.300	55.179	0.101
65.400	55.908	0.101
65.500	57.037	0.101
65.600	46.823	0.101
65.700	60.010	0.101
65.800	55.810	0.101
65.900	50.404	0.101
66.000	49.563	0.101
66.100	46.186	0.101
66.200	52.243	0.101
66.300	52.239	0.101
66.400	46.390	0.101
66.500	51.825	0.101
66.600	47.779	0.101
66.700	54.334	0.101
66.800	58.919	0.101
66.900	56.637	0.101
67.000	46.592	0.101
67.100	50.392	0.101
67.200	49.655	0.101
67.300	52.064	0.101
67.400	43.725	0.101
67.500	59.623	0.101
67.600	49.358	0.101
67.700	53.718	0.101
67.800	55.422	0.101
67.900	49.755	0.101
68.000	52.154	0.101
68.100	53.216	0.101
68.200	54.464	0.101
68.300	62.855	0.101
68.400	56.684	0.101
68.500	55.275	0.101
68.600	64.061	0.101
68.700	53.321	0.101
68.800	59.891	0.101
68.900	55.321	0.101
69.000	45.934	0.101
69.100	53.020	0.101
69.200	47.163	0.101
69.300	51.517	0.101
69.400	46.821	0.101
69.500	52.667	0.101
69.600	51.829	0.101
69.700	56.526	0.101
69.800	58.146	0.101
69.900	49.006	0.101
70.000	59.929	0.101
70.100	46.469	0.101
70.200	48.107	0.101
70.300	56.283	0.101
70.400	53.047	0.100
70.500	58.671	0.101
70.600	50.197	0.101
70.700	54.125	0.101
70.800	55.779	0.101
70.900	65.551	0.100
71.000	56.985	0.101
71.100	52.302	0.101
71.200	52.820	0.101
71.300	53.060	0.101
71.400	52.646	0.100
71.500	50.532	0.100
71.600	42.759	0.100
71.700	47.137	0.100
71.800	45.955	0.100
71.900	46.752	0.100
72.000	47.963	0.100
72.100	51.221	0.100
72.200	55.945	0.100
72.300	54.317	0.100
72.400	59.189	0.100
72.500	55.941	0.100
72.600	44.203	0.100
72.700	46.694	0.100
72.800	58.196	0.100
72.900	51.085	0.100
73.000	50.570	0.100
73.100	57.808	0.100
73.200	52.497	0.100
73.300	49.612	0.100
73.400	45.713	0.100
73.500	52.598	0.100
73.600	59.470	0.100
73.700	51.337	0.100
73.800	55.696	0.100
73.900	56.434	0.100
74.000	52.685	0.100
74.100	45.096	0.100
74.200	60.795	0.100
74.300	59.034	0.100
74.400	42.954	0.100
74.500	46.780	0.100
74.600	54.352	0.100
74.700	46.966	0.100
74.800	59.889	0.100
74.900	57.107	0.100
75.000	50.589	0.100
75.100	54.361	0.100
75.200	60.628	0.100
75.300	52.495	0.100
75.400	45.364	0.100
75.500	44.783	0.100
75.600	52.913	0.100
75.700	49.313	0.100
75.800	43.732	0.100
75.900	53.913	0.100
76.000	50.046	0.100
76.100	44.409	0.100
76.200	52.493	0.100
76.300	59.594	0.100
76.400	50.984	0.100
76.500	52.298	0.100
76.600	57.262	0.100
76.700	51.876	0.100
76.800	47.526	0.100
76.900	61.178	0.100
77.000	53.679	0.100
77.100	43.346	0.100
77.200	48.902	0.100
77.300	60.478	0.100
77.400	57.046	0.100
77.500	44.631	0.100
77.600	50.657	0.100
77.700	52.254	0.100
77.800	43.445	0.100
77.900	53.821	0.100
78.000	47.397	0.100
78.100	55.538	0.100
78.200	50.231	0.100
78.300	62.993	0.100
78.400	61.446	0.100
78.500	47.061	0.100
78.600	51.335	0.100
78.700	47.857	0.100
78.800	52.269	0.100
78.900	53.109	0.100
79.000	58.600	0.100
79.100	55.892	0.100
79.200	53.371	0.100
79.300	47.578	0.100
79.400	48.086	0.100
79.500	55.399	0.100
79.600	45.348	0.100
79.700	50.893	0.100
79.800	52.793	0.100
79.900	46.453	0.100
80.000	46.262	0.100
80.100	59.703	0.100
80.200	57.227	0.100
80.300	54.430	0.100
80.400	57.983	0.100
80.500	57.043	0.100
80.600	48.395	0.100
80.700	44.062	0.100
80.800	48.172	0.100
80.900	50.819	0.100
81.000	55.488	0.100
81.100	52.998	0.100
81.200	52.447	0.100
81.300	50.064	0.100
81.400	53.757	0.100
81.500	57.532	0.100
81.600	50.364	0.100
81.700	58.056	0.100
81.800	43.428	0.100
81.900	51.953	0.100
82.000	58.265	0.100
82.100	50.018	0.100
82.200	49.542	0.100
82.300	47.433	0.100
82.400	61.107	0.100
82.500	58.129	0.100
82.600	46.482	0.100
82.700	50.892	0.100
82.800	45.437	0.100
82.900	50.590	0.100
83.000	51.456	0.100
83.100	46.988	0.100
83.200	53.757	0.100
83.300	43.295	0.100
83.400	50.806	0.100
83.500	51.521	0.100
83.600	46.296	0.100
83.700	48.327	0.100
83.800	55.097	0.100
83.900	53.471	0.100
84.000	55.094	0.100
84.100	53.281	0.100
84.200	53.248	0.100
84.300	44.997	0.100
84.400	52.760	0.100
84.500	58.167	0.100
84.600	51.505	0.100
84.700	52.815	0.100
84.800	44.458	0.100
84.900	49.510	0.100
85.000	46.021	0.100
85.100	49.992	0.100
85.200	45.156	0.100
85.300	53.664	0.100
85.400	58.890	0.100
85.500	50.240	0.100
85.600	49.901	0.100
85.700	46.992	0.100
85.800	56.630	0.100
85.900	52.074	0.100
86.000	52.897	0.100
86.100	45.950	0.100
86.200	56.260	0.100
86.300	53.670	0.100
86.400	57.518	0.100
86.500	45.617	0.100
86.600	45.364	0.100
86.700	53.153	0.100
86.800	55.188	0.100
86.900	41.420	0.100
87.000	57.291	0.100
87.100	49.500	0.100
87.200	56.785	0.100
87.300	57.256	0.100
87.400	55.811	0.100
87.500	53.118	0.100
87.600	33.740	0.100
87.700	53.521	0.100
87.800	50.467	0.100
87.900	41.918	0.100
88.000	49.468	0.100
88.100	49.888	0.100
88.200	53.657	0.100
88.300	45.793	0.100
88.400	43.550	0.100
88.500	50.738	0.100
88.600	61.765	0.100
88.700	59.153	0.100
88.800	49.401	0.100
88.900	52.301	0.100
89.000	49.923	0.100
89.100	53.407	0.100
89.200	43.964	0.100
89.300	50.264	0.100
89.400	61.053	0.100
89.500	50.119	0.100
89.600	59.495	0.100
89.700	55.263	0.100
89.800	51.629	0.100
89.900	49.991	0.100
90.000	45.689	0.100
90.100	35.844	0.100
90.200	42.726	0.100
90.300	56.269	0.100
90.400	36.037	0.100
90.500	34.370	0.100
90.600	38.487	0.100
90.700	36.891	0.100
90.800	36.918	0.100
90.900	28.063	0.100
91.000	27.263	0.100
91.100	26.086	0.100
91.200	23.935	0.100
91.300	23.985	0.100
91.400	21.846	0.100
91.500	28.019	0.100
91.600	21.332	0.100
91.700	16.840	0.100
91.800	8.794	0.100
91.900	8.908	0.100
92.000	17.056	0.100
92.100	22.319	0.100
92.200	8.179	0.100
92.300	7.280	0.100
92.400	2.917	0.100
92.500	2.213	0.100
92.600	19.197	0.100
92.700	7.157	0.100
92.800	5.609	0.100
92.900	11.162	0.100
93.000	4.597	0.100
93.100	7.647	0.100
93.200	4.412	0.100
93.300	11.130	0.100
93.400	0.431	0.100
93.500	8.077	0.100
93.600	3.492	0.100
93.700	1.941	0.100
93.800	-1.429	0.100
93.900	-1.421	0.100
94.000	-0.883	0.100
94.100	4.792	0.100
94.200	-6.878	0.100
94.300	-2.602	0.100
94.400	-3.619	0.100
94.500	4.008	0.100
94.600	-9.815	0.100
94.700	-6.824	0.100
94.800	-0.123	0.100
94.900	0.996	0.100
95.000	7.422	0.100
95.100	-1.702	0.100
95.200	-8.236	0.100
95.300	-5.846	0.100
95.400	7.170	0.100
95.500	-2.827	0.100
95.600	3.045	0.100
95.700	5.935	0.100
95.800	1.883	0.100
95.900	1.354	0.100
96.000	-7.052	0.100
96.100	-6.121	0.100
96.200	-4.867	0.100
96.300	-0.989	0.100
96.400	-5.804	0.100
96.500	-2.312	0.100
96.600	6.194	0.100
96.700	-11.605	0.100
96.800	6.070	0.100
96.900	-3.613	0.100
97.000	-1.811	0.100
97.100	-4.359	0.100
97.200	9.766	0.100
97.300	0.312	0.100
97.400	-3.050	0.100
97.500	-4.153	0.100
97.600	-0.746	0.100
97.700	-6.908	0.100
97.800	-3.532	0.100
97.900	-4.121	0.100
98.000	1.229	0.100
98.100	-3.349	0.100
98.200	-3.794	0.100
98.300	0.679	0.100
98.400	3.875	0.100
98.500	-1.934	0.100
98.600	-3.372	0.100
98.700	-8.545	0.100
98.800	6.587	0.100
98.900	-2.974	0.100
99.000	2.071	0.100
99.100	-4.980	0.100
99.200	7.093	0.100
99.300	2.682	0.100
99.400	-4.566	0.100
99.500	-8.576	0.100
99.600	7.909	0.100
99.700	-8.752	0.100
99.800	-3.337	0.100
99.900	-0.108	0.100
100.000	-1.308	0.100
100.100	-12.006	0.100
100.200	-12.026	0.100
100.300	-16.286	0.100
100.400	-5.706	0.100
100.500	5.819	0.100
100.600	-3.897	0.100
100.700	-10.476	0.100
100.800	-5.569	0.100
100.900	-0.317	0.100
101.000	-14.233	0.100
101.100	-3.228	0.100
101.200	-6.294	0.100
101.300	0.548	0.100
101.400	-7.937	0.100
101.500	-11.605	0.100
101.600	-5.131	0.100
101.700	-11.292	0.100
101.800	0.260	0.100
101.900	-5.473	0.100
102.000	-2.359	0.100
102.100	-17.638	0.100
102.200	-7.075	0.100
102.300	-8.594	0.100
102.400	-14.991	0.100
102.500	-4.473	0.100
102.600	-2.336	0.100
102.700	-7.486	0.100
102.800	4.839	0.100
102.900	-7.133	0.100
103.000	-12.098	0.100
103.100	-13.387	0.100
103.200	-7.385	0.100
103.300	-9.347	0.100
103.400	-6.563	0.100
103.500	-2.966	0.100
103.600	-4.020	0.100
103.700	-15.330	0.100
103.800	-9.628	0.100
103.900	-8.095	0.100
104.000	-0.838	0.100
104.100	2.475	0.100
104.200	-8.057	0.100
104.300	-8.460	0.100
104.400	-7.365	0.100
104.500	-12.888	0.100
104.600	-21.018	0.100
104.700	-9.810	0.100
104.800	-5.388	0.100
104.900	-5.704	0.100
105.000	0.261	0.100
105.100	-5.118	0.100
105.200	-12.673	0.100
105.300	-21.764	0.100
105.400	-12.736	0.100
105.500	-16.058	0.100
105.600	-5.038	0.100
105.700	-9.624	0.100
105.800	-4.034	0.100
105.900	-4.960	0.100
106.000	-7.964	0.100
106.100	-20.996	0.100
106.200	-15.074	0.100
106.300	-1.673	0.100
106.400	-18.067	0.100
106.500	-22.442	0.100
106.600	-6.503	0.100
106.700	-13.535	0.100
106.800	-16.115	0.100
106.900	-20.358	0.100
107.000	-15.083	0.100
107.100	-14.176	0.100
107.200	-10.920	0.100
107.300	-16.814	0.100
107.400	-18.053	0.100
107.500	-12.206	0.100
107.600	-9.299	0.100
107.700	-14.813	0.100
107.800	-9.714	0.100
107.900	-13.935	0.100
108.000	-15.485	0.100
108.100	-10.564	0.100
108.200	-13.503	0.100
108.300	-9.581	0.100
108.400	-10.163	0.100
108.500	-13.216	0.100
108.600	-23.895	0.100
108.700	-27.616	0.100
108.800	-18.070	0.100
108.900	-19.758	0.100
109.000	-13.620	0.100
109.100	-13.635	0.100
109.200	-16.885	0.100
109.300	-17.696	0.100
109.400	-10.909	0.100
109.500	-16.524	0.100
109.600	-13.491	0.100
109.700	-9.255	0.100
109.800	-21.765	0.100
109.900	-17.742	0.100
110.000	-18.898	0.100
110.100	-13.739	0.100
110.200	-14.025	0.100
110.300	-30.492	0.100
110.400	-12.726	0.100
110.500	-13.987	0.100
110.600	-14.208	0.100
110.700	-9.094	0.100
110.800	-16.549	0.100
110.900	-18.212	0.100
111.000	-19.953	0.100
111.100	-16.532	0.100
111.200	-27.535	0.100
111.300	-18.337	0.100
111.400	-18.897	0.100
111.500	-17.938	0.100
111.600	-13.850	0.100
111.700	-24.705	0.100
111.800	-27.716	0.100
111.900	-23.309	0.100
112.000	-26.578	0.100
112.100	-16.543	0.100
112.200	-16.429	0.100
112.300	-19.118	0.100
112.400	-17.033	0.100
112.500	-24.541	0.100
112.600	-21.956	0.100
112.700	-24.110	0.100
112.800	-25.321	0.100
112.900	-24.801	0.100
113.000	-17.834	0.100
113.100	-18.416	0.100
113.200	-9.558	0.100
113.300	-16.222	0.100
113.400	-19.676	0.100
113.500	-12.608	0.100
113.600	-22.931	0.100
113.700	-34.568	0.100
113.800	-19.880	0.100
113.900	-27.648	0.100
114.000	-17.641	0.100
114.100	-16.891	0.100
114.200	-21.421	0.100
114.300	-26.974	0.100
114.400	-22.242	0.100
114.500	-16.782	0.100
114.600	-17.919	0.100
114.700	-16.546	0.100
114.800	-21.275	0.100
114.900	-26.981	0.100
115.000	-27.727	0.100
115.100	-19.259	0.100
115.200	-22.490	0.100
115.300	-15.863	0.100
115.400	-16.979	0.100
115.500	-26.977	0.100
115.600	-28.333	0.100
115.700	-14.358	0.100
115.800	-26.475	0.100
115.900	-30.797	0.100
116.000	-17.917	0.100
116.100	-31.816	0.100
116.200	-15.177	0.100
116.300	-18.885	0.100
116.400	-29.073	0.100
116.500	-24.665	0.100
116.600	-23.858	0.100
116.700	-27.249	0.100
116.800	-16.769	0.100
116.900	-21.009	0.100
117.000	-19.544	0.100
117.100	-31.010	0.100
117.200	-22.349	0.100
117.300	-25.270	0.100
117.400	-32.268	0.100
117.500	-27.545	0.100
117.600	-25.475	0.100
117.700	-20.109	0.100
117.800	-24.054	0.100
117.900	-22.081	0.100
118.000	-19.995	0.100
118.100	-25.719	0.100
118.200	-24.770	0.100
118.300	-23.095	0.100
118.400	-33.087	0.100
118.500	-25.440	0.100
118.600	-28.172	0.100
118.700	-21.543	0.100
118.800	-19.813	0.100
118.900	-29.601	0.100
119.000	-21.612	0.100
119.100	-23.827	0.100
119.200	-31.043	0.100
119.300	-29.194	0.100
119.400	-27.246	0.100
119.500	-29.244	0.100
119.600	-21.729	0.100
119.700	-33.279	0.100
119.800	-25.365	0.100
119.900	-29.688	0.100
120.000	-28.389	0.100
120.100	-28.344	0.100
120.200	-23.811	0.100
120.300	-16.095	0.100
120.400	-33.420	0.100
120.500	-15.889	0.100
120.600	-22.988	0.100
120.700	-22.265	0.100
120.800	-19.568	0.100
120.900	-24.663	0.100
121.000	-25.866	0.100
121.100	-25.164	0.100
121.200	-39.196	0.100
121.300	-37.441	0.100
121.400	-33.325	0.100
121.500	-33.566	0.100
121.600	-27.286	0.100
121.700	-23.301	0.100
121.800	-21.039	0.100
121.900	-27.042	0.100
122.000	-31.054	0.100
122.100	-35.383	0.100
122.200	-41.723	0.100
122.300	-34.332	0.100
122.400	-36.106	0.100
122.500	-26.854	0.100
122.600	-25.340	0.100
122.700	-21.663	0.100
122.800	-36.072	0.100
122.900	-33.460	0.100
123.000	-34.529	0.100
123.100	-30.192	0.100
123.200	-33.065	0.100
123.300	-24.446	0.100
123.400	-33.715	0.100
123.500	-30.208	0.100
123.600	-33.087	0.100
123.700	-31.835	0.100
123.800	-36.260	0.100
123.900	-40.051	0.100
124.000	-30.509	0.100
124.100	-18.393	0.100
124.200	-30.434	0.100
124.300	-29.099	0.100
124.400	-25.508	0.100
124.500	-21.630	0.100
124.600	-28.863	0.100
124.700	-28.200	0.100
124.800	-27.386	0.100
124.900	-26.244	0.100
125.000	-33.180	0.100
125.100	-36.594	0.100
125.200	-42.357	0.100
125.300	-38.760	0.100
125.400	-36.251	0.100
125.500	-36.429	0.100
125.600	-32.468	0.100
125.700	-35.384	0.100
125.800	-31.173	0.100
125.900	-24.347	0.100
126.000	-30.759	0.100
126.100	-40.689	0.100
126.200	-25.380	0.100
126.300	-28.201	0.100
126.400	-22.191	0.100
126.500	-24.682	0.100
126.600	-32.298	0.100
126.700	-29.577	0.100
126.800	-27.155	0.100
126.900	-28.862	0.100
127.000	-29.894	0.100
127.100	-32.534	0.100
127.200	-28.832	0.100
127.300	-32.110	0.100
127.400	-40.985	0.100
127.500	-40.446	0.100
127.600	-30.987	0.100
127.700	-27.805	0.100
127.800	-39.767	0.100
127.900	-29.987	0.100
128.000	-34.806	0.100
128.100	-43.077	0.100
128.200	-36.202	0.100
128.300	-34.536	0.100
128.400	-37.274	0.100
128.500	-32.429	0.100
128.600	-37.563	0.100
128.700	-29.320	0.100
128.800	-37.898	0.100
128.900	-29.213	0.100
129.000	-23.626	0.100
129.100	-36.367	0.100
129.200	-34.299	0.100
129.300	-33.696	0.100
129.400	-35.965	0.100
129.500	-41.508	0.100
129.600	-38.812	0.100
129.700	-37.132	0.100
129.800	-35.804	0.100
129.900	-30.989	0.100
130.000	-35.301	0.100
130.100	-29.637	0.100
130.200	-31.465	0.100
130.300	-34.506	0.100
130.400	-41.021	0.100
130.500	-35.658	0.100
130.600	-37.942	0.100
130.700	-33.996	0.100
130.800	-27.798	0.100
130.900	-28.619	0.100
131.000	-38.892	0.100
131.100	-45.147	0.100
131.200	-30.566	0.100
131.300	-41.140	0.100
131.400	-31.598	0.100
131.500	-28.019	0.100
131.600	-39.203	0.100
131.700	-34.322	0.100
131.800	-26.696	0.100
131.900	-29.537	0.100
132.000	-35.298	0.100
132.100	-28.178	0.100
132.200	-26.730	0.100
132.300	-35.175	0.100
132.400	-43.875	0.100
132.500	-31.365	0.100
132.600	-29.015	0.100
132.700	-34.240	0.100
132.800	-40.401	0.100
132.900	-43.687	0.100
133.000	-37.981	0.100
133.100	-34.415	0.100
133.200	-38.597	0.100
133.300	-37.665	0.100
133.400	-26.967	0.100
133.500	-26.097	0.100
133.600	-36.955	0.100
133.700	-37.645	0.100
133.800	-29.373	0.100
133.900	-33.930	0.100
134.000	-34.119	0.100
134.100	-34.380	0.100
134.200	-31.312	0.100
134.300	-38.453	0.100
134.400	-30.793	0.100
134.500	-24.195	0.100
134.600	-42.110	0.100
134.700	-32.543	0.100
134.800	-34.823	0.100
134.900	-35.250	0.100
135.000	-42.478	0.100
135.100	-39.960	0.100
135.200	-31.104	0.100
135.300	-39.904	0.100
135.400	-35.036	0.100
135.500	-31.729	0.100
135.600	-35.188	0.100
135.700	-33.171	0.100
135.800	-37.485	0.100
135.900	-36.497	0.100
136.000	-48.146	0.100
136.100	-28.894	0.100
136.200	-38.630	0.100
136.300	-45.510	0.100
136.400	-37.897	0.100
136.500	-37.431	0.100
136.600	-35.469	0.100
136.700	-39.133	0.100
136.800	-40.662	0.100
136.900	-28.143	0.100
137.000	-28.718	0.100
137.100	-36.726	0.100
137.200	-36.509	0.100
137.300	-36.750	0.100
137.400	-33.632	0.100
137.500	-37.197	0.100
137.600	-32.505	0.100
137.700	-37.711	0.100
137.800	-32.881	0.100
137.900	-23.521	0.100
138.000	-38.354	0.100
138.100	-36.426	0.100
138.200	-36.207	0.100
138.300	-39.652	0.100
138.400	-32.333	0.100
138.500	-32.037	0.100
138.600	-39.139	0.100
138.700	-35.724	0.100
138.800	-33.218	0.100
138.900	-46.902	0.100
139.000	-42.454	0.100
139.100	-32.386	0.100
139.200	-33.163	0.100
139.300	-39.413	0.100
139.400	-38.564	0.100
139.500	-43.153	0.100
139.600	-26.013	0.100
139.700	-35.109	0.100
139.800	-41.106	0.100
139.900	-45.055	0.100
140.000	-38.354	0.100
140.100	-30.769	0.100
140.200	-39.440	0.100
140.300	-40.820	0.100
140.400	-36.718	0.100
140.500	-27.714	0.100
140.600	-37.171	0.100
140.700	-42.476	0.100
140.800	-28.610	0.100
140.900	-24.312	0.100
141.000	-35.535	0.100
141.100	-36.023	0.100
141.200	-31.923	0.100
141.300	-34.302	0.100
141.400	-30.379	0.100
141.500	-34.199	0.100
141.600	-34.534	0.100
141.700	-35.477	0.100
141.800	-35.649	0.100
141.900	-24.678	0.100
142.000	-31.580	0.100
142.100	-31.222	0.100
142.200	-39.199	0.100
142.300	-30.805	0.100
142.400	-32.456	0.100
142.500	-39.721	0.100
142.600	-39.676	0.100
142.700	-37.434	0.100
142.800	-32.231	0.100
142.900	-33.369	0.100
143.000	-35.353	0.100
143.100	-34.238	0.100
143.200	-31.449	0.100
143.300	-44.085	0.100
143.400	-23.213	0.100
143.500	-27.514	0.100
143.600	-34.030	0.100
143.700	-34.705	0.100
143.800	-30.229	0.100
143.900	-35.031	0.100
144.000	-41.268	0.100
144.100	-38.900	0.100
144.200	-22.731	0.100
144.300	-39.850	0.100
144.400	-30.677	0.100
144.500	-39.915	0.100
144.600	-48.481	0.100
144.700	-35.072	0.100
144.800	-40.330	0.100
144.900	-33.358	0.100
145.000	-33.721	0.100
145.100	-25.147	0.100
145.200	-36.388	0.100
145.300	-40.021	0.100
145.400	-33.609	0.100
145.500	-32.661	0.100
145.600	-32.108	0.100
145.700	-33.251	0.100
145.800	-40.355	0.100
145.900	-50.020	0.100
146.000	-36.124	0.100
146.100	-36.047	0.100
146.200	-33.433	0.100
146.300	-33.171	0.100
146.400	-29.743	0.100
146.500	-39.479	0.100
146.600	-28.655	0.100
146.700	-19.213	0.100
146.800	-34.698	0.100
146.900	-31.313	0.100
147.000	-32.909	0.100
147.100	-35.207	0.100
147.200	-39.141	0.100
147.300	-33.712	0.100
147.400	-33.659	0.100
147.500	-27.289	0.100
147.600	-27.743	0.100
147.700	-32.180	0.100
147.800	-37.734	0.100
147.900	-32.603	0.100
148.000	-35.535	0.100
148.100	-40.021	0.100
148.200	-36.481	0.100
148.300	-36.531	0.100
148.400	-28.893	0.100
148.500	-37.516	0.100
148.600	-31.075	0.100
148.700	-38.370	0.100
148.800	-28.584	0.100
148.900	-32.961	0.100
149.000	-39.245	0.100
149.100	-41.420	0.100
149.200	-30.029	0.100
149.300	-30.146	0.100
149.400	-22.943	0.100
149.500	-28.212	0.100
149.600	-32.791	0.100
149.700	-30.833	0.100
149.800	-38.611	0.100
149.900	-29.213	0.100
150.000	-24.395	0.100
150.100	-30.639	0.100
150.200	-33.900	0.100
150.300	-30.742	0.100
150.400	-40.271	0.100
150.500	-35.497	0.100
150.600	-38.863	0.100
150.700	-32.089	0.100
150.800	-31.572	0.100
150.900	-36.324	0.100
151.000	-38.338	0.100
151.100	-48.418	0.100
151.200	-34.010	0.100
151.300	-27.073	0.100
151.400	-29.817	0.100
151.500	-35.112	0.100
151.600	-39.090	0.100
151.700	-33.989	0.100
151.800	-26.896	0.100
151.900	-41.096	0.100
152.000	-33.136	0.100
152.100	-37.056	0.100
152.200	-21.101	0.100
152.300	-36.000	0.100
152.400	-31.900	0.100
152.500	-37.269	0.100
152.600	-32.113	0.100
152.700	-37.567	0.100
152.800	-36.123	0.100
152.900	-37.576	0.100
153.000	-35.043	0.100
153.100	-34.647	0.100
153.200	-19.703	0.100
153.300	-27.690	0.100
153.400	-38.295	0.100
153.500	-29.950	0.100
153.600	-37.946	0.100
153.700	-35.187	0.100
153.800	-35.980	0.100
153.900	-38.014	0.100
154.000	-30.209	0.100
154.100	-30.159	0.100
154.200	-26.064	0.100
154.300	-27.070	0.100
154.400	-34.332	0.100
154.500	-28.435	0.100
154.600	-33.793	0.100
154.700	-39.089	0.100
154.800	-40.770	0.100
154.900	-25.467	0.100
155.000	-33.939	0.100
155.100	-34.709	0.100
155.200	-27.802	0.100
155.300	-30.430	0.100
155.400	-32.627	0.100
155.500	-27.984	0.100
155.600	-28.506	0.100
155.700	-41.262	0.100
155.800	-36.331	0.100
155.900	-28.426	0.100
156.000	-31.727	0.100
156.100	-37.846	0.100
156.200	-36.740	0.100
156.300	-35.302	0.100
156.400	-36.515	0.100
156.500	-35.709	0.100
156.600	-28.968	0.100
156.700	-30.855	0.100
156.800	-29.253	0.100
156.900	-35.159	0.100
157.000	-35.004	0.100
157.100	-37.230	0.100
157.200	-26.303	0.100
157.300	-30.830	0.100
157.400	-25.172	0.100
157.500	-31.718	0.100
157.600	-34.553	0.100
157.700	-34.880	0.100
157.800	-32.249	0.100
157.900	-29.696	0.100
158.000	-36.462	0.100
158.100	-33.533	0.100
158.200	-42.273	0.100
158.300	-30.832	0.100
158.400	-26.683	0.100
158.500	-34.198	0.100
158.600	-29.296	0.100
158.700	-29.562	0.100
158.800	-20.818	0.100
158.900	-27.701	0.100
159.000	-21.944	0.100
159.100	-35.136	0.100
159.200	-26.718	0.100
159.300	-35.371	0.100
159.400	-24.961	0.100
159.500	-34.760	0.100
159.600	-31.035	0.100
159.700	-30.931	0.100
159.800	-28.991	0.100
159.900	-17.728	0.100
160.000	-41.243	0.100
160.100	-33.478	0.100
160.200	-37.730	0.100
160.300	-28.039	0.100
160.400	-39.497	0.100
160.500	-30.935	0.100
160.600	-34.288	0.100
160.700	-34.383	0.100
160.800	-34.484	0.100
160.900	-32.365	0.100
161.000	-24.514	0.100
161.100	-31.441	0.100
161.200	-28.589	0.100
161.300	-25.038	0.100
161.400	-33.779	0.100
161.500	-32.066	0.100
161.600	-30.681	0.100
161.700	-23.093	0.100
161.800	-26.878	0.100
161.900	-24.561	0.100
162.000	-27.724	0.100
162.100	-37.244	0.100
162.200	-39.173	0.100
162.300	-37.814	0.100
162.400	-34.602	0.100
162.500	-34.899	0.100
162.600	-26.782	0.100
162.700	-25.531	0.100
162.800	-27.288	0.100
162.900	-27.013	0.100
163.000	-36.408	0.100
163.100	-38.507	0.100
163.200	-27.308	0.100
163.300	-24.130	0.100
163.400	-30.093	0.100
163.500	-28.877	0.100
163.600	-29.406	0.100
163.700	-34.723	0.100
163.800	-37.049	0.100
163.900	-43.868	0.100
164.000	-33.793	0.100
164.100	-29.796	0.100
164.200	-30.507	0.100
164.300	-25.044	0.100
164.400	-25.473	0.100
164.500	-26.174	0.100
164.600	-33.193	0.100
164.700	-32.494	0.100
164.800	-36.333	0.100
164.900	-40.619	0.100
165.000	-35.906	0.100
165.100	-28.354	0.100
165.200	-31.739	0.100
165.300	-35.257	0.100
165.400	-27.417	0.100
165.500	-31.588	0.100
165.600	-26.771	0.100
165.700	-33.802	0.100
165.800	-30.921	0.100
165.900	-38.495	0.100
166.000	-28.919	0.100
166.100	-30.474	0.100
166.200	-32.076	0.100
166.300	-37.106	0.100
166.400	-30.886	0.100
166.500	-31.787	0.100
166.600	-29.213	0.100
166.700	-26.612	0.100
166.800	-21.406	0.100
166.900	-30.806	0.100
167.000	-29.056	0.100
167.100	-29.699	0.100
167.200	-21.528	0.100
167.300	-35.187	0.100
167.400	-31.718	0.100
167.500	-24.579	0.100
167.600	-31.254	0.100
167.700	-24.427	0.100
167.800	-26.472	0.100
167.900	-29.357	0.100
168.000	-31.106	0.100
168.100	-24.426	0.100
168.200	-34.380	0.100
168.300	-32.332	0.100
168.400	-31.572	0.100
168.500	-32.814	0.100
168.600	-26.978	0.100
168.700	-34.732	0.100
168.800	-33.540	0.100
168.900	-33.080	0.100
169.000	-19.470	0.100
169.100	-43.600	0.100
169.200	-40.447	0.100
169.300	-17.657	0.100
169.400	-29.640	0.100
169.500	-40.134	0.100
169.600	-30.919	0.100
169.700	-30.000	0.100
169.800	-22.547	0.100
169.900	-26.701	0.100
170.000	-27.959	0.100
170.100	-30.926	0.100
170.200	-27.850	0.100
170.300	-15.571	0.100
170.400	-35.840	0.100
170.500	-38.473	0.100
170.600	-48.322	0.100
170.700	-35.056	0.100
170.800	-28.784	0.100
170.900	-35.645	0.100
171.000	-33.050	0.100
171.100	-26.668	0.100
171.200	-19.476	0.100
171.300	-22.380	0.100
171.400	-35.509	0.100
171.500	-28.592	0.100
171.600	-34.050	0.100
171.700	-30.712	0.100
171.800	-34.019	0.100
171.900	-28.543	0.100
172.000	-25.566	0.100
172.100	-33.396	0.100
172.200	-30.211	0.100
172.300	-27.167	0.100
172.400	-27.649	0.100
172.500	-31.312	0.100
172.600	-44.001	0.100
172.700	-24.121	0.100
172.800	-38.906	0.100
172.900	-36.507	0.100
173.000	-31.255	0.100
173.100	-26.763	0.100
173.200	-28.235	0.100
173.300	-32.350	0.100
173.400	-32.774	0.100
173.500	-40.928	0.100
173.600	-26.869	0.100
173.700	-30.867	0.100
173.800	-27.498	0.100
173.900	-25.438	0.100
174.000	-25.920	0.100
174.100	-34.559	0.100
174.200	-27.764	0.100
174.300	-25.866	0.100
174.400	-28.721	0.100
174.500	-30.668	0.100
174.600	-24.076	0.100
174.700	-17.708	0.100
174.800	-40.918	0.100
174.900	-32.005	0.100
175.000	-21.813	0.100
175.100	-25.124	0.100
175.200	-26.793	0.100
175.300	-29.176	0.100
175.400	-34.531	0.100
175.500	-32.564	0.100
175.600	-21.280	0.100
175.700	-27.596	0.100
175.800	-31.400	0.100
175.900	-28.486	0.100
176.000	-33.134	0.100
176.100	-26.428	0.100
176.200	-31.928	0.100
176.300	-26.274	0.100
176.400	-33.379	0.100
176.500	-31.962	0.100
176.600	-31.156	0.100
176.700	-38.749	0.100
176.800	-25.667	0.100
176.900	-24.678	0.100
177.000	-23.420	0.100
177.100	-28.666	0.100
177.200	-31.468	0.100
177.300	-22.155	0.100
177.400	-29.539	0.100
177.500	-24.858	0.100
177.600	-28.370	0.100
177.700	-29.159	0.100
177.800	-29.875	0.100
177.900	-19.525	0.100
178.000	-21.913	0.100
178.100	-30.892	0.100
178.200	-29.310	0.100
178.300	-29.737	0.100
178.400	-29.693	0.100
178.500	-27.726	0.100
178.600	-36.507	0.100
178.700	-37.115	0.100
178.800	-43.949	0.100
178.900	-26.850	0.100
179.000	-28.920	0.100
179.100	-33.536	0.100
179.200	-29.751	0.100
179.300	-33.030	0.100
179.400	-26.543	0.100
179.500	-30.704	0.100
179.600	-20.207	0.100
179.700	-23.811	0.100
179.800	-26.784	0.100
179.900	-35.053	0.100
180.000	-34.898	0.100
180.100	-36.554	0.100
180.200	-36.333	0.100
180.300	-24.806	0.100
180.400	-17.265	0.100
180.500	-14.827	0.100
180.600	-6.959	0.100
180.700	-15.587	0.100
180.800	-3.559	0.100
180.900	-2.503	0.100
181.000	-15.143	0.100
181.100	-10.773	0.100
181.200	-10.995	0.100
181.300	-4.440	0.100
181.400	-6.455	0.100
181.500	1.331	0.100
181.600	1.865	0.100
181.700	0.430	0.100
181.800	3.015	0.100
181.900	-1.611	0.100
182.000	-1.218	0.100
182.100	5.823	0.100
182.200	6.140	0.100
182.300	7.189	0.100
182.400	-1.329	0.100
182.500	-1.487	0.100
182.600	1.590	0.100
182.700	4.453	0.100
182.800	2.926	0.100
182.900	12.484	0.100
183.000	5.084	0.100
183.100	8.541	0.100
183.200	6.289	0.100
183.300	6.299	0.100
183.400	-0.292	0.100
183.500	3.204	0.100
183.600	6.772	0.100
183.700	5.486	0.100
183.800	15.478	0.100
183.900	9.767	0.100
184.000	8.895	0.100
184.100	11.652	0.100
184.200	11.902	0.100
184.300	9.119	0.100
184.400	6.088	0.100
184.500	1.864	0.100
184.600	4.319	0.100
184.700	4.920	0.100
184.800	4.907	0.100
184.900	8.983	0.100
185.000	1.963	0.100
185.100	11.117	0.100
185.200	9.005	0.100
185.300	7.957	0.100
185.400	6.493	0.100
185.500	3.742	0.100
185.600	-4.831	0.100
185.700	5.091	0.100
185.800	12.689	0.100
185.900	17.841	0.100
186.000	16.356	0.100
186.100	4.147	0.100
186.200	9.276	0.100
186.300	14.398	0.100
186.400	11.252	0.100
186.500	14.748	0.100
186.600	8.788	0.100
186.700	9.969	0.100
186.800	10.103	0.100
186.900	-6.488	0.100
187.000	9.169	0.100
187.100	15.987	0.100
187.200	6.826	0.100
187.300	13.941	0.100
187.400	13.996	0.100
187.500	0.590	0.100
187.600	9.676	0.100
187.700	2.640	0.100
187.800	7.946	0.100
187.900	10.211	0.100
188.000	0.159	0.100
188.100	15.373	0.100
188.200	5.698	0.100
188.300	13.925	0.100
188.400	4.161	0.100
188.500	11.607	0.100
188.600	11.276	0.100
188.700	1.702	0.100
188.800	6.059	0.100
188.900	9.577	0.100
189.000	16.743	0.100
189.100	13.544	0.100
189.200	20.378	0.100
189.300	10.103	0.100
189.400	5.506	0.100
189.500	4.178	0.100
189.600	12.874	0.100
189.700	14.434	0.100
189.800	19.439	0.100
189.900	8.575	0.100
190.000	8.113	0.100
190.100	16.489	0.100
190.200	9.430	0.100
190.300	16.548	0.100
190.400	15.227	0.100
190.500	11.225	0.100
190.600	11.496	0.100
190.700	18.134	0.100
190.800	9.858	0.100
190.900	9.642	0.100
191.000	8.109	0.100
191.100	11.291	0.100
191.200	10.455	0.100
191.300	3.910	0.100
191.400	12.990	0.100
191.500	15.902	0.100
191.600	4.972	0.100
191.700	7.411	0.100
191.800	18.804	0.100
191.900	12.522	0.100
192.000	12.015	0.100
192.100	16.519	0.100
192.200	7.179	0.100
192.300	14.941	0.100
192.400	11.703	0.100
192.500	9.153	0.100
192.600	13.468	0.100
192.700	15.325	0.100
192.800	15.984	0.100
192.900	14.126	0.100
193.000	14.165	0.100
193.100	13.532	0.100
193.200	14.580	0.100
193.300	11.840	0.100
193.400	20.405	0.100
193.500	8.233	0.100
193.600	19.382	0.100
193.700	18.218	0.100
193.800	12.456	0.100
193.900	14.065	0.100
194.000	23.624	0.100
194.100	24.865	0.100
194.200	17.516	0.100
194.300	13.975	0.100
194.400	21.128	0.100
194.500	25.177	0.100
194.600	20.808	0.100
194.700	13.921	0.100
194.800	13.861	0.100
194.900	23.301	0.100
195.000	20.024	0.100
195.100	20.424	0.100
195.200	20.169	0.100
195.300	13.602	0.100
195.400	20.733	0.100
195.500	33.837	0.100
195.600	27.320	0.100
195.700	20.682	0.100
195.800	27.300	0.100
195.900	30.947	0.100
196.000	27.946	0.100
196.100	22.035	0.100
196.200	16.745	0.100
196.300	20.261	0.100
196.400	24.112	0.100
196.500	22.113	0.100
196.600	20.146	0.100
196.700	34.886	0.100
196.800	27.908	0.100
196.900	31.591	0.100
197.000	25.382	0.100
197.100	24.101	0.100
197.200	26.743	0.100
197.300	33.621	0.100
197.400	32.175	0.100
197.500	28.114	0.100
197.600	24.970	0.100
197.700	19.163	0.100
197.800	39.685	0.100
197.900	33.951	0.100
198.000	27.726	0.100
198.100	26.019	0.100
198.200	33.102	0.100
198.300	27.251	0.100
198.400	35.440	0.100
198.500	37.095	0.100
198.600	33.040	0.100
198.700	36.173	0.100
198.800	31.448	0.100
198.900	30.338	0.100
199.000	42.249	0.100
199.100	38.090	0.100
199.200	45.791	0.100
199.300	35.654	0.100
199.400	34.386	0.100
199.500	39.726	0.100
199.600	29.857	0.100
199.700	37.681	0.100
199.800	42.355	0.100
199.900	40.458	0.100
200.000	41.395	0.100
200.100	35.851	0.100
200.200	32.583	0.100
200.300	47.055	0.100
200.400	41.750	0.100
200.500	30.964	0.100
200.600	38.523	0.100
200.700	41.746	0.100
200.800	35.599	0.100
200.900	42.335	0.100
201.000	36.579	0.100
201.100	37.168	0.100
201.200	48.144	0.100
201.300	43.548	0.100
201.400	43.086	0.100
201.500	34.871	0.100
201.600	47.544	0.100
201.700	42.544	0.100
201.800	44.062	0.100
201.900	46.432	0.100
202.000	40.438	0.100
202.100	46.311	0.100
202.200	36.838	0.100
202.300	39.633	0.100
202.400	41.673	0.100
202.500	42.726	0.100
202.600	41.182	0.100
202.700	47.250	0.100
202.800	50.119	0.100
202.900	37.355	0.100
203.000	38.328	0.100
203.100	43.770	0.100
203.200	42.682	0.100
203.300	44.690	0.100
203.400	51.032	0.100
203.500	51.027	0.100
203.600	57.624	0.100
203.700	49.020	0.100
203.800	55.394	0.100
203.900	53.287	0.100
204.000	49.852	0.100
204.100	46.706	0.100
204.200	45.328	0.100
204.300	46.063	0.100
204.400	55.007	0.100
204.500	46.641	0.100
204.600	51.022	0.100
204.700	60.258	0.100
204.800	53.058	0.100
204.900	55.166	0.100
205.000	47.541	0.100
205.100	48.634	0.100
205.200	56.469	0.100
205.300	54.705	0.100
205.400	53.889	0.100
205.500	52.652	0.100
205.600	51.783	0.100
205.700	43.121	0.100
205.800	46.429	0.100
205.900	52.923	0.100
206.000	53.772	0.100
206.100	46.834	0.100
206.200	43.318	0.100
206.300	46.892	0.100
206.400	51.931	0.100
206.500	53.028	0.100
206.600	63.698	0.100
206.700	52.025	0.100
206.800	47.604	0.100
206.900	67.545	0.100
207.000	50.518	0.100
207.100	49.041	0.100
207.200	46.306	0.100
207.300	45.707	0.100
207.400	55.019	0.100
207.500	60.723	0.100
207.600	65.943	0.100
207.700	58.264	0.100
207.800	50.264	0.100
207.900	48.473	0.100
208.000	59.042	0.100
208.100	55.123	0.100
208.200	51.237	0.100
208.300	56.135	0.100
208.400	61.344	0.100
208.500	53.818	0.100
208.600	45.176	0.100
208.700	53.859	0.100
208.800	51.284	0.100
208.900	43.131	0.100
209.000	54.193	0.100
209.100	55.115	0.100
209.200	65.079	0.100
209.300	56.985	0.100
209.400	52.759	0.100
209.500	50.907	0.100
209.600	52.925	0.100
209.700	49.951	0.100
209.800	66.874	0.100
209.900	59.111	0.100
210.000	54.756	0.100
210.100	58.578	0.100
210.200	56.053	0.100
210.300	47.152	0.100
210.400	52.322	0.100
210.500	53.944	0.100
210.600	53.115	0.100
210.700	49.922	0.100
210.800	60.820	0.100
210.900	57.472	0.100
211.000	60.676	0.100
211.100	58.138	0.100
211.200	51.111	0.100
211.300	52.449	0.100
211.400	59.957	0.100
211.500	52.111	0.100
211.600	49.718	0.100
211.700	52.123	0.100
211.800	60.054	0.100
211.900	58.073	0.100
212.000	55.389	0.100
212.100	68.228	0.100
212.200	64.001	0.100
212.300	56.132	0.100
212.400	54.766	0.100
212.500	54.472	0.100
212.600	44.012	0.100
212.700	46.980	0.100
212.800	56.296	0.100
212.900	55.629	0.100
213.000	54.720	0.100
213.100	48.578	0.100
213.200	48.584	0.100
213.300	46.373	0.100
213.400	53.352	0.100
213.500	59.655	0.100
213.600	58.263	0.100
213.700	49.193	0.100
213.800	54.814	0.100
213.900	54.520	0.100
214.000	58.810	0.100
214.100	68.897	0.100
214.200	54.411	0.100
214.300	54.596	0.100
214.400	53.894	0.100
214.500	41.305	0.100
214.600	53.788	0.100
214.700	53.045	0.100
214.800	49.658	0.100
214.900	49.975	0.100
215.000	65.474	0.100
215.100	54.088	0.100
215.200	61.409	0.100
215.300	53.027	0.100
215.400	55.078	0.100
215.500	55.860	0.100
215.600	59.797	0.100
215.700	57.328	0.100
215.800	52.521	0.100
215.900	48.206	0.100
216.000	60.310	0.100
216.100	47.514	0.100
216.200	55.629	0.100
216.300	54.568	0.100
216.400	59.955	0.100
216.500	53.170	0.100
216.600	57.725	0.100
216.700	54.872	0.100
216.800	57.809	0.100
216.900	52.590	0.100
217.000	55.462	0.100
217.100	52.943	0.100
217.200	57.288	0.100
217.300	59.473	0.100
217.400	55.174	0.100
217.500	55.658	0.100
217.600	57.728	0.100
217.700	58.945	0.100
217.800	55.433	0.100
217.900	67.717	0.100
218.000	43.943	0.100
218.100	52.862	0.100
218.200	45.207	0.100
218.300	50.058	0.100
218.400	49.174	0.100
218.500	57.620	0.100
218.600	51.155	0.100
218.700	54.836	0.100
218.800	47.804	0.100
218.900	46.571	0.100
219.000	44.220	0.100
219.100	47.553	0.100
219.200	50.498	0.100
219.300	63.321	0.100
219.400	59.817	0.100
219.500	62.279	0.100
219.600	63.925	0.100
219.700	50.558	0.100
219.800	57.230	0.100
219.900	54.027	0.100
220.000	53.924	0.100
220.100	50.211	0.100
220.200	43.130	0.100
220.300	57.637	0.100
220.400	61.475	0.100
220.500	43.255	0.100
220.600	59.774	0.100
220.700	55.856	0.100
220.800	63.962	0.100
220.900	56.776	0.100
221.000	54.485	0.100
221.100	51.019	0.100
221.200	54.229	0.100
221.300	56.519	0.100
221.400	44.300	0.100
221.500	58.414	0.100
221.600	51.043	0.100
221.700	60.630	0.100
221.800	60.352	0.100
221.900	52.032	0.100
222.000	54.084	0.100
222.100	57.306	0.100
222.200	46.065	0.100
222.300	54.388	0.100
222.400	57.250	0.100
222.500	47.602	0.100
222.600	49.791	0.100
222.700	55.053	0.100
222.800	58.756	0.100
222.900	57.906	0.100
223.000	57.358	0.100
223.100	57.286	0.100
223.200	50.311	0.100
223.300	59.725	0.100
223.400	57.431	0.100
223.500	48.853	0.100
223.600	45.319	0.100
223.700	48.639	0.100
223.800	47.682	0.100
223.900	51.961	0.100
224.000	56.203	0.100
224.100	66.216	0.100
224.200	68.477	0.100
224.300	62.063	0.100
224.400	50.261	0.100
224.500	52.235	0.100
224.600	51.891	0.100
224.700	52.298	0.100
224.800	50.925	0.100
224.900	51.070	0.100
225.000	42.375	0.100
225.100	56.088	0.100
225.200	56.851	0.100
225.300	62.282	0.100
225.400	57.756	0.100
225.500	51.926	0.100
225.600	53.269	0.100
225.700	56.334	0.100
225.800	47.261	0.100
225.900	51.008	0.100
226.000	53.980	0.100
226.100	55.077	0.100
226.200	60.361	0.100
226.300	67.939	0.100
226.400	49.684	0.100
226.500	56.402	0.100
226.600	56.442	0.100
226.700	54.113	0.100
226.800	51.009	0.100
226.900	52.969	0.100
227.000	52.666	0.100
227.100	48.026	0.100
227.200	55.630	0.100
227.300	52.760	0.100
227.400	61.078	0.100
227.500	62.704	0.100
227.600	61.169	0.100
227.700	50.345	0.100
227.800	52.922	0.100
227.900	57.642	0.100
228.000	59.059	0.100
228.100	55.197	0.100
228.200	50.812	0.100
228.300	46.843	0.100
228.400	45.578	0.100
228.500	55.743	0.100
228.600	59.423	0.100
228.700	47.950	0.100
228.800	51.821	0.100
228.900	56.996	0.100
229.000	54.298	0.100
229.100	55.082	0.100
229.200	56.046	0.100
229.300	48.308	0.100
229.400	53.325	0.100
229.500	49.101	0.100
229.600	52.922	0.100
229.700	43.576	0.100
229.800	47.348	0.100
229.900	55.581	0.100
230.000	59.977	0.100
230.100	41.877	0.100
230.200	60.813	0.100
230.300	51.193	0.100
230.400	58.429	0.100
230.500	55.472	0.100
230.600	55.166	0.100
230.700	57.599	0.100
230.800	54.637	0.100
230.900	55.320	0.100
231.000	61.355	0.100
231.100	57.474	0.100
231.200	59.709	0.100
231.300	54.152	0.100
231.400	53.594	0.100
231.500	58.803	0.100
231.600	60.672	0.100
231.700	50.912	0.100
231.800	52.403	0.100
231.900	47.055	0.100
232.000	59.127	0.100
232.100	52.592	0.100
232.200	58.191	0.100
232.300	62.556	0.100
232.400	53.501	0.100
232.500	46.048	0.100
232.600	52.768	0.100
232.700	54.554	0.100
232.800	61.863	0.100
232.900	56.522	0.100
233.000	56.544	0.100
233.100	49.187	0.100
233.200	44.732	0.100
233.300	55.229	0.100
233.400	59.281	0.100
233.500	57.638	0.100
233.600	49.579	0.100
233.700	39.620	0.100
233.800	54.219	0.100
233.900	64.735	0.100
234.000	48.810	0.100
234.100	51.998	0.100
234.200	62.236	0.100
234.300	54.926	0.100
234.400	47.187	0.100
234.500	49.753	0.100
234.600	55.966	0.100
234.700	39.798	0.100
234.800	53.215	0.100
234.900	52.304	0.100
235.000	48.675	0.100
235.100	49.922	0.100
235.200	59.062	0.100
235.300	49.264	0.100
235.400	60.757	0.100
235.500	60.782	0.100
235.600	56.058	0.100
235.700	44.195	0.100
235.800	49.276	0.100
235.900	51.669	0.100
236.000	55.819	0.100
236.100	53.708	0.100
236.200	55.004	0.100
236.300	54.540	0.100
236.400	57.399	0.100
236.500	52.717	0.100
236.600	55.437	0.100
236.700	41.531	0.100
236.800	50.983	0.100
236.900	45.840	0.100
237.000	50.386	0.100
237.100	63.607	0.100
237.200	56.725	0.100
237.300	51.265	0.100
237.400	55.326	0.100
237.500	49.750	0.100
237.600	49.945	0.100
237.700	58.814	0.100
237.800	53.587	0.100
237.900	53.166	0.100
238.000	47.439	0.100
238.100	58.103	0.100
238.200	45.410	0.100
238.300	42.852	0.100
238.400	64.917	0.100
238.500	54.624	0.100
238.600	48.465	0.100
238.700	55.423	0.100
238.800	53.965	0.100
238.900	46.309	0.100
239.000	55.132	0.100
239.100	53.369	0.100
239.200	62.336	0.100
239.300	60.172	0.100
239.400	51.664	0.100
239.500	51.536	0.100
239.600	43.676	0.100
239.700	54.075	0.100
239.800	57.838	0.100
239.900	40.417	0.100
240.000	56.446	0.100
240.100	53.254	0.100
240.200	45.548	0.100
240.300	43.847	0.100
240.400	48.281	0.100
240.500	44.701	0.100
240.600	36.880	0.100
240.700	31.999	0.100
240.800	37.242	0.100
240.900	25.432	0.100
241.000	35.693	0.100
241.100	18.516	0.100
241.200	31.492	0.100
241.300	21.965	0.100
241.400	12.389	0.100
241.500	18.355	0.100
241.600	24.731	0.100
241.700	13.170	0.100
241.800	18.371	0.100
241.900	17.334	0.100
242.000	15.344	0.100
242.100	19.916	0.100
242.200	12.248	0.100
242.300	1.987	0.100
242.400	-0.496	0.100
242.500	3.729	0.100
242.600	11.514	0.100
242.700	13.416	0.100
242.800	3.484	0.100
242.900	-8.203	0.100
243.000	11.978	0.100
243.100	8.741	0.100
243.200	-1.656	0.100
243.300	0.655	0.100
243.400	5.077	0.100
243.500	2.816	0.100
243.600	6.918	0.100
243.700	1.982	0.100
243.800	1.108	0.100
243.900	9.898	0.100
244.000	5.518	0.100
244.100	5.340	0.100
244.200	0.254	0.100
244.300	-4.058	0.100
244.400	-2.726	0.100
244.500	-1.042	0.100
244.600	-1.378	0.100
244.700	-5.466	0.100
244.800	-2.968	0.100
244.900	-8.205	0.100
245.000	-4.514	0.100
245.100	-0.640	0.100
245.200	-7.789	0.100
245.300	1.673	0.100
245.400	2.189	0.100
245.500	-7.608	0.100
245.600	-8.841	0.100
245.700	-10.339	0.100
245.800	1.511	0.100
245.900	-2.311	0.100
246.000	4.808	0.100
246.100	-7.451	0.100
246.200	-9.911	0.100
246.300	-1.450	0.100
246.400	-3.217	0.100
246.500	-11.243	0.100
246.600	0.913	0.100
246.700	-2.317	0.100
246.800	-2.330	0.100
246.900	1.882	0.100
247.000	-4.700	0.100
247.100	-2.851	0.100
247.200	-1.250	0.100
247.300	-0.455	0.100
247.400	-8.517	0.100
247.500	-2.002	0.100
247.600	-1.061	0.100
247.700	-13.151	0.100
247.800	-5.131	0.100
247.900	-4.865	0.100
248.000	-1.613	0.100
248.100	6.939	0.100
248.200	5.852	0.100
248.300	9.501	0.100
248.400	-0.394	0.100
248.500	-5.572	0.100
248.600	-8.802	0.100
248.700	-15.040	0.100
248.800	-2.143	0.100
248.900	-5.356	0.100
249.000	-0.041	0.100
249.100	-10.702	0.100
249.200	-3.283	0.100
249.300	-14.875	0.100
249.400	-7.956	0.100
249.500	-4.972	0.100
249.600	-3.485	0.100
249.700	-10.084	0.100
249.800	-2.442	0.100
249.900	-4.644	0.100
250.000	0.462	0.100
250.100	-10.643	0.100
250.200	-13.844	0.100
250.300	-8.553	0.100
250.400	-12.083	0.100
250.500	-7.906	0.100
250.600	-3.841	0.100
250.700	-0.737	0.100
250.800	-13.748	0.100
250.900	-5.367	0.100
251.000	-7.327	0.100
251.100	-13.507	0.100
251.200	0.633	0.100
251.300	-4.811	0.100
251.400	-2.967	0.100
251.500	-4.567	0.100
251.600	-6.739	0.100
251.700	-15.966	0.100
251.800	-13.605	0.100
251.900	-8.378	0.100
252.000	-8.029	0.100
252.100	-16.655	0.100
252.200	-10.181	0.100
252.300	-12.152	0.100
252.400	-14.971	0.100
252.500	-6.782	0.100
252.600	-8.923	0.100
252.700	-10.642	0.100
252.800	-6.841	0.100
252.900	-9.147	0.100
253.000	-11.089	0.100
253.100	2.359	0.100
253.200	-7.452	0.100
253.300	-10.920	0.100
253.400	-13.460	0.100
253.500	-11.753	0.100
253.600	-12.956	0.100
253.700	-17.703	0.100
253.800	-12.792	0.100
253.900	-3.159	0.100
254.000	-13.575	0.100
254.100	-11.738	0.100
254.200	-4.685	0.100
254.300	-17.112	0.100
254.400	-12.182	0.100
254.500	-0.210	0.100
254.600	-16.625	0.100
254.700	-19.638	0.100
254.800	-26.545	0.100
254.900	-16.082	0.100
255.000	-5.517	0.100
255.100	-15.658	0.100
255.200	-12.362	0.100
255.300	-10.881	0.100
255.400	-7.913	0.100
255.500	-10.652	0.100
255.600	-10.672	0.100
255.700	-12.112	0.100
255.800	-6.836	0.100
255.900	-10.169	0.100
256.000	-19.574	0.100
256.100	-22.039	0.100
256.200	-12.802	0.100
256.300	-8.326	0.100
256.400	-6.667	0.100
256.500	-16.167	0.100
256.600	-16.405	0.100
256.700	-21.068	0.100
256.800	-19.008	0.100
256.900	-17.721	0.100
257.000	-19.401	0.100
257.100	-16.901	0.100
257.200	-16.524	0.100
257.300	-19.473	0.100
257.400	-14.092	0.100
257.500	-21.710	0.100
257.600	-23.267	0.100
257.700	-19.368	0.100
257.800	-9.825	0.100
257.900	-0.728	0.100
258.000	-17.276	0.100
258.100	-20.449	0.100
258.200	-23.394	0.100
258.300	-22.206	0.100
258.400	-22.026	0.100
258.500	-6.231	0.100
258.600	-10.623	0.100
258.700	-14.353	0.100
258.800	-18.835	0.100
258.900	-16.273	0.100
259.000	-19.209	0.100
259.100	-22.701	0.100
259.200	-17.230	0.100
259.300	-15.123	0.100
259.400	-16.612	0.100
259.500	-15.351	0.100
259.600	-20.821	0.100
259.700	-25.906	0.100
259.800	-19.169	0.100
259.900	-19.853	0.100
260.000	-34.392	0.100
260.100	-12.670	0.100
260.200	-10.064	0.100
260.300	-13.910	0.100
260.400	-23.813	0.100
260.500	-21.349	0.100
260.600	-16.091	0.100
260.700	-10.542	0.100
260.800	-14.874	0.100
260.900	-12.001	0.100
261.000	-27.448	0.100
261.100	-29.454	0.100
261.200	-16.179	0.100
261.300	-18.156	0.100
261.400	-13.792	0.100
261.500	-19.564	0.100
261.600	-26.805	0.100
261.700	-32.822	0.100
261.800	-23.914	0.100
261.900	-19.581	0.100
262.000	-17.318	0.100
262.100	-9.933	0.100
262.200	-8.043	0.100
262.300	-15.965	0.100
262.400	-26.600	0.100
262.500	-24.129	0.100
262.600	-20.612	0.100
262.700	-23.145	0.100
262.800	-27.792	0.100
262.900	-26.320	0.100
263.000	-16.404	0.100
263.100	-13.974	0.100
263.200	-27.194	0.100
263.300	-21.282	0.100
263.400	-21.040	0.100
263.500	-26.356	0.100
263.600	-26.108	0.100
263.700	-19.251	0.100
263.800	-20.112	0.100
263.900	-23.612	0.100
264.000	-25.546	0.100
264.100	-26.206	0.100
264.200	-21.666	0.100
264.300	-19.104	0.100
264.400	-24.666	0.100
264.500	-23.955	0.100
264.600	-19.304	0.100
264.700	-18.475	0.100
264.800	-14.540	0.100
264.900	-18.109	0.100
265.000	-21.318	0.100
265.100	-21.055	0.100
265.200	-25.013	0.100
265.300	-24.884	0.100
265.400	-29.435	0.100
265.500	-22.520	0.100
265.600	-27.013	0.100
265.700	-35.163	0.100
265.800	-28.171	0.100
265.900	-23.701	0.100
266.000	-23.206	0.100
266.100	-25.962	0.100
266.200	-22.780	0.100
266.300	-31.710	0.100
266.400	-30.169	0.100
266.500	-29.508	0.100
266.600	-27.508	0.100
266.700	-27.622	0.100
266.800	-28.963	0.100
266.900	-18.802	0.100
267.000	-19.333	0.100
267.100	-28.862	0.100
267.200	-29.281	0.100
267.300	-35.624	0.100
267.400	-22.462	0.100
267.500	-18.748	0.100
267.600	-15.696	0.100
267.700	-24.248	0.100
267.800	-22.495	0.100
267.900	-32.919	0.100
268.000	-35.784	0.100
268.100	-27.827	0.100
268.200	-22.929	0.100
268.300	-28.487	0.100
268.400	-30.711	0.100
268.500	-37.412	0.100
268.600	-21.029	0.100
268.700	-21.360	0.100
268.800	-21.881	0.100
268.900	-35.812	0.100
269.000	-34.845	0.100
269.100	-27.016	0.100
269.200	-27.089	0.100
269.300	-26.380	0.100
269.400	-22.253	0.100
269.500	-26.492	0.100
269.600	-27.563	0.100
269.700	-31.357	0.100
269.800	-27.522	0.100
269.900	-28.855	0.100
270.000	-32.458	0.100
270.100	-31.034	0.100
270.200	-40.447	0.100
270.300	-30.692	0.100
270.400	-26.235	0.100
270.500	-26.929	0.100
270.600	-29.199	0.100
270.700	-32.269	0.100
270.800	-33.718	0.100
270.900	-28.958	0.100
271.000	-38.105	0.100
271.100	-31.853	0.100
271.200	-37.338	0.100
271.300	-23.764	0.100
271.400	-33.761	0.100
271.500	-32.801	0.100
271.600	-31.708	0.100
271.700	-33.719	0.100
271.800	-30.678	0.100
271.900	-29.713	0.100
272.000	-15.730	0.100
272.100	-40.502	0.100
272.200	-36.045	0.100
272.300	-30.645	0.100
272.400	-34.937	0.100
272.500	-23.924	0.100
272.600	-17.395	0.100
272.700	-33.253	0.100
272.800	-24.904	0.100
272.900	-33.776	0.100
273.000	-44.202	0.100
273.100	-32.050	0.100
273.200	-37.664	0.100
273.300	-34.073	0.100
273.400	-27.775	0.100
273.500	-25.349	0.100
273.600	-36.739	0.100
273.700	-35.944	0.100
273.800	-29.405	0.100
273.900	-40.706	0.100
274.000	-33.906	0.100
274.100	-29.487	0.100
274.200	-30.424	0.100
274.300	-27.339	0.100
274.400	-34.067	0.100
274.500	-28.377	0.100
274.600	-32.043	0.100
274.700	-44.530	0.100
274.800	-43.904	0.100
274.900	-36.069	0.100
275.000	-32.343	0.100
275.100	-26.717	0.100
275.200	-31.645	0.100
275.300	-35.987	0.100
275.400	-35.209	0.100
275.500	-42.267	0.100
275.600	-35.939	0.100
275.700	-33.387	0.100
275.800	-35.324	0.100
275.900	-33.519	0.100
276.000	-34.266	0.100
276.100	-41.198	0.100
276.200	-26.297	0.100
276.300	-24.602	0.100
276.400	-38.427	0.100
276.500	-39.919	0.100
276.600	-40.146	0.100
276.700	-37.880	0.100
276.800	-29.138	0.100
276.900	-35.661	0.100
277.000	-27.946	0.100
277.100	-37.993	0.100
277.200	-36.874	0.100
277.300	-37.357	0.100
277.400	-32.045	0.100
277.500	-29.480	0.100
277.600	-28.597	0.100
277.700	-41.670	0.100
277.800	-38.220	0.100
277.900	-36.657	0.100
278.000	-33.003	0.100
278.100	-30.793	0.100
278.200	-30.128	0.100
278.300	-34.559	0.100
278.400	-30.397	0.100
278.500	-34.642	0.100
278.600	-39.442	0.100
278.700	-36.833	0.100
278.800	-31.937	0.100
278.900	-36.634	0.100
279.000	-37.802	0.100
279.100	-39.793	0.100
279.200	-47.164	0.100
279.300	-40.516	0.100
279.400	-35.326	0.100
279.500	-35.800	0.100
279.600	-33.506	0.100
279.700	-39.848	0.100
279.800	-28.914	0.100
279.900	-33.604	0.100
280.000	-30.008	0.100
280.100	-30.578	0.100
280.200	-37.417	0.100
280.300	-40.344	0.100
280.400	-33.895	0.100
280.500	-20.964	0.100
280.600	-33.511	0.100
280.700	-26.109	0.100
280.800	-29.160	0.100
280.900	-48.306	0.100
281.000	-40.034	0.100
281.100	-33.165	0.100
281.200	-34.446	0.100
281.300	-27.507	0.100
281.400	-35.465	0.100
281.500	-35.366	0.100
281.600	-36.396	0.100
281.700	-37.583	0.100
281.800	-40.918	0.100
281.900	-31.488	0.100
282.000	-37.346	0.100
282.100	-41.785	0.100
282.200	-33.225	0.100
282.300	-33.895	0.100
282.400	-27.239	0.100
282.500	-27.414	0.100
282.600	-36.694	0.100
282.700	-42.618	0.100
282.800	-41.663	0.100
282.900	-39.798	0.100
283.000	-33.442	0.100
283.100	-31.719	0.100
283.200	-35.941	0.100
283.300	-36.005	0.100
283.400	-45.843	0.100
283.500	-43.752	0.100
283.600	-27.517	0.100
283.700	-28.994	0.100
283.800	-41.142	0.100
283.900	-34.216	0.100
284.000	-44.585	0.100
284.100	-33.052	0.100
284.200	-36.685	0.100
284.300	-32.381	0.100
284.400	-32.624	0.100
284.500	-37.837	0.100
284.600	-28.932	0.100
284.700	-34.979	0.100
284.800	-34.758	0.100
284.900	-33.940	0.100
285.000	-45.279	0.100
285.100	-42.861	0.100
285.200	-32.229	0.100
285.300	-31.285	0.100
285.400	-39.135	0.100
285.500	-37.249	0.100
285.600	-32.074	0.100
285.700	-37.397	0.100
285.800	-43.006	0.100
285.900	-37.309	0.100
286.000	-40.844	0.100
286.100	-38.726	0.100
286.200	-32.509	0.100
286.300	-36.724	0.100
286.400	-33.695	0.100
286.500	-43.247	0.100
286.600	-42.588	0.100
286.700	-33.831	0.100
286.800	-27.463	0.100
286.900	-37.549	0.100
287.000	-36.099	0.100
287.100	-37.314	0.100
287.200	-28.873	0.100
287.300	-29.642	0.100
287.400	-32.107	0.100
287.500	-35.341	0.100
287.600	-33.785	0.100
287.700	-33.981	0.100
287.800	-43.661	0.100
287.900	-42.213	0.100
288.000	-47.087	0.100
288.100	-27.154	0.100
288.200	-30.338	0.100
288.300	-34.171	0.100
288.400	-38.834	0.100
288.500	-35.644	0.100
288.600	-35.792	0.100
288.700	-29.272	0.100
288.800	-37.999	0.100
288.900	-37.344	0.100
289.000	-29.725	0.100
289.100	-46.211	0.100
289.200	-45.977	0.100
289.300	-34.079	0.100
289.400	-41.737	0.100
289.500	-30.422	0.100
289.600	-27.150	0.100
289.700	-31.391	0.100
289.800	-39.175	0.100
289.900	-34.537	0.100
290.000	-45.593	0.100
290.100	-37.036	0.100
290.200	-33.619	0.100
290.300	-32.455	0.100
290.400	-30.828	0.100
290.500	-40.423	0.100
290.600	-39.776	0.100
290.700	-33.566	0.100
290.800	-41.278	0.100
290.900	-40.364	0.100
291.000	-37.555	0.100
291.100	-36.979	0.100
291.200	-42.829	0.100
291.300	-41.695	0.100
291.400	-20.179	0.100
291.500	-39.663	0.100
291.600	-31.062	0.100
291.700	-33.170	0.100
291.800	-33.328	0.100
291.900	-43.288	0.100
292.000	-35.667	0.100
292.100	-31.758	0.100
292.200	-33.762	0.100
292.300	-37.714	0.100
292.400	-35.463	0.100
292.500	-33.477	0.100
292.600	-30.452	0.100
292.700	-45.128	0.100
292.800	-37.068	0.100
292.900	-29.818	0.100
293.000	-33.653	0.100
293.100	-33.341	0.100
293.200	-45.330	0.100
293.300	-32.330	0.100
293.400	-39.571	0.100
293.500	-36.087	0.100
293.600	-35.808	0.100
293.700	-45.945	0.100
293.800	-37.638	0.100
293.900	-38.756	0.100
294.000	-27.229	0.100
294.100	-40.043	0.100
294.200	-40.993	0.100
294.300	-43.242	0.100
294.400	-37.531	0.100
294.500	-35.709	0.100
294.600	-39.388	0.100
294.700	-39.495	0.100
294.800	-27.053	0.100
294.900	-39.914	0.100
295.000	-38.460	0.100
295.100	-34.783	0.100
295.200	-39.499	0.100
295.300	-39.400	0.100
295.400	-29.287	0.100
295.500	-26.648	0.100
295.600	-35.359	0.100
295.700	-44.502	0.100
295.800	-36.637	0.100
295.900	-34.958	0.100
296.000	-33.859	0.100
296.100	-31.079	0.100
296.200	-42.620	0.100
296.300	-33.062	0.100
296.400	-38.120	0.100
296.500	-33.558	0.100
296.600	-34.513	0.100
296.700	-30.728	0.100
296.800	-30.131	0.100
296.900	-36.981	0.100
297.000	-43.781	0.100
297.100	-34.136	0.100
297.200	-45.411	0.100
297.300	-33.513	0.100
297.400	-40.161	0.100
297.500	-35.315	0.100
297.600	-40.341	0.100
297.700	-46.664	0.100
297.800	-39.307	0.100
297.900	-27.266	0.100
298.000	-28.016	0.100
298.100	-28.061	0.100
298.200	-37.366	0.100
298.300	-25.079	0.100
298.400	-36.272	0.100
298.500	-35.492	0.100
298.600	-33.753	0.100
298.700	-31.623	0.100
298.800	-44.048	0.100
298.900	-32.209	0.100
299.000	-36.247	0.100
299.100	-39.211	0.100
299.200	-40.827	0.100
299.300	-31.789	0.100
299.400	-47.641	0.100
299.500	-44.406	0.100
299.600	-27.808	0.100
299.700	-42.762	0.100
299.800	-38.453	0.100
299.900	-27.070	0.100
300.000	-33.339	0.100
300.100	-40.597	0.100
300.200	-30.580	0.100
300.300	-37.651	0.100
300.400	-27.873	0.100
300.500	-31.227	0.100
300.600	-27.580	0.100
300.700	-27.110	0.100
300.800	-38.496	0.100
300.900	-37.487	0.100
301.000	-31.553	0.100
301.100	-35.878	0.100
301.200	-45.912	0.100
301.300	-37.580	0.100
301.400	-36.846	0.100
301.500	-31.950	0.100
301.600	-36.900	0.100
301.700	-33.058	0.100
301.800	-43.793	0.100
301.900	-34.891	0.100
302.000	-43.528	0.100
302.100	-33.164	0.100
302.200	-38.340	0.100
302.300	-30.435	0.100
302.400	-36.275	0.100
302.500	-30.042	0.100
302.600	-30.285	0.100
302.700	-45.055	0.100
302.800	-33.964	0.100
302.900	-43.416	0.100
303.000	-24.923	0.100
303.100	-28.307	0.100
303.200	-35.368	0.100
303.300	-42.396	0.100
303.400	-34.035	0.100
303.500	-32.241	0.100
303.600	-40.047	0.100
303.700	-36.323	0.100
303.800	-32.218	0.100
303.900	-35.120	0.100
304.000	-31.175	0.100
304.100	-29.310	0.100
304.200	-30.869	0.100
304.300	-36.585	0.100
304.400	-31.914	0.100
304.500	-30.683	0.100
304.600	-26.713	0.100
304.700	-43.413	0.100
304.800	-37.500	0.100
304.900	-36.086	0.100
305.000	-26.383	0.100
305.100	-36.392	0.100
305.200	-36.597	0.100
305.300	-38.246	0.100
305.400	-36.952	0.100
305.500	-34.244	0.100
305.600	-21.039	0.100
305.700	-24.227	0.100
305.800	-41.815	0.100
305.900	-42.395	0.100
306.000	-41.390	0.100
306.100	-30.953	0.100
306.200	-28.665	0.100
306.300	-28.341	0.100
306.400	-33.116	0.100
306.500	-31.055	0.100
306.600	-31.270	0.100
306.700	-33.790	0.100
306.800	-33.839	0.100
306.900	-35.570	0.100
307.000	-40.302	0.100
307.100	-32.456	0.100
307.200	-28.147	0.100
307.300	-37.313	0.100
307.400	-33.584	0.100
307.500	-33.470	0.100
307.600	-45.278	0.100
307.700	-35.995	0.100
307.800	-40.777	0.100
307.900	-27.911	0.100
308.000	-37.417	0.100
308.100	-36.598	0.100
308.200	-34.964	0.100
308.300	-26.732	0.100
308.400	-25.758	0.100
308.500	-39.052	0.100
308.600	-42.618	0.100
308.700	-34.832	0.100
308.800	-39.464	0.100
308.900	-36.149	0.100
309.000	-30.751	0.100
309.100	-29.413	0.100
309.200	-33.657	0.100
309.300	-31.361	0.100
309.400	-36.926	0.100
309.500	-35.850	0.100
309.600	-39.310	0.100
309.700	-24.079	0.100
309.800	-25.060	0.100
309.900	-34.935	0.100
310.000	-33.143	0.100
310.100	-34.453	0.100
310.200	-31.711	0.100
310.300	-31.171	0.100
310.400	-35.294	0.100
310.500	-29.005	0.100
310.600	-36.564	0.100
310.700	-37.879	0.100
310.800	-27.371	0.100
310.900	-32.861	0.100
311.000	-34.308	0.100
311.100	-31.184	0.100
311.200	-29.400	0.100
311.300	-37.721	0.100
311.400	-34.309	0.100
311.500	-34.381	0.100
311.600	-45.929	0.100
311.700	-24.611	0.100
311.800	-33.317	0.100
311.900	-23.170	0.100
312.000	-38.575	0.100
312.100	-32.945	0.100
312.200	-36.302	0.100
312.300	-33.546	0.100
312.400	-34.855	0.100
312.500	-26.376	0.100
312.600	-32.272	0.100
312.700	-31.801	0.100
312.800	-38.329	0.100
312.900	-26.384	0.100
313.000	-33.707	0.100
313.100	-29.925	0.100
313.200	-33.119	0.100
313.300	-40.435	0.100
313.400	-22.883	0.100
313.500	-38.502	0.100
313.600	-27.014	0.100
313.700	-30.551	0.100
313.800	-32.986	0.100
313.900	-35.275	0.100
314.000	-26.531	0.100
314.100	-22.218	0.100
314.200	-32.722	0.100
314.300	-34.668	0.100
314.400	-38.079	0.100
314.500	-33.393	0.100
314.600	-39.488	0.100
314.700	-25.642	0.100
314.800	-39.163	0.100
314.900	-36.767	0.100
315.000	-39.477	0.100
315.100	-39.325	0.100
315.200	-33.240	0.100
315.300	-32.355	0.100
315.400	-33.852	0.100
315.500	-22.541	0.100
315.600	-30.847	0.100
315.700	-26.740	0.100
315.800	-37.442	0.100
315.900	-26.578	0.100
316.000	-25.021	0.100
316.100	-25.604	0.100
316.200	-31.254	0.100
316.300	-29.517	0.100
316.400	-38.518	0.100
316.500	-37.324	0.100
316.600	-35.967	0.100
316.700	-25.070	0.100
316.800	-23.363	0.100
316.900	-28.093	0.100
317.000	-35.056	0.100
317.100	-33.620	0.100
317.200	-34.084	0.100
317.300	-33.836	0.100
317.400	-29.904	0.100
317.500	-24.478	0.100
317.600	-35.462	0.100
317.700	-31.576	0.100
317.800	-21.947	0.100
317.900	-25.096	0.100
318.000	-25.970	0.100
318.100	-21.859	0.100
318.200	-30.261	0.100
318.300	-32.074	0.100
318.400	-24.968	0.100
318.500	-28.697	0.100
318.600	-34.573	0.100
318.700	-33.657	0.100
318.800	-29.389	0.100
318.900	-31.574	0.100
319.000	-24.014	0.100
319.100	-28.472	0.100
319.200	-22.805	0.100
319.300	-29.499	0.100
319.400	-41.645	0.100
319.500	-26.424	0.100
319.600	-23.235	0.100
319.700	-27.905	0.100
319.800	-42.162	0.100
319.900	-33.940	0.100
320.000	-30.399	0.100
320.100	-33.154	0.100
320.200	-38.251	0.100
320.300	-24.226	0.100
320.400	-28.886	0.100
320.500	-29.059	0.100
320.600	-27.949	0.100
320.700	-29.993	0.100
320.800	-30.178	0.100
320.900	-35.234	0.100
321.000	-27.067	0.100
321.100	-30.927	0.100
321.200	-41.418	0.100
321.300	-30.737	0.100
321.400	-26.652	0.100
321.500	-33.834	0.100
321.600	-22.848	0.100
321.700	-27.479	0.100
321.800	-37.611	0.100
321.900	-35.425	0.100
322.000	-22.403	0.100
322.100	-28.503	0.100
322.200	-27.551	0.100
322.300	-28.172	0.100
322.400	-27.715	0.100
322.500	-33.712	0.100
322.600	-35.500	0.100
322.700	-39.987	0.100
322.800	-27.251	0.100
322.900	-30.200	0.100
323.000	-32.352	0.100
323.100	-37.381	0.100
323.200	-31.230	0.100
323.300	-37.527	0.100
323.400	-23.303	0.100
323.500	-28.498	0.100
323.600	-32.825	0.100
323.700	-33.414	0.100
323.800	-37.112	0.100
323.900	-24.196	0.100
324.000	-29.015	0.100
324.100	-29.305	0.100
324.200	-30.579	0.100
324.300	-31.848	0.100
324.400	-38.136	0.100
324.500	-40.301	0.100
324.600	-39.957	0.100
324.700	-29.445	0.100
324.800	-28.703	0.100
324.900	-25.265	0.100
325.000	-25.124	0.100
325.100	-30.776	0.100
325.200	-33.837	0.100
325.300	-27.934	0.100
325.400	-27.388	0.100
325.500	-22.052	0.100
325.600	-17.168	0.100
325.700	-35.693	0.100
325.800	-24.039	0.100
325.900	-27.703	0.100
326.000	-30.124	0.100
326.100	-31.030	0.100
326.200	-32.707	0.100
326.300	-28.071	0.100
326.400	-22.652	0.100
326.500	-35.777	0.100
326.600	-35.265	0.100
326.700	-30.642	0.100
326.800	-28.834	0.100
326.900	-19.830	0.100
327.000	-22.043	0.100
327.100	-24.485	0.100
327.200	-22.799	0.100
327.300	-29.698	0.100
327.400	-36.184	0.100
327.500	-27.213	0.100
327.600	-25.986	0.100
327.700	-34.504	0.100
327.800	-32.099	0.100
327.900	-30.444	0.100
328.000	-23.274	0.100
328.100	-27.562	0.100
328.200	-27.361	0.100
328.300	-26.727	0.100
328.400	-25.802	0.100
328.500	-24.155	0.100
328.600	-26.177	0.100
328.700	-30.795	0.100
328.800	-35.413	0.100
328.900	-33.179	0.100
329.000	-32.383	0.100
329.100	-36.349	0.100
329.200	-37.096	0.100
329.300	-38.631	0.100
329.400	-29.510	0.100
329.500	-29.963	0.100
329.600	-31.109	0.100
329.700	-28.634	0.100
329.800	-33.658	0.100
329.900	-25.448	0.100
330.000	-21.607	0.100
330.100	-34.054	0.100
330.200	-24.956	0.100
330.300	-33.589	0.100
330.400	-22.553	0.100
330.500	-19.119	0.100
330.600	-12.373	0.100
330.700	-22.656	0.100
330.800	-18.782	0.100
330.900	-10.342	0.100
331.000	-13.331	0.100
331.100	-5.432	0.100
331.200	-1.031	0.100
331.300	5.845	0.100
331.400	3.271	0.100
331.500	7.669	0.100
331.600	-3.452	0.100
331.700	8.349	0.100
331.800	2.020	0.100
331.900	11.295	0.100
332.000	7.812	0.100
332.100	11.944	0.100
332.200	2.358	0.100
332.300	2.909	0.100
332.400	-3.713	0.100
332.500	9.420	0.100
332.600	9.321	0.100
332.700	11.658	0.100
332.800	17.089	0.100
332.900	-5.444	0.100
333.000	1.394	0.100
333.100	-0.744	0.100
333.200	12.298	0.100
333.300	9.453	0.100
333.400	14.960	0.100
333.500	5.500	0.100
333.600	6.411	0.100
333.700	-0.074	0.100
333.800	0.424	0.100
333.900	9.707	0.100
334.000	7.451	0.100
334.100	19.997	0.100
334.200	9.652	0.100
334.300	6.595	0.100
334.400	4.562	0.100
334.500	10.177	0.100
334.600	14.343	0.100
334.700	5.411	0.100
334.800	3.020	0.100
334.900	2.977	0.100
335.000	6.978	0.100
335.100	11.886	0.100
335.200	15.022	0.100
335.300	13.364	0.100
335.400	5.984	0.100
335.500	-1.172	0.100
335.600	12.647	0.100
335.700	-2.256	0.100
335.800	8.608	0.100
335.900	6.526	0.100
336.000	14.530	0.100
336.100	8.071	0.100
336.200	16.432	0.100
336.300	6.946	0.100
336.400	15.677	0.100
336.500	13.056	0.100
336.600	10.398	0.100
336.700	10.657	0.100
336.800	7.734	0.100
336.900	5.212	0.100
337.000	-4.420	0.100
337.100	4.150	0.100
337.200	2.855	0.100
337.300	7.460	0.100
337.400	5.706	0.100
337.500	3.401	0.100
337.600	11.580	0.100
337.700	8.288	0.100
337.800	7.738	0.100
337.900	8.113	0.100
338.000	7.241	0.100
338.100	11.615	0.100
338.200	9.342	0.100
338.300	8.619	0.100
338.400	17.223	0.100
338.500	19.625	0.100
338.600	9.839	0.100
338.700	5.435	0.100
338.800	8.792	0.100
338.900	9.181	0.100
339.000	11.189	0.100
339.100	16.684	0.100
339.200	10.365	0.100
339.300	7.895	0.100
339.400	22.152	0.100
339.500	8.799	0.100
339.600	11.272	0.100
339.700	4.455	0.100
339.800	5.769	0.100
339.900	9.701	0.100
340.000	11.470	0.100
340.100	18.386	0.100
340.200	14.353	0.100
340.300	17.207	0.100
340.400	13.417	0.100
340.500	6.071	0.100
340.600	10.692	0.100
340.700	2.310	0.100
340.800	16.172	0.100
340.900	3.285	0.100
341.000	11.932	0.100
341.100	15.114	0.100
341.200	13.177	0.100
341.300	19.663	0.100
341.400	17.421	0.100
341.500	16.190	0.100
341.600	15.035	0.100
341.700	21.140	0.100
341.800	4.335	0.100
341.900	16.243	0.100
342.000	22.595	0.100
342.100	16.098	0.100
342.200	13.015	0.100
342.300	12.161	0.100
342.400	12.887	0.100
342.500	18.742	0.100
342.600	21.865	0.100
342.700	18.538	0.100
342.800	4.606	0.100
342.900	15.788	0.100
343.000	11.856	0.100
343.100	14.810	0.100
343.200	12.326	0.100
343.300	25.230	0.100
343.400	18.017	0.100
343.500	7.447	0.100
343.600	14.336	0.100
343.700	21.985	0.100
343.800	19.316	0.100
343.900	11.344	0.100
344.000	20.872	0.100
344.100	15.995	0.100
344.200	29.651	0.100
344.300	22.430	0.100
344.400	9.718	0.100
344.500	17.782	0.100
344.600	19.498	0.100
344.700	15.370	0.100
344.800	18.917	0.100
344.900	14.750	0.100
345.000	16.752	0.100
345.100	20.744	0.100
345.200	32.177	0.100
345.300	23.635	0.100
345.400	34.879	0.100
345.500	17.354	0.100
345.600	15.475	0.100
345.700	13.526	0.100
345.800	20.331	0.100
345.900	16.572	0.100
346.000	24.346	0.100
346.100	30.530	0.100
346.200	18.274	0.100
346.300	19.131	0.100
346.400	31.700	0.100
346.500	16.800	0.100
346.600	24.420	0.100
346.700	31.842	0.100
346.800	21.904	0.100
346.900	30.285	0.100
347.000	30.997	0.100
347.100	31.066	0.100
347.200	35.988	0.100
347.300	32.741	0.100
347.400	27.055	0.100
347.500	30.553	0.100
347.600	25.437	0.100
347.700	33.987	0.100
347.800	26.624	0.100
347.900	33.844	0.100
348.000	35.506	0.100
348.100	34.779	0.100
348.200	39.064	0.100
348.300	33.303	0.100
348.400	41.772	0.100
348.500	37.004	0.100
348.600	34.295	0.100
348.700	33.640	0.100
348.800	35.039	0.100
348.900	35.315	0.100
349.000	34.136	0.100
349.100	33.254	0.100
349.200	40.878	0.100
349.300	33.240	0.100
349.400	38.632	0.100
349.500	41.313	0.100
349.600	43.242	0.100
349.700	31.109	0.100
349.800	42.177	0.100
349.900	40.969	0.100
350.000	44.177	0.100
350.100	36.882	0.100
350.200	45.251	0.100
350.300	41.145	0.100
350.400	46.738	0.100
350.500	56.119	0.100
350.600	38.150	0.100
350.700	47.376	0.100
350.800	38.431	0.100
350.900	32.516	0.100
351.000	46.611	0.100
351.100	39.090	0.100
351.200	42.660	0.100
351.300	43.561	0.100
351.400	39.600	0.100
351.500	56.977	0.100
351.600	51.513	0.100
351.700	47.442	0.100
351.800	52.791	0.100
351.900	55.622	0.100
352.000	51.061	0.100
352.100	41.554	0.100
352.200	52.400	0.100
352.300	43.211	0.100
352.400	46.091	0.100
352.500	35.621	0.100
352.600	54.337	0.100
352.700	52.180	0.100
352.800	43.714	0.100
352.900	52.758	0.100
353.000	42.601	0.100
353.100	49.986	0.100
353.200	42.012	0.100
353.300	45.542	0.100
353.400	55.981	0.100
353.500	58.676	0.100
353.600	45.219	0.100
353.700	55.436	0.100
353.800	45.923	0.100
353.900	36.184	0.100
354.000	53.206	0.100
354.100	58.469	0.100
354.200	51.148	0.100
354.300	49.682	0.100
354.400	54.783	0.100
354.500	55.077	0.100
354.600	54.111	0.100
354.700	48.895	0.100
354.800	54.087	0.100
354.900	48.333	0.100
355.000	48.246	0.100
355.100	59.263	0.100
355.200	52.623	0.100
355.300	60.005	0.100
355.400	48.212	0.100
355.500	57.542	0.100
355.600	55.813	0.100
355.700	53.594	0.100
355.800	57.085	0.100
355.900	58.016	0.100
356.000	59.858	0.100
356.100	49.771	0.100
356.200	51.321	0.100
356.300	55.471	0.100
356.400	51.997	0.100
356.500	55.793	0.100
356.600	55.847	0.100
356.700	47.357	0.100
356.800	60.216	0.100
356.900	57.377	0.100
357.000	55.543	0.100
357.100	68.521	0.100
357.200	57.928	0.100
357.300	59.686	0.100
357.400	55.790	0.100
357.500	60.919	0.100
357.600	58.043	0.100
357.700	47.942	0.100
357.800	55.395	0.100
357.900	55.287	0.100
358.000	55.382	0.100
358.100	52.158	0.100
358.200	66.435	0.100
358.300	60.464	0.100
358.400	54.650	0.100
358.500	58.841	0.100
358.600	67.068	0.100
358.700	55.705	0.100
358.800	54.762	0.100
358.900	48.772	0.100
359.000	58.895	0.100
359.100	59.881	0.100
359.200	48.628	0.100
359.300	55.371	0.100
359.400	61.431	0.100
359.500	62.782	0.100
359.600	55.670	0.100
359.700	54.662	0.100
359.800	51.704	0.100
359.900	58.417	0.100
360.000	53.255	0.100
360.100	58.269	0.100
360.200	48.083	0.100
360.300	65.730	0.100
360.400	58.299	0.100
360.500	55.180	0.100
360.600	65.580	0.100
360.700	59.382	0.100
360.800	58.805	0.100
360.900	61.355	0.100
361.000	56.047	0.100
361.100	57.986	0.100
361.200	52.797	0.100
361.300	60.318	0.100
361.400	52.931	0.100
361.500	59.091	0.100
361.600	55.001	0.100
361.700	54.926	0.100
361.800	51.023	0.100
361.900	58.379	0.100
362.000	61.135	0.100
362.100	60.740	0.100
362.200	58.084	0.100
362.300	52.041	0.100
362.400	62.730	0.100
362.500	58.904	0.100
362.600	64.056	0.100
362.700	61.815	0.100
362.800	55.133	0.100
362.900	56.045	0.100
363.000	46.734	0.100
363.100	40.138	0.100
363.200	51.168	0.100
363.300	63.783	0.100
363.400	62.075	0.100
363.500	56.360	0.100
363.600	61.775	0.100
363.700	62.000	0.100
363.800	55.312	0.100
363.900	64.131	0.100
364.000	58.259	0.100
364.100	53.020	0.100
364.200	56.329	0.100
364.300	55.279	0.100
364.400	58.923	0.100
364.500	49.791	0.100
364.600	58.487	0.100
364.700	53.308	0.100
364.800	54.847	0.100
364.900	60.289	0.100
365.000	64.521	0.100
365.100	52.255	0.100
365.200	54.789	0.100
365.300	49.590	0.100
365.400	54.215	0.100
365.500	60.956	0.100
365.600	57.115	0.100
365.700	59.006	0.100
365.800	54.378	0.100
365.900	58.606	0.100
366.000	60.023	0.100
366.100	60.251	0.100
366.200	54.577	0.100
366.300	51.839	0.100
366.400	63.297	0.100
366.500	48.777	0.100
366.600	63.034	0.100
366.700	60.583	0.100
366.800	57.112	0.100
366.900	55.347	0.100
367.000	62.849	0.100
367.100	59.814	0.100
367.200	52.740	0.100
367.300	59.655	0.100
367.400	60.293	0.100
367.500	56.929	0.100
367.600	56.537	0.100
367.700	57.952	0.100
367.800	58.829	0.100
367.900	57.168	0.100
368.000	53.552	0.100
368.100	57.251	0.100
368.200	49.863	0.100
368.300	58.352	0.100
368.400	61.004	0.100
368.500	52.559	0.100
368.600	59.256	0.100
368.700	47.165	0.100
368.800	66.966	0.100
368.900	52.374	0.100
369.000	65.757	0.100
369.100	54.173	0.100
369.200	70.008	0.100
369.300	58.826	0.100
369.400	63.986	0.100
369.500	50.950	0.100
369.600	52.056	0.100
369.700	53.499	0.100
369.800	56.085	0.100
369.900	59.847	0.100
370.000	59.742	0.100
370.100	55.792	0.100
370.200	61.770	0.100
370.300	52.776	0.100
370.400	48.349	0.100
370.500	45.722	0.100
370.600	55.335	0.100
370.700	49.352	0.100
370.800	55.789	0.100
370.900	54.241	0.100
371.000	58.579	0.100
371.100	61.550	0.100
371.200	57.632	0.100
371.300	61.374	0.100
371.400	60.283	0.100
371.500	58.427	0.100
371.600	63.683	0.100
371.700	55.474	0.100
371.800	49.487	0.100
371.900	64.252	0.100
372.000	57.160	0.100
372.100	50.117	0.100
372.200	52.647	0.100
372.300	56.441	0.100
372.400	64.965	0.100
372.500	58.746	0.100
372.600	56.952	0.100
372.700	62.818	0.100
372.800	55.517	0.100
372.900	57.629	0.100
373.000	51.416	0.100
373.100	50.060	0.100
373.200	60.159	0.100
373.300	54.080	0.100
373.400	58.946	0.100
373.500	50.275	0.100
373.600	55.210	0.100
373.700	51.340	0.100
373.800	56.833	0.100
373.900	50.553	0.100
374.000	56.082	0.100
374.100	71.386	0.100
374.200	53.553	0.100
374.300	58.586	0.100
374.400	59.784	0.100
374.500	52.503	0.100
374.600	58.737	0.100
374.700	54.131	0.100
374.800	55.612	0.100
374.900	43.739	0.100
375.000	64.768	0.100
375.100	50.977	0.100
375.200	58.294	0.100
375.300	62.506	0.100
375.400	52.249	0.100
375.500	62.987	0.100
375.600	67.295	0.100
375.700	57.178	0.100
375.800	57.280	0.100
375.900	55.874	0.100
376.000	52.176	0.100
376.100	51.458	0.100
376.200	64.240	0.100
376.300	60.752	0.100
376.400	57.999	0.100
376.500	63.444	0.100
376.600	53.964	0.100
376.700	47.512	0.100
376.800	54.702	0.100
376.900	56.427	0.100
377.000	54.149	0.100
377.100	56.012	0.100
377.200	54.590	0.100
377.300	48.349	0.100
377.400	58.264	0.100
377.500	57.854	0.100
377.600	56.434	0.100
377.700	60.661	0.100
377.800	48.169	0.100
377.900	56.586	0.100
378.000	53.824	0.100
378.100	50.196	0.100
378.200	61.098	0.100
378.300	59.302	0.100
378.400	60.048	0.100
378.500	65.852	0.100
378.600	57.602	0.100
378.700	45.761	0.100
378.800	61.099	0.100
378.900	56.825	0.100
379.000	62.605	0.100
379.100	54.946	0.100
379.200	50.702	0.100
379.300	50.738	0.100
379.400	50.113	0.100
379.500	65.847	0.100
379.600	64.349	0.100
379.700	55.968	0.100
379.800	56.037	0.100
379.900	53.014	0.100
380.000	63.785	0.100
380.100	53.241	0.100
380.200	62.274	0.100
380.300	61.373	0.100
380.400	56.695	0.100
380.500	56.635	0.100
380.600	56.485	0.100
380.700	60.706	0.100
380.800	55.623	0.100
380.900	46.849	0.100
381.000	49.723	0.100
381.100	60.106	0.100
381.200	50.726	0.100
381.300	55.787	0.100
381.400	57.940	0.100
381.500	52.723	0.100
381.600	59.795	0.100
381.700	51.254	0.100
381.800	56.196	0.100
381.900	59.602	0.100
382.000	57.139	0.100
382.100	55.717	0.100
382.200	51.080	0.100
382.300	55.100	0.100
382.400	49.495	0.100
382.500	56.732	0.100
382.600	49.017	0.100
382.700	48.726	0.100
382.800	55.795	0.100
382.900	61.986	0.100
383.000	58.734	0.100
383.100	59.815	0.100
383.200	60.339	0.100
383.300	53.863	0.100
383.400	49.603	0.100
383.500	63.050	0.100
383.600	56.034	0.100
383.700	56.640	0.100
383.800	61.976	0.100
383.900	63.777	0.100
384.000	61.687	0.100
384.100	53.358	0.100
384.200	51.379	0.100
384.300	45.799	0.100
384.400	49.758	0.100
384.500	64.393	0.100
384.600	56.794	0.100
384.700	50.595	0.100
384.800	50.996	0.100
384.900	52.413	0.100
385.000	51.371	0.100
385.100	51.880	0.100
385.200	50.416	0.100
385.300	53.270	0.100
385.400	49.492	0.100
385.500	53.976	0.100
385.600	57.626	0.100
385.700	45.557	0.100
385.800	56.047	0.100
385.900	53.397	0.100
386.000	46.691	0.100
386.100	59.374	0.100
386.200	55.194	0.100
386.300	55.733	0.100
386.400	51.889	0.100
386.500	53.313	0.100
386.600	46.712	0.100
386.700	63.713	0.100
386.800	54.986	0.100
386.900	57.674	0.100
387.000	59.726	0.100
387.100	63.088	0.100
387.200	49.288	0.100
387.300	52.390	0.100
387.400	56.195	0.100
387.500	48.006	0.100
387.600	45.622	0.100
387.700	50.244	0.100
387.800	64.287	0.100
387.900	57.186	0.100
388.000	55.568	0.100
388.100	62.150	0.100
388.200	63.919	0.100
388.300	59.818	0.100
388.400	58.050	0.100
388.500	54.397	0.100
388.600	51.777	0.100
388.700	48.193	0.100
388.800	56.979	0.100
388.900	67.529	0.100
389.000	51.284	0.100
389.100	42.277	0.100
389.200	45.801	0.100
389.300	57.887	0.100
389.400	58.147	0.100
389.500	49.710	0.100
389.600	49.896	0.100
389.700	54.770	0.100
389.800	53.445	0.100
389.900	62.600	0.100
390.000	55.487	0.100
390.100	60.384	0.100
390.200	50.801	0.100
390.300	31.543	0.100
390.400	44.192	0.100
390.500	43.746	0.100
390.600	30.217	0.100
390.700	38.342	0.100
390.800	26.896	0.100
390.900	32.962	0.100
391.000	34.639	0.100
391.100	24.180	0.100
391.200	23.640	0.100
391.300	10.432	0.100
391.400	22.658	0.100
391.500	22.154	0.100
391.600	8.766	0.100
391.700	15.380	0.100
391.800	21.884	0.100
391.900	12.479	0.100
392.000	25.144	0.100
392.100	21.978	0.100
392.200	8.109	0.100
392.300	11.095	0.100
392.400	3.905	0.100
392.500	2.696	0.100
392.600	12.762	0.100
392.700	3.085	0.100
392.800	11.434	0.100
392.900	7.288	0.100
393.000	10.342	0.100
393.100	5.572	0.100
393.200	0.169	0.100
393.300	5.520	0.100
393.400	-1.340	0.100
393.500	8.903	0.100
393.600	10.182	0.100
393.700	2.155	0.100
393.800	-1.582	0.100
393.900	-9.487	0.100
394.000	-1.081	0.100
394.100	-0.641	0.100
394.200	-8.043	0.100
394.300	-2.353	0.100
394.400	-5.241	0.100
394.500	-12.207	0.100
394.600	2.772	0.100
394.700	3.547	0.100
394.800	0.645	0.100
394.900	-1.044	0.100
395.000	-2.035	0.100
395.100	-3.057	0.100
395.200	-1.406	0.100
395.300	-4.691	0.100
395.400	-0.841	0.100
395.500	-9.566	0.100
395.600	-4.053	0.100
395.700	-3.042	0.100
395.800	-3.993	0.100
395.900	-12.437	0.100
396.000	-0.608	0.100
396.100	-4.796	0.100
396.200	2.784	0.100
396.300	6.544	0.100
396.400	3.247	0.100
396.500	1.878	0.100
396.600	-3.879	0.100
396.700	-0.731	0.100
396.800	-6.728	0.100
396.900	-6.724	0.100
397.000	4.500	0.100
397.100	-5.102	0.100
397.200	-7.533	0.100
397.300	-4.239	0.100
397.400	-14.454	0.100
397.500	-1.246	0.100
397.600	-3.697	0.100
397.700	-2.460	0.100
397.800	-4.184	0.100
397.900	-4.856	0.100
398.000	-9.123	0.100
398.100	-11.587	0.100
398.200	-7.538	0.100
398.300	-3.388	0.100
398.400	1.401	0.100
398.500	3.748	0.100
398.600	-0.456	0.100
398.700	-5.935	0.100
398.800	0.088	0.100
398.900	-3.871	0.100
399.000	-2.616	0.100
399.100	-11.710	0.100
399.200	-8.044	0.100
399.300	-8.110	0.100
399.400	-1.432	0.100
399.500	-6.958	0.100
399.600	-5.767	0.100
399.700	-5.427	0.100
399.800	-7.730	0.100
399.900	-8.889	0.100
400.000	-13.119	0.100
400.100	-10.563	0.100
400.200	-14.592	0.100
400.300	-17.268	0.100
400.400	-4.203	0.100
400.500	-11.996	0.100
400.600	-10.459	0.100
400.700	-8.974	0.100
400.800	-13.571	0.100
400.900	3.496	0.100
401.000	-5.032	0.100
401.100	-5.527	0.100
401.200	-0.651	0.100
401.300	-5.161	0.100
401.400	-11.095	0.100
401.500	-20.061	0.100
401.600	-6.271	0.100
401.700	-1.712	0.100
401.800	-3.962	0.100
401.900	-11.324	0.100
402.000	-4.167	0.100
402.100	-11.514	0.100
402.200	-14.697	0.100
402.300	-18.896	0.100
402.400	-1.577	0.100
402.500	-6.757	0.100
402.600	-12.349	0.100
402.700	-17.050	0.100
402.800	-7.278	0.100
402.900	-10.939	0.100
403.000	-12.399	0.100
403.100	-7.280	0.100
403.200	-8.519	0.100
403.300	-18.141	0.100
403.400	-7.550	0.100
403.500	-14.905	0.100
403.600	-18.612	0.100
403.700	-11.159	0.100
403.800	-12.958	0.100
403.900	-0.753	0.100
404.000	-4.482	0.100
404.100	-9.511	0.100
404.200	-8.986	0.100
404.300	-7.012	0.100
404.400	-11.796	0.100
404.500	-19.824	0.100
404.600	-19.046	0.100
404.700	-17.975	0.100
404.800	-11.790	0.100
404.900	-13.556	0.100
405.000	-10.579	0.100
405.100	-13.377	0.100
405.200	-14.378	0.100
405.300	-11.458	0.100
405.400	-15.087	0.100
405.500	-15.946	0.100
405.600	-17.793	0.100
405.700	-14.918	0.100
405.800	-8.228	0.100
405.900	-19.327	0.100
406.000	-19.282	0.100
406.100	-18.458	0.100
406.200	-9.260	0.100
406.300	-18.472	0.100
406.400	-20.241	0.100
406.500	-15.400	0.100
406.600	-4.468	0.100
406.700	-18.334	0.100
406.800	-25.149	0.100
406.900	-20.982	0.100
407.000	-14.312	0.100
407.100	-19.006	0.100
407.200	-17.182	0.100
407.300	-12.315	0.100
407.400	-10.393	0.100
407.500	-18.549	0.100
407.600	-14.172	0.100
407.700	-18.053	0.100
407.800	-17.861	0.100
407.900	-18.299	0.100
408.000	-11.741	0.100
408.100	-19.498	0.100
408.200	-19.400	0.100
408.300	-27.218	0.100
408.400	-21.034	0.100
408.500	-23.166	0.100
408.600	-21.520	0.100
408.700	-25.442	0.100
408.800	-19.906	0.100
408.900	-18.269	0.100
409.000	-12.578	0.100
409.100	-12.780	0.100
409.200	-19.803	0.100
409.300	-22.045	0.100
409.400	-14.296	0.100
409.500	-19.822	0.100
409.600	-19.950	0.100
409.700	-22.758	0.100
409.800	-22.824	0.100
409.900	-28.396	0.100
410.000	-24.820	0.100
410.100	-8.801	0.100
410.200	-21.584	0.100
410.300	-23.826	0.100
410.400	-10.214	0.100
410.500	-10.552	0.100
410.600	-16.198	0.100
410.700	-14.000	0.100
410.800	-22.711	0.100
410.900	-20.553	0.100
411.000	-17.723	0.100
411.100	-22.902	0.100
411.200	-28.170	0.100
411.300	-27.649	0.100
411.400	-21.998	0.100
411.500	-21.128	0.100
411.600	-27.049	0.100
411.700	-14.433	0.100
411.800	-8.250	0.100
411.900	-16.546	0.100
412.000	-19.262	0.100
412.100	-19.755	0.100
412.200	-24.034	0.100
412.300	-17.955	0.100
412.400	-23.973	0.100
412.500	-18.690	0.100
412.600	-25.598	0.100
412.700	-18.637	0.100
412.800	-29.308	0.100
412.900	-15.118	0.100
413.000	-23.534	0.100
413.100	-30.532	0.100
413.200	-20.108	0.100
413.300	-15.052	0.100
413.400	-17.419	0.100
413.500	-26.997	0.100
413.600	-24.488	0.100
413.700	-27.690	0.100
413.800	-19.629	0.100
413.900	-21.191	0.100
414.000	-14.601	0.100
414.100	-20.747	0.100
414.200	-21.693	0.100
414.300	-21.421	0.100
414.400	-30.216	0.100
414.500	-25.415	0.100
414.600	-16.222	0.100
414.700	-25.914	0.100
414.800	-26.064	0.100
414.900	-32.079	0.100
415.000	-23.557	0.100
415.100	-17.968	0.100
415.200	-20.326	0.100
415.300	-25.599	0.100
415.400	-28.967	0.100
415.500	-29.573	0.100
415.600	-29.609	0.100
415.700	-24.002	0.100
415.800	-29.502	0.100
415.900	-15.974	0.100
416.000	-19.705	0.100
416.100	-31.844	0.100
416.200	-17.684	0.100
416.300	-31.135	0.100
416.400	-25.393	0.100
416.500	-26.790	0.100
416.600	-28.595	0.100
416.700	-28.084	0.100
416.800	-28.796	0.100
416.900	-29.797	0.100
417.000	-22.942	0.100
417.100	-27.648	0.100
417.200	-38.161	0.100
417.300	-34.066	0.100
417.400	-22.795	0.100
417.500	-30.125	0.100
417.600	-20.086	0.100
417.700	-13.653	0.100
417.800	-23.846	0.100
417.900	-29.636	0.100
418.000	-21.367	0.100
418.100	-24.379	0.100
418.200	-23.746	0.100
418.300	-33.950	0.100
418.400	-28.795	0.100
418.500	-28.573	0.100
418.600	-16.583	0.100
418.700	-18.882	0.100
418.800	-34.337	0.100
418.900	-29.396	0.100
419.000	-32.413	0.100
419.100	-28.733	0.100
419.200	-26.251	0.100
419.300	-27.231	0.100
419.400	-32.319	0.100
419.500	-30.484	0.100
419.600	-27.188	0.100
419.700	-29.073	0.100
419.800	-39.459	0.100
419.900	-39.838	0.100
420.000	-25.353	0.100
420.100	-25.132	0.100
420.200	-20.945	0.100
420.300	-35.209	0.100
420.400	-32.471	0.100
420.500	-28.309	0.100
420.600	-26.843	0.100
420.700	-20.836	0.100
420.800	-38.196	0.100
420.900	-33.552	0.100
421.000	-28.589	0.100
421.100	-34.874	0.100
421.200	-34.070	0.100
421.300	-29.096	0.100
421.400	-23.742	0.100
421.500	-38.835	0.100
421.600	-28.133	0.100
421.700	-24.220	0.100
421.800	-34.334	0.100
421.900	-34.796	0.100
422.000	-33.408	0.100
422.100	-37.004	0.100
422.200	-26.777	0.100
422.300	-27.072	0.100
422.400	-26.694	0.100
422.500	-36.283	0.100
422.600	-31.887	0.100
422.700	-31.760	0.100
422.800	-22.052	0.100
422.900	-27.731	0.100
423.000	-23.736	0.100
423.100	-44.438	0.100
423.200	-36.358	0.100
423.300	-32.282	0.100
423.400	-33.572	0.100
423.500	-34.929	0.100
423.600	-33.049	0.100
423.700	-40.523	0.100
423.800	-36.536	0.100
423.900	-32.051	0.100
424.000	-28.439	0.100
424.100	-25.611	0.100
424.200	-37.163	0.100
424.300	-30.451	0.100
424.400	-37.846	0.100
424.500	-36.034	0.100
424.600	-44.889	0.100
424.700	-37.857	0.100
424.800	-34.378	0.100
424.900	-32.662	0.100
425.000	-47.148	0.100
425.100	-35.387	0.100
425.200	-40.300	0.100
425.300	-38.193	0.100
425.400	-26.046	0.100
425.500	-34.488	0.100
425.600	-34.289	0.100
425.700	-29.759	0.100
425.800	-34.757	0.100
425.900	-23.476	0.100
426.000	-36.783	0.100
426.100	-28.579	0.100
426.200	-37.900	0.100
426.300	-33.706	0.100
426.400	-30.949	0.100
426.500	-32.643	0.100
426.600	-36.751	0.100
426.700	-31.353	0.100
426.800	-46.446	0.100
426.900	-43.413	0.100
427.000	-41.864	0.100
427.100	-32.393	0.100
427.200	-30.156	0.100
427.300	-43.340	0.100
427.400	-28.418	0.100
427.500	-26.198	0.100
427.600	-31.517	0.100
427.700	-40.948	0.100
427.800	-32.607	0.100
427.900	-39.848	0.100
428.000	-41.192	0.100
428.100	-40.787	0.100
428.200	-36.435	0.100
428.300	-41.504	0.100
428.400	-36.898	0.100
428.500	-35.300	0.100
428.600	-39.262	0.100
428.700	-33.986	0.100
428.800	-35.901	0.100
428.900	-28.011	0.100
429.000	-37.278	0.100
429.100	-28.240	0.100
429.200	-37.747	0.100
429.300	-45.293	0.100
429.400	-41.970	0.100
429.500	-47.060	0.100
429.600	-31.272	0.100
429.700	-35.494	0.100
429.800	-33.393	0.100
429.900	-28.924	0.100
430.000	-45.655	0.100
430.100	-46.095	0.100
430.200	-31.585	0.100
430.300	-40.450	0.100
430.400	-34.278	0.100
430.500	-41.788	0.100
430.600	-37.201	0.100
430.700	-30.363	0.100
430.800	-36.429	0.100
430.900	-30.758	0.100
431.000	-40.888	0.100
431.100	-41.702	0.100
431.200	-31.800	0.100
431.300	-34.011	0.100
431.400	-37.513	0.100
431.500	-38.587	0.100
431.600	-36.369	0.100
431.700	-42.610	0.100
431.800	-43.048	0.100
431.900	-40.445	0.100
432.000	-29.324	0.100
432.100	-40.876	0.100
432.200	-33.456	0.100
432.300	-47.305	0.100
432.400	-40.915	0.100
432.500	-40.737	0.100
432.600	-51.024	0.100
432.700	-32.604	0.100
432.800	-35.212	0.100
432.900	-43.287	0.100
433.000	-42.331	0.100
433.100	-36.131	0.100
433.200	-36.448	0.100
433.300	-31.560	0.100
433.400	-33.870	0.100
433.500	-51.682	0.100
433.600	-31.964	0.100
433.700	-33.230	0.100
433.800	-29.106	0.100
433.900	-35.337	0.100
434.000	-36.051	0.100
434.100	-43.106	0.100
434.200	-35.691	0.100
434.300	-41.708	0.100
434.400	-43.831	0.100
434.500	-40.473	0.100
434.600	-29.851	0.100
434.700	-31.100	0.100
434.800	-42.183	0.100
434.900	-37.074	0.100
435.000	-46.548	0.100
435.100	-44.398	0.100
435.200	-34.189	0.100
435.300	-31.535	0.100
435.400	-30.439	0.100
435.500	-43.126	0.100
435.600	-45.947	0.100
435.700	-38.478	0.100
435.800	-27.031	0.100
435.900	-44.750	0.100
436.000	-38.745	0.100
436.100	-41.722	0.100
436.200	-40.494	0.100
436.300	-46.775	0.100
436.400	-38.469	0.100
436.500	-39.648	0.100
436.600	-35.831	0.100
436.700	-33.841	0.100
436.800	-39.788	0.100
436.900	-42.974	0.100
437.000	-38.972	0.100
437.100	-36.811	0.100
437.200	-38.880	0.100
437.300	-41.085	0.100
437.400	-38.899	0.100
437.500	-38.741	0.100
437.600	-41.953	0.100
437.700	-31.656	0.100
437.800	-34.401	0.100
437.900	-34.451	0.100
438.000	-40.447	0.100
438.100	-35.190	0.100
438.200	-33.563	0.100
438.300	-39.854	0.100
438.400	-37.575	0.100
438.500	-26.020	0.100
438.600	-38.181	0.100
438.700	-42.230	0.100
438.800	-37.235	0.100
438.900	-32.827	0.100
439.000	-34.604	0.100
439.100	-38.635	0.100
439.200	-40.880	0.100
439.300	-47.685	0.100
439.400	-47.546	0.100
439.500	-39.761	0.100
439.600	-26.983	0.100
439.700	-36.293	0.100
439.800	-38.949	0.100
439.900	-31.577	0.100
440.000	-35.359	0.100
440.100	-37.552	0.100
440.200	-40.354	0.100
440.300	-39.212	0.100
440.400	-35.885	0.100
440.500	-39.186	0.100
440.600	-42.514	0.100
440.700	-40.579	0.100
440.800	-36.352	0.100
440.900	-32.256	0.100
441.000	-41.628	0.100
441.100	-43.257	0.100
441.200	-36.270	0.100
441.300	-42.903	0.100
441.400	-39.563	0.100
441.500	-34.192	0.100
441.600	-40.737	0.100
441.700	-43.362	0.100
441.800	-33.927	0.100
441.900	-29.947	0.100
442.000	-33.994	0.100
442.100	-34.610	0.100
442.200	-37.505	0.100
442.300	-45.549	0.100
442.400	-35.868	0.100
442.500	-42.184	0.100
442.600	-37.838	0.100
442.700	-31.882	0.100
442.800	-36.470	0.100
442.900	-33.426	0.100
443.000	-36.652	0.100
443.100	-27.679	0.100
443.200	-39.821	0.100
443.300	-32.716	0.100
443.400	-36.103	0.100
443.500	-28.843	0.100
443.600	-38.568	0.100
443.700	-43.165	0.100
443.800	-38.183	0.100
443.900	-29.317	0.100
444.000	-37.671	0.100
444.100	-30.837	0.100
444.200	-47.959	0.100
444.300	-36.887	0.100
444.400	-45.281	0.100
444.500	-39.941	0.100
444.600	-32.300	0.100
444.700	-33.095	0.100
444.800	-38.128	0.100
444.900	-47.277	0.100
445.000	-36.202	0.100
445.100	-32.273	0.100
445.200	-36.681	0.100
445.300	-40.538	0.100
445.400	-34.946	0.100
445.500	-30.656	0.100
445.600	-44.720	0.100
445.700	-33.206	0.100
445.800	-34.051	0.100
445.900	-37.510	0.100
446.000	-30.456	0.100
446.100	-40.910	0.100
446.200	-38.381	0.100
446.300	-29.566	0.100
446.400	-28.506	0.100
446.500	-33.975	0.100
446.600	-30.973	0.100
446.700	-37.884	0.100
446.800	-43.899	0.100
446.900	-42.493	0.100
447.000	-38.239	0.100
447.100	-32.541	0.100
447.200	-29.031	0.100
447.300	-37.268	0.100
447.400	-32.829	0.100
447.500	-38.507	0.100
447.600	-29.988	0.100
447.700	-35.829	0.100
447.800	-31.878	0.100
447.900	-39.759	0.100
448.000	-44.056	0.100
448.100	-37.951	0.100
448.200	-31.235	0.100
448.300	-38.067	0.100
448.400	-28.754	0.100
448.500	-35.376	0.100
448.600	-48.152	0.100
448.700	-25.925	0.100
448.800	-31.353	0.100
448.900	-36.733	0.100
449.000	-31.773	0.100
449.100	-37.058	0.100
449.200	-43.861	0.100
449.300	-34.825	0.100
449.400	-31.341	0.100
449.500	-32.734	0.100
449.600	-27.387	0.100
449.700	-39.674	0.100
449.800	-34.432	0.100
449.900	-35.535	0.100
450.000	-30.973	0.100
450.100	-28.486	0.100
450.200	-38.478	0.100
450.300	-44.689	0.100
450.400	-36.935	0.100
450.500	-34.806	0.100
450.600	-34.454	0.100
450.700	-29.398	0.100
450.800	-36.423	0.100
450.900	-34.776	0.100
451.000	-41.659	0.100
451.100	-38.019	0.100
451.200	-34.391	0.100
451.300	-35.089	0.100
451.400	-31.766	0.100
451.500	-40.633	0.100
451.600	-21.939	0.100
451.700	-25.264	0.100
451.800	-43.673	0.100
451.900	-39.859	0.100
452.000	-19.227	0.100
452.100	-35.680	0.100
452.200	-42.975	0.100
452.300	-39.309	0.100
452.400	-38.399	0.100
452.500	-36.772	0.100
452.600	-31.161	0.100
452.700	-28.009	0.100
452.800	-36.597	0.100
452.900	-42.181	0.100
453.000	-37.076	0.100
453.100	-41.797	0.100
453.200	-33.271	0.100
453.300	-25.983	0.100
453.400	-32.283	0.100
453.500	-32.839	0.100
453.600	-24.329	0.100
453.700	-39.644	0.100
453.800	-43.019	0.100
453.900	-28.666	0.100
454.000	-28.037	0.100
454.100	-31.330	0.100
454.200	-36.256	0.100
454.300	-26.970	0.100
454.400	-38.110	0.100
454.500	-32.713	0.100
454.600	-37.818	0.100
454.700	-32.183	0.100
454.800	-38.289	0.100
454.900	-38.648	0.100
455.000	-41.138	0.100
455.100	-41.151	0.100
455.200	-32.805	0.100
455.300	-26.772	0.100
455.400	-38.043	0.100
455.500	-35.148	0.100
455.600	-30.618	0.100
455.700	-41.559	0.100
455.800	-37.198	0.100
455.900	-28.970	0.100
456.000	-38.202	0.100
456.100	-25.000	0.100
456.200	-39.212	0.100
456.300	-33.889	0.100
456.400	-36.358	0.100
456.500	-29.016	0.100
456.600	-40.205	0.100
456.700	-42.034	0.100
456.800	-34.618	0.100
456.900	-32.685	0.100
457.000	-44.489	0.100
457.100	-30.792	0.100
457.200	-25.155	0.100
457.300	-35.596	0.100
457.400	-33.008	0.100
457.500	-38.294	0.100
457.600	-33.219	0.100
457.700	-34.694	0.100
457.800	-37.717	0.100
457.900	-31.252	0.100
458.000	-22.280	0.100
458.100	-23.825	0.100
458.200	-40.553	0.100
458.300	-41.720	0.100
458.400	-41.826	0.100
458.500	-33.519	0.100
458.600	-27.436	0.100
458.700	-29.217	0.100
458.800	-29.779	0.100
458.900	-29.651	0.100
459.000	-39.944	0.100
459.100	-33.344	0.100
459.200	-36.142	0.100
459.300	-33.362	0.100
459.400	-35.325	0.100
459.500	-31.295	0.100
459.600	-40.962	0.100
459.700	-33.149	0.100
459.800	-35.486	0.100
459.900	-30.829	0.100
460.000	-39.237	0.100
460.100	-23.826	0.100
460.200	-27.743	0.100
460.300	-40.925	0.100
460.400	-37.743	0.100
460.500	-40.563	0.100
460.600	-39.587	0.100
460.700	-26.088	0.100
460.800	-30.423	0.100
460.900	-36.509	0.100
461.000	-37.302	0.100
461.100	-33.295	0.100
461.200	-27.491	0.100
461.300	-36.031	0.100
461.400	-36.429	0.100
461.500	-36.414	0.100
461.600	-33.903	0.100
461.700	-35.583	0.100
461.800	-30.210	0.100
461.900	-34.847	0.100
462.000	-30.825	0.100
462.100	-25.553	0.100
462.200	-42.229	0.100
462.300	-39.685	0.100
462.400	-38.983	0.100
462.500	-43.102	0.100
462.600	-28.408	0.100
462.700	-29.318	0.100
462.800	-30.789	0.100
462.900	-22.976	0.100
463.000	-28.692	0.100
463.100	-35.618	0.100
463.200	-34.081	0.100
463.300	-32.564	0.100
463.400	-32.923	0.100
463.500	-38.063	0.100
463.600	-38.710	0.100
463.700	-34.428	0.100
463.800	-33.560	0.100
463.900	-35.758	0.100
464.000	-34.189	0.100
464.100	-32.301	0.100
464.200	-27.884	0.100
464.300	-33.081	0.100
464.400	-29.246	0.100
464.500	-35.199	0.100
464.600	-37.845	0.100
464.700	-33.306	0.100
464.800	-25.546	0.100
464.900	-27.694	0.100
465.000	-47.342	0.100
465.100	-39.310	0.100
465.200	-31.217	0.100
465.300	-31.603	0.100
465.400	-31.115	0.100
465.500	-27.808	0.100
465.600	-25.879	0.100
465.700	-19.923	0.100
465.800	-27.626	0.100
465.900	-32.096	0.100
466.000	-30.186	0.100
466.100	-29.203	0.100
466.200	-31.032	0.100
466.300	-31.869	0.100
466.400	-29.194	0.100
466.500	-32.409	0.100
466.600	-37.379	0.100
466.700	-32.710	0.100
466.800	-31.054	0.100
466.900	-31.602	0.100
467.000	-36.141	0.100
467.100	-28.195	0.100
467.200	-29.435	0.100
467.300	-40.295	0.100
467.400	-34.253	0.100
467.500	-25.370	0.100
467.600	-26.194	0.100
467.700	-26.517	0.100
467.800	-22.608	0.100
467.900	-35.410	0.100
468.000	-29.950	0.100
468.100	-26.610	0.100
468.200	-34.500	0.100
468.300	-30.094	0.100
468.400	-36.024	0.100
468.500	-34.575	0.100
468.600	-36.328	0.100
468.700	-33.528	0.100
468.800	-22.090	0.100
468.900	-28.443	0.100
469.000	-32.952	0.100
469.100	-32.476	0.100
469.200	-32.737	0.100
469.300	-40.186	0.100
469.400	-36.613	0.100
469.500	-22.719	0.100
469.600	-35.180	0.100
469.700	-34.287	0.100
469.800	-33.115	0.100
469.900	-23.367	0.100
470.000	-28.837	0.100
470.100	-38.108	0.100
470.200	-32.051	0.100
470.300	-30.257	0.100
470.400	-26.137	0.100
470.500	-21.485	0.100
470.600	-26.806	0.100
470.700	-26.928	0.100
470.800	-36.070	0.100
470.900	-28.140	0.100
471.000	-35.146	0.100
471.100	-35.705	0.100
471.200	-38.067	0.100
471.300	-28.711	0.100
471.400	-26.781	0.100
471.500	-34.994	0.100
471.600	-23.999	0.100
471.700	-34.320	0.100
471.800	-28.112	0.100
471.900	-28.501	0.100
472.000	-32.402	0.100
472.100	-23.892	0.100
472.200	-32.264	0.100
472.300	-20.167	0.100
472.400	-27.225	0.100
472.500	-34.985	0.100
472.600	-36.665	0.100
472.700	-27.344	0.100
472.800	-36.234	0.100
472.900	-25.868	0.100
473.000	-39.220	0.100
473.100	-24.419	0.100
473.200	-31.387	0.100
473.300	-33.162	0.100
473.400	-28.316	0.100
473.500	-24.131	0.100
473.600	-25.480	0.100
473.700	-27.889	0.100
473.800	-37.296	0.100
473.900	-35.593	0.100
474.000	-33.785	0.100
474.100	-31.743	0.100
474.200	-20.818	0.100
474.300	-20.118	0.100
474.400	-28.909	0.100
474.500	-35.680	0.100
474.600	-30.314	0.100
474.700	-34.156	0.100
474.800	-30.417	0.100
474.900	-30.738	0.100
475.000	-31.109	0.100
475.100	-33.901	0.100
475.200	-37.735	0.100
475.300	-25.029	0.100
475.400	-26.609	0.100
475.500	-24.401	0.100
475.600	-27.848	0.100
475.700	-18.150	0.100
475.800	-24.315	0.100
475.900	-34.712	0.100
476.000	-27.791	0.100
476.100	-19.719	0.100
476.200	-33.061	0.100
476.300	-35.149	0.100
476.400	-28.110	0.100
476.500	-22.059	0.100
476.600	-27.021	0.100
476.700	-28.379	0.100
476.800	-38.905	0.100
476.900	-38.111	0.100
477.000	-23.650	0.100
477.100	-29.603	0.100
477.200	-34.112	0.100
477.300	-27.626	0.100
477.400	-23.064	0.100
477.500	-28.393	0.100
477.600	-32.297	0.100
477.700	-35.895	0.100
477.800	-39.056	0.100
477.900	-27.729	0.100
478.000	-44.244	0.100
478.100	-27.222	0.100
478.200	-24.439	0.100
478.300	-23.503	0.100
478.400	-35.034	0.100
478.500	-29.774	0.100
478.600	-26.111	0.100
478.700	-30.062	0.100
478.800	-23.478	0.100
478.900	-26.941	0.100
479.000	-25.462	0.100
479.100	-26.743	0.100
479.200	-23.409	0.100
479.300	-25.940	0.100
479.400	-37.212	0.100
479.500	-28.239	0.100
479.600	-32.482	0.100
479.700	-34.646	0.100
479.800	-39.551	0.100
479.900	-29.852	0.100
480.000	-23.461	0.100
480.100	-26.588	0.100
480.200	-29.830	0.100
480.300	-32.517	0.100
480.400	-26.372	0.100
480.500	-19.383	0.100
480.600	-21.120	0.100
480.700	-23.010	0.100
480.800	-23.528	0.100
480.900	-11.349	0.100
481.000	-3.584	0.100
481.100	3.128	0.100
481.200	-7.254	0.100
481.300	0.052	0.100
481.400	1.697	0.100
481.500	5.458	0.100
481.600	-3.017	0.100
481.700	6.388	0.100
481.800	2.808	0.100
481.900	4.788	0.100
482.000	0.163	0.100
482.100	11.422	0.100
482.200	4.682	0.100
482.300	7.511	0.100
482.400	10.786	0.100
482.500	7.226	0.100
482.600	-3.865	0.100
482.700	1.230	0.100
482.800	22.637	0.100
482.900	8.507	0.100
483.000	8.211	0.100
483.100	3.279	0.100
483.200	3.994	0.100
483.300	7.568	0.100
483.400	8.286	0.100
483.500	15.734	0.100
483.600	8.449	0.100
483.700	12.564	0.100
483.800	8.502	0.100
483.900	0.921	0.100
484.000	12.866	0.100
484.100	9.783	0.100
484.200	6.072	0.100
484.300	6.588	0.100
484.400	10.180	0.100
484.500	5.965	0.100
484.600	1.746	0.100
484.700	6.411	0.100
484.800	1.332	0.100
484.900	10.378	0.100
485.000	6.375	0.100
485.100	13.595	0.100
485.200	11.199	0.100
485.300	9.001	0.100
485.400	8.901	0.100
485.500	-0.639	0.100
485.600	2.281	0.100
485.700	6.479	0.100
485.800	-0.211	0.100
485.900	13.184	0.100
486.000	1.392	0.100
486.100	11.755	0.100
486.200	9.500	0.100
486.300	-1.007	0.100
486.400	11.692	0.100
486.500	11.649	0.100
486.600	-1.672	0.100
486.700	16.363	0.100
486.800	6.281	0.100
486.900	5.197	0.100
487.000	7.205	0.100
487.100	1.598	0.100
487.200	1.754	0.100
487.300	3.902	0.100
487.400	7.207	0.100
487.500	6.929	0.100
487.600	2.879	0.100
487.700	7.675	0.100
487.800	11.209	0.100
487.900	9.535	0.100
488.000	14.413	0.100
488.100	8.470	0.100
488.200	11.402	0.100
488.300	1.249	0.100
488.400	10.462	0.100
488.500	7.944	0.100
488.600	3.145	0.100
488.700	14.184	0.100
488.800	1.507	0.100
488.900	9.318	0.100
489.000	19.240	0.100
489.100	2.331	0.100
489.200	12.966	0.100
489.300	18.552	0.100
489.400	20.720	0.100
489.500	0.907	0.100
489.600	17.524	0.100
489.700	9.129	0.100
489.800	8.308	0.100
489.900	17.906	0.100
490.000	12.333	0.100
490.100	15.129	0.100
490.200	21.214	0.100
490.300	15.248	0.100
490.400	9.534	0.100
490.500	17.947	0.100
490.600	13.951	0.100
490.700	10.935	0.100
490.800	18.087	0.100
490.900	8.212	0.100
491.000	10.406	0.100
491.100	8.346	0.100
491.200	17.584	0.100
491.300	11.845	0.100
491.400	23.889	0.100
491.500	17.079	0.100
491.600	15.169	0.100
491.700	13.917	0.100
491.800	4.804	0.100
491.900	2.698	0.100
492.000	10.067	0.100
492.100	27.251	0.100
492.200	11.456	0.100
492.300	18.649	0.100
492.400	7.737	0.100
492.500	10.758	0.100
492.600	9.804	0.100
492.700	12.049	0.100
492.800	26.195	0.100
492.900	13.430	0.100
493.000	12.581	0.100
493.100	5.687	0.100
493.200	17.448	0.100
493.300	9.951	0.100
493.400	17.604	0.100
493.500	17.642	0.100
493.600	12.034	0.100
493.700	13.103	0.100
493.800	18.247	0.100
493.900	22.342	0.100
494.000	17.566	0.100
494.100	18.191	0.100
494.200	8.908	0.100
494.300	32.683	0.100
494.400	22.859	0.100
494.500	18.159	0.100
494.600	15.856	0.100
494.700	9.545	0.100
494.800	20.509	0.100
494.900	26.405	0.100
495.000	14.329	0.100
495.100	16.132	0.100
495.200	17.326	0.100
495.300	17.685	0.100
495.400	20.553	0.100
495.500	20.618	0.100
495.600	24.383	0.100
495.700	31.203	0.100
495.800	19.743	0.100
495.900	24.106	0.100
496.000	26.211	0.100
496.100	28.200	0.100
496.200	29.748	0.100
496.300	9.905	0.100
496.400	24.465	0.100
496.500	23.702	0.100
496.600	30.150	0.100
496.700	27.020	0.100
496.800	26.065	0.100
496.900	24.273	0.100
497.000	29.023	0.100
497.100	29.130	0.100
497.200	21.320	0.100
497.300	30.521	0.100
497.400	34.512	0.100
497.500	36.204	0.100
497.600	25.011	0.100
497.700	31.120	0.100
497.800	19.847	0.100
497.900	35.234	0.100
498.000	44.478	0.100
498.100	44.367	0.100
498.200	38.411	0.100
498.300	33.047	0.100
498.400	27.157	0.100
498.500	23.848	0.100
498.600	32.363	0.100
498.700	41.263	0.100
498.800	36.825	0.100
498.900	43.454	0.100
499.000	40.929	0.100
499.100	46.012	0.100
499.200	37.970	0.100
499.300	36.367	0.100
499.400	43.592	0.100
499.500	43.124	0.100
499.600	38.170	0.100
499.700	41.527	0.100
499.800	44.393	0.100
499.900	37.840	0.100
500.000	38.207	0.100
500.100	39.774	0.100
500.200	33.180	0.100
500.300	36.929	0.100
500.400	42.486	0.100
500.500	57.005	0.100
500.600	45.364	0.100
500.700	39.380	0.100
500.800	49.168	0.100
500.900	52.751	0.100
501.000	51.487	0.100
501.100	50.229	0.100
501.200	43.053	0.100
501.300	43.420	0.100
501.400	39.859	0.100
501.500	46.137	0.100
501.600	41.565	0.100
501.700	50.721	0.100
501.800	46.514	0.100
501.900	53.746	0.100
502.000	48.235	0.100
502.100	52.405	0.100
502.200	44.703	0.100
502.300	46.314	0.100
502.400	48.500	0.100
502.500	45.524	0.100
502.600	52.480	0.100
502.700	47.207	0.100
502.800	58.704	0.100
502.900	50.740	0.100
503.000	51.666	0.100
503.100	57.478	0.100
503.200	43.781	0.100
503.300	46.662	0.100
503.400	62.128	0.100
503.500	56.510	0.100
503.600	58.303	0.100
503.700	52.262	0.100
503.800	55.679	0.100
503.900	54.418	0.100
504.000	56.412	0.100
504.100	49.851	0.100
504.200	46.244	0.100
504.300	52.493	0.100
504.400	54.710	0.100
504.500	61.421	0.100
504.600	55.057	0.100
504.700	50.904	0.100
504.800	55.744	0.100
504.900	56.172	0.100
505.000	54.792	0.100
505.100	52.180	0.100
505.200	51.086	0.100
505.300	57.988	0.100
505.400	56.149	0.100
505.500	61.769	0.100
505.600	57.645	0.100
505.700	57.204	0.100
505.800	61.899	0.100
505.900	52.106	0.100
506.000	49.868	0.100
506.100	54.459	0.100
506.200	51.725	0.100
506.300	50.130	0.100
506.400	45.180	0.100
506.500	51.415	0.100
506.600	62.112	0.100
506.700	59.310	0.100
506.800	57.698	0.100
506.900	54.349	0.100
507.000	52.597	0.100
507.100	54.928	0.100
507.200	56.774	0.100
507.300	50.378	0.100
507.400	58.227	0.100
507.500	43.931	0.100
507.600	46.389	0.100
507.700	59.117	0.100
507.800	60.915	0.100
507.900	47.733	0.100
508.000	55.565	0.100
508.100	72.802	0.100
508.200	56.526	0.100
508.300	62.671	0.100
508.400	50.310	0.100
508.500	49.649	0.100
508.600	63.141	0.100
508.700	55.201	0.100
508.800	60.404	0.100
508.900	55.732	0.100
509.000	58.928	0.100
509.100	51.443	0.100
509.200	61.286	0.100
509.300	59.545	0.100
509.400	60.747	0.100
509.500	63.749	0.100
509.600	60.877	0.100
509.700	48.109	0.100
509.800	56.462	0.100
509.900	57.543	0.100
510.000	59.837	0.100
510.100	55.767	0.100
510.200	62.023	0.100
510.300	43.129	0.100
510.400	63.437	0.100
510.500	59.146	0.100
510.600	57.613	0.100
510.700	48.647	0.100
510.800	64.616	0.100
510.900	57.162	0.100
511.000	58.875	0.100
511.100	57.366	0.100
511.200	59.699	0.100
511.300	56.386	0.100
511.400	55.965	0.100
511.500	61.567	0.100
511.600	59.145	0.100
511.700	57.106	0.100
511.800	57.148	0.100
511.900	57.979	0.100
512.000	57.452	0.100
512.100	56.454	0.100
512.200	60.147	0.100
512.300	62.629	0.100
512.400	51.137	0.100
512.500	62.300	0.100
512.600	59.787	0.100
512.700	63.617	0.100
512.800	56.233	0.100
512.900	56.664	0.100
513.000	53.897	0.100
513.100	66.314	0.100
513.200	64.969	0.100
513.300	56.444	0.100
513.400	65.904	0.100
513.500	50.339	0.100
513.600	57.605	0.100
513.700	60.281	0.100
513.800	64.157	0.100
513.900	53.925	0.100
514.000	58.263	0.100
514.100	46.848	0.100
514.200	50.354	0.100
514.300	61.875	0.100
514.400	49.538	0.100
514.500	48.975	0.100
514.600	60.522	0.100
514.700	54.711	0.100
514.800	50.615	0.100
514.900	63.895	0.100
515.000	55.141	0.100
515.100	56.397	0.100
515.200	58.033	0.100
515.300	47.980	0.100
515.400	50.764	0.100
515.500	64.298	0.100
515.600	62.595	0.100
515.700	48.237	0.100
515.800	52.898	0.100
515.900	64.215	0.100
516.000	63.211	0.100
516.100	54.794	0.100
516.200	64.721	0.100
516.300	55.783	0.100
516.400	61.478	0.100
516.500	57.136	0.100
516.600	53.756	0.100
516.700	67.933	0.100
516.800	63.488	0.100
516.900	50.252	0.100
517.000	60.082	0.100
517.100	58.418	0.100
517.200	59.067	0.100
517.300	53.305	0.100
517.400	60.196	0.100
517.500	45.617	0.100
517.600	49.553	0.100
517.700	53.313	0.100
517.800	64.940	0.100
517.900	59.008	0.100
518.000	62.995	0.100
518.100	58.346	0.100
518.200	54.129	0.100
518.300	60.598	0.100
518.400	56.066	0.100
518.500	60.193	0.100
518.600	51.646	0.100
518.700	64.362	0.100
518.800	63.230	0.100
518.900	51.799	0.100
519.000	50.324	0.100
519.100	53.637	0.100
519.200	56.233	0.100
519.300	57.475	0.100
519.400	64.906	0.100
519.500	58.037	0.100
519.600	55.317	0.100
519.700	49.246	0.100
519.800	57.636	0.100
519.900	64.716	0.100
520.000	66.466	0.100
520.100	55.150	0.100
520.200	53.619	0.100
520.300	54.164	0.100
520.400	48.363	0.100
520.500	53.486	0.100
520.600	61.628	0.100
520.700	55.679	0.100
520.800	68.119	0.100
520.900	55.552	0.100
521.000	56.535	0.100
521.100	48.161	0.100
521.200	55.696	0.100
521.300	59.380	0.100
521.400	64.830	0.100
521.500	54.707	0.100
521.600	61.781	0.100
521.700	53.474	0.100
521.800	58.470	0.100
521.900	60.504	0.100
522.000	55.972	0.100
522.100	56.499	0.100
522.200	58.160	0.100
522.300	57.980	0.100
522.400	65.814	0.100
522.500	55.550	0.100
522.600	58.909	0.100
522.700	52.243	0.100
522.800	56.489	0.100
522.900	60.540	0.100
523.000	50.511	0.100
523.100	53.746	0.100
523.200	49.307	0.100
523.300	59.684	0.100
523.400	61.310	0.100
523.500	64.397	0.100
523.600	60.487	0.100
523.700	56.256	0.100
523.800	53.298	0.100
523.900	59.117	0.100
524.000	52.317	0.100
524.100	55.143	0.100
524.200	56.142	0.100
524.300	45.784	0.100
524.400	49.683	0.100
524.500	55.658	0.100
524.600	51.775	0.100
524.700	59.478	0.100
524.800	53.935	0.100
524.900	51.106	0.100
525.000	51.359	0.100
525.100	53.004	0.100
525.200	53.809	0.100
525.300	58.631	0.100
525.400	51.175	0.100
525.500	54.147	0.100
525.600	62.084	0.100
525.700	56.528	0.100
525.800	51.570	0.100
525.900	50.364	0.100
526.000	61.868	0.100
526.100	59.637	0.100
526.200	54.541	0.100
526.300	57.014	0.100
526.400	49.349	0.100
526.500	51.094	0.100
526.600	54.199	0.100
526.700	55.679	0.100
526.800	54.286	0.100
526.900	63.993	0.100
527.000	72.915	0.100
527.100	55.779	0.100
527.200	51.160	0.100
527.300	58.459	0.100
527.400	50.159	0.100
527.500	62.273	0.100
527.600	52.616	0.100
527.700	46.608	0.100
527.800	55.434	0.100
527.900	45.872	0.100
528.000	57.457	0.100
528.100	47.470	0.100
528.200	58.463	0.100
528.300	55.239	0.100
528.400	60.651	0.100
528.500	73.568	0.100
528.600	60.053	0.100
528.700	50.397	0.100
528.800	52.180	0.100
528.900	62.428	0.100
529.000	52.577	0.100
529.100	61.225	0.100
529.200	47.893	0.100
529.300	54.111	0.100
529.400	55.625	0.100
529.500	61.402	0.100
529.600	55.699	0.100
529.700	48.398	0.100
529.800	60.501	0.100
529.900	61.090	0.100
530.000	52.393	0.100
530.100	49.044	0.100
530.200	49.340	0.100
530.300	48.703	0.100
530.400	53.410	0.100
530.500	49.382	0.100
530.600	53.901	0.100
530.700	48.948	0.100
530.800	44.880	0.100
530.900	51.106	0.100
531.000	49.680	0.100
531.100	47.362	0.100
531.200	60.426	0.100
531.300	55.071	0.100
531.400	58.062	0.100
531.500	56.150	0.100
531.600	55.672	0.100
531.700	55.124	0.100
531.800	56.314	0.100
531.900	53.711	0.100
532.000	64.743	0.100
532.100	69.546	0.100
532.200	64.446	0.100
532.300	61.911	0.100
532.400	52.542	0.100
532.500	61.498	0.100
532.600	45.973	0.100
532.700	58.756	0.100
532.800	52.485	0.100
532.900	52.450	0.100
533.000	51.404	0.100
533.100	53.171	0.100
533.200	46.628	0.100
533.300	49.919	0.100
533.400	51.437	0.100
533.500	50.000	0.100
533.600	56.506	0.100
533.700	52.536	0.100
533.800	55.703	0.100
533.900	48.248	0.100
534.000	55.483	0.100
534.100	48.485	0.100
534.200	53.316	0.100
534.300	62.707	0.100
534.400	57.865	0.100
534.500	56.054	0.100
534.600	54.181	0.100
534.700	62.860	0.100
534.800	58.983	0.100
534.900	54.356	0.100
535.000	60.228	0.100
535.100	63.740	0.100
535.200	46.716	0.100
535.300	48.588	0.100
535.400	55.897	0.100
535.500	51.538	0.100
535.600	52.038	0.100
535.700	48.372	0.100
535.800	51.407	0.100
535.900	53.865	0.100
536.000	50.191	0.100
536.100	53.895	0.100
536.200	60.922	0.100
536.300	54.639	0.100
536.400	56.986	0.100
536.500	50.620	0.100
536.600	56.331	0.100
536.700	50.291	0.100
536.800	61.212	0.100
536.900	52.800	0.100
537.000	54.279	0.100
537.100	43.483	0.100
537.200	54.421	0.100
537.300	55.065	0.100
537.400	52.948	0.100
537.500	54.631	0.100
537.600	61.829	0.100
537.700	49.489	0.100
537.800	50.166	0.100
537.900	48.440	0.100
538.000	45.064	0.100
538.100	52.952	0.100
538.200	57.112	0.100
538.300	58.710	0.100
538.400	58.535	0.100
538.500	59.755	0.100
538.600	55.963	0.100
538.700	53.171	0.100
538.800	44.504	0.100
538.900	51.837	0.100
539.000	65.180	0.100
539.100	61.265	0.100
539.200	59.140	0.100
539.300	44.206	0.100
539.400	56.961	0.100
539.500	50.947	0.100
539.600	51.513	0.100
539.700	56.755	0.100
539.800	50.893	0.100
539.900	47.101	0.100
540.000	57.622	0.100
540.100	57.338	0.100
540.200	53.206	0.100
540.300	50.650	0.100
540.400	53.628	0.100
540.500	39.778	0.100
540.600	41.792	0.100
540.700	38.257	0.100
540.800	39.330	0.100
540.900	25.550	0.100
541.000	26.321	0.100
541.100	31.536	0.100
541.200	23.700	0.100
541.300	17.264	0.100
541.400	16.977	0.100
541.500	8.310	0.100
541.600	16.242	0.100
541.700	19.667	0.100
541.800	14.134	0.100
541.900	4.671	0.100
542.000	11.256	0.100
542.100	-2.044	0.100
542.200	4.587	0.100
542.300	4.063	0.100
542.400	9.813	0.100
542.500	3.786	0.100
542.600	3.056	0.100
542.700	-9.104	0.100
542.800	7.646	0.100
542.900	2.574	0.100
543.000	3.974	0.100
543.100	1.468	0.100
543.200	1.610	0.100
543.300	1.253	0.100
543.400	-3.882	0.100
543.500	-9.596	0.100
543.600	-1.836	0.100
543.700	-4.641	0.100
543.800	1.792	0.100
543.900	-5.344	0.100
544.000	4.899	0.100
544.100	-0.456	0.100
544.200	5.482	0.100
544.300	3.995	0.100
544.400	-6.944	0.100
544.500	-15.938	0.100
544.600	-10.440	0.100
544.700	-2.078	0.100
544.800	1.778	0.100
544.900	-1.777	0.100
545.000	-8.589	0.100
545.100	-7.417	0.100
545.200	-2.128	0.100
545.300	-2.935	0.100
545.400	-2.990	0.100
545.500	-0.101	0.100
545.600	-12.578	0.100
545.700	-9.401	0.100
545.800	-9.468	0.100
545.900	-9.518	0.100
546.000	-0.622	0.100
546.100	-3.076	0.100
546.200	-10.324	0.100
546.300	-0.235	0.100
546.400	-4.054	0.100
546.500	-4.438	0.100
546.600	-13.708	0.100
546.700	-11.214	0.100
546.800	-11.583	0.100
546.900	-10.341	0.100
547.000	-5.158	0.100
547.100	-4.436	0.100
547.200	-8.492	0.100
547.300	-9.958	0.100
547.400	2.435	0.100
547.500	-2.476	0.100
547.600	-8.886	0.100
547.700	-5.076	0.100
547.800	-8.191	0.100
547.900	-9.691	0.100
548.000	1.459	0.100
548.100	-15.410	0.100
548.200	-11.577	0.100
548.300	-4.103	0.100
548.400	-5.615	0.100
548.500	-22.764	0.100
548.600	-13.132	0.100
548.700	-0.045	0.100
548.800	-19.771	0.100
548.900	-5.779	0.100
549.000	-2.092	0.100
549.100	-4.337	0.100
549.200	-13.195	0.100
549.300	-14.999	0.100
549.400	-9.379	0.100
549.500	-0.135	0.100
549.600	-4.283	0.100
549.700	-4.186	0.100
549.800	-16.220	0.100
549.900	-5.328	0.100
550.000	-11.796	0.100
550.100	-3.163	0.100
550.200	-15.427	0.100
550.300	0.497	0.100
550.400	-22.895	0.100
550.500	-11.885	0.100
550.600	-6.475	0.100
550.700	-10.438	0.100
550.800	-14.815	0.100
550.900	-15.099	0.100
551.000	-1.814	0.100
551.100	-24.183	0.100
551.200	-15.095	0.100
551.300	-4.468	0.100
551.400	-14.546	0.100
551.500	-9.595	0.100
551.600	-6.603	0.100
551.700	-8.743	0.100
551.800	-11.131	0.100
551.900	-9.316	0.100
552.000	-6.431	0.100
552.100	-19.531	0.100
552.200	-20.340	0.100
552.300	-9.460	0.100
552.400	-8.545	0.100
552.500	-4.761	0.100
552.600	-13.493	0.100
552.700	-14.625	0.100
552.800	-12.465	0.100
552.900	-1.679	0.100
553.000	-8.591	0.100
553.100	-17.215	0.100
553.200	-20.035	0.100
553.300	-15.449	0.100
553.400	-10.999	0.100
553.500	-19.359	0.100
553.600	-20.952	0.100
553.700	-16.583	0.100
553.800	-14.970	0.100
553.900	-17.605	0.100
554.000	-14.500	0.100
554.100	-16.699	0.100
554.200	-11.659	0.100
554.300	-11.463	0.100
554.400	-11.186	0.100
554.500	-15.884	0.100
554.600	-13.653	0.100
554.700	-16.273	0.100
554.800	-9.837	0.100
554.900	-16.944	0.100
555.000	-25.842	0.100
555.100	-18.983	0.100
555.200	-24.249	0.100
555.300	-20.117	0.100
555.400	-12.235	0.100
555.500	-10.403	0.100
555.600	-19.793	0.100
555.700	-19.249	0.100
555.800	-14.847	0.100
555.900	-15.950	0.100
556.000	-20.064	0.100
556.100	-12.768	0.100
556.200	-7.797	0.100
556.300	-18.517	0.100
556.400	-23.720	0.100
556.500	-18.640	0.100
556.600	-17.721	0.100
556.700	-13.097	0.100
556.800	-17.590	0.100
556.900	-20.140	0.100
557.000	-12.908	0.100
557.100	-14.716	0.100
557.200	-18.220	0.100
557.300	-22.610	0.100
557.400	-14.305	0.100
557.500	-24.007	0.100
557.600	-19.720	0.100
557.700	-25.357	0.100
557.800	-19.588	0.100
557.900	-14.023	0.100
558.000	-24.873	0.100
558.100	-26.552	0.100
558.200	-15.665	0.100
558.300	-20.749	0.100
558.400	-20.580	0.100
558.500	-19.855	0.100
558.600	-13.010	0.100
558.700	-19.882	0.100
558.800	-21.106	0.100
558.900	-13.943	0.100
559.000	-19.940	0.100
559.100	-21.298	0.100
559.200	-14.523	0.100
559.300	-19.745	0.100
559.400	-22.613	0.100
559.500	-30.829	0.100
559.600	-26.159	0.100
559.700	-15.636	0.100
559.800	-23.668	0.100
559.900	-21.730	0.100
560.000	-12.215	0.100
560.100	-24.240	0.100
560.200	-22.785	0.100
560.300	-23.853	0.100
560.400	-18.814	0.100
560.500	-13.116	0.100
560.600	-21.771	0.100
560.700	-23.304	0.100
560.800	-17.717	0.100
560.900	-23.671	0.100
561.000	-17.165	0.100
561.100	-25.620	0.100
561.200	-26.421	0.100
561.300	-30.263	0.100
561.400	-14.316	0.100
561.500	-23.913	0.100
561.600	-19.817	0.100
561.700	-17.166	0.100
561.800	-24.796	0.100
561.900	-30.040	0.100
562.000	-21.266	0.100
562.100	-24.979	0.100
562.200	-20.428	0.100
562.300	-28.668	0.100
562.400	-20.471	0.100
562.500	-17.436	0.100
562.600	-27.432	0.100
562.700	-24.384	0.100
562.800	-17.984	0.100
562.900	-21.698	0.100
563.000	-31.493	0.100
563.100	-31.033	0.100
563.200	-23.248	0.100
563.300	-17.495	0.100
563.400	-23.284	0.100
563.500	-28.164	0.100
563.600	-22.789	0.100
563.700	-39.150	0.100
563.800	-18.181	0.100
563.900	-24.537	0.100
564.000	-26.225	0.100
564.100	-28.554	0.100
564.200	-20.974	0.100
564.300	-29.555	0.100
564.400	-36.689	0.100
564.500	-30.097	0.100
564.600	-35.242	0.100
564.700	-18.730	0.100
564.800	-21.031	0.100
564.900	-18.295	0.100
565.000	-31.550	0.100
565.100	-29.509	0.100
565.200	-24.737	0.100
565.300	-25.196	0.100
565.400	-35.542	0.100
565.500	-30.335	0.100
565.600	-34.545	0.100
565.700	-21.048	0.100
565.800	-22.223	0.100
565.900	-20.041	0.100
566.000	-25.768	0.100
566.100	-22.661	0.100
566.200	-18.929	0.100
566.300	-19.646	0.100
566.400	-24.347	0.100
566.500	-46.838	0.100
566.600	-31.980	0.100
566.700	-37.357	0.100
566.800	-34.709	0.100
566.900	-34.550	0.100
567.000	-28.649	0.100
567.100	-27.519	0.100
567.200	-31.661	0.100
567.300	-34.019	0.100
567.400	-26.502	0.100
567.500	-32.156	0.100
567.600	-31.401	0.100
567.700	-30.331	0.100
567.800	-37.960	0.100
567.900	-36.720	0.100
568.000	-30.838	0.100
568.100	-33.622	0.100
568.200	-23.935	0.100
568.300	-35.799	0.100
568.400	-25.714	0.100
568.500	-33.322	0.100
568.600	-36.039	0.100
568.700	-37.844	0.100
568.800	-34.982	0.100
568.900	-19.831	0.100
569.000	-29.856	0.100
569.100	-19.930	0.100
569.200	-35.306	0.100
569.300	-39.481	0.100
569.400	-33.480	0.100
569.500	-29.809	0.100
569.600	-42.072	0.100
569.700	-37.294	0.100
569.800	-40.363	0.100
569.900	-33.864	0.100
570.000	-35.601	0.100
570.100	-26.963	0.100
570.200	-29.145	0.100
570.300	-20.000	0.100
570.400	-36.814	0.100
570.500	-30.384	0.100
570.600	-29.641	0.100
570.700	-25.480	0.100
570.800	-26.615	0.100
570.900	-37.629	0.100
571.000	-29.465	0.100
571.100	-31.875	0.100
571.200	-38.886	0.100
571.300	-42.526	0.100
571.400	-34.623	0.100
571.500	-26.674	0.100
571.600	-28.683	0.100
571.700	-32.624	0.100
571.800	-39.884	0.100
571.900	-34.322	0.100
572.000	-29.731	0.100
572.100	-28.495	0.100
572.200	-36.812	0.100
572.300	-41.268	0.100
572.400	-29.672	0.100
572.500	-31.662	0.100
572.600	-31.530	0.100
572.700	-37.927	0.100
572.800	-37.659	0.100
572.900	-41.460	0.100
573.000	-41.560	0.100
573.100	-37.458	0.100
573.200	-40.163	0.100
573.300	-36.089	0.100
573.400	-38.184	0.100
573.500	-40.541	0.100
573.600	-39.149	0.100
573.700	-36.576	0.100
573.800	-39.300	0.100
573.900	-27.840	0.100
574.000	-24.881	0.100
574.100	-39.992	0.100
574.200	-37.574	0.100
574.300	-37.477	0.100
574.400	-38.951	0.100
574.500	-34.833	0.100
574.600	-34.659	0.100
574.700	-27.265	0.100
574.800	-42.590	0.100
574.900	-31.853	0.100
575.000	-41.709	0.100
575.100	-39.846	0.100
575.200	-40.815	0.100
575.300	-25.155	0.100
575.400	-29.692	0.100
575.500	-40.474	0.100
575.600	-37.956	0.100
575.700	-32.230	0.100
575.800	-31.723	0.100
575.900	-21.481	0.100
576.000	-42.072	0.100
576.100	-28.208	0.100
576.200	-37.627	0.100
576.300	-39.487	0.100
576.400	-34.431	0.100
576.500	-37.983	0.100
576.600	-39.635	0.100
576.700	-45.903	0.100
576.800	-45.046	0.100
576.900	-41.419	0.100
577.000	-43.086	0.100
577.100	-40.722	0.100
577.200	-33.682	0.100
577.300	-36.982	0.100
577.400	-48.258	0.100
577.500	-33.700	0.100
577.600	-39.159	0.100
577.700	-41.403	0.100
577.800	-38.633	0.100
577.900	-39.373	0.100
578.000	-43.463	0.100
578.100	-38.820	0.100
578.200	-38.524	0.100
578.300	-36.376	0.100
578.400	-47.739	0.100
578.500	-48.720	0.100
578.600	-42.283	0.100
578.700	-42.547	0.100
578.800	-45.720	0.100
578.900	-35.595	0.100
579.000	-39.815	0.100
579.100	-37.996	0.100
579.200	-45.282	0.100
579.300	-39.659	0.100
579.400	-44.017	0.100
579.500	-40.792	0.100
579.600	-30.129	0.100
579.700	-47.787	0.100
579.800	-29.924	0.100
579.900	-43.144	0.100
580.000	-42.483	0.100
580.100	-45.802	0.100
580.200	-30.710	0.100
580.300	-40.990	0.100
580.400	-43.845	0.100
580.500	-43.372	0.100
580.600	-35.198	0.100
580.700	-45.032	0.100
580.800	-39.655	0.100
580.900	-47.791	0.100
581.000	-36.859	0.100
581.100	-41.328	0.100
581.200	-35.228	0.100
581.300	-38.287	0.100
581.400	-39.250	0.100
581.500	-29.381	0.100
581.600	-34.596	0.100
581.700	-41.237	0.100
581.800	-49.991	0.100
581.900	-32.472	0.100
582.000	-42.187	0.100
582.100	-45.004	0.100
582.200	-36.917	0.100
582.300	-45.818	0.100
582.400	-45.941	0.100
582.500	-45.234	0.100
582.600	-31.260	0.100
582.700	-42.889	0.100
582.800	-42.810	0.100
582.900	-39.240	0.100
583.000	-34.781	0.100
583.100	-30.701	0.100
583.200	-37.698	0.100
583.300	-36.822	0.100
583.400	-36.049	0.100
583.500	-46.515	0.100
583.600	-45.516	0.100
583.700	-38.385	0.100
583.800	-30.705	0.100
583.900	-48.132	0.100
584.000	-32.531	0.100
584.100	-44.935	0.100
584.200	-34.978	0.100
584.300	-38.765	0.100
584.400	-31.235	0.100
584.500	-39.426	0.100
584.600	-38.781	0.100
584.700	-46.424	0.100
584.800	-43.567	0.100
584.900	-43.936	0.100
585.000	-48.809	0.100
585.100	-37.792	0.100
585.200	-33.518	0.100
585.300	-38.891	0.100
585.400	-34.718	0.100
585.500	-39.268	0.100
585.600	-37.473	0.100
585.700	-38.756	0.100
585.800	-38.608	0.100
585.900	-38.207	0.100
586.000	-45.078	0.100
586.100	-40.716	0.100
586.200	-37.207	0.100
586.300	-37.856	0.100
586.400	-38.475	0.100
586.500	-43.389	0.100
586.600	-46.158	0.100
586.700	-39.943	0.100
586.800	-34.950	0.100
586.900	-40.699	0.100
587.000	-28.748	0.100
587.100	-25.411	0.100
587.200	-34.380	0.100
587.300	-38.878	0.100
587.400	-31.615	0.100
587.500	-33.407	0.100
587.600	-37.166	0.100
587.700	-43.471	0.100
587.800	-40.984	0.100
587.900	-39.013	0.100
588.000	-44.552	0.100
588.100	-35.515	0.100
588.200	-34.852	0.100
588.300	-42.994	0.100
588.400	-39.042	0.100
588.500	-40.350	0.100
588.600	-37.422	0.100
588.700	-30.323	0.100
588.800	-44.455	0.100
588.900	-35.190	0.100
589.000	-43.457	0.100
589.100	-35.213	0.100
589.200	-40.282	0.100
589.300	-34.614	0.100
589.400	-28.633	0.100
589.500	-36.154	0.100
589.600	-44.072	0.100
589.700	-36.720	0.100
589.800	-36.052	0.100
589.900	-41.345	0.100
590.000	-46.794	0.100
590.100	-37.007	0.100
590.200	-39.194	0.100
590.300	-42.021	0.100
590.400	-36.460	0.100
590.500	-34.093	0.100
590.600	-38.015	0.100
590.700	-35.641	0.100
590.800	-31.697	0.100
590.900	-32.545	0.100
591.000	-49.254	0.100
591.100	-41.303	0.100
591.200	-45.851	0.100
591.300	-39.501	0.100
591.400	-39.455	0.100
591.500	-43.205	0.100
591.600	-43.394	0.100
591.700	-34.197	0.100
591.800	-34.991	0.100
591.900	-43.002	0.100
592.000	-41.911	0.100
592.100	-37.315	0.100
592.200	-34.561	0.100
592.300	-43.510	0.100
592.400	-43.827	0.100
592.500	-51.077	0.100
592.600	-53.675	0.100
592.700	-41.827	0.100
592.800	-41.788	0.100
592.900	-31.636	0.100
593.000	-33.625	0.100
593.100	-41.244	0.100
593.200	-40.675	0.100
593.300	-35.101	0.100
593.400	-34.917	0.100
593.500	-42.047	0.100
593.600	-46.193	0.100
593.700	-44.886	0.100
593.800	-46.933	0.100
593.900	-39.389	0.100
594.000	-28.193	0.100
594.100	-32.760	0.100
594.200	-37.293	0.100
594.300	-37.133	0.100
594.400	-36.848	0.100
594.500	-29.831	0.100
594.600	-39.200	0.100
594.700	-40.888	0.100
594.800	-55.000	0.100
594.900	-41.031	0.100
595.000	-37.687	0.100
595.100	-30.098	0.100
595.200	-43.846	0.100
595.300	-46.822	0.100
595.400	-36.725	0.100
595.500	-31.147	0.100
595.600	-30.279	0.100
595.700	-28.708	0.100
595.800	-41.145	0.100
595.900	-40.888	0.100
596.000	-36.366	0.100
596.100	-40.164	0.100
596.200	-39.693	0.100
596.300	-46.587	0.100
596.400	-40.895	0.100
596.500	-43.802	0.100
596.600	-38.340	0.100
596.700	-40.090	0.100
596.800	-45.828	0.100
596.900	-37.281	0.100
597.000	-26.190	0.100
597.100	-33.603	0.100
597.200	-31.677	0.100
597.300	-33.642	0.100
597.400	-35.870	0.100
597.500	-39.653	0.100
597.600	-46.160	0.100
597.700	-44.098	0.100
597.800	-46.795	0.100
597.900	-44.470	0.100
598.000	-52.011	0.100
598.100	-39.960	0.100
598.200	-30.679	0.100
598.300	-40.789	0.100
598.400	-40.311	0.100
598.500	-33.726	0.100
598.600	-30.010	0.100
598.700	-37.875	0.100
598.800	-41.313	0.100
598.900	-40.553	0.100
599.000	-39.785	0.100
599.100	-41.422	0.100
599.200	-43.762	0.100
599.300	-33.574	0.100
599.400	-44.931	0.100
599.500	-40.388	0.100
599.600	-35.535	0.100
599.700	-44.916	0.100
599.800	-35.047	0.100
599.900	-39.243	0.100
600.000	-44.338	0.100
600.100	-36.264	0.100
600.200	-34.189	0.100
600.300	-41.549	0.100
600.400	-38.177	0.100
600.500	-38.157	0.100
600.600	-39.142	0.100
600.700	-34.620	0.100
600.800	-26.334	0.100
600.900	-32.998	0.100
601.000	-40.006	0.100
601.100	-43.924	0.100
601.200	-35.834	0.100
601.300	-44.834	0.100
601.400	-45.373	0.100
601.500	-38.678	0.100
601.600	-42.072	0.100
601.700	-32.209	0.100
601.800	-26.909	0.100
601.900	-25.354	0.100
602.000	-32.819	0.100
602.100	-35.193	0.100
602.200	-38.853	0.100
602.300	-46.025	0.100
602.400	-37.599	0.100
602.500	-37.143	0.100
602.600	-40.865	0.100
602.700	-35.685	0.100
602.800	-40.324	0.100
602.900	-40.250	0.100
603.000	-33.423	0.100
603.100	-39.056	0.100
603.200	-38.016	0.100
603.300	-27.310	0.100
603.400	-37.985	0.100
603.500	-38.421	0.100
603.600	-54.526	0.100
603.700	-44.521	0.100
603.800	-34.094	0.100
603.900	-41.942	0.100
604.000	-41.251	0.100
604.100	-48.717	0.100
604.200	-35.630	0.100
604.300	-39.057	0.100
604.400	-38.537	0.100
604.500	-32.679	0.100
604.600	-34.500	0.100
604.700	-37.874	0.100
604.800	-26.531	0.100
604.900	-36.089	0.100
605.000	-44.502	0.100
605.100	-38.688	0.100
605.200	-46.341	0.100
605.300	-28.955	0.100
605.400	-33.188	0.100
605.500	-33.585	0.100
605.600	-38.877	0.100
605.700	-40.812	0.100
605.800	-35.623	0.100
605.900	-34.777	0.100
606.000	-38.137	0.100
606.100	-31.983	0.100
606.200	-37.295	0.100
606.300	-23.598	0.100
606.400	-44.656	0.100
606.500	-40.088	0.100
606.600	-34.609	0.100
606.700	-37.563	0.100
606.800	-31.498	0.100
606.900	-42.220	0.100
607.000	-42.616	0.100
607.100	-37.108	0.100
607.200	-40.668	0.100
607.300	-36.724	0.100
607.400	-36.021	0.100
607.500	-32.374	0.100
607.600	-30.142	0.100
607.700	-32.069	0.100
607.800	-25.757	0.100
607.900	-31.192	0.100
608.000	-37.395	0.100
608.100	-31.335	0.100
608.200	-36.818	0.100
608.300	-37.706	0.100
608.400	-34.223	0.100
608.500	-45.101	0.100
608.600	-41.086	0.100
608.700	-38.170	0.100
608.800	-35.742	0.100
608.900	-37.628	0.100
609.000	-37.153	0.100
609.100	-35.021	0.100
609.200	-32.288	0.100
609.300	-29.246	0.100
609.400	-29.194	0.100
609.500	-40.566	0.100
609.600	-44.652	0.100
609.700	-37.420	0.100
609.800	-34.236	0.100
609.900	-33.890	0.100
610.000	-35.681	0.100
610.100	-23.451	0.100
610.200	-45.020	0.100
610.300	-35.693	0.100
610.400	-38.766	0.100
610.500	-45.704	0.100
610.600	-30.272	0.100
610.700	-41.779	0.100
610.800	-34.431	0.100
610.900	-36.404	0.100
611.000	-28.952	0.100
611.100	-42.796	0.100
611.200	-35.926	0.100
611.300	-40.959	0.100
611.400	-42.072	0.100
611.500	-33.850	0.100
611.600	-28.413	0.100
611.700	-29.813	0.100
611.800	-34.791	0.100
611.900	-45.297	0.100
612.000	-42.280	0.100
612.100	-40.583	0.100
612.200	-34.748	0.100
612.300	-32.469	0.100
612.400	-41.688	0.100
612.500	-31.970	0.100
612.600	-31.067	0.100
612.700	-31.788	0.100
612.800	-26.603	0.100
612.900	-29.961	0.100
613.000	-47.085	0.100
613.100	-30.118	0.100
613.200	-31.834	0.100
613.300	-41.687	0.100
613.400	-38.854	0.100
613.500	-32.153	0.100
613.600	-31.228	0.100
613.700	-28.575	0.100
613.800	-42.584	0.100
613.900	-37.416	0.100
614.000	-34.769	0.100
614.100	-30.823	0.100
614.200	-33.241	0.100
614.300	-31.257	0.100
614.400	-37.234	0.100
614.500	-42.479	0.100
614.600	-36.333	0.100
614.700	-38.660	0.100
614.800	-42.513	0.100
614.900	-37.435	0.100
615.000	-38.109	0.100
615.100	-31.538	0.100
615.200	-37.408	0.100
615.300	-35.046	0.100
615.400	-39.497	0.100
615.500	-28.220	0.100
615.600	-29.703	0.100
615.700	-33.016	0.100
615.800	-32.881	0.100
615.900	-35.855	0.100
616.000	-33.581	0.100
616.100	-41.655	0.100
616.200	-36.254	0.100
616.300	-29.648	0.100
616.400	-36.626	0.100
616.500	-39.051	0.100
616.600	-34.100	0.100
616.700	-31.143	0.100
616.800	-38.400	0.100
616.900	-37.025	0.100
617.000	-41.822	0.100
617.100	-33.604	0.100
617.200	-38.609	0.100
617.300	-30.826	0.100
617.400	-29.582	0.100
617.500	-35.466	0.100
617.600	-44.418	0.100
617.700	-38.815	0.100
617.800	-38.280	0.100
617.900	-35.412	0.100
618.000	-27.910	0.100
618.100	-45.436	0.100
618.200	-34.619	0.100
618.300	-35.665	0.100
618.400	-39.981	0.100
618.500	-39.983	0.100
618.600	-25.566	0.100
618.700	-34.515	0.100
618.800	-32.832	0.100
618.900	-37.941	0.100
619.000	-32.927	0.100
619.100	-35.019	0.100
619.200	-31.216	0.100
619.300	-29.912	0.100
619.400	-36.215	0.100
619.500	-34.435	0.100
619.600	-46.496	0.100
619.700	-39.565	0.100
619.800	-32.227	0.100
619.900	-34.277	0.100
620.000	-27.106	0.100
620.100	-20.765	0.100
620.200	-34.174	0.100
620.300	-39.211	0.100
620.400	-41.358	0.100
620.500	-29.978	0.100
620.600	-32.690	0.100
620.700	-32.602	0.100
620.800	-35.772	0.100
620.900	-32.735	0.100
621.000	-33.881	0.100
621.100	-31.804	0.100
621.200	-28.915	0.100
621.300	-44.414	0.100
621.400	-37.791	0.100
621.500	-45.248	0.100
621.600	-46.058	0.100
621.700	-34.454	0.100
621.800	-31.567	0.100
621.900	-27.346	0.100
622.000	-30.998	0.100
622.100	-31.609	0.100
622.200	-36.733	0.100
622.300	-33.043	0.100
622.400	-33.662	0.100
622.500	-24.471	0.100
622.600	-36.944	0.100
622.700	-36.329	0.100
622.800	-42.761	0.100
622.900	-38.052	0.100
623.000	-36.614	0.100
623.100	-28.942	0.100
623.200	-33.517	0.100
623.300	-32.167	0.100
623.400	-29.394	0.100
623.500	-34.950	0.100
623.600	-32.006	0.100
623.700	-30.373	0.100
623.800	-28.069	0.100
623.900	-34.223	0.100
624.000	-37.936	0.100
624.100	-43.269	0.100
624.200	-28.075	0.100
624.300	-16.870	0.100
624.400	-38.129	0.100
624.500	-35.388	0.100
624.600	-34.509	0.100
624.700	-27.367	0.100
624.800	-34.034	0.100
624.900	-29.836	0.100
625.000	-36.358	0.100
625.100	-27.848	0.100
625.200	-36.723	0.100
625.300	-30.227	0.100
625.400	-28.994	0.100
625.500	-35.470	0.100
625.600	-24.447	0.100
625.700	-37.302	0.100
625.800	-30.285	0.100
625.900	-23.376	0.100
626.000	-26.521	0.100
626.100	-37.850	0.100
626.200	-21.166	0.100
626.300	-32.657	0.100
626.400	-41.204	0.100
626.500	-34.166	0.100
626.600	-36.247	0.100
626.700	-26.912	0.100
626.800	-35.126	0.100
626.900	-26.502	0.100
627.000	-28.729	0.100
627.100	-37.267	0.100
627.200	-29.663	0.100
627.300	-37.754	0.100
627.400	-30.868	0.100
627.500	-31.044	0.100
627.600	-33.817	0.100
627.700	-31.536	0.100
627.800	-45.673	0.100
627.900	-24.339	0.100
628.000	-28.427	0.100
628.100	-35.674	0.100
628.200	-30.196	0.100
628.300	-29.263	0.100
628.400	-21.664	0.100
628.500	-32.229	0.100
628.600	-26.726	0.100
628.700	-32.953	0.100
628.800	-36.317	0.100
628.900	-32.411	0.100
629.000	-30.732	0.100
629.100	-29.284	0.100
629.200	-31.872	0.100
629.300	-36.938	0.100
629.400	-26.709	0.100
629.500	-28.862	0.100
629.600	-28.946	0.100
629.700	-34.027	0.100
629.800	-13.939	0.100
629.900	-24.548	0.100
630.000	-28.057	0.100
630.100	-26.886	0.100
630.200	-32.594	0.100
630.300	-25.772	0.100
630.400	-21.020	0.100
630.500	-19.711	0.100
630.600	-18.747	0.100
630.700	-14.468	0.100
630.800	-14.449	0.100
630.900	-22.952	0.100
631.000	-4.122	0.100
631.100	-5.881	0.100
631.200	-1.305	0.100
631.300	-6.785	0.100
631.400	-0.216	0.100
631.500	-5.225	0.100
631.600	0.091	0.100
631.700	5.277	0.100
631.800	-2.477	0.100
631.900	7.600	0.100
632.000	-2.191	0.100
632.100	8.538	0.100
632.200	6.503	0.100
632.300	11.818	0.100
632.400	-0.503	0.100
632.500	9.647	0.100
632.600	4.488	0.100
632.700	5.471	0.100
632.800	7.449	0.100
632.900	12.207	0.100
633.000	8.430	0.100
633.100	2.273	0.100
633.200	14.096	0.100
633.300	1.245	0.100
633.400	4.842	0.100
633.500	13.922	0.100
633.600	14.300	0.100
633.700	-4.066	0.100
633.800	7.587	0.100
633.900	5.529	0.100
634.000	-8.989	0.100
634.100	3.581	0.100
634.200	9.296	0.100
634.300	2.852	0.100
634.400	-0.334	0.100
634.500	9.803	0.100
634.600	1.342	0.100
634.700	5.669	0.100
634.800	1.712	0.100
634.900	4.458	0.100
635.000	5.595	0.100
635.100	10.811	0.100
635.200	9.404	0.100
635.300	8.669	0.100
635.400	10.903	0.100
635.500	15.462	0.100
635.600	4.140	0.100
635.700	7.571	0.100
635.800	2.050	0.100
635.900	6.248	0.100
636.000	-2.358	0.100
636.100	4.196	0.100
636.200	8.312	0.100
636.300	1.185	0.100
636.400	6.053	0.100
636.500	4.093	0.100
636.600	6.723	0.100
636.700	0.381	0.100
636.800	10.896	0.100
636.900	0.291	0.100
637.000	-1.646	0.100
637.100	13.588	0.100
637.200	13.662	0.100
637.300	0.627	0.100
637.400	15.068	0.100
637.500	1.476	0.100
637.600	-1.218	0.100
637.700	-4.274	0.100
637.800	-1.060	0.100
637.900	6.472	0.100
638.000	7.453	0.100
638.100	8.989	0.100
638.200	8.462	0.100
638.300	12.063	0.100
638.400	1.075	0.100
638.500	5.222	0.100
638.600	15.432	0.100
638.700	5.444	0.100
638.800	5.768	0.100
638.900	9.922	0.100
639.000	1.303	0.100
639.100	7.247	0.100
639.200	16.720	0.100
639.300	16.024	0.100
639.400	5.079	0.100
639.500	8.036	0.100
639.600	4.600	0.100
639.700	16.946	0.100
639.800	15.040	0.100
639.900	7.134	0.100
640.000	11.206	0.100
640.100	13.640	0.100
640.200	15.531	0.100
640.300	8.889	0.100
640.400	11.562	0.100
640.500	6.995	0.100
640.600	10.225	0.100
640.700	2.982	0.100
640.800	4.409	0.100
640.900	17.542	0.100
641.000	14.753	0.100
641.100	15.633	0.100
641.200	14.201	0.100
641.300	18.793	0.100
641.400	21.732	0.100
641.500	17.982	0.100
641.600	7.042	0.100
641.700	17.362	0.100
641.800	6.955	0.100
641.900	4.125	0.100
642.000	25.003	0.100
642.100	19.239	0.100
642.200	6.338	0.100
642.300	8.778	0.100
642.400	5.553	0.100
642.500	19.582	0.100
642.600	15.648	0.100
642.700	15.339	0.100
642.800	21.180	0.100
642.900	14.816	0.100
643.000	17.886	0.100
643.100	17.510	0.100
643.200	9.962	0.100
643.300	13.581	0.100
643.400	12.211	0.100
643.500	12.972	0.100
643.600	21.601	0.100
643.700	20.592	0.100
643.800	17.718	0.100
643.900	19.234	0.100
644.000	23.299	0.100
644.100	17.581	0.100
644.200	26.787	0.100
644.300	19.592	0.100
644.400	16.698	0.100
644.500	16.150	0.100
644.600	27.856	0.100
644.700	12.139	0.100
644.800	19.236	0.100
644.900	25.534	0.100
645.000	20.383	0.100
645.100	8.837	0.100
645.200	16.112	0.100
645.300	20.726	0.100
645.400	20.103	0.100
645.500	20.906	0.100
645.600	28.122	0.100
645.700	26.838	0.100
645.800	25.535	0.100
645.900	22.795	0.100
646.000	23.042	0.100
646.100	28.474	0.100
646.200	22.342	0.100
646.300	28.139	0.100
646.400	29.418	0.100
646.500	29.753	0.100
646.600	34.646	0.100
646.700	26.103	0.100
646.800	22.434	0.100
646.900	29.421	0.100
647.000	33.727	0.100
647.100	28.702	0.100
647.200	27.403	0.100
647.300	30.056	0.100
647.400	26.622	0.100
647.500	29.282	0.100
647.600	25.765	0.100
647.700	32.697	0.100
647.800	33.676	0.100
647.900	29.392	0.100
648.000	34.680	0.100
648.100	38.342	0.100
648.200	37.809	0.100
648.300	34.254	0.100
648.400	31.693	0.100
648.500	30.619	0.100
648.600	32.436	0.100
648.700	30.620	0.100
648.800	36.000	0.100
648.900	30.909	0.100
649.000	34.425	0.100
649.100	41.641	0.100
649.200	39.740	0.100
649.300	35.289	0.100
649.400	44.670	0.100
649.500	37.110	0.100
649.600	38.226	0.100
649.700	38.997	0.100
649.800	43.813	0.100
649.900	43.513	0.100
650.000	40.083	0.100
650.100	47.400	0.100
650.200	40.849	0.100
650.300	41.251	0.100
650.400	47.466	0.100
650.500	48.870	0.100
650.600	49.117	0.100
650.700	36.320	0.100
650.800	34.822	0.100
650.900	47.651	0.100
651.000	52.937	0.100
651.100	49.367	0.100
651.200	40.999	0.100
651.300	49.780	0.100
651.400	40.875	0.100
651.500	52.377	0.100
651.600	41.546	0.100
651.700	57.556	0.100
651.800	50.226	0.100
651.900	54.958	0.100
652.000	50.763	0.100
652.100	57.221	0.100
652.200	60.544	0.100
652.300	42.192	0.100
652.400	50.942	0.100
652.500	54.667	0.100
652.600	52.668	0.100
652.700	47.712	0.100
652.800	52.857	0.100
652.900	50.268	0.100
653.000	49.280	0.100
653.100	42.023	0.100
653.200	52.502	0.100
653.300	51.054	0.100
653.400	55.203	0.100
653.500	53.833	0.100
653.600	44.955	0.100
653.700	51.816	0.100
653.800	51.524	0.100
653.900	48.309	0.100
654.000	61.134	0.100
654.100	49.789	0.100
654.200	45.721	0.100
654.300	49.991	0.100
654.400	55.155	0.100
654.500	49.939	0.100
654.600	59.436	0.100
654.700	55.140	0.100
654.800	53.945	0.100
654.900	57.773	0.100
655.000	54.869	0.100
655.100	48.373	0.100
655.200	53.597	0.100
655.300	48.711	0.100
655.400	56.920	0.100
655.500	55.198	0.100
655.600	51.318	0.100
655.700	56.067	0.100
655.800	64.200	0.100
655.900	46.339	0.100
656.000	57.704	0.100
656.100	48.594	0.100
656.200	54.048	0.100
656.300	55.388	0.100
656.400	57.485	0.100
656.500	58.403	0.100
656.600	60.159	0.100
656.700	64.178	0.100
656.800	56.667	0.100
656.900	57.940	0.100
657.000	43.598	0.100
657.100	41.581	0.100
657.200	53.823	0.100
657.300	65.836	0.100
657.400	63.852	0.100
657.500	59.110	0.100
657.600	63.606	0.100
657.700	46.108	0.100
657.800	58.176	0.100
657.900	57.862	0.100
658.000	56.222	0.100
658.100	55.986	0.100
658.200	57.248	0.100
658.300	49.103	0.100
658.400	58.642	0.100
658.500	50.483	0.100
658.600	55.374	0.100
658.700	58.438	0.100
658.800	61.066	0.100
658.900	58.612	0.100
659.000	57.745	0.100
659.100	55.647	0.100
659.200	58.652	0.100
659.300	50.831	0.100
659.400	60.045	0.100
659.500	56.763	0.100
659.600	59.515	0.100
659.700	53.371	0.100
659.800	54.464	0.100
659.900	53.139	0.100
660.000	54.615	0.100
660.100	50.642	0.100
660.200	54.077	0.100
660.300	55.493	0.100
660.400	58.106	0.100
660.500	64.350	0.100
660.600	58.285	0.100
660.700	65.397	0.100
660.800	55.439	0.100
660.900	48.371	0.100
661.000	49.391	0.100
661.100	57.003	0.100
661.200	57.615	0.100
661.300	61.164	0.100
661.400	60.636	0.100
661.500	65.202	0.100
661.600	63.865	0.100
661.700	50.428	0.100
661.800	54.248	0.100
661.900	54.347	0.100
662.000	54.705	0.100
662.100	62.921	0.100
662.200	51.459	0.100
662.300	58.166	0.100
662.400	54.318	0.100
662.500	53.872	0.100
662.600	55.652	0.100
662.700	64.551	0.100
662.800	58.907	0.100
662.900	60.499	0.100
663.000	57.161	0.100
663.100	55.792	0.100
663.200	62.884	0.100
663.300	68.630	0.100
663.400	62.330	0.100
663.500	60.703	0.100
663.600	54.915	0.100
663.700	45.344	0.100
663.800	54.720	0.100
663.900	52.628	0.100
664.000	53.114	0.100
664.100	55.926	0.100
664.200	63.178	0.100
664.300	50.718	0.100
664.400	52.079	0.100
664.500	56.362	0.100
664.600	58.362	0.100
664.700	57.858	0.100
664.800	54.798	0.100
664.900	45.524	0.100
665.000	46.371	0.100
665.100	54.216	0.100
665.200	63.417	0.100
665.300	56.486	0.100
665.400	56.315	0.100
665.500	54.408	0.100
665.600	57.749	0.100
665.700	53.856	0.100
665.800	46.359	0.100
665.900	52.535	0.100
666.000	57.482	0.100
666.100	62.625	0.100
666.200	52.977	0.100
666.300	57.487	0.100
666.400	52.187	0.100
666.500	52.244	0.100
666.600	68.372	0.100
666.700	60.730	0.100
666.800	59.174	0.100
666.900	57.794	0.100
667.000	53.332	0.100
667.100	49.642	0.100
667.200	54.017	0.100
667.300	59.008	0.100
667.400	53.526	0.100
667.500	61.176	0.100
667.600	58.854	0.100
667.700	67.064	0.100
667.800	55.260	0.100
667.900	58.767	0.100
668.000	51.519	0.100
668.100	48.432	0.100
668.200	47.689	0.100
668.300	57.707	0.100
668.400	52.641	0.100
668.500	55.169	0.100
668.600	47.275	0.100
668.700	51.113	0.100
668.800	59.597	0.100
668.900	57.060	0.100
669.000	54.286	0.100
669.100	53.648	0.100
669.200	60.385	0.100
669.300	54.367	0.100
669.400	58.183	0.100
669.500	52.436	0.100
669.600	44.280	0.100
669.700	54.120	0.100
669.800	59.324	0.100
669.900	46.753	0.100
670.000	57.202	0.100
670.100	59.009	0.100
670.200	52.851	0.100
670.300	55.256	0.100
670.400	53.109	0.100
670.500	55.703	0.100
670.600	52.009	0.100
670.700	46.123	0.100
670.800	49.078	0.100
670.900	53.300	0.100
671.000	60.265	0.100
671.100	54.637	0.100
671.200	60.487	0.100
671.300	50.125	0.100
671.400	45.282	0.100
671.500	54.682	0.100
671.600	58.125	0.100
671.700	55.444	0.100
671.800	57.137	0.100
671.900	48.730	0.100
672.000	46.745	0.100
672.100	49.047	0.100
672.200	54.182	0.100
672.300	67.605	0.100
672.400	59.077	0.100
672.500	57.364	0.100
672.600	57.266	0.100
672.700	50.203	0.100
672.800	61.654	0.100
672.900	46.130	0.100
673.000	62.436	0.100
673.100	53.358	0.100
673.200	56.666	0.100
673.300	52.684	0.100
673.400	60.306	0.100
673.500	56.599	0.100
673.600	50.533	0.100
673.700	54.226	0.100
673.800	52.947	0.100
673.900	61.538	0.100
674.000	55.150	0.100
674.100	57.224	0.100
674.200	54.210	0.100
674.300	53.527	0.100
674.400	53.606	0.100
674.500	46.944	0.100
674.600	54.650	0.100
674.700	56.956	0.100
674.800	53.780	0.100
674.900	57.966	0.100
675.000	52.931	0.100
675.100	55.646	0.100
675.200	51.512	0.100
675.300	59.449	0.100
675.400	50.650	0.100
675.500	61.094	0.100
675.600	49.966	0.100
675.700	53.890	0.100
675.800	52.215	0.100
675.900	56.818	0.100
676.000	57.557	0.100
676.100	51.459	0.100
676.200	52.924	0.100
676.300	59.048	0.100
676.400	66.698	0.100
676.500	57.483	0.100
676.600	60.091	0.100
676.700	55.850	0.100
676.800	53.119	0.100
676.900	49.615	0.100
677.000	55.910	0.100
677.100	51.682	0.100
677.200	48.468	0.100
677.300	54.235	0.100
677.400	52.777	0.100
677.500	53.721	0.100
677.600	56.132	0.100
677.700	56.627	0.100
677.800	52.992	0.100
677.900	58.175	0.100
678.000	41.797	0.100
678.100	47.742	0.100
678.200	56.881	0.100
678.300	55.536	0.100
678.400	57.817	0.100
678.500	49.999	0.100
678.600	49.671	0.100
678.700	65.778	0.100
678.800	58.231	0.100
678.900	73.889	0.100
679.000	57.957	0.100
679.100	54.487	0.100
679.200	54.301	0.100
679.300	56.584	0.100
679.400	54.028	0.100
679.500	58.438	0.100
679.600	50.137	0.100
679.700	54.701	0.100
679.800	52.474	0.100
679.900	55.057	0.100
680.000	55.435	0.100
680.100	59.376	0.100
680.200	62.550	0.100
680.300	71.103	0.100
680.400	47.842	0.100
680.500	56.334	0.100
680.600	60.720	0.100
680.700	48.613	0.100
680.800	55.867	0.100
680.900	54.671	0.100
681.000	48.960	0.100
681.100	44.153	0.100
681.200	45.193	0.100
681.300	62.300	0.100
681.400	57.002	0.100
681.500	56.853	0.100
681.600	45.672	0.100
681.700	53.505	0.100
681.800	50.321	0.100
681.900	50.873	0.100
682.000	56.863	0.100
682.100	54.793	0.100
682.200	44.964	0.100
682.300	54.845	0.100
682.400	55.307	0.100
682.500	52.251	0.100
682.600	62.239	0.100
682.700	54.651	0.100
682.800	43.911	0.100
682.900	54.323	0.100
683.000	61.558	0.100
683.100	59.934	0.100
683.200	56.967	0.100
683.300	46.905	0.100
683.400	54.752	0.100
683.500	59.322	0.100
683.600	48.998	0.100
683.700	45.446	0.100
683.800	59.184	0.100
683.900	50.241	0.100
684.000	54.273	0.100
684.100	54.691	0.100
684.200	50.680	0.100
684.300	55.320	0.100
684.400	54.379	0.100
684.500	50.876	0.100
684.600	47.303	0.100
684.700	44.482	0.100
684.800	44.672	0.100
684.900	51.039	0.100
685.000	54.077	0.100
685.100	59.214	0.100
685.200	58.209	0.100
685.300	52.265	0.100
685.400	55.247	0.100
685.500	60.825	0.100
685.600	57.138	0.100
685.700	48.795	0.100
685.800	46.297	0.100
685.900	58.118	0.100
686.000	35.576	0.100
686.100	60.958	0.100
686.200	59.532	0.100
686.300	47.088	0.100
686.400	53.435	0.100
686.500	54.878	0.100
686.600	53.281	0.100
686.700	52.649	0.100
686.800	54.166	0.100
686.900	68.582	0.100
687.000	54.402	0.100
687.100	51.361	0.100
687.200	55.268	0.100
687.300	51.550	0.100
687.400	55.314	0.100
687.500	59.831	0.100
687.600	57.511	0.100
687.700	54.876	0.100
687.800	42.698	0.100
687.900	53.692	0.100
688.000	54.542	0.100
688.100	39.593	0.100
688.200	56.490	0.100
688.300	57.432	0.100
688.400	43.588	0.100
688.500	60.370	0.100
688.600	58.452	0.100
688.700	53.937	0.100
688.800	50.665	0.100
688.900	48.258	0.100
689.000	51.772	0.100
689.100	63.788	0.100
689.200	52.316	0.100
689.300	49.736	0.100
689.400	59.769	0.100
689.500	55.962	0.100
689.600	49.298	0.100
689.700	58.981	0.100
689.800	51.830	0.100
689.900	45.185	0.100
690.000	54.058	0.100
690.100	59.927	0.100
690.200	53.323	0.100
690.300	48.537	0.100
690.400	48.404	0.100
690.500	42.532	0.100
690.600	36.688	0.100
690.700	43.607	0.100
690.800	30.969	0.100
690.900	33.265	0.100
691.000	19.979	0.100
691.100	27.141	0.100
691.200	25.554	0.100
691.300	22.761	0.100
691.400	25.713	0.100
691.500	30.946	0.100
691.600	14.510	0.100
691.700	5.549	0.100
691.800	19.075	0.100
691.900	14.526	0.100
692.000	14.334	0.100
692.100	1.216	0.100
692.200	-0.419	0.100
692.300	6.749	0.100
692.400	1.389	0.100
692.500	0.752	0.100
692.600	-2.155	0.100
692.700	2.180	0.100
692.800	10.843	0.100
692.900	2.158	0.100
693.000	-2.299	0.100
693.100	-5.228	0.100
693.200	0.599	0.100
693.300	-0.972	0.100
693.400	-2.126	0.100
693.500	0.910	0.100
693.600	-0.647	0.100
693.700	-6.966	0.100
693.800	-11.337	0.100
693.900	-2.752	0.100
694.000	-3.326	0.100
694.100	-6.808	0.100
694.200	-8.440	0.100
694.300	-7.557	0.100
694.400	-2.121	0.100
694.500	-1.668	0.100
694.600	-2.620	0.100
694.700	-5.096	0.100
694.800	-1.332	0.100
694.900	-8.848	0.100
695.000	-15.332	0.100
695.100	-10.139	0.100
695.200	-7.775	0.100
695.300	0.392	0.100
695.400	-10.677	0.100
695.500	-0.137	0.100
695.600	-7.770	0.100
695.700	-16.131	0.100
695.800	-5.314	0.100
695.900	-9.507	0.100
696.000	-9.627	0.100
696.100	-10.151	0.100
696.200	-15.253	0.100
696.300	-10.719	0.100
696.400	-5.945	0.100
696.500	-10.621	0.100
696.600	-4.046	0.100
696.700	-6.018	0.100
696.800	-1.159	0.100
696.900	-7.813	0.100
697.000	-13.388	0.100
697.100	-7.581	0.100
697.200	-5.337	0.100
697.300	-9.788	0.100
697.400	-7.217	0.100
697.500	-5.725	0.100
697.600	-7.948	0.100
697.700	-10.069	0.100
697.800	-16.263	0.100
697.900	-10.739	0.100
698.000	-12.838	0.100
698.100	-4.721	0.100
698.200	-12.529	0.100
698.300	-9.618	0.100
698.400	-18.746	0.100
698.500	-8.178	0.100
698.600	-6.698	0.100
698.700	-15.345	0.100
698.800	-7.687	0.100
698.900	-6.605	0.100
699.000	-15.933	0.100
699.100	-8.739	0.100
699.200	-16.927	0.100
699.300	-12.017	0.100
699.400	-10.959	0.100
699.500	-6.890	0.100
699.600	-8.850	0.100
699.700	-18.326	0.100
699.800	-14.412	0.100
699.900	-14.432	0.100
700.000	-15.382	0.100
700.100	-9.466	0.100
700.200	-14.748	0.100
700.300	-11.666	0.100
700.400	-23.414	0.100
700.500	-13.055	0.100
700.600	-8.946	0.100
700.700	-8.672	0.100
700.800	-8.103	0.100
700.900	-23.075	0.100
701.000	-15.675	0.100
701.100	-11.821	0.100
701.200	-10.599	0.100
701.300	-3.524	0.100
701.400	-18.038	0.100
701.500	-20.640	0.100
701.600	-12.036	0.100
701.700	-10.646	0.100
701.800	-14.230	0.100
701.900	-11.588	0.100
702.000	-7.620	0.100
702.100	-11.778	0.100
702.200	-14.861	0.100
702.300	-14.601	0.100
702.400	-11.976	0.100
702.500	-16.893	0.100
702.600	-13.689	0.100
702.700	-18.559	0.100
702.800	-21.781	0.100
702.900	-18.130	0.100
703.000	-15.329	0.100
703.100	-14.304	0.100
703.200	-5.824	0.100
703.300	-16.245	0.100
703.400	-18.195	0.100
703.500	-8.846	0.100
703.600	-21.235	0.100
703.700	-19.793	0.100
703.800	-15.291	0.100
703.900	-12.804	0.100
704.000	-28.017	0.100
704.100	-21.649	0.100
704.200	-18.637	0.100
704.300	-18.421	0.100
704.400	-14.810	0.100
704.500	-13.271	0.100
704.600	-19.800	0.100
704.700	-15.857	0.100
704.800	-18.519	0.100
704.900	-25.683	0.100
705.000	-23.785	0.100
705.100	-17.875	0.100
705.200	-13.540	0.100
705.300	-19.083	0.100
705.400	-11.563	0.100
705.500	-15.807	0.100
705.600	-18.004	0.100
705.700	-22.265	0.100
705.800	-20.708	0.100
705.900	-17.651	0.100
706.000	-20.985	0.100
706.100	-26.777	0.100
706.200	-18.295	0.100
706.300	-15.970	0.100
706.400	-11.447	0.100
706.500	-25.777	0.100
706.600	-18.175	0.100
706.700	-13.301	0.100
706.800	-21.622	0.100
706.900	-24.844	0.100
707.000	-20.293	0.100
707.100	-17.879	0.100
707.200	-18.327	0.100
707.300	-23.140	0.100
707.400	-27.241	0.100
707.500	-25.089	0.100
707.600	-30.433	0.100
707.700	-18.100	0.100
707.800	-27.359	0.100
707.900	-20.786	0.100
708.000	-13.021	0.100
708.100	-14.586	0.100
708.200	-15.661	0.100
708.300	-16.513	0.100
708.400	-28.459	0.100
708.500	-22.237	0.100
708.600	-21.936	0.100
708.700	-16.321	0.100
708.800	-25.030	0.100
708.900	-23.489	0.100
709.000	-28.273	0.100
709.100	-27.569	0.100
709.200	-17.215	0.100
709.300	-20.122	0.100
709.400	-31.229	0.100
709.500	-23.705	0.100
709.600	-28.573	0.100
709.700	-23.278	0.100
709.800	-24.152	0.100
709.900	-16.056	0.100
710.000	-29.299	0.100
710.100	-29.902	0.100
710.200	-29.774	0.100
710.300	-19.953	0.100
710.400	-25.687	0.100
710.500	-23.204	0.100
710.600	-28.869	0.100
710.700	-25.609	0.100
710.800	-21.441	0.100
710.900	-28.555	0.100
711.000	-27.520	0.100
711.100	-22.289	0.100
711.200	-23.616	0.100
711.300	-18.126	0.100
711.400	-21.568	0.100
711.500	-31.902	0.100
711.600	-21.325	0.100
711.700	-20.582	0.100
711.800	-18.353	0.100
711.900	-17.349	0.100
712.000	-24.761	0.100
712.100	-15.866	0.100
712.200	-28.040	0.100
712.300	-19.166	0.100
712.400	-30.539	0.100
712.500	-28.184	0.100
712.600	-28.726	0.100
712.700	-31.798	0.100
712.800	-26.700	0.100
712.900	-27.816	0.100
713.000	-31.242	0.100
713.100	-22.890	0.100
713.200	-25.583	0.100
713.300	-19.552	0.100
713.400	-26.995	0.100
713.500	-24.110	0.100
713.600	-34.115	0.100
713.700	-25.560	0.100
713.800	-28.209	0.100
713.900	-20.137	0.100
714.000	-35.000	0.100
714.100	-33.735	0.100
714.200	-26.349	0.100
714.300	-29.803	0.100
714.400	-30.418	0.100
714.500	-22.101	0.100
714.600	-28.000	0.100
714.700	-37.098	0.100
714.800	-29.061	0.100
714.900	-18.601	0.100
715.000	-26.500	0.100
715.100	-35.746	0.100
715.200	-36.217	0.100
715.300	-28.335	0.100
715.400	-30.955	0.100
715.500	-32.600	0.100
715.600	-40.533	0.100
715.700	-36.377	0.100
715.800	-32.542	0.100
715.900	-33.367	0.100
716.000	-35.383	0.100
716.100	-26.790	0.100
716.200	-17.561	0.100
716.300	-23.379	0.100
716.400	-32.257	0.100
716.500	-41.119	0.100
716.600	-25.462	0.100
716.700	-32.682	0.100
716.800	-32.468	0.100
716.900	-35.686	0.100
717.000	-33.393	0.100
717.100	-36.145	0.100
717.200	-37.460	0.100
717.300	-30.455	0.100
717.400	-28.516	0.100
717.500	-28.640	0.100
717.600	-28.336	0.100
717.700	-26.593	0.100
717.800	-33.085	0.100
717.900	-36.429	0.100
718.000	-30.821	0.100
718.100	-26.721	0.100
718.200	-36.723	0.100
718.300	-30.605	0.100
718.400	-43.229	0.100
718.500	-28.062	0.100
718.600	-31.192	0.100
718.700	-39.378	0.100
718.800	-34.379	0.100
718.900	-30.311	0.100
719.000	-35.757	0.100
719.100	-33.678	0.100
719.200	-39.370	0.100
719.300	-24.383	0.100
719.400	-31.855	0.100
719.500	-35.071	0.100
719.600	-37.197	0.100
719.700	-33.087	0.100
719.800	-40.784	0.100
719.900	-33.121	0.100
720.000	-47.348	0.100
720.100	-36.141	0.100
720.200	-36.508	0.100
720.300	-39.582	0.100
720.400	-39.054	0.100
720.500	-34.506	0.100
720.600	-38.854	0.100
720.700	-29.128	0.100
720.800	-37.674	0.100
720.900	-33.336	0.100
721.000	-35.284	0.100
721.100	-34.126	0.100
721.200	-35.330	0.100
721.300	-43.555	0.100
721.400	-35.486	0.100
721.500	-25.720	0.100
721.600	-28.041	0.100
721.700	-23.169	0.100
721.800	-36.440	0.100
721.900	-40.687	0.100
722.000	-35.200	0.100
722.100	-34.327	0.100
722.200	-38.253	0.100
722.300	-28.539	0.100
722.400	-33.968	0.100
722.500	-30.944	0.100
722.600	-34.729	0.100
722.700	-40.078	0.100
722.800	-30.819	0.100
722.900	-39.091	0.100
723.000	-34.742	0.100
723.100	-43.329	0.100
723.200	-38.527	0.100
723.300	-35.684	0.100
723.400	-37.036	0.100
723.500	-43.614	0.100
723.600	-32.691	0.100
723.700	-41.869	0.100
723.800	-33.501	0.100
723.900	-36.642	0.100
724.000	-42.079	0.100
724.100	-32.858	0.100
724.200	-37.421	0.100
724.300	-35.190	0.100
724.400	-40.068	0.100
724.500	-25.337	0.100
724.600	-38.626	0.100
724.700	-47.655	0.100
724.800	-31.504	0.100
724.900	-36.960	0.100
725.000	-45.464	0.100
725.100	-51.931	0.100
725.200	-36.617	0.100
725.300	-37.603	0.100
725.400	-46.313	0.100
725.500	-35.731	0.100
725.600	-37.179	0.100
725.700	-39.125	0.100
725.800	-35.072	0.100
725.900	-47.196	0.100
726.000	-37.164	0.100
726.100	-37.703	0.100
726.200	-36.948	0.100
726.300	-41.104	0.100
726.400	-45.839	0.100
726.500	-38.331	0.100
726.600	-44.556	0.100
726.700	-35.249	0.100
726.800	-44.957	0.100
726.900	-48.574	0.100
727.000	-30.117	0.100
727.100	-39.138	0.100
727.200	-42.065	0.100
727.300	-34.181	0.100
727.400	-42.860	0.100
727.500	-44.101	0.100
727.600	-40.932	0.100
727.700	-36.107	0.100
727.800	-39.512	0.100
727.900	-41.806	0.100
728.000	-49.273	0.100
728.100	-41.617	0.100
728.200	-41.539	0.100
728.300	-38.856	0.100
728.400	-40.340	0.100
728.500	-36.351	0.100
728.600	-40.208	0.100
728.700	-36.198	0.100
728.800	-40.225	0.100
728.900	-46.300	0.100
729.000	-48.024	0.100
729.100	-40.400	0.100
729.200	-35.553	0.100
729.300	-33.598	0.100
729.400	-42.389	0.100
729.500	-43.448	0.100
729.600	-50.098	0.100
729.700	-30.589	0.100
729.800	-49.171	0.100
729.900	-34.109	0.100
730.000	-46.244	0.100
730.100	-31.529	0.100
730.200	-35.714	0.100
730.300	-40.346	0.100
730.400	-38.377	0.100
730.500	-40.178	0.100
730.600	-34.860	0.100
730.700	-33.194	0.100
730.800	-31.524	0.100
730.900	-41.759	0.100
731.000	-37.868	0.100
731.100	-34.519	0.100
731.200	-35.769	0.100
731.300	-39.671	0.100
731.400	-37.770	0.100
731.500	-47.377	0.100
731.600	-41.328	0.100
731.700	-41.077	0.100
731.800	-36.935	0.100
731.900	-32.918	0.100
732.000	-43.378	0.100
732.100	-38.245	0.100
732.200	-48.547	0.100
732.300	-43.277	0.100
732.400	-31.948	0.100
732.500	-42.163	0.100
732.600	-32.651	0.100
732.700	-35.665	0.100
732.800	-40.207	0.100
732.900	-41.958	0.100
733.000	-30.588	0.100
733.100	-44.600	0.100
733.200	-47.182	0.100
733.300	-33.687	0.100
733.400	-45.088	0.100
733.500	-35.590	0.100
733.600	-41.081	0.100
733.700	-41.872	0.100
733.800	-29.477	0.100
733.900	-37.289	0.100
734.000	-52.341	0.100
734.100	-49.344	0.100
734.200	-42.742	0.100
734.300	-29.682	0.100
734.400	-41.001	0.100
734.500	-35.893	0.100
734.600	-40.108	0.100
734.700	-40.952	0.100
734.800	-38.901	0.100
734.900	-46.007	0.100
735.000	-41.043	0.100
735.100	-30.609	0.100
735.200	-37.042	0.100
735.300	-44.948	0.100
735.400	-36.163	0.100
735.500	-44.385	0.100
735.600	-37.090	0.100
735.700	-40.551	0.100
735.800	-37.298	0.100
735.900	-45.603	0.100
736.000	-43.208	0.100
736.100	-30.080	0.100
736.200	-35.109	0.100
736.300	-47.959	0.100
736.400	-37.447	0.100
736.500	-47.520	0.100
736.600	-52.382	0.100
736.700	-43.968	0.100
736.800	-35.431	0.100
736.900	-35.059	0.100
737.000	-40.813	0.100
737.100	-46.276	0.100
737.200	-50.337	0.100
737.300	-35.109	0.100
737.400	-30.643	0.100
737.500	-36.646	0.100
737.600	-51.174	0.100
737.700	-42.111	0.100
737.800	-41.651	0.100
737.900	-37.866	0.100
738.000	-45.713	0.100
738.100	-43.686	0.100
738.200	-44.196	0.100
738.300	-35.037	0.100
738.400	-40.639	0.100
738.500	-34.205	0.100
738.600	-47.046	0.100
738.700	-45.657	0.100
738.800	-43.019	0.100
738.900	-35.470	0.100
739.000	-41.084	0.100
739.100	-45.249	0.100
739.200	-42.092	0.100
739.300	-40.912	0.100
739.400	-38.535	0.100
739.500	-51.369	0.100
739.600	-36.784	0.100
739.700	-37.438	0.100
739.800	-47.807	0.100
739.900	-41.979	0.100
740.000	-38.486	0.100
740.100	-30.320	0.100
740.200	-35.953	0.100
740.300	-39.329	0.100
740.400	-34.457	0.100
740.500	-40.088	0.100
740.600	-50.638	0.100
740.700	-45.562	0.100
740.800	-40.971	0.100
740.900	-44.870	0.100
741.000	-36.971	0.100
741.100	-44.241	0.100
741.200	-42.481	0.100
741.300	-45.915	0.100
741.400	-50.171	0.100
741.500	-39.441	0.100
741.600	-48.508	0.100
741.700	-37.865	0.100
741.800	-38.645	0.100
741.900	-37.446	0.100
742.000	-41.166	0.100
742.100	-41.003	0.100
742.200	-38.742	0.100
742.300	-37.545	0.100
742.400	-42.645	0.100
742.500	-34.722	0.100
742.600	-46.809	0.100
742.700	-56.626	0.100
742.800	-35.971	0.100
742.900	-41.144	0.100
743.000	-29.157	0.100
743.100	-39.049	0.100
743.200	-36.354	0.100
743.300	-42.728	0.100
743.400	-46.075	0.100
743.500	-42.390	0.100
743.600	-40.604	0.100
743.700	-49.050	0.100
743.800	-45.618	0.100
743.900	-45.282	0.100
744.000	-35.800	0.100
744.100	-40.705	0.100
744.200	-42.005	0.100
744.300	-42.576	0.100
744.400	-41.825	0.100
744.500	-40.158	0.100
744.600	-41.379	0.100
744.700	-39.965	0.100
744.800	-43.116	0.100
744.900	-45.785	0.100
745.000	-45.342	0.100
745.100	-41.765	0.100
745.200	-42.301	0.100
745.300	-41.907	0.100
745.400	-45.659	0.100
745.500	-41.222	0.100
745.600	-41.522	0.100
745.700	-33.041	0.100
745.800	-33.368	0.100
745.900	-46.217	0.100
746.000	-48.901	0.100
746.100	-42.052	0.100
746.200	-40.896	0.100
746.300	-35.012	0.100
746.400	-39.450	0.100
746.500	-41.249	0.100
746.600	-42.646	0.100
746.700	-37.995	0.100
746.800	-46.910	0.100
746.900	-40.454	0.100
747.000	-37.631	0.100
747.100	-45.598	0.100
747.200	-35.014	0.100
747.300	-42.061	0.100
747.400	-42.282	0.100
747.500	-50.556	0.100
747.600	-39.651	0.100
747.700	-42.171	0.100
747.800	-41.286	0.100
747.900	-45.636	0.100
748.000	-42.636	0.100
748.100	-42.522	0.100
748.200	-48.752	0.100
748.300	-40.847	0.100
748.400	-46.851	0.100
748.500	-36.858	0.100
748.600	-42.717	0.100
748.700	-33.310	0.100
748.800	-42.997	0.100
748.900	-47.105	0.100
749.000	-40.240	0.100
749.100	-38.226	0.100
749.200	-36.920	0.100
749.300	-40.012	0.100
749.400	-34.668	0.100
749.500	-36.056	0.100
749.600	-35.731	0.100
749.700	-32.756	0.100
749.800	-31.180	0.100
749.900	-38.823	0.100
750.000	-38.209	0.100
750.100	-42.057	0.100
750.200	-33.670	0.100
750.300	-50.999	0.100
750.400	-35.437	0.100
750.500	-33.521	0.100
750.600	-39.207	0.100
750.700	-42.787	0.100
750.800	-43.728	0.100
750.900	-33.586	0.100
751.000	-32.733	0.100
751.100	-35.290	0.100
751.200	-38.281	0.100
751.300	-40.795	0.100
751.400	-44.139	0.100
751.500	-45.508	0.100
751.600	-36.020	0.100
751.700	-42.531	0.100
751.800	-40.985	0.100
751.900	-42.751	0.100
752.000	-47.156	0.100
752.100	-43.967	0.100
752.200	-32.444	0.100
752.300	-45.235	0.100
752.400	-42.940	0.100
752.500	-36.703	0.100
752.600	-38.676	0.100
752.700	-41.900	0.100
752.800	-42.432	0.100
752.900	-29.754	0.100
753.000	-45.272	0.100
753.100	-38.359	0.100
753.200	-34.590	0.100
753.300	-30.552	0.100
753.400	-35.385	0.100
753.500	-40.237	0.100
753.600	-41.037	0.100
753.700	-43.450	0.100
753.800	-42.655	0.100
753.900	-40.224	0.100
754.000	-33.261	0.100
754.100	-35.817	0.100
754.200	-44.086	0.100
754.300	-46.947	0.100
754.400	-44.746	0.100
754.500	-37.266	0.100
754.600	-40.526	0.100
754.700	-37.029	0.100
754.800	-48.133	0.100
754.900	-29.311	0.100
755.000	-35.007	0.100
755.100	-40.417	0.100
755.200	-39.741	0.100
755.300	-33.263	0.100
755.400	-43.993	0.100
755.500	-42.078	0.100
755.600	-37.869	0.100
755.700	-40.113	0.100
755.800	-39.133	0.100
755.900	-43.193	0.100
756.000	-40.726	0.100
756.100	-41.832	0.100
756.200	-41.059	0.100
756.300	-37.046	0.100
756.400	-40.500	0.100
756.500	-38.834	0.100
756.600	-40.756	0.100
756.700	-37.662	0.100
756.800	-40.118	0.100
756.900	-40.420	0.100
757.000	-46.489	0.100
757.100	-35.940	0.100
757.200	-35.803	0.100
757.300	-39.827	0.100
757.400	-44.926	0.100
757.500	-45.387	0.100
757.600	-35.470	0.100
757.700	-38.589	0.100
757.800	-38.385	0.100
757.900	-38.790	0.100
758.000	-31.422	0.100
758.100	-35.723	0.100
758.200	-40.355	0.100
758.300	-41.912	0.100
758.400	-42.129	0.100
758.500	-40.444	0.100
758.600	-34.552	0.100
758.700	-36.772	0.100
758.800	-34.252	0.100
758.900	-30.533	0.100
759.000	-39.060	0.100
759.100	-29.739	0.100
759.200	-48.899	0.100
759.300	-39.724	0.100
759.400	-41.885	0.100
759.500	-32.491	0.100
759.600	-34.361	0.100
759.700	-36.926	0.100
759.800	-42.207	0.100
759.900	-37.364	0.100
760.000	-33.833	0.100
760.100	-48.565	0.100
760.200	-41.366	0.100
760.300	-41.811	0.100
760.400	-32.139	0.100
760.500	-28.073	0.100
760.600	-31.221	0.100
760.700	-34.664	0.100
760.800	-33.638	0.100
760.900	-34.806	0.100
761.000	-38.405	0.100
761.100	-39.048	0.100
761.200	-33.183	0.100
761.300	-37.647	0.100
761.400	-41.736	0.100
761.500	-36.847	0.100
761.600	-32.341	0.100
761.700	-37.197	0.100
761.800	-34.949	0.100
761.900	-35.212	0.100
762.000	-35.660	0.100
762.100	-40.875	0.100
762.200	-31.860	0.100
762.300	-33.857	0.100
762.400	-41.903	0.100
762.500	-36.472	0.100
762.600	-37.246	0.100
762.700	-38.611	0.100
762.800	-35.132	0.100
762.900	-35.648	0.100
763.000	-46.981	0.100
763.100	-35.893	0.100
763.200	-35.281	0.100
763.300	-27.278	0.100
763.400	-43.137	0.100
763.500	-35.138	0.100
763.600	-35.500	0.100
763.700	-36.847	0.100
763.800	-30.609	0.100
763.900	-34.992	0.100
764.000	-36.904	0.100
764.100	-44.657	0.100
764.200	-41.414	0.100
764.300	-41.356	0.100
764.400	-26.256	0.100
764.500	-28.433	0.100
764.600	-41.926	0.100
764.700	-42.263	0.100
764.800	-37.101	0.100
764.900	-35.705	0.100
765.000	-40.121	0.100
765.100	-43.095	0.100
765.200	-46.541	0.100
765.300	-47.000	0.100
765.400	-23.541	0.100
765.500	-41.881	0.100
765.600	-36.327	0.100
765.700	-30.798	0.100
765.800	-27.052	0.100
765.900	-31.578	0.100
766.000	-47.194	0.100
766.100	-38.853	0.100
766.200	-38.198	0.100
766.300	-36.712	0.100
766.400	-37.838	0.100
766.500	-44.906	0.100
766.600	-31.767	0.100
766.700	-32.671	0.100
766.800	-30.530	0.100
766.900	-35.670	0.100
767.000	-34.752	0.100
767.100	-31.980	0.100
767.200	-49.508	0.100
767.300	-45.648	0.100
767.400	-26.336	0.100
767.500	-36.524	0.100
767.600	-41.441	0.100
767.700	-38.090	0.100
767.800	-38.897	0.100
767.900	-34.198	0.100
768.000	-36.565	0.100
768.100	-34.187	0.100
768.200	-29.884	0.100
768.300	-32.034	0.100
768.400	-31.555	0.100
768.500	-28.754	0.100
768.600	-36.732	0.100
768.700	-33.719	0.100
768.800	-37.482	0.100
768.900	-25.740	0.100
769.000	-35.871	0.100
769.100	-34.220	0.100
769.200	-39.018	0.100
769.300	-43.659	0.100
769.400	-26.459	0.100
769.500	-26.162	0.100
769.600	-25.662	0.100
769.700	-33.869	0.100
769.800	-31.804	0.100
769.900	-38.482	0.100
770.000	-42.503	0.100
770.100	-27.657	0.100
770.200	-38.043	0.100
770.300	-33.916	0.100
770.400	-30.489	0.100
770.500	-35.343	0.100
770.600	-37.188	0.100
770.700	-36.169	0.100
770.800	-37.777	0.100
770.900	-37.574	0.100
771.000	-38.416	0.100
771.100	-36.888	0.100
771.200	-37.164	0.100
771.300	-31.626	0.100
771.400	-35.730	0.100
771.500	-30.434	0.100
771.600	-27.494	0.100
771.700	-44.723	0.100
771.800	-42.572	0.100
771.900	-38.911	0.100
772.000	-31.281	0.100
772.100	-33.110	0.100
772.200	-27.352	0.100
772.300	-34.122	0.100
772.400	-36.879	0.100
772.500	-40.942	0.100
772.600	-32.052	0.100
772.700	-31.274	0.100
772.800	-40.257	0.100
772.900	-33.291	0.100
773.000	-39.032	0.100
773.100	-27.292	0.100
773.200	-41.081	0.100
773.300	-34.876	0.100
773.400	-27.140	0.100
773.500	-25.422	0.100
773.600	-32.008	0.100
773.700	-37.862	0.100
773.800	-33.606	0.100
773.900	-20.460	0.100
774.000	-20.268	0.100
774.100	-35.492	0.101
774.200	-39.797	0.100
774.300	-42.747	0.100
774.400	-35.880	0.100
774.500	-34.801	0.100
774.600	-22.265	0.100
774.700	-29.541	0.101
774.800	-38.924	0.101
774.900	-34.702	0.101
775.000	-39.987	0.101
775.100	-37.737	0.101
775.200	-31.809	0.101
775.300	-18.916	0.100
775.400	-33.742	0.100
775.500	-37.907	0.101
775.600	-32.263	0.100
775.700	-38.350	0.100
775.800	-33.169	0.101
775.900	-39.797	0.100
776.000	-38.877	0.101
776.100	-32.256	0.100
776.200	-31.482	0.100
776.300	-32.976	0.100
776.400	-32.556	0.100
776.500	-35.540	0.101
776.600	-35.688	0.100
776.700	-43.264	0.100
776.800	-26.388	0.100
776.900	-42.034	0.100
777.000	-27.995	0.100
777.100	-24.789	0.100
777.200	-32.834	0.101
777.300	-26.832	0.100
777.400	-34.355	0.100
777.500	-39.978	0.101
777.600	-38.611	0.100
777.700	-36.075	0.100
777.800	-44.894	0.100
777.900	-31.371	0.100
778.000	-31.668	0.100
778.100	-27.254	0.100
778.200	-38.696	0.100
778.300	-33.002	0.100
778.400	-32.840	0.100
778.500	-28.662	0.101
778.600	-36.328	0.101
778.700	-29.663	0.100
778.800	-36.431	0.101
778.900	-40.397	0.101
779.000	-35.498	0.101
779.100	-33.166	0.101
779.200	-24.635	0.101
779.300	-37.982	0.101
779.400	-23.946	0.101
779.500	-25.992	0.101
779.600	-36.188	0.101
779.700	-33.307	0.101
779.800	-51.045	0.101
779.900	-36.711	0.101
780.000	-28.024	0.101
780.100	-25.904	0.101
780.200	-28.364	0.101
780.300	-36.011	0.101
780.400	-36.156	0.101
780.500	-32.457	0.101
780.600	-24.231	0.101
780.700	-25.767	0.101
780.800	-11.897	0.101
780.900	-3.946	0.101
781.000	-9.573	0.101
781.100	-9.835	0.101
781.200	-6.983	0.101
781.300	3.320	0.101
781.400	-3.562	0.101
781.500	-8.780	0.101
781.600	-2.088	0.101
781.700	-3.707	0.101
781.800	3.464	0.101
781.900	1.851	0.101
782.000	-0.591	0.101
782.100	7.783	0.101
782.200	2.783	0.101
782.300	14.015	0.101
782.400	6.060	0.101
782.500	-2.218	0.101
782.600	7.481	0.101
782.700	10.381	0.101
782.800	8.045	0.101
782.900	5.072	0.101
783.000	5.393	0.101
783.100	8.368	0.101
783.200	6.404	0.101
783.300	10.200	0.101
783.400	16.189	0.101
783.500	-3.867	0.101
783.600	-3.925	0.101
783.700	9.815	0.101
783.800	5.345	0.101
783.900	8.770	0.101
784.000	2.281	0.101
784.100	4.122	0.101
784.200	9.798	0.101
784.300	7.614	0.101
784.400	6.033	0.101
784.500	6.860	0.101
784.600	5.978	0.101
784.700	0.434	0.101
784.800	5.322	0.101
784.900	9.893	0.101
785.000	7.381	0.101
785.100	10.277	0.101
785.200	5.148	0.101
785.300	9.291	0.101
785.400	3.484	0.101
785.500	9.497	0.101
785.600	7.849	0.101
785.700	-3.218	0.101
785.800	6.659	0.101
785.900	9.753	0.101
786.000	0.093	0.101
786.100	7.226	0.101
786.200	3.547	0.101
786.300	10.232	0.101
786.400	14.661	0.101
786.500	3.308	0.101
786.600	8.162	0.101
786.700	14.341	0.101
786.800	20.616	0.101
786.900	4.032	0.101
787.000	11.879	0.101
787.100	8.470	0.101
787.200	-2.076	0.101
787.300	5.934	0.101
787.400	12.372	0.101
787.500	-0.824	0.101
787.600	-2.407	0.101
787.700	0.983	0.101
787.800	-1.785	0.101
787.900	7.081	0.101
788.000	12.112	0.101
788.100	8.791	0.101
788.200	4.547	0.101
788.300	13.509	0.101
788.400	8.582	0.101
788.500	2.542	0.101
788.600	3.771	0.101
788.700	-0.503	0.101
788.800	10.125	0.101
788.900	7.683	0.101
789.000	3.823	0.101
789.100	9.745	0.101
789.200	-1.325	0.101
789.300	9.872	0.101
789.400	2.729	0.101
789.500	7.528	0.101
789.600	0.715	0.101
789.700	8.222	0.101
789.800	12.942	0.101
789.900	11.257	0.101
790.000	8.849	0.101
790.100	3.472	0.101
790.200	10.900	0.101
790.300	15.095	0.101
790.400	9.895	0.101
790.500	10.585	0.101
790.600	13.521	0.101
790.700	13.552	0.101
790.800	11.904	0.101
790.900	10.368	0.101
791.000	14.361	0.101
791.100	12.680	0.101
791.200	10.881	0.101
791.300	4.246	0.101
791.400	2.260	0.101
791.500	14.139	0.101
791.600	20.521	0.101
791.700	7.022	0.101
791.800	15.011	0.101
791.900	12.280	0.101
792.000	11.929	0.101
792.100	12.127	0.101
792.200	12.163	0.101
792.300	6.739	0.101
792.400	12.650	0.101
792.500	14.656	0.101
792.600	15.881	0.101
792.700	14.764	0.101
792.800	10.727	0.101
792.900	17.663	0.101
793.000	26.579	0.101
793.100	18.976	0.101
793.200	4.239	0.101
793.300	24.918	0.101
793.400	19.224	0.101
793.500	13.463	0.101
793.600	6.816	0.101
793.700	13.384	0.101
793.800	18.304	0.101
793.900	22.409	0.101
794.000	14.031	0.101
794.100	15.826	0.101
794.200	9.898	0.101
794.300	16.126	0.101
794.400	29.837	0.101
794.500	23.868	0.101
794.600	21.359	0.101
794.700	15.980	0.101
794.800	4.828	0.101
794.900	12.452	0.101
795.000	24.726	0.101
795.100	19.585	0.101
795.200	21.026	0.101
795.300	28.702	0.101
795.400	25.427	0.101
795.500	27.960	0.101
795.600	19.186	0.101
795.700	19.812	0.101
795.800	26.657	0.101
795.900	16.669	0.101
796.000	14.155	0.101
796.100	23.748	0.101
796.200	17.916	0.101
796.300	25.143	0.101
796.400	12.384	0.101
796.500	13.828	0.101
796.600	31.137	0.101
796.700	24.140	0.101
796.800	30.277	0.101
796.900	27.632	0.101
797.000	27.650	0.101
797.100	19.895	0.101
797.200	20.354	0.101
797.300	42.307	0.101
797.400	30.139	0.101
797.500	23.935	0.101
797.600	27.473	0.101
797.700	31.602	0.101
797.800	28.179	0.101
797.900	33.949	0.101
798.000	37.856	0.101
798.100	43.933	0.101
798.200	32.065	0.101
798.300	38.699	0.101
798.400	35.570	0.101
798.500	35.213	0.101
798.600	29.979	0.101
798.700	32.064	0.101
798.800	36.219	0.101
798.900	48.377	0.101
799.000	32.780	0.101
799.100	29.956	0.101
799.200	43.281	0.101
799.300	38.947	0.101
799.400	40.865	0.101
799.500	41.734	0.101
799.600	41.768	0.101
799.700	44.004	0.101
799.800	46.143	0.101
799.900	35.019	0.101
800.000	44.938	0.101
