time /s	I /nA	E /V
0.100	-34.666	0.100
0.200	-33.614	0.100
0.300	-29.999	0.100
0.400	-35.054	0.100
0.500	-25.855	0.100
0.600	-33.533	0.100
0.700	-39.497	0.100
0.800	-32.049	0.100
0.900	-22.608	0.100
1.000	-35.812	0.100
1.100	-35.957	0.100
1.200	-23.261	0.100
1.300	-27.860	0.100
1.400	-26.432	0.100
1.500	-27.158	0.100
1.600	-36.092	0.100
1.700	-30.241	0.100
1.800	-38.113	0.100
1.900	-33.529	0.100
2.000	-36.569	0.100
2.100	-31.721	0.100
2.200	-33.613	0.100
2.300	-38.031	0.100
2.400	-33.247	0.100
2.500	-26.435	0.100
2.600	-22.132	0.100
2.700	-28.638	0.100
2.800	-34.523	0.100
2.900	-44.110	0.100
3.000	-31.633	0.100
3.100	-32.725	0.100
3.200	-33.754	0.100
3.300	-28.972	0.100
3.400	-33.228	0.100
3.500	-41.207	0.100
3.600	-25.416	0.100
3.700	-31.533	0.100
3.800	-34.016	0.100
3.900	-36.631	0.100
4.000	-32.541	0.100
4.100	-32.122	0.100
4.200	-37.019	0.100
4.300	-29.920	0.100
4.400	-23.874	0.100
4.500	-26.905	0.100
4.600	-40.081	0.100
4.700	-35.971	0.100
4.800	-32.664	0.100
4.900	-29.681	0.100
5.000	-33.723	0.100
5.100	-27.190	0.100
5.200	-33.152	0.100
5.300	-31.723	0.100
5.400	-36.389	0.100
5.500	-31.085	0.100
5.600	-46.987	0.100
5.700	-36.621	0.100
5.800	-32.343	0.100
5.900	-27.539	0.100
6.000	-30.696	0.100
6.100	-32.969	0.100
6.200	-34.500	0.100
6.300	-30.723	0.100
6.400	-26.770	0.100
6.500	-31.883	0.100
6.600	-29.532	0.100
6.700	-35.862	0.100
6.800	-31.170	0.100
6.900	-30.011	0.100
7.000	-34.174	0.100
7.100	-27.774	0.100
7.200	-32.226	0.100
7.300	-34.659	0.100
7.400	-34.809	0.100
7.500	-32.547	0.100
7.600	-30.444	0.100
7.700	-34.063	0.100
7.800	-31.256	0.100
7.900	-24.321	0.100
8.000	-22.477	0.100
8.100	-29.189	0.100
8.200	-34.843	0.100
8.300	-25.370	0.100
8.400	-26.682	0.100
8.500	-32.192	0.100
8.600	-32.236	0.100
8.700	-40.112	0.100
8.800	-36.368	0.100
8.900	-32.076	0.100
9.000	-31.663	0.100
9.100	-26.275	0.100
9.200	-38.952	0.100
9.300	-27.015	0.100
9.400	-32.538	0.100
9.500	-37.052	0.100
9.600	-31.521	0.100
9.700	-26.880	0.100
9.800	-32.189	0.100
9.900	-29.072	0.100
10.000	-30.013	0.100
10.100	-31.349	0.100
10.200	-35.440	0.100
10.300	-35.528	0.100
10.400	-30.833	0.100
10.500	-28.784	0.100
10.600	-26.516	0.100
10.700	-27.138	0.100
10.800	-45.903	0.100
10.900	-21.273	0.100
11.000	-27.243	0.100
11.100	-29.301	0.100
11.200	-38.278	0.100
11.300	-39.281	0.100
11.400	-27.792	0.100
11.500	-26.344	0.100
11.600	-29.734	0.100
11.700	-28.617	0.100
11.800	-38.974	0.100
11.900	-35.047	0.100
12.000	-29.948	0.100
12.100	-29.962	0.100
12.200	-38.104	0.100
12.300	-34.093	0.100
12.400	-27.888	0.100
12.500	-21.999	0.100
12.600	-31.041	0.100
12.700	-19.365	0.100
12.800	-36.249	0.100
12.900	-32.111	0.100
13.000	-42.964	0.100
13.100	-31.212	0.100
13.200	-19.939	0.100
13.300	-29.900	0.100
13.400	-28.946	0.100
13.500	-28.517	0.100
13.600	-24.104	0.100
13.700	-31.221	0.100
13.800	-21.379	0.100
13.900	-32.231	0.100
14.000	-30.441	0.100
14.100	-30.731	0.100
14.200	-26.141	0.100
14.300	-33.497	0.100
14.400	-27.294	0.100
14.500	-32.568	0.100
14.600	-29.047	0.100
14.700	-34.813	0.100
14.800	-34.720	0.100
14.900	-42.853	0.100
15.000	-28.642	0.100
15.100	-36.754	0.100
15.200	-25.771	0.100
15.300	-33.844	0.100
15.400	-26.176	0.100
15.500	-38.605	0.100
15.600	-27.087	0.100
15.700	-20.759	0.100
15.800	-26.213	0.100
15.900	-33.894	0.100
16.000	-27.743	0.100
16.100	-28.644	0.100
16.200	-20.857	0.100
16.300	-34.932	0.100
16.400	-24.136	0.100
16.500	-27.830	0.100
16.600	-34.519	0.100
16.700	-29.850	0.100
16.800	-24.638	0.100
16.900	-37.906	0.100
17.000	-31.394	0.100
17.100	-27.534	0.100
17.200	-31.113	0.100
17.300	-28.534	0.100
17.400	-27.873	0.100
17.500	-28.377	0.100
17.600	-43.417	0.100
17.700	-34.508	0.100
17.800	-25.068	0.100
17.900	-30.653	0.100
18.000	-45.313	0.100
18.100	-31.259	0.100
18.200	-26.002	0.100
18.300	-21.926	0.100
18.400	-24.734	0.100
18.500	-30.722	0.100
18.600	-35.509	0.100
18.700	-28.373	0.100
18.800	-25.012	0.100
18.900	-36.100	0.100
19.000	-38.182	0.100
19.100	-29.026	0.100
19.200	-34.704	0.100
19.300	-30.524	0.100
19.400	-31.762	0.100
19.500	-29.826	0.100
19.600	-27.645	0.100
19.700	-29.136	0.100
19.800	-39.074	0.100
19.900	-32.490	0.100
20.000	-32.314	0.100
20.100	-22.472	0.100
20.200	-28.449	0.100
20.300	-31.025	0.100
20.400	-33.995	0.100
20.500	-30.904	0.100
20.600	-31.631	0.100
20.700	-28.883	0.100
20.800	-35.094	0.100
20.900	-36.718	0.100
21.000	-35.000	0.100
21.100	-29.409	0.100
21.200	-31.260	0.100
21.300	-28.600	0.100
21.400	-26.129	0.100
21.500	-16.979	0.100
21.600	-23.683	0.100
21.700	-22.842	0.100
21.800	-27.583	0.100
21.900	-41.555	0.100
22.000	-27.591	0.100
22.100	-39.935	0.100
22.200	-24.303	0.100
22.300	-23.379	0.100
22.400	-32.885	0.100
22.500	-45.558	0.100
22.600	-32.938	0.100
22.700	-30.315	0.100
22.800	-25.139	0.100
22.900	-23.415	0.100
23.000	-26.894	0.100
23.100	-26.922	0.100
23.200	-26.283	0.100
23.300	-28.738	0.100
23.400	-24.003	0.100
23.500	-18.169	0.100
23.600	-32.779	0.100
23.700	-33.563	0.100
23.800	-37.962	0.100
23.900	-27.713	0.100
24.000	-34.292	0.100
24.100	-33.556	0.100
24.200	-28.986	0.100
24.300	-27.894	0.100
24.400	-28.181	0.100
24.500	-35.407	0.100
24.600	-32.060	0.100
24.700	-27.496	0.100
24.800	-33.434	0.100
24.900	-32.932	0.100
25.000	-38.172	0.100
25.100	-35.810	0.100
25.200	-33.316	0.100
25.300	-26.944	0.100
25.400	-22.672	0.100
25.500	-31.176	0.100
25.600	-24.120	0.100
25.700	-32.675	0.100
25.800	-30.321	0.100
25.900	-36.899	0.100
26.000	-35.831	0.100
26.100	-34.187	0.100
26.200	-23.884	0.100
26.300	-34.419	0.100
26.400	-27.152	0.100
26.500	-35.542	0.100
26.600	-42.866	0.100
26.700	-33.202	0.100
26.800	-25.782	0.100
26.900	-25.070	0.100
27.000	-23.424	0.100
27.100	-34.109	0.100
27.200	-26.043	0.100
27.300	-29.896	0.100
27.400	-29.066	0.100
27.500	-18.660	0.100
27.600	-29.340	0.100
27.700	-34.124	0.100
27.800	-17.913	0.100
27.900	-23.967	0.100
28.000	-27.095	0.100
28.100	-28.003	0.100
28.200	-36.008	0.100
28.300	-37.053	0.100
28.400	-37.874	0.100
28.500	-33.425	0.100
28.600	-19.806	0.100
28.700	-23.956	0.100
28.800	-35.498	0.100
28.900	-29.955	0.100
29.000	-29.266	0.100
29.100	-27.828	0.100
29.200	-27.581	0.100
29.300	-34.908	0.100
29.400	-31.311	0.100
29.500	-23.418	0.100
29.600	-20.394	0.100
29.700	-28.712	0.100
29.800	-26.723	0.100
29.900	-31.088	0.100
30.000	-30.462	0.100
30.100	-28.297	0.100
30.200	-19.041	0.100
30.300	-26.153	0.100
30.400	-18.955	0.100
30.500	-29.063	0.100
30.600	-21.612	0.100
30.700	-23.261	0.100
30.800	-12.729	0.100
30.900	-19.302	0.100
31.000	-16.838	0.100
31.100	-13.245	0.100
31.200	-11.247	0.100
31.300	-12.371	0.100
31.400	-10.950	0.100
31.500	-4.610	0.100
31.600	1.924	0.100
31.700	-4.773	0.100
31.800	-7.466	0.100
31.900	-13.621	0.100
32.000	-15.057	0.100
32.100	-12.149	0.100
32.200	-8.220	0.100
32.300	-0.491	0.100
32.400	-1.001	0.100
32.500	-2.834	0.100
32.600	-9.577	0.100
32.700	1.015	0.100
32.800	-4.255	0.100
32.900	-9.576	0.100
33.000	-10.480	0.100
33.100	-5.244	0.100
33.200	0.178	0.100
33.300	-5.855	0.100
33.400	5.653	0.100
33.500	-7.060	0.100
33.600	3.883	0.100
33.700	4.182	0.100
33.800	-3.502	0.100
33.900	3.690	0.100
34.000	-6.289	0.100
34.100	-11.924	0.100
34.200	-10.302	0.100
34.300	-5.783	0.100
34.400	1.570	0.100
34.500	10.369	0.100
34.600	-6.735	0.100
34.700	-6.034	0.100
34.800	1.743	0.100
34.900	1.035	0.100
35.000	-7.168	0.100
35.100	1.270	0.100
35.200	5.100	0.100
35.300	-7.676	0.100
35.400	-0.857	0.100
35.500	0.176	0.100
35.600	-6.491	0.100
35.700	-13.393	0.100
35.800	-6.349	0.100
35.900	4.373	0.100
36.000	7.069	0.100
36.100	4.019	0.100
36.200	-10.142	0.100
36.300	-2.203	0.100
36.400	-1.292	0.100
36.500	-8.111	0.100
36.600	-7.074	0.100
36.700	0.115	0.100
36.800	0.235	0.100
36.900	7.791	0.100
37.000	-3.426	0.100
37.100	7.115	0.100
37.200	-1.985	0.100
37.300	2.317	0.100
37.400	-6.197	0.100
37.500	-2.415	0.100
37.600	-4.342	0.100
37.700	-12.401	0.100
37.800	-1.954	0.100
37.900	-1.468	0.100
38.000	4.470	0.100
38.100	4.125	0.100
38.200	0.546	0.100
38.300	-0.207	0.100
38.400	8.252	0.100
38.500	-7.308	0.100
38.600	-4.238	0.100
38.700	-2.781	0.100
38.800	-6.532	0.100
38.900	-2.018	0.100
39.000	-0.291	0.100
39.100	-2.558	0.100
39.200	6.084	0.100
39.300	-0.759	0.100
39.400	1.566	0.100
39.500	5.717	0.100
39.600	11.256	0.100
39.700	10.516	0.100
39.800	12.333	0.100
39.900	1.817	0.100
40.000	-2.362	0.100
40.100	2.529	0.100
40.200	6.960	0.100
40.300	5.284	0.100
40.400	2.638	0.100
40.500	13.611	0.100
40.600	-5.966	0.100
40.700	-2.090	0.100
40.800	5.288	0.100
40.900	1.928	0.100
41.000	9.726	0.100
41.100	-1.845	0.100
41.200	-3.186	0.100
41.300	-3.469	0.100
41.400	-8.499	0.100
41.500	11.588	0.100
41.600	5.076	0.100
41.700	3.455	0.100
41.800	0.412	0.100
41.900	4.964	0.100
42.000	6.752	0.100
42.100	14.739	0.100
42.200	2.015	0.100
42.300	6.426	0.100
42.400	3.759	0.100
42.500	6.588	0.100
42.600	2.705	0.100
42.700	-2.234	0.100
42.800	8.459	0.100
42.900	2.485	0.100
43.000	3.392	0.100
43.100	6.267	0.100
43.200	12.164	0.100
43.300	4.390	0.100
43.400	2.186	0.100
43.500	-3.105	0.100
43.600	1.399	0.100
43.700	1.948	0.100
43.800	9.599	0.100
43.900	9.227	0.100
44.000	13.330	0.100
44.100	11.692	0.100
44.200	12.523	0.100
44.300	6.529	0.100
44.400	-0.287	0.100
44.500	4.762	0.100
44.600	10.145	0.100
44.700	3.891	0.100
44.800	12.673	0.100
44.900	14.850	0.100
45.000	8.271	0.100
45.100	4.766	0.100
45.200	4.794	0.100
45.300	11.751	0.100
45.400	2.622	0.100
45.500	5.991	0.100
45.600	6.989	0.100
45.700	5.101	0.100
45.800	19.233	0.100
45.900	8.347	0.100
46.000	10.641	0.100
46.100	14.854	0.100
46.200	11.678	0.100
46.300	15.650	0.100
46.400	9.956	0.100
46.500	2.745	0.100
46.600	5.735	0.100
46.700	-1.271	0.100
46.800	10.761	0.100
46.900	4.202	0.100
47.000	7.684	0.100
47.100	11.056	0.100
47.200	7.116	0.100
47.300	8.212	0.100
47.400	11.272	0.100
47.500	12.364	0.100
47.600	12.393	0.100
47.700	15.711	0.100
47.800	5.370	0.100
47.900	11.158	0.100
48.000	6.019	0.100
48.100	9.108	0.100
48.200	8.121	0.100
48.300	13.711	0.100
48.400	13.442	0.100
48.500	12.114	0.100
48.600	13.080	0.100
48.700	13.951	0.100
48.800	17.886	0.100
48.900	4.065	0.100
49.000	8.879	0.100
49.100	7.703	0.100
49.200	16.033	0.100
49.300	21.711	0.100
49.400	23.977	0.100
49.500	17.009	0.100
49.600	11.589	0.100
49.700	10.657	0.100
49.800	6.537	0.100
49.900	17.551	0.100
50.000	10.500	0.100
50.100	14.173	0.100
50.200	12.446	0.100
50.300	12.836	0.100
50.400	7.810	0.100
50.500	16.084	0.100
50.600	10.712	0.100
50.700	12.355	0.100
50.800	11.118	0.100
50.900	16.173	0.100
51.000	16.427	0.100
51.100	18.871	0.100
51.200	14.421	0.100
51.300	17.719	0.100
51.400	15.213	0.100
51.500	15.401	0.100
51.600	13.420	0.100
51.700	17.220	0.100
51.800	20.499	0.100
51.900	11.001	0.100
52.000	12.307	0.100
52.100	8.369	0.100
52.200	21.562	0.100
52.300	12.954	0.100
52.400	17.608	0.100
52.500	18.735	0.100
52.600	13.830	0.100
52.700	6.974	0.100
52.800	21.274	0.100
52.900	15.812	0.100
53.000	16.280	0.100
53.100	20.607	0.100
53.200	23.081	0.100
53.300	23.909	0.100
53.400	10.635	0.100
53.500	11.707	0.100
53.600	13.809	0.100
53.700	15.471	0.100
53.800	16.807	0.100
53.900	13.344	0.100
54.000	11.151	0.100
54.100	11.940	0.100
54.200	23.409	0.100
54.300	11.063	0.100
54.400	16.148	0.100
54.500	14.114	0.100
54.600	24.901	0.100
54.700	20.503	0.100
54.800	18.520	0.100
54.900	10.616	0.100
55.000	17.933	0.100
55.100	20.779	0.100
55.200	15.260	0.100
55.300	14.016	0.100
55.400	18.630	0.100
55.500	15.448	0.100
55.600	17.956	0.100
55.700	22.988	0.100
55.800	20.335	0.100
55.900	19.983	0.100
56.000	13.632	0.100
56.100	12.463	0.100
56.200	13.862	0.100
56.300	23.510	0.100
56.400	22.435	0.100
56.500	18.461	0.100
56.600	24.967	0.100
56.700	22.295	0.100
56.800	21.146	0.100
56.900	11.796	0.100
57.000	20.983	0.100
57.100	20.061	0.100
57.200	25.153	0.100
57.300	19.676	0.100
57.400	19.407	0.100
57.500	17.513	0.100
57.600	8.406	0.100
57.700	15.637	0.100
57.800	32.368	0.100
57.900	20.862	0.100
58.000	18.620	0.100
58.100	17.911	0.100
58.200	15.880	0.100
58.300	23.806	0.100
58.400	23.020	0.100
58.500	20.817	0.100
58.600	20.324	0.100
58.700	21.876	0.100
58.800	25.034	0.100
58.900	24.064	0.100
59.000	34.483	0.100
59.100	17.611	0.100
59.200	15.926	0.100
59.300	18.831	0.100
59.400	17.232	0.100
59.500	13.916	0.100
59.600	14.427	0.100
59.700	26.703	0.100
59.800	23.020	0.100
59.900	18.654	0.100
60.000	25.762	0.100
60.100	21.512	0.100
60.200	8.750	0.100
60.300	16.025	0.100
60.400	26.766	0.100
60.500	30.653	0.100
60.600	34.381	0.100
60.700	22.801	0.100
60.800	21.979	0.100
60.900	24.116	0.100
61.000	14.577	0.100
61.100	12.809	0.100
61.200	18.925	0.100
61.300	23.402	0.100
61.400	28.279	0.100
61.500	18.452	0.100
61.600	28.246	0.100
61.700	29.053	0.100
61.800	17.711	0.100
61.900	19.448	0.100
62.000	14.222	0.100
62.100	23.990	0.100
62.200	20.229	0.100
62.300	12.619	0.100
62.400	19.354	0.100
62.500	25.857	0.100
62.600	24.321	0.100
62.700	29.884	0.100
62.800	25.069	0.100
62.900	23.568	0.100
63.000	25.666	0.100
63.100	15.430	0.100
63.200	17.480	0.100
63.300	14.081	0.100
63.400	9.686	0.100
63.500	21.897	0.100
63.600	17.560	0.100
63.700	23.166	0.100
63.800	26.586	0.100
63.900	12.958	0.100
64.000	18.498	0.100
64.100	24.648	0.100
64.200	15.426	0.100
64.300	17.872	0.100
64.400	30.765	0.100
64.500	29.675	0.100
64.600	20.272	0.100
64.700	18.543	0.100
64.800	24.064	0.100
64.900	15.750	0.100
65.000	25.773	0.100
65.100	21.479	0.100
65.200	25.203	0.100
65.300	21.973	0.100
65.400	24.533	0.100
65.500	19.518	0.100
65.600	20.184	0.100
65.700	15.514	0.100
65.800	27.760	0.100
65.900	21.215	0.100
66.000	26.758	0.100
66.100	26.651	0.100
66.200	23.050	0.100
66.300	20.483	0.100
66.400	26.542	0.100
66.500	21.474	0.100
66.600	19.290	0.100
66.700	24.124	0.100
66.800	5.983	0.100
66.900	16.929	0.100
67.000	17.528	0.100
67.100	18.069	0.100
67.200	26.411	0.100
67.300	26.977	0.100
67.400	17.051	0.100
67.500	10.287	0.100
67.600	18.660	0.100
67.700	18.021	0.100
67.800	18.700	0.100
67.900	26.120	0.100
68.000	22.454	0.100
68.100	14.575	0.100
68.200	28.696	0.100
68.300	19.670	0.100
68.400	23.688	0.100
68.500	27.911	0.100
68.600	22.767	0.100
68.700	23.160	0.100
68.800	15.553	0.100
68.900	19.290	0.100
69.000	27.564	0.100
69.100	18.041	0.100
69.200	11.818	0.100
69.300	23.858	0.100
69.400	15.613	0.100
69.500	18.598	0.100
69.600	24.541	0.100
69.700	20.421	0.100
69.800	25.623	0.100
69.900	17.874	0.100
70.000	21.562	0.100
70.100	26.883	0.100
70.200	15.198	0.100
70.300	13.935	0.100
70.400	12.954	0.100
70.500	19.614	0.100
70.600	16.654	0.100
70.700	26.207	0.100
70.800	20.432	0.100
70.900	20.128	0.100
71.000	18.193	0.100
71.100	13.693	0.100
71.200	15.542	0.100
71.300	18.510	0.100
71.400	23.550	0.100
71.500	30.733	0.100
71.600	31.788	0.100
71.700	18.595	0.100
71.800	16.420	0.100
71.900	22.712	0.100
72.000	24.644	0.100
72.100	18.062	0.100
72.200	23.962	0.100
72.300	19.695	0.100
72.400	25.652	0.100
72.500	15.830	0.100
72.600	30.601	0.100
72.700	25.008	0.100
72.800	22.039	0.100
72.900	19.417	0.100
73.000	19.845	0.100
73.100	22.138	0.100
73.200	22.257	0.100
73.300	22.059	0.100
73.400	22.550	0.100
73.500	17.763	0.100
73.600	18.972	0.100
73.700	14.987	0.100
73.800	15.153	0.100
73.900	26.629	0.100
74.000	21.405	0.100
74.100	19.099	0.100
74.200	18.372	0.100
74.300	25.984	0.100
74.400	25.470	0.100
74.500	27.034	0.100
74.600	25.237	0.100
74.700	16.493	0.100
74.800	15.585	0.100
74.900	20.336	0.100
75.000	22.964	0.100
75.100	27.675	0.100
75.200	22.790	0.100
75.300	25.360	0.100
75.400	15.224	0.100
75.500	14.871	0.100
75.600	20.207	0.100
75.700	16.943	0.100
75.800	10.773	0.100
75.900	23.755	0.100
76.000	21.843	0.100
76.100	18.505	0.100
76.200	17.188	0.100
76.300	16.638	0.100
76.400	14.800	0.100
76.500	21.887	0.100
76.600	20.977	0.100
76.700	24.622	0.100
76.800	26.680	0.100
76.900	20.354	0.100
77.000	22.345	0.100
77.100	22.742	0.100
77.200	21.604	0.100
77.300	19.774	0.100
77.400	13.932	0.100
77.500	22.426	0.100
77.600	20.621	0.100
77.700	17.562	0.100
77.800	11.487	0.100
77.900	20.647	0.100
78.000	14.954	0.100
78.100	13.506	0.100
78.200	19.324	0.100
78.300	20.006	0.100
78.400	15.230	0.100
78.500	21.744	0.100
78.600	25.540	0.100
78.700	22.049	0.100
78.800	9.108	0.100
78.900	25.248	0.100
79.000	16.044	0.100
79.100	7.463	0.100
79.200	14.434	0.100
79.300	17.362	0.100
79.400	18.243	0.100
79.500	18.189	0.100
79.600	26.281	0.100
79.700	23.488	0.100
79.800	22.525	0.100
79.900	18.545	0.100
80.000	17.701	0.100
80.100	18.560	0.100
80.200	25.512	0.100
80.300	22.748	0.100
80.400	4.441	0.100
80.500	15.122	0.100
80.600	27.680	0.100
80.700	18.065	0.100
80.800	16.775	0.100
80.900	16.056	0.100
81.000	12.486	0.100
81.100	15.943	0.100
81.200	26.156	0.100
81.300	12.285	0.100
81.400	19.882	0.100
81.500	16.222	0.100
81.600	16.456	0.100
81.700	17.286	0.100
81.800	15.413	0.100
81.900	16.056	0.100
82.000	25.186	0.100
82.100	19.690	0.100
82.200	25.520	0.100
82.300	15.344	0.100
82.400	18.759	0.100
82.500	17.779	0.100
82.600	9.415	0.100
82.700	8.935	0.100
82.800	30.024	0.100
82.900	25.201	0.100
83.000	18.730	0.100
83.100	17.154	0.100
83.200	10.999	0.100
83.300	14.547	0.100
83.400	13.378	0.100
83.500	6.586	0.100
83.600	22.836	0.100
83.700	24.043	0.100
83.800	25.976	0.100
83.900	14.256	0.100
84.000	18.778	0.100
84.100	4.845	0.100
84.200	14.629	0.100
84.300	23.229	0.100
84.400	19.620	0.100
84.500	16.568	0.100
84.600	14.685	0.100
84.700	13.386	0.100
84.800	17.553	0.100
84.900	17.685	0.100
85.000	18.908	0.100
85.100	23.221	0.100
85.200	21.003	0.100
85.300	19.760	0.100
85.400	13.285	0.100
85.500	7.297	0.100
85.600	20.257	0.100
85.700	10.332	0.100
85.800	15.891	0.100
85.900	16.721	0.100
86.000	19.242	0.100
86.100	15.914	0.100
86.200	23.815	0.100
86.300	19.427	0.100
86.400	17.442	0.100
86.500	11.777	0.100
86.600	11.669	0.100
86.700	14.681	0.100
86.800	15.800	0.100
86.900	16.699	0.100
87.000	16.675	0.100
87.100	14.542	0.100
87.200	4.487	0.100
87.300	22.163	0.100
87.400	14.827	0.100
87.500	19.156	0.100
87.600	19.976	0.100
87.700	15.802	0.100
87.800	17.341	0.100
87.900	7.715	0.100
88.000	19.262	0.100
88.100	18.132	0.100
88.200	13.208	0.100
88.300	17.860	0.100
88.400	12.855	0.100
88.500	10.941	0.100
88.600	16.152	0.100
88.700	22.038	0.100
88.800	21.037	0.100
88.900	23.815	0.100
89.000	9.812	0.100
89.100	16.076	0.100
89.200	10.247	0.100
89.300	24.928	0.100
89.400	11.176	0.100
89.500	8.767	0.100
89.600	9.343	0.100
89.700	16.831	0.100
89.800	16.798	0.100
89.900	12.817	0.100
90.000	13.409	0.100
90.100	15.688	0.100
90.200	2.667	0.100
90.300	4.350	0.100
90.400	6.564	0.100
90.500	17.964	0.100
90.600	17.041	0.100
90.700	12.689	0.100
90.800	2.060	0.100
90.900	2.451	0.100
91.000	6.454	0.100
91.100	2.727	0.100
91.200	-3.108	0.100
91.300	7.022	0.100
91.400	6.839	0.100
91.500	8.602	0.100
91.600	-8.016	0.100
91.700	2.987	0.100
91.800	1.735	0.100
91.900	2.275	0.100
92.000	0.874	0.100
92.100	-5.563	0.100
92.200	-6.043	0.100
92.300	3.583	0.100
92.400	-6.363	0.100
92.500	-3.332	0.100
92.600	-0.287	0.100
92.700	-5.097	0.100
92.800	-3.360	0.100
92.900	-14.092	0.100
93.000	-3.504	0.100
93.100	-1.669	0.100
93.200	-5.839	0.100
93.300	0.340	0.100
93.400	-3.558	0.100
93.500	-5.122	0.100
93.600	-7.323	0.100
93.700	-11.514	0.100
93.800	-8.247	0.100
93.900	-7.855	0.100
94.000	-8.420	0.100
94.100	-5.502	0.100
94.200	-3.912	0.100
94.300	-6.404	0.100
94.400	-3.610	0.100
94.500	-6.136	0.100
94.600	5.595	0.100
94.700	-1.413	0.100
94.800	-14.741	0.100
94.900	3.492	0.100
95.000	-3.705	0.100
95.100	-9.428	0.100
95.200	-9.078	0.100
95.300	-7.647	0.100
95.400	-7.620	0.100
95.500	-3.067	0.100
95.600	2.062	0.100
95.700	-3.369	0.100
95.800	-11.270	0.100
95.900	-5.609	0.100
96.000	-5.792	0.100
96.100	-0.766	0.100
96.200	-1.143	0.100
96.300	-4.444	0.100
96.400	-6.358	0.100
96.500	-6.380	0.100
96.600	-10.198	0.100
96.700	-7.602	0.100
96.800	-6.923	0.100
96.900	-4.584	0.100
97.000	-7.181	0.100
97.100	-0.116	0.100
97.200	-1.754	0.100
97.300	-4.615	0.100
97.400	-3.396	0.100
97.500	-5.717	0.100
97.600	-3.813	0.100
97.700	-12.725	0.100
97.800	-8.232	0.100
97.900	-5.322	0.100
98.000	-13.450	0.100
98.100	-7.806	0.100
98.200	-13.787	0.100
98.300	-10.778	0.100
98.400	-0.033	0.100
98.500	-9.915	0.100
98.600	-11.755	0.100
98.700	-7.386	0.100
98.800	-5.329	0.100
98.900	-5.139	0.100
99.000	-8.130	0.100
99.100	-14.383	0.100
99.200	-7.705	0.100
99.300	-25.193	0.100
99.400	-18.138	0.100
99.500	-6.901	0.100
99.600	-10.612	0.100
99.700	-6.867	0.100
99.800	-16.409	0.100
99.900	-8.118	0.100
100.000	-6.064	0.100
100.100	-6.437	0.100
100.200	-13.093	0.100
100.300	-15.203	0.100
100.400	-12.028	0.100
100.500	-8.297	0.100
100.600	-3.923	0.100
100.700	-6.240	0.100
100.800	-6.834	0.100
100.900	-7.707	0.100
101.000	-10.276	0.100
101.100	-5.894	0.100
101.200	-6.486	0.100
101.300	-16.954	0.100
101.400	-13.580	0.100
101.500	-11.528	0.100
101.600	-6.144	0.100
101.700	-5.247	0.100
101.800	-18.001	0.100
101.900	-15.531	0.100
102.000	-12.755	0.100
102.100	-21.096	0.100
102.200	-19.097	0.100
102.300	-12.256	0.100
102.400	-12.690	0.100
102.500	-15.993	0.100
102.600	-2.852	0.100
102.700	-3.682	0.100
102.800	-19.940	0.100
102.900	-15.754	0.100
103.000	-6.236	0.100
103.100	-14.626	0.100
103.200	-5.236	0.100
103.300	-10.299	0.100
103.400	-9.604	0.100
103.500	-16.277	0.100
103.600	-19.899	0.100
103.700	-9.670	0.100
103.800	-15.291	0.100
103.900	-9.579	0.100
104.000	-9.656	0.100
104.100	-10.370	0.100
104.200	-22.806	0.100
104.300	-25.937	0.100
104.400	-18.754	0.100
104.500	-19.771	0.100
104.600	-5.504	0.100
104.700	-21.541	0.100
104.800	-10.872	0.100
104.900	-18.868	0.100
105.000	-15.889	0.100
105.100	-20.063	0.100
105.200	-19.766	0.100
105.300	-22.319	0.100
105.400	-10.571	0.100
105.500	-7.697	0.100
105.600	-6.916	0.100
105.700	-9.815	0.100
105.800	-18.044	0.100
105.900	-16.452	0.100
106.000	-10.558	0.100
106.100	-11.269	0.100
106.200	-15.091	0.100
106.300	-12.928	0.100
106.400	-8.125	0.100
106.500	-12.263	0.100
106.600	-23.847	0.100
106.700	-18.143	0.100
106.800	-7.341	0.100
106.900	-16.941	0.100
107.000	-19.553	0.100
107.100	-17.996	0.100
107.200	-18.551	0.100
107.300	-18.758	0.100
107.400	-7.417	0.100
107.500	-13.044	0.100
107.600	-19.974	0.100
107.700	-26.263	0.100
107.800	-25.197	0.100
107.900	-25.092	0.100
108.000	-22.377	0.100
108.100	-20.184	0.100
108.200	-23.265	0.100
108.300	-21.336	0.100
108.400	-23.966	0.100
108.500	-25.871	0.100
108.600	-19.023	0.100
108.700	-18.969	0.100
108.800	-20.703	0.100
108.900	-24.561	0.100
109.000	-17.681	0.100
109.100	-21.381	0.100
109.200	-21.139	0.100
109.300	-18.424	0.100
109.400	-19.456	0.100
109.500	-18.476	0.100
109.600	-25.917	0.100
109.700	-18.934	0.100
109.800	-26.809	0.100
109.900	-19.290	0.100
110.000	-22.691	0.100
110.100	-14.706	0.100
110.200	-21.787	0.100
110.300	-28.335	0.100
110.400	-25.470	0.100
110.500	-21.576	0.100
110.600	-25.923	0.100
110.700	-21.465	0.100
110.800	-28.191	0.100
110.900	-16.313	0.100
111.000	-15.334	0.100
111.100	-19.526	0.100
111.200	-18.330	0.100
111.300	-17.773	0.100
111.400	-34.540	0.100
111.500	-19.326	0.100
111.600	-21.808	0.100
111.700	-17.686	0.100
111.800	-20.157	0.100
111.900	-23.569	0.100
112.000	-28.378	0.100
112.100	-23.295	0.100
112.200	-36.485	0.100
112.300	-24.551	0.100
112.400	-27.011	0.100
112.500	-16.730	0.100
112.600	-21.619	0.100
112.700	-26.975	0.100
112.800	-16.145	0.100
112.900	-13.083	0.100
113.000	-28.802	0.100
113.100	-23.541	0.100
113.200	-34.084	0.100
113.300	-20.832	0.100
113.400	-34.346	0.100
113.500	-21.881	0.100
113.600	-26.787	0.100
113.700	-27.539	0.100
113.800	-29.209	0.100
113.900	-29.479	0.100
114.000	-26.554	0.100
114.100	-22.146	0.100
114.200	-32.811	0.100
114.300	-24.528	0.100
114.400	-32.518	0.100
114.500	-14.681	0.100
114.600	-30.549	0.100
114.700	-30.961	0.100
114.800	-15.325	0.100
114.900	-27.663	0.100
115.000	-28.175	0.100
115.100	-23.897	0.100
115.200	-25.246	0.100
115.300	-23.781	0.100
115.400	-25.940	0.100
115.500	-23.027	0.100
115.600	-30.396	0.100
115.700	-29.191	0.100
115.800	-32.138	0.100
115.900	-26.022	0.100
116.000	-24.818	0.100
116.100	-25.269	0.100
116.200	-24.514	0.100
116.300	-23.081	0.100
116.400	-25.445	0.100
116.500	-27.505	0.100
116.600	-25.832	0.100
116.700	-32.100	0.100
116.800	-25.841	0.100
116.900	-24.423	0.100
117.000	-32.713	0.100
117.100	-25.474	0.100
117.200	-21.369	0.100
117.300	-25.913	0.100
117.400	-28.324	0.100
117.500	-23.105	0.100
117.600	-24.125	0.100
117.700	-23.702	0.100
117.800	-29.687	0.100
117.900	-29.671	0.100
118.000	-27.416	0.100
118.100	-35.544	0.100
118.200	-34.817	0.100
118.300	-36.165	0.100
118.400	-20.977	0.100
118.500	-24.259	0.100
118.600	-33.976	0.100
118.700	-38.619	0.100
118.800	-28.705	0.100
118.900	-23.607	0.100
119.000	-18.121	0.100
119.100	-29.454	0.100
119.200	-24.631	0.100
119.300	-28.610	0.100
119.400	-26.019	0.100
119.500	-35.772	0.100
119.600	-27.191	0.100
119.700	-25.311	0.100
119.800	-33.514	0.100
119.900	-30.366	0.100
120.000	-25.724	0.100
120.100	-32.952	0.100
120.200	-29.476	0.100
120.300	-23.733	0.100
120.400	-29.229	0.100
120.500	-37.502	0.100
120.600	-36.196	0.100
120.700	-35.233	0.100
120.800	-22.637	0.100
120.900	-20.883	0.100
121.000	-30.436	0.100
121.100	-15.756	0.100
121.200	-36.361	0.100
121.300	-24.762	0.100
121.400	-26.915	0.100
121.500	-31.445	0.100
121.600	-28.174	0.100
121.700	-24.137	0.100
121.800	-31.978	0.100
121.900	-25.733	0.100
122.000	-37.365	0.100
122.100	-27.873	0.100
122.200	-19.049	0.100
122.300	-26.669	0.100
122.400	-34.328	0.100
122.500	-31.978	0.100
122.600	-32.407	0.100
122.700	-32.254	0.100
122.800	-29.408	0.100
122.900	-31.781	0.100
123.000	-30.986	0.100
123.100	-32.597	0.100
123.200	-30.362	0.100
123.300	-34.254	0.100
123.400	-32.396	0.100
123.500	-26.776	0.100
123.600	-37.475	0.100
123.700	-29.554	0.100
123.800	-32.642	0.100
123.900	-36.326	0.100
124.000	-26.880	0.100
124.100	-25.108	0.100
124.200	-23.939	0.100
124.300	-28.416	0.100
124.400	-32.494	0.100
124.500	-23.684	0.100
124.600	-28.517	0.100
124.700	-29.640	0.100
124.800	-33.785	0.100
124.900	-25.986	0.100
125.000	-30.466	0.100
125.100	-34.363	0.100
125.200	-39.094	0.100
125.300	-31.414	0.100
125.400	-30.416	0.100
125.500	-34.592	0.100
125.600	-32.454	0.100
125.700	-34.485	0.100
125.800	-31.388	0.100
125.900	-30.423	0.100
126.000	-28.986	0.100
126.100	-34.079	0.100
126.200	-30.027	0.100
126.300	-29.503	0.100
126.400	-41.647	0.100
126.500	-32.007	0.100
126.600	-28.692	0.100
126.700	-33.217	0.100
126.800	-33.989	0.100
126.900	-20.193	0.100
127.000	-29.721	0.100
127.100	-35.848	0.100
127.200	-29.383	0.100
127.300	-33.211	0.100
127.400	-38.617	0.100
127.500	-26.093	0.100
127.600	-36.701	0.100
127.700	-26.216	0.100
127.800	-26.927	0.100
127.900	-26.730	0.100
128.000	-33.055	0.100
128.100	-35.134	0.100
128.200	-32.136	0.100
128.300	-36.149	0.100
128.400	-36.249	0.100
128.500	-31.906	0.100
128.600	-27.732	0.100
128.700	-31.813	0.100
128.800	-23.889	0.100
128.900	-29.034	0.100
129.000	-24.952	0.100
129.100	-29.072	0.100
129.200	-31.584	0.100
129.300	-30.745	0.100
129.400	-30.090	0.100
129.500	-39.929	0.100
129.600	-28.716	0.100
129.700	-29.020	0.100
129.800	-27.683	0.100
129.900	-31.781	0.100
130.000	-26.977	0.100
130.100	-33.565	0.100
130.200	-26.251	0.100
130.300	-29.519	0.100
130.400	-35.636	0.100
130.500	-35.544	0.100
130.600	-35.439	0.100
130.700	-23.835	0.100
130.800	-31.182	0.100
130.900	-31.888	0.100
131.000	-28.641	0.100
131.100	-35.355	0.100
131.200	-32.964	0.100
131.300	-33.202	0.100
131.400	-32.452	0.100
131.500	-38.131	0.100
131.600	-28.513	0.100
131.700	-31.975	0.100
131.800	-35.837	0.100
131.900	-30.344	0.100
132.000	-38.301	0.100
132.100	-37.943	0.100
132.200	-19.763	0.100
132.300	-34.118	0.100
132.400	-33.664	0.100
132.500	-37.691	0.100
132.600	-35.477	0.100
132.700	-29.595	0.100
132.800	-28.946	0.100
132.900	-29.704	0.100
133.000	-28.094	0.100
133.100	-23.741	0.100
133.200	-36.823	0.100
133.300	-33.136	0.100
133.400	-33.222	0.100
133.500	-27.178	0.100
133.600	-26.933	0.100
133.700	-26.480	0.100
133.800	-39.612	0.100
133.900	-32.956	0.100
134.000	-26.687	0.100
134.100	-34.623	0.100
134.200	-26.765	0.100
134.300	-38.554	0.100
134.400	-32.672	0.100
134.500	-27.646	0.100
134.600	-34.082	0.100
134.700	-33.203	0.100
134.800	-31.597	0.100
134.900	-23.491	0.100
135.000	-31.680	0.100
135.100	-26.723	0.100
135.200	-27.959	0.100
135.300	-33.009	0.100
135.400	-32.548	0.100
135.500	-37.645	0.100
135.600	-39.245	0.100
135.700	-27.492	0.100
135.800	-28.823	0.100
135.900	-26.072	0.100
136.000	-28.282	0.100
136.100	-29.521	0.100
136.200	-32.695	0.100
136.300	-42.296	0.100
136.400	-37.219	0.100
136.500	-23.530	0.100
136.600	-36.524	0.100
136.700	-38.873	0.100
136.800	-34.221	0.100
136.900	-33.981	0.100
137.000	-37.870	0.100
137.100	-34.133	0.100
137.200	-30.624	0.100
137.300	-34.834	0.100
137.400	-23.270	0.100
137.500	-27.793	0.100
137.600	-25.998	0.100
137.700	-31.823	0.100
137.800	-28.722	0.100
137.900	-43.483	0.100
138.000	-33.038	0.100
138.100	-31.033	0.100
138.200	-32.693	0.100
138.300	-33.142	0.100
138.400	-31.818	0.100
138.500	-28.908	0.100
138.600	-30.789	0.100
138.700	-23.621	0.100
138.800	-35.082	0.100
138.900	-29.613	0.100
139.000	-25.793	0.100
139.100	-30.687	0.100
139.200	-31.850	0.100
139.300	-32.652	0.100
139.400	-29.943	0.100
139.500	-28.035	0.100
139.600	-30.912	0.100
139.700	-22.204	0.100
139.800	-28.726	0.100
139.900	-34.131	0.100
140.000	-38.527	0.100
140.100	-28.736	0.100
140.200	-52.712	0.100
140.300	-42.298	0.100
140.400	-34.741	0.100
140.500	-27.956	0.100
140.600	-33.467	0.100
140.700	-28.927	0.100
140.800	-26.537	0.100
140.900	-27.324	0.100
141.000	-29.863	0.100
141.100	-31.191	0.100
141.200	-25.576	0.100
141.300	-31.711	0.100
141.400	-32.972	0.100
141.500	-30.778	0.100
141.600	-29.154	0.100
141.700	-36.771	0.100
141.800	-40.047	0.100
141.900	-36.242	0.100
142.000	-40.694	0.100
142.100	-27.699	0.100
142.200	-22.895	0.100
142.300	-28.980	0.100
142.400	-25.311	0.100
142.500	-35.979	0.100
142.600	-43.400	0.100
142.700	-33.150	0.100
142.800	-29.733	0.100
142.900	-32.467	0.100
143.000	-33.411	0.100
143.100	-18.838	0.100
143.200	-25.048	0.100
143.300	-32.801	0.100
143.400	-27.273	0.100
143.500	-41.511	0.100
143.600	-29.448	0.100
143.700	-40.718	0.100
143.800	-37.304	0.100
143.900	-32.119	0.100
144.000	-30.845	0.100
144.100	-35.131	0.100
144.200	-34.108	0.100
144.300	-23.062	0.100
144.400	-29.075	0.100
144.500	-24.643	0.100
144.600	-32.861	0.100
144.700	-31.907	0.100
144.800	-24.789	0.100
144.900	-38.105	0.100
145.000	-30.970	0.100
145.100	-22.576	0.100
145.200	-30.586	0.100
145.300	-25.815	0.100
145.400	-26.775	0.100
145.500	-37.259	0.100
145.600	-32.963	0.100
145.700	-37.394	0.100
145.800	-43.600	0.100
145.900	-30.558	0.100
146.000	-31.719	0.100
146.100	-36.598	0.100
146.200	-31.495	0.100
146.300	-17.179	0.100
146.400	-27.291	0.100
146.500	-28.989	0.100
146.600	-26.757	0.100
146.700	-29.052	0.100
146.800	-35.216	0.100
146.900	-29.907	0.100
147.000	-32.088	0.100
147.100	-38.117	0.100
147.200	-35.824	0.100
147.300	-35.602	0.100
147.400	-30.329	0.100
147.500	-22.796	0.100
147.600	-32.119	0.100
147.700	-37.155	0.100
147.800	-27.114	0.100
147.900	-34.469	0.100
148.000	-35.015	0.100
148.100	-27.105	0.100
148.200	-27.408	0.100
148.300	-29.071	0.100
148.400	-30.415	0.100
148.500	-43.707	0.100
148.600	-31.682	0.100
148.700	-25.620	0.100
148.800	-21.852	0.100
148.900	-31.626	0.100
149.000	-32.440	0.100
149.100	-38.571	0.100
149.200	-30.984	0.100
149.300	-34.143	0.100
149.400	-33.200	0.100
149.500	-32.823	0.100
149.600	-24.639	0.100
149.700	-23.705	0.100
149.800	-38.561	0.100
149.900	-37.319	0.100
150.000	-34.537	0.100
150.100	-23.887	0.100
150.200	-32.623	0.100
150.300	-32.766	0.100
150.400	-34.230	0.100
150.500	-32.555	0.100
150.600	-29.917	0.100
150.700	-29.969	0.100
150.800	-30.584	0.100
150.900	-29.207	0.100
151.000	-23.783	0.100
151.100	-27.911	0.100
151.200	-26.050	0.100
151.300	-35.904	0.100
151.400	-38.291	0.100
151.500	-27.219	0.100
151.600	-31.891	0.100
151.700	-31.982	0.100
151.800	-26.216	0.100
151.900	-29.809	0.100
152.000	-26.785	0.100
152.100	-25.651	0.100
152.200	-33.388	0.100
152.300	-24.363	0.100
152.400	-26.156	0.100
152.500	-37.039	0.100
152.600	-32.036	0.100
152.700	-28.450	0.100
152.800	-32.545	0.100
152.900	-28.046	0.100
153.000	-37.573	0.100
153.100	-34.629	0.100
153.200	-21.845	0.100
153.300	-23.711	0.100
153.400	-26.509	0.100
153.500	-32.931	0.100
153.600	-35.598	0.100
153.700	-33.968	0.100
153.800	-33.411	0.100
153.900	-34.763	0.100
154.000	-26.341	0.100
154.100	-24.916	0.100
154.200	-26.693	0.100
154.300	-38.292	0.100
154.400	-31.731	0.100
154.500	-26.598	0.100
154.600	-30.934	0.100
154.700	-29.928	0.100
154.800	-37.633	0.100
154.900	-25.957	0.100
155.000	-36.115	0.100
155.100	-31.086	0.100
155.200	-38.337	0.100
155.300	-34.390	0.100
155.400	-19.485	0.100
155.500	-31.797	0.100
155.600	-25.205	0.100
155.700	-29.506	0.100
155.800	-17.097	0.100
155.900	-20.750	0.100
156.000	-36.427	0.100
156.100	-24.495	0.100
156.200	-30.671	0.100
156.300	-29.810	0.100
156.400	-24.166	0.100
156.500	-33.280	0.100
156.600	-32.216	0.100
156.700	-31.292	0.100
156.800	-30.063	0.100
156.900	-31.009	0.100
157.000	-27.632	0.100
157.100	-44.538	0.100
157.200	-19.517	0.100
157.300	-28.511	0.100
157.400	-27.563	0.100
157.500	-33.514	0.100
157.600	-25.730	0.100
157.700	-38.247	0.100
157.800	-29.728	0.100
157.900	-25.900	0.100
158.000	-23.449	0.100
158.100	-27.808	0.100
158.200	-27.570	0.100
158.300	-28.273	0.100
158.400	-31.497	0.100
158.500	-25.720	0.100
158.600	-21.876	0.100
158.700	-35.147	0.100
158.800	-33.311	0.100
158.900	-28.140	0.100
159.000	-27.006	0.100
159.100	-32.188	0.100
159.200	-25.116	0.100
159.300	-27.494	0.100
159.400	-25.439	0.100
159.500	-30.536	0.100
159.600	-27.844	0.100
159.700	-26.872	0.100
159.800	-30.216	0.100
159.900	-24.018	0.100
160.000	-31.403	0.100
160.100	-24.043	0.100
160.200	-24.899	0.100
160.300	-27.900	0.100
160.400	-27.404	0.100
160.500	-36.294	0.100
160.600	-35.301	0.100
160.700	-25.997	0.100
160.800	-26.923	0.100
160.900	-31.060	0.100
161.000	-25.151	0.100
161.100	-25.178	0.100
161.200	-30.245	0.100
161.300	-26.972	0.100
161.400	-27.839	0.100
161.500	-30.784	0.100
161.600	-30.669	0.100
161.700	-27.675	0.100
161.800	-31.605	0.100
161.900	-29.848	0.100
162.000	-24.046	0.100
162.100	-31.603	0.100
162.200	-23.679	0.100
162.300	-31.026	0.100
162.400	-21.879	0.100
162.500	-24.903	0.100
162.600	-31.046	0.100
162.700	-24.538	0.100
162.800	-33.577	0.100
162.900	-37.119	0.100
163.000	-31.171	0.100
163.100	-24.311	0.100
163.200	-36.064	0.100
163.300	-34.994	0.100
163.400	-20.072	0.100
163.500	-23.128	0.100
163.600	-25.668	0.100
163.700	-32.160	0.100
163.800	-25.567	0.100
163.900	-28.337	0.100
164.000	-27.829	0.100
164.100	-27.281	0.100
164.200	-31.602	0.100
164.300	-28.102	0.100
164.400	-29.235	0.100
164.500	-24.807	0.100
164.600	-36.483	0.100
164.700	-36.022	0.100
164.800	-28.392	0.100
164.900	-30.523	0.100
165.000	-28.547	0.100
165.100	-20.308	0.100
165.200	-31.360	0.100
165.300	-33.000	0.100
165.400	-29.623	0.100
165.500	-19.493	0.100
165.600	-28.951	0.100
165.700	-25.371	0.100
165.800	-28.008	0.100
165.900	-24.682	0.100
166.000	-24.115	0.100
166.100	-31.814	0.100
166.200	-23.682	0.100
166.300	-36.660	0.100
166.400	-27.371	0.100
166.500	-37.359	0.100
166.600	-29.652	0.100
166.700	-26.691	0.100
166.800	-34.979	0.100
166.900	-25.718	0.100
167.000	-15.338	0.100
167.100	-22.768	0.100
167.200	-24.284	0.100
167.300	-32.631	0.100
167.400	-33.110	0.100
167.500	-30.435	0.100
167.600	-28.032	0.100
167.700	-20.666	0.100
167.800	-30.736	0.100
167.900	-28.075	0.100
168.000	-32.923	0.100
168.100	-30.806	0.100
168.200	-20.369	0.100
168.300	-22.579	0.100
168.400	-25.815	0.100
168.500	-24.550	0.100
168.600	-24.202	0.100
168.700	-35.691	0.100
168.800	-29.960	0.100
168.900	-25.780	0.100
169.000	-21.949	0.100
169.100	-31.809	0.100
169.200	-35.593	0.100
169.300	-27.998	0.100
169.400	-20.810	0.100
169.500	-30.806	0.100
169.600	-29.635	0.100
169.700	-23.381	0.100
169.800	-23.815	0.100
169.900	-33.387	0.100
170.000	-21.881	0.100
170.100	-19.537	0.100
170.200	-31.318	0.100
170.300	-32.186	0.100
170.400	-23.947	0.100
170.500	-32.423	0.100
170.600	-35.726	0.100
170.700	-27.855	0.100
170.800	-31.416	0.100
170.900	-20.305	0.100
171.000	-32.805	0.100
171.100	-26.557	0.100
171.200	-25.720	0.100
171.300	-26.452	0.100
171.400	-32.643	0.100
171.500	-28.578	0.100
171.600	-26.630	0.100
171.700	-23.839	0.100
171.800	-19.854	0.100
171.900	-27.567	0.100
172.000	-29.689	0.100
172.100	-28.014	0.100
172.200	-32.152	0.100
172.300	-30.772	0.100
172.400	-33.542	0.100
172.500	-23.501	0.100
172.600	-24.646	0.100
172.700	-33.230	0.100
172.800	-28.224	0.100
172.900	-30.073	0.100
173.000	-27.779	0.100
173.100	-26.306	0.100
173.200	-25.219	0.100
173.300	-20.532	0.100
173.400	-30.826	0.100
173.500	-30.567	0.100
173.600	-32.699	0.100
173.700	-27.649	0.100
173.800	-21.782	0.100
173.900	-24.785	0.100
174.000	-26.653	0.100
174.100	-19.001	0.100
174.200	-31.934	0.100
174.300	-36.581	0.100
174.400	-27.584	0.100
174.500	-20.873	0.100
174.600	-16.129	0.100
174.700	-32.410	0.100
174.800	-25.130	0.100
174.900	-30.878	0.100
175.000	-24.426	0.100
175.100	-32.637	0.100
175.200	-26.644	0.100
175.300	-20.388	0.100
175.400	-20.450	0.100
175.500	-39.382	0.100
175.600	-31.674	0.100
175.700	-23.970	0.100
175.800	-24.785	0.100
175.900	-25.832	0.100
176.000	-35.820	0.100
176.100	-20.826	0.100
176.200	-37.140	0.100
176.300	-34.789	0.100
176.400	-21.803	0.100
176.500	-26.278	0.100
176.600	-24.389	0.100
176.700	-23.995	0.100
176.800	-35.596	0.100
176.900	-29.295	0.100
177.000	-31.470	0.100
177.100	-31.038	0.100
177.200	-24.702	0.100
177.300	-25.305	0.100
177.400	-24.584	0.100
177.500	-26.956	0.100
177.600	-26.884	0.100
177.700	-24.291	0.100
177.800	-27.424	0.100
177.900	-26.736	0.100
178.000	-25.769	0.100
178.100	-28.054	0.100
178.200	-24.644	0.100
178.300	-28.256	0.100
178.400	-23.530	0.100
178.500	-18.082	0.100
178.600	-28.449	0.100
178.700	-22.691	0.100
178.800	-22.129	0.100
178.900	-19.692	0.100
179.000	-27.354	0.100
179.100	-25.568	0.100
179.200	-37.056	0.100
179.300	-22.390	0.100
179.400	-24.052	0.100
179.500	-20.455	0.100
179.600	-28.444	0.100
179.700	-31.903	0.100
179.800	-27.546	0.100
179.900	-26.316	0.100
180.000	-20.594	0.100
180.100	-19.706	0.100
180.200	-16.767	0.100
180.300	-23.612	0.100
180.400	-16.520	0.100
180.500	-23.486	0.100
180.600	-13.880	0.100
180.700	-13.640	0.100
180.800	-8.210	0.100
180.900	-16.158	0.100
181.000	-9.428	0.100
181.100	-20.434	0.100
181.200	-13.859	0.100
181.300	-17.524	0.100
181.400	-6.476	0.100
181.500	-6.326	0.100
181.600	-3.457	0.100
181.700	-10.649	0.100
181.800	-7.387	0.100
181.900	-8.173	0.100
182.000	-1.819	0.100
182.100	9.063	0.100
182.200	7.398	0.100
182.300	2.164	0.100
182.400	-0.267	0.100
182.500	1.063	0.100
182.600	5.744	0.100
182.700	6.198	0.100
182.800	10.199	0.100
182.900	14.269	0.100
183.000	4.084	0.100
183.100	0.994	0.100
183.200	4.187	0.100
183.300	10.098	0.100
183.400	1.085	0.100
183.500	8.501	0.100
183.600	0.102	0.100
183.700	3.928	0.100
183.800	2.383	0.100
183.900	7.708	0.100
184.000	5.246	0.100
184.100	8.269	0.100
184.200	11.614	0.100
184.300	8.263	0.100
184.400	15.942	0.100
184.500	8.863	0.100
184.600	-1.180	0.100
184.700	-0.104	0.100
184.800	15.688	0.100
184.900	15.022	0.100
185.000	9.979	0.100
185.100	6.865	0.100
185.200	5.981	0.100
185.300	8.785	0.100
185.400	12.850	0.100
185.500	8.682	0.100
185.600	1.874	0.100
185.700	8.837	0.100
185.800	-1.038	0.100
185.900	11.007	0.100
186.000	8.233	0.100
186.100	16.197	0.100
186.200	5.214	0.100
186.300	6.543	0.100
186.400	13.697	0.100
186.500	5.463	0.100
186.600	4.671	0.100
186.700	2.148	0.100
186.800	6.183	0.100
186.900	-1.729	0.100
187.000	9.838	0.100
187.100	16.693	0.100
187.200	2.433	0.100
187.300	7.486	0.100
187.400	13.748	0.100
187.500	17.781	0.100
187.600	11.773	0.100
187.700	12.720	0.100
187.800	1.666	0.100
187.900	5.754	0.100
188.000	11.799	0.100
188.100	8.359	0.100
188.200	9.400	0.100
188.300	6.069	0.100
188.400	12.598	0.100
188.500	4.108	0.100
188.600	-1.719	0.100
188.700	6.064	0.100
188.800	10.594	0.100
188.900	14.055	0.100
189.000	1.877	0.100
189.100	8.153	0.100
189.200	12.165	0.100
189.300	13.042	0.100
189.400	10.980	0.100
189.500	0.123	0.100
189.600	4.733	0.100
189.700	10.367	0.100
189.800	12.935	0.100
189.900	12.043	0.100
190.000	17.489	0.100
190.100	12.763	0.100
190.200	2.352	0.100
190.300	10.034	0.100
190.400	1.468	0.100
190.500	9.735	0.100
190.600	4.617	0.100
190.700	11.936	0.100
190.800	11.488	0.100
190.900	10.795	0.100
191.000	11.432	0.100
191.100	1.110	0.100
191.200	13.036	0.100
191.300	2.778	0.100
191.400	6.287	0.100
191.500	17.025	0.100
191.600	6.808	0.100
191.700	17.168	0.100
191.800	11.559	0.100
191.900	5.458	0.100
192.000	7.008	0.100
192.100	5.039	0.100
192.200	7.913	0.100
192.300	12.985	0.100
192.400	5.596	0.100
192.500	14.603	0.100
192.600	12.892	0.100
192.700	4.726	0.100
192.800	7.828	0.100
192.900	2.577	0.100
193.000	17.600	0.100
193.100	10.238	0.100
193.200	9.102	0.100
193.300	10.235	0.100
193.400	8.895	0.100
193.500	7.973	0.100
193.600	4.692	0.100
193.700	14.387	0.100
193.800	10.189	0.100
193.900	4.750	0.100
194.000	14.683	0.100
194.100	9.139	0.100
194.200	12.058	0.100
194.300	14.403	0.100
194.400	20.662	0.100
194.500	12.643	0.100
194.600	10.628	0.100
194.700	6.629	0.100
194.800	9.585	0.100
194.900	15.636	0.100
195.000	8.130	0.100
195.100	4.049	0.100
195.200	12.142	0.100
195.300	7.717	0.100
195.400	8.709	0.100
195.500	20.857	0.100
195.600	19.054	0.100
195.700	12.222	0.100
195.800	20.566	0.100
195.900	7.900	0.100
196.000	13.271	0.100
196.100	16.016	0.100
196.200	16.623	0.100
196.300	15.767	0.100
196.400	5.674	0.100
196.500	6.297	0.100
196.600	13.280	0.100
196.700	9.598	0.100
196.800	15.065	0.100
196.900	10.935	0.100
197.000	14.755	0.100
197.100	15.413	0.100
197.200	14.457	0.100
197.300	16.810	0.100
197.400	11.096	0.100
197.500	13.598	0.100
197.600	14.680	0.100
197.700	19.725	0.100
197.800	14.292	0.100
197.900	6.278	0.100
198.000	14.142	0.100
198.100	12.269	0.100
198.200	22.126	0.100
198.300	8.464	0.100
198.400	20.405	0.100
198.500	21.037	0.100
198.600	12.148	0.100
198.700	15.257	0.100
198.800	23.627	0.100
198.900	17.294	0.100
199.000	13.626	0.100
199.100	9.028	0.100
199.200	21.146	0.100
199.300	10.645	0.100
199.400	19.029	0.100
199.500	18.041	0.100
199.600	27.161	0.100
199.700	14.390	0.100
199.800	12.424	0.100
199.900	20.277	0.100
200.000	17.879	0.100
200.100	19.952	0.100
200.200	22.293	0.100
200.300	12.025	0.100
200.400	11.834	0.100
200.500	15.892	0.100
200.600	13.718	0.100
200.700	14.231	0.100
200.800	17.946	0.100
200.900	15.206	0.100
201.000	14.936	0.100
201.100	26.254	0.100
201.200	24.484	0.100
201.300	17.961	0.100
201.400	16.787	0.100
201.500	9.062	0.100
201.600	17.584	0.100
201.700	22.981	0.100
201.800	30.783	0.100
201.900	12.271	0.100
202.000	15.026	0.100
202.100	17.514	0.100
202.200	27.751	0.100
202.300	13.202	0.100
202.400	28.822	0.100
202.500	14.718	0.100
202.600	21.811	0.100
202.700	21.034	0.100
202.800	23.820	0.100
202.900	18.715	0.100
203.000	19.516	0.100
203.100	21.044	0.100
203.200	18.754	0.100
203.300	20.997	0.100
203.400	11.515	0.100
203.500	23.049	0.100
203.600	27.529	0.100
203.700	25.509	0.100
203.800	14.518	0.100
203.900	19.180	0.100
204.000	16.788	0.100
204.100	21.529	0.100
204.200	16.417	0.100
204.300	21.396	0.100
204.400	17.379	0.100
204.500	18.967	0.100
204.600	20.973	0.100
204.700	24.022	0.100
204.800	25.074	0.100
204.900	30.210	0.100
205.000	16.208	0.100
205.100	23.446	0.100
205.200	21.953	0.100
205.300	18.322	0.100
205.400	12.911	0.100
205.500	21.343	0.100
205.600	17.684	0.100
205.700	16.602	0.100
205.800	25.830	0.100
205.900	28.922	0.100
206.000	29.174	0.100
206.100	26.470	0.100
206.200	23.795	0.100
206.300	24.396	0.100
206.400	17.986	0.100
206.500	23.608	0.100
206.600	25.699	0.100
206.700	16.057	0.100
206.800	23.077	0.100
206.900	27.325	0.100
207.000	16.957	0.100
207.100	23.688	0.100
207.200	18.471	0.100
207.300	21.939	0.100
207.400	23.005	0.100
207.500	26.231	0.100
207.600	16.714	0.100
207.700	20.624	0.100
207.800	21.578	0.100
207.900	25.549	0.100
208.000	31.140	0.100
208.100	21.934	0.100
208.200	18.628	0.100
208.300	30.713	0.100
208.400	22.797	0.100
208.500	22.609	0.100
208.600	25.827	0.100
208.700	32.013	0.100
208.800	27.319	0.100
208.900	22.654	0.100
209.000	24.154	0.100
209.100	19.076	0.100
209.200	23.079	0.100
209.300	32.707	0.100
209.400	30.878	0.100
209.500	25.092	0.100
209.600	25.693	0.100
209.700	19.143	0.100
209.800	17.243	0.100
209.900	20.839	0.100
210.000	29.189	0.100
210.100	22.967	0.100
210.200	20.738	0.100
210.300	21.462	0.100
210.400	22.797	0.100
210.500	21.240	0.100
210.600	28.087	0.100
210.700	23.193	0.100
210.800	30.310	0.100
210.900	16.933	0.100
211.000	20.614	0.100
211.100	17.638	0.100
211.200	14.001	0.100
211.300	24.762	0.100
211.400	32.664	0.100
211.500	28.147	0.100
211.600	24.687	0.100
211.700	30.003	0.100
211.800	21.118	0.100
211.900	21.792	0.100
212.000	24.367	0.100
212.100	24.021	0.100
212.200	28.555	0.100
212.300	26.885	0.100
212.400	31.046	0.100
212.500	23.198	0.100
212.600	30.611	0.100
212.700	28.466	0.100
212.800	34.328	0.100
212.900	30.981	0.100
213.000	17.615	0.100
213.100	24.198	0.100
213.200	26.599	0.100
213.300	17.698	0.100
213.400	15.490	0.100
213.500	26.083	0.100
213.600	30.964	0.100
213.700	32.884	0.100
213.800	34.739	0.100
213.900	31.067	0.100
214.000	20.328	0.100
214.100	32.128	0.100
214.200	33.024	0.100
214.300	20.226	0.100
214.400	25.357	0.100
214.500	27.605	0.100
214.600	25.027	0.100
214.700	26.715	0.100
214.800	21.021	0.100
214.900	23.233	0.100
215.000	22.511	0.100
215.100	24.403	0.100
215.200	27.362	0.100
215.300	27.807	0.100
215.400	21.470	0.100
215.500	36.658	0.100
215.600	28.713	0.100
215.700	18.278	0.100
215.800	24.636	0.100
215.900	22.530	0.100
216.000	29.718	0.100
216.100	23.721	0.100
216.200	24.049	0.100
216.300	24.442	0.100
216.400	20.515	0.100
216.500	26.040	0.100
216.600	26.210	0.100
216.700	29.269	0.100
216.800	29.048	0.100
216.900	27.441	0.100
217.000	32.790	0.100
217.100	19.612	0.100
217.200	28.788	0.100
217.300	29.843	0.100
217.400	25.268	0.100
217.500	27.661	0.100
217.600	30.426	0.100
217.700	27.442	0.100
217.800	22.067	0.100
217.900	33.482	0.100
218.000	28.486	0.100
218.100	17.355	0.100
218.200	22.505	0.100
218.300	20.319	0.100
218.400	32.287	0.100
218.500	18.630	0.100
218.600	26.695	0.100
218.700	19.318	0.100
218.800	24.823	0.100
218.900	20.581	0.100
219.000	28.980	0.100
219.100	40.545	0.100
219.200	22.151	0.100
219.300	29.780	0.100
219.400	25.343	0.100
219.500	21.963	0.100
219.600	24.805	0.100
219.700	31.097	0.100
219.800	28.294	0.100
219.900	27.105	0.100
220.000	28.461	0.100
220.100	33.593	0.100
220.200	24.705	0.100
220.300	22.314	0.100
220.400	29.890	0.100
220.500	21.127	0.100
220.600	29.107	0.100
220.700	25.465	0.100
220.800	34.765	0.100
220.900	24.769	0.100
221.000	21.442	0.100
221.100	21.513	0.100
221.200	32.201	0.100
221.300	29.529	0.100
221.400	28.074	0.100
221.500	36.819	0.100
221.600	36.439	0.100
221.700	32.031	0.100
221.800	25.665	0.100
221.900	26.997	0.100
222.000	37.635	0.100
222.100	23.013	0.100
222.200	29.629	0.100
222.300	17.397	0.100
222.400	18.821	0.100
222.500	33.018	0.100
222.600	25.603	0.100
222.700	25.416	0.100
222.800	27.419	0.100
222.900	26.146	0.100
223.000	26.441	0.100
223.100	21.452	0.100
223.200	24.210	0.100
223.300	37.384	0.100
223.400	31.131	0.100
223.500	24.125	0.100
223.600	33.547	0.100
223.700	24.994	0.100
223.800	18.900	0.100
223.900	29.686	0.100
224.000	22.061	0.100
224.100	16.527	0.100
224.200	23.510	0.100
224.300	23.321	0.100
224.400	13.249	0.100
224.500	27.837	0.100
224.600	24.585	0.100
224.700	31.667	0.100
224.800	27.960	0.100
224.900	23.222	0.100
225.000	25.041	0.100
225.100	28.006	0.100
225.200	28.785	0.100
225.300	17.169	0.100
225.400	22.553	0.100
225.500	26.532	0.100
225.600	20.963	0.100
225.700	26.868	0.100
225.800	15.679	0.100
225.900	28.180	0.100
226.000	19.508	0.100
226.100	17.685	0.100
226.200	34.708	0.100
226.300	20.974	0.100
226.400	23.737	0.100
226.500	23.270	0.100
226.600	25.683	0.100
226.700	21.493	0.100
226.800	21.380	0.100
226.900	29.640	0.100
227.000	25.288	0.100
227.100	23.099	0.100
227.200	17.790	0.100
227.300	24.098	0.100
227.400	32.992	0.100
227.500	30.898	0.100
227.600	28.830	0.100
227.700	36.999	0.100
227.800	27.162	0.100
227.900	17.022	0.100
228.000	23.077	0.100
228.100	26.997	0.100
228.200	15.615	0.100
228.300	18.905	0.100
228.400	30.751	0.100
228.500	30.202	0.100
228.600	21.399	0.100
228.700	27.808	0.100
228.800	23.825	0.100
228.900	16.693	0.100
229.000	20.332	0.100
229.100	30.543	0.100
229.200	35.104	0.100
229.300	30.798	0.100
229.400	30.196	0.100
229.500	26.017	0.100
229.600	14.684	0.100
229.700	27.149	0.100
229.800	31.400	0.100
229.900	32.655	0.100
230.000	29.806	0.100
230.100	19.192	0.100
230.200	22.503	0.100
230.300	25.806	0.100
230.400	26.178	0.100
230.500	26.689	0.100
230.600	27.359	0.100
230.700	21.689	0.100
230.800	23.034	0.100
230.900	32.331	0.100
231.000	23.343	0.100
231.100	18.500	0.100
231.200	14.086	0.100
231.300	20.763	0.100
231.400	24.145	0.100
231.500	23.410	0.100
231.600	22.010	0.100
231.700	24.801	0.100
231.800	29.434	0.100
231.900	37.649	0.100
232.000	23.429	0.100
232.100	22.676	0.100
232.200	20.889	0.100
232.300	23.148	0.100
232.400	24.687	0.100
232.500	28.161	0.100
232.600	33.348	0.100
232.700	12.063	0.100
232.800	19.573	0.100
232.900	19.401	0.100
233.000	24.731	0.100
233.100	15.557	0.100
233.200	26.758	0.100
233.300	23.616	0.100
233.400	28.148	0.100
233.500	28.855	0.100
233.600	23.276	0.100
233.700	23.835	0.100
233.800	32.661	0.100
233.900	33.590	0.100
234.000	34.979	0.100
234.100	32.286	0.100
234.200	24.802	0.100
234.300	23.412	0.100
234.400	22.060	0.100
234.500	22.457	0.100
234.600	28.461	0.100
234.700	24.849	0.100
234.800	26.400	0.100
234.900	23.868	0.100
235.000	25.754	0.100
235.100	22.225	0.100
235.200	23.762	0.100
235.300	30.329	0.100
235.400	25.323	0.100
235.500	19.969	0.100
235.600	26.541	0.100
235.700	26.298	0.100
235.800	24.319	0.100
235.900	28.616	0.100
236.000	23.933	0.100
236.100	23.941	0.100
236.200	26.216	0.100
236.300	18.335	0.100
236.400	27.418	0.100
236.500	29.140	0.100
236.600	25.228	0.100
236.700	24.866	0.100
236.800	24.083	0.100
236.900	23.698	0.100
237.000	24.973	0.100
237.100	24.675	0.100
237.200	24.230	0.100
237.300	23.219	0.100
237.400	23.817	0.100
237.500	29.389	0.100
237.600	24.734	0.100
237.700	33.823	0.100
237.800	14.319	0.100
237.900	19.975	0.100
238.000	13.801	0.100
238.100	28.478	0.100
238.200	34.414	0.100
238.300	28.973	0.100
238.400	33.541	0.100
238.500	23.404	0.100
238.600	29.768	0.100
238.700	19.695	0.100
238.800	23.281	0.100
238.900	16.968	0.100
239.000	21.529	0.100
239.100	22.980	0.100
239.200	27.307	0.100
239.300	23.839	0.100
239.400	27.873	0.100
239.500	22.800	0.100
239.600	29.387	0.100
239.700	30.505	0.100
239.800	20.895	0.100
239.900	28.391	0.100
240.000	20.558	0.100
240.100	9.771	0.100
240.200	16.880	0.100
240.300	19.680	0.100
240.400	24.128	0.100
240.500	19.219	0.100
240.600	15.691	0.100
240.700	17.305	0.100
240.800	9.664	0.100
240.900	13.492	0.100
241.000	15.380	0.100
241.100	20.536	0.100
241.200	10.539	0.100
241.300	5.024	0.100
241.400	7.004	0.100
241.500	4.474	0.100
241.600	11.674	0.100
241.700	14.207	0.100
241.800	4.931	0.100
241.900	13.189	0.100
242.000	3.880	0.100
242.100	9.112	0.100
242.200	1.111	0.100
242.300	5.133	0.100
242.400	2.799	0.100
242.500	-0.842	0.100
242.600	4.379	0.100
242.700	1.751	0.100
242.800	0.079	0.100
242.900	0.544	0.100
243.000	-2.955	0.100
243.100	2.372	0.100
243.200	-6.608	0.100
243.300	5.836	0.100
243.400	14.195	0.100
243.500	2.880	0.100
243.600	2.157	0.100
243.700	-2.225	0.100
243.800	0.551	0.100
243.900	-0.281	0.100
244.000	1.806	0.100
244.100	-5.023	0.100
244.200	-3.149	0.100
244.300	-0.999	0.100
244.400	-3.235	0.100
244.500	12.509	0.100
244.600	0.203	0.100
244.700	-3.876	0.100
244.800	1.673	0.100
244.900	1.437	0.100
245.000	3.924	0.100
245.100	-2.894	0.100
245.200	5.730	0.100
245.300	2.272	0.100
245.400	-1.532	0.100
245.500	-3.502	0.100
245.600	-0.937	0.100
245.700	2.081	0.100
245.800	-1.370	0.100
245.900	-4.710	0.100
246.000	-9.062	0.100
246.100	-5.803	0.100
246.200	-7.947	0.100
246.300	4.680	0.100
246.400	-3.621	0.100
246.500	-2.759	0.100
246.600	-0.720	0.100
246.700	-7.794	0.100
246.800	-3.223	0.100
246.900	9.340	0.100
247.000	-9.769	0.100
247.100	-9.908	0.100
247.200	-9.081	0.100
247.300	-0.053	0.100
247.400	7.396	0.100
247.500	-5.546	0.100
247.600	-0.877	0.100
247.700	-1.899	0.100
247.800	-8.981	0.100
247.900	-7.988	0.100
248.000	1.705	0.100
248.100	5.829	0.100
248.200	-1.119	0.100
248.300	1.904	0.100
248.400	-6.618	0.100
248.500	-6.857	0.100
248.600	0.225	0.100
248.700	-7.702	0.100
248.800	-6.823	0.100
248.900	-8.948	0.100
249.000	-0.478	0.100
249.100	-3.177	0.100
249.200	4.441	0.100
249.300	-6.323	0.100
249.400	2.200	0.100
249.500	-7.872	0.100
249.600	-7.604	0.100
249.700	-12.110	0.100
249.800	-0.043	0.100
249.900	-13.940	0.100
250.000	-10.228	0.100
250.100	-11.949	0.100
250.200	-4.225	0.100
250.300	-12.042	0.100
250.400	-14.102	0.100
250.500	-5.014	0.100
250.600	2.676	0.100
250.700	6.466	0.100
250.800	-2.614	0.100
250.900	4.972	0.100
251.000	-11.525	0.100
251.100	-18.383	0.100
251.200	-7.397	0.100
251.300	-14.261	0.100
251.400	-3.569	0.100
251.500	1.418	0.100
251.600	-6.185	0.100
251.700	-6.378	0.100
251.800	-1.975	0.100
251.900	-13.962	0.100
252.000	-9.030	0.100
252.100	-12.446	0.100
252.200	-7.692	0.100
252.300	-2.584	0.100
252.400	-6.249	0.100
252.500	-4.989	0.100
252.600	-18.806	0.100
252.700	-1.245	0.100
252.800	-2.179	0.100
252.900	-8.606	0.100
253.000	-6.177	0.100
253.100	-6.173	0.100
253.200	-14.384	0.100
253.300	-8.261	0.100
253.400	-6.960	0.100
253.500	-19.521	0.100
253.600	-13.648	0.100
253.700	-13.089	0.100
253.800	-1.564	0.100
253.900	-10.163	0.100
254.000	-6.030	0.100
254.100	-5.617	0.100
254.200	-20.485	0.100
254.300	-15.004	0.100
254.400	-14.879	0.100
254.500	-8.455	0.100
254.600	-0.259	0.100
254.700	-17.815	0.100
254.800	-5.653	0.100
254.900	-13.922	0.100
255.000	-10.818	0.100
255.100	-15.298	0.100
255.200	-4.471	0.100
255.300	-9.362	0.100
255.400	-15.545	0.100
255.500	-4.101	0.100
255.600	-6.770	0.100
255.700	-18.247	0.100
255.800	-6.988	0.100
255.900	-9.314	0.100
256.000	-11.995	0.100
256.100	-13.594	0.100
256.200	-13.974	0.100
256.300	-8.405	0.100
256.400	-18.907	0.100
256.500	-12.161	0.100
256.600	-9.326	0.100
256.700	-8.824	0.100
256.800	-20.265	0.100
256.900	-16.544	0.100
257.000	-11.911	0.100
257.100	-17.271	0.100
257.200	-11.950	0.100
257.300	-15.912	0.100
257.400	-12.109	0.100
257.500	-13.488	0.100
257.600	-18.848	0.100
257.700	-8.291	0.100
257.800	-13.773	0.100
257.900	-10.169	0.100
258.000	-11.881	0.100
258.100	-11.527	0.100
258.200	-17.371	0.100
258.300	-11.191	0.100
258.400	-13.425	0.100
258.500	-21.604	0.100
258.600	-14.749	0.100
258.700	-21.456	0.100
258.800	-11.806	0.100
258.900	-17.712	0.100
259.000	-7.803	0.100
259.100	-12.596	0.100
259.200	-5.521	0.100
259.300	-5.127	0.100
259.400	-14.273	0.100
259.500	-16.457	0.100
259.600	-13.463	0.100
259.700	-11.000	0.100
259.800	-9.748	0.100
259.900	-21.681	0.100
260.000	-18.073	0.100
260.100	-4.995	0.100
260.200	-13.365	0.100
260.300	-17.181	0.100
260.400	-13.889	0.100
260.500	-7.787	0.100
260.600	-16.475	0.100
260.700	-13.786	0.100
260.800	-10.278	0.100
260.900	-7.446	0.100
261.000	-1.152	0.100
261.100	-11.222	0.100
261.200	-17.048	0.100
261.300	-11.938	0.100
261.400	-17.425	0.100
261.500	-7.121	0.100
261.600	-9.357	0.100
261.700	-11.072	0.100
261.800	-14.393	0.100
261.900	-6.929	0.100
262.000	1.204	0.100
262.100	-15.376	0.100
262.200	-15.542	0.100
262.300	-11.177	0.100
262.400	-14.174	0.100
262.500	-18.591	0.100
262.600	-14.406	0.100
262.700	-15.741	0.100
262.800	-14.720	0.100
262.900	-17.550	0.100
263.000	-22.840	0.100
263.100	-17.787	0.100
263.200	-12.589	0.100
263.300	-12.994	0.100
263.400	-16.551	0.100
263.500	-17.858	0.100
263.600	-16.071	0.100
263.700	-15.284	0.100
263.800	-22.041	0.100
263.900	-18.012	0.100
264.000	-19.894	0.100
264.100	-21.253	0.100
264.200	-13.568	0.100
264.300	-18.208	0.100
264.400	-17.760	0.100
264.500	-11.131	0.100
264.600	-21.561	0.100
264.700	-20.284	0.100
264.800	-20.678	0.100
264.900	-18.944	0.100
265.000	-15.406	0.100
265.100	-23.060	0.100
265.200	-24.863	0.100
265.300	-24.919	0.100
265.400	-23.240	0.100
265.500	-22.258	0.100
265.600	-15.917	0.100
265.700	-20.524	0.100
265.800	-24.720	0.100
265.900	-17.801	0.100
266.000	-24.703	0.100
266.100	-25.367	0.100
266.200	-27.788	0.100
266.300	-34.052	0.100
266.400	-30.946	0.100
266.500	-21.018	0.100
266.600	-24.730	0.100
266.700	-21.974	0.100
266.800	-26.903	0.100
266.900	-22.435	0.100
267.000	-23.354	0.100
267.100	-19.165	0.100
267.200	-14.346	0.100
267.300	-20.111	0.100
267.400	-21.545	0.100
267.500	-25.674	0.100
267.600	-24.085	0.100
267.700	-19.959	0.100
267.800	-22.455	0.100
267.900	-26.218	0.100
268.000	-18.524	0.100
268.100	-23.700	0.100
268.200	-25.710	0.100
268.300	-19.201	0.100
268.400	-28.921	0.100
268.500	-28.521	0.100
268.600	-20.117	0.100
268.700	-30.001	0.100
268.800	-11.613	0.100
268.900	-20.376	0.100
269.000	-20.655	0.100
269.100	-24.145	0.100
269.200	-23.829	0.100
269.300	-14.142	0.100
269.400	-22.109	0.100
269.500	-30.300	0.100
269.600	-22.109	0.100
269.700	-29.623	0.100
269.800	-27.353	0.100
269.900	-30.878	0.100
270.000	-21.246	0.100
270.100	-26.857	0.100
270.200	-29.532	0.100
270.300	-26.490	0.100
270.400	-27.465	0.100
270.500	-33.656	0.100
270.600	-20.424	0.100
270.700	-31.194	0.100
270.800	-20.354	0.100
270.900	-23.161	0.100
271.000	-20.136	0.100
271.100	-21.717	0.100
271.200	-26.403	0.100
271.300	-25.877	0.100
271.400	-34.065	0.100
271.500	-32.258	0.100
271.600	-23.903	0.100
271.700	-31.706	0.100
271.800	-34.956	0.100
271.900	-37.161	0.100
272.000	-27.322	0.100
272.100	-24.008	0.100
272.200	-20.203	0.100
272.300	-27.497	0.100
272.400	-27.673	0.100
272.500	-27.079	0.100
272.600	-29.597	0.100
272.700	-21.228	0.100
272.800	-21.912	0.100
272.900	-23.076	0.100
273.000	-26.446	0.100
273.100	-19.194	0.100
273.200	-21.582	0.100
273.300	-33.212	0.100
273.400	-29.078	0.100
273.500	-33.422	0.100
273.600	-23.792	0.100
273.700	-30.416	0.100
273.800	-30.667	0.100
273.900	-28.241	0.100
274.000	-29.849	0.100
274.100	-26.017	0.100
274.200	-18.534	0.100
274.300	-24.393	0.100
274.400	-35.876	0.100
274.500	-30.555	0.100
274.600	-25.585	0.100
274.700	-26.824	0.100
274.800	-36.612	0.100
274.900	-21.894	0.100
275.000	-22.618	0.100
275.100	-28.962	0.100
275.200	-32.872	0.100
275.300	-40.522	0.100
275.400	-31.465	0.100
275.500	-29.806	0.100
275.600	-28.909	0.100
275.700	-33.190	0.100
275.800	-21.015	0.100
275.900	-21.837	0.100
276.000	-31.608	0.100
276.100	-35.132	0.100
276.200	-32.757	0.100
276.300	-23.396	0.100
276.400	-22.790	0.100
276.500	-26.690	0.100
276.600	-25.140	0.100
276.700	-24.095	0.100
276.800	-27.695	0.100
276.900	-27.786	0.100
277.000	-32.059	0.100
277.100	-34.793	0.100
277.200	-29.760	0.100
277.300	-34.862	0.100
277.400	-35.095	0.100
277.500	-33.271	0.100
277.600	-11.482	0.100
277.700	-20.811	0.100
277.800	-29.058	0.100
277.900	-33.162	0.100
278.000	-34.503	0.100
278.100	-33.494	0.100
278.200	-27.529	0.100
278.300	-27.935	0.100
278.400	-24.611	0.100
278.500	-31.624	0.100
278.600	-26.164	0.100
278.700	-29.150	0.100
278.800	-34.367	0.100
278.900	-29.494	0.100
279.000	-24.604	0.100
279.100	-36.900	0.100
279.200	-36.839	0.100
279.300	-34.692	0.100
279.400	-24.761	0.100
279.500	-21.456	0.100
279.600	-27.650	0.100
279.700	-37.473	0.100
279.800	-30.070	0.100
279.900	-31.343	0.100
280.000	-36.010	0.100
280.100	-31.048	0.100
280.200	-30.537	0.100
280.300	-28.648	0.100
280.400	-33.596	0.100
280.500	-28.729	0.100
280.600	-19.303	0.100
280.700	-24.258	0.100
280.800	-30.739	0.100
280.900	-32.742	0.100
281.000	-32.111	0.100
281.100	-22.434	0.100
281.200	-13.937	0.100
281.300	-31.298	0.100
281.400	-32.673	0.100
281.500	-34.133	0.100
281.600	-26.365	0.100
281.700	-34.032	0.100
281.800	-31.106	0.100
281.900	-38.134	0.100
282.000	-31.353	0.100
282.100	-36.055	0.100
282.200	-27.810	0.100
282.300	-28.041	0.100
282.400	-25.088	0.100
282.500	-33.880	0.100
282.600	-28.966	0.100
282.700	-33.683	0.100
282.800	-31.731	0.100
282.900	-36.136	0.100
283.000	-36.990	0.100
283.100	-27.365	0.100
283.200	-35.368	0.100
283.300	-26.997	0.100
283.400	-26.779	0.100
283.500	-31.783	0.100
283.600	-30.888	0.100
283.700	-32.008	0.100
283.800	-27.507	0.100
283.900	-29.277	0.100
284.000	-28.351	0.100
284.100	-28.474	0.100
284.200	-35.623	0.100
284.300	-28.698	0.100
284.400	-38.723	0.100
284.500	-35.992	0.100
284.600	-27.032	0.100
284.700	-33.562	0.100
284.800	-27.356	0.100
284.900	-26.219	0.100
285.000	-37.105	0.100
285.100	-23.754	0.100
285.200	-24.136	0.100
285.300	-29.327	0.100
285.400	-24.466	0.100
285.500	-29.839	0.100
285.600	-33.063	0.100
285.700	-32.034	0.100
285.800	-37.033	0.100
285.900	-33.157	0.100
286.000	-39.093	0.100
286.100	-38.063	0.100
286.200	-29.029	0.100
286.300	-12.665	0.100
286.400	-32.320	0.100
286.500	-31.499	0.100
286.600	-29.359	0.100
286.700	-24.988	0.100
286.800	-29.467	0.100
286.900	-30.886	0.100
287.000	-34.394	0.100
287.100	-19.355	0.100
287.200	-28.589	0.100
287.300	-37.143	0.100
287.400	-36.196	0.100
287.500	-32.435	0.100
287.600	-34.295	0.100
287.700	-31.892	0.100
287.800	-17.493	0.100
287.900	-22.500	0.100
288.000	-32.836	0.100
288.100	-31.683	0.100
288.200	-28.179	0.100
288.300	-23.594	0.100
288.400	-36.358	0.100
288.500	-32.197	0.100
288.600	-30.080	0.100
288.700	-28.020	0.100
288.800	-32.731	0.100
288.900	-34.255	0.100
289.000	-37.383	0.100
289.100	-25.550	0.100
289.200	-26.940	0.100
289.300	-36.095	0.100
289.400	-34.818	0.100
289.500	-32.745	0.100
289.600	-28.921	0.100
289.700	-25.575	0.100
289.800	-35.097	0.100
289.900	-20.525	0.100
290.000	-28.758	0.100
290.100	-33.346	0.100
290.200	-27.514	0.100
290.300	-28.039	0.100
290.400	-23.911	0.100
290.500	-25.909	0.100
290.600	-24.619	0.100
290.700	-21.001	0.100
290.800	-34.352	0.100
290.900	-29.944	0.100
291.000	-27.226	0.100
291.100	-35.267	0.100
291.200	-23.252	0.100
291.300	-30.224	0.100
291.400	-38.328	0.100
291.500	-29.320	0.100
291.600	-30.473	0.100
291.700	-30.437	0.100
291.800	-26.222	0.100
291.900	-27.014	0.100
292.000	-27.798	0.100
292.100	-25.896	0.100
292.200	-35.198	0.100
292.300	-27.631	0.100
292.400	-24.675	0.100
292.500	-34.957	0.100
292.600	-34.899	0.100
292.700	-25.995	0.100
292.800	-26.896	0.100
292.900	-23.178	0.100
293.000	-24.651	0.100
293.100	-40.726	0.100
293.200	-26.693	0.100
293.300	-23.781	0.100
293.400	-26.937	0.100
293.500	-32.549	0.100
293.600	-32.895	0.100
293.700	-24.344	0.100
293.800	-21.692	0.100
293.900	-33.436	0.100
294.000	-35.707	0.100
294.100	-27.484	0.100
294.200	-31.327	0.100
294.300	-39.917	0.100
294.400	-26.721	0.100
294.500	-34.607	0.100
294.600	-32.184	0.100
294.700	-23.823	0.100
294.800	-26.349	0.100
294.900	-28.719	0.100
295.000	-37.707	0.100
295.100	-29.075	0.100
295.200	-27.258	0.100
295.300	-27.737	0.100
295.400	-28.308	0.100
295.500	-22.455	0.100
295.600	-28.229	0.101
295.700	-18.924	0.101
295.800	-21.013	0.101
295.900	-33.902	0.101
296.000	-35.281	0.101
296.100	-31.651	0.101
296.200	-23.710	0.101
296.300	-25.068	0.101
296.400	-28.658	0.101
296.500	-29.240	0.101
296.600	-26.825	0.101
296.700	-27.616	0.101
296.800	-32.179	0.101
296.900	-34.423	0.101
297.000	-29.067	0.101
297.100	-25.661	0.101
297.200	-28.734	0.101
297.300	-30.790	0.101
297.400	-25.308	0.101
297.500	-25.204	0.101
297.600	-21.208	0.101
297.700	-32.013	0.101
297.800	-27.625	0.101
297.900	-31.476	0.101
298.000	-28.530	0.101
298.100	-34.266	0.101
298.200	-20.195	0.101
298.300	-26.322	0.101
298.400	-27.167	0.101
298.500	-37.472	0.101
298.600	-34.259	0.101
298.700	-20.464	0.101
298.800	-26.729	0.101
298.900	-28.577	0.101
299.000	-33.446	0.101
299.100	-23.321	0.101
299.200	-22.633	0.101
299.300	-38.791	0.101
299.400	-27.151	0.101
299.500	-16.391	0.101
299.600	-36.653	0.101
299.700	-33.312	0.101
299.800	-26.237	0.101
299.900	-40.910	0.101
300.000	-26.562	0.101
300.100	-30.648	0.101
300.200	-17.621	0.101
300.300	-22.210	0.101
300.400	-21.353	0.101
300.500	-26.814	0.101
300.600	-29.992	0.101
300.700	-21.090	0.101
300.800	-24.682	0.101
300.900	-31.925	0.101
301.000	-20.975	0.101
301.100	-33.024	0.101
301.200	-24.461	0.101
301.300	-18.959	0.101
301.400	-13.823	0.101
301.500	-19.539	0.101
301.600	-32.273	0.101
301.700	-22.963	0.101
301.800	-26.387	0.101
301.900	-33.936	0.101
302.000	-31.791	0.101
302.100	-28.212	0.101
302.200	-30.532	0.101
302.300	-24.423	0.101
302.400	-35.374	0.101
302.500	-22.564	0.101
302.600	-24.941	0.101
302.700	-26.240	0.101
302.800	-31.078	0.101
302.900	-15.374	0.101
303.000	-28.352	0.101
303.100	-25.062	0.101
303.200	-27.429	0.101
303.300	-31.111	0.101
303.400	-24.072	0.101
303.500	-30.483	0.101
303.600	-26.253	0.101
303.700	-29.512	0.101
303.800	-23.035	0.101
303.900	-16.915	0.101
304.000	-20.155	0.101
304.100	-33.105	0.101
304.200	-28.700	0.101
304.300	-29.000	0.101
304.400	-30.354	0.101
304.500	-26.133	0.101
304.600	-20.540	0.101
304.700	-23.099	0.101
304.800	-20.318	0.101
304.900	-25.202	0.101
305.000	-27.772	0.101
305.100	-25.250	0.101
305.200	-23.974	0.101
305.300	-23.767	0.101
305.400	-19.374	0.101
305.500	-29.099	0.101
305.600	-17.683	0.101
305.700	-22.765	0.101
305.800	-27.940	0.101
305.900	-23.132	0.101
306.000	-26.409	0.101
306.100	-32.590	0.101
306.200	-18.218	0.101
306.300	-28.065	0.101
306.400	-25.832	0.101
306.500	-24.168	0.101
306.600	-22.825	0.101
306.700	-28.016	0.101
306.800	-28.381	0.101
306.900	-23.301	0.101
307.000	-19.271	0.101
307.100	-35.729	0.101
307.200	-32.512	0.101
307.300	-29.537	0.101
307.400	-28.445	0.101
307.500	-25.166	0.101
307.600	-18.583	0.101
307.700	-31.171	0.101
307.800	-28.011	0.101
307.900	-30.273	0.101
308.000	-24.412	0.101
308.100	-36.377	0.101
308.200	-24.221	0.101
308.300	-8.664	0.101
308.400	-27.033	0.101
308.500	-24.457	0.101
308.600	-17.836	0.101
308.700	-24.377	0.101
308.800	-17.768	0.101
308.900	-21.514	0.101
309.000	-24.819	0.101
309.100	-30.720	0.101
309.200	-29.893	0.101
309.300	-27.125	0.101
309.400	-30.847	0.101
309.500	-30.672	0.101
309.600	-24.068	0.101
309.700	-31.424	0.101
309.800	-15.717	0.101
309.900	-18.745	0.101
310.000	-19.979	0.101
310.100	-28.047	0.101
310.200	-23.046	0.101
310.300	-28.879	0.101
310.400	-26.348	0.101
310.500	-29.216	0.101
310.600	-23.830	0.101
310.700	-20.904	0.101
310.800	-23.265	0.101
310.900	-26.004	0.101
311.000	-27.258	0.101
311.100	-16.480	0.101
311.200	-28.096	0.101
311.300	-27.337	0.101
311.400	-23.191	0.101
311.500	-22.353	0.101
311.600	-23.163	0.101
311.700	-23.148	0.101
311.800	-20.762	0.101
311.900	-27.405	0.101
312.000	-22.353	0.101
312.100	-32.071	0.101
312.200	-20.099	0.101
312.300	-19.312	0.101
312.400	-24.057	0.101
312.500	-31.692	0.101
312.600	-24.721	0.101
312.700	-26.357	0.101
312.800	-21.081	0.101
312.900	-29.036	0.101
313.000	-16.004	0.101
313.100	-24.331	0.101
313.200	-33.560	0.101
313.300	-29.044	0.101
313.400	-16.951	0.101
313.500	-16.419	0.101
313.600	-19.856	0.101
313.700	-18.304	0.101
313.800	-30.246	0.101
313.900	-20.142	0.100
314.000	-30.588	0.100
314.100	-19.689	0.100
314.200	-18.815	0.100
314.300	-22.327	0.100
314.400	-25.869	0.100
314.500	-21.835	0.100
314.600	-21.173	0.100
314.700	-30.931	0.101
314.800	-28.182	0.100
314.900	-21.458	0.100
315.000	-28.515	0.100
315.100	-25.232	0.100
315.200	-38.205	0.101
315.300	-34.899	0.100
315.400	-26.139	0.100
315.500	-20.542	0.100
315.600	-15.500	0.100
315.700	-23.987	0.100
315.800	-22.963	0.100
315.900	-37.868	0.100
316.000	-23.232	0.100
316.100	-16.900	0.100
316.200	-16.359	0.100
316.300	-29.372	0.100
316.400	-26.346	0.100
316.500	-21.166	0.100
316.600	-23.942	0.100
316.700	-23.045	0.100
316.800	-21.680	0.100
316.900	-19.045	0.100
317.000	-16.551	0.100
317.100	-31.137	0.100
317.200	-27.904	0.100
317.300	-20.245	0.100
317.400	-27.667	0.100
317.500	-20.449	0.100
317.600	-19.298	0.100
317.700	-30.500	0.100
317.800	-20.561	0.100
317.900	-20.619	0.100
318.000	-21.471	0.100
318.100	-27.436	0.100
318.200	-24.566	0.100
318.300	-20.492	0.100
318.400	-27.185	0.100
318.500	-22.192	0.100
318.600	-18.817	0.100
318.700	-18.956	0.100
318.800	-15.920	0.100
318.900	-28.210	0.100
319.000	-24.954	0.100
319.100	-22.089	0.100
319.200	-18.176	0.100
319.300	-25.048	0.100
319.400	-21.308	0.100
319.500	-25.031	0.100
319.600	-36.809	0.100
319.700	-35.747	0.100
319.800	-28.034	0.100
319.900	-23.178	0.100
320.000	-19.948	0.100
320.100	-26.273	0.100
320.200	-26.222	0.100
320.300	-23.560	0.100
320.400	-29.755	0.100
320.500	-29.487	0.100
320.600	-19.194	0.100
320.700	-23.873	0.100
320.800	-20.914	0.100
320.900	-31.876	0.100
321.000	-22.562	0.100
321.100	-23.048	0.100
321.200	-22.981	0.100
321.300	-30.544	0.100
321.400	-20.750	0.100
321.500	-27.019	0.100
321.600	-18.654	0.100
321.700	-38.347	0.100
321.800	-25.863	0.100
321.900	-26.854	0.100
322.000	-17.881	0.100
322.100	-26.019	0.100
322.200	-26.175	0.100
322.300	-24.820	0.100
322.400	-20.998	0.100
322.500	-30.258	0.100
322.600	-31.907	0.100
322.700	-26.286	0.100
322.800	-29.090	0.100
322.900	-27.031	0.100
323.000	-24.213	0.100
323.100	-24.714	0.100
323.200	-16.851	0.100
323.300	-17.479	0.100
323.400	-21.713	0.100
323.500	-28.377	0.100
323.600	-16.923	0.100
323.700	-15.751	0.100
323.800	-24.890	0.100
323.900	-27.431	0.100
324.000	-30.209	0.100
324.100	-25.541	0.100
324.200	-20.275	0.100
324.300	-18.488	0.100
324.400	-20.598	0.100
324.500	-29.895	0.100
324.600	-19.091	0.100
324.700	-23.177	0.100
324.800	-34.420	0.100
324.900	-19.226	0.100
325.000	-20.967	0.100
325.100	-28.221	0.100
325.200	-20.773	0.100
325.300	-18.281	0.100
325.400	-15.741	0.100
325.500	-25.385	0.100
325.600	-27.615	0.100
325.700	-28.621	0.100
325.800	-25.769	0.100
325.900	-26.532	0.100
326.000	-24.667	0.100
326.100	-26.752	0.100
326.200	-26.688	0.100
326.300	-16.065	0.100
326.400	-22.111	0.100
326.500	-28.892	0.100
326.600	-21.292	0.100
326.700	-26.444	0.100
326.800	-22.992	0.100
326.900	-26.068	0.100
327.000	-19.737	0.100
327.100	-24.215	0.100
327.200	-16.642	0.100
327.300	-22.641	0.100
327.400	-29.832	0.100
327.500	-23.210	0.100
327.600	-31.025	0.100
327.700	-23.087	0.100
327.800	-21.851	0.100
327.900	-23.554	0.100
328.000	-15.297	0.100
328.100	-21.841	0.100
328.200	-30.293	0.100
328.300	-30.402	0.100
328.400	-22.524	0.100
328.500	-25.760	0.100
328.600	-22.906	0.100
328.700	-21.903	0.100
328.800	-18.918	0.100
328.900	-19.131	0.100
329.000	-19.123	0.100
329.100	-17.209	0.100
329.200	-25.688	0.100
329.300	-21.651	0.100
329.400	-23.194	0.100
329.500	-27.546	0.100
329.600	-21.861	0.100
329.700	-20.544	0.100
329.800	-21.632	0.100
329.900	-23.572	0.100
330.000	-19.175	0.100
330.100	-21.043	0.100
330.200	-25.228	0.100
330.300	-17.435	0.100
330.400	-23.981	0.100
330.500	-7.555	0.100
330.600	-5.438	0.100
330.700	-4.659	0.100
330.800	-5.774	0.100
330.900	-20.299	0.100
331.000	-16.388	0.100
331.100	-8.034	0.100
331.200	-5.785	0.100
331.300	-14.455	0.100
331.400	-2.080	0.100
331.500	-1.902	0.100
331.600	-1.216	0.100
331.700	-0.308	0.100
331.800	7.481	0.100
331.900	8.010	0.100
332.000	5.136	0.100
332.100	3.501	0.100
332.200	8.392	0.100
332.300	-6.644	0.100
332.400	0.211	0.100
332.500	1.075	0.100
332.600	7.885	0.100
332.700	3.916	0.100
332.800	12.150	0.100
332.900	8.362	0.100
333.000	9.084	0.100
333.100	15.834	0.100
333.200	11.516	0.100
333.300	5.524	0.100
333.400	8.410	0.100
333.500	6.335	0.100
333.600	18.139	0.100
333.700	5.325	0.100
333.800	6.061	0.100
333.900	11.580	0.100
334.000	14.063	0.100
334.100	1.464	0.100
334.200	5.489	0.100
334.300	5.218	0.100
334.400	5.491	0.100
334.500	7.169	0.100
334.600	15.072	0.100
334.700	14.358	0.100
334.800	16.641	0.100
334.900	8.733	0.100
335.000	14.373	0.100
335.100	12.260	0.100
335.200	8.781	0.100
335.300	11.344	0.100
335.400	0.414	0.100
335.500	5.556	0.100
335.600	9.314	0.100
335.700	5.248	0.100
335.800	4.939	0.100
335.900	9.230	0.100
336.000	8.797	0.100
336.100	9.562	0.100
336.200	-7.812	0.100
336.300	9.635	0.100
336.400	14.356	0.100
336.500	-0.739	0.100
336.600	4.643	0.100
336.700	-3.874	0.100
336.800	-6.567	0.100
336.900	6.130	0.100
337.000	12.325	0.100
337.100	17.098	0.100
337.200	12.907	0.100
337.300	4.203	0.100
337.400	12.401	0.100
337.500	8.112	0.100
337.600	6.605	0.100
337.700	9.228	0.100
337.800	9.777	0.100
337.900	5.890	0.100
338.000	4.762	0.100
338.100	1.064	0.100
338.200	10.749	0.100
338.300	-2.719	0.100
338.400	7.010	0.100
338.500	1.271	0.100
338.600	6.178	0.100
338.700	11.637	0.100
338.800	9.908	0.100
338.900	6.510	0.100
339.000	11.870	0.100
339.100	5.001	0.100
339.200	4.842	0.100
339.300	3.244	0.100
339.400	11.249	0.100
339.500	4.544	0.100
339.600	11.095	0.100
339.700	0.052	0.100
339.800	8.606	0.100
339.900	3.504	0.100
340.000	14.562	0.100
340.100	1.807	0.100
340.200	8.068	0.100
340.300	10.296	0.100
340.400	2.993	0.100
340.500	4.600	0.100
340.600	8.964	0.100
340.700	3.435	0.100
340.800	9.579	0.100
340.900	2.610	0.100
341.000	6.866	0.100
341.100	8.614	0.100
341.200	4.938	0.100
341.300	5.643	0.100
341.400	9.433	0.100
341.500	14.396	0.100
341.600	9.823	0.100
341.700	10.111	0.100
341.800	4.857	0.100
341.900	8.314	0.100
342.000	14.029	0.100
342.100	3.141	0.100
342.200	5.721	0.100
342.300	12.274	0.100
342.400	11.677	0.100
342.500	7.031	0.100
342.600	4.973	0.100
342.700	8.506	0.100
342.800	14.575	0.100
342.900	10.539	0.100
343.000	21.958	0.100
343.100	16.678	0.100
343.200	9.712	0.100
343.300	13.574	0.100
343.400	13.801	0.100
343.500	-2.727	0.100
343.600	4.601	0.100
343.700	1.673	0.100
343.800	-3.523	0.100
343.900	19.972	0.100
344.000	16.873	0.100
344.100	7.256	0.100
344.200	11.643	0.100
344.300	13.817	0.100
344.400	15.544	0.100
344.500	18.964	0.100
344.600	8.861	0.100
344.700	4.487	0.100
344.800	8.189	0.100
344.900	5.217	0.100
345.000	11.449	0.100
345.100	14.623	0.100
345.200	13.324	0.100
345.300	7.697	0.100
345.400	7.645	0.100
345.500	8.081	0.100
345.600	14.464	0.100
345.700	20.011	0.100
345.800	15.449	0.100
345.900	17.571	0.100
346.000	13.639	0.100
346.100	13.990	0.100
346.200	9.126	0.100
346.300	23.817	0.100
346.400	5.826	0.100
346.500	17.691	0.100
346.600	7.893	0.100
346.700	7.487	0.100
346.800	20.748	0.100
346.900	10.938	0.100
347.000	9.189	0.100
347.100	13.992	0.100
347.200	17.706	0.100
347.300	13.330	0.100
347.400	18.708	0.100
347.500	15.794	0.100
347.600	11.107	0.100
347.700	12.275	0.100
347.800	17.338	0.100
347.900	13.947	0.100
348.000	16.430	0.100
348.100	17.278	0.100
348.200	24.282	0.100
348.300	7.472	0.100
348.400	10.498	0.100
348.500	16.531	0.100
348.600	15.132	0.100
348.700	17.604	0.100
348.800	13.390	0.100
348.900	19.930	0.100
349.000	24.433	0.100
349.100	25.510	0.100
349.200	13.669	0.100
349.300	16.951	0.100
349.400	8.273	0.100
349.500	9.254	0.100
349.600	16.428	0.100
349.700	15.929	0.100
349.800	18.977	0.100
349.900	13.763	0.100
350.000	15.623	0.100
350.100	23.843	0.100
350.200	17.442	0.100
350.300	16.130	0.100
350.400	14.871	0.100
350.500	21.040	0.100
350.600	17.300	0.100
350.700	11.816	0.100
350.800	20.109	0.100
350.900	13.852	0.100
351.000	23.331	0.100
351.100	21.447	0.100
351.200	25.348	0.100
351.300	23.049	0.100
351.400	22.657	0.100
351.500	17.604	0.100
351.600	18.865	0.100
351.700	19.203	0.100
351.800	18.576	0.100
351.900	22.799	0.100
352.000	21.406	0.100
352.100	14.641	0.100
352.200	31.193	0.100
352.300	25.164	0.100
352.400	28.852	0.100
352.500	0.579	0.100
352.600	20.251	0.100
352.700	22.978	0.100
352.800	19.755	0.100
352.900	24.444	0.100
353.000	27.660	0.100
353.100	23.415	0.100
353.200	24.724	0.100
353.300	20.860	0.100
353.400	21.519	0.100
353.500	20.672	0.100
353.600	25.458	0.100
353.700	20.123	0.100
353.800	21.155	0.100
353.900	20.543	0.100
354.000	29.634	0.100
354.100	15.330	0.100
354.200	25.762	0.100
354.300	30.199	0.100
354.400	21.614	0.100
354.500	14.229	0.100
354.600	19.828	0.100
354.700	13.866	0.100
354.800	26.336	0.100
354.900	31.352	0.100
355.000	23.036	0.100
355.100	34.258	0.100
355.200	21.425	0.100
355.300	22.897	0.100
355.400	22.700	0.100
355.500	34.780	0.100
355.600	21.241	0.100
355.700	26.906	0.100
355.800	15.371	0.100
355.900	27.710	0.100
356.000	29.696	0.100
356.100	19.707	0.100
356.200	19.944	0.100
356.300	29.220	0.100
356.400	24.674	0.100
356.500	25.588	0.100
356.600	25.404	0.100
356.700	19.354	0.100
356.800	25.110	0.100
356.900	26.854	0.100
357.000	26.007	0.100
357.100	31.409	0.100
357.200	25.874	0.100
357.300	30.536	0.100
357.400	20.980	0.100
357.500	16.432	0.100
357.600	31.057	0.100
357.700	34.756	0.100
357.800	30.955	0.100
357.900	20.614	0.100
358.000	30.337	0.100
358.100	17.429	0.100
358.200	17.518	0.100
358.300	28.132	0.100
358.400	23.180	0.100
358.500	35.533	0.100
358.600	29.614	0.100
358.700	23.286	0.100
358.800	28.897	0.100
358.900	30.899	0.100
359.000	26.197	0.100
359.100	25.889	0.100
359.200	26.463	0.100
359.300	15.755	0.100
359.400	27.789	0.100
359.500	36.884	0.100
359.600	35.612	0.100
359.700	29.517	0.100
359.800	23.625	0.100
359.900	31.074	0.100
360.000	31.113	0.100
360.100	24.261	0.100
360.200	29.417	0.100
360.300	33.081	0.100
360.400	29.004	0.100
360.500	25.644	0.100
360.600	22.694	0.100
360.700	24.593	0.100
360.800	36.227	0.100
360.900	29.343	0.100
361.000	20.944	0.100
361.100	27.680	0.100
361.200	24.893	0.100
361.300	25.932	0.100
361.400	34.959	0.100
361.500	35.285	0.100
361.600	33.961	0.100
361.700	26.770	0.100
361.800	24.503	0.100
361.900	27.855	0.100
362.000	28.876	0.100
362.100	26.363	0.100
362.200	21.270	0.100
362.300	28.998	0.100
362.400	27.622	0.100
362.500	32.045	0.100
362.600	33.550	0.100
362.700	36.829	0.100
362.800	33.181	0.100
362.900	32.166	0.100
363.000	30.730	0.100
363.100	33.174	0.100
363.200	28.664	0.100
363.300	38.020	0.100
363.400	36.208	0.100
363.500	35.016	0.100
363.600	33.124	0.100
363.700	29.592	0.100
363.800	30.352	0.100
363.900	31.778	0.100
364.000	30.582	0.100
364.100	34.658	0.100
364.200	30.197	0.100
364.300	27.531	0.100
364.400	31.538	0.100
364.500	27.953	0.100
364.600	30.852	0.100
364.700	33.713	0.100
364.800	35.372	0.100
364.900	21.421	0.100
365.000	30.912	0.100
365.100	31.218	0.100
365.200	27.276	0.100
365.300	29.670	0.100
365.400	29.744	0.100
365.500	32.862	0.100
365.600	27.061	0.100
365.700	32.396	0.100
365.800	31.775	0.100
365.900	25.756	0.100
366.000	29.898	0.100
366.100	27.515	0.100
366.200	24.096	0.100
366.300	18.367	0.100
366.400	29.554	0.100
366.500	34.666	0.100
366.600	25.671	0.100
366.700	34.470	0.100
366.800	41.904	0.100
366.900	26.767	0.100
367.000	27.177	0.100
367.100	26.278	0.100
367.200	33.417	0.100
367.300	30.999	0.100
367.400	27.132	0.100
367.500	39.298	0.100
367.600	33.208	0.100
367.700	32.901	0.100
367.800	33.287	0.100
367.900	35.326	0.100
368.000	36.028	0.100
368.100	30.756	0.100
368.200	34.838	0.100
368.300	29.901	0.100
368.400	30.656	0.100
368.500	22.471	0.100
368.600	29.464	0.100
368.700	32.293	0.100
368.800	25.990	0.100
368.900	34.028	0.100
369.000	26.303	0.100
369.100	35.302	0.100
369.200	31.373	0.100
369.300	34.445	0.100
369.400	37.728	0.100
369.500	36.601	0.100
369.600	41.434	0.100
369.700	27.596	0.100
369.800	20.844	0.100
369.900	20.809	0.100
370.000	32.080	0.100
370.100	35.445	0.100
370.200	23.358	0.100
370.300	38.715	0.100
370.400	34.366	0.100
370.500	34.918	0.100
370.600	36.029	0.100
370.700	35.940	0.100
370.800	33.855	0.100
370.900	25.630	0.100
371.000	27.969	0.100
371.100	36.274	0.100
371.200	29.744	0.100
371.300	34.244	0.100
371.400	35.460	0.100
371.500	30.910	0.100
371.600	22.558	0.100
371.700	22.516	0.100
371.800	24.356	0.100
371.900	35.741	0.100
372.000	25.945	0.100
372.100	42.482	0.100
372.200	29.639	0.100
372.300	36.510	0.100
372.400	27.178	0.100
372.500	32.191	0.100
372.600	28.869	0.100
372.700	29.608	0.100
372.800	28.253	0.100
372.900	30.195	0.100
373.000	23.191	0.100
373.100	32.444	0.100
373.200	25.535	0.100
373.300	40.187	0.100
373.400	29.328	0.100
373.500	38.323	0.100
373.600	31.602	0.100
373.700	31.063	0.100
373.800	38.544	0.100
373.900	34.678	0.100
374.000	28.735	0.100
374.100	27.581	0.100
374.200	35.961	0.100
374.300	36.442	0.100
374.400	28.195	0.100
374.500	40.374	0.100
374.600	30.133	0.100
374.700	24.504	0.100
374.800	32.495	0.100
374.900	25.421	0.100
375.000	22.950	0.100
375.100	33.997	0.100
375.200	37.304	0.100
375.300	36.921	0.100
375.400	36.614	0.100
375.500	34.480	0.100
375.600	28.566	0.100
375.700	29.785	0.100
375.800	28.271	0.100
375.900	39.284	0.100
376.000	23.855	0.100
376.100	28.659	0.100
376.200	32.262	0.100
376.300	39.555	0.100
376.400	24.733	0.100
376.500	28.015	0.100
376.600	35.118	0.100
376.700	29.038	0.100
376.800	31.504	0.100
376.900	37.339	0.100
377.000	36.055	0.100
377.100	27.667	0.100
377.200	22.152	0.100
377.300	20.750	0.100
377.400	32.276	0.100
377.500	30.481	0.100
377.600	39.583	0.100
377.700	40.569	0.100
377.800	30.935	0.100
377.900	36.636	0.100
378.000	36.683	0.100
378.100	34.750	0.100
378.200	27.951	0.100
378.300	25.546	0.100
378.400	31.460	0.100
378.500	19.790	0.100
378.600	28.135	0.100
378.700	27.543	0.100
378.800	29.619	0.100
378.900	31.561	0.100
379.000	31.138	0.100
379.100	35.328	0.100
379.200	28.638	0.100
379.300	35.391	0.100
379.400	36.376	0.100
379.500	40.153	0.100
379.600	39.635	0.100
379.700	32.756	0.100
379.800	22.207	0.100
379.900	25.208	0.100
380.000	22.646	0.100
380.100	34.702	0.100
380.200	39.453	0.100
380.300	36.065	0.100
380.400	31.891	0.100
380.500	33.347	0.100
380.600	39.473	0.100
380.700	32.515	0.100
380.800	25.869	0.100
380.900	30.793	0.100
381.000	39.548	0.100
381.100	32.450	0.100
381.200	27.328	0.100
381.300	28.435	0.100
381.400	41.276	0.100
381.500	34.668	0.100
381.600	32.402	0.100
381.700	26.935	0.100
381.800	27.901	0.100
381.900	30.839	0.100
382.000	28.958	0.100
382.100	36.345	0.100
382.200	35.181	0.100
382.300	28.517	0.100
382.400	26.500	0.100
382.500	25.378	0.100
382.600	32.760	0.100
382.700	28.684	0.100
382.800	36.237	0.100
382.900	22.949	0.100
383.000	29.726	0.100
383.100	23.851	0.100
383.200	30.667	0.100
383.300	34.960	0.100
383.400	33.257	0.100
383.500	29.234	0.100
383.600	28.068	0.100
383.700	19.821	0.100
383.800	22.614	0.100
383.900	39.410	0.100
384.000	39.953	0.100
384.100	25.672	0.100
384.200	43.992	0.100
384.300	31.026	0.100
384.400	24.172	0.100
384.500	24.697	0.100
384.600	23.696	0.100
384.700	35.441	0.100
384.800	22.013	0.100
384.900	29.309	0.100
385.000	34.750	0.100
385.100	30.329	0.100
385.200	33.915	0.100
385.300	32.786	0.100
385.400	27.720	0.100
385.500	23.186	0.100
385.600	20.872	0.100
385.700	32.078	0.100
385.800	34.350	0.100
385.900	30.198	0.100
386.000	22.719	0.100
386.100	26.289	0.100
386.200	27.013	0.100
386.300	35.057	0.100
386.400	27.825	0.100
386.500	38.116	0.100
386.600	27.166	0.100
386.700	38.103	0.100
386.800	35.423	0.100
386.900	30.588	0.100
387.000	40.282	0.100
387.100	36.190	0.100
387.200	31.738	0.100
387.300	24.809	0.100
387.400	28.322	0.100
387.500	28.878	0.100
387.600	21.969	0.100
387.700	29.453	0.100
387.800	31.212	0.100
387.900	28.897	0.100
388.000	28.803	0.100
388.100	28.440	0.100
388.200	29.969	0.100
388.300	29.899	0.100
388.400	35.160	0.100
388.500	31.017	0.100
388.600	30.555	0.100
388.700	23.464	0.100
388.800	26.530	0.100
388.900	30.896	0.100
389.000	28.539	0.100
389.100	24.806	0.100
389.200	30.116	0.100
389.300	33.996	0.100
389.400	28.543	0.100
389.500	31.745	0.100
389.600	32.820	0.100
389.700	28.129	0.100
389.800	19.340	0.100
389.900	35.008	0.100
390.000	27.233	0.100
390.100	21.131	0.100
390.200	25.509	0.100
390.300	24.860	0.100
390.400	26.375	0.100
390.500	21.424	0.100
390.600	29.377	0.100
390.700	27.646	0.100
390.800	18.700	0.100
390.900	19.697	0.100
391.000	16.620	0.100
391.100	13.471	0.100
391.200	18.329	0.100
391.300	20.438	0.100
391.400	8.779	0.100
391.500	19.216	0.100
391.600	-2.260	0.100
391.700	18.487	0.100
391.800	19.380	0.100
391.900	3.146	0.100
392.000	19.353	0.100
392.100	10.700	0.100
392.200	19.835	0.100
392.300	9.423	0.100
392.400	4.785	0.100
392.500	7.319	0.100
392.600	14.293	0.100
392.700	4.586	0.100
392.800	9.501	0.100
392.900	10.236	0.100
393.000	3.339	0.100
393.100	3.836	0.100
393.200	0.938	0.100
393.300	7.532	0.100
393.400	9.539	0.100
393.500	9.662	0.100
393.600	8.717	0.100
393.700	11.225	0.100
393.800	4.130	0.100
393.900	6.359	0.100
394.000	4.202	0.100
394.100	17.924	0.100
394.200	-0.415	0.100
394.300	-4.289	0.100
394.400	1.137	0.100
394.500	8.034	0.100
394.600	12.029	0.100
394.700	8.255	0.100
394.800	-0.506	0.100
394.900	2.614	0.100
395.000	3.043	0.100
395.100	-1.898	0.100
395.200	6.711	0.100
395.300	1.740	0.100
395.400	8.798	0.100
395.500	3.050	0.100
395.600	1.016	0.100
395.700	-6.162	0.100
395.800	0.199	0.100
395.900	4.849	0.100
396.000	-4.932	0.100
396.100	6.408	0.100
396.200	2.456	0.100
396.300	-3.638	0.100
396.400	2.758	0.100
396.500	3.614	0.100
396.600	-1.259	0.100
396.700	-2.802	0.100
396.800	-2.243	0.100
396.900	2.552	0.100
397.000	3.360	0.100
397.100	0.610	0.100
397.200	5.648	0.100
397.300	-4.616	0.100
397.400	3.247	0.100
397.500	8.544	0.100
397.600	5.404	0.100
397.700	6.150	0.100
397.800	4.920	0.100
397.900	-0.560	0.100
398.000	1.855	0.100
398.100	-1.794	0.100
398.200	0.591	0.100
398.300	4.636	0.100
398.400	-0.287	0.100
398.500	0.610	0.100
398.600	-2.725	0.100
398.700	-2.998	0.100
398.800	7.900	0.100
398.900	8.584	0.100
399.000	12.715	0.100
399.100	-3.663	0.100
399.200	-6.451	0.100
399.300	-5.536	0.100
399.400	-2.607	0.100
399.500	2.292	0.100
399.600	-3.920	0.100
399.700	-4.430	0.100
399.800	-0.152	0.100
399.900	0.002	0.100
400.000	2.282	0.100
400.100	-1.056	0.100
400.200	-1.883	0.100
400.300	-3.309	0.100
400.400	2.729	0.100
400.500	-4.453	0.100
400.600	-3.456	0.100
400.700	-9.303	0.100
400.800	-8.200	0.100
400.900	5.582	0.100
401.000	-4.190	0.100
401.100	2.884	0.100
401.200	-0.849	0.100
401.300	-12.588	0.100
401.400	-1.970	0.100
401.500	-0.881	0.100
401.600	-0.200	0.100
401.700	-5.441	0.100
401.800	-0.684	0.100
401.900	2.734	0.100
402.000	0.218	0.100
402.100	-10.698	0.100
402.200	-3.964	0.100
402.300	-2.467	0.100
402.400	-3.915	0.100
402.500	3.437	0.100
402.600	-11.773	0.100
402.700	-8.846	0.100
402.800	-0.975	0.100
402.900	-1.729	0.100
403.000	-1.904	0.100
403.100	-5.238	0.100
403.200	-8.803	0.100
403.300	-6.652	0.100
403.400	-8.477	0.100
403.500	-0.468	0.100
403.600	-0.339	0.100
403.700	-6.080	0.100
403.800	-3.401	0.100
403.900	5.117	0.100
404.000	0.868	0.100
404.100	-8.989	0.100
404.200	-7.275	0.100
404.300	-3.563	0.100
404.400	0.607	0.100
404.500	-9.723	0.100
404.600	-4.391	0.100
404.700	-5.442	0.100
404.800	-12.993	0.100
404.900	-4.692	0.100
405.000	-2.784	0.100
405.100	-16.152	0.100
405.200	-10.548	0.100
405.300	-9.033	0.100
405.400	-4.906	0.100
405.500	-5.653	0.100
405.600	-2.900	0.100
405.700	-4.630	0.100
405.800	-2.843	0.100
405.900	-9.760	0.100
406.000	-11.883	0.100
406.100	-14.706	0.100
406.200	-8.011	0.100
406.300	-7.161	0.100
406.400	-8.454	0.100
406.500	-6.307	0.100
406.600	-11.747	0.100
406.700	-8.714	0.100
406.800	-9.151	0.100
406.900	-10.768	0.100
407.000	-10.298	0.100
407.100	-5.354	0.100
407.200	-18.487	0.100
407.300	-17.920	0.100
407.400	-11.395	0.100
407.500	-11.395	0.100
407.600	-8.603	0.100
407.700	-10.662	0.100
407.800	-6.992	0.100
407.900	-9.026	0.100
408.000	-6.629	0.100
408.100	-9.633	0.100
408.200	-3.837	0.100
408.300	-9.190	0.100
408.400	-14.579	0.100
408.500	-13.143	0.100
408.600	-16.233	0.100
408.700	-3.527	0.100
408.800	-15.602	0.100
408.900	-18.644	0.100
409.000	-12.020	0.100
409.100	-12.125	0.100
409.200	-14.259	0.100
409.300	-6.415	0.100
409.400	-8.524	0.100
409.500	-4.258	0.100
409.600	-9.953	0.100
409.700	-7.796	0.100
409.800	-16.129	0.100
409.900	-16.686	0.100
410.000	-10.591	0.100
410.100	-9.041	0.100
410.200	-11.558	0.100
410.300	-14.044	0.100
410.400	-18.063	0.100
410.500	-11.386	0.100
410.600	-10.484	0.100
410.700	-13.835	0.100
410.800	-21.171	0.100
410.900	-15.654	0.100
411.000	-11.838	0.100
411.100	-15.095	0.100
411.200	-14.410	0.100
411.300	-16.054	0.100
411.400	-9.256	0.100
411.500	-18.372	0.100
411.600	-14.883	0.100
411.700	-20.818	0.100
411.800	-10.603	0.100
411.900	-14.010	0.100
412.000	-20.506	0.100
412.100	-19.733	0.100
412.200	-7.907	0.100
412.300	-14.543	0.100
412.400	-22.664	0.100
412.500	-20.975	0.100
412.600	-23.697	0.100
412.700	-17.857	0.100
412.800	-22.949	0.100
412.900	-21.122	0.100
413.000	-10.617	0.100
413.100	-8.447	0.100
413.200	-27.321	0.100
413.300	-23.396	0.100
413.400	-22.388	0.100
413.500	-19.985	0.100
413.600	-18.706	0.100
413.700	-16.379	0.100
413.800	-16.171	0.100
413.900	-12.797	0.100
414.000	-15.640	0.100
414.100	-8.721	0.100
414.200	-13.071	0.100
414.300	-18.452	0.100
414.400	-22.373	0.100
414.500	-12.915	0.100
414.600	-18.896	0.100
414.700	-23.844	0.100
414.800	-23.072	0.100
414.900	-19.508	0.100
415.000	-20.919	0.100
415.100	-11.204	0.100
415.200	-18.983	0.100
415.300	-17.697	0.100
415.400	-18.649	0.100
415.500	-17.269	0.100
415.600	-24.012	0.100
415.700	-20.576	0.100
415.800	-25.403	0.100
415.900	-24.450	0.100
416.000	-25.779	0.100
416.100	-16.538	0.100
416.200	-17.090	0.100
416.300	-15.202	0.100
416.400	-24.751	0.100
416.500	-22.817	0.100
416.600	-35.363	0.100
416.700	-16.452	0.100
416.800	-17.255	0.100
416.900	-26.123	0.100
417.000	-19.892	0.100
417.100	-13.660	0.100
417.200	-13.326	0.100
417.300	-26.169	0.100
417.400	-19.927	0.100
417.500	-28.088	0.100
417.600	-23.614	0.100
417.700	-23.705	0.100
417.800	-15.701	0.100
417.900	-12.792	0.100
418.000	-23.298	0.100
418.100	-31.933	0.100
418.200	-24.655	0.100
418.300	-20.386	0.100
418.400	-22.924	0.100
418.500	-27.763	0.100
418.600	-25.531	0.100
418.700	-17.118	0.100
418.800	-14.433	0.100
418.900	-23.340	0.100
419.000	-21.444	0.100
419.100	-22.123	0.100
419.200	-27.737	0.100
419.300	-23.887	0.100
419.400	-23.037	0.100
419.500	-17.504	0.100
419.600	-23.449	0.100
419.700	-19.567	0.100
419.800	-26.099	0.100
419.900	-17.321	0.100
420.000	-31.448	0.100
420.100	-15.542	0.100
420.200	-23.823	0.100
420.300	-19.250	0.100
420.400	-26.187	0.100
420.500	-28.510	0.100
420.600	-20.507	0.100
420.700	-21.915	0.100
420.800	-24.306	0.100
420.900	-22.824	0.100
421.000	-15.695	0.100
421.100	-30.022	0.100
421.200	-31.808	0.100
421.300	-16.438	0.100
421.400	-27.549	0.100
421.500	-33.489	0.100
421.600	-22.333	0.100
421.700	-17.756	0.100
421.800	-25.875	0.100
421.900	-37.092	0.100
422.000	-29.943	0.100
422.100	-29.257	0.100
422.200	-31.899	0.100
422.300	-33.453	0.100
422.400	-23.876	0.100
422.500	-23.449	0.100
422.600	-31.928	0.100
422.700	-29.109	0.100
422.800	-27.414	0.100
422.900	-26.580	0.100
423.000	-20.978	0.100
423.100	-31.965	0.100
423.200	-29.761	0.100
423.300	-33.815	0.100
423.400	-22.754	0.100
423.500	-25.896	0.100
423.600	-30.648	0.100
423.700	-21.099	0.100
423.800	-34.854	0.100
423.900	-29.383	0.100
424.000	-36.429	0.100
424.100	-21.515	0.100
424.200	-26.879	0.100
424.300	-29.357	0.100
424.400	-26.555	0.100
424.500	-32.720	0.100
424.600	-29.904	0.100
424.700	-23.642	0.100
424.800	-28.901	0.100
424.900	-21.707	0.100
425.000	-24.610	0.100
425.100	-25.847	0.100
425.200	-26.585	0.100
425.300	-31.152	0.100
425.400	-22.577	0.100
425.500	-25.738	0.100
425.600	-30.185	0.100
425.700	-36.967	0.100
425.800	-26.512	0.100
425.900	-35.916	0.100
426.000	-24.846	0.100
426.100	-27.197	0.100
426.200	-31.773	0.100
426.300	-28.124	0.100
426.400	-28.729	0.100
426.500	-29.167	0.100
426.600	-31.178	0.100
426.700	-35.448	0.100
426.800	-35.547	0.100
426.900	-29.627	0.100
427.000	-25.649	0.100
427.100	-29.601	0.100
427.200	-27.103	0.100
427.300	-33.864	0.100
427.400	-25.535	0.100
427.500	-26.025	0.100
427.600	-26.090	0.100
427.700	-25.704	0.100
427.800	-34.881	0.100
427.900	-27.253	0.100
428.000	-18.008	0.100
428.100	-32.234	0.100
428.200	-28.686	0.100
428.300	-23.221	0.100
428.400	-24.574	0.100
428.500	-27.465	0.100
428.600	-35.151	0.100
428.700	-38.595	0.100
428.800	-29.594	0.100
428.900	-28.602	0.100
429.000	-33.866	0.100
429.100	-26.441	0.100
429.200	-29.614	0.100
429.300	-22.761	0.100
429.400	-25.177	0.100
429.500	-25.265	0.100
429.600	-37.648	0.100
429.700	-33.333	0.100
429.800	-22.641	0.100
429.900	-38.759	0.100
430.000	-18.088	0.100
430.100	-31.307	0.100
430.200	-32.403	0.100
430.300	-26.968	0.100
430.400	-23.652	0.100
430.500	-21.400	0.100
430.600	-22.706	0.100
430.700	-31.315	0.100
430.800	-32.228	0.100
430.900	-21.348	0.100
431.000	-19.078	0.100
431.100	-29.416	0.100
431.200	-37.848	0.100
431.300	-32.831	0.100
431.400	-20.270	0.100
431.500	-37.266	0.100
431.600	-34.191	0.100
431.700	-26.153	0.100
431.800	-25.456	0.100
431.900	-31.321	0.100
432.000	-34.351	0.100
432.100	-25.075	0.100
432.200	-29.829	0.100
432.300	-31.930	0.100
432.400	-25.162	0.100
432.500	-35.130	0.100
432.600	-33.791	0.100
432.700	-32.934	0.100
432.800	-34.012	0.100
432.900	-32.564	0.100
433.000	-29.763	0.100
433.100	-39.167	0.100
433.200	-42.142	0.100
433.300	-29.509	0.100
433.400	-27.006	0.100
433.500	-32.847	0.100
433.600	-24.772	0.100
433.700	-20.310	0.100
433.800	-28.964	0.100
433.900	-27.950	0.100
434.000	-27.846	0.100
434.100	-24.505	0.100
434.200	-40.014	0.100
434.300	-24.820	0.100
434.400	-26.919	0.100
434.500	-30.342	0.100
434.600	-37.497	0.100
434.700	-33.016	0.100
434.800	-23.803	0.100
434.900	-25.676	0.100
435.000	-38.808	0.100
435.100	-35.091	0.100
435.200	-31.581	0.100
435.300	-29.091	0.100
435.400	-28.301	0.100
435.500	-31.558	0.100
435.600	-22.063	0.100
435.700	-28.399	0.100
435.800	-33.483	0.100
435.900	-23.297	0.100
436.000	-25.014	0.100
436.100	-24.068	0.100
436.200	-28.678	0.100
436.300	-31.927	0.100
436.400	-27.541	0.100
436.500	-25.140	0.100
436.600	-37.385	0.100
436.700	-24.232	0.100
436.800	-26.359	0.100
436.900	-27.009	0.100
437.000	-33.733	0.100
437.100	-24.211	0.100
437.200	-29.948	0.100
437.300	-35.222	0.100
437.400	-28.813	0.100
437.500	-21.363	0.100
437.600	-34.082	0.100
437.700	-32.428	0.100
437.800	-26.057	0.100
437.900	-30.338	0.100
438.000	-30.462	0.100
438.100	-34.743	0.100
438.200	-38.551	0.100
438.300	-33.174	0.100
438.400	-34.567	0.100
438.500	-32.884	0.100
438.600	-24.473	0.100
438.700	-19.821	0.100
438.800	-28.365	0.100
438.900	-21.831	0.100
439.000	-32.222	0.100
439.100	-34.568	0.100
439.200	-24.053	0.100
439.300	-26.569	0.100
439.400	-29.571	0.100
439.500	-28.712	0.100
439.600	-27.794	0.100
439.700	-27.219	0.100
439.800	-24.384	0.100
439.900	-27.469	0.100
440.000	-25.958	0.100
440.100	-39.422	0.100
440.200	-31.062	0.100
440.300	-34.833	0.100
440.400	-32.422	0.100
440.500	-19.509	0.100
440.600	-31.240	0.100
440.700	-25.307	0.100
440.800	-31.469	0.100
440.900	-24.904	0.100
441.000	-17.586	0.100
441.100	-21.583	0.100
441.200	-22.632	0.100
441.300	-25.384	0.100
441.400	-23.121	0.100
441.500	-28.331	0.100
441.600	-28.167	0.100
441.700	-31.851	0.100
441.800	-27.898	0.100
441.900	-30.798	0.100
442.000	-27.516	0.100
442.100	-31.394	0.100
442.200	-30.563	0.100
442.300	-20.962	0.100
442.400	-27.786	0.100
442.500	-23.982	0.100
442.600	-30.148	0.100
442.700	-29.018	0.100
442.800	-31.543	0.100
442.900	-21.731	0.100
443.000	-22.228	0.100
443.100	-19.224	0.100
443.200	-25.432	0.100
443.300	-29.038	0.100
443.400	-35.882	0.100
443.500	-27.875	0.100
443.600	-26.774	0.100
443.700	-29.791	0.100
443.800	-30.016	0.100
443.900	-34.645	0.100
444.000	-32.887	0.100
444.100	-26.555	0.100
444.200	-28.165	0.100
444.300	-21.632	0.100
444.400	-30.952	0.100
444.500	-25.875	0.100
444.600	-24.164	0.100
444.700	-27.118	0.100
444.800	-27.989	0.100
444.900	-23.804	0.100
445.000	-31.659	0.100
445.100	-27.663	0.100
445.200	-25.149	0.100
445.300	-20.061	0.100
445.400	-27.309	0.100
445.500	-24.475	0.100
445.600	-29.548	0.100
445.700	-39.324	0.100
445.800	-31.265	0.100
445.900	-23.156	0.100
446.000	-24.394	0.100
446.100	-27.338	0.100
446.200	-25.256	0.100
446.300	-26.715	0.100
446.400	-26.681	0.100
446.500	-36.165	0.100
446.600	-21.545	0.100
446.700	-17.883	0.100
446.800	-29.448	0.100
446.900	-27.225	0.100
447.000	-31.236	0.100
447.100	-28.170	0.100
447.200	-16.982	0.100
447.300	-27.412	0.100
447.400	-27.201	0.100
447.500	-29.621	0.100
447.600	-28.877	0.100
447.700	-37.108	0.100
447.800	-25.035	0.100
447.900	-29.176	0.100
448.000	-23.127	0.100
448.100	-19.731	0.100
448.200	-22.676	0.100
448.300	-19.019	0.100
448.400	-24.343	0.100
448.500	-21.442	0.100
448.600	-17.878	0.100
448.700	-37.200	0.100
448.800	-31.808	0.100
448.900	-24.776	0.100
449.000	-24.195	0.100
449.100	-19.583	0.100
449.200	-21.984	0.100
449.300	-29.695	0.100
449.400	-17.317	0.100
449.500	-28.247	0.100
449.600	-26.010	0.100
449.700	-29.371	0.100
449.800	-36.557	0.100
449.900	-28.057	0.100
450.000	-25.642	0.100
450.100	-25.504	0.100
450.200	-21.417	0.100
450.300	-27.988	0.100
450.400	-22.912	0.100
450.500	-18.181	0.100
450.600	-28.750	0.100
450.700	-29.659	0.100
450.800	-32.013	0.100
450.900	-28.022	0.100
451.000	-26.381	0.100
451.100	-27.872	0.100
451.200	-21.459	0.100
451.300	-27.936	0.100
451.400	-31.005	0.100
451.500	-22.317	0.100
451.600	-32.472	0.100
451.700	-26.267	0.100
451.800	-28.756	0.100
451.900	-21.812	0.100
452.000	-24.312	0.100
452.100	-17.591	0.100
452.200	-29.989	0.100
452.300	-21.999	0.100
452.400	-28.517	0.100
452.500	-22.329	0.100
452.600	-28.590	0.100
452.700	-21.522	0.100
452.800	-33.145	0.100
452.900	-23.579	0.100
453.000	-29.660	0.100
453.100	-29.064	0.100
453.200	-22.345	0.100
453.300	-22.269	0.100
453.400	-27.834	0.100
453.500	-18.071	0.100
453.600	-23.739	0.100
453.700	-22.178	0.100
453.800	-24.424	0.100
453.900	-28.372	0.100
454.000	-29.450	0.100
454.100	-34.637	0.100
454.200	-24.764	0.100
454.300	-18.137	0.100
454.400	-20.556	0.100
454.500	-27.506	0.100
454.600	-28.354	0.100
454.700	-24.974	0.100
454.800	-26.684	0.100
454.900	-22.567	0.100
455.000	-32.425	0.100
455.100	-31.120	0.100
455.200	-22.645	0.100
455.300	-27.720	0.100
455.400	-34.829	0.100
455.500	-29.971	0.100
455.600	-27.413	0.100
455.700	-26.776	0.100
455.800	-18.435	0.100
455.900	-21.202	0.100
456.000	-23.906	0.100
456.100	-27.675	0.100
456.200	-20.837	0.100
456.300	-24.907	0.100
456.400	-30.985	0.100
456.500	-31.749	0.100
456.600	-24.840	0.100
456.700	-29.177	0.100
456.800	-26.789	0.100
456.900	-18.435	0.100
457.000	-28.303	0.100
457.100	-28.537	0.100
457.200	-25.370	0.100
457.300	-25.332	0.100
457.400	-33.117	0.100
457.500	-26.003	0.100
457.600	-21.932	0.100
457.700	-18.730	0.100
457.800	-19.274	0.100
457.900	-22.485	0.100
458.000	-18.542	0.100
458.100	-30.410	0.100
458.200	-29.529	0.100
458.300	-15.854	0.100
458.400	-27.371	0.100
458.500	-22.857	0.100
458.600	-23.830	0.100
458.700	-36.284	0.100
458.800	-21.823	0.100
458.900	-21.725	0.100
459.000	-31.996	0.100
459.100	-31.904	0.100
459.200	-16.979	0.100
459.300	-32.193	0.100
459.400	-16.822	0.100
459.500	-21.145	0.100
459.600	-27.880	0.100
459.700	-22.387	0.100
459.800	-18.021	0.100
459.900	-26.730	0.100
460.000	-19.293	0.100
460.100	-30.596	0.100
460.200	-24.539	0.100
460.300	-24.704	0.100
460.400	-19.971	0.100
460.500	-28.251	0.100
460.600	-30.625	0.100
460.700	-15.131	0.100
460.800	-31.819	0.100
460.900	-26.633	0.100
461.000	-31.063	0.100
461.100	-24.980	0.100
461.200	-19.953	0.100
461.300	-21.321	0.100
461.400	-26.004	0.100
461.500	-29.059	0.100
461.600	-21.262	0.100
461.700	-26.852	0.100
461.800	-26.129	0.100
461.900	-20.587	0.100
462.000	-22.759	0.100
462.100	-25.948	0.100
462.200	-18.754	0.100
462.300	-33.205	0.100
462.400	-31.363	0.100
462.500	-25.996	0.100
462.600	-26.171	0.100
462.700	-23.751	0.100
462.800	-27.753	0.100
462.900	-30.921	0.100
463.000	-25.326	0.100
463.100	-12.357	0.100
463.200	-17.089	0.100
463.300	-33.565	0.100
463.400	-25.664	0.100
463.500	-22.628	0.100
463.600	-20.986	0.100
463.700	-24.302	0.100
463.800	-25.829	0.100
463.900	-25.566	0.100
464.000	-28.016	0.100
464.100	-22.814	0.100
464.200	-25.123	0.100
464.300	-20.641	0.100
464.400	-20.712	0.100
464.500	-15.779	0.100
464.600	-22.258	0.100
464.700	-26.071	0.100
464.800	-25.507	0.100
464.900	-17.814	0.100
465.000	-27.959	0.100
465.100	-27.702	0.100
465.200	-21.582	0.100
465.300	-24.740	0.100
465.400	-24.006	0.100
465.500	-23.892	0.100
465.600	-26.273	0.100
465.700	-18.881	0.100
465.800	-23.176	0.100
465.900	-23.986	0.100
466.000	-27.134	0.100
466.100	-19.458	0.100
466.200	-18.818	0.100
466.300	-12.787	0.100
466.400	-23.274	0.100
466.500	-26.980	0.100
466.600	-25.263	0.100
466.700	-28.100	0.100
466.800	-19.898	0.100
466.900	-21.648	0.100
467.000	-21.805	0.100
467.100	-13.141	0.100
467.200	-16.888	0.100
467.300	-27.645	0.100
467.400	-21.388	0.100
467.500	-19.921	0.100
467.600	-28.500	0.100
467.700	-24.169	0.100
467.800	-21.957	0.100
467.900	-24.210	0.100
468.000	-22.861	0.100
468.100	-24.821	0.100
468.200	-27.095	0.100
468.300	-19.513	0.100
468.400	-22.311	0.100
468.500	-27.545	0.100
468.600	-32.248	0.100
468.700	-20.046	0.100
468.800	-23.641	0.100
468.900	-26.886	0.100
469.000	-22.033	0.100
469.100	-24.299	0.100
469.200	-23.769	0.100
469.300	-20.580	0.100
469.400	-22.218	0.100
469.500	-5.860	0.100
469.600	-17.110	0.100
469.700	-24.104	0.100
469.800	-24.516	0.100
469.900	-19.783	0.100
470.000	-19.366	0.100
470.100	-27.925	0.100
470.200	-27.318	0.100
470.300	-16.503	0.100
470.400	-16.431	0.100
470.500	-32.723	0.100
470.600	-20.195	0.100
470.700	-30.796	0.100
470.800	-20.166	0.100
470.900	-18.644	0.100
471.000	-21.081	0.100
471.100	-20.436	0.100
471.200	-26.368	0.100
471.300	-26.283	0.100
471.400	-19.061	0.100
471.500	-24.536	0.100
471.600	-22.678	0.100
471.700	-24.411	0.100
471.800	-26.650	0.100
471.900	-33.229	0.100
472.000	-22.333	0.100
472.100	-22.006	0.100
472.200	-21.787	0.100
472.300	-15.977	0.100
472.400	-22.642	0.100
472.500	-24.964	0.100
472.600	-31.506	0.100
472.700	-27.129	0.100
472.800	-15.386	0.100
472.900	-23.662	0.100
473.000	-17.753	0.100
473.100	-24.056	0.100
473.200	-22.713	0.100
473.300	-22.121	0.100
473.400	-26.171	0.100
473.500	-25.958	0.100
473.600	-28.233	0.100
473.700	-27.275	0.100
473.800	-24.782	0.100
473.900	-17.183	0.100
474.000	-13.415	0.100
474.100	-22.277	0.100
474.200	-23.288	0.100
474.300	-20.104	0.100
474.400	-14.022	0.100
474.500	-19.572	0.100
474.600	-26.370	0.100
474.700	-24.646	0.100
474.800	-32.703	0.100
474.900	-17.664	0.100
475.000	-19.016	0.100
475.100	-19.867	0.100
475.200	-20.892	0.100
475.300	-20.861	0.100
475.400	-29.603	0.100
475.500	-28.267	0.100
475.600	-19.264	0.100
475.700	-17.855	0.100
475.800	-18.374	0.100
475.900	-30.763	0.100
476.000	-22.503	0.100
476.100	-22.272	0.100
476.200	-25.344	0.100
476.300	-30.886	0.100
476.400	-20.657	0.100
476.500	-21.017	0.100
476.600	-9.617	0.100
476.700	-29.099	0.100
476.800	-26.422	0.100
476.900	-31.179	0.100
477.000	-29.816	0.100
477.100	-37.728	0.100
477.200	-18.487	0.100
477.300	-27.787	0.100
477.400	-26.499	0.100
477.500	-21.012	0.100
477.600	-22.670	0.100
477.700	-16.368	0.100
477.800	-19.751	0.100
477.900	-21.342	0.100
478.000	-26.017	0.100
478.100	-18.446	0.100
478.200	-25.416	0.100
478.300	-12.188	0.100
478.400	-19.091	0.100
478.500	-19.152	0.100
478.600	-18.911	0.100
478.700	-19.147	0.100
478.800	-22.944	0.100
478.900	-9.103	0.100
479.000	-22.410	0.100
479.100	-26.865	0.100
479.200	-24.446	0.100
479.300	-23.239	0.100
479.400	-16.302	0.100
479.500	-18.497	0.100
479.600	-17.404	0.100
479.700	-31.374	0.100
479.800	-33.172	0.100
479.900	-19.354	0.100
480.000	-12.103	0.100
480.100	-18.150	0.100
480.200	-12.898	0.100
480.300	-16.923	0.100
480.400	-16.358	0.100
480.500	-17.172	0.100
480.600	-7.792	0.100
480.700	-18.396	0.100
480.800	-12.719	0.100
480.900	2.756	0.100
481.000	-6.387	0.100
481.100	-9.251	0.100
481.200	-11.753	0.100
481.300	-4.205	0.100
481.400	-4.797	0.100
481.500	0.658	0.100
481.600	2.356	0.100
481.700	4.531	0.100
481.800	-4.883	0.100
481.900	0.933	0.100
482.000	6.071	0.100
482.100	6.730	0.100
482.200	10.948	0.100
482.300	3.562	0.100
482.400	7.198	0.100
482.500	12.530	0.100
482.600	1.649	0.100
482.700	4.617	0.100
482.800	6.908	0.100
482.900	-0.897	0.100
483.000	3.008	0.100
483.100	8.251	0.100
483.200	19.748	0.100
483.300	19.067	0.100
483.400	11.338	0.100
483.500	15.340	0.100
483.600	11.696	0.100
483.700	-0.331	0.100
483.800	3.244	0.100
483.900	13.103	0.100
484.000	16.735	0.100
484.100	7.119	0.100
484.200	2.763	0.100
484.300	12.368	0.100
484.400	14.266	0.100
484.500	13.456	0.100
484.600	8.466	0.100
484.700	20.519	0.100
484.800	0.705	0.100
484.900	0.363	0.100
485.000	16.837	0.100
485.100	8.659	0.100
485.200	0.494	0.100
485.300	3.744	0.100
485.400	10.665	0.100
485.500	5.738	0.100
485.600	7.150	0.100
485.700	9.887	0.100
485.800	13.083	0.100
485.900	6.045	0.100
486.000	2.537	0.100
486.100	5.085	0.100
486.200	-2.904	0.100
486.300	3.689	0.100
486.400	11.532	0.100
486.500	2.004	0.100
486.600	3.864	0.100
486.700	9.846	0.100
486.800	10.937	0.100
486.900	13.267	0.100
487.000	13.163	0.100
487.100	5.544	0.100
487.200	5.806	0.100
487.300	-3.284	0.100
487.400	-3.288	0.100
487.500	1.781	0.100
487.600	8.091	0.100
487.700	10.599	0.100
487.800	6.528	0.100
487.900	-1.521	0.100
488.000	13.509	0.100
488.100	9.916	0.100
488.200	11.660	0.100
488.300	4.829	0.100
488.400	2.632	0.100
488.500	5.811	0.100
488.600	-0.307	0.100
488.700	1.344	0.100
488.800	1.613	0.100
488.900	-3.776	0.100
489.000	4.690	0.100
489.100	7.920	0.100
489.200	4.048	0.100
489.300	6.834	0.100
489.400	5.203	0.100
489.500	5.820	0.100
489.600	0.423	0.100
489.700	0.466	0.100
489.800	10.185	0.100
489.900	14.901	0.100
490.000	15.194	0.100
490.100	13.360	0.100
490.200	10.815	0.100
490.300	11.312	0.100
490.400	2.375	0.100
490.500	4.693	0.100
490.600	7.214	0.100
490.700	7.680	0.100
490.800	4.137	0.100
490.900	6.444	0.100
491.000	7.463	0.100
491.100	11.991	0.100
491.200	2.308	0.100
491.300	9.986	0.100
491.400	7.541	0.100
491.500	9.520	0.100
491.600	10.259	0.100
491.700	9.201	0.100
491.800	-7.644	0.100
491.900	2.927	0.100
492.000	13.216	0.100
492.100	8.179	0.100
492.200	12.946	0.100
492.300	2.273	0.100
492.400	9.185	0.100
492.500	11.599	0.100
492.600	4.235	0.100
492.700	6.954	0.100
492.800	9.717	0.100
492.900	6.077	0.100
493.000	8.877	0.100
493.100	8.435	0.100
493.200	8.920	0.100
493.300	9.351	0.100
493.400	17.519	0.100
493.500	11.947	0.100
493.600	10.123	0.100
493.700	11.807	0.100
493.800	12.732	0.100
493.900	9.216	0.100
494.000	17.526	0.100
494.100	6.955	0.100
494.200	5.895	0.100
494.300	5.886	0.100
494.400	11.122	0.100
494.500	15.554	0.100
494.600	10.005	0.100
494.700	3.944	0.100
494.800	10.814	0.100
494.900	12.682	0.100
495.000	19.930	0.100
495.100	6.449	0.100
495.200	3.018	0.100
495.300	2.255	0.100
495.400	14.829	0.100
495.500	8.039	0.100
495.600	10.758	0.100
495.700	21.733	0.100
495.800	17.477	0.100
495.900	14.221	0.100
496.000	12.490	0.100
496.100	9.675	0.100
496.200	9.575	0.100
496.300	14.864	0.100
496.400	16.915	0.100
496.500	16.044	0.100
496.600	14.202	0.100
496.700	13.087	0.100
496.800	8.655	0.100
496.900	21.942	0.100
497.000	10.383	0.100
497.100	12.590	0.100
497.200	15.546	0.100
497.300	11.961	0.100
497.400	7.442	0.100
497.500	13.533	0.100
497.600	15.958	0.100
497.700	9.156	0.100
497.800	0.501	0.100
497.900	8.141	0.100
498.000	15.873	0.100
498.100	13.160	0.100
498.200	15.894	0.100
498.300	21.515	0.100
498.400	20.306	0.100
498.500	22.690	0.100
498.600	15.752	0.100
498.700	16.807	0.100
498.800	14.993	0.100
498.900	13.784	0.100
499.000	10.589	0.100
499.100	12.553	0.100
499.200	14.406	0.100
499.300	19.735	0.100
499.400	20.031	0.100
499.500	21.028	0.100
499.600	15.737	0.100
499.700	22.910	0.100
499.800	17.988	0.100
499.900	20.965	0.100
500.000	15.330	0.100
500.100	5.627	0.100
500.200	20.782	0.100
500.300	12.213	0.100
500.400	14.810	0.100
500.500	16.437	0.100
500.600	27.158	0.100
500.700	20.509	0.100
500.800	17.188	0.100
500.900	18.157	0.100
501.000	16.328	0.100
501.100	20.155	0.100
501.200	25.364	0.100
501.300	13.744	0.100
501.400	20.433	0.100
501.500	33.073	0.100
501.600	26.264	0.100
501.700	17.424	0.100
501.800	21.522	0.100
501.900	23.346	0.100
502.000	21.850	0.100
502.100	24.939	0.100
502.200	23.073	0.100
502.300	22.307	0.100
502.400	26.726	0.100
502.500	20.242	0.100
502.600	18.411	0.100
502.700	23.467	0.100
502.800	17.762	0.100
502.900	17.172	0.100
503.000	24.843	0.100
503.100	24.986	0.100
503.200	25.052	0.100
503.300	21.298	0.100
503.400	16.363	0.100
503.500	15.770	0.100
503.600	21.964	0.100
503.700	25.714	0.100
503.800	29.623	0.100
503.900	18.612	0.100
504.000	24.962	0.100
504.100	17.951	0.100
504.200	18.895	0.100
504.300	30.227	0.100
504.400	25.486	0.100
504.500	42.254	0.100
504.600	25.620	0.100
504.700	17.167	0.100
504.800	21.821	0.100
504.900	20.175	0.100
505.000	19.238	0.100
505.100	31.402	0.100
505.200	33.664	0.100
505.300	30.129	0.100
505.400	9.546	0.100
505.500	21.013	0.100
505.600	26.748	0.100
505.700	32.730	0.100
505.800	20.868	0.100
505.900	25.690	0.100
506.000	20.181	0.100
506.100	30.041	0.100
506.200	29.051	0.100
506.300	27.209	0.100
506.400	19.775	0.100
506.500	26.867	0.100
506.600	27.542	0.100
506.700	22.532	0.100
506.800	21.893	0.100
506.900	26.827	0.100
507.000	45.674	0.100
507.100	32.619	0.100
507.200	24.746	0.100
507.300	23.729	0.100
507.400	22.025	0.100
507.500	25.517	0.100
507.600	17.945	0.100
507.700	17.711	0.100
507.800	29.226	0.100
507.900	25.033	0.100
508.000	29.168	0.100
508.100	38.973	0.100
508.200	21.847	0.100
508.300	23.509	0.100
508.400	27.324	0.100
508.500	34.449	0.100
508.600	32.759	0.100
508.700	33.854	0.100
508.800	34.401	0.100
508.900	20.401	0.100
509.000	18.601	0.100
509.100	26.073	0.100
509.200	30.123	0.100
509.300	27.181	0.100
509.400	33.624	0.100
509.500	30.486	0.100
509.600	36.626	0.100
509.700	23.641	0.100
509.800	28.408	0.100
509.900	33.088	0.100
510.000	27.606	0.100
510.100	29.292	0.100
510.200	27.312	0.100
510.300	32.997	0.100
510.400	38.607	0.100
510.500	36.958	0.100
510.600	31.013	0.100
510.700	32.197	0.100
510.800	28.616	0.100
510.900	32.835	0.100
511.000	38.964	0.100
511.100	28.425	0.100
511.200	24.591	0.100
511.300	28.539	0.100
511.400	38.084	0.100
511.500	38.315	0.100
511.600	36.586	0.100
511.700	25.052	0.100
511.800	26.952	0.100
511.900	30.343	0.100
512.000	31.266	0.100
512.100	31.815	0.100
512.200	34.448	0.100
512.300	28.456	0.100
512.400	24.946	0.100
512.500	29.087	0.100
512.600	29.834	0.100
512.700	39.687	0.100
512.800	32.625	0.100
512.900	26.160	0.100
513.000	36.209	0.100
513.100	39.797	0.100
513.200	36.787	0.100
513.300	27.152	0.100
513.400	32.367	0.100
513.500	36.607	0.100
513.600	32.716	0.100
513.700	34.879	0.100
513.800	36.080	0.100
513.900	37.447	0.100
514.000	37.656	0.100
514.100	22.652	0.100
514.200	29.228	0.100
514.300	29.695	0.100
514.400	42.350	0.100
514.500	36.735	0.100
514.600	38.004	0.100
514.700	32.575	0.100
514.800	27.277	0.100
514.900	28.685	0.100
515.000	40.445	0.100
515.100	37.102	0.100
515.200	32.830	0.100
515.300	22.999	0.100
515.400	35.798	0.100
515.500	28.368	0.100
515.600	24.050	0.100
515.700	23.365	0.100
515.800	33.893	0.100
515.900	28.192	0.100
516.000	32.697	0.100
516.100	37.937	0.100
516.200	28.833	0.100
516.300	36.706	0.100
516.400	38.886	0.100
516.500	37.688	0.100
516.600	26.200	0.100
516.700	30.712	0.100
516.800	33.188	0.100
516.900	34.521	0.100
517.000	34.247	0.100
517.100	34.723	0.100
517.200	35.078	0.100
517.300	32.609	0.100
517.400	41.020	0.100
517.500	27.938	0.100
517.600	31.470	0.100
517.700	36.041	0.100
517.800	35.938	0.100
517.900	22.793	0.100
518.000	37.893	0.100
518.100	37.614	0.100
518.200	30.330	0.100
518.300	41.166	0.100
518.400	40.076	0.100
518.500	36.074	0.100
518.600	34.843	0.100
518.700	35.976	0.100
518.800	35.127	0.100
518.900	32.776	0.100
519.000	39.763	0.100
519.100	34.592	0.100
519.200	32.967	0.100
519.300	34.380	0.100
519.400	30.040	0.100
519.500	32.809	0.100
519.600	30.996	0.100
519.700	31.208	0.100
519.800	36.205	0.100
519.900	30.693	0.100
520.000	35.794	0.100
520.100	26.561	0.100
520.200	25.875	0.100
520.300	40.094	0.100
520.400	30.335	0.100
520.500	30.883	0.100
520.600	38.754	0.100
520.700	31.335	0.100
520.800	29.555	0.100
520.900	29.800	0.100
521.000	32.649	0.100
521.100	36.760	0.100
521.200	30.730	0.100
521.300	44.189	0.100
521.400	44.362	0.100
521.500	24.916	0.100
521.600	28.794	0.100
521.700	43.179	0.100
521.800	35.515	0.100
521.900	36.825	0.100
522.000	39.336	0.100
522.100	39.616	0.100
522.200	39.744	0.100
522.300	40.150	0.100
522.400	33.931	0.100
522.500	32.317	0.100
522.600	39.384	0.100
522.700	39.184	0.100
522.800	21.596	0.100
522.900	27.821	0.100
523.000	37.645	0.100
523.100	39.574	0.100
523.200	39.129	0.100
523.300	38.347	0.100
523.400	33.945	0.100
523.500	26.924	0.100
523.600	31.616	0.100
523.700	38.032	0.100
523.800	37.406	0.100
523.900	33.788	0.100
524.000	32.620	0.100
524.100	28.941	0.100
524.200	20.175	0.100
524.300	33.669	0.100
524.400	36.106	0.100
524.500	43.404	0.100
524.600	40.882	0.100
524.700	28.155	0.100
524.800	34.817	0.100
524.900	32.742	0.100
525.000	27.842	0.100
525.100	40.683	0.100
525.200	35.032	0.100
525.300	32.881	0.100
525.400	35.097	0.100
525.500	33.580	0.100
525.600	34.281	0.100
525.700	33.047	0.100
525.800	35.067	0.100
525.900	34.217	0.100
526.000	35.416	0.100
526.100	39.526	0.100
526.200	31.491	0.100
526.300	32.193	0.100
526.400	32.230	0.100
526.500	25.517	0.100
526.600	37.404	0.100
526.700	39.786	0.100
526.800	30.370	0.100
526.900	39.937	0.100
527.000	36.535	0.100
527.100	30.635	0.100
527.200	28.494	0.100
527.300	31.664	0.100
527.400	32.229	0.100
527.500	31.776	0.100
527.600	41.331	0.100
527.700	34.947	0.100
527.800	34.689	0.100
527.900	35.210	0.100
528.000	46.716	0.100
528.100	43.277	0.100
528.200	27.980	0.100
528.300	29.534	0.100
528.400	27.392	0.100
528.500	34.635	0.100
528.600	33.455	0.100
528.700	34.693	0.100
528.800	33.235	0.100
528.900	33.967	0.100
529.000	32.270	0.100
529.100	27.112	0.100
529.200	30.054	0.100
529.300	41.232	0.100
529.400	34.833	0.100
529.500	30.068	0.100
529.600	31.980	0.100
529.700	32.760	0.100
529.800	37.162	0.100
529.900	37.914	0.100
530.000	31.812	0.100
530.100	29.427	0.100
530.200	37.300	0.100
530.300	27.708	0.100
530.400	38.956	0.100
530.500	30.554	0.100
530.600	28.257	0.100
530.700	32.543	0.100
530.800	25.325	0.100
530.900	30.536	0.100
531.000	27.450	0.100
531.100	29.732	0.100
531.200	37.601	0.100
531.300	30.164	0.100
531.400	37.103	0.100
531.500	31.566	0.100
531.600	40.780	0.100
531.700	32.105	0.100
531.800	31.614	0.100
531.900	33.802	0.100
532.000	31.654	0.100
532.100	34.184	0.100
532.200	32.008	0.100
532.300	39.449	0.100
532.400	34.818	0.100
532.500	30.256	0.100
532.600	29.294	0.100
532.700	34.116	0.100
532.800	34.475	0.100
532.900	43.502	0.100
533.000	29.935	0.100
533.100	28.065	0.100
533.200	29.758	0.100
533.300	36.805	0.100
533.400	27.621	0.100
533.500	37.126	0.100
533.600	25.831	0.100
533.700	28.554	0.100
533.800	38.162	0.100
533.900	35.658	0.100
534.000	15.412	0.100
534.100	32.234	0.100
534.200	42.320	0.100
534.300	25.688	0.100
534.400	29.942	0.100
534.500	35.892	0.100
534.600	37.055	0.100
534.700	34.486	0.100
534.800	33.428	0.100
534.900	44.353	0.100
535.000	36.365	0.100
535.100	26.713	0.100
535.200	35.006	0.100
535.300	32.882	0.100
535.400	32.058	0.100
535.500	22.942	0.100
535.600	41.813	0.100
535.700	31.946	0.100
535.800	25.017	0.100
535.900	23.632	0.100
536.000	28.383	0.100
536.100	37.004	0.100
536.200	41.685	0.100
536.300	29.234	0.100
536.400	38.923	0.100
536.500	36.314	0.100
536.600	30.047	0.100
536.700	33.812	0.100
536.800	35.920	0.100
536.900	29.454	0.100
537.000	33.447	0.100
537.100	35.296	0.100
537.200	34.644	0.100
537.300	30.370	0.100
537.400	36.664	0.100
537.500	34.539	0.100
537.600	35.358	0.100
537.700	30.615	0.100
537.800	28.004	0.100
537.900	30.942	0.100
538.000	32.002	0.100
538.100	28.445	0.100
538.200	33.707	0.100
538.300	30.978	0.100
538.400	34.652	0.100
538.500	37.191	0.100
538.600	26.298	0.100
538.700	32.289	0.100
538.800	42.150	0.100
538.900	33.492	0.100
539.000	41.749	0.100
539.100	37.404	0.100
539.200	29.385	0.100
539.300	32.588	0.100
539.400	35.239	0.100
539.500	24.994	0.100
539.600	34.616	0.100
539.700	33.798	0.100
539.800	33.370	0.100
539.900	36.651	0.100
540.000	27.074	0.100
540.100	30.248	0.100
540.200	25.350	0.100
540.300	29.629	0.100
540.400	23.858	0.100
540.500	17.723	0.100
540.600	26.455	0.100
540.700	31.284	0.100
540.800	29.185	0.100
540.900	15.322	0.100
541.000	37.675	0.100
541.100	17.480	0.100
541.200	21.821	0.100
541.300	19.597	0.100
541.400	29.833	0.100
541.500	18.436	0.100
541.600	19.273	0.100
541.700	19.850	0.100
541.800	10.523	0.100
541.900	16.053	0.100
542.000	19.485	0.100
542.100	9.408	0.100
542.200	17.392	0.100
542.300	9.678	0.100
542.400	7.138	0.100
542.500	16.712	0.100
542.600	11.358	0.100
542.700	10.932	0.100
542.800	8.788	0.100
542.900	3.871	0.100
543.000	4.785	0.100
543.100	2.119	0.100
543.200	5.465	0.100
543.300	6.018	0.100
543.400	8.693	0.100
543.500	6.465	0.100
543.600	11.040	0.100
543.700	7.609	0.100
543.800	9.586	0.100
543.900	3.801	0.100
544.000	5.913	0.100
544.100	6.068	0.100
544.200	10.299	0.100
544.300	11.403	0.100
544.400	7.536	0.100
544.500	7.206	0.100
544.600	4.144	0.100
544.700	2.141	0.100
544.800	19.675	0.100
544.900	-2.679	0.100
545.000	1.876	0.100
545.100	-1.954	0.100
545.200	-0.934	0.100
545.300	-0.369	0.100
545.400	2.673	0.100
545.500	8.702	0.100
545.600	8.121	0.100
545.700	4.314	0.100
545.800	3.528	0.100
545.900	2.602	0.100
546.000	0.561	0.100
546.100	-3.067	0.100
546.200	6.896	0.100
546.300	12.553	0.100
546.400	0.537	0.100
546.500	5.196	0.100
546.600	12.348	0.100
546.700	0.677	0.100
546.800	5.618	0.100
546.900	3.766	0.100
547.000	4.097	0.100
547.100	8.719	0.100
547.200	1.442	0.100
547.300	10.985	0.100
547.400	-9.819	0.100
547.500	5.383	0.100
547.600	2.750	0.100
547.700	0.982	0.100
547.800	7.185	0.100
547.900	-1.317	0.100
548.000	0.354	0.100
548.100	-2.893	0.100
548.200	-1.714	0.100
548.300	8.705	0.100
548.400	5.052	0.100
548.500	3.926	0.100
548.600	4.101	0.100
548.700	-2.125	0.100
548.800	2.879	0.100
548.900	-4.940	0.100
549.000	4.111	0.100
549.100	2.361	0.100
549.200	3.720	0.100
549.300	-8.585	0.100
549.400	-5.391	0.100
549.500	1.394	0.100
549.600	12.547	0.100
549.700	1.523	0.100
549.800	-2.316	0.100
549.900	-2.874	0.100
550.000	-0.448	0.100
550.100	-1.259	0.100
550.200	2.365	0.100
550.300	-1.749	0.100
550.400	6.754	0.100
550.500	10.306	0.100
550.600	0.734	0.100
550.700	-3.020	0.100
550.800	-0.983	0.100
550.900	-1.632	0.100
551.000	-1.624	0.100
551.100	1.447	0.100
551.200	4.495	0.100
551.300	-10.695	0.100
551.400	-7.324	0.100
551.500	-8.270	0.100
551.600	7.755	0.100
551.700	-0.879	0.100
551.800	-10.885	0.100
551.900	-5.737	0.100
552.000	0.192	0.100
552.100	3.827	0.100
552.200	-5.864	0.100
552.300	-5.117	0.100
552.400	-5.346	0.100
552.500	-2.790	0.100
552.600	-2.320	0.100
552.700	2.611	0.100
552.800	-13.211	0.100
552.900	-0.679	0.100
553.000	-4.043	0.100
553.100	-6.120	0.100
553.200	-2.218	0.100
553.300	0.489	0.100
553.400	0.137	0.100
553.500	4.693	0.100
553.600	-4.464	0.100
553.700	0.154	0.100
553.800	-4.047	0.100
553.900	-11.715	0.100
554.000	-3.835	0.100
554.100	-5.833	0.100
554.200	-9.625	0.100
554.300	-15.332	0.100
554.400	-12.941	0.100
554.500	7.712	0.100
554.600	-6.038	0.100
554.700	-5.285	0.100
554.800	0.282	0.100
554.900	9.008	0.100
555.000	-0.779	0.100
555.100	-5.503	0.100
555.200	-1.327	0.100
555.300	-3.061	0.100
555.400	-6.453	0.100
555.500	-9.400	0.100
555.600	-4.019	0.100
555.700	-7.167	0.100
555.800	-8.479	0.100
555.900	-6.509	0.100
556.000	-12.141	0.100
556.100	-0.666	0.100
556.200	2.542	0.100
556.300	-9.155	0.100
556.400	-9.416	0.100
556.500	-1.364	0.100
556.600	-9.450	0.100
556.700	-1.286	0.100
556.800	-11.865	0.100
556.900	-14.733	0.100
557.000	0.253	0.100
557.100	-11.693	0.100
557.200	-7.488	0.100
557.300	-12.276	0.100
557.400	-16.548	0.100
557.500	-2.700	0.100
557.600	-5.265	0.100
557.700	-9.943	0.100
557.800	-12.913	0.100
557.900	-9.187	0.100
558.000	-9.521	0.100
558.100	-12.169	0.100
558.200	-9.968	0.100
558.300	-16.849	0.100
558.400	-10.408	0.100
558.500	-5.559	0.100
558.600	-18.504	0.100
558.700	-8.783	0.100
558.800	-14.306	0.100
558.900	-20.294	0.100
559.000	-5.281	0.100
559.100	-2.729	0.100
559.200	-4.472	0.100
559.300	-18.867	0.100
559.400	-21.716	0.100
559.500	-3.188	0.100
559.600	-9.116	0.100
559.700	-24.727	0.100
559.800	-22.689	0.100
559.900	-13.924	0.100
560.000	-10.303	0.100
560.100	-6.728	0.100
560.200	-5.124	0.100
560.300	-8.229	0.100
560.400	-9.439	0.100
560.500	-12.581	0.100
560.600	-8.395	0.100
560.700	-11.966	0.100
560.800	-16.520	0.100
560.900	-14.547	0.100
561.000	-12.741	0.100
561.100	-14.072	0.100
561.200	-15.174	0.100
561.300	-10.502	0.100
561.400	-15.360	0.100
561.500	-6.342	0.100
561.600	-4.455	0.100
561.700	-17.459	0.100
561.800	-18.488	0.100
561.900	-17.038	0.100
562.000	-12.100	0.100
562.100	-24.099	0.100
562.200	-11.927	0.100
562.300	-15.569	0.100
562.400	-15.452	0.100
562.500	-10.030	0.100
562.600	-19.542	0.100
562.700	-27.744	0.100
562.800	-14.080	0.100
562.900	-13.846	0.100
563.000	-8.018	0.100
563.100	-22.526	0.100
563.200	-11.606	0.100
563.300	-16.987	0.100
563.400	-17.515	0.100
563.500	-18.488	0.100
563.600	-15.469	0.100
563.700	-14.428	0.100
563.800	-24.615	0.100
563.900	-5.726	0.100
564.000	-24.407	0.100
564.100	-20.801	0.100
564.200	-22.527	0.100
564.300	-13.712	0.100
564.400	-23.445	0.100
564.500	-30.074	0.100
564.600	-11.613	0.100
564.700	-10.283	0.100
564.800	-14.194	0.100
564.900	-16.546	0.100
565.000	-8.692	0.100
565.100	-21.514	0.100
565.200	-17.452	0.100
565.300	-15.800	0.100
565.400	-20.126	0.100
565.500	-18.705	0.100
565.600	-20.229	0.100
565.700	-9.920	0.100
565.800	-23.245	0.100
565.900	-20.497	0.100
566.000	-16.251	0.100
566.100	-14.874	0.100
566.200	-21.945	0.100
566.300	-22.846	0.100
566.400	-12.724	0.100
566.500	-16.634	0.100
566.600	-16.157	0.100
566.700	-16.797	0.100
566.800	-16.763	0.100
566.900	-20.819	0.100
567.000	-19.965	0.100
567.100	-23.560	0.100
567.200	-19.736	0.100
567.300	-19.220	0.100
567.400	-21.353	0.100
567.500	-28.577	0.100
567.600	-16.285	0.100
567.700	-24.788	0.100
567.800	-27.475	0.100
567.900	-31.476	0.100
568.000	-16.720	0.100
568.100	-17.276	0.100
568.200	-28.233	0.100
568.300	-19.588	0.100
568.400	-19.185	0.100
568.500	-19.182	0.100
568.600	-17.971	0.100
568.700	-14.159	0.100
568.800	-27.206	0.100
568.900	-16.848	0.100
569.000	-26.949	0.100
569.100	-15.921	0.100
569.200	-20.253	0.100
569.300	-17.596	0.100
569.400	-24.652	0.100
569.500	-23.585	0.100
569.600	-22.936	0.100
569.700	-22.377	0.100
569.800	-23.108	0.100
569.900	-20.266	0.100
570.000	-26.710	0.100
570.100	-18.056	0.100
570.200	-26.191	0.100
570.300	-14.593	0.100
570.400	-19.274	0.100
570.500	-35.248	0.100
570.600	-31.006	0.100
570.700	-23.452	0.100
570.800	-25.926	0.100
570.900	-15.870	0.100
571.000	-22.277	0.100
571.100	-15.387	0.100
571.200	-24.740	0.100
571.300	-24.991	0.100
571.400	-24.794	0.100
571.500	-18.670	0.100
571.600	-26.559	0.100
571.700	-24.796	0.100
571.800	-32.791	0.100
571.900	-17.723	0.100
572.000	-24.970	0.100
572.100	-24.108	0.100
572.200	-15.422	0.100
572.300	-19.460	0.100
572.400	-26.448	0.100
572.500	-36.647	0.100
572.600	-29.093	0.100
572.700	-24.987	0.100
572.800	-25.867	0.100
572.900	-21.245	0.100
573.000	-28.016	0.100
573.100	-31.243	0.100
573.200	-27.275	0.100
573.300	-19.247	0.100
573.400	-26.931	0.100
573.500	-22.558	0.100
573.600	-27.173	0.100
573.700	-30.460	0.100
573.800	-27.825	0.100
573.900	-28.291	0.100
574.000	-16.555	0.100
574.100	-32.189	0.100
574.200	-27.293	0.100
574.300	-29.896	0.100
574.400	-33.533	0.100
574.500	-28.445	0.100
574.600	-35.710	0.100
574.700	-24.835	0.100
574.800	-30.562	0.100
574.900	-34.554	0.100
575.000	-25.976	0.100
575.100	-25.430	0.100
575.200	-28.542	0.100
575.300	-22.715	0.100
575.400	-30.038	0.100
575.500	-26.589	0.100
575.600	-34.612	0.100
575.700	-27.290	0.100
575.800	-18.105	0.100
575.900	-20.773	0.100
576.000	-29.242	0.100
576.100	-21.926	0.100
576.200	-27.496	0.100
576.300	-36.732	0.100
576.400	-26.443	0.100
576.500	-36.165	0.100
576.600	-21.941	0.100
576.700	-25.271	0.100
576.800	-31.050	0.100
576.900	-27.900	0.100
577.000	-23.229	0.100
577.100	-22.900	0.100
577.200	-27.169	0.100
577.300	-25.525	0.100
577.400	-31.393	0.100
577.500	-36.600	0.100
577.600	-30.666	0.100
577.700	-28.906	0.100
577.800	-39.996	0.100
577.900	-44.169	0.100
578.000	-26.795	0.100
578.100	-24.880	0.100
578.200	-29.473	0.100
578.300	-27.440	0.100
578.400	-29.392	0.100
578.500	-32.392	0.100
578.600	-25.716	0.100
578.700	-25.824	0.100
578.800	-37.216	0.100
578.900	-35.175	0.100
579.000	-26.252	0.100
579.100	-28.705	0.100
579.200	-31.225	0.100
579.300	-21.800	0.100
579.400	-34.588	0.100
579.500	-28.954	0.100
579.600	-29.198	0.100
579.700	-23.780	0.100
579.800	-27.741	0.100
579.900	-33.889	0.100
580.000	-31.059	0.100
580.100	-26.737	0.100
580.200	-19.783	0.100
580.300	-31.334	0.100
580.400	-33.936	0.100
580.500	-34.798	0.100
580.600	-34.124	0.100
580.700	-35.830	0.100
580.800	-24.738	0.100
580.900	-35.069	0.100
581.000	-25.252	0.100
581.100	-34.490	0.100
581.200	-27.442	0.100
581.300	-25.276	0.100
581.400	-26.418	0.100
581.500	-11.029	0.100
581.600	-17.765	0.100
581.700	-31.261	0.100
581.800	-36.976	0.100
581.900	-42.348	0.100
582.000	-32.205	0.100
582.100	-27.141	0.100
582.200	-31.815	0.100
582.300	-29.766	0.100
582.400	-31.819	0.100
582.500	-16.051	0.100
582.600	-19.621	0.100
582.700	-33.181	0.100
582.800	-32.742	0.100
582.900	-28.696	0.100
583.000	-32.769	0.100
583.100	-24.235	0.100
583.200	-27.044	0.100
583.300	-20.348	0.100
583.400	-27.149	0.100
583.500	-22.596	0.100
583.600	-29.247	0.100
583.700	-26.860	0.100
583.800	-34.162	0.100
583.900	-37.272	0.100
584.000	-30.239	0.100
584.100	-19.365	0.100
584.200	-19.872	0.100
584.300	-35.648	0.100
584.400	-38.976	0.100
584.500	-38.487	0.100
584.600	-26.883	0.100
584.700	-34.022	0.100
584.800	-43.114	0.100
584.900	-29.346	0.100
585.000	-34.989	0.100
585.100	-27.620	0.100
585.200	-27.279	0.100
585.300	-22.897	0.100
585.400	-27.635	0.100
585.500	-33.985	0.100
585.600	-31.803	0.100
585.700	-22.475	0.100
585.800	-25.128	0.100
585.900	-30.413	0.100
586.000	-30.755	0.100
586.100	-20.092	0.100
586.200	-28.191	0.100
586.300	-25.038	0.100
586.400	-25.146	0.100
586.500	-18.728	0.100
586.600	-30.031	0.100
586.700	-29.192	0.100
586.800	-24.459	0.100
586.900	-29.522	0.100
587.000	-30.814	0.100
587.100	-34.251	0.100
587.200	-28.301	0.100
587.300	-30.208	0.100
587.400	-28.359	0.100
587.500	-38.076	0.100
587.600	-44.271	0.100
587.700	-25.279	0.100
587.800	-29.787	0.100
587.900	-28.065	0.100
588.000	-34.017	0.100
588.100	-25.847	0.100
588.200	-33.189	0.100
588.300	-27.078	0.100
588.400	-31.477	0.100
588.500	-34.771	0.100
588.600	-26.015	0.100
588.700	-26.668	0.100
588.800	-28.044	0.100
588.900	-30.172	0.100
589.000	-37.483	0.100
589.100	-21.493	0.100
589.200	-25.795	0.100
589.300	-31.593	0.100
589.400	-30.245	0.100
589.500	-32.778	0.100
589.600	-33.876	0.100
589.700	-37.458	0.100
589.800	-20.924	0.100
589.900	-26.825	0.100
590.000	-32.827	0.100
590.100	-29.490	0.100
590.200	-18.882	0.100
590.300	-30.179	0.100
590.400	-29.555	0.100
590.500	-20.665	0.100
590.600	-28.917	0.100
590.700	-30.001	0.100
590.800	-32.358	0.100
590.900	-25.685	0.100
591.000	-26.919	0.100
591.100	-35.636	0.100
591.200	-34.559	0.100
591.300	-25.915	0.100
591.400	-36.234	0.100
591.500	-33.872	0.100
591.600	-29.404	0.100
591.700	-22.776	0.100
591.800	-31.023	0.100
591.900	-21.536	0.100
592.000	-28.287	0.100
592.100	-31.718	0.100
592.200	-29.883	0.100
592.300	-32.447	0.100
592.400	-31.795	0.100
592.500	-35.053	0.100
592.600	-26.837	0.100
592.700	-25.595	0.100
592.800	-25.118	0.100
592.900	-36.879	0.100
593.000	-32.936	0.100
593.100	-21.568	0.100
593.200	-24.576	0.100
593.300	-20.885	0.100
593.400	-25.423	0.100
593.500	-32.700	0.100
593.600	-31.705	0.100
593.700	-18.999	0.100
593.800	-24.844	0.100
593.900	-23.630	0.100
594.000	-28.932	0.100
594.100	-36.301	0.100
594.200	-28.729	0.100
594.300	-22.434	0.100
594.400	-27.726	0.100
594.500	-41.299	0.100
594.600	-24.522	0.100
594.700	-31.556	0.100
594.800	-25.209	0.100
594.900	-32.017	0.100
595.000	-37.006	0.100
595.100	-28.370	0.100
595.200	-27.600	0.100
595.300	-24.559	0.100
595.400	-35.210	0.100
595.500	-31.918	0.100
595.600	-23.260	0.100
595.700	-31.414	0.100
595.800	-32.712	0.100
595.900	-24.972	0.100
596.000	-30.323	0.100
596.100	-25.466	0.100
596.200	-36.022	0.100
596.300	-28.669	0.100
596.400	-29.036	0.100
596.500	-18.842	0.100
596.600	-32.039	0.100
596.700	-32.186	0.100
596.800	-24.492	0.100
596.900	-37.012	0.100
597.000	-30.328	0.100
597.100	-28.131	0.100
597.200	-26.745	0.100
597.300	-27.494	0.100
597.400	-25.299	0.100
597.500	-19.937	0.100
597.600	-16.698	0.100
597.700	-31.597	0.100
597.800	-27.799	0.100
597.900	-29.320	0.100
598.000	-29.513	0.100
598.100	-30.028	0.100
598.200	-29.192	0.100
598.300	-28.644	0.100
598.400	-28.822	0.100
598.500	-22.027	0.100
598.600	-23.469	0.100
598.700	-28.096	0.100
598.800	-37.082	0.100
598.900	-19.478	0.100
599.000	-31.959	0.100
599.100	-27.828	0.100
599.200	-25.738	0.100
599.300	-19.438	0.100
599.400	-24.531	0.100
599.500	-30.339	0.100
599.600	-20.715	0.100
599.700	-28.663	0.100
599.800	-26.632	0.100
599.900	-38.837	0.100
600.000	-31.178	0.100
600.100	-21.530	0.100
600.200	-19.443	0.100
600.300	-31.254	0.100
600.400	-25.224	0.100
600.500	-30.597	0.100
600.600	-34.255	0.100
600.700	-25.232	0.100
600.800	-39.636	0.100
600.900	-24.108	0.100
601.000	-21.071	0.100
601.100	-26.935	0.100
601.200	-28.734	0.100
601.300	-33.058	0.100
601.400	-23.642	0.100
601.500	-27.970	0.100
601.600	-19.352	0.100
601.700	-34.333	0.100
601.800	-24.320	0.100
601.900	-28.566	0.100
602.000	-24.607	0.100
602.100	-29.313	0.100
602.200	-32.045	0.100
602.300	-32.113	0.100
602.400	-24.401	0.100
602.500	-35.170	0.100
602.600	-27.219	0.100
602.700	-27.211	0.100
602.800	-14.710	0.100
602.900	-23.660	0.100
603.000	-20.548	0.100
603.100	-24.688	0.100
603.200	-23.815	0.100
603.300	-32.958	0.100
603.400	-27.479	0.100
603.500	-20.638	0.100
603.600	-24.401	0.100
603.700	-22.530	0.100
603.800	-17.922	0.100
603.900	-24.938	0.100
604.000	-23.034	0.100
604.100	-18.506	0.100
604.200	-34.586	0.100
604.300	-25.293	0.100
604.400	-31.491	0.100
604.500	-24.900	0.100
604.600	-28.242	0.100
604.700	-28.557	0.100
604.800	-23.985	0.100
604.900	-18.896	0.100
605.000	-18.037	0.100
605.100	-24.530	0.100
605.200	-28.513	0.100
605.300	-30.815	0.100
605.400	-23.707	0.100
605.500	-27.967	0.100
605.600	-36.221	0.100
605.700	-25.070	0.100
605.800	-27.448	0.100
605.900	-22.622	0.100
606.000	-19.211	0.100
606.100	-19.030	0.100
606.200	-23.610	0.100
606.300	-21.331	0.100
606.400	-21.370	0.100
606.500	-21.978	0.100
606.600	-29.302	0.100
606.700	-32.404	0.100
606.800	-29.765	0.100
606.900	-26.665	0.100
607.000	-33.634	0.100
607.100	-32.966	0.100
607.200	-24.035	0.100
607.300	-35.845	0.100
607.400	-29.501	0.100
607.500	-23.937	0.100
607.600	-21.670	0.100
607.700	-19.190	0.100
607.800	-24.667	0.100
607.900	-33.047	0.100
608.000	-25.184	0.100
608.100	-21.713	0.100
608.200	-30.238	0.100
608.300	-35.847	0.100
608.400	-26.700	0.100
608.500	-21.117	0.100
608.600	-21.381	0.100
608.700	-19.353	0.100
608.800	-17.110	0.100
608.900	-18.677	0.100
609.000	-28.452	0.100
609.100	-25.766	0.100
609.200	-20.072	0.100
609.300	-20.763	0.100
609.400	-34.347	0.100
609.500	-22.292	0.100
609.600	-26.727	0.100
609.700	-24.223	0.100
609.800	-22.336	0.100
609.900	-27.693	0.100
610.000	-32.881	0.100
610.100	-29.862	0.100
610.200	-16.002	0.100
610.300	-25.368	0.100
610.400	-24.650	0.100
610.500	-24.167	0.100
610.600	-25.075	0.100
610.700	-27.842	0.100
610.800	-16.899	0.100
610.900	-27.256	0.100
611.000	-27.163	0.100
611.100	-22.654	0.100
611.200	-17.961	0.100
611.300	-22.106	0.100
611.400	-21.509	0.100
611.500	-31.190	0.100
611.600	-29.494	0.100
611.700	-29.707	0.100
611.800	-29.609	0.100
611.900	-30.555	0.100
612.000	-27.651	0.100
612.100	-20.910	0.100
612.200	-29.921	0.100
612.300	-26.252	0.100
612.400	-24.593	0.100
612.500	-22.504	0.100
612.600	-19.270	0.100
612.700	-28.083	0.100
612.800	-21.035	0.100
612.900	-21.118	0.100
613.000	-26.937	0.100
613.100	-34.799	0.100
613.200	-27.278	0.100
613.300	-27.707	0.100
613.400	-25.363	0.100
613.500	-24.316	0.100
613.600	-21.304	0.100
613.700	-31.265	0.100
613.800	-31.353	0.100
613.900	-18.916	0.100
614.000	-26.226	0.100
614.100	-23.229	0.100
614.200	-19.404	0.100
614.300	-10.824	0.100
614.400	-23.545	0.100
614.500	-34.401	0.100
614.600	-19.289	0.100
614.700	-31.504	0.100
614.800	-30.187	0.100
614.900	-29.440	0.100
615.000	-27.671	0.100
615.100	-19.867	0.100
615.200	-21.000	0.100
615.300	-21.268	0.100
615.400	-24.791	0.100
615.500	-18.274	0.100
615.600	-17.238	0.100
615.700	-18.605	0.100
615.800	-24.372	0.100
615.900	-23.773	0.100
616.000	-28.991	0.100
616.100	-28.387	0.100
616.200	-18.909	0.100
616.300	-19.251	0.100
616.400	-18.692	0.100
616.500	-15.949	0.100
616.600	-23.107	0.100
616.700	-22.229	0.100
616.800	-22.333	0.100
616.900	-26.308	0.100
617.000	-27.569	0.100
617.100	-21.406	0.100
617.200	-27.106	0.100
617.300	-35.889	0.100
617.400	-20.084	0.100
617.500	-17.527	0.100
617.600	-28.246	0.100
617.700	-18.479	0.100
617.800	-19.179	0.100
617.900	-25.786	0.100
618.000	-33.027	0.100
618.100	-29.560	0.100
618.200	-32.590	0.100
618.300	-18.009	0.100
618.400	-18.728	0.100
618.500	-15.063	0.100
618.600	-26.225	0.100
618.700	-23.960	0.100
618.800	-34.466	0.100
618.900	-34.682	0.100
619.000	-24.133	0.100
619.100	-21.011	0.100
619.200	-19.430	0.100
619.300	-18.209	0.100
619.400	-19.853	0.100
619.500	-32.237	0.100
619.600	-12.244	0.100
619.700	-27.318	0.100
619.800	-15.337	0.100
619.900	-17.859	0.100
620.000	-26.567	0.100
620.100	-27.006	0.100
620.200	-36.469	0.100
620.300	-31.677	0.100
620.400	-17.968	0.100
620.500	-20.408	0.100
620.600	-25.173	0.100
620.700	-15.845	0.100
620.800	-23.812	0.100
620.900	-29.464	0.100
621.000	-20.522	0.100
621.100	-18.094	0.100
621.200	-23.269	0.100
621.300	-19.601	0.100
621.400	-21.964	0.100
621.500	-25.287	0.100
621.600	-23.444	0.100
621.700	-24.174	0.100
621.800	-22.889	0.100
621.900	-24.892	0.100
622.000	-19.740	0.100
622.100	-22.444	0.100
622.200	-26.129	0.100
622.300	-19.559	0.100
622.400	-23.617	0.100
622.500	-26.241	0.100
622.600	-22.770	0.100
622.700	-23.867	0.100
622.800	-21.877	0.100
622.900	-27.536	0.100
623.000	-17.669	0.100
623.100	-20.104	0.100
623.200	-29.139	0.100
623.300	-33.053	0.100
623.400	-19.051	0.100
623.500	-21.541	0.100
623.600	-27.966	0.100
623.700	-22.580	0.100
623.800	-16.586	0.100
623.900	-27.295	0.100
624.000	-30.328	0.100
624.100	-24.972	0.100
624.200	-20.298	0.100
624.300	-22.764	0.100
624.400	-21.852	0.100
624.500	-19.511	0.100
624.600	-17.794	0.100
624.700	-17.761	0.100
624.800	-25.640	0.100
624.900	-24.017	0.100
625.000	-26.420	0.100
625.100	-27.059	0.100
625.200	-24.995	0.100
625.300	-10.643	0.100
625.400	-29.706	0.100
625.500	-24.135	0.100
625.600	-27.996	0.100
625.700	-19.384	0.100
625.800	-22.569	0.100
625.900	-28.856	0.100
626.000	-27.669	0.100
626.100	-17.094	0.100
626.200	-20.126	0.100
626.300	-21.380	0.100
626.400	-25.635	0.100
626.500	-24.043	0.100
626.600	-32.042	0.100
626.700	-13.048	0.100
626.800	-28.531	0.100
626.900	-18.490	0.100
627.000	-17.197	0.100
627.100	-16.750	0.100
627.200	-17.243	0.100
627.300	-17.499	0.100
627.400	-24.953	0.100
627.500	-25.302	0.100
627.600	-24.682	0.100
627.700	-8.393	0.100
627.800	-21.659	0.100
627.900	-22.623	0.100
628.000	-26.023	0.100
628.100	-17.948	0.100
628.200	-16.704	0.100
628.300	-29.911	0.100
628.400	-25.498	0.100
628.500	-26.400	0.100
628.600	-26.774	0.100
628.700	-23.895	0.100
628.800	-20.959	0.100
628.900	-26.717	0.100
629.000	-29.452	0.100
629.100	-31.701	0.100
629.200	-28.330	0.100
629.300	-16.583	0.100
629.400	-20.130	0.100
629.500	-29.456	0.100
629.600	-27.553	0.100
629.700	-17.380	0.100
629.800	-22.130	0.100
629.900	-23.246	0.100
630.000	-16.048	0.100
630.100	-24.725	0.100
630.200	-28.504	0.100
630.300	-23.380	0.100
630.400	-24.577	0.100
630.500	-20.732	0.100
630.600	-14.176	0.100
630.700	-5.154	0.100
630.800	-8.292	0.100
630.900	-6.541	0.100
631.000	-10.203	0.100
631.100	8.688	0.100
631.200	-8.465	0.100
631.300	-11.693	0.100
631.400	-10.624	0.100
631.500	-1.819	0.100
631.600	5.392	0.100
631.700	8.267	0.100
631.800	8.958	0.100
631.900	7.782	0.100
632.000	0.268	0.100
632.100	12.080	0.100
632.200	5.351	0.100
632.300	18.157	0.100
632.400	11.166	0.100
632.500	-7.202	0.100
632.600	6.916	0.100
632.700	6.471	0.100
632.800	12.569	0.100
632.900	7.970	0.100
633.000	12.536	0.100
633.100	17.739	0.100
633.200	12.234	0.100
633.300	20.505	0.100
633.400	8.793	0.100
633.500	11.229	0.100
633.600	20.705	0.100
633.700	8.547	0.100
633.800	2.087	0.100
633.900	14.827	0.100
634.000	2.077	0.100
634.100	5.072	0.100
634.200	9.445	0.100
634.300	9.096	0.100
634.400	8.194	0.100
634.500	11.661	0.100
634.600	14.846	0.100
634.700	14.149	0.100
634.800	8.144	0.100
634.900	11.809	0.100
635.000	13.115	0.100
635.100	1.554	0.100
635.200	8.015	0.100
635.300	9.517	0.100
635.400	9.707	0.100
635.500	9.891	0.100
635.600	6.084	0.100
635.700	5.471	0.100
635.800	5.679	0.100
635.900	6.239	0.100
636.000	-1.093	0.100
636.100	1.747	0.100
636.200	8.701	0.100
636.300	2.791	0.100
636.400	1.768	0.100
636.500	6.223	0.100
636.600	6.215	0.100
636.700	-5.320	0.100
636.800	4.720	0.100
636.900	6.843	0.100
637.000	-2.561	0.100
637.100	7.324	0.100
637.200	5.864	0.100
637.300	9.173	0.100
637.400	13.635	0.100
637.500	7.212	0.100
637.600	-2.793	0.100
637.700	1.984	0.100
637.800	-2.913	0.100
637.900	10.917	0.100
638.000	4.602	0.100
638.100	-3.347	0.100
638.200	-2.724	0.100
638.300	5.128	0.100
638.400	6.414	0.100
638.500	10.382	0.100
638.600	-0.999	0.100
638.700	0.176	0.100
638.800	2.419	0.100
638.900	11.098	0.100
639.000	-3.875	0.100
639.100	-1.143	0.100
639.200	11.318	0.100
639.300	5.465	0.100
639.400	6.869	0.100
639.500	2.558	0.100
639.600	7.461	0.100
639.700	0.608	0.100
639.800	11.219	0.100
639.900	5.779	0.100
640.000	4.908	0.100
640.100	-6.105	0.100
640.200	7.861	0.100
640.300	1.546	0.100
640.400	11.909	0.100
640.500	10.039	0.100
640.600	5.214	0.100
640.700	11.865	0.100
640.800	3.189	0.100
640.900	7.684	0.100
641.000	5.316	0.100
641.100	10.680	0.100
641.200	5.733	0.100
641.300	3.790	0.100
641.400	6.412	0.100
641.500	2.472	0.100
641.600	4.603	0.100
641.700	4.122	0.100
641.800	19.551	0.100
641.900	8.970	0.100
642.000	11.969	0.100
642.100	21.957	0.100
642.200	15.179	0.100
642.300	6.031	0.100
642.400	5.369	0.100
642.500	4.921	0.100
642.600	17.371	0.100
642.700	10.600	0.100
642.800	3.799	0.100
642.900	17.065	0.100
643.000	9.878	0.100
643.100	1.554	0.100
643.200	15.597	0.100
643.300	14.053	0.100
643.400	7.046	0.100
643.500	4.505	0.100
643.600	12.581	0.100
643.700	14.449	0.100
643.800	8.855	0.100
643.900	10.769	0.100
644.000	16.327	0.100
644.100	9.423	0.100
644.200	5.145	0.100
644.300	12.193	0.100
644.400	8.627	0.100
644.500	19.283	0.100
644.600	9.301	0.100
644.700	18.025	0.100
644.800	12.585	0.100
644.900	14.097	0.100
645.000	12.610	0.100
645.100	7.943	0.100
645.200	12.311	0.100
645.300	10.666	0.100
645.400	12.041	0.100
645.500	10.439	0.100
645.600	15.207	0.100
645.700	13.396	0.100
645.800	9.283	0.100
645.900	9.239	0.100
646.000	16.157	0.100
646.100	16.707	0.100
646.200	14.137	0.100
646.300	12.801	0.100
646.400	14.207	0.100
646.500	16.323	0.100
646.600	15.852	0.100
646.700	3.967	0.100
646.800	12.040	0.100
646.900	9.149	0.100
647.000	16.932	0.100
647.100	17.526	0.100
647.200	20.825	0.100
647.300	9.512	0.100
647.400	20.846	0.100
647.500	17.166	0.100
647.600	16.474	0.100
647.700	7.786	0.100
647.800	11.594	0.100
647.900	19.021	0.100
648.000	29.015	0.100
648.100	21.333	0.100
648.200	3.521	0.100
648.300	14.780	0.100
648.400	10.754	0.100
648.500	18.173	0.100
648.600	14.214	0.100
648.700	22.552	0.100
648.800	28.799	0.100
648.900	14.463	0.100
649.000	13.626	0.100
649.100	18.114	0.100
649.200	16.246	0.100
649.300	21.128	0.100
649.400	10.652	0.100
649.500	12.355	0.100
649.600	11.826	0.100
649.700	16.606	0.100
649.800	11.987	0.100
649.900	26.620	0.100
650.000	23.514	0.100
650.100	18.308	0.100
650.200	25.009	0.100
650.300	15.994	0.100
650.400	15.916	0.100
650.500	22.147	0.100
650.600	21.295	0.100
650.700	22.384	0.100
650.800	18.476	0.100
650.900	16.671	0.100
651.000	14.754	0.100
651.100	25.758	0.100
651.200	15.015	0.100
651.300	19.778	0.100
651.400	11.077	0.100
651.500	20.638	0.100
651.600	17.210	0.100
651.700	20.334	0.100
651.800	29.010	0.100
651.900	18.691	0.100
652.000	23.387	0.100
652.100	25.723	0.100
652.200	26.676	0.100
652.300	19.835	0.100
652.400	18.516	0.100
652.500	18.242	0.100
652.600	21.711	0.100
652.700	27.915	0.100
652.800	25.458	0.100
652.900	35.200	0.100
653.000	32.896	0.100
653.100	19.535	0.100
653.200	24.644	0.100
653.300	24.528	0.100
653.400	24.893	0.100
653.500	32.783	0.100
653.600	28.157	0.100
653.700	32.325	0.100
653.800	29.092	0.100
653.900	21.615	0.100
654.000	32.895	0.100
654.100	21.060	0.100
654.200	33.960	0.100
654.300	36.922	0.100
654.400	23.371	0.100
654.500	25.663	0.100
654.600	23.674	0.100
654.700	23.917	0.100
654.800	34.709	0.100
654.900	25.704	0.100
655.000	30.976	0.100
655.100	19.566	0.100
655.200	36.317	0.100
655.300	29.733	0.100
655.400	20.399	0.100
655.500	33.148	0.100
655.600	29.306	0.100
655.700	19.490	0.100
655.800	22.282	0.100
655.900	32.975	0.100
656.000	31.841	0.100
656.100	33.129	0.100
656.200	32.684	0.100
656.300	36.029	0.100
656.400	18.132	0.100
656.500	29.257	0.100
656.600	26.276	0.100
656.700	28.190	0.100
656.800	27.599	0.100
656.900	32.516	0.100
657.000	30.284	0.100
657.100	35.164	0.100
657.200	28.055	0.100
657.300	35.327	0.100
657.400	25.445	0.100
657.500	30.685	0.100
657.600	25.475	0.100
657.700	34.165	0.100
657.800	22.178	0.100
657.900	33.517	0.100
658.000	39.703	0.100
658.100	40.520	0.100
658.200	31.955	0.100
658.300	30.552	0.100
658.400	31.071	0.100
658.500	32.474	0.100
658.600	22.524	0.100
658.700	20.561	0.100
658.800	25.824	0.100
658.900	24.827	0.100
659.000	27.470	0.100
659.100	40.663	0.100
659.200	40.507	0.100
659.300	31.719	0.100
659.400	29.977	0.100
659.500	27.561	0.100
659.600	25.879	0.100
659.700	30.889	0.100
659.800	38.836	0.100
659.900	29.224	0.100
660.000	32.586	0.100
660.100	27.645	0.100
660.200	24.577	0.100
660.300	29.735	0.100
660.400	39.152	0.100
660.500	26.240	0.100
660.600	27.366	0.100
660.700	31.366	0.100
660.800	41.483	0.100
660.900	37.708	0.100
661.000	38.641	0.100
661.100	41.229	0.100
661.200	38.287	0.100
661.300	29.554	0.100
661.400	28.170	0.100
661.500	35.948	0.100
661.600	38.472	0.100
661.700	35.178	0.100
661.800	31.228	0.100
661.900	26.408	0.100
662.000	29.666	0.100
662.100	41.010	0.100
662.200	35.552	0.100
662.300	28.588	0.100
662.400	21.996	0.100
662.500	34.487	0.100
662.600	30.330	0.100
662.700	29.817	0.100
662.800	32.527	0.100
662.900	29.320	0.100
663.000	34.891	0.100
663.100	32.771	0.100
663.200	27.157	0.100
663.300	36.011	0.100
663.400	45.500	0.100
663.500	39.333	0.100
663.600	33.707	0.100
663.700	27.376	0.100
663.800	34.166	0.100
663.900	31.843	0.100
664.000	28.343	0.100
664.100	40.341	0.100
664.200	33.576	0.100
664.300	46.731	0.100
664.400	32.221	0.100
664.500	34.785	0.100
664.600	41.784	0.100
664.700	35.395	0.100
664.800	31.738	0.100
664.900	31.543	0.100
665.000	36.727	0.100
665.100	37.595	0.100
665.200	26.977	0.100
665.300	31.079	0.100
665.400	45.921	0.100
665.500	36.924	0.100
665.600	29.328	0.100
665.700	34.086	0.100
665.800	34.883	0.100
665.900	28.253	0.100
666.000	30.235	0.100
666.100	31.966	0.100
666.200	35.236	0.100
666.300	28.108	0.100
666.400	36.591	0.100
666.500	36.239	0.100
666.600	30.928	0.100
666.700	34.457	0.100
666.800	45.907	0.100
666.900	49.371	0.100
667.000	32.962	0.100
667.100	39.379	0.100
667.200	33.745	0.100
667.300	41.941	0.100
667.400	37.426	0.100
667.500	28.570	0.100
667.600	28.572	0.100
667.700	32.776	0.100
667.800	36.249	0.100
667.900	30.477	0.100
668.000	29.578	0.100
668.100	39.386	0.100
668.200	30.536	0.100
668.300	35.474	0.100
668.400	32.777	0.100
668.500	32.489	0.100
668.600	41.445	0.100
668.700	41.337	0.100
668.800	39.062	0.100
668.900	28.469	0.100
669.000	35.420	0.100
669.100	45.248	0.100
669.200	33.810	0.100
669.300	30.088	0.100
669.400	33.577	0.100
669.500	36.796	0.100
669.600	35.106	0.100
669.700	36.252	0.100
669.800	33.720	0.100
669.900	29.055	0.100
670.000	30.831	0.100
670.100	38.033	0.100
670.200	38.073	0.100
670.300	32.514	0.100
670.400	27.375	0.100
670.500	40.032	0.100
670.600	28.934	0.100
670.700	39.194	0.100
670.800	38.260	0.100
670.900	34.088	0.100
671.000	34.078	0.100
671.100	36.061	0.100
671.200	35.343	0.100
671.300	33.773	0.100
671.400	38.008	0.100
671.500	27.799	0.100
671.600	40.730	0.100
671.700	35.044	0.100
671.800	32.887	0.100
671.900	32.060	0.100
672.000	34.434	0.100
672.100	41.291	0.100
672.200	38.612	0.100
672.300	37.121	0.100
672.400	34.981	0.100
672.500	34.278	0.100
672.600	33.100	0.100
672.700	41.705	0.100
672.800	31.939	0.100
672.900	35.632	0.100
673.000	34.161	0.100
673.100	22.446	0.100
673.200	40.117	0.100
673.300	39.251	0.100
673.400	35.510	0.100
673.500	26.951	0.100
673.600	34.248	0.100
673.700	32.508	0.100
673.800	41.444	0.100
673.900	38.144	0.100
674.000	32.388	0.100
674.100	34.044	0.100
674.200	34.503	0.100
674.300	32.302	0.100
674.400	29.309	0.100
674.500	39.872	0.100
674.600	35.976	0.100
674.700	32.634	0.100
674.800	39.942	0.100
674.900	31.661	0.100
675.000	41.933	0.100
675.100	41.089	0.100
675.200	32.628	0.100
675.300	25.649	0.100
675.400	28.557	0.100
675.500	35.760	0.100
675.600	36.119	0.100
675.700	31.132	0.100
675.800	34.803	0.100
675.900	42.556	0.100
676.000	38.039	0.100
676.100	28.173	0.100
676.200	40.026	0.100
676.300	38.282	0.100
676.400	29.835	0.100
676.500	36.709	0.100
676.600	25.990	0.100
676.700	42.367	0.100
676.800	36.991	0.100
676.900	36.188	0.100
677.000	33.973	0.100
677.100	31.829	0.100
677.200	28.333	0.100
677.300	29.410	0.100
677.400	36.008	0.100
677.500	37.020	0.100
677.600	41.498	0.100
677.700	39.523	0.100
677.800	32.351	0.100
677.900	40.036	0.100
678.000	37.481	0.100
678.100	35.717	0.100
678.200	31.571	0.100
678.300	42.255	0.100
678.400	34.666	0.100
678.500	36.752	0.100
678.600	41.076	0.100
678.700	41.644	0.100
678.800	30.964	0.100
678.900	29.121	0.100
679.000	32.401	0.100
679.100	30.767	0.100
679.200	34.167	0.100
679.300	38.601	0.100
679.400	33.999	0.100
679.500	37.900	0.100
679.600	37.886	0.100
679.700	38.632	0.100
679.800	27.614	0.100
679.900	32.312	0.100
680.000	33.977	0.100
680.100	29.080	0.100
680.200	37.729	0.100
680.300	39.082	0.100
680.400	36.975	0.100
680.500	46.478	0.100
680.600	39.637	0.100
680.700	37.448	0.100
680.800	36.810	0.100
680.900	31.031	0.100
681.000	34.743	0.100
681.100	30.099	0.100
681.200	40.847	0.100
681.300	31.812	0.100
681.400	42.088	0.100
681.500	42.481	0.100
681.600	32.981	0.100
681.700	33.205	0.100
681.800	31.939	0.100
681.900	30.781	0.100
682.000	39.176	0.100
682.100	30.521	0.100
682.200	34.938	0.100
682.300	41.584	0.100
682.400	36.417	0.100
682.500	32.172	0.100
682.600	40.120	0.100
682.700	28.564	0.100
682.800	33.449	0.100
682.900	36.764	0.100
683.000	38.603	0.100
683.100	32.929	0.100
683.200	36.702	0.100
683.300	33.557	0.100
683.400	32.111	0.100
683.500	38.332	0.100
683.600	34.417	0.100
683.700	44.074	0.100
683.800	35.136	0.100
683.900	25.882	0.100
684.000	25.558	0.100
684.100	33.622	0.100
684.200	39.743	0.100
684.300	34.116	0.100
684.400	27.855	0.100
684.500	22.557	0.100
684.600	43.043	0.100
684.700	26.687	0.100
684.800	37.286	0.100
684.900	33.710	0.100
685.000	34.290	0.100
685.100	32.421	0.100
685.200	35.861	0.100
685.300	34.449	0.100
685.400	35.705	0.100
685.500	39.452	0.100
685.600	36.990	0.100
685.700	31.030	0.100
685.800	42.302	0.100
685.900	32.958	0.100
686.000	34.568	0.100
686.100	31.423	0.100
686.200	22.458	0.100
686.300	33.233	0.100
686.400	33.546	0.100
686.500	27.220	0.100
686.600	39.467	0.100
686.700	43.548	0.100
686.800	34.783	0.100
686.900	24.120	0.100
687.000	25.613	0.100
687.100	34.018	0.100
687.200	41.158	0.100
687.300	37.951	0.100
687.400	24.452	0.100
687.500	37.985	0.100
687.600	45.427	0.100
687.700	37.289	0.100
687.800	34.571	0.100
687.900	38.376	0.100
688.000	27.708	0.100
688.100	26.798	0.100
688.200	32.821	0.100
688.300	23.454	0.100
688.400	33.578	0.100
688.500	35.694	0.100
688.600	39.204	0.100
688.700	34.143	0.100
688.800	38.017	0.100
688.900	31.006	0.100
689.000	38.467	0.100
689.100	35.300	0.100
689.200	33.706	0.100
689.300	34.857	0.100
689.400	28.268	0.100
689.500	30.246	0.100
689.600	30.187	0.100
689.700	27.892	0.100
689.800	30.626	0.100
689.900	31.337	0.100
690.000	38.560	0.100
690.100	30.020	0.100
690.200	25.787	0.100
690.300	33.045	0.100
690.400	31.715	0.100
690.500	25.622	0.100
690.600	25.839	0.100
690.700	23.888	0.100
690.800	20.065	0.100
690.900	21.633	0.100
691.000	18.569	0.100
691.100	27.350	0.100
691.200	8.030	0.100
691.300	25.927	0.100
691.400	20.139	0.100
691.500	15.365	0.100
691.600	10.227	0.100
691.700	10.170	0.100
691.800	16.780	0.100
691.900	13.492	0.100
692.000	7.969	0.100
692.100	11.093	0.100
692.200	17.346	0.100
692.300	14.769	0.100
692.400	16.161	0.100
692.500	16.690	0.100
692.600	15.491	0.100
692.700	3.837	0.100
692.800	17.183	0.100
692.900	1.206	0.100
693.000	-1.826	0.100
693.100	14.619	0.100
693.200	12.594	0.100
693.300	3.687	0.100
693.400	8.017	0.100
693.500	1.873	0.100
693.600	7.063	0.100
693.700	0.645	0.100
693.800	0.244	0.100
693.900	-1.277	0.100
694.000	9.243	0.100
694.100	7.555	0.100
694.200	3.014	0.100
694.300	12.114	0.100
694.400	9.385	0.100
694.500	4.913	0.100
694.600	12.888	0.100
694.700	12.997	0.100
694.800	4.560	0.100
694.900	8.595	0.100
695.000	-2.604	0.100
695.100	-0.406	0.100
695.200	10.371	0.100
695.300	14.011	0.100
695.400	2.705	0.100
695.500	-0.625	0.100
695.600	-0.079	0.100
695.700	-0.051	0.100
695.800	-3.283	0.100
695.900	10.180	0.100
696.000	0.550	0.100
696.100	-2.625	0.100
696.200	3.855	0.100
696.300	-3.048	0.100
696.400	-3.422	0.100
696.500	-2.904	0.100
696.600	2.363	0.100
696.700	6.889	0.100
696.800	20.815	0.100
696.900	5.582	0.100
697.000	4.436	0.100
697.100	2.660	0.100
697.200	2.803	0.100
697.300	8.338	0.100
697.400	-1.882	0.100
697.500	1.643	0.100
697.600	2.486	0.100
697.700	3.237	0.100
697.800	8.357	0.100
697.900	8.812	0.100
698.000	7.725	0.100
698.100	-6.325	0.100
698.200	4.369	0.100
698.300	3.641	0.100
698.400	-0.150	0.100
698.500	-5.408	0.100
698.600	0.385	0.100
698.700	2.311	0.100
698.800	3.069	0.100
698.900	-6.102	0.100
699.000	-1.623	0.100
699.100	3.702	0.100
699.200	5.490	0.100
699.300	-0.361	0.100
699.400	1.146	0.100
699.500	-4.539	0.100
699.600	-0.807	0.100
699.700	-3.407	0.100
699.800	-6.753	0.100
699.900	-0.156	0.100
700.000	2.953	0.100
700.100	0.751	0.100
700.200	1.127	0.100
700.300	4.355	0.100
700.400	6.124	0.100
700.500	-2.859	0.100
700.600	-3.948	0.100
700.700	2.679	0.100
700.800	-5.498	0.100
700.900	-3.238	0.100
701.000	1.373	0.100
701.100	-6.683	0.100
701.200	-0.938	0.100
701.300	-4.142	0.100
701.400	4.280	0.100
701.500	-0.083	0.100
701.600	-7.660	0.100
701.700	-7.194	0.100
701.800	3.022	0.100
701.900	-7.279	0.100
702.000	-5.017	0.100
702.100	3.638	0.100
702.200	8.373	0.100
702.300	-1.016	0.100
702.400	-2.995	0.100
702.500	-8.570	0.100
702.600	-1.809	0.100
702.700	-1.500	0.100
702.800	-3.657	0.100
702.900	-3.752	0.100
703.000	0.538	0.100
703.100	-3.351	0.100
703.200	-1.755	0.100
703.300	-6.322	0.100
703.400	-4.707	0.100
703.500	9.468	0.100
703.600	-8.968	0.100
703.700	-4.739	0.100
703.800	-9.079	0.100
703.900	-3.541	0.100
704.000	-2.475	0.100
704.100	-15.226	0.100
704.200	-15.436	0.100
704.300	-12.142	0.100
704.400	-16.235	0.100
704.500	-4.393	0.100
704.600	-1.567	0.100
704.700	0.534	0.100
704.800	7.519	0.100
704.900	-8.356	0.100
705.000	-1.681	0.100
705.100	-5.516	0.100
705.200	-10.419	0.100
705.300	-4.728	0.100
705.400	-10.429	0.100
705.500	3.180	0.100
705.600	-5.558	0.100
705.700	-15.369	0.100
705.800	3.380	0.100
705.900	5.999	0.100
706.000	-10.555	0.100
706.100	-3.768	0.100
706.200	-2.444	0.100
706.300	-4.908	0.100
706.400	-14.480	0.100
706.500	-6.205	0.100
706.600	-9.292	0.100
706.700	-3.788	0.100
706.800	4.183	0.100
706.900	-6.810	0.100
707.000	-5.460	0.100
707.100	-10.010	0.100
707.200	-15.000	0.100
707.300	-5.827	0.100
707.400	-12.798	0.100
707.500	-13.058	0.100
707.600	0.083	0.100
707.700	-11.329	0.100
707.800	-5.020	0.100
707.900	-7.593	0.100
708.000	-4.122	0.100
708.100	-12.456	0.100
708.200	-11.089	0.100
708.300	-10.776	0.100
708.400	-16.427	0.100
708.500	-12.318	0.100
708.600	-5.405	0.100
708.700	-1.253	0.100
708.800	-8.769	0.100
708.900	-12.044	0.100
709.000	-10.864	0.100
709.100	-9.360	0.100
709.200	-11.778	0.100
709.300	-14.302	0.100
709.400	-11.505	0.100
709.500	-11.855	0.100
709.600	-15.097	0.100
709.700	-6.235	0.100
709.800	3.057	0.100
709.900	-14.930	0.100
710.000	-19.417	0.100
710.100	-10.223	0.100
710.200	-5.236	0.100
710.300	-0.563	0.100
710.400	-19.572	0.100
710.500	-9.513	0.100
710.600	-11.415	0.100
710.700	-5.299	0.100
710.800	-13.879	0.100
710.900	-14.806	0.100
711.000	-10.456	0.100
711.100	-10.213	0.100
711.200	-4.522	0.100
711.300	-16.462	0.100
711.400	-18.777	0.100
711.500	-24.086	0.100
711.600	-19.392	0.100
711.700	-14.689	0.100
711.800	-4.318	0.100
711.900	-16.768	0.100
712.000	-8.966	0.100
712.100	-14.843	0.100
712.200	-18.181	0.100
712.300	-13.960	0.100
712.400	-17.288	0.100
712.500	-13.372	0.100
712.600	-2.379	0.100
712.700	-8.479	0.100
712.800	-14.504	0.100
712.900	-15.489	0.100
713.000	-11.959	0.100
713.100	-12.344	0.100
713.200	-27.485	0.100
713.300	-23.579	0.100
713.400	-15.366	0.100
713.500	-18.653	0.100
713.600	-15.511	0.100
713.700	-6.053	0.100
713.800	-17.404	0.100
713.900	-13.752	0.100
714.000	-16.746	0.100
714.100	-12.915	0.100
714.200	-17.961	0.100
714.300	-15.741	0.100
714.400	-10.709	0.100
714.500	-8.482	0.100
714.600	-21.550	0.100
714.700	-17.245	0.100
714.800	-7.932	0.100
714.900	-19.437	0.100
715.000	-17.153	0.100
715.100	-16.739	0.100
715.200	-21.122	0.100
715.300	-15.895	0.100
715.400	-12.228	0.100
715.500	-21.915	0.100
715.600	-13.356	0.100
715.700	-14.633	0.100
715.800	-31.295	0.100
715.900	-14.937	0.100
716.000	-10.925	0.100
716.100	-15.120	0.100
716.200	-16.793	0.100
716.300	-12.651	0.100
716.400	-21.414	0.100
716.500	-25.023	0.100
716.600	-17.148	0.100
716.700	-17.644	0.100
716.800	-22.635	0.100
716.900	-12.652	0.100
717.000	-13.165	0.100
717.100	-16.794	0.100
717.200	-18.648	0.100
717.300	-18.725	0.100
717.400	-19.420	0.100
717.500	-13.212	0.100
717.600	-21.620	0.100
717.700	-18.248	0.100
717.800	-22.002	0.100
717.900	-20.385	0.100
718.000	-22.679	0.100
718.100	-17.752	0.100
718.200	-25.253	0.100
718.300	-22.883	0.100
718.400	-29.125	0.100
718.500	-29.742	0.100
718.600	-32.096	0.100
718.700	-23.029	0.100
718.800	-20.988	0.100
718.900	-23.484	0.100
719.000	-16.485	0.100
719.100	-20.716	0.100
719.200	-22.371	0.100
719.300	-26.897	0.100
719.400	-15.254	0.100
719.500	-13.021	0.100
719.600	-25.324	0.100
719.700	-32.483	0.100
719.800	-25.782	0.100
719.900	-25.547	0.100
720.000	-19.688	0.100
720.100	-25.708	0.100
720.200	-28.938	0.100
720.300	-23.388	0.100
720.400	-15.055	0.100
720.500	-25.752	0.100
720.600	-16.676	0.100
720.700	-22.939	0.100
720.800	-23.991	0.100
720.900	-27.322	0.100
721.000	-23.969	0.100
721.100	-23.184	0.100
721.200	-22.269	0.100
721.300	-22.516	0.100
721.400	-20.483	0.100
721.500	-34.554	0.100
721.600	-29.712	0.100
721.700	-10.833	0.100
721.800	-22.134	0.100
721.900	-37.019	0.100
722.000	-29.908	0.100
722.100	-18.495	0.100
722.200	-25.274	0.100
722.300	-21.356	0.100
722.400	-27.175	0.100
722.500	-18.687	0.100
722.600	-33.030	0.100
722.700	-25.554	0.100
722.800	-24.729	0.100
722.900	-27.247	0.100
723.000	-20.808	0.100
723.100	-21.890	0.100
723.200	-22.179	0.100
723.300	-26.432	0.100
723.400	-32.872	0.100
723.500	-28.634	0.100
723.600	-26.953	0.100
723.700	-32.062	0.100
723.800	-25.978	0.100
723.900	-22.304	0.100
724.000	-32.243	0.100
724.100	-24.162	0.100
724.200	-28.750	0.100
724.300	-20.626	0.100
724.400	-21.563	0.100
724.500	-31.071	0.100
724.600	-22.539	0.100
724.700	-24.929	0.100
724.800	-23.115	0.100
724.900	-33.502	0.100
725.000	-21.538	0.100
725.100	-23.450	0.100
725.200	-27.107	0.100
725.300	-27.304	0.100
725.400	-31.783	0.100
725.500	-28.960	0.100
725.600	-30.817	0.100
725.700	-29.384	0.100
725.800	-23.349	0.100
725.900	-17.758	0.100
726.000	-25.183	0.100
726.100	-27.155	0.100
726.200	-30.169	0.100
726.300	-20.468	0.100
726.400	-33.182	0.100
726.500	-33.726	0.100
726.600	-28.634	0.100
726.700	-28.431	0.100
726.800	-29.906	0.100
726.900	-24.404	0.100
727.000	-22.917	0.100
727.100	-28.750	0.100
727.200	-32.860	0.100
727.300	-30.965	0.100
727.400	-33.319	0.100
727.500	-30.848	0.100
727.600	-27.161	0.100
727.700	-35.400	0.100
727.800	-31.101	0.100
727.900	-25.015	0.100
728.000	-30.507	0.100
728.100	-25.286	0.100
728.200	-21.215	0.100
728.300	-32.897	0.100
728.400	-24.137	0.100
728.500	-29.511	0.100
728.600	-25.577	0.100
728.700	-31.539	0.100
728.800	-24.072	0.100
728.900	-14.367	0.100
729.000	-30.387	0.100
729.100	-32.865	0.100
729.200	-34.524	0.100
729.300	-24.200	0.100
729.400	-22.529	0.100
729.500	-21.869	0.100
729.600	-27.737	0.100
729.700	-37.223	0.100
729.800	-39.669	0.100
729.900	-36.976	0.100
730.000	-22.874	0.100
730.100	-32.915	0.100
730.200	-31.431	0.100
730.300	-26.754	0.100
730.400	-37.185	0.100
730.500	-26.661	0.100
730.600	-18.263	0.100
730.700	-31.825	0.100
730.800	-28.754	0.100
730.900	-28.250	0.100
731.000	-22.749	0.100
731.100	-29.551	0.100
731.200	-28.678	0.100
731.300	-20.898	0.100
731.400	-24.057	0.100
731.500	-33.575	0.100
731.600	-26.453	0.100
731.700	-32.673	0.100
731.800	-24.015	0.100
731.900	-22.061	0.100
732.000	-29.742	0.100
732.100	-42.526	0.100
732.200	-28.391	0.100
732.300	-28.414	0.100
732.400	-29.362	0.100
732.500	-26.520	0.100
732.600	-28.505	0.100
732.700	-30.111	0.100
732.800	-22.667	0.100
732.900	-30.526	0.100
733.000	-30.804	0.100
733.100	-25.891	0.100
733.200	-35.782	0.100
733.300	-34.078	0.100
733.400	-36.218	0.100
733.500	-25.172	0.100
733.600	-31.498	0.100
733.700	-32.399	0.100
733.800	-28.197	0.100
733.900	-21.443	0.100
734.000	-26.994	0.100
734.100	-22.652	0.100
734.200	-28.488	0.100
734.300	-39.980	0.100
734.400	-35.473	0.100
734.500	-27.336	0.100
734.600	-26.973	0.100
734.700	-21.434	0.100
734.800	-37.080	0.100
734.900	-34.016	0.100
735.000	-29.008	0.100
735.100	-18.338	0.100
735.200	-36.150	0.100
735.300	-36.377	0.100
735.400	-38.984	0.100
735.500	-34.642	0.100
735.600	-30.176	0.100
735.700	-28.185	0.100
735.800	-20.144	0.100
735.900	-30.090	0.100
736.000	-28.904	0.100
736.100	-38.178	0.100
736.200	-22.836	0.100
736.300	-26.103	0.100
736.400	-39.548	0.100
736.500	-27.330	0.100
736.600	-31.180	0.100
736.700	-30.705	0.100
736.800	-34.946	0.100
736.900	-31.410	0.100
737.000	-34.614	0.100
737.100	-23.932	0.100
737.200	-28.508	0.100
737.300	-23.085	0.100
737.400	-21.076	0.100
737.500	-22.281	0.100
737.600	-33.537	0.100
737.700	-36.957	0.100
737.800	-38.857	0.100
737.900	-37.136	0.100
738.000	-27.320	0.100
738.100	-28.722	0.100
738.200	-28.313	0.100
738.300	-24.303	0.100
738.400	-26.256	0.100
738.500	-27.344	0.100
738.600	-22.330	0.100
738.700	-34.985	0.100
738.800	-38.874	0.100
738.900	-23.959	0.100
739.000	-35.889	0.100
739.100	-26.545	0.100
739.200	-29.338	0.100
739.300	-36.456	0.100
739.400	-27.882	0.100
739.500	-37.725	0.100
739.600	-39.537	0.100
739.700	-22.726	0.100
739.800	-30.133	0.100
739.900	-21.722	0.100
740.000	-31.103	0.100
740.100	-29.830	0.100
740.200	-28.116	0.100
740.300	-40.935	0.100
740.400	-27.292	0.100
740.500	-32.434	0.100
740.600	-22.362	0.100
740.700	-40.014	0.100
740.800	-23.841	0.100
740.900	-24.143	0.100
741.000	-34.293	0.100
741.100	-31.633	0.100
741.200	-26.992	0.100
741.300	-32.281	0.100
741.400	-27.882	0.100
741.500	-28.690	0.100
741.600	-34.347	0.100
741.700	-32.227	0.100
741.800	-27.927	0.100
741.900	-30.853	0.100
742.000	-25.847	0.100
742.100	-31.850	0.100
742.200	-36.893	0.100
742.300	-31.492	0.100
742.400	-33.115	0.100
742.500	-30.345	0.100
742.600	-28.580	0.100
742.700	-30.370	0.100
742.800	-17.763	0.100
742.900	-24.855	0.100
743.000	-28.842	0.100
743.100	-25.584	0.100
743.200	-34.244	0.100
743.300	-26.034	0.100
743.400	-30.492	0.100
743.500	-28.586	0.100
743.600	-22.564	0.100
743.700	-30.245	0.100
743.800	-25.653	0.100
743.900	-26.626	0.100
744.000	-28.927	0.100
744.100	-25.824	0.100
744.200	-21.464	0.100
744.300	-26.406	0.100
744.400	-25.301	0.100
744.500	-32.382	0.100
744.600	-21.282	0.100
744.700	-32.206	0.100
744.800	-23.531	0.100
744.900	-23.871	0.100
745.000	-31.306	0.100
745.100	-27.266	0.100
745.200	-35.183	0.100
745.300	-35.584	0.100
745.400	-33.789	0.100
745.500	-22.653	0.100
745.600	-20.075	0.100
745.700	-26.146	0.100
745.800	-31.895	0.100
745.900	-28.952	0.100
746.000	-34.161	0.100
746.100	-33.033	0.100
746.200	-32.936	0.100
746.300	-24.575	0.100
746.400	-14.040	0.100
746.500	-26.255	0.100
746.600	-32.633	0.100
746.700	-31.839	0.100
746.800	-32.535	0.100
746.900	-29.487	0.100
747.000	-21.364	0.100
747.100	-33.244	0.100
747.200	-29.972	0.100
747.300	-31.555	0.100
747.400	-25.960	0.100
747.500	-22.735	0.100
747.600	-24.290	0.100
747.700	-28.513	0.100
747.800	-32.691	0.100
747.900	-38.392	0.100
748.000	-36.846	0.100
748.100	-23.488	0.100
748.200	-28.205	0.100
748.300	-19.963	0.100
748.400	-20.941	0.100
748.500	-30.696	0.100
748.600	-10.685	0.100
748.700	-29.122	0.100
748.800	-40.658	0.100
748.900	-33.241	0.100
749.000	-26.738	0.100
749.100	-27.186	0.100
749.200	-34.241	0.100
749.300	-26.531	0.100
749.400	-22.086	0.100
749.500	-34.398	0.100
749.600	-24.150	0.100
749.700	-31.016	0.100
749.800	-20.631	0.100
749.900	-26.082	0.100
750.000	-29.338	0.100
750.100	-32.598	0.100
750.200	-32.133	0.100
750.300	-34.691	0.100
750.400	-27.027	0.100
750.500	-26.086	0.100
750.600	-25.753	0.100
750.700	-23.130	0.100
750.800	-24.686	0.100
750.900	-30.972	0.100
751.000	-26.850	0.100
751.100	-28.993	0.100
751.200	-26.757	0.100
751.300	-22.000	0.100
751.400	-23.110	0.100
751.500	-21.426	0.100
751.600	-31.103	0.100
751.700	-27.477	0.100
751.800	-37.599	0.100
751.900	-33.275	0.100
752.000	-28.529	0.100
752.100	-37.449	0.100
752.200	-32.063	0.100
752.300	-29.519	0.100
752.400	-20.402	0.100
752.500	-27.578	0.100
752.600	-34.907	0.100
752.700	-32.986	0.100
752.800	-32.756	0.100
752.900	-14.677	0.100
753.000	-33.171	0.100
753.100	-29.489	0.100
753.200	-34.371	0.100
753.300	-22.329	0.100
753.400	-36.207	0.100
753.500	-24.361	0.100
753.600	-32.330	0.100
753.700	-25.729	0.100
753.800	-20.856	0.100
753.900	-25.560	0.100
754.000	-16.188	0.100
754.100	-18.485	0.100
754.200	-27.864	0.100
754.300	-28.891	0.100
754.400	-33.965	0.100
754.500	-27.094	0.100
754.600	-20.782	0.100
754.700	-23.899	0.100
754.800	-20.304	0.100
754.900	-13.326	0.100
755.000	-24.202	0.100
755.100	-29.331	0.100
755.200	-39.138	0.100
755.300	-28.706	0.100
755.400	-19.697	0.100
755.500	-25.873	0.100
755.600	-19.211	0.100
755.700	-26.791	0.100
755.800	-36.721	0.100
755.900	-26.234	0.100
756.000	-28.704	0.100
756.100	-25.489	0.100
756.200	-22.620	0.100
756.300	-36.208	0.100
756.400	-26.259	0.100
756.500	-26.391	0.100
756.600	-18.708	0.100
756.700	-33.979	0.100
756.800	-28.515	0.100
756.900	-27.428	0.100
757.000	-24.749	0.100
757.100	-23.145	0.100
757.200	-19.464	0.100
757.300	-25.238	0.100
757.400	-27.025	0.100
757.500	-19.291	0.100
757.600	-24.882	0.100
757.700	-30.586	0.100
757.800	-34.046	0.100
757.900	-25.316	0.100
758.000	-26.266	0.100
758.100	-21.693	0.100
758.200	-19.994	0.100
758.300	-19.529	0.100
758.400	-21.601	0.100
758.500	-24.652	0.100
758.600	-24.963	0.100
758.700	-24.675	0.100
758.800	-29.140	0.100
758.900	-27.217	0.100
759.000	-22.517	0.100
759.100	-22.694	0.100
759.200	-26.894	0.100
759.300	-22.238	0.100
759.400	-24.290	0.100
759.500	-25.012	0.100
759.600	-28.764	0.100
759.700	-21.125	0.100
759.800	-30.993	0.100
759.900	-23.656	0.100
760.000	-30.746	0.100
760.100	-25.515	0.100
760.200	-30.296	0.100
760.300	-19.810	0.100
760.400	-30.793	0.100
760.500	-28.652	0.100
760.600	-19.143	0.100
760.700	-23.407	0.100
760.800	-28.988	0.100
760.900	-19.158	0.100
761.000	-20.183	0.100
761.100	-30.134	0.100
761.200	-26.352	0.100
761.300	-19.681	0.100
761.400	-27.001	0.100
761.500	-25.429	0.100
761.600	-24.472	0.100
761.700	-21.446	0.100
761.800	-30.480	0.100
761.900	-29.693	0.100
762.000	-24.793	0.100
762.100	-20.795	0.100
762.200	-22.461	0.100
762.300	-24.434	0.100
762.400	-28.077	0.100
762.500	-32.853	0.100
762.600	-25.056	0.100
762.700	-20.644	0.100
762.800	-21.822	0.100
762.900	-26.781	0.100
763.000	-20.475	0.100
763.100	-18.984	0.100
763.200	-32.353	0.100
763.300	-32.130	0.100
763.400	-21.571	0.100
763.500	-24.557	0.100
763.600	-20.359	0.100
763.700	-25.398	0.100
763.800	-24.334	0.100
763.900	-16.428	0.100
764.000	-27.179	0.100
764.100	-30.705	0.100
764.200	-25.850	0.100
764.300	-23.792	0.100
764.400	-24.696	0.100
764.500	-30.808	0.100
764.600	-28.516	0.100
764.700	-20.021	0.100
764.800	-24.421	0.100
764.900	-25.028	0.100
765.000	-31.215	0.100
765.100	-27.887	0.100
765.200	-28.461	0.100
765.300	-26.026	0.100
765.400	-21.135	0.100
765.500	-23.819	0.100
765.600	-24.368	0.100
765.700	-22.464	0.100
765.800	-21.089	0.100
765.900	-28.141	0.100
766.000	-26.909	0.100
766.100	-23.326	0.100
766.200	-21.898	0.100
766.300	-22.055	0.100
766.400	-18.005	0.100
766.500	-34.926	0.100
766.600	-22.556	0.100
766.700	-20.356	0.100
766.800	-28.815	0.100
766.900	-23.134	0.100
767.000	-23.006	0.100
767.100	-23.258	0.100
767.200	-17.267	0.100
767.300	-21.900	0.100
767.400	-22.228	0.100
767.500	-15.254	0.100
767.600	-19.979	0.100
767.700	-22.826	0.100
767.800	-29.772	0.100
767.900	-22.653	0.100
768.000	-24.068	0.100
768.100	-19.587	0.100
768.200	-23.414	0.100
768.300	-36.469	0.100
768.400	-30.417	0.100
768.500	-26.698	0.100
768.600	-19.539	0.100
768.700	-27.700	0.100
768.800	-19.818	0.100
768.900	-27.538	0.100
769.000	-26.717	0.100
769.100	-19.140	0.100
769.200	-22.679	0.100
769.300	-17.381	0.100
769.400	-26.046	0.100
769.500	-25.278	0.100
769.600	-23.291	0.100
769.700	-22.136	0.100
769.800	-26.042	0.100
769.900	-17.604	0.100
770.000	-30.199	0.100
770.100	-25.533	0.100
770.200	-26.071	0.100
770.300	-26.577	0.100
770.400	-29.139	0.100
770.500	-18.530	0.100
770.600	-13.887	0.100
770.700	-22.477	0.100
770.800	-18.683	0.100
770.900	-26.937	0.100
771.000	-26.336	0.100
771.100	-28.939	0.100
771.200	-26.215	0.100
771.300	-25.531	0.100
771.400	-23.131	0.100
771.500	-22.709	0.100
771.600	-18.608	0.100
771.700	-24.614	0.100
771.800	-19.553	0.100
771.900	-28.810	0.100
772.000	-24.498	0.100
772.100	-20.246	0.100
772.200	-15.841	0.100
772.300	-25.037	0.100
772.400	-24.630	0.100
772.500	-27.414	0.100
772.600	-29.292	0.100
772.700	-24.728	0.100
772.800	-29.126	0.100
772.900	-21.866	0.100
773.000	-21.369	0.100
773.100	-24.936	0.100
773.200	-23.169	0.100
773.300	-20.310	0.100
773.400	-15.477	0.100
773.500	-25.508	0.100
773.600	-30.771	0.100
773.700	-22.901	0.100
773.800	-19.460	0.100
773.900	-24.364	0.100
774.000	-17.451	0.100
774.100	-21.372	0.100
774.200	-20.114	0.100
774.300	-20.471	0.100
774.400	-26.075	0.100
774.500	-26.693	0.100
774.600	-27.962	0.100
774.700	-28.424	0.100
774.800	-25.643	0.100
774.900	-24.544	0.100
775.000	-27.600	0.100
775.100	-23.770	0.100
775.200	-32.951	0.100
775.300	-28.277	0.100
775.400	-16.625	0.100
775.500	-18.018	0.100
775.600	-17.781	0.100
775.700	-18.542	0.100
775.800	-22.555	0.100
775.900	-17.704	0.100
776.000	-23.891	0.100
776.100	-18.636	0.100
776.200	-19.365	0.100
776.300	-29.373	0.100
776.400	-26.324	0.100
776.500	-27.711	0.100
776.600	-27.162	0.100
776.700	-22.830	0.100
776.800	-24.019	0.100
776.900	-20.349	0.100
777.000	-21.476	0.100
777.100	-26.464	0.100
777.200	-17.245	0.100
777.300	-17.666	0.100
777.400	-25.279	0.100
777.500	-25.040	0.100
777.600	-22.682	0.100
777.700	-21.752	0.100
777.800	-15.779	0.100
777.900	-15.804	0.100
778.000	-18.057	0.100
778.100	-26.582	0.100
778.200	-22.289	0.100
778.300	-20.821	0.100
778.400	-27.745	0.100
778.500	-21.912	0.100
778.600	-19.474	0.100
778.700	-21.000	0.100
778.800	-15.342	0.100
778.900	-20.193	0.100
779.000	-26.411	0.100
779.100	-22.689	0.100
779.200	-19.014	0.100
779.300	-21.305	0.100
779.400	-23.651	0.100
779.500	-35.208	0.100
779.600	-30.648	0.100
779.700	-23.555	0.100
779.800	-19.940	0.100
779.900	-21.191	0.100
780.000	-19.306	0.100
780.100	-25.308	0.100
780.200	-29.706	0.100
780.300	-27.885	0.100
780.400	-11.236	0.100
780.500	-15.628	0.100
780.600	-12.147	0.100
780.700	-7.134	0.100
780.800	-16.310	0.100
780.900	-7.808	0.100
781.000	-6.169	0.100
781.100	-0.315	0.100
781.200	8.084	0.100
781.300	-5.314	0.100
781.400	-4.012	0.100
781.500	-2.267	0.100
781.600	-9.803	0.100
781.700	1.107	0.100
781.800	11.357	0.100
781.900	14.690	0.100
782.000	16.253	0.100
782.100	5.575	0.100
782.200	7.585	0.100
782.300	9.562	0.100
782.400	8.394	0.100
782.500	8.852	0.100
782.600	5.301	0.100
782.700	5.292	0.100
782.800	12.361	0.100
782.900	18.497	0.100
783.000	16.617	0.100
783.100	7.047	0.100
783.200	13.157	0.100
783.300	14.310	0.100
783.400	6.189	0.100
783.500	18.632	0.100
783.600	10.719	0.100
783.700	15.912	0.100
783.800	14.278	0.100
783.900	8.420	0.100
784.000	14.122	0.100
784.100	16.164	0.100
784.200	11.126	0.100
784.300	14.519	0.100
784.400	8.392	0.100
784.500	9.421	0.100
784.600	15.047	0.100
784.700	13.664	0.100
784.800	19.777	0.100
784.900	9.655	0.100
785.000	12.325	0.100
785.100	9.532	0.100
785.200	4.730	0.100
785.300	5.151	0.100
785.400	5.339	0.100
785.500	3.644	0.100
785.600	13.311	0.100
785.700	12.409	0.100
785.800	13.645	0.100
785.900	10.195	0.100
786.000	7.431	0.100
786.100	7.259	0.100
786.200	5.637	0.100
786.300	2.183	0.100
786.400	6.974	0.100
786.500	11.735	0.100
786.600	2.227	0.100
786.700	0.257	0.100
786.800	1.397	0.100
786.900	8.797	0.100
787.000	8.777	0.100
787.100	1.806	0.100
787.200	5.262	0.100
787.300	0.483	0.100
787.400	9.360	0.100
787.500	7.087	0.100
787.600	11.775	0.100
787.700	3.200	0.100
787.800	5.247	0.100
787.900	3.088	0.100
788.000	-1.136	0.100
788.100	-0.714	0.100
788.200	4.474	0.100
788.300	1.123	0.100
788.400	0.236	0.100
788.500	2.659	0.100
788.600	14.478	0.100
788.700	4.427	0.100
788.800	6.536	0.100
788.900	7.738	0.100
789.000	12.134	0.100
789.100	4.186	0.100
789.200	-1.698	0.100
789.300	5.908	0.100
789.400	4.156	0.100
789.500	5.928	0.100
789.600	2.434	0.100
789.700	4.378	0.100
789.800	7.370	0.100
789.900	3.514	0.100
790.000	-0.365	0.100
790.100	9.171	0.100
790.200	12.890	0.100
790.300	11.939	0.100
790.400	10.182	0.100
790.500	6.522	0.100
790.600	7.567	0.100
790.700	11.952	0.100
790.800	2.901	0.100
790.900	10.389	0.100
791.000	10.543	0.100
791.100	9.154	0.100
791.200	1.053	0.100
791.300	6.067	0.100
791.400	5.257	0.100
791.500	5.562	0.100
791.600	-0.421	0.100
791.700	7.529	0.100
791.800	10.957	0.100
791.900	8.805	0.100
792.000	5.256	0.100
792.100	12.247	0.100
792.200	10.163	0.100
792.300	11.574	0.100
792.400	6.824	0.100
792.500	14.560	0.100
792.600	16.140	0.100
792.700	6.402	0.100
792.800	13.673	0.100
792.900	14.983	0.100
793.000	16.447	0.100
793.100	7.910	0.100
793.200	10.405	0.100
793.300	9.469	0.100
793.400	5.319	0.100
793.500	2.661	0.100
793.600	11.981	0.100
793.700	16.805	0.100
793.800	5.553	0.100
793.900	5.895	0.100
794.000	10.461	0.100
794.100	20.899	0.100
794.200	8.706	0.100
794.300	13.884	0.100
794.400	6.556	0.100
794.500	9.571	0.100
794.600	6.370	0.100
794.700	13.778	0.100
794.800	7.294	0.100
794.900	13.549	0.100
795.000	13.103	0.100
795.100	11.640	0.100
795.200	10.863	0.100
795.300	13.261	0.100
795.400	16.345	0.100
795.500	27.306	0.100
795.600	19.364	0.100
795.700	14.685	0.100
795.800	15.603	0.100
795.900	11.117	0.100
796.000	16.068	0.100
796.100	8.512	0.100
796.200	2.870	0.100
796.300	10.578	0.100
796.400	22.025	0.100
796.500	20.718	0.100
796.600	13.769	0.100
796.700	12.148	0.100
796.800	19.342	0.100
796.900	16.634	0.100
797.000	27.011	0.100
797.100	22.117	0.100
797.200	14.053	0.100
797.300	17.271	0.100
797.400	11.022	0.100
797.500	11.608	0.100
797.600	17.038	0.100
797.700	22.128	0.100
797.800	21.670	0.100
797.900	18.089	0.100
798.000	11.982	0.100
798.100	15.754	0.100
798.200	11.329	0.100
798.300	20.188	0.100
798.400	21.202	0.100
798.500	16.472	0.100
798.600	13.556	0.100
798.700	15.595	0.100
798.800	16.411	0.100
798.900	28.112	0.100
799.000	20.849	0.100
799.100	14.115	0.100
799.200	19.012	0.100
799.300	14.104	0.100
799.400	17.692	0.100
799.500	22.466	0.100
799.600	21.156	0.100
799.700	21.375	0.100
799.800	24.773	0.100
799.900	22.316	0.100
800.000	23.018	0.100
