time /s	I /nA	E /V
0.100	-23.705	0.100
0.200	-12.114	0.100
0.300	-17.404	0.100
0.400	-28.768	0.100
0.500	-34.003	0.100
0.600	-31.575	0.100
0.700	-29.790	0.100
0.800	-29.656	0.100
0.900	-29.790	0.100
1.000	-21.790	0.100
1.100	-26.320	0.100
1.200	-27.006	0.100
1.300	-26.403	0.100
1.400	-24.560	0.100
1.500	-14.137	0.100
1.600	-23.422	0.100
1.700	-20.528	0.100
1.800	-23.719	0.100
1.900	-20.157	0.100
2.000	-32.845	0.100
2.100	-33.473	0.100
2.200	-27.603	0.100
2.300	-26.130	0.100
2.400	-28.531	0.100
2.500	-24.820	0.100
2.600	-21.723	0.100
2.700	-29.064	0.100
2.800	-19.100	0.100
2.900	-29.823	0.100
3.000	-26.014	0.100
3.100	-23.537	0.100
3.200	-24.271	0.100
3.300	-25.233	0.100
3.400	-24.812	0.100
3.500	-29.718	0.100
3.600	-24.515	0.100
3.700	-18.972	0.100
3.800	-21.399	0.100
3.900	-23.797	0.100
4.000	-23.254	0.100
4.100	-22.571	0.100
4.200	-26.515	0.100
4.300	-25.543	0.100
4.400	-29.105	0.100
4.500	-22.027	0.100
4.600	-24.376	0.100
4.700	-24.787	0.100
4.800	-22.204	0.100
4.900	-26.458	0.100
5.000	-25.746	0.100
5.100	-21.199	0.100
5.200	-27.961	0.100
5.300	-30.318	0.100
5.400	-29.655	0.100
5.500	-32.778	0.100
5.600	-33.960	0.100
5.700	-22.140	0.100
5.800	-17.306	0.100
5.900	-21.487	0.100
6.000	-17.390	0.100
6.100	-23.892	0.100
6.200	-24.373	0.100
6.300	-26.908	0.100
6.400	-28.471	0.100
6.500	-20.161	0.100
6.600	-26.461	0.100
6.700	-33.621	0.100
6.800	-23.855	0.100
6.900	-18.209	0.100
7.000	-25.657	0.100
7.100	-25.971	0.100
7.200	-27.676	0.100
7.300	-29.122	0.100
7.400	-16.513	0.100
7.500	-26.207	0.100
7.600	-23.445	0.100
7.700	-26.069	0.100
7.800	-27.302	0.100
7.900	-26.618	0.100
8.000	-32.799	0.100
8.100	-18.650	0.100
8.200	-15.365	0.100
8.300	-25.892	0.100
8.400	-23.623	0.100
8.500	-22.299	0.100
8.600	-30.270	0.100
8.700	-29.353	0.100
8.800	-30.647	0.100
8.900	-22.879	0.100
9.000	-25.816	0.100
9.100	-27.313	0.100
9.200	-26.801	0.100
9.300	-28.810	0.100
9.400	-20.665	0.100
9.500	-18.984	0.100
9.600	-22.725	0.100
9.700	-32.015	0.100
9.800	-24.431	0.100
9.900	-25.137	0.100
10.000	-29.635	0.100
10.100	-21.552	0.100
10.200	-33.777	0.100
10.300	-39.207	0.100
10.400	-25.995	0.100
10.500	-18.835	0.100
10.600	-18.772	0.100
10.700	-17.548	0.100
10.800	-18.119	0.100
10.900	-35.363	0.100
11.000	-26.966	0.100
11.100	-26.667	0.100
11.200	-31.355	0.100
11.300	-19.193	0.100
11.400	-27.205	0.100
11.500	-28.004	0.100
11.600	-32.037	0.100
11.700	-23.634	0.100
11.800	-28.284	0.100
11.900	-18.205	0.100
12.000	-34.881	0.100
12.100	-20.515	0.100
12.200	-31.523	0.100
12.300	-36.294	0.100
12.400	-28.005	0.100
12.500	-22.565	0.100
12.600	-24.273	0.100
12.700	-20.270	0.100
12.800	-24.825	0.100
12.900	-23.170	0.100
13.000	-32.207	0.100
13.100	-21.919	0.100
13.200	-35.521	0.100
13.300	-25.449	0.100
13.400	-34.716	0.100
13.500	-26.082	0.100
13.600	-28.994	0.100
13.700	-27.049	0.100
13.800	-22.839	0.100
13.900	-24.825	0.100
14.000	-28.779	0.100
14.100	-23.498	0.100
14.200	-36.363	0.100
14.300	-23.209	0.100
14.400	-23.889	0.100
14.500	-20.972	0.100
14.600	-21.822	0.100
14.700	-22.656	0.100
14.800	-29.739	0.100
14.900	-24.088	0.100
15.000	-20.471	0.100
15.100	-26.977	0.100
15.200	-31.383	0.100
15.300	-31.179	0.100
15.400	-23.915	0.100
15.500	-15.977	0.100
15.600	-19.027	0.100
15.700	-20.789	0.100
15.800	-22.483	0.100
15.900	-22.029	0.100
16.000	-22.754	0.100
16.100	-24.677	0.100
16.200	-30.532	0.100
16.300	-26.757	0.100
16.400	-28.402	0.100
16.500	-26.034	0.100
16.600	-24.626	0.100
16.700	-24.809	0.100
16.800	-25.284	0.100
16.900	-31.406	0.100
17.000	-20.444	0.100
17.100	-21.199	0.100
17.200	-22.121	0.100
17.300	-26.377	0.100
17.400	-20.930	0.100
17.500	-28.459	0.100
17.600	-31.157	0.100
17.700	-19.385	0.100
17.800	-29.409	0.100
17.900	-18.955	0.100
18.000	-29.159	0.100
18.100	-25.218	0.100
18.200	-18.730	0.100
18.300	-21.777	0.100
18.400	-24.241	0.100
18.500	-21.624	0.100
18.600	-23.425	0.100
18.700	-23.742	0.100
18.800	-26.890	0.100
18.900	-22.406	0.100
19.000	-18.049	0.100
19.100	-27.082	0.100
19.200	-28.315	0.100
19.300	-25.323	0.100
19.400	-29.748	0.100
19.500	-30.961	0.100
19.600	-25.744	0.100
19.700	-27.662	0.100
19.800	-20.167	0.100
19.900	-24.864	0.100
20.000	-17.420	0.100
20.100	-20.374	0.100
20.200	-41.085	0.100
20.300	-25.844	0.100
20.400	-30.846	0.100
20.500	-16.810	0.100
20.600	-22.838	0.100
20.700	-34.262	0.100
20.800	-28.609	0.100
20.900	-32.055	0.100
21.000	-27.144	0.100
21.100	-24.121	0.100
21.200	-23.758	0.100
21.300	-14.371	0.100
21.400	-23.038	0.100
21.500	-27.796	0.100
21.600	-21.991	0.100
21.700	-24.915	0.100
21.800	-16.494	0.100
21.900	-24.047	0.100
22.000	-25.213	0.100
22.100	-31.954	0.100
22.200	-27.447	0.100
22.300	-28.913	0.100
22.400	-13.453	0.100
22.500	-19.536	0.100
22.600	-29.196	0.100
22.700	-27.429	0.100
22.800	-31.163	0.100
22.900	-22.217	0.100
23.000	-32.868	0.100
23.100	-25.327	0.100
23.200	-22.678	0.100
23.300	-19.827	0.100
23.400	-21.150	0.100
23.500	-27.459	0.100
23.600	-28.139	0.100
23.700	-26.038	0.100
23.800	-23.063	0.100
23.900	-26.122	0.100
24.000	-18.861	0.100
24.100	-35.275	0.100
24.200	-19.499	0.100
24.300	-17.536	0.100
24.400	-28.710	0.100
24.500	-21.856	0.100
24.600	-24.160	0.100
24.700	-29.369	0.100
24.800	-23.456	0.100
24.900	-30.630	0.100
25.000	-30.131	0.100
25.100	-30.175	0.100
25.200	-25.658	0.100
25.300	-18.941	0.100
25.400	-23.195	0.100
25.500	-28.053	0.100
25.600	-13.994	0.100
25.700	-22.876	0.100
25.800	-31.841	0.100
25.900	-14.085	0.100
26.000	-21.322	0.100
26.100	-26.528	0.100
26.200	-20.473	0.100
26.300	-18.757	0.100
26.400	-15.110	0.100
26.500	-30.117	0.100
26.600	-15.166	0.100
26.700	-11.411	0.100
26.800	-33.350	0.100
26.900	-18.565	0.100
27.000	-29.084	0.100
27.100	-35.096	0.100
27.200	-28.048	0.100
27.300	-27.487	0.100
27.400	-23.459	0.100
27.500	-24.531	0.100
27.600	-26.394	0.100
27.700	-24.970	0.100
27.800	-26.446	0.100
27.900	-16.608	0.100
28.000	-23.429	0.100
28.100	-22.406	0.100
28.200	-23.950	0.100
28.300	-24.969	0.100
28.400	-28.456	0.100
28.500	-24.308	0.100
28.600	-28.055	0.100
28.700	-12.420	0.100
28.800	-30.441	0.100
28.900	-25.259	0.100
29.000	-18.557	0.100
29.100	-25.734	0.100
29.200	-25.514	0.100
29.300	-33.474	0.100
29.400	-28.213	0.100
29.500	-26.731	0.100
29.600	-25.328	0.100
29.700	-23.801	0.100
29.800	-23.018	0.100
29.900	-23.471	0.100
30.000	-24.127	0.100
30.100	-22.528	0.100
30.200	-28.789	0.100
30.300	-23.302	0.100
30.400	-24.694	0.100
30.500	-10.558	0.100
30.600	-18.588	0.100
30.700	-17.127	0.100
30.800	-16.399	0.100
30.900	-15.591	0.100
31.000	-18.344	0.100
31.100	-18.851	0.100
31.200	-11.796	0.100
31.300	-11.269	0.100
31.400	-6.294	0.100
31.500	-2.724	0.100
31.600	-8.086	0.100
31.700	-11.173	0.100
31.800	-5.616	0.100
31.900	5.358	0.100
32.000	-9.384	0.100
32.100	-15.026	0.100
32.200	1.665	0.100
32.300	-1.567	0.100
32.400	-7.668	0.100
32.500	-6.589	0.100
32.600	-7.310	0.100
32.700	8.997	0.100
32.800	-16.480	0.100
32.900	-5.709	0.100
33.000	-1.619	0.100
33.100	-3.300	0.100
33.200	-0.898	0.100
33.300	-7.014	0.100
33.400	-9.355	0.100
33.500	6.541	0.100
33.600	9.373	0.100
33.700	-5.322	0.100
33.800	1.578	0.100
33.900	0.197	0.100
34.000	-9.844	0.100
34.100	6.431	0.100
34.200	0.740	0.100
34.300	1.555	0.100
34.400	8.424	0.100
34.500	-2.559	0.100
34.600	-3.627	0.100
34.700	-4.772	0.100
34.800	12.078	0.100
34.900	-14.740	0.100
35.000	-0.777	0.100
35.100	12.818	0.100
35.200	3.367	0.100
35.300	8.279	0.100
35.400	9.875	0.100
35.500	-3.472	0.100
35.600	-4.131	0.100
35.700	3.873	0.100
35.800	5.204	0.100
35.900	-7.367	0.100
36.000	-9.367	0.100
36.100	6.765	0.100
36.200	8.467	0.100
36.300	-0.500	0.100
36.400	8.791	0.100
36.500	7.474	0.100
36.600	9.894	0.100
36.700	10.023	0.100
36.800	14.981	0.100
36.900	18.291	0.100
37.000	7.003	0.100
37.100	0.127	0.100
37.200	3.964	0.100
37.300	6.201	0.100
37.400	14.660	0.100
37.500	1.219	0.100
37.600	8.054	0.100
37.700	2.136	0.100
37.800	-0.544	0.100
37.900	17.095	0.100
38.000	11.114	0.100
38.100	13.037	0.100
38.200	15.129	0.100
38.300	14.720	0.100
38.400	9.714	0.100
38.500	13.686	0.100
38.600	18.525	0.100
38.700	12.614	0.100
38.800	11.206	0.100
38.900	11.893	0.100
39.000	2.918	0.100
39.100	17.749	0.100
39.200	21.891	0.100
39.300	20.281	0.100
39.400	10.248	0.100
39.500	21.566	0.100
39.600	19.957	0.100
39.700	18.545	0.100
39.800	24.271	0.100
39.900	27.880	0.100
40.000	20.600	0.100
40.100	14.254	0.100
40.200	9.932	0.100
40.300	20.240	0.100
40.400	17.509	0.100
40.500	29.020	0.100
40.600	30.010	0.100
40.700	25.336	0.100
40.800	29.421	0.100
40.900	21.910	0.100
41.000	21.729	0.100
41.100	22.429	0.100
41.200	16.198	0.100
41.300	18.178	0.100
41.400	23.623	0.100
41.500	27.533	0.100
41.600	32.476	0.100
41.700	29.045	0.100
41.800	29.276	0.100
41.900	26.758	0.100
42.000	20.637	0.100
42.100	23.653	0.100
42.200	24.906	0.100
42.300	21.967	0.100
42.400	37.988	0.100
42.500	40.061	0.100
42.600	29.023	0.100
42.700	40.445	0.100
42.800	23.168	0.100
42.900	40.688	0.100
43.000	34.298	0.100
43.100	37.422	0.100
43.200	41.297	0.100
43.300	34.142	0.100
43.400	33.720	0.100
43.500	44.375	0.100
43.600	41.355	0.100
43.700	43.183	0.100
43.800	34.510	0.100
43.900	31.189	0.100
44.000	34.994	0.100
44.100	29.085	0.100
44.200	41.624	0.100
44.300	43.853	0.100
44.400	25.543	0.100
44.500	29.754	0.100
44.600	30.850	0.100
44.700	35.762	0.100
44.800	30.958	0.100
44.900	40.524	0.100
45.000	44.662	0.100
45.100	38.016	0.100
45.200	37.693	0.100
45.300	33.556	0.100
45.400	31.564	0.100
45.500	33.903	0.100
45.600	36.058	0.100
45.700	39.990	0.100
45.800	45.483	0.100
45.900	41.576	0.100
46.000	46.018	0.100
46.100	39.752	0.100
46.200	36.321	0.100
46.300	40.602	0.100
46.400	32.661	0.100
46.500	40.037	0.100
46.600	48.792	0.100
46.700	33.473	0.100
46.800	39.699	0.100
46.900	47.264	0.100
47.000	47.122	0.100
47.100	34.707	0.100
47.200	39.108	0.100
47.300	58.046	0.100
47.400	43.018	0.100
47.500	35.579	0.100
47.600	45.283	0.100
47.700	49.706	0.100
47.800	40.478	0.100
47.900	38.684	0.100
48.000	37.088	0.100
48.100	32.836	0.100
48.200	35.741	0.100
48.300	52.614	0.100
48.400	47.876	0.100
48.500	41.674	0.100
48.600	29.056	0.100
48.700	47.125	0.100
48.800	48.793	0.100
48.900	42.528	0.100
49.000	47.886	0.100
49.100	46.844	0.100
49.200	37.009	0.100
49.300	38.465	0.100
49.400	38.515	0.100
49.500	48.169	0.100
49.600	47.609	0.100
49.700	42.093	0.100
49.800	41.996	0.100
49.900	41.813	0.100
50.000	34.979	0.100
50.100	36.905	0.100
50.200	42.576	0.100
50.300	36.666	0.100
50.400	46.468	0.100
50.500	44.422	0.100
50.600	50.612	0.100
50.700	47.859	0.100
50.800	44.820	0.100
50.900	42.503	0.100
51.000	49.597	0.100
51.100	42.534	0.100
51.200	39.086	0.100
51.300	45.569	0.100
51.400	40.273	0.100
51.500	40.678	0.100
51.600	41.710	0.100
51.700	39.745	0.100
51.800	42.187	0.100
51.900	44.855	0.100
52.000	44.280	0.100
52.100	47.105	0.100
52.200	52.441	0.100
52.300	47.683	0.100
52.400	42.661	0.100
52.500	35.837	0.100
52.600	37.785	0.100
52.700	47.422	0.100
52.800	50.154	0.100
52.900	41.756	0.100
53.000	45.426	0.100
53.100	46.282	0.100
53.200	37.737	0.100
53.300	47.677	0.100
53.400	51.262	0.100
53.500	40.459	0.100
53.600	41.800	0.100
53.700	38.247	0.100
53.800	34.420	0.100
53.900	42.825	0.100
54.000	44.326	0.100
54.100	42.365	0.100
54.200	41.972	0.100
54.300	36.398	0.100
54.400	32.887	0.100
54.500	48.345	0.100
54.600	53.975	0.100
54.700	51.685	0.100
54.800	44.766	0.100
54.900	48.249	0.100
55.000	41.888	0.100
55.100	41.500	0.100
55.200	32.978	0.100
55.300	40.956	0.100
55.400	49.977	0.100
55.500	44.378	0.100
55.600	46.084	0.100
55.700	43.016	0.100
55.800	50.114	0.100
55.900	42.354	0.100
56.000	51.073	0.100
56.100	39.246	0.100
56.200	39.914	0.100
56.300	40.541	0.100
56.400	44.892	0.100
56.500	59.431	0.100
56.600	48.999	0.100
56.700	40.702	0.100
56.800	49.859	0.100
56.900	39.499	0.100
57.000	44.238	0.100
57.100	42.688	0.100
57.200	35.712	0.100
57.300	35.808	0.100
57.400	50.010	0.100
57.500	32.044	0.100
57.600	44.007	0.100
57.700	49.297	0.100
57.800	48.759	0.100
57.900	43.197	0.100
58.000	37.170	0.100
58.100	45.611	0.100
58.200	50.833	0.100
58.300	45.242	0.100
58.400	50.172	0.100
58.500	54.137	0.100
58.600	45.293	0.100
58.700	42.389	0.100
58.800	51.871	0.100
58.900	38.178	0.100
59.000	43.077	0.100
59.100	53.850	0.100
59.200	47.779	0.100
59.300	35.702	0.100
59.400	43.390	0.100
59.500	38.431	0.100
59.600	43.156	0.100
59.700	46.764	0.100
59.800	36.829	0.100
59.900	35.006	0.100
60.000	41.164	0.100
60.100	42.348	0.100
60.200	42.223	0.100
60.300	40.513	0.100
60.400	44.963	0.100
60.500	52.545	0.100
60.600	50.820	0.100
60.700	44.837	0.100
60.800	36.131	0.100
60.900	38.870	0.100
61.000	46.196	0.100
61.100	40.822	0.100
61.200	49.806	0.100
61.300	39.961	0.100
61.400	49.975	0.100
61.500	45.910	0.100
61.600	36.503	0.100
61.700	36.673	0.100
61.800	37.841	0.100
61.900	43.228	0.100
62.000	44.231	0.100
62.100	48.028	0.100
62.200	45.839	0.100
62.300	40.900	0.100
62.400	41.979	0.100
62.500	48.228	0.100
62.600	50.211	0.100
62.700	42.135	0.100
62.800	45.306	0.100
62.900	47.204	0.100
63.000	56.620	0.100
63.100	46.715	0.100
63.200	44.566	0.100
63.300	45.678	0.100
63.400	51.057	0.100
63.500	40.449	0.100
63.600	54.302	0.100
63.700	42.020	0.100
63.800	47.109	0.100
63.900	45.478	0.100
64.000	42.275	0.100
64.100	44.845	0.100
64.200	56.615	0.100
64.300	47.496	0.100
64.400	47.770	0.100
64.500	44.175	0.100
64.600	46.134	0.100
64.700	43.685	0.100
64.800	51.944	0.100
64.900	35.788	0.100
65.000	49.513	0.100
65.100	41.558	0.100
65.200	39.907	0.100
65.300	52.793	0.100
65.400	45.052	0.100
65.500	51.145	0.100
65.600	43.051	0.100
65.700	47.461	0.100
65.800	55.762	0.100
65.900	42.628	0.100
66.000	42.451	0.100
66.100	54.074	0.100
66.200	48.917	0.100
66.300	42.171	0.100
66.400	43.937	0.100
66.500	44.080	0.100
66.600	45.073	0.100
66.700	50.127	0.100
66.800	42.193	0.100
66.900	45.981	0.100
67.000	45.145	0.100
67.100	48.968	0.100
67.200	55.846	0.100
67.300	39.675	0.100
67.400	53.111	0.100
67.500	51.177	0.100
67.600	50.106	0.100
67.700	50.113	0.100
67.800	50.906	0.100
67.900	40.019	0.100
68.000	53.373	0.100
68.100	50.495	0.100
68.200	47.423	0.100
68.300	53.676	0.100
68.400	45.916	0.100
68.500	42.618	0.100
68.600	47.864	0.100
68.700	53.113	0.100
68.800	46.918	0.100
68.900	46.380	0.100
69.000	47.135	0.100
69.100	49.267	0.100
69.200	41.099	0.100
69.300	52.673	0.100
69.400	47.175	0.100
69.500	41.312	0.100
69.600	42.405	0.100
69.700	54.981	0.100
69.800	46.852	0.100
69.900	38.706	0.100
70.000	38.921	0.100
70.100	44.911	0.100
70.200	46.392	0.100
70.300	52.086	0.100
70.400	51.735	0.100
70.500	32.265	0.100
70.600	41.681	0.100
70.700	49.679	0.100
70.800	60.214	0.100
70.900	54.362	0.100
71.000	51.542	0.100
71.100	50.239	0.100
71.200	44.870	0.100
71.300	46.134	0.100
71.400	47.061	0.100
71.500	45.246	0.100
71.600	50.834	0.100
71.700	50.075	0.100
71.800	42.906	0.100
71.900	41.264	0.100
72.000	40.336	0.100
72.100	46.251	0.100
72.200	50.387	0.100
72.300	55.937	0.100
72.400	47.597	0.100
72.500	55.294	0.100
72.600	41.065	0.100
72.700	33.246	0.100
72.800	43.177	0.100
72.900	40.375	0.100
73.000	37.570	0.100
73.100	45.330	0.100
73.200	58.391	0.100
73.300	49.341	0.100
73.400	44.987	0.100
73.500	41.436	0.100
73.600	38.251	0.100
73.700	49.671	0.100
73.800	53.540	0.100
73.900	56.810	0.100
74.000	45.753	0.100
74.100	52.955	0.100
74.200	49.380	0.100
74.300	46.126	0.100
74.400	49.296	0.100
74.500	55.779	0.100
74.600	51.802	0.100
74.700	43.158	0.100
74.800	45.193	0.100
74.900	42.434	0.100
75.000	42.363	0.100
75.100	47.893	0.100
75.200	52.562	0.100
75.300	45.303	0.100
75.400	44.557	0.100
75.500	33.975	0.100
75.600	52.691	0.100
75.700	51.205	0.100
75.800	47.111	0.100
75.900	42.996	0.100
76.000	42.508	0.100
76.100	40.675	0.100
76.200	53.476	0.100
76.300	53.514	0.100
76.400	46.294	0.100
76.500	50.636	0.100
76.600	49.487	0.100
76.700	47.509	0.100
76.800	39.423	0.100
76.900	47.042	0.100
77.000	55.849	0.100
77.100	40.331	0.100
77.200	49.309	0.100
77.300	54.775	0.100
77.400	43.329	0.100
77.500	45.746	0.100
77.600	55.535	0.100
77.700	49.737	0.100
77.800	39.415	0.100
77.900	56.320	0.100
78.000	37.903	0.100
78.100	42.337	0.100
78.200	40.577	0.100
78.300	52.089	0.100
78.400	47.296	0.100
78.500	41.626	0.100
78.600	41.883	0.100
78.700	47.608	0.100
78.800	53.982	0.100
78.900	46.153	0.100
79.000	48.541	0.100
79.100	49.784	0.100
79.200	38.208	0.100
79.300	47.469	0.100
79.400	51.121	0.100
79.500	41.735	0.100
79.600	47.691	0.100
79.700	37.998	0.100
79.800	44.507	0.100
79.900	40.622	0.100
80.000	45.300	0.100
80.100	44.309	0.100
80.200	53.889	0.100
80.300	47.321	0.100
80.400	45.008	0.100
80.500	40.482	0.100
80.600	52.022	0.100
80.700	42.611	0.100
80.800	51.875	0.100
80.900	53.965	0.100
81.000	47.657	0.100
81.100	43.435	0.100
81.200	54.099	0.100
81.300	48.256	0.100
81.400	45.662	0.100
81.500	53.316	0.100
81.600	42.325	0.100
81.700	41.395	0.100
81.800	56.779	0.100
81.900	44.968	0.100
82.000	46.362	0.100
82.100	50.317	0.100
82.200	43.599	0.100
82.300	49.832	0.100
82.400	37.978	0.100
82.500	48.838	0.100
82.600	42.206	0.100
82.700	44.682	0.100
82.800	49.604	0.100
82.900	50.122	0.100
83.000	42.618	0.100
83.100	51.449	0.100
83.200	34.882	0.100
83.300	45.229	0.100
83.400	43.103	0.100
83.500	53.614	0.100
83.600	47.448	0.100
83.700	43.694	0.100
83.800	42.231	0.100
83.900	57.482	0.100
84.000	42.149	0.100
84.100	48.789	0.100
84.200	45.376	0.100
84.300	51.994	0.100
84.400	48.395	0.100
84.500	46.924	0.100
84.600	47.163	0.100
84.700	38.650	0.100
84.800	31.336	0.100
84.900	45.696	0.100
85.000	42.708	0.100
85.100	51.505	0.100
85.200	47.879	0.100
85.300	49.278	0.100
85.400	49.670	0.100
85.500	50.889	0.100
85.600	40.528	0.100
85.700	46.801	0.100
85.800	46.765	0.100
85.900	42.648	0.100
86.000	41.953	0.100
86.100	41.390	0.100
86.200	44.045	0.100
86.300	29.118	0.100
86.400	42.628	0.100
86.500	49.744	0.100
86.600	60.905	0.100
86.700	53.734	0.100
86.800	45.459	0.100
86.900	39.075	0.100
87.000	49.484	0.100
87.100	53.508	0.100
87.200	41.925	0.100
87.300	47.038	0.100
87.400	41.895	0.100
87.500	35.255	0.100
87.600	42.612	0.100
87.700	44.568	0.100
87.800	52.755	0.100
87.900	50.181	0.100
88.000	47.968	0.100
88.100	38.625	0.100
88.200	49.522	0.100
88.300	42.077	0.100
88.400	51.513	0.100
88.500	47.220	0.100
88.600	39.545	0.100
88.700	44.878	0.100
88.800	40.890	0.100
88.900	47.803	0.100
89.000	49.931	0.100
89.100	51.276	0.100
89.200	57.821	0.100
89.300	46.504	0.100
89.400	45.446	0.100
89.500	40.581	0.100
89.600	51.345	0.100
89.700	47.533	0.100
89.800	50.286	0.100
89.900	58.093	0.100
90.000	47.881	0.100
90.100	41.736	0.100
90.200	47.427	0.100
90.300	39.613	0.100
90.400	42.486	0.100
90.500	46.844	0.100
90.600	39.650	0.100
90.700	44.423	0.100
90.800	35.991	0.100
90.900	26.875	0.100
91.000	32.094	0.100
91.100	35.429	0.100
91.200	30.438	0.100
91.300	32.105	0.100
91.400	28.920	0.100
91.500	22.791	0.100
91.600	20.097	0.100
91.700	15.953	0.100
91.800	15.636	0.100
91.900	17.835	0.100
92.000	13.784	0.100
92.100	8.558	0.100
92.200	15.409	0.100
92.300	10.850	0.100
92.400	9.965	0.100
92.500	7.081	0.100
92.600	9.977	0.100
92.700	2.905	0.100
92.800	11.285	0.100
92.900	3.155	0.100
93.000	5.539	0.100
93.100	7.837	0.100
93.200	6.040	0.100
93.300	-3.947	0.100
93.400	11.023	0.100
93.500	6.548	0.100
93.600	-4.699	0.100
93.700	4.271	0.100
93.800	0.291	0.100
93.900	-2.227	0.100
94.000	-9.902	0.100
94.100	-0.348	0.100
94.200	-6.401	0.100
94.300	-4.564	0.100
94.400	-2.573	0.100
94.500	-2.482	0.100
94.600	-11.074	0.100
94.700	1.553	0.100
94.800	-2.306	0.100
94.900	-2.627	0.100
95.000	-7.465	0.100
95.100	-6.817	0.100
95.200	-3.391	0.100
95.300	0.055	0.100
95.400	-5.206	0.100
95.500	-17.361	0.100
95.600	-11.814	0.100
95.700	-11.140	0.100
95.800	-11.224	0.100
95.900	-15.742	0.100
96.000	-13.114	0.100
96.100	-8.542	0.100
96.200	-5.542	0.100
96.300	0.164	0.100
96.400	-14.693	0.100
96.500	-12.712	0.100
96.600	-11.075	0.100
96.700	-10.507	0.100
96.800	1.240	0.100
96.900	0.453	0.100
97.000	-11.934	0.100
97.100	-12.525	0.100
97.200	-9.607	0.100
97.300	-10.650	0.100
97.400	-7.463	0.100
97.500	-14.862	0.100
97.600	-3.849	0.100
97.700	-7.057	0.100
97.800	-3.333	0.100
97.900	-6.925	0.100
98.000	-5.728	0.100
98.100	-13.962	0.100
98.200	-11.529	0.100
98.300	-21.132	0.100
98.400	-23.423	0.100
98.500	1.321	0.100
98.600	-9.677	0.100
98.700	-11.724	0.100
98.800	1.263	0.100
98.900	-11.387	0.100
99.000	-8.184	0.100
99.100	-8.958	0.100
99.200	-8.778	0.100
99.300	-8.665	0.100
99.400	-13.284	0.100
99.500	-14.990	0.100
99.600	-3.112	0.100
99.700	-8.557	0.100
99.800	-6.822	0.100
99.900	-11.679	0.100
100.000	-5.453	0.100
100.100	-15.236	0.100
100.200	-7.911	0.100
100.300	-6.720	0.100
100.400	-10.472	0.100
100.500	-5.592	0.100
100.600	-5.952	0.100
100.700	-7.938	0.100
100.800	-10.160	0.100
100.900	-5.468	0.100
101.000	-11.180	0.100
101.100	-6.729	0.100
101.200	-9.533	0.100
101.300	-12.664	0.100
101.400	-19.785	0.100
101.500	-7.405	0.100
101.600	-12.874	0.100
101.700	-13.679	0.100
101.800	-12.290	0.100
101.900	-12.080	0.100
102.000	-12.185	0.100
102.100	-12.551	0.100
102.200	-5.146	0.100
102.300	-12.341	0.100
102.400	-12.532	0.100
102.500	-12.248	0.100
102.600	-2.803	0.100
102.700	-4.321	0.100
102.800	-14.123	0.100
102.900	-10.317	0.100
103.000	-13.246	0.100
103.100	-14.268	0.100
103.200	-0.378	0.100
103.300	-9.731	0.100
103.400	-16.315	0.100
103.500	-12.843	0.100
103.600	-2.955	0.100
103.700	-15.852	0.100
103.800	-9.227	0.100
103.900	-14.766	0.100
104.000	-12.280	0.100
104.100	-14.265	0.100
104.200	-14.032	0.100
104.300	-2.587	0.100
104.400	-9.787	0.100
104.500	-2.050	0.100
104.600	-15.511	0.100
104.700	-13.871	0.100
104.800	-7.031	0.100
104.900	-14.320	0.100
105.000	-14.735	0.100
105.100	-16.306	0.100
105.200	-6.395	0.100
105.300	-11.955	0.100
105.400	-10.466	0.100
105.500	-18.893	0.100
105.600	-17.803	0.100
105.700	-3.731	0.100
105.800	-13.953	0.100
105.900	-20.167	0.100
106.000	-11.203	0.100
106.100	-14.174	0.100
106.200	-8.112	0.100
106.300	-6.093	0.100
106.400	-16.628	0.100
106.500	-11.306	0.100
106.600	-13.687	0.100
106.700	-10.887	0.100
106.800	-22.387	0.100
106.900	-11.411	0.100
107.000	-12.142	0.100
107.100	-10.623	0.100
107.200	-17.444	0.100
107.300	-17.850	0.100
107.400	-20.684	0.100
107.500	-20.428	0.100
107.600	-9.664	0.100
107.700	-8.942	0.100
107.800	-13.102	0.100
107.900	-20.515	0.100
108.000	-27.292	0.100
108.100	-12.914	0.100
108.200	-14.150	0.100
108.300	-22.884	0.100
108.400	-20.851	0.100
108.500	-26.568	0.100
108.600	-20.639	0.100
108.700	-16.609	0.100
108.800	-9.388	0.100
108.900	-10.101	0.100
109.000	-17.292	0.100
109.100	-25.045	0.100
109.200	-22.821	0.100
109.300	-13.594	0.100
109.400	-16.421	0.100
109.500	-7.730	0.100
109.600	-22.294	0.100
109.700	-18.684	0.100
109.800	-12.490	0.100
109.900	-10.542	0.100
110.000	-18.064	0.100
110.100	-21.671	0.100
110.200	-14.648	0.100
110.300	-6.675	0.100
110.400	-18.533	0.100
110.500	-14.826	0.100
110.600	-28.728	0.100
110.700	-21.520	0.100
110.800	-14.981	0.100
110.900	-5.867	0.100
111.000	-14.153	0.100
111.100	-24.035	0.100
111.200	-15.209	0.100
111.300	-20.545	0.100
111.400	-15.633	0.100
111.500	-25.317	0.100
111.600	-17.126	0.100
111.700	-18.866	0.100
111.800	-19.781	0.100
111.900	-22.688	0.100
112.000	-24.505	0.100
112.100	-29.488	0.100
112.200	-29.857	0.100
112.300	-16.230	0.100
112.400	-12.775	0.100
112.500	-9.923	0.100
112.600	-12.651	0.100
112.700	-21.606	0.100
112.800	-25.490	0.100
112.900	-23.123	0.100
113.000	-28.449	0.100
113.100	-17.789	0.100
113.200	-12.523	0.100
113.300	-14.711	0.100
113.400	-19.146	0.100
113.500	-20.904	0.100
113.600	-26.261	0.100
113.700	-25.373	0.100
113.800	-23.424	0.100
113.900	-16.514	0.100
114.000	-22.745	0.100
114.100	-22.222	0.100
114.200	-15.707	0.100
114.300	-31.153	0.100
114.400	-17.661	0.100
114.500	-31.988	0.100
114.600	-19.577	0.100
114.700	-19.579	0.100
114.800	-16.944	0.100
114.900	-22.464	0.100
115.000	-22.648	0.100
115.100	-31.032	0.100
115.200	-23.556	0.100
115.300	-25.089	0.100
115.400	-20.077	0.100
115.500	-26.622	0.100
115.600	-30.383	0.100
115.700	-23.501	0.100
115.800	-22.871	0.100
115.900	-23.750	0.100
116.000	-15.230	0.100
116.100	-25.346	0.100
116.200	-22.075	0.100
116.300	-29.430	0.100
116.400	-24.255	0.100
116.500	-23.854	0.100
116.600	-26.194	0.100
116.700	-19.643	0.100
116.800	-28.190	0.100
116.900	-15.607	0.100
117.000	-26.989	0.100
117.100	-31.592	0.100
117.200	-31.154	0.100
117.300	-28.199	0.100
117.400	-20.275	0.100
117.500	-19.374	0.100
117.600	-24.100	0.100
117.700	-19.017	0.100
117.800	-16.882	0.100
117.900	-23.348	0.100
118.000	-26.741	0.100
118.100	-25.559	0.100
118.200	-27.627	0.100
118.300	-18.854	0.100
118.400	-11.427	0.100
118.500	-22.274	0.100
118.600	-22.643	0.100
118.700	-30.149	0.100
118.800	-21.234	0.100
118.900	-22.379	0.100
119.000	-29.502	0.100
119.100	-24.360	0.100
119.200	-24.640	0.100
119.300	-27.627	0.100
119.400	-20.866	0.100
119.500	-21.474	0.100
119.600	-22.287	0.100
119.700	-35.534	0.100
119.800	-35.751	0.100
119.900	-24.906	0.100
120.000	-25.954	0.100
120.100	-29.919	0.100
120.200	-23.952	0.100
120.300	-27.760	0.100
120.400	-27.047	0.100
120.500	-34.299	0.100
120.600	-24.548	0.100
120.700	-26.140	0.100
120.800	-29.425	0.100
120.900	-29.659	0.100
121.000	-26.882	0.100
121.100	-29.056	0.100
121.200	-26.040	0.100
121.300	-31.178	0.100
121.400	-15.577	0.100
121.500	-20.052	0.100
121.600	-29.497	0.100
121.700	-30.021	0.100
121.800	-26.800	0.100
121.900	-32.014	0.100
122.000	-27.442	0.100
122.100	-31.240	0.100
122.200	-33.369	0.100
122.300	-30.060	0.100
122.400	-27.967	0.100
122.500	-23.798	0.100
122.600	-26.889	0.100
122.700	-21.453	0.100
122.800	-29.618	0.100
122.900	-30.604	0.100
123.000	-34.728	0.100
123.100	-25.712	0.100
123.200	-25.754	0.100
123.300	-39.859	0.100
123.400	-23.792	0.100
123.500	-29.985	0.100
123.600	-33.267	0.100
123.700	-31.592	0.100
123.800	-21.452	0.100
123.900	-25.175	0.100
124.000	-34.529	0.100
124.100	-31.553	0.100
124.200	-20.808	0.100
124.300	-25.246	0.100
124.400	-34.541	0.100
124.500	-37.272	0.100
124.600	-27.305	0.100
124.700	-28.705	0.100
124.800	-23.491	0.100
124.900	-22.816	0.100
125.000	-28.993	0.100
125.100	-27.787	0.100
125.200	-30.969	0.100
125.300	-24.290	0.100
125.400	-33.186	0.100
125.500	-39.331	0.100
125.600	-35.506	0.100
125.700	-27.625	0.100
125.800	-34.537	0.100
125.900	-30.393	0.100
126.000	-36.504	0.100
126.100	-31.576	0.100
126.200	-33.934	0.100
126.300	-31.333	0.100
126.400	-37.229	0.100
126.500	-33.842	0.100
126.600	-31.571	0.100
126.700	-30.588	0.100
126.800	-29.008	0.100
126.900	-40.235	0.100
127.000	-34.395	0.100
127.100	-29.473	0.100
127.200	-26.581	0.100
127.300	-34.888	0.100
127.400	-29.054	0.100
127.500	-35.753	0.100
127.600	-29.881	0.100
127.700	-33.733	0.100
127.800	-26.709	0.100
127.900	-41.365	0.100
128.000	-37.284	0.100
128.100	-28.938	0.100
128.200	-33.712	0.100
128.300	-32.996	0.100
128.400	-34.157	0.100
128.500	-30.442	0.100
128.600	-26.607	0.100
128.700	-25.459	0.100
128.800	-38.365	0.100
128.900	-35.814	0.100
129.000	-34.330	0.100
129.100	-37.312	0.100
129.200	-23.619	0.100
129.300	-29.448	0.100
129.400	-37.842	0.100
129.500	-21.299	0.100
129.600	-37.546	0.100
129.700	-34.346	0.100
129.800	-37.612	0.100
129.900	-37.004	0.100
130.000	-24.641	0.100
130.100	-32.456	0.100
130.200	-35.482	0.100
130.300	-32.662	0.100
130.400	-34.408	0.100
130.500	-24.326	0.100
130.600	-34.027	0.100
130.700	-32.871	0.100
130.800	-27.189	0.100
130.900	-33.525	0.100
131.000	-28.192	0.100
131.100	-29.335	0.100
131.200	-38.542	0.100
131.300	-24.268	0.100
131.400	-38.698	0.100
131.500	-33.550	0.100
131.600	-32.128	0.100
131.700	-41.315	0.100
131.800	-37.422	0.100
131.900	-34.303	0.100
132.000	-27.274	0.100
132.100	-26.893	0.100
132.200	-30.670	0.100
132.300	-29.439	0.100
132.400	-31.551	0.100
132.500	-36.541	0.100
132.600	-30.111	0.100
132.700	-25.893	0.100
132.800	-35.074	0.100
132.900	-21.866	0.100
133.000	-29.190	0.100
133.100	-36.509	0.100
133.200	-40.424	0.100
133.300	-33.991	0.100
133.400	-35.818	0.100
133.500	-33.582	0.100
133.600	-41.952	0.100
133.700	-30.181	0.100
133.800	-31.115	0.100
133.900	-36.982	0.100
134.000	-37.550	0.100
134.100	-35.330	0.100
134.200	-36.048	0.100
134.300	-46.784	0.100
134.400	-30.683	0.100
134.500	-36.789	0.100
134.600	-39.043	0.100
134.700	-32.281	0.100
134.800	-29.132	0.100
134.900	-31.343	0.100
135.000	-33.513	0.100
135.100	-40.961	0.100
135.200	-33.201	0.100
135.300	-39.064	0.100
135.400	-29.094	0.100
135.500	-33.426	0.100
135.600	-33.236	0.100
135.700	-36.779	0.100
135.800	-25.388	0.100
135.900	-37.760	0.100
136.000	-33.711	0.100
136.100	-20.903	0.100
136.200	-36.515	0.100
136.300	-31.919	0.100
136.400	-35.572	0.100
136.500	-38.949	0.100
136.600	-18.123	0.100
136.700	-21.510	0.100
136.800	-33.029	0.100
136.900	-35.131	0.100
137.000	-46.358	0.100
137.100	-49.137	0.100
137.200	-32.838	0.100
137.300	-34.559	0.100
137.400	-30.221	0.100
137.500	-26.713	0.100
137.600	-36.457	0.100
137.700	-30.947	0.100
137.800	-36.149	0.100
137.900	-28.735	0.100
138.000	-42.271	0.100
138.100	-42.638	0.100
138.200	-33.981	0.100
138.300	-33.513	0.100
138.400	-34.876	0.100
138.500	-34.475	0.100
138.600	-39.285	0.100
138.700	-44.337	0.100
138.800	-29.327	0.100
138.900	-31.166	0.100
139.000	-25.313	0.100
139.100	-25.619	0.100
139.200	-38.199	0.100
139.300	-36.980	0.100
139.400	-31.771	0.100
139.500	-36.058	0.100
139.600	-28.390	0.100
139.700	-38.771	0.100
139.800	-36.214	0.100
139.900	-41.185	0.100
140.000	-36.994	0.100
140.100	-44.839	0.100
140.200	-30.644	0.100
140.300	-33.169	0.100
140.400	-26.472	0.100
140.500	-32.544	0.100
140.600	-33.960	0.100
140.700	-23.609	0.100
140.800	-34.916	0.100
140.900	-32.741	0.100
141.000	-26.464	0.100
141.100	-33.176	0.100
141.200	-32.283	0.100
141.300	-33.785	0.100
141.400	-29.033	0.100
141.500	-27.749	0.100
141.600	-30.575	0.100
141.700	-27.725	0.100
141.800	-35.416	0.100
141.900	-34.750	0.100
142.000	-39.892	0.100
142.100	-34.480	0.100
142.200	-24.999	0.100
142.300	-36.545	0.100
142.400	-26.735	0.100
142.500	-28.849	0.100
142.600	-43.319	0.100
142.700	-24.431	0.100
142.800	-38.127	0.100
142.900	-30.268	0.100
143.000	-25.089	0.100
143.100	-30.267	0.100
143.200	-43.064	0.100
143.300	-31.034	0.100
143.400	-33.214	0.100
143.500	-30.580	0.100
143.600	-32.395	0.100
143.700	-28.283	0.100
143.800	-37.579	0.100
143.900	-37.703	0.100
144.000	-29.599	0.100
144.100	-35.022	0.100
144.200	-35.195	0.100
144.300	-31.393	0.100
144.400	-30.112	0.100
144.500	-38.962	0.100
144.600	-30.955	0.100
144.700	-32.524	0.100
144.800	-38.554	0.100
144.900	-34.742	0.100
145.000	-41.793	0.100
145.100	-41.003	0.100
145.200	-35.445	0.100
145.300	-23.505	0.100
145.400	-25.456	0.100
145.500	-25.334	0.100
145.600	-30.896	0.100
145.700	-29.901	0.100
145.800	-34.947	0.100
145.900	-31.768	0.100
146.000	-30.200	0.100
146.100	-27.948	0.100
146.200	-36.429	0.100
146.300	-37.734	0.100
146.400	-35.642	0.100
146.500	-35.507	0.100
146.600	-35.753	0.100
146.700	-44.301	0.100
146.800	-38.720	0.100
146.900	-42.949	0.100
147.000	-33.669	0.100
147.100	-32.760	0.100
147.200	-28.106	0.100
147.300	-30.550	0.100
147.400	-29.330	0.100
147.500	-27.344	0.100
147.600	-36.579	0.100
147.700	-35.385	0.100
147.800	-30.517	0.100
147.900	-24.862	0.100
148.000	-30.012	0.100
148.100	-41.725	0.100
148.200	-31.795	0.100
148.300	-28.796	0.100
148.400	-30.758	0.100
148.500	-34.682	0.100
148.600	-32.947	0.100
148.700	-26.761	0.100
148.800	-34.287	0.100
148.900	-29.137	0.100
149.000	-40.495	0.100
149.100	-32.354	0.100
149.200	-26.573	0.100
149.300	-32.887	0.100
149.400	-21.988	0.100
149.500	-41.708	0.100
149.600	-35.120	0.100
149.700	-39.795	0.100
149.800	-32.519	0.100
149.900	-32.725	0.100
150.000	-29.965	0.100
150.100	-37.796	0.100
150.200	-45.836	0.100
150.300	-27.119	0.100
150.400	-27.481	0.100
150.500	-40.349	0.100
150.600	-32.517	0.100
150.700	-39.554	0.100
150.800	-34.230	0.100
150.900	-36.278	0.100
151.000	-35.764	0.100
151.100	-27.971	0.100
151.200	-31.055	0.100
151.300	-30.257	0.100
151.400	-30.234	0.100
151.500	-33.223	0.100
151.600	-30.778	0.100
151.700	-23.338	0.100
151.800	-35.224	0.100
151.900	-26.967	0.100
152.000	-29.318	0.100
152.100	-38.248	0.100
152.200	-31.397	0.100
152.300	-39.020	0.100
152.400	-27.185	0.100
152.500	-30.053	0.100
152.600	-26.720	0.100
152.700	-35.006	0.100
152.800	-35.359	0.100
152.900	-27.443	0.100
153.000	-36.537	0.100
153.100	-30.562	0.100
153.200	-34.658	0.100
153.300	-41.664	0.100
153.400	-30.533	0.100
153.500	-22.874	0.100
153.600	-26.159	0.100
153.700	-35.821	0.100
153.800	-28.313	0.100
153.900	-26.984	0.100
154.000	-33.683	0.100
154.100	-39.914	0.100
154.200	-35.302	0.100
154.300	-24.332	0.100
154.400	-34.770	0.100
154.500	-30.246	0.100
154.600	-32.997	0.100
154.700	-28.803	0.100
154.800	-36.463	0.100
154.900	-28.887	0.100
155.000	-22.970	0.100
155.100	-27.743	0.100
155.200	-40.488	0.100
155.300	-28.856	0.100
155.400	-30.854	0.100
155.500	-27.899	0.100
155.600	-32.496	0.100
155.700	-25.733	0.100
155.800	-28.110	0.100
155.900	-34.850	0.100
156.000	-32.435	0.100
156.100	-32.187	0.100
156.200	-32.197	0.100
156.300	-34.077	0.100
156.400	-26.629	0.100
156.500	-31.128	0.100
156.600	-41.571	0.100
156.700	-29.429	0.100
156.800	-31.146	0.100
156.900	-24.508	0.100
157.000	-29.258	0.100
157.100	-34.740	0.100
157.200	-30.511	0.100
157.300	-26.101	0.100
157.400	-28.592	0.100
157.500	-41.065	0.100
157.600	-41.817	0.100
157.700	-42.374	0.100
157.800	-23.007	0.100
157.900	-33.040	0.100
158.000	-31.742	0.100
158.100	-30.776	0.100
158.200	-42.637	0.100
158.300	-27.120	0.100
158.400	-22.965	0.100
158.500	-24.341	0.100
158.600	-26.205	0.100
158.700	-23.548	0.100
158.800	-32.683	0.100
158.900	-31.445	0.100
159.000	-29.193	0.100
159.100	-29.909	0.100
159.200	-26.602	0.100
159.300	-30.530	0.100
159.400	-30.473	0.100
159.500	-26.001	0.100
159.600	-36.302	0.100
159.700	-28.927	0.100
159.800	-34.350	0.100
159.900	-31.274	0.100
160.000	-39.011	0.100
160.100	-28.731	0.100
160.200	-29.951	0.100
160.300	-24.689	0.100
160.400	-28.549	0.100
160.500	-21.878	0.100
160.600	-35.390	0.100
160.700	-28.592	0.100
160.800	-31.428	0.100
160.900	-33.956	0.100
161.000	-34.383	0.100
161.100	-36.192	0.100
161.200	-23.770	0.100
161.300	-26.666	0.100
161.400	-32.302	0.100
161.500	-35.409	0.100
161.600	-26.183	0.100
161.700	-32.547	0.100
161.800	-24.955	0.100
161.900	-35.435	0.100
162.000	-25.970	0.100
162.100	-26.895	0.100
162.200	-34.948	0.100
162.300	-37.631	0.100
162.400	-35.328	0.100
162.500	-37.183	0.100
162.600	-30.885	0.100
162.700	-27.756	0.100
162.800	-36.452	0.100
162.900	-31.742	0.100
163.000	-33.377	0.100
163.100	-33.524	0.100
163.200	-24.616	0.100
163.300	-36.148	0.100
163.400	-28.881	0.100
163.500	-27.169	0.100
163.600	-33.711	0.100
163.700	-17.791	0.100
163.800	-24.659	0.100
163.900	-30.144	0.100
164.000	-32.848	0.100
164.100	-24.325	0.100
164.200	-29.096	0.100
164.300	-32.616	0.100
164.400	-43.323	0.100
164.500	-35.580	0.100
164.600	-28.498	0.100
164.700	-31.755	0.100
164.800	-22.011	0.100
164.900	-31.915	0.100
165.000	-27.296	0.100
165.100	-27.644	0.100
165.200	-33.685	0.100
165.300	-27.573	0.100
165.400	-32.684	0.100
165.500	-30.593	0.100
165.600	-29.507	0.100
165.700	-27.729	0.100
165.800	-26.628	0.100
165.900	-42.184	0.100
166.000	-22.890	0.100
166.100	-24.571	0.100
166.200	-30.951	0.100
166.300	-31.679	0.100
166.400	-38.941	0.100
166.500	-28.218	0.100
166.600	-32.250	0.100
166.700	-31.893	0.100
166.800	-40.357	0.100
166.900	-29.927	0.100
167.000	-37.089	0.100
167.100	-32.411	0.100
167.200	-24.466	0.100
167.300	-25.868	0.100
167.400	-29.547	0.100
167.500	-24.930	0.100
167.600	-32.861	0.100
167.700	-25.280	0.100
167.800	-33.423	0.100
167.900	-19.982	0.100
168.000	-27.534	0.100
168.100	-34.638	0.100
168.200	-34.486	0.100
168.300	-28.460	0.100
168.400	-30.392	0.100
168.500	-27.321	0.100
168.600	-23.662	0.100
168.700	-40.761	0.100
168.800	-34.152	0.100
168.900	-34.860	0.100
169.000	-38.238	0.100
169.100	-24.284	0.100
169.200	-25.507	0.100
169.300	-39.992	0.100
169.400	-32.935	0.100
169.500	-38.133	0.100
169.600	-29.252	0.100
169.700	-31.860	0.100
169.800	-39.819	0.100
169.900	-39.990	0.100
170.000	-28.997	0.100
170.100	-19.870	0.100
170.200	-20.537	0.100
170.300	-25.206	0.100
170.400	-32.452	0.100
170.500	-32.604	0.100
170.600	-31.804	0.100
170.700	-29.282	0.100
170.800	-30.687	0.100
170.900	-12.401	0.100
171.000	-27.635	0.100
171.100	-41.944	0.100
171.200	-28.762	0.100
171.300	-29.112	0.100
171.400	-27.120	0.100
171.500	-21.093	0.100
171.600	-25.940	0.100
171.700	-28.025	0.100
171.800	-22.209	0.100
171.900	-24.162	0.100
172.000	-28.874	0.100
172.100	-25.299	0.100
172.200	-18.807	0.100
172.300	-28.374	0.100
172.400	-23.816	0.100
172.500	-32.871	0.100
172.600	-31.734	0.100
172.700	-24.288	0.100
172.800	-28.109	0.100
172.900	-35.186	0.100
173.000	-32.696	0.100
173.100	-32.978	0.100
173.200	-24.891	0.100
173.300	-35.694	0.100
173.400	-26.863	0.100
173.500	-30.329	0.100
173.600	-28.314	0.100
173.700	-31.111	0.100
173.800	-26.186	0.100
173.900	-37.667	0.100
174.000	-25.745	0.100
174.100	-21.722	0.100
174.200	-27.260	0.100
174.300	-31.396	0.100
174.400	-23.968	0.100
174.500	-29.258	0.100
174.600	-40.289	0.100
174.700	-31.834	0.100
174.800	-35.158	0.100
174.900	-26.181	0.100
175.000	-30.569	0.100
175.100	-30.922	0.100
175.200	-40.857	0.100
175.300	-23.454	0.100
175.400	-25.968	0.100
175.500	-32.735	0.100
175.600	-33.232	0.100
175.700	-28.597	0.100
175.800	-29.530	0.100
175.900	-27.521	0.100
176.000	-26.090	0.100
176.100	-33.777	0.100
176.200	-34.570	0.100
176.300	-21.818	0.100
176.400	-28.786	0.100
176.500	-13.094	0.100
176.600	-24.004	0.100
176.700	-27.779	0.100
176.800	-33.588	0.100
176.900	-26.799	0.100
177.000	-25.057	0.100
177.100	-27.068	0.100
177.200	-42.685	0.100
177.300	-35.720	0.100
177.400	-26.709	0.100
177.500	-27.632	0.100
177.600	-27.435	0.100
177.700	-35.972	0.100
177.800	-26.089	0.100
177.900	-17.345	0.100
178.000	-25.073	0.100
178.100	-26.248	0.100
178.200	-31.364	0.100
178.300	-26.852	0.100
178.400	-33.179	0.100
178.500	-25.278	0.100
178.600	-29.156	0.100
178.700	-32.069	0.100
178.800	-22.519	0.100
178.900	-24.980	0.100
179.000	-22.796	0.100
179.100	-31.479	0.100
179.200	-24.528	0.100
179.300	-26.331	0.100
179.400	-29.749	0.100
179.500	-29.401	0.100
179.600	-35.749	0.100
179.700	-28.114	0.100
179.800	-20.033	0.100
179.900	-29.981	0.100
180.000	-31.677	0.100
180.100	-32.252	0.100
180.200	-29.494	0.100
180.300	-28.180	0.100
180.400	-25.192	0.100
180.500	-16.466	0.100
180.600	-27.703	0.100
180.700	-17.467	0.100
180.800	-19.335	0.100
180.900	-16.171	0.100
181.000	-18.583	0.100
181.100	-22.789	0.100
181.200	-17.813	0.100
181.300	-18.231	0.100
181.400	-12.534	0.100
181.500	-11.928	0.100
181.600	-7.514	0.100
181.700	-4.416	0.100
181.800	-8.834	0.100
181.900	-4.736	0.100
182.000	-0.536	0.100
182.100	-6.715	0.100
182.200	-4.244	0.100
182.300	-6.232	0.100
182.400	-2.560	0.100
182.500	3.237	0.100
182.600	-3.862	0.100
182.700	6.488	0.100
182.800	3.680	0.100
182.900	-1.803	0.100
183.000	5.443	0.100
183.100	5.302	0.100
183.200	-4.634	0.100
183.300	-4.726	0.100
183.400	1.706	0.100
183.500	8.562	0.100
183.600	1.136	0.100
183.700	-5.270	0.100
183.800	0.531	0.100
183.900	-0.916	0.100
184.000	5.497	0.100
184.100	5.799	0.100
184.200	-4.219	0.100
184.300	-3.328	0.100
184.400	3.802	0.100
184.500	5.108	0.100
184.600	8.262	0.100
184.700	8.366	0.100
184.800	-2.359	0.100
184.900	3.620	0.100
185.000	3.887	0.100
185.100	10.215	0.100
185.200	2.641	0.100
185.300	0.086	0.100
185.400	-4.820	0.100
185.500	4.495	0.100
185.600	5.879	0.100
185.700	6.623	0.100
185.800	7.049	0.100
185.900	2.609	0.100
186.000	9.392	0.100
186.100	2.468	0.100
186.200	7.185	0.100
186.300	11.722	0.100
186.400	4.750	0.100
186.500	-3.435	0.100
186.600	-1.106	0.100
186.700	2.731	0.100
186.800	5.675	0.100
186.900	2.363	0.100
187.000	5.429	0.100
187.100	12.736	0.100
187.200	6.386	0.100
187.300	2.524	0.100
187.400	8.001	0.100
187.500	3.178	0.100
187.600	13.084	0.100
187.700	4.277	0.100
187.800	2.968	0.100
187.900	7.669	0.100
188.000	2.553	0.100
188.100	15.140	0.100
188.200	8.076	0.100
188.300	11.914	0.100
188.400	5.566	0.100
188.500	1.889	0.100
188.600	13.452	0.100
188.700	9.017	0.100
188.800	11.307	0.100
188.900	7.095	0.100
189.000	8.349	0.100
189.100	12.594	0.100
189.200	7.391	0.100
189.300	13.198	0.100
189.400	6.863	0.100
189.500	13.831	0.100
189.600	9.419	0.100
189.700	3.702	0.100
189.800	9.753	0.100
189.900	16.412	0.100
190.000	6.381	0.100
190.100	10.531	0.100
190.200	11.517	0.100
190.300	17.489	0.100
190.400	17.130	0.100
190.500	15.553	0.100
190.600	13.048	0.100
190.700	7.437	0.100
190.800	24.886	0.100
190.900	19.799	0.100
191.000	22.416	0.100
191.100	13.830	0.100
191.200	16.528	0.100
191.300	12.051	0.100
191.400	13.193	0.100
191.500	23.165	0.100
191.600	22.486	0.100
191.700	20.600	0.100
191.800	23.488	0.100
191.900	29.068	0.100
192.000	20.489	0.100
192.100	20.498	0.100
192.200	26.257	0.100
192.300	18.223	0.100
192.400	27.238	0.100
192.500	30.097	0.100
192.600	27.727	0.100
192.700	33.471	0.100
192.800	27.018	0.100
192.900	28.702	0.100
193.000	26.375	0.100
193.100	27.345	0.100
193.200	32.741	0.100
193.300	24.129	0.100
193.400	30.104	0.100
193.500	24.576	0.100
193.600	33.017	0.100
193.700	36.208	0.100
193.800	24.635	0.100
193.900	30.335	0.100
194.000	25.236	0.100
194.100	42.560	0.100
194.200	35.298	0.100
194.300	34.327	0.100
194.400	42.768	0.100
194.500	38.451	0.100
194.600	31.237	0.100
194.700	38.777	0.100
194.800	29.100	0.100
194.900	32.338	0.100
195.000	32.378	0.100
195.100	41.740	0.100
195.200	37.762	0.100
195.300	41.053	0.100
195.400	41.733	0.100
195.500	30.604	0.100
195.600	34.366	0.100
195.700	36.964	0.100
195.800	44.788	0.100
195.900	32.777	0.100
196.000	37.466	0.100
196.100	36.961	0.100
196.200	61.116	0.100
196.300	45.830	0.100
196.400	50.545	0.100
196.500	45.634	0.100
196.600	37.425	0.100
196.700	41.475	0.100
196.800	39.740	0.100
196.900	33.838	0.100
197.000	43.671	0.100
197.100	36.968	0.100
197.200	40.688	0.100
197.300	44.166	0.100
197.400	48.517	0.100
197.500	40.505	0.100
197.600	57.820	0.100
197.700	48.149	0.100
197.800	45.736	0.100
197.900	43.662	0.100
198.000	43.604	0.100
198.100	43.916	0.100
198.200	40.722	0.100
198.300	46.887	0.100
198.400	50.312	0.100
198.500	47.883	0.100
198.600	42.175	0.100
198.700	54.396	0.100
198.800	50.870	0.100
198.900	47.218	0.100
199.000	47.129	0.100
199.100	52.817	0.100
199.200	37.646	0.100
199.300	51.827	0.100
199.400	54.323	0.100
199.500	47.979	0.100
199.600	57.246	0.100
199.700	53.898	0.100
199.800	46.794	0.100
199.900	39.224	0.100
200.000	53.692	0.100
200.100	46.455	0.100
200.200	58.304	0.100
200.300	54.027	0.100
200.400	46.661	0.100
200.500	49.004	0.100
200.600	47.459	0.100
200.700	56.866	0.100
200.800	43.384	0.100
200.900	52.448	0.100
201.000	51.283	0.100
201.100	57.592	0.100
201.200	41.510	0.100
201.300	46.603	0.100
201.400	51.587	0.100
201.500	52.659	0.100
201.600	56.843	0.100
201.700	44.855	0.100
201.800	49.520	0.100
201.900	45.255	0.100
202.000	58.532	0.100
202.100	55.103	0.100
202.200	54.040	0.100
202.300	54.223	0.100
202.400	49.977	0.100
202.500	46.480	0.100
202.600	54.952	0.100
202.700	56.651	0.100
202.800	52.894	0.100
202.900	57.210	0.100
203.000	53.365	0.100
203.100	43.738	0.100
203.200	66.348	0.100
203.300	55.817	0.100
203.400	48.896	0.100
203.500	49.250	0.100
203.600	45.053	0.100
203.700	52.872	0.100
203.800	61.439	0.100
203.900	56.955	0.100
204.000	50.486	0.100
204.100	51.917	0.100
204.200	55.066	0.100
204.300	49.772	0.100
204.400	51.179	0.100
204.500	53.563	0.100
204.600	50.469	0.100
204.700	55.173	0.100
204.800	55.059	0.100
204.900	52.953	0.100
205.000	58.866	0.100
205.100	51.967	0.100
205.200	55.264	0.100
205.300	64.077	0.100
205.400	57.062	0.100
205.500	56.504	0.100
205.600	55.473	0.100
205.700	45.685	0.100
205.800	46.462	0.100
205.900	45.199	0.100
206.000	61.175	0.100
206.100	47.268	0.100
206.200	51.694	0.100
206.300	58.035	0.100
206.400	51.275	0.100
206.500	51.311	0.100
206.600	55.815	0.100
206.700	53.900	0.100
206.800	49.590	0.100
206.900	45.368	0.100
207.000	51.461	0.100
207.100	51.340	0.100
207.200	56.945	0.100
207.300	43.891	0.100
207.400	52.686	0.100
207.500	53.279	0.100
207.600	47.106	0.100
207.700	47.903	0.100
207.800	51.554	0.100
207.900	51.566	0.100
208.000	52.064	0.100
208.100	48.080	0.100
208.200	58.065	0.100
208.300	59.615	0.100
208.400	53.886	0.100
208.500	48.727	0.100
208.600	48.660	0.100
208.700	51.095	0.100
208.800	58.284	0.100
208.900	43.397	0.100
209.000	57.038	0.100
209.100	55.886	0.100
209.200	47.323	0.100
209.300	43.190	0.100
209.400	55.589	0.100
209.500	57.787	0.100
209.600	58.324	0.100
209.700	55.772	0.100
209.800	45.361	0.100
209.900	45.757	0.100
210.000	51.154	0.100
210.100	48.832	0.100
210.200	51.261	0.100
210.300	52.239	0.100
210.400	46.647	0.100
210.500	45.773	0.100
210.600	48.805	0.100
210.700	51.856	0.100
210.800	51.251	0.100
210.900	57.450	0.100
211.000	52.045	0.100
211.100	54.879	0.100
211.200	49.425	0.100
211.300	56.779	0.100
211.400	53.661	0.100
211.500	51.924	0.100
211.600	55.203	0.100
211.700	53.469	0.100
211.800	52.859	0.100
211.900	56.487	0.100
212.000	49.843	0.100
212.100	51.232	0.100
212.200	50.428	0.100
212.300	46.140	0.100
212.400	55.354	0.100
212.500	60.194	0.100
212.600	62.024	0.100
212.700	49.341	0.100
212.800	56.455	0.100
212.900	58.349	0.100
213.000	52.258	0.100
213.100	59.103	0.100
213.200	44.015	0.100
213.300	59.302	0.100
213.400	46.835	0.100
213.500	42.555	0.100
213.600	51.117	0.100
213.700	53.696	0.100
213.800	49.076	0.100
213.900	54.554	0.100
214.000	50.368	0.100
214.100	55.383	0.100
214.200	56.082	0.100
214.300	46.757	0.100
214.400	52.634	0.100
214.500	49.985	0.100
214.600	50.917	0.100
214.700	53.986	0.100
214.800	47.942	0.100
214.900	49.471	0.100
215.000	50.210	0.100
215.100	61.201	0.100
215.200	49.064	0.100
215.300	50.372	0.100
215.400	47.627	0.100
215.500	45.263	0.100
215.600	54.152	0.100
215.700	58.575	0.100
215.800	53.942	0.100
215.900	61.790	0.100
216.000	40.742	0.100
216.100	54.873	0.100
216.200	51.759	0.100
216.300	52.650	0.100
216.400	59.530	0.100
216.500	59.477	0.100
216.600	58.158	0.100
216.700	59.815	0.100
216.800	54.216	0.100
216.900	50.707	0.100
217.000	57.598	0.100
217.100	49.241	0.100
217.200	54.011	0.100
217.300	50.792	0.100
217.400	48.763	0.100
217.500	54.961	0.100
217.600	47.804	0.100
217.700	43.100	0.100
217.800	50.001	0.100
217.900	50.962	0.100
218.000	50.594	0.100
218.100	57.102	0.100
218.200	61.091	0.100
218.300	48.094	0.100
218.400	59.014	0.100
218.500	52.625	0.100
218.600	57.395	0.100
218.700	47.817	0.100
218.800	46.708	0.100
218.900	43.399	0.100
219.000	48.307	0.100
219.100	48.701	0.100
219.200	50.491	0.100
219.300	55.093	0.100
219.400	45.786	0.100
219.500	55.656	0.100
219.600	54.570	0.100
219.700	49.619	0.100
219.800	57.346	0.100
219.900	51.969	0.100
220.000	53.341	0.100
220.100	48.523	0.100
220.200	57.624	0.100
220.300	45.280	0.100
220.400	51.967	0.100
220.500	44.389	0.100
220.600	52.487	0.100
220.700	61.363	0.100
220.800	52.752	0.100
220.900	55.912	0.100
221.000	48.224	0.100
221.100	56.540	0.100
221.200	59.378	0.100
221.300	55.825	0.100
221.400	43.049	0.100
221.500	47.798	0.100
221.600	40.454	0.100
221.700	48.933	0.100
221.800	48.240	0.100
221.900	58.829	0.100
222.000	60.650	0.100
222.100	58.553	0.100
222.200	57.504	0.100
222.300	38.903	0.100
222.400	54.336	0.100
222.500	51.431	0.100
222.600	55.332	0.100
222.700	46.824	0.100
222.800	51.848	0.100
222.900	49.505	0.100
223.000	43.395	0.100
223.100	53.155	0.100
223.200	57.971	0.100
223.300	52.833	0.100
223.400	55.570	0.100
223.500	46.573	0.100
223.600	50.272	0.100
223.700	49.466	0.100
223.800	41.044	0.100
223.900	46.060	0.100
224.000	57.628	0.100
224.100	53.519	0.100
224.200	47.089	0.100
224.300	46.728	0.100
224.400	53.196	0.100
224.500	52.190	0.100
224.600	49.400	0.100
224.700	50.645	0.100
224.800	46.569	0.100
224.900	54.025	0.100
225.000	55.499	0.100
225.100	42.033	0.100
225.200	49.374	0.100
225.300	45.518	0.100
225.400	56.682	0.100
225.500	58.207	0.100
225.600	46.845	0.100
225.700	50.958	0.100
225.800	55.005	0.100
225.900	46.371	0.100
226.000	59.801	0.100
226.100	58.591	0.100
226.200	50.137	0.100
226.300	54.752	0.100
226.400	47.850	0.100
226.500	50.665	0.100
226.600	51.720	0.100
226.700	57.968	0.100
226.800	51.849	0.100
226.900	44.383	0.100
227.000	54.992	0.100
227.100	57.205	0.100
227.200	43.319	0.100
227.300	51.827	0.100
227.400	58.906	0.100
227.500	57.195	0.100
227.600	53.597	0.100
227.700	53.726	0.100
227.800	55.562	0.100
227.900	49.846	0.100
228.000	53.328	0.100
228.100	55.576	0.100
228.200	67.921	0.100
228.300	54.343	0.100
228.400	48.744	0.100
228.500	36.015	0.100
228.600	37.875	0.100
228.700	40.679	0.100
228.800	55.933	0.100
228.900	47.032	0.100
229.000	61.289	0.100
229.100	49.279	0.100
229.200	54.117	0.100
229.300	59.782	0.100
229.400	59.198	0.100
229.500	46.543	0.100
229.600	45.797	0.100
229.700	44.505	0.100
229.800	41.154	0.100
229.900	49.449	0.100
230.000	46.992	0.100
230.100	50.173	0.100
230.200	64.237	0.100
230.300	39.916	0.100
230.400	50.114	0.100
230.500	47.099	0.100
230.600	43.036	0.100
230.700	54.335	0.100
230.800	51.674	0.100
230.900	69.006	0.100
231.000	64.505	0.100
231.100	47.637	0.100
231.200	50.192	0.100
231.300	49.836	0.100
231.400	56.181	0.100
231.500	44.881	0.100
231.600	47.801	0.100
231.700	42.001	0.100
231.800	52.770	0.100
231.900	60.419	0.100
232.000	52.294	0.100
232.100	51.042	0.100
232.200	53.106	0.100
232.300	53.849	0.100
232.400	46.151	0.100
232.500	52.168	0.100
232.600	54.712	0.100
232.700	47.033	0.100
232.800	52.506	0.100
232.900	51.656	0.100
233.000	45.020	0.100
233.100	56.870	0.100
233.200	51.525	0.100
233.300	49.287	0.100
233.400	51.690	0.100
233.500	42.270	0.100
233.600	47.110	0.100
233.700	56.440	0.100
233.800	59.877	0.100
233.900	49.639	0.100
234.000	55.712	0.100
234.100	54.866	0.100
234.200	44.620	0.100
234.300	44.004	0.100
234.400	52.928	0.100
234.500	55.022	0.100
234.600	62.151	0.100
234.700	52.385	0.100
234.800	51.353	0.100
234.900	55.301	0.100
235.000	44.445	0.100
235.100	44.272	0.100
235.200	42.917	0.100
235.300	44.917	0.100
235.400	47.890	0.100
235.500	54.052	0.100
235.600	59.936	0.100
235.700	52.312	0.100
235.800	49.404	0.100
235.900	55.010	0.100
236.000	46.142	0.100
236.100	52.251	0.100
236.200	49.757	0.100
236.300	50.517	0.100
236.400	51.711	0.100
236.500	48.002	0.100
236.600	51.056	0.100
236.700	51.201	0.100
236.800	68.595	0.100
236.900	50.354	0.100
237.000	51.011	0.100
237.100	47.897	0.100
237.200	50.736	0.100
237.300	60.155	0.100
237.400	59.721	0.100
237.500	56.350	0.100
237.600	54.441	0.100
237.700	49.969	0.100
237.800	50.374	0.100
237.900	53.930	0.100
238.000	45.709	0.100
238.100	54.132	0.100
238.200	56.587	0.100
238.300	60.376	0.100
238.400	58.305	0.100
238.500	47.253	0.100
238.600	56.583	0.100
238.700	52.455	0.100
238.800	55.143	0.100
238.900	44.249	0.100
239.000	43.300	0.100
239.100	54.485	0.100
239.200	56.510	0.100
239.300	47.186	0.100
239.400	58.273	0.100
239.500	39.486	0.100
239.600	48.135	0.100
239.700	53.075	0.100
239.800	49.113	0.100
239.900	59.703	0.100
240.000	48.542	0.100
240.100	51.250	0.100
240.200	51.468	0.100
240.300	38.231	0.100
240.400	35.495	0.100
240.500	46.636	0.100
240.600	46.323	0.100
240.700	46.725	0.100
240.800	42.043	0.100
240.900	36.238	0.100
241.000	42.688	0.100
241.100	40.050	0.100
241.200	36.703	0.100
241.300	25.477	0.100
241.400	24.291	0.100
241.500	26.612	0.100
241.600	21.940	0.100
241.700	29.173	0.100
241.800	15.117	0.100
241.900	23.267	0.100
242.000	17.149	0.100
242.100	7.686	0.100
242.200	4.014	0.100
242.300	6.480	0.100
242.400	5.021	0.100
242.500	7.755	0.100
242.600	15.718	0.100
242.700	15.093	0.100
242.800	2.434	0.100
242.900	2.236	0.100
243.000	16.301	0.100
243.100	18.780	0.100
243.200	3.500	0.100
243.300	4.251	0.100
243.400	16.047	0.100
243.500	12.889	0.100
243.600	-0.858	0.100
243.700	1.148	0.100
243.800	-3.624	0.100
243.900	-10.830	0.100
244.000	-7.331	0.100
244.100	0.139	0.100
244.200	-5.221	0.100
244.300	-0.469	0.100
244.400	-3.492	0.100
244.500	-1.951	0.100
244.600	3.793	0.100
244.700	0.973	0.100
244.800	-6.900	0.100
244.900	-4.911	0.100
245.000	-3.299	0.100
245.100	-4.577	0.100
245.200	-11.760	0.100
245.300	-13.910	0.100
245.400	-12.337	0.100
245.500	-9.295	0.100
245.600	-8.731	0.100
245.700	-0.415	0.100
245.800	-6.217	0.100
245.900	-6.019	0.100
246.000	-3.641	0.100
246.100	-4.062	0.100
246.200	-5.664	0.100
246.300	-7.046	0.100
246.400	2.214	0.100
246.500	-15.686	0.100
246.600	2.449	0.100
246.700	-5.578	0.100
246.800	0.748	0.100
246.900	-15.683	0.100
247.000	-15.850	0.100
247.100	-5.614	0.100
247.200	-4.155	0.100
247.300	-1.340	0.100
247.400	-4.482	0.100
247.500	-3.652	0.100
247.600	-3.177	0.100
247.700	-9.052	0.100
247.800	-13.695	0.100
247.900	1.659	0.100
248.000	-5.608	0.100
248.100	-6.840	0.100
248.200	-13.445	0.100
248.300	-12.734	0.100
248.400	-12.205	0.100
248.500	-5.792	0.100
248.600	-7.739	0.100
248.700	-5.148	0.100
248.800	-10.910	0.100
248.900	-10.459	0.100
249.000	-5.892	0.100
249.100	-6.015	0.100
249.200	-2.992	0.100
249.300	-16.090	0.100
249.400	-10.979	0.100
249.500	-9.052	0.100
249.600	-5.534	0.100
249.700	-3.313	0.100
249.800	-15.559	0.100
249.900	-16.542	0.100
250.000	-19.314	0.100
250.100	-5.715	0.100
250.200	-11.190	0.100
250.300	-7.703	0.100
250.400	-5.888	0.100
250.500	-19.993	0.100
250.600	-3.161	0.100
250.700	-11.536	0.100
250.800	-16.518	0.100
250.900	-14.786	0.100
251.000	-8.461	0.100
251.100	-11.950	0.100
251.200	-3.571	0.100
251.300	-6.928	0.100
251.400	-17.928	0.100
251.500	-9.021	0.100
251.600	-16.038	0.100
251.700	-4.782	0.100
251.800	-12.262	0.100
251.900	-10.435	0.100
252.000	-16.151	0.100
252.100	-8.813	0.100
252.200	-11.507	0.100
252.300	-15.034	0.100
252.400	-3.406	0.100
252.500	-8.743	0.100
252.600	-12.774	0.100
252.700	-17.563	0.100
252.800	-4.161	0.100
252.900	-19.289	0.100
253.000	-9.982	0.100
253.100	-10.796	0.100
253.200	-19.688	0.100
253.300	-13.799	0.100
253.400	-12.328	0.100
253.500	-12.733	0.100
253.600	-11.957	0.100
253.700	-16.657	0.100
253.800	-10.780	0.100
253.900	-20.363	0.100
254.000	-17.848	0.100
254.100	-14.008	0.100
254.200	-10.152	0.100
254.300	-9.847	0.100
254.400	-23.298	0.100
254.500	-19.226	0.100
254.600	-2.782	0.100
254.700	-15.390	0.100
254.800	-15.208	0.100
254.900	-5.370	0.100
255.000	-17.683	0.100
255.100	-15.162	0.100
255.200	-16.970	0.100
255.300	-15.783	0.100
255.400	-18.959	0.100
255.500	-13.271	0.100
255.600	-17.539	0.100
255.700	-17.412	0.100
255.800	-13.249	0.100
255.900	-20.232	0.100
256.000	-22.990	0.100
256.100	-16.368	0.100
256.200	-16.532	0.100
256.300	-17.112	0.100
256.400	-22.689	0.100
256.500	-18.505	0.100
256.600	-12.987	0.100
256.700	-18.154	0.100
256.800	-13.607	0.100
256.900	-15.739	0.100
257.000	-31.269	0.100
257.100	-19.784	0.100
257.200	-19.332	0.100
257.300	-13.234	0.100
257.400	-15.830	0.100
257.500	-7.973	0.100
257.600	-22.633	0.100
257.700	-29.971	0.100
257.800	-18.374	0.100
257.900	-11.497	0.100
258.000	-16.522	0.100
258.100	-28.265	0.100
258.200	-14.164	0.100
258.300	-20.643	0.100
258.400	-17.294	0.100
258.500	-19.556	0.100
258.600	-16.325	0.100
258.700	-21.187	0.100
258.800	-11.268	0.100
258.900	-18.032	0.100
259.000	-23.191	0.100
259.100	-14.423	0.100
259.200	-18.187	0.100
259.300	-24.591	0.100
259.400	-36.895	0.100
259.500	-14.287	0.100
259.600	-17.957	0.100
259.700	-21.221	0.100
259.800	-13.334	0.100
259.900	-22.080	0.100
260.000	-21.903	0.100
260.100	-16.109	0.100
260.200	-10.985	0.100
260.300	-11.717	0.100
260.400	-28.759	0.100
260.500	-21.363	0.100
260.600	-21.029	0.100
260.700	-26.673	0.100
260.800	-25.544	0.100
260.900	-18.048	0.100
261.000	-19.500	0.100
261.100	-15.438	0.100
261.200	-24.034	0.100
261.300	-22.666	0.100
261.400	-14.341	0.100
261.500	-17.185	0.100
261.600	-21.491	0.100
261.700	-9.814	0.100
261.800	-25.441	0.100
261.900	-24.230	0.100
262.000	-22.380	0.100
262.100	-29.823	0.100
262.200	-23.064	0.100
262.300	-13.415	0.100
262.400	-27.282	0.100
262.500	-28.300	0.100
262.600	-27.002	0.100
262.700	-24.406	0.100
262.800	-25.427	0.100
262.900	-15.813	0.100
263.000	-21.090	0.100
263.100	-31.190	0.100
263.200	-28.602	0.100
263.300	-23.418	0.100
263.400	-21.409	0.100
263.500	-16.427	0.100
263.600	-21.577	0.100
263.700	-25.079	0.100
263.800	-23.140	0.100
263.900	-15.821	0.100
264.000	-23.213	0.100
264.100	-28.703	0.100
264.200	-32.971	0.100
264.300	-21.631	0.100
264.400	-22.393	0.100
264.500	-24.320	0.100
264.600	-25.115	0.100
264.700	-21.140	0.100
264.800	-24.150	0.100
264.900	-23.716	0.100
265.000	-30.219	0.100
265.100	-26.572	0.100
265.200	-22.443	0.100
265.300	-21.947	0.100
265.400	-22.948	0.100
265.500	-21.849	0.100
265.600	-31.348	0.100
265.700	-27.561	0.100
265.800	-29.395	0.100
265.900	-22.653	0.100
266.000	-22.702	0.100
266.100	-27.936	0.100
266.200	-30.054	0.100
266.300	-27.599	0.100
266.400	-23.862	0.100
266.500	-26.550	0.100
266.600	-26.269	0.100
266.700	-27.782	0.100
266.800	-30.368	0.100
266.900	-28.739	0.100
267.000	-25.277	0.100
267.100	-23.584	0.100
267.200	-26.046	0.100
267.300	-18.111	0.100
267.400	-25.110	0.100
267.500	-30.291	0.100
267.600	-35.174	0.100
267.700	-38.086	0.100
267.800	-32.232	0.100
267.900	-40.888	0.100
268.000	-36.020	0.100
268.100	-25.637	0.100
268.200	-27.494	0.100
268.300	-30.012	0.100
268.400	-30.938	0.100
268.500	-31.757	0.100
268.600	-33.265	0.100
268.700	-31.783	0.100
268.800	-22.919	0.100
268.900	-24.840	0.100
269.000	-25.679	0.100
269.100	-25.396	0.100
269.200	-20.098	0.100
269.300	-23.639	0.100
269.400	-22.015	0.100
269.500	-33.259	0.100
269.600	-37.810	0.100
269.700	-29.754	0.100
269.800	-31.585	0.100
269.900	-34.303	0.100
270.000	-27.593	0.100
270.100	-33.390	0.100
270.200	-37.049	0.100
270.300	-30.398	0.100
270.400	-34.026	0.100
270.500	-32.238	0.100
270.600	-30.012	0.100
270.700	-38.207	0.100
270.800	-31.329	0.100
270.900	-29.846	0.100
271.000	-32.244	0.100
271.100	-24.010	0.100
271.200	-30.559	0.100
271.300	-27.709	0.100
271.400	-30.026	0.100
271.500	-35.999	0.100
271.600	-21.901	0.100
271.700	-32.937	0.100
271.800	-36.085	0.100
271.900	-37.070	0.100
272.000	-24.676	0.100
272.100	-32.507	0.100
272.200	-19.886	0.100
272.300	-31.464	0.100
272.400	-30.641	0.100
272.500	-39.239	0.100
272.600	-29.012	0.100
272.700	-32.547	0.100
272.800	-28.834	0.100
272.900	-43.212	0.100
273.000	-26.057	0.100
273.100	-36.721	0.100
273.200	-36.001	0.100
273.300	-32.844	0.100
273.400	-35.776	0.100
273.500	-32.455	0.100
273.600	-35.956	0.100
273.700	-36.779	0.100
273.800	-33.498	0.100
273.900	-28.435	0.100
274.000	-35.798	0.100
274.100	-24.431	0.100
274.200	-29.485	0.100
274.300	-40.075	0.100
274.400	-22.821	0.100
274.500	-29.510	0.100
274.600	-33.366	0.100
274.700	-36.936	0.100
274.800	-32.911	0.100
274.900	-31.415	0.100
275.000	-33.080	0.100
275.100	-23.744	0.100
275.200	-39.581	0.100
275.300	-37.664	0.100
275.400	-42.042	0.100
275.500	-34.387	0.100
275.600	-32.590	0.100
275.700	-37.918	0.100
275.800	-36.714	0.100
275.900	-21.017	0.100
276.000	-32.864	0.100
276.100	-35.332	0.100
276.200	-36.004	0.100
276.300	-34.430	0.100
276.400	-42.020	0.100
276.500	-34.891	0.100
276.600	-34.838	0.100
276.700	-32.529	0.100
276.800	-37.031	0.100
276.900	-38.026	0.100
277.000	-27.703	0.100
277.100	-31.729	0.100
277.200	-35.661	0.100
277.300	-22.917	0.100
277.400	-33.037	0.100
277.500	-41.265	0.100
277.600	-33.102	0.100
277.700	-36.286	0.100
277.800	-38.438	0.100
277.900	-39.264	0.100
278.000	-40.834	0.100
278.100	-28.663	0.100
278.200	-35.765	0.100
278.300	-37.241	0.100
278.400	-37.593	0.100
278.500	-31.362	0.100
278.600	-35.083	0.100
278.700	-29.262	0.100
278.800	-33.446	0.100
278.900	-40.562	0.100
279.000	-36.326	0.100
279.100	-36.413	0.100
279.200	-32.106	0.100
279.300	-30.240	0.100
279.400	-38.101	0.100
279.500	-44.628	0.100
279.600	-35.270	0.100
279.700	-32.505	0.100
279.800	-44.787	0.100
279.900	-43.147	0.100
280.000	-31.695	0.100
280.100	-39.507	0.100
280.200	-29.434	0.100
280.300	-29.974	0.100
280.400	-31.983	0.100
280.500	-27.072	0.100
280.600	-35.407	0.100
280.700	-36.560	0.100
280.800	-41.625	0.100
280.900	-28.599	0.100
281.000	-29.581	0.100
281.100	-28.793	0.100
281.200	-33.714	0.100
281.300	-36.859	0.100
281.400	-39.520	0.100
281.500	-31.320	0.100
281.600	-42.286	0.100
281.700	-33.228	0.100
281.800	-40.328	0.100
281.900	-34.322	0.100
282.000	-38.960	0.100
282.100	-48.036	0.100
282.200	-34.014	0.100
282.300	-39.466	0.100
282.400	-36.772	0.100
282.500	-40.668	0.100
282.600	-36.923	0.100
282.700	-38.887	0.100
282.800	-37.193	0.100
282.900	-36.096	0.100
283.000	-40.725	0.100
283.100	-27.471	0.100
283.200	-30.419	0.100
283.300	-34.374	0.100
283.400	-42.447	0.100
283.500	-36.500	0.100
283.600	-28.188	0.100
283.700	-40.088	0.100
283.800	-40.728	0.100
283.900	-30.685	0.100
284.000	-30.296	0.100
284.100	-36.554	0.100
284.200	-30.187	0.100
284.300	-48.028	0.100
284.400	-45.859	0.100
284.500	-34.423	0.100
284.600	-37.358	0.100
284.700	-27.937	0.100
284.800	-38.641	0.100
284.900	-27.114	0.100
285.000	-35.230	0.100
285.100	-35.924	0.100
285.200	-38.357	0.100
285.300	-29.257	0.100
285.400	-42.483	0.100
285.500	-40.525	0.100
285.600	-38.272	0.100
285.700	-38.541	0.100
285.800	-33.856	0.100
285.900	-44.727	0.100
286.000	-33.737	0.100
286.100	-32.893	0.100
286.200	-45.523	0.100
286.300	-39.737	0.100
286.400	-46.651	0.100
286.500	-39.442	0.100
286.600	-37.101	0.100
286.700	-31.002	0.100
286.800	-34.500	0.100
286.900	-37.316	0.100
287.000	-31.260	0.100
287.100	-37.564	0.100
287.200	-31.317	0.100
287.300	-37.186	0.100
287.400	-47.494	0.100
287.500	-42.222	0.100
287.600	-32.530	0.100
287.700	-23.344	0.100
287.800	-32.688	0.100
287.900	-28.542	0.100
288.000	-41.438	0.100
288.100	-48.576	0.100
288.200	-42.317	0.100
288.300	-37.505	0.100
288.400	-40.867	0.100
288.500	-40.497	0.100
288.600	-40.535	0.100
288.700	-38.465	0.100
288.800	-35.730	0.100
288.900	-31.880	0.100
289.000	-35.133	0.100
289.100	-30.372	0.100
289.200	-29.939	0.100
289.300	-36.019	0.100
289.400	-32.373	0.100
289.500	-31.951	0.100
289.600	-35.613	0.100
289.700	-36.763	0.100
289.800	-32.542	0.100
289.900	-39.785	0.100
290.000	-34.599	0.100
290.100	-40.058	0.100
290.200	-35.860	0.100
290.300	-39.270	0.100
290.400	-40.985	0.100
290.500	-42.665	0.100
290.600	-38.997	0.100
290.700	-30.986	0.100
290.800	-44.497	0.100
290.900	-28.903	0.100
291.000	-38.038	0.100
291.100	-33.639	0.100
291.200	-42.152	0.100
291.300	-30.582	0.100
291.400	-36.429	0.100
291.500	-22.734	0.100
291.600	-34.997	0.100
291.700	-39.112	0.100
291.800	-38.673	0.100
291.900	-37.528	0.100
292.000	-34.733	0.100
292.100	-40.692	0.100
292.200	-38.338	0.100
292.300	-35.038	0.100
292.400	-30.800	0.100
292.500	-40.307	0.100
292.600	-40.319	0.100
292.700	-28.947	0.100
292.800	-31.977	0.100
292.900	-33.527	0.100
293.000	-45.954	0.100
293.100	-38.726	0.100
293.200	-38.540	0.100
293.300	-32.874	0.100
293.400	-36.362	0.100
293.500	-41.513	0.100
293.600	-41.989	0.100
293.700	-44.792	0.100
293.800	-43.958	0.100
293.900	-37.200	0.100
294.000	-36.606	0.100
294.100	-36.215	0.100
294.200	-35.371	0.100
294.300	-34.283	0.100
294.400	-36.088	0.100
294.500	-32.413	0.100
294.600	-38.624	0.100
294.700	-27.927	0.100
294.800	-32.704	0.100
294.900	-33.455	0.100
295.000	-37.456	0.100
295.100	-34.126	0.100
295.200	-46.460	0.100
295.300	-36.496	0.100
295.400	-17.886	0.100
295.500	-40.711	0.100
295.600	-37.426	0.100
295.700	-33.059	0.100
295.800	-28.168	0.100
295.900	-45.565	0.100
296.000	-40.452	0.100
296.100	-39.468	0.100
296.200	-40.584	0.100
296.300	-37.238	0.100
296.400	-34.763	0.100
296.500	-28.647	0.100
296.600	-38.370	0.100
296.700	-34.059	0.100
296.800	-32.711	0.100
296.900	-38.003	0.100
297.000	-36.417	0.100
297.100	-38.083	0.100
297.200	-36.816	0.100
297.300	-41.028	0.100
297.400	-34.064	0.100
297.500	-25.540	0.100
297.600	-39.027	0.100
297.700	-35.834	0.100
297.800	-38.926	0.100
297.900	-35.927	0.100
298.000	-24.323	0.100
298.100	-39.035	0.100
298.200	-42.080	0.100
298.300	-27.487	0.100
298.400	-40.957	0.100
298.500	-35.765	0.100
298.600	-36.204	0.100
298.700	-36.997	0.100
298.800	-19.575	0.100
298.900	-33.809	0.100
299.000	-37.202	0.100
299.100	-44.915	0.100
299.200	-36.693	0.100
299.300	-42.805	0.100
299.400	-27.797	0.100
299.500	-34.442	0.100
299.600	-38.665	0.100
299.700	-35.296	0.100
299.800	-37.715	0.100
299.900	-44.277	0.100
300.000	-35.695	0.100
300.100	-32.111	0.100
300.200	-46.169	0.100
300.300	-37.448	0.100
300.400	-40.880	0.100
300.500	-33.218	0.100
300.600	-41.599	0.100
300.700	-29.358	0.100
300.800	-29.560	0.100
300.900	-31.633	0.100
301.000	-25.273	0.100
301.100	-38.042	0.100
301.200	-25.509	0.100
301.300	-45.922	0.100
301.400	-42.005	0.100
301.500	-33.474	0.100
301.600	-32.899	0.100
301.700	-33.780	0.100
301.800	-32.764	0.100
301.900	-42.207	0.100
302.000	-48.306	0.100
302.100	-31.367	0.100
302.200	-33.361	0.100
302.300	-27.733	0.100
302.400	-29.646	0.100
302.500	-35.238	0.100
302.600	-39.893	0.100
302.700	-38.023	0.100
302.800	-34.710	0.100
302.900	-33.858	0.100
303.000	-36.663	0.100
303.100	-40.203	0.100
303.200	-32.437	0.100
303.300	-36.558	0.100
303.400	-36.482	0.100
303.500	-28.771	0.100
303.600	-32.670	0.100
303.700	-36.165	0.100
303.800	-35.617	0.100
303.900	-32.018	0.100
304.000	-45.246	0.100
304.100	-31.319	0.100
304.200	-37.796	0.100
304.300	-27.485	0.100
304.400	-33.286	0.100
304.500	-33.570	0.100
304.600	-35.831	0.100
304.700	-28.455	0.100
304.800	-38.872	0.100
304.900	-35.298	0.100
305.000	-22.771	0.100
305.100	-36.774	0.100
305.200	-24.110	0.100
305.300	-33.576	0.100
305.400	-25.793	0.100
305.500	-34.810	0.100
305.600	-41.629	0.100
305.700	-38.574	0.100
305.800	-21.996	0.100
305.900	-28.818	0.100
306.000	-36.451	0.100
306.100	-37.996	0.100
306.200	-36.501	0.100
306.300	-32.706	0.100
306.400	-32.132	0.100
306.500	-29.944	0.100
306.600	-32.287	0.100
306.700	-28.471	0.100
306.800	-39.758	0.100
306.900	-31.365	0.100
307.000	-30.617	0.100
307.100	-37.668	0.100
307.200	-34.199	0.100
307.300	-32.449	0.100
307.400	-35.064	0.100
307.500	-43.830	0.100
307.600	-39.273	0.100
307.700	-28.090	0.100
307.800	-35.263	0.100
307.900	-34.434	0.100
308.000	-26.211	0.100
308.100	-43.163	0.100
308.200	-32.417	0.100
308.300	-31.835	0.100
308.400	-31.340	0.100
308.500	-28.568	0.100
308.600	-35.082	0.100
308.700	-33.816	0.100
308.800	-35.604	0.100
308.900	-43.162	0.100
309.000	-16.855	0.100
309.100	-42.699	0.100
309.200	-36.616	0.100
309.300	-34.157	0.100
309.400	-37.244	0.100
309.500	-33.910	0.100
309.600	-31.871	0.100
309.700	-33.348	0.100
309.800	-34.987	0.100
309.900	-39.736	0.100
310.000	-35.418	0.100
310.100	-30.610	0.100
310.200	-26.326	0.100
310.300	-31.951	0.100
310.400	-41.653	0.100
310.500	-33.113	0.100
310.600	-26.469	0.100
310.700	-35.619	0.100
310.800	-26.365	0.100
310.900	-31.824	0.100
311.000	-39.707	0.100
311.100	-35.203	0.100
311.200	-28.294	0.100
311.300	-42.411	0.100
311.400	-36.828	0.100
311.500	-32.883	0.100
311.600	-31.931	0.100
311.700	-41.041	0.100
311.800	-32.173	0.100
311.900	-29.073	0.100
312.000	-27.763	0.100
312.100	-21.297	0.100
312.200	-29.398	0.100
312.300	-31.817	0.100
312.400	-31.953	0.100
312.500	-28.643	0.100
312.600	-25.876	0.100
312.700	-32.352	0.100
312.800	-35.445	0.100
312.900	-35.221	0.100
313.000	-37.112	0.100
313.100	-34.603	0.100
313.200	-39.226	0.100
313.300	-33.574	0.100
313.400	-41.519	0.100
313.500	-32.598	0.100
313.600	-25.579	0.100
313.700	-28.821	0.100
313.800	-30.897	0.100
313.900	-28.300	0.100
314.000	-37.980	0.100
314.100	-38.881	0.100
314.200	-31.897	0.100
314.300	-37.548	0.100
314.400	-31.044	0.100
314.500	-31.833	0.100
314.600	-36.913	0.100
314.700	-25.812	0.100
314.800	-30.666	0.100
314.900	-34.661	0.100
315.000	-23.684	0.100
315.100	-31.717	0.100
315.200	-28.903	0.100
315.300	-26.206	0.100
315.400	-28.173	0.100
315.500	-35.670	0.100
315.600	-30.000	0.100
315.700	-37.568	0.100
315.800	-32.425	0.100
315.900	-38.201	0.100
316.000	-35.437	0.100
316.100	-33.837	0.100
316.200	-28.113	0.100
316.300	-40.165	0.100
316.400	-29.751	0.100
316.500	-23.020	0.100
316.600	-31.084	0.100
316.700	-26.950	0.100
316.800	-45.554	0.100
316.900	-34.532	0.100
317.000	-20.707	0.100
317.100	-43.444	0.100
317.200	-37.906	0.100
317.300	-36.134	0.100
317.400	-29.655	0.100
317.500	-31.237	0.100
317.600	-29.326	0.100
317.700	-37.371	0.100
317.800	-29.435	0.100
317.900	-41.029	0.100
318.000	-38.264	0.100
318.100	-25.366	0.100
318.200	-29.505	0.100
318.300	-30.701	0.100
318.400	-25.871	0.100
318.500	-32.093	0.100
318.600	-31.759	0.100
318.700	-39.655	0.100
318.800	-34.314	0.100
318.900	-27.870	0.100
319.000	-27.595	0.100
319.100	-39.326	0.100
319.200	-32.738	0.100
319.300	-32.335	0.100
319.400	-25.659	0.100
319.500	-35.187	0.100
319.600	-25.762	0.100
319.700	-30.677	0.100
319.800	-40.622	0.100
319.900	-36.820	0.100
320.000	-29.078	0.100
320.100	-35.408	0.100
320.200	-25.054	0.100
320.300	-29.892	0.100
320.400	-28.311	0.100
320.500	-26.704	0.100
320.600	-21.725	0.100
320.700	-36.645	0.100
320.800	-32.670	0.100
320.900	-28.687	0.100
321.000	-40.583	0.100
321.100	-27.786	0.100
321.200	-33.410	0.100
321.300	-26.694	0.100
321.400	-28.843	0.100
321.500	-25.187	0.100
321.600	-34.199	0.100
321.700	-28.678	0.100
321.800	-41.658	0.100
321.900	-32.326	0.100
322.000	-30.626	0.100
322.100	-24.349	0.100
322.200	-34.751	0.100
322.300	-18.296	0.100
322.400	-23.447	0.100
322.500	-27.095	0.100
322.600	-30.846	0.100
322.700	-35.087	0.100
322.800	-33.777	0.100
322.900	-38.980	0.100
323.000	-36.781	0.100
323.100	-34.494	0.100
323.200	-25.066	0.100
323.300	-23.384	0.100
323.400	-22.688	0.100
323.500	-31.788	0.100
323.600	-28.850	0.100
323.700	-31.310	0.100
323.800	-37.565	0.100
323.900	-34.784	0.100
324.000	-29.056	0.100
324.100	-24.684	0.100
324.200	-30.529	0.100
324.300	-31.105	0.100
324.400	-35.809	0.100
324.500	-30.169	0.100
324.600	-25.696	0.100
324.700	-37.388	0.100
324.800	-28.814	0.100
324.900	-35.309	0.100
325.000	-30.643	0.100
325.100	-25.991	0.100
325.200	-18.965	0.100
325.300	-27.212	0.100
325.400	-35.104	0.100
325.500	-43.190	0.100
325.600	-30.342	0.100
325.700	-23.752	0.100
325.800	-22.455	0.100
325.900	-31.219	0.100
326.000	-27.669	0.100
326.100	-25.667	0.100
326.200	-25.315	0.100
326.300	-32.528	0.100
326.400	-35.159	0.100
326.500	-30.769	0.100
326.600	-30.207	0.100
326.700	-33.285	0.100
326.800	-36.538	0.100
326.900	-21.771	0.100
327.000	-25.345	0.100
327.100	-30.088	0.100
327.200	-29.990	0.100
327.300	-37.594	0.100
327.400	-39.037	0.100
327.500	-29.782	0.100
327.600	-24.831	0.100
327.700	-27.847	0.100
327.800	-33.206	0.100
327.900	-36.110	0.100
328.000	-29.415	0.100
328.100	-33.544	0.100
328.200	-29.232	0.100
328.300	-25.044	0.100
328.400	-22.003	0.100
328.500	-37.914	0.100
328.600	-27.020	0.100
328.700	-22.377	0.100
328.800	-28.906	0.100
328.900	-29.400	0.100
329.000	-26.666	0.100
329.100	-40.591	0.100
329.200	-30.986	0.100
329.300	-35.635	0.100
329.400	-31.129	0.100
329.500	-29.721	0.100
329.600	-36.627	0.100
329.700	-32.473	0.100
329.800	-28.421	0.100
329.900	-32.014	0.100
330.000	-24.688	0.100
330.100	-29.854	0.100
330.200	-31.071	0.100
330.300	-21.385	0.100
330.400	-25.095	0.100
330.500	-34.454	0.100
330.600	-31.940	0.100
330.700	-26.148	0.100
330.800	-25.795	0.100
330.900	-12.735	0.100
331.000	-17.255	0.100
331.100	-26.849	0.100
331.200	-18.128	0.100
331.300	-19.955	0.100
331.400	-19.572	0.100
331.500	-10.509	0.100
331.600	-12.041	0.100
331.700	-13.965	0.100
331.800	-14.189	0.100
331.900	-9.835	0.100
332.000	-6.148	0.100
332.100	-7.072	0.100
332.200	-2.875	0.100
332.300	-8.677	0.100
332.400	-1.773	0.100
332.500	-3.030	0.100
332.600	-4.686	0.100
332.700	0.875	0.100
332.800	-1.823	0.100
332.900	3.515	0.100
333.000	5.322	0.100
333.100	1.082	0.100
333.200	0.685	0.100
333.300	-10.057	0.100
333.400	3.003	0.100
333.500	-1.002	0.100
333.600	-0.310	0.100
333.700	5.249	0.100
333.800	1.437	0.100
333.900	-7.743	0.100
334.000	7.490	0.100
334.100	7.489	0.100
334.200	-0.327	0.100
334.300	4.825	0.100
334.400	9.384	0.100
334.500	-7.479	0.100
334.600	0.827	0.100
334.700	2.920	0.100
334.800	-6.338	0.100
334.900	-2.240	0.100
335.000	7.520	0.100
335.100	13.984	0.100
335.200	2.649	0.100
335.300	-0.573	0.100
335.400	-0.714	0.100
335.500	2.262	0.100
335.600	1.994	0.100
335.700	4.772	0.100
335.800	4.830	0.100
335.900	5.592	0.100
336.000	-2.118	0.100
336.100	-1.915	0.100
336.200	-2.350	0.100
336.300	-7.460	0.100
336.400	-5.889	0.100
336.500	4.694	0.100
336.600	3.117	0.100
336.700	2.505	0.100
336.800	-2.954	0.100
336.900	6.959	0.100
337.000	5.490	0.100
337.100	1.442	0.100
337.200	3.942	0.100
337.300	3.939	0.100
337.400	-2.358	0.100
337.500	0.113	0.100
337.600	19.704	0.100
337.700	7.627	0.100
337.800	6.281	0.100
337.900	12.190	0.100
338.000	1.800	0.100
338.100	18.748	0.100
338.200	9.188	0.100
338.300	5.279	0.100
338.400	7.914	0.100
338.500	6.924	0.100
338.600	4.722	0.100
338.700	8.415	0.100
338.800	5.355	0.100
338.900	4.416	0.100
339.000	17.017	0.100
339.100	6.675	0.100
339.200	8.638	0.100
339.300	13.317	0.100
339.400	12.012	0.100
339.500	8.349	0.100
339.600	11.831	0.100
339.700	13.032	0.100
339.800	9.734	0.100
339.900	5.051	0.100
340.000	7.813	0.100
340.100	13.292	0.100
340.200	9.106	0.100
340.300	7.586	0.100
340.400	8.476	0.100
340.500	15.692	0.100
340.600	23.018	0.100
340.700	20.080	0.100
340.800	11.771	0.100
340.900	4.047	0.100
341.000	20.147	0.100
341.100	15.169	0.100
341.200	14.865	0.100
341.300	18.673	0.100
341.400	17.521	0.100
341.500	11.845	0.100
341.600	13.694	0.100
341.700	11.906	0.100
341.800	14.472	0.100
341.900	11.515	0.100
342.000	12.081	0.100
342.100	18.231	0.100
342.200	21.440	0.100
342.300	17.506	0.100
342.400	14.736	0.100
342.500	16.021	0.100
342.600	21.728	0.100
342.700	27.928	0.100
342.800	31.292	0.100
342.900	21.922	0.100
343.000	15.355	0.100
343.100	24.320	0.100
343.200	24.599	0.100
343.300	15.924	0.100
343.400	23.936	0.100
343.500	37.451	0.100
343.600	37.759	0.100
343.700	28.768	0.100
343.800	27.767	0.100
343.900	22.946	0.100
344.000	28.466	0.100
344.100	18.033	0.100
344.200	18.818	0.100
344.300	26.007	0.100
344.400	27.274	0.100
344.500	26.892	0.100
344.600	30.546	0.100
344.700	31.901	0.100
344.800	30.575	0.100
344.900	37.776	0.100
345.000	21.787	0.100
345.100	39.400	0.100
345.200	29.282	0.100
345.300	32.452	0.100
345.400	34.303	0.100
345.500	35.674	0.100
345.600	31.121	0.100
345.700	46.455	0.100
345.800	35.854	0.100
345.900	25.033	0.100
346.000	37.778	0.100
346.100	42.507	0.100
346.200	41.820	0.100
346.300	33.345	0.100
346.400	33.837	0.100
346.500	47.028	0.100
346.600	41.647	0.100
346.700	49.024	0.100
346.800	47.171	0.100
346.900	39.907	0.100
347.000	30.795	0.100
347.100	38.120	0.100
347.200	42.584	0.100
347.300	45.023	0.100
347.400	46.318	0.100
347.500	44.869	0.100
347.600	41.268	0.100
347.700	37.494	0.100
347.800	40.929	0.100
347.900	34.448	0.100
348.000	43.785	0.100
348.100	40.234	0.100
348.200	47.936	0.100
348.300	53.207	0.100
348.400	49.025	0.100
348.500	47.564	0.100
348.600	54.470	0.100
348.700	46.618	0.100
348.800	47.688	0.100
348.900	53.956	0.100
349.000	45.142	0.100
349.100	51.087	0.100
349.200	55.232	0.100
349.300	55.591	0.100
349.400	56.201	0.100
349.500	44.397	0.100
349.600	39.061	0.100
349.700	49.921	0.100
349.800	50.062	0.100
349.900	50.163	0.100
350.000	45.919	0.100
350.100	47.042	0.100
350.200	50.645	0.100
350.300	45.005	0.100
350.400	48.610	0.100
350.500	48.135	0.100
350.600	49.718	0.100
350.700	52.070	0.100
350.800	47.409	0.100
350.900	48.347	0.100
351.000	57.607	0.100
351.100	55.376	0.100
351.200	52.475	0.100
351.300	54.885	0.100
351.400	52.817	0.100
351.500	42.635	0.100
351.600	49.322	0.100
351.700	49.521	0.100
351.800	53.983	0.100
351.900	37.544	0.100
352.000	56.597	0.100
352.100	50.180	0.100
352.200	45.451	0.100
352.300	56.951	0.100
352.400	58.159	0.100
352.500	46.914	0.100
352.600	52.893	0.100
352.700	49.778	0.100
352.800	46.280	0.100
352.900	54.380	0.100
353.000	53.116	0.100
353.100	53.190	0.100
353.200	49.949	0.100
353.300	50.324	0.100
353.400	51.453	0.100
353.500	48.035	0.100
353.600	66.331	0.100
353.700	67.708	0.100
353.800	56.373	0.100
353.900	54.199	0.100
354.000	58.087	0.100
354.100	47.987	0.100
354.200	52.228	0.100
354.300	49.922	0.100
354.400	53.844	0.100
354.500	50.571	0.100
354.600	51.552	0.100
354.700	56.450	0.100
354.800	64.506	0.100
354.900	56.612	0.100
355.000	45.911	0.100
355.100	48.752	0.100
355.200	45.845	0.100
355.300	52.793	0.100
355.400	57.984	0.100
355.500	53.111	0.100
355.600	61.345	0.100
355.700	51.401	0.100
355.800	55.835	0.100
355.900	57.362	0.100
356.000	52.115	0.100
356.100	47.122	0.100
356.200	51.406	0.100
356.300	44.650	0.100
356.400	58.459	0.100
356.500	59.915	0.100
356.600	49.483	0.100
356.700	56.906	0.100
356.800	51.312	0.100
356.900	53.212	0.100
357.000	56.071	0.100
357.100	51.918	0.100
357.200	41.762	0.100
357.300	45.975	0.100
357.400	52.599	0.100
357.500	51.509	0.100
357.600	62.607	0.100
357.700	55.340	0.100
357.800	46.699	0.100
357.900	46.361	0.100
358.000	48.706	0.100
358.100	56.012	0.100
358.200	53.605	0.100
358.300	57.048	0.100
358.400	48.941	0.100
358.500	54.818	0.100
358.600	65.505	0.100
358.700	51.410	0.100
358.800	55.213	0.100
358.900	54.439	0.100
359.000	56.373	0.100
359.100	52.492	0.100
359.200	55.076	0.100
359.300	60.329	0.100
359.400	52.269	0.100
359.500	58.884	0.100
359.600	58.903	0.100
359.700	52.353	0.100
359.800	49.317	0.100
359.900	57.389	0.100
360.000	55.709	0.100
360.100	48.902	0.100
360.200	36.513	0.100
360.300	62.094	0.100
360.400	59.210	0.100
360.500	58.149	0.100
360.600	48.844	0.100
360.700	52.091	0.100
360.800	60.469	0.100
360.900	51.236	0.100
361.000	46.303	0.100
361.100	60.271	0.100
361.200	52.382	0.100
361.300	56.433	0.100
361.400	56.529	0.100
361.500	43.202	0.100
361.600	51.334	0.100
361.700	51.940	0.100
361.800	54.921	0.100
361.900	66.402	0.100
362.000	50.428	0.100
362.100	42.543	0.100
362.200	53.646	0.100
362.300	47.612	0.100
362.400	57.422	0.100
362.500	60.748	0.100
362.600	62.640	0.100
362.700	51.092	0.100
362.800	55.342	0.100
362.900	47.444	0.100
363.000	56.199	0.100
363.100	44.887	0.100
363.200	45.294	0.100
363.300	49.827	0.100
363.400	52.052	0.100
363.500	57.262	0.100
363.600	58.327	0.100
363.700	52.614	0.100
363.800	61.709	0.100
363.900	57.025	0.100
364.000	60.021	0.100
364.100	56.747	0.100
364.200	52.967	0.100
364.300	47.167	0.100
364.400	51.448	0.100
364.500	46.060	0.100
364.600	48.537	0.100
364.700	55.823	0.100
364.800	41.081	0.100
364.900	52.838	0.100
365.000	59.062	0.100
365.100	58.180	0.100
365.200	50.121	0.100
365.300	60.170	0.100
365.400	68.038	0.100
365.500	45.605	0.100
365.600	55.135	0.100
365.700	52.076	0.100
365.800	48.775	0.100
365.900	47.643	0.100
366.000	65.831	0.100
366.100	59.527	0.100
366.200	54.346	0.100
366.300	52.518	0.100
366.400	43.453	0.100
366.500	55.371	0.100
366.600	49.978	0.100
366.700	51.914	0.100
366.800	52.899	0.100
366.900	46.164	0.100
367.000	53.176	0.100
367.100	49.570	0.100
367.200	58.048	0.100
367.300	48.392	0.100
367.400	56.670	0.100
367.500	49.012	0.100
367.600	47.648	0.100
367.700	47.502	0.100
367.800	52.011	0.100
367.900	53.689	0.100
368.000	48.770	0.100
368.100	60.044	0.100
368.200	51.011	0.100
368.300	52.569	0.100
368.400	53.265	0.100
368.500	59.919	0.100
368.600	59.267	0.100
368.700	52.683	0.100
368.800	43.065	0.100
368.900	48.075	0.100
369.000	48.268	0.100
369.100	55.125	0.100
369.200	42.778	0.100
369.300	45.638	0.100
369.400	56.682	0.100
369.500	59.550	0.100
369.600	58.683	0.100
369.700	51.022	0.100
369.800	44.216	0.100
369.900	49.387	0.100
370.000	41.792	0.100
370.100	65.083	0.100
370.200	54.352	0.100
370.300	57.314	0.100
370.400	55.137	0.100
370.500	46.101	0.100
370.600	39.853	0.100
370.700	52.401	0.100
370.800	57.135	0.100
370.900	54.329	0.100
371.000	54.517	0.100
371.100	51.088	0.100
371.200	53.139	0.100
371.300	46.106	0.100
371.400	52.437	0.100
371.500	47.191	0.100
371.600	51.368	0.100
371.700	58.376	0.100
371.800	58.072	0.100
371.900	41.780	0.100
372.000	51.773	0.100
372.100	57.444	0.100
372.200	43.041	0.100
372.300	58.288	0.100
372.400	53.411	0.100
372.500	49.884	0.100
372.600	41.368	0.100
372.700	56.471	0.100
372.800	58.371	0.100
372.900	47.975	0.100
373.000	48.402	0.100
373.100	60.030	0.100
373.200	55.610	0.100
373.300	55.065	0.100
373.400	51.114	0.100
373.500	58.030	0.100
373.600	44.750	0.100
373.700	46.734	0.100
373.800	57.263	0.100
373.900	46.540	0.100
374.000	52.243	0.100
374.100	50.512	0.100
374.200	54.014	0.100
374.300	51.014	0.100
374.400	52.119	0.100
374.500	49.554	0.100
374.600	55.665	0.100
374.700	48.062	0.100
374.800	53.419	0.100
374.900	53.975	0.100
375.000	51.448	0.100
375.100	45.321	0.100
375.200	53.466	0.100
375.300	55.171	0.100
375.400	58.525	0.100
375.500	49.222	0.100
375.600	58.640	0.100
375.700	48.953	0.100
375.800	54.495	0.100
375.900	47.428	0.100
376.000	52.059	0.100
376.100	52.048	0.100
376.200	56.091	0.100
376.300	61.499	0.100
376.400	50.851	0.100
376.500	41.520	0.100
376.600	49.867	0.100
376.700	53.641	0.100
376.800	47.433	0.100
376.900	55.718	0.100
377.000	56.643	0.100
377.100	57.588	0.100
377.200	59.443	0.100
377.300	56.813	0.100
377.400	57.704	0.100
377.500	57.223	0.100
377.600	57.142	0.100
377.700	57.870	0.100
377.800	52.864	0.100
377.900	53.008	0.100
378.000	50.468	0.100
378.100	39.328	0.100
378.200	52.089	0.100
378.300	58.072	0.100
378.400	45.257	0.100
378.500	46.537	0.100
378.600	55.465	0.100
378.700	64.270	0.100
378.800	59.526	0.100
378.900	55.602	0.100
379.000	46.519	0.100
379.100	58.153	0.100
379.200	48.422	0.100
379.300	49.886	0.100
379.400	54.273	0.100
379.500	48.628	0.100
379.600	46.496	0.100
379.700	41.180	0.100
379.800	57.444	0.100
379.900	56.457	0.100
380.000	55.855	0.100
380.100	46.856	0.100
380.200	52.397	0.100
380.300	57.673	0.100
380.400	53.893	0.100
380.500	47.267	0.100
380.600	55.547	0.100
380.700	40.415	0.100
380.800	51.975	0.100
380.900	54.385	0.100
381.000	49.815	0.100
381.100	52.491	0.100
381.200	53.408	0.100
381.300	52.663	0.100
381.400	54.520	0.100
381.500	43.579	0.100
381.600	51.264	0.100
381.700	47.096	0.100
381.800	60.288	0.100
381.900	60.451	0.100
382.000	52.210	0.100
382.100	49.663	0.100
382.200	56.744	0.100
382.300	51.985	0.100
382.400	57.705	0.100
382.500	51.172	0.100
382.600	53.387	0.100
382.700	49.297	0.100
382.800	48.052	0.100
382.900	50.152	0.100
383.000	45.630	0.100
383.100	53.098	0.100
383.200	49.977	0.100
383.300	55.458	0.100
383.400	50.340	0.100
383.500	52.385	0.100
383.600	56.194	0.100
383.700	56.308	0.100
383.800	56.401	0.100
383.900	61.747	0.100
384.000	40.521	0.100
384.100	45.655	0.100
384.200	47.712	0.100
384.300	56.045	0.100
384.400	51.945	0.100
384.500	48.053	0.100
384.600	58.411	0.100
384.700	49.694	0.100
384.800	47.807	0.100
384.900	49.343	0.100
385.000	47.464	0.100
385.100	48.553	0.100
385.200	55.830	0.100
385.300	54.997	0.100
385.400	50.109	0.100
385.500	51.774	0.100
385.600	48.727	0.100
385.700	45.957	0.100
385.800	53.619	0.100
385.900	55.311	0.100
386.000	51.052	0.100
386.100	55.491	0.100
386.200	57.190	0.100
386.300	51.651	0.100
386.400	47.875	0.100
386.500	45.895	0.100
386.600	50.861	0.100
386.700	54.528	0.100
386.800	56.786	0.100
386.900	52.915	0.100
387.000	44.596	0.100
387.100	53.616	0.100
387.200	52.397	0.100
387.300	50.836	0.100
387.400	52.395	0.100
387.500	46.692	0.100
387.600	53.829	0.100
387.700	61.404	0.100
387.800	53.340	0.100
387.900	49.502	0.100
388.000	45.922	0.100
388.100	42.941	0.100
388.200	52.258	0.100
388.300	50.281	0.100
388.400	52.632	0.100
388.500	47.252	0.100
388.600	51.155	0.100
388.700	52.293	0.100
388.800	52.616	0.100
388.900	48.943	0.100
389.000	49.394	0.100
389.100	55.912	0.100
389.200	47.832	0.100
389.300	57.263	0.100
389.400	50.358	0.100
389.500	51.784	0.100
389.600	55.914	0.100
389.700	48.590	0.100
389.800	47.213	0.100
389.900	47.289	0.100
390.000	49.555	0.100
390.100	47.028	0.100
390.200	52.974	0.100
390.300	50.863	0.100
390.400	50.660	0.100
390.500	53.823	0.100
390.600	46.988	0.100
390.700	43.819	0.100
390.800	46.527	0.100
390.900	35.988	0.100
391.000	43.125	0.100
391.100	39.048	0.100
391.200	37.148	0.100
391.300	21.006	0.100
391.400	20.769	0.100
391.500	13.478	0.100
391.600	31.052	0.100
391.700	19.066	0.100
391.800	18.500	0.100
391.900	13.362	0.100
392.000	13.311	0.100
392.100	10.061	0.100
392.200	5.117	0.100
392.300	12.132	0.100
392.400	8.459	0.100
392.500	16.333	0.100
392.600	11.897	0.100
392.700	10.718	0.100
392.800	3.216	0.100
392.900	1.478	0.100
393.000	7.959	0.100
393.100	14.139	0.100
393.200	10.907	0.100
393.300	1.363	0.100
393.400	-6.740	0.100
393.500	-1.786	0.100
393.600	4.762	0.100
393.700	-1.523	0.100
393.800	2.324	0.100
393.900	3.227	0.100
394.000	-2.529	0.100
394.100	1.885	0.100
394.200	0.669	0.100
394.300	2.705	0.100
394.400	-1.919	0.100
394.500	-11.020	0.100
394.600	-5.073	0.100
394.700	0.121	0.100
394.800	-8.617	0.100
394.900	-5.058	0.100
395.000	-10.832	0.100
395.100	-12.569	0.100
395.200	-9.655	0.100
395.300	3.115	0.100
395.400	-7.705	0.100
395.500	-7.257	0.100
395.600	-16.542	0.100
395.700	-2.406	0.100
395.800	-0.726	0.100
395.900	-5.440	0.100
396.000	-6.170	0.100
396.100	-1.712	0.100
396.200	-10.116	0.100
396.300	-8.093	0.100
396.400	-7.429	0.100
396.500	-3.313	0.100
396.600	-1.684	0.100
396.700	-4.126	0.100
396.800	0.638	0.100
396.900	-13.099	0.100
397.000	-13.605	0.100
397.100	-7.301	0.100
397.200	-9.873	0.100
397.300	-6.405	0.100
397.400	-6.297	0.100
397.500	-2.541	0.100
397.600	-6.320	0.100
397.700	-3.849	0.100
397.800	-10.364	0.100
397.900	-5.533	0.100
398.000	-18.111	0.100
398.100	-21.323	0.100
398.200	-7.259	0.100
398.300	-5.617	0.100
398.400	-9.529	0.100
398.500	0.435	0.100
398.600	-7.965	0.100
398.700	1.599	0.100
398.800	0.552	0.100
398.900	-1.802	0.100
399.000	-8.005	0.100
399.100	-10.773	0.100
399.200	-19.475	0.100
399.300	-9.489	0.100
399.400	-13.071	0.100
399.500	-9.203	0.100
399.600	-15.535	0.100
399.700	-14.338	0.100
399.800	-5.542	0.100
399.900	-14.823	0.100
400.000	4.287	0.100
400.100	-15.394	0.100
400.200	-4.950	0.100
400.300	-14.057	0.100
400.400	-23.504	0.100
400.500	-6.088	0.100
400.600	-8.720	0.100
400.700	-10.679	0.100
400.800	-6.609	0.100
400.900	-4.707	0.100
401.000	-17.110	0.100
401.100	-15.933	0.100
401.200	-5.379	0.100
401.300	-7.613	0.100
401.400	-7.052	0.100
401.500	-14.887	0.100
401.600	-11.418	0.100
401.700	-17.681	0.100
401.800	-14.240	0.100
401.900	-19.467	0.100
402.000	-10.251	0.100
402.100	-15.174	0.100
402.200	-10.479	0.100
402.300	-18.388	0.100
402.400	-9.212	0.100
402.500	-8.523	0.100
402.600	-16.305	0.100
402.700	-9.291	0.100
402.800	-18.857	0.100
402.900	-10.114	0.100
403.000	-10.489	0.100
403.100	-15.693	0.100
403.200	-13.704	0.100
403.300	-7.401	0.100
403.400	-9.374	0.100
403.500	-11.962	0.100
403.600	-3.065	0.100
403.700	-6.246	0.100
403.800	-22.603	0.100
403.900	-16.159	0.100
404.000	-14.993	0.100
404.100	-27.114	0.100
404.200	-14.456	0.100
404.300	-17.631	0.100
404.400	-13.104	0.100
404.500	-3.217	0.100
404.600	-3.139	0.100
404.700	-20.138	0.100
404.800	-17.239	0.100
404.900	-17.915	0.100
405.000	-14.016	0.100
405.100	-26.369	0.100
405.200	-23.399	0.100
405.300	-14.751	0.100
405.400	-23.965	0.100
405.500	-15.002	0.100
405.600	-8.557	0.100
405.700	-17.551	0.100
405.800	-10.782	0.100
405.900	-11.168	0.100
406.000	-17.818	0.100
406.100	-17.221	0.100
406.200	-19.416	0.100
406.300	-18.209	0.100
406.400	-18.739	0.100
406.500	-15.474	0.100
406.600	-6.472	0.100
406.700	-20.569	0.100
406.800	-21.307	0.100
406.900	-17.361	0.100
407.000	-15.971	0.100
407.100	-14.856	0.100
407.200	-19.967	0.100
407.300	-20.977	0.100
407.400	-23.651	0.100
407.500	-28.348	0.100
407.600	-17.594	0.100
407.700	-7.536	0.100
407.800	-23.179	0.100
407.900	-29.801	0.100
408.000	-22.563	0.100
408.100	-26.128	0.100
408.200	-31.202	0.100
408.300	-14.781	0.100
408.400	-22.268	0.100
408.500	-18.249	0.100
408.600	-20.408	0.100
408.700	-18.335	0.100
408.800	-21.255	0.100
408.900	-18.856	0.100
409.000	-16.144	0.100
409.100	-17.356	0.100
409.200	-20.213	0.100
409.300	-24.603	0.100
409.400	-21.320	0.100
409.500	-12.301	0.100
409.600	-28.038	0.100
409.700	-14.907	0.100
409.800	-24.379	0.100
409.900	-27.885	0.100
410.000	-20.849	0.100
410.100	-13.416	0.100
410.200	-20.117	0.100
410.300	-20.915	0.100
410.400	-24.919	0.100
410.500	-14.645	0.100
410.600	-20.513	0.100
410.700	-27.334	0.100
410.800	-18.119	0.100
410.900	-19.750	0.100
411.000	-23.418	0.100
411.100	-27.158	0.100
411.200	-28.275	0.100
411.300	-19.440	0.100
411.400	-26.039	0.100
411.500	-18.007	0.100
411.600	-35.173	0.100
411.700	-25.188	0.100
411.800	-20.174	0.100
411.900	-29.567	0.100
412.000	-26.386	0.100
412.100	-22.358	0.100
412.200	-17.403	0.100
412.300	-18.802	0.100
412.400	-20.104	0.100
412.500	-21.750	0.100
412.600	-24.955	0.100
412.700	-25.229	0.100
412.800	-31.866	0.100
412.900	-20.976	0.100
413.000	-31.453	0.100
413.100	-29.311	0.100
413.200	-19.386	0.100
413.300	-21.068	0.100
413.400	-32.232	0.100
413.500	-30.658	0.100
413.600	-28.540	0.100
413.700	-14.883	0.100
413.800	-24.072	0.100
413.900	-30.966	0.100
414.000	-27.034	0.100
414.100	-23.998	0.100
414.200	-23.452	0.100
414.300	-22.573	0.100
414.400	-33.246	0.100
414.500	-23.477	0.100
414.600	-30.383	0.100
414.700	-25.563	0.100
414.800	-36.175	0.100
414.900	-26.383	0.100
415.000	-28.290	0.100
415.100	-27.061	0.100
415.200	-15.083	0.100
415.300	-29.403	0.100
415.400	-27.238	0.100
415.500	-31.649	0.100
415.600	-31.317	0.100
415.700	-26.056	0.100
415.800	-25.923	0.100
415.900	-20.983	0.100
416.000	-25.800	0.100
416.100	-30.318	0.100
416.200	-34.621	0.100
416.300	-25.516	0.100
416.400	-34.755	0.100
416.500	-26.590	0.100
416.600	-29.649	0.100
416.700	-30.133	0.100
416.800	-27.188	0.100
416.900	-34.319	0.100
417.000	-34.893	0.100
417.100	-31.868	0.100
417.200	-27.116	0.100
417.300	-30.398	0.100
417.400	-14.948	0.100
417.500	-22.208	0.100
417.600	-32.635	0.100
417.700	-35.581	0.100
417.800	-27.231	0.100
417.900	-19.454	0.100
418.000	-27.571	0.100
418.100	-27.567	0.100
418.200	-34.583	0.100
418.300	-30.808	0.100
418.400	-29.828	0.100
418.500	-32.957	0.100
418.600	-34.819	0.100
418.700	-46.677	0.100
418.800	-33.282	0.100
418.900	-25.789	0.100
419.000	-22.222	0.100
419.100	-28.824	0.100
419.200	-36.466	0.100
419.300	-40.691	0.100
419.400	-33.754	0.100
419.500	-30.554	0.100
419.600	-29.497	0.100
419.700	-32.543	0.100
419.800	-39.070	0.100
419.900	-27.917	0.100
420.000	-37.268	0.100
420.100	-31.053	0.100
420.200	-26.131	0.100
420.300	-38.194	0.100
420.400	-42.667	0.100
420.500	-33.275	0.100
420.600	-41.547	0.100
420.700	-30.091	0.100
420.800	-30.192	0.100
420.900	-33.443	0.100
421.000	-41.389	0.100
421.100	-31.043	0.100
421.200	-28.698	0.100
421.300	-27.123	0.100
421.400	-25.153	0.100
421.500	-26.770	0.100
421.600	-33.093	0.100
421.700	-41.997	0.100
421.800	-39.234	0.100
421.900	-28.911	0.100
422.000	-34.926	0.100
422.100	-36.100	0.100
422.200	-36.631	0.100
422.300	-32.083	0.100
422.400	-43.385	0.100
422.500	-40.188	0.100
422.600	-38.245	0.100
422.700	-30.822	0.100
422.800	-29.083	0.100
422.900	-33.099	0.100
423.000	-35.690	0.100
423.100	-33.017	0.100
423.200	-39.268	0.100
423.300	-21.758	0.100
423.400	-41.984	0.100
423.500	-26.373	0.100
423.600	-43.197	0.100
423.700	-29.232	0.100
423.800	-37.759	0.100
423.900	-26.140	0.100
424.000	-32.858	0.100
424.100	-34.169	0.100
424.200	-35.239	0.100
424.300	-46.691	0.100
424.400	-44.264	0.100
424.500	-37.075	0.100
424.600	-36.404	0.100
424.700	-42.402	0.100
424.800	-38.771	0.100
424.900	-38.399	0.100
425.000	-36.119	0.100
425.100	-40.689	0.100
425.200	-36.260	0.100
425.300	-33.421	0.100
425.400	-35.423	0.100
425.500	-42.251	0.100
425.600	-43.865	0.100
425.700	-29.140	0.100
425.800	-28.084	0.100
425.900	-36.098	0.100
426.000	-32.657	0.100
426.100	-37.686	0.100
426.200	-40.884	0.100
426.300	-29.371	0.100
426.400	-37.850	0.100
426.500	-37.923	0.100
426.600	-37.819	0.100
426.700	-28.596	0.100
426.800	-44.089	0.100
426.900	-30.331	0.100
427.000	-34.593	0.100
427.100	-35.458	0.100
427.200	-32.385	0.100
427.300	-45.812	0.100
427.400	-48.672	0.100
427.500	-39.320	0.100
427.600	-28.799	0.100
427.700	-27.677	0.100
427.800	-30.411	0.100
427.900	-28.320	0.100
428.000	-37.927	0.100
428.100	-30.313	0.100
428.200	-37.773	0.100
428.300	-39.484	0.100
428.400	-35.109	0.100
428.500	-38.145	0.100
428.600	-29.968	0.100
428.700	-34.814	0.100
428.800	-40.907	0.100
428.900	-34.216	0.100
429.000	-42.297	0.100
429.100	-41.053	0.100
429.200	-37.051	0.100
429.300	-31.478	0.100
429.400	-26.546	0.100
429.500	-38.249	0.100
429.600	-34.575	0.100
429.700	-41.777	0.100
429.800	-35.137	0.100
429.900	-50.957	0.100
430.000	-35.094	0.100
430.100	-37.348	0.100
430.200	-31.526	0.100
430.300	-36.512	0.100
430.400	-39.832	0.100
430.500	-38.372	0.100
430.600	-33.411	0.100
430.700	-36.866	0.100
430.800	-33.936	0.100
430.900	-35.972	0.100
431.000	-35.148	0.100
431.100	-44.449	0.100
431.200	-36.287	0.100
431.300	-37.006	0.100
431.400	-49.295	0.100
431.500	-41.507	0.100
431.600	-27.620	0.100
431.700	-33.519	0.100
431.800	-36.060	0.100
431.900	-51.012	0.100
432.000	-46.703	0.100
432.100	-33.504	0.100
432.200	-29.223	0.100
432.300	-24.357	0.100
432.400	-35.239	0.100
432.500	-29.654	0.100
432.600	-26.446	0.100
432.700	-32.289	0.100
432.800	-37.580	0.100
432.900	-42.989	0.100
433.000	-36.230	0.100
433.100	-27.412	0.100
433.200	-33.600	0.100
433.300	-34.332	0.100
433.400	-35.897	0.100
433.500	-40.931	0.100
433.600	-44.394	0.100
433.700	-34.076	0.100
433.800	-38.737	0.100
433.900	-34.464	0.100
434.000	-46.550	0.100
434.100	-35.663	0.100
434.200	-41.284	0.100
434.300	-39.441	0.100
434.400	-42.327	0.100
434.500	-21.914	0.100
434.600	-29.453	0.100
434.700	-29.910	0.100
434.800	-36.275	0.100
434.900	-43.745	0.100
435.000	-43.986	0.100
435.100	-33.911	0.100
435.200	-38.246	0.100
435.300	-37.965	0.100
435.400	-47.290	0.100
435.500	-37.710	0.100
435.600	-39.802	0.100
435.700	-38.135	0.100
435.800	-36.152	0.100
435.900	-31.435	0.100
436.000	-38.503	0.100
436.100	-41.267	0.100
436.200	-39.005	0.100
436.300	-36.860	0.100
436.400	-41.537	0.100
436.500	-34.486	0.100
436.600	-23.522	0.100
436.700	-37.224	0.100
436.800	-30.652	0.100
436.900	-33.110	0.100
437.000	-42.677	0.100
437.100	-46.325	0.100
437.200	-41.277	0.100
437.300	-49.263	0.100
437.400	-35.028	0.100
437.500	-26.646	0.100
437.600	-37.227	0.100
437.700	-33.487	0.100
437.800	-29.459	0.100
437.900	-34.044	0.100
438.000	-31.407	0.100
438.100	-26.945	0.100
438.200	-42.234	0.100
438.300	-47.102	0.100
438.400	-53.448	0.100
438.500	-40.500	0.100
438.600	-38.489	0.100
438.700	-21.408	0.100
438.800	-31.141	0.100
438.900	-40.863	0.100
439.000	-37.451	0.100
439.100	-40.335	0.100
439.200	-36.097	0.100
439.300	-48.309	0.100
439.400	-41.011	0.100
439.500	-35.694	0.100
439.600	-37.684	0.100
439.700	-34.527	0.100
439.800	-41.635	0.100
439.900	-37.607	0.100
440.000	-34.429	0.100
440.100	-33.816	0.100
440.200	-28.862	0.100
440.300	-30.775	0.100
440.400	-33.287	0.100
440.500	-37.278	0.100
440.600	-35.015	0.100
440.700	-43.163	0.100
440.800	-35.159	0.100
440.900	-34.781	0.100
441.000	-35.855	0.100
441.100	-40.395	0.100
441.200	-42.868	0.100
441.300	-38.833	0.100
441.400	-37.361	0.100
441.500	-33.150	0.100
441.600	-37.891	0.100
441.700	-33.306	0.100
441.800	-39.029	0.100
441.900	-39.103	0.100
442.000	-31.486	0.100
442.100	-36.166	0.100
442.200	-37.464	0.100
442.300	-34.075	0.100
442.400	-39.344	0.100
442.500	-44.554	0.100
442.600	-30.467	0.100
442.700	-33.463	0.100
442.800	-41.889	0.100
442.900	-41.057	0.100
443.000	-36.665	0.100
443.100	-35.484	0.100
443.200	-37.924	0.100
443.300	-42.832	0.100
443.400	-36.330	0.100
443.500	-35.129	0.100
443.600	-37.126	0.100
443.700	-38.715	0.100
443.800	-38.557	0.100
443.900	-39.921	0.100
444.000	-43.144	0.100
444.100	-33.260	0.100
444.200	-35.784	0.100
444.300	-33.864	0.100
444.400	-29.402	0.100
444.500	-33.304	0.100
444.600	-41.496	0.100
444.700	-35.995	0.100
444.800	-35.040	0.100
444.900	-38.510	0.100
445.000	-36.388	0.100
445.100	-38.716	0.100
445.200	-44.453	0.100
445.300	-41.064	0.100
445.400	-30.535	0.100
445.500	-38.641	0.100
445.600	-43.001	0.100
445.700	-37.510	0.100
445.800	-38.883	0.100
445.900	-32.213	0.100
446.000	-40.404	0.100
446.100	-31.082	0.100
446.200	-35.707	0.100
446.300	-31.609	0.100
446.400	-25.332	0.100
446.500	-36.533	0.100
446.600	-43.051	0.100
446.700	-41.314	0.100
446.800	-46.262	0.100
446.900	-30.793	0.100
447.000	-33.909	0.100
447.100	-35.183	0.100
447.200	-38.506	0.100
447.300	-37.590	0.100
447.400	-47.109	0.100
447.500	-45.348	0.100
447.600	-39.668	0.100
447.700	-39.172	0.100
447.800	-41.701	0.100
447.900	-38.734	0.100
448.000	-47.134	0.100
448.100	-44.295	0.100
448.200	-35.842	0.100
448.300	-33.273	0.100
448.400	-38.562	0.100
448.500	-34.067	0.100
448.600	-35.067	0.100
448.700	-37.911	0.100
448.800	-31.679	0.100
448.900	-37.379	0.100
449.000	-36.594	0.100
449.100	-33.661	0.100
449.200	-42.120	0.100
449.300	-32.211	0.100
449.400	-40.357	0.100
449.500	-39.888	0.100
449.600	-41.872	0.100
449.700	-31.257	0.100
449.800	-38.022	0.100
449.900	-41.650	0.100
450.000	-40.348	0.100
450.100	-34.330	0.100
450.200	-37.457	0.100
450.300	-43.748	0.100
450.400	-44.317	0.100
450.500	-36.771	0.100
450.600	-28.321	0.100
450.700	-33.601	0.100
450.800	-44.734	0.100
450.900	-34.354	0.100
451.000	-39.785	0.100
451.100	-34.272	0.100
451.200	-31.259	0.100
451.300	-34.243	0.100
451.400	-28.753	0.100
451.500	-31.623	0.100
451.600	-40.301	0.100
451.700	-31.741	0.100
451.800	-24.507	0.100
451.900	-29.442	0.100
452.000	-41.269	0.100
452.100	-32.123	0.100
452.200	-27.668	0.100
452.300	-46.008	0.100
452.400	-33.903	0.100
452.500	-37.378	0.100
452.600	-24.450	0.100
452.700	-39.182	0.100
452.800	-40.467	0.100
452.900	-44.411	0.100
453.000	-30.937	0.100
453.100	-40.111	0.100
453.200	-38.131	0.100
453.300	-34.173	0.100
453.400	-26.686	0.100
453.500	-31.198	0.100
453.600	-39.954	0.100
453.700	-31.770	0.100
453.800	-31.475	0.100
453.900	-38.744	0.100
454.000	-42.363	0.100
454.100	-32.869	0.100
454.200	-33.007	0.100
454.300	-41.056	0.100
454.400	-38.402	0.100
454.500	-25.799	0.100
454.600	-39.318	0.100
454.700	-39.630	0.100
454.800	-40.748	0.100
454.900	-23.375	0.100
455.000	-31.199	0.100
455.100	-47.577	0.100
455.200	-38.583	0.100
455.300	-33.644	0.100
455.400	-36.833	0.100
455.500	-39.953	0.100
455.600	-28.413	0.100
455.700	-27.741	0.100
455.800	-36.039	0.100
455.900	-39.918	0.100
456.000	-41.180	0.100
456.100	-33.180	0.100
456.200	-28.731	0.100
456.300	-30.534	0.100
456.400	-43.446	0.100
456.500	-37.593	0.100
456.600	-38.967	0.100
456.700	-30.783	0.100
456.800	-36.316	0.100
456.900	-30.933	0.100
457.000	-41.026	0.100
457.100	-36.579	0.100
457.200	-22.802	0.100
457.300	-39.719	0.100
457.400	-28.497	0.100
457.500	-40.681	0.100
457.600	-30.235	0.100
457.700	-28.182	0.100
457.800	-40.162	0.100
457.900	-39.904	0.100
458.000	-44.064	0.100
458.100	-24.185	0.100
458.200	-43.881	0.100
458.300	-32.611	0.100
458.400	-36.995	0.100
458.500	-35.533	0.100
458.600	-41.670	0.100
458.700	-36.943	0.100
458.800	-29.144	0.100
458.900	-25.463	0.100
459.000	-34.027	0.100
459.100	-32.556	0.100
459.200	-27.087	0.100
459.300	-35.502	0.100
459.400	-30.514	0.100
459.500	-32.786	0.100
459.600	-36.292	0.100
459.700	-33.868	0.100
459.800	-31.669	0.100
459.900	-43.019	0.100
460.000	-40.534	0.100
460.100	-42.807	0.100
460.200	-37.499	0.100
460.300	-34.517	0.100
460.400	-38.940	0.100
460.500	-34.695	0.100
460.600	-42.425	0.100
460.700	-36.889	0.100
460.800	-26.992	0.100
460.900	-24.141	0.100
461.000	-38.933	0.100
461.100	-32.288	0.100
461.200	-34.197	0.100
461.300	-24.310	0.100
461.400	-33.774	0.100
461.500	-26.883	0.100
461.600	-31.273	0.100
461.700	-35.913	0.100
461.800	-44.374	0.100
461.900	-33.194	0.100
462.000	-33.384	0.100
462.100	-39.337	0.100
462.200	-30.149	0.100
462.300	-42.935	0.100
462.400	-24.740	0.100
462.500	-35.241	0.100
462.600	-29.853	0.100
462.700	-34.389	0.100
462.800	-40.970	0.100
462.900	-29.713	0.100
463.000	-29.041	0.100
463.100	-22.092	0.100
463.200	-24.045	0.100
463.300	-39.272	0.100
463.400	-36.304	0.100
463.500	-38.915	0.100
463.600	-30.957	0.100
463.700	-33.185	0.100
463.800	-35.694	0.100
463.900	-40.898	0.100
464.000	-36.043	0.100
464.100	-36.116	0.100
464.200	-36.818	0.100
464.300	-35.163	0.100
464.400	-35.812	0.100
464.500	-31.133	0.100
464.600	-30.272	0.100
464.700	-24.437	0.100
464.800	-36.444	0.100
464.900	-29.955	0.100
465.000	-31.601	0.100
465.100	-31.893	0.100
465.200	-41.825	0.100
465.300	-35.145	0.100
465.400	-36.430	0.100
465.500	-39.042	0.100
465.600	-24.515	0.100
465.700	-37.862	0.100
465.800	-26.650	0.100
465.900	-30.087	0.100
466.000	-31.658	0.100
466.100	-25.922	0.100
466.200	-38.875	0.100
466.300	-44.108	0.100
466.400	-29.204	0.100
466.500	-35.445	0.100
466.600	-35.717	0.100
466.700	-42.433	0.100
466.800	-38.553	0.100
466.900	-31.131	0.100
467.000	-31.354	0.100
467.100	-38.712	0.100
467.200	-37.276	0.100
467.300	-24.517	0.100
467.400	-28.503	0.100
467.500	-34.335	0.100
467.600	-27.984	0.100
467.700	-28.330	0.100
467.800	-31.762	0.100
467.900	-39.874	0.100
468.000	-41.626	0.100
468.100	-41.282	0.100
468.200	-26.746	0.100
468.300	-33.362	0.100
468.400	-38.288	0.100
468.500	-28.984	0.100
468.600	-34.933	0.100
468.700	-30.543	0.100
468.800	-30.512	0.100
468.900	-32.839	0.100
469.000	-30.285	0.100
469.100	-26.732	0.100
469.200	-30.450	0.100
469.300	-29.665	0.100
469.400	-32.808	0.100
469.500	-29.255	0.100
469.600	-23.179	0.100
469.700	-24.854	0.100
469.800	-26.864	0.100
469.900	-27.579	0.100
470.000	-27.731	0.100
470.100	-33.886	0.100
470.200	-35.717	0.100
470.300	-30.280	0.100
470.400	-30.062	0.100
470.500	-34.706	0.100
470.600	-30.162	0.100
470.700	-21.493	0.100
470.800	-30.743	0.100
470.900	-39.314	0.100
471.000	-38.622	0.100
471.100	-36.350	0.100
471.200	-31.113	0.100
471.300	-21.220	0.100
471.400	-31.709	0.100
471.500	-20.088	0.100
471.600	-33.631	0.100
471.700	-33.475	0.100
471.800	-32.148	0.100
471.900	-36.368	0.100
472.000	-31.062	0.100
472.100	-28.115	0.100
472.200	-29.849	0.100
472.300	-24.444	0.100
472.400	-41.744	0.100
472.500	-35.438	0.100
472.600	-34.241	0.100
472.700	-41.182	0.100
472.800	-27.127	0.100
472.900	-25.539	0.100
473.000	-30.547	0.100
473.100	-29.105	0.100
473.200	-32.009	0.100
473.300	-36.575	0.100
473.400	-26.036	0.100
473.500	-29.452	0.100
473.600	-30.086	0.100
473.700	-33.362	0.100
473.800	-25.760	0.100
473.900	-29.521	0.100
474.000	-36.612	0.100
474.100	-30.578	0.100
474.200	-28.691	0.100
474.300	-27.473	0.100
474.400	-41.203	0.100
474.500	-31.649	0.100
474.600	-42.497	0.100
474.700	-42.521	0.100
474.800	-33.417	0.100
474.900	-30.076	0.100
475.000	-30.161	0.100
475.100	-26.913	0.100
475.200	-35.776	0.100
475.300	-22.946	0.100
475.400	-27.589	0.100
475.500	-27.430	0.100
475.600	-31.101	0.100
475.700	-38.920	0.100
475.800	-35.645	0.100
475.900	-29.083	0.100
476.000	-33.753	0.100
476.100	-41.184	0.100
476.200	-34.459	0.100
476.300	-33.526	0.100
476.400	-25.414	0.100
476.500	-31.773	0.100
476.600	-28.023	0.100
476.700	-31.382	0.100
476.800	-42.022	0.100
476.900	-24.067	0.100
477.000	-29.096	0.100
477.100	-31.969	0.100
477.200	-30.901	0.100
477.300	-31.669	0.100
477.400	-29.941	0.100
477.500	-25.223	0.100
477.600	-25.275	0.100
477.700	-27.527	0.100
477.800	-38.640	0.100
477.900	-33.514	0.100
478.000	-34.182	0.100
478.100	-23.307	0.100
478.200	-30.992	0.100
478.300	-30.738	0.100
478.400	-31.877	0.100
478.500	-34.316	0.100
478.600	-39.550	0.100
478.700	-31.263	0.100
478.800	-39.383	0.100
478.900	-37.518	0.100
479.000	-26.788	0.100
479.100	-31.847	0.100
479.200	-25.080	0.100
479.300	-30.264	0.100
479.400	-33.189	0.100
479.500	-26.457	0.100
479.600	-21.855	0.100
479.700	-20.815	0.100
479.800	-36.997	0.100
479.900	-26.912	0.100
480.000	-21.503	0.100
480.100	-30.928	0.100
480.200	-30.704	0.100
480.300	-30.184	0.100
480.400	-39.391	0.100
480.500	-39.230	0.100
480.600	-25.939	0.100
480.700	-41.111	0.100
480.800	-28.729	0.100
480.900	-21.715	0.100
481.000	-18.307	0.100
481.100	-26.571	0.100
481.200	-14.413	0.100
481.300	-14.691	0.100
481.400	-16.722	0.100
481.500	-12.992	0.100
481.600	-5.285	0.100
481.700	-17.637	0.100
481.800	-7.025	0.100
481.900	-7.427	0.100
482.000	-6.606	0.100
482.100	-8.167	0.100
482.200	-3.841	0.100
482.300	-2.976	0.100
482.400	-1.126	0.100
482.500	2.767	0.100
482.600	3.409	0.100
482.700	-1.444	0.100
482.800	0.205	0.100
482.900	0.437	0.100
483.000	5.151	0.100
483.100	-0.933	0.100
483.200	-0.179	0.100
483.300	-12.393	0.100
483.400	-0.476	0.100
483.500	12.255	0.100
483.600	-2.663	0.100
483.700	5.467	0.100
483.800	-4.378	0.100
483.900	-4.813	0.100
484.000	1.130	0.100
484.100	-2.104	0.100
484.200	4.510	0.100
484.300	16.580	0.100
484.400	4.689	0.100
484.500	6.461	0.100
484.600	3.490	0.100
484.700	-1.276	0.100
484.800	10.706	0.100
484.900	3.380	0.100
485.000	-1.298	0.100
485.100	0.989	0.100
485.200	-1.149	0.100
485.300	7.272	0.100
485.400	4.792	0.100
485.500	8.830	0.100
485.600	-1.428	0.100
485.700	12.744	0.100
485.800	5.524	0.100
485.900	10.078	0.100
486.000	4.483	0.100
486.100	0.063	0.100
486.200	-1.519	0.100
486.300	8.274	0.100
486.400	-7.901	0.100
486.500	-3.192	0.100
486.600	0.383	0.100
486.700	3.283	0.100
486.800	8.604	0.100
486.900	3.432	0.100
487.000	11.667	0.100
487.100	7.099	0.100
487.200	0.276	0.100
487.300	-3.247	0.100
487.400	6.990	0.100
487.500	-1.488	0.100
487.600	8.725	0.100
487.700	14.440	0.100
487.800	2.624	0.100
487.900	5.526	0.100
488.000	3.049	0.100
488.100	7.713	0.100
488.200	6.669	0.100
488.300	6.869	0.100
488.400	5.257	0.100
488.500	7.101	0.100
488.600	4.513	0.100
488.700	3.244	0.100
488.800	4.696	0.100
488.900	0.616	0.100
489.000	1.707	0.100
489.100	11.626	0.100
489.200	13.750	0.100
489.300	11.189	0.100
489.400	4.481	0.100
489.500	12.448	0.100
489.600	8.233	0.100
489.700	8.203	0.100
489.800	5.277	0.100
489.900	13.064	0.100
490.000	20.144	0.100
490.100	5.716	0.100
490.200	7.004	0.100
490.300	10.296	0.100
490.400	11.390	0.100
490.500	-5.464	0.100
490.600	13.722	0.100
490.700	11.997	0.100
490.800	12.790	0.100
490.900	5.478	0.100
491.000	12.363	0.100
491.100	13.335	0.100
491.200	6.762	0.100
491.300	8.112	0.100
491.400	24.211	0.100
491.500	6.570	0.100
491.600	16.055	0.100
491.700	16.725	0.100
491.800	8.607	0.100
491.900	11.202	0.100
492.000	18.925	0.100
492.100	13.998	0.100
492.200	18.199	0.100
492.300	19.267	0.100
492.400	20.106	0.100
492.500	22.590	0.100
492.600	20.688	0.100
492.700	14.731	0.100
492.800	15.154	0.100
492.900	21.178	0.100
493.000	7.929	0.100
493.100	17.528	0.100
493.200	17.822	0.100
493.300	16.942	0.100
493.400	18.134	0.100
493.500	20.029	0.100
493.600	14.929	0.100
493.700	26.024	0.100
493.800	25.407	0.100
493.900	24.593	0.100
494.000	17.239	0.100
494.100	28.791	0.100
494.200	38.319	0.100
494.300	19.246	0.100
494.400	31.663	0.100
494.500	36.195	0.100
494.600	34.851	0.100
494.700	39.791	0.100
494.800	35.067	0.100
494.900	33.222	0.100
495.000	25.660	0.100
495.100	30.865	0.100
495.200	25.087	0.100
495.300	31.893	0.100
495.400	29.851	0.100
495.500	29.902	0.100
495.600	35.958	0.100
495.700	34.710	0.100
495.800	24.544	0.100
495.900	33.959	0.100
496.000	27.506	0.100
496.100	45.025	0.100
496.200	38.683	0.100
496.300	32.675	0.100
496.400	31.747	0.100
496.500	41.565	0.100
496.600	37.223	0.100
496.700	37.256	0.100
496.800	42.343	0.100
496.900	27.817	0.100
497.000	30.292	0.100
497.100	34.793	0.100
497.200	45.439	0.100
497.300	43.117	0.100
497.400	47.335	0.100
497.500	40.072	0.100
497.600	43.147	0.100
497.700	41.385	0.100
497.800	46.142	0.100
497.900	45.873	0.100
498.000	37.241	0.100
498.100	47.861	0.100
498.200	39.189	0.100
498.300	44.142	0.100
498.400	44.774	0.100
498.500	47.096	0.100
498.600	42.605	0.100
498.700	54.094	0.100
498.800	50.414	0.100
498.900	42.654	0.100
499.000	43.003	0.100
499.100	38.734	0.100
499.200	41.639	0.100
499.300	44.635	0.100
499.400	59.255	0.100
499.500	50.194	0.100
499.600	49.717	0.100
499.700	52.955	0.100
499.800	49.693	0.100
499.900	53.413	0.100
500.000	42.501	0.100
500.100	51.161	0.100
500.200	46.384	0.100
500.300	46.561	0.100
500.400	42.357	0.100
500.500	49.157	0.100
500.600	56.299	0.100
500.700	42.839	0.100
500.800	38.962	0.100
500.900	52.685	0.100
501.000	52.247	0.100
501.100	51.571	0.100
501.200	53.362	0.100
501.300	46.956	0.100
501.400	56.101	0.100
501.500	47.201	0.100
501.600	53.100	0.100
501.700	40.505	0.100
501.800	46.063	0.100
501.900	48.224	0.100
502.000	46.548	0.100
502.100	53.180	0.100
502.200	44.322	0.100
502.300	58.768	0.100
502.400	45.353	0.100
502.500	49.690	0.100
502.600	49.206	0.100
502.700	41.175	0.100
502.800	55.914	0.100
502.900	54.378	0.100
503.000	57.575	0.100
503.100	54.926	0.100
503.200	49.850	0.100
503.300	47.882	0.100
503.400	60.017	0.100
503.500	47.727	0.100
503.600	46.835	0.100
503.700	52.628	0.100
503.800	58.171	0.100
503.900	61.360	0.100
504.000	57.884	0.100
504.100	58.043	0.100
504.200	52.140	0.100
504.300	45.792	0.100
504.400	46.193	0.100
504.500	45.639	0.100
504.600	54.103	0.100
504.700	51.174	0.100
504.800	45.678	0.100
504.900	52.928	0.100
505.000	53.869	0.100
505.100	57.195	0.100
505.200	51.950	0.100
505.300	57.799	0.100
505.400	65.040	0.100
505.500	55.922	0.100
505.600	44.430	0.100
505.700	46.763	0.100
505.800	54.479	0.100
505.900	51.268	0.100
506.000	54.594	0.100
506.100	56.342	0.100
506.200	48.822	0.100
506.300	52.112	0.100
506.400	52.013	0.100
506.500	52.991	0.100
506.600	48.497	0.100
506.700	44.499	0.100
506.800	51.530	0.100
506.900	59.853	0.100
507.000	50.631	0.100
507.100	48.392	0.100
507.200	54.823	0.100
507.300	58.823	0.100
507.400	56.277	0.100
507.500	49.920	0.100
507.600	53.379	0.100
507.700	61.655	0.100
507.800	61.321	0.100
507.900	48.663	0.100
508.000	44.627	0.100
508.100	46.625	0.100
508.200	55.642	0.100
508.300	50.788	0.100
508.400	60.972	0.100
508.500	59.987	0.100
508.600	55.158	0.100
508.700	52.366	0.100
508.800	43.180	0.100
508.900	48.324	0.100
509.000	55.187	0.100
509.100	51.485	0.100
509.200	47.688	0.100
509.300	57.292	0.100
509.400	53.898	0.100
509.500	56.570	0.100
509.600	46.193	0.100
509.700	58.301	0.100
509.800	53.078	0.100
509.900	51.064	0.100
510.000	49.979	0.100
510.100	50.119	0.100
510.200	47.216	0.100
510.300	42.746	0.100
510.400	42.299	0.100
510.500	53.233	0.100
510.600	50.543	0.100
510.700	53.853	0.100
510.800	46.449	0.100
510.900	51.411	0.100
511.000	50.679	0.100
511.100	49.487	0.100
511.200	47.630	0.100
511.300	66.681	0.100
511.400	61.156	0.100
511.500	61.345	0.100
511.600	54.506	0.100
511.700	52.904	0.100
511.800	48.470	0.100
511.900	54.718	0.100
512.000	52.860	0.100
512.100	44.063	0.100
512.200	51.126	0.100
512.300	51.673	0.100
512.400	59.812	0.100
512.500	49.029	0.100
512.600	45.247	0.100
512.700	54.573	0.100
512.800	63.025	0.100
512.900	57.228	0.100
513.000	66.397	0.100
513.100	49.165	0.100
513.200	53.577	0.100
513.300	55.381	0.100
513.400	46.214	0.100
513.500	50.178	0.100
513.600	42.483	0.100
513.700	50.647	0.100
513.800	57.488	0.100
513.900	51.965	0.100
514.000	46.242	0.100
514.100	63.572	0.100
514.200	57.257	0.100
514.300	52.387	0.100
514.400	43.825	0.100
514.500	60.485	0.100
514.600	60.887	0.100
514.700	48.325	0.100
514.800	55.637	0.100
514.900	61.719	0.100
515.000	46.926	0.100
515.100	47.519	0.100
515.200	62.181	0.100
515.300	43.225	0.100
515.400	61.523	0.100
515.500	52.169	0.100
515.600	50.428	0.100
515.700	51.766	0.100
515.800	50.454	0.100
515.900	36.475	0.100
516.000	45.280	0.100
516.100	52.434	0.100
516.200	48.420	0.100
516.300	52.296	0.100
516.400	50.793	0.100
516.500	44.679	0.100
516.600	49.938	0.100
516.700	46.358	0.100
516.800	47.916	0.100
516.900	61.530	0.100
517.000	63.201	0.100
517.100	62.132	0.100
517.200	52.800	0.100
517.300	44.025	0.100
517.400	58.206	0.100
517.500	53.342	0.100
517.600	54.942	0.100
517.700	46.385	0.100
517.800	59.707	0.100
517.900	44.127	0.100
518.000	46.680	0.100
518.100	51.945	0.100
518.200	52.276	0.100
518.300	52.829	0.100
518.400	53.515	0.100
518.500	48.227	0.100
518.600	50.404	0.100
518.700	52.531	0.100
518.800	53.583	0.100
518.900	54.476	0.100
519.000	56.746	0.100
519.100	52.633	0.100
519.200	46.716	0.100
519.300	45.701	0.100
519.400	44.701	0.100
519.500	57.946	0.100
519.600	61.294	0.100
519.700	51.398	0.100
519.800	51.209	0.100
519.900	55.222	0.100
520.000	58.896	0.100
520.100	54.323	0.100
520.200	53.978	0.100
520.300	53.155	0.100
520.400	55.429	0.100
520.500	50.187	0.100
520.600	50.233	0.100
520.700	52.185	0.100
520.800	50.006	0.100
520.900	53.717	0.100
521.000	54.085	0.100
521.100	48.760	0.100
521.200	49.336	0.100
521.300	53.684	0.100
521.400	48.275	0.100
521.500	54.094	0.100
521.600	50.417	0.100
521.700	57.498	0.100
521.800	52.414	0.100
521.900	42.157	0.100
522.000	52.355	0.100
522.100	46.886	0.100
522.200	54.973	0.100
522.300	50.899	0.100
522.400	49.569	0.100
522.500	49.997	0.100
522.600	60.133	0.100
522.700	47.905	0.100
522.800	42.666	0.100
522.900	45.758	0.100
523.000	58.323	0.100
523.100	64.092	0.100
523.200	54.151	0.100
523.300	46.160	0.100
523.400	51.880	0.100
523.500	53.272	0.100
523.600	54.818	0.100
523.700	47.968	0.100
523.800	47.764	0.100
523.900	42.917	0.100
524.000	59.269	0.100
524.100	71.029	0.100
524.200	57.861	0.100
524.300	51.744	0.100
524.400	56.033	0.100
524.500	40.337	0.100
524.600	41.667	0.100
524.700	59.479	0.100
524.800	45.189	0.100
524.900	66.051	0.100
525.000	47.257	0.100
525.100	54.024	0.100
525.200	55.409	0.100
525.300	56.535	0.100
525.400	52.835	0.100
525.500	52.588	0.100
525.600	46.007	0.100
525.700	46.428	0.100
525.800	46.902	0.100
525.900	44.795	0.100
526.000	46.756	0.100
526.100	54.076	0.100
526.200	48.188	0.100
526.300	52.438	0.100
526.400	55.771	0.100
526.500	40.259	0.100
526.600	44.015	0.100
526.700	49.933	0.100
526.800	53.043	0.100
526.900	53.899	0.100
527.000	53.913	0.100
527.100	52.083	0.100
527.200	51.245	0.100
527.300	61.902	0.100
527.400	54.495	0.100
527.500	46.625	0.100
527.600	51.806	0.100
527.700	51.618	0.100
527.800	52.639	0.100
527.900	45.602	0.100
528.000	42.991	0.100
528.100	45.634	0.100
528.200	53.413	0.100
528.300	52.171	0.100
528.400	51.067	0.100
528.500	52.073	0.100
528.600	51.356	0.100
528.700	46.814	0.100
528.800	60.037	0.100
528.900	64.152	0.100
529.000	47.508	0.100
529.100	44.457	0.100
529.200	35.896	0.100
529.300	52.160	0.100
529.400	54.592	0.100
529.500	60.581	0.100
529.600	54.127	0.100
529.700	51.690	0.100
529.800	58.825	0.100
529.900	43.397	0.100
530.000	41.799	0.100
530.100	48.955	0.100
530.200	52.967	0.100
530.300	53.595	0.100
530.400	55.325	0.100
530.500	50.582	0.100
530.600	70.308	0.100
530.700	61.859	0.100
530.800	60.988	0.100
530.900	43.433	0.100
531.000	48.388	0.100
531.100	42.270	0.100
531.200	45.000	0.100
531.300	48.371	0.100
531.400	56.112	0.100
531.500	66.010	0.100
531.600	51.185	0.100
531.700	48.515	0.100
531.800	48.566	0.100
531.900	45.425	0.100
532.000	49.592	0.100
532.100	64.363	0.100
532.200	52.646	0.100
532.300	55.111	0.100
532.400	56.138	0.100
532.500	45.734	0.100
532.600	42.873	0.100
532.700	44.172	0.100
532.800	54.489	0.100
532.900	49.290	0.100
533.000	51.831	0.100
533.100	44.120	0.100
533.200	45.539	0.100
533.300	46.798	0.100
533.400	44.871	0.100
533.500	50.609	0.100
533.600	43.742	0.100
533.700	53.405	0.100
533.800	52.132	0.100
533.900	53.859	0.100
534.000	48.566	0.100
534.100	44.478	0.100
534.200	52.510	0.100
534.300	44.447	0.100
534.400	54.384	0.100
534.500	52.862	0.100
534.600	60.291	0.100
534.700	47.213	0.100
534.800	51.086	0.100
534.900	46.316	0.100
535.000	55.357	0.100
535.100	43.504	0.100
535.200	50.306	0.100
535.300	50.076	0.100
535.400	49.129	0.100
535.500	62.068	0.100
535.600	49.685	0.100
535.700	48.615	0.100
535.800	53.118	0.100
535.900	49.972	0.100
536.000	51.238	0.100
536.100	44.171	0.100
536.200	57.834	0.100
536.300	53.387	0.100
536.400	46.812	0.100
536.500	49.684	0.100
536.600	53.092	0.100
536.700	42.500	0.100
536.800	43.239	0.100
536.900	55.088	0.100
537.000	50.306	0.100
537.100	49.028	0.100
537.200	55.211	0.100
537.300	55.380	0.100
537.400	56.648	0.100
537.500	63.933	0.100
537.600	48.981	0.100
537.700	51.846	0.100
537.800	44.865	0.100
537.900	41.798	0.100
538.000	47.315	0.100
538.100	52.056	0.100
538.200	49.011	0.100
538.300	58.426	0.100
538.400	62.363	0.100
538.500	48.988	0.100
538.600	44.744	0.100
538.700	59.459	0.100
538.800	46.765	0.100
538.900	48.822	0.100
539.000	58.136	0.100
539.100	44.818	0.100
539.200	43.322	0.100
539.300	52.407	0.100
539.400	46.587	0.100
539.500	54.187	0.100
539.600	54.285	0.100
539.700	53.740	0.100
539.800	53.769	0.100
539.900	49.527	0.100
540.000	45.964	0.100
540.100	43.934	0.100
540.200	46.818	0.100
540.300	49.332	0.100
540.400	45.646	0.100
540.500	41.816	0.100
540.600	43.154	0.100
540.700	34.065	0.100
540.800	52.585	0.100
540.900	39.167	0.100
541.000	36.997	0.100
541.100	41.584	0.100
541.200	28.459	0.100
541.300	27.789	0.100
541.400	19.811	0.100
541.500	32.856	0.100
541.600	23.254	0.100
541.700	10.319	0.100
541.800	13.096	0.100
541.900	14.691	0.100
542.000	14.137	0.100
542.100	1.058	0.100
542.200	2.747	0.100
542.300	14.181	0.100
542.400	7.896	0.100
542.500	13.238	0.100
542.600	5.118	0.100
542.700	10.015	0.100
542.800	7.947	0.100
542.900	9.754	0.100
543.000	1.513	0.100
543.100	11.249	0.100
543.200	7.520	0.100
543.300	-3.980	0.100
543.400	3.761	0.100
543.500	5.268	0.100
543.600	-0.462	0.100
543.700	-8.873	0.100
543.800	0.191	0.100
543.900	2.396	0.100
544.000	-1.241	0.100
544.100	-3.713	0.100
544.200	-9.216	0.100
544.300	-7.114	0.100
544.400	-14.315	0.100
544.500	0.531	0.100
544.600	-3.840	0.100
544.700	-14.745	0.100
544.800	-11.060	0.100
544.900	-9.673	0.100
545.000	-13.014	0.100
545.100	5.260	0.100
545.200	-7.784	0.100
545.300	-4.616	0.100
545.400	3.756	0.100
545.500	-9.792	0.100
545.600	-2.972	0.100
545.700	-2.626	0.100
545.800	-6.723	0.100
545.900	-4.326	0.100
546.000	-10.300	0.100
546.100	-9.042	0.100
546.200	-8.226	0.100
546.300	-9.411	0.100
546.400	-3.221	0.100
546.500	-9.105	0.100
546.600	-17.343	0.100
546.700	-11.251	0.100
546.800	-2.256	0.100
546.900	0.220	0.100
547.000	-1.604	0.100
547.100	-9.569	0.100
547.200	0.224	0.100
547.300	-10.922	0.100
547.400	-6.089	0.100
547.500	-5.326	0.100
547.600	-5.173	0.100
547.700	-15.042	0.100
547.800	-12.516	0.100
547.900	-9.551	0.100
548.000	-3.418	0.100
548.100	-10.293	0.100
548.200	-2.393	0.100
548.300	-4.247	0.100
548.400	-11.070	0.100
548.500	-6.432	0.100
548.600	-15.438	0.100
548.700	-9.216	0.100
548.800	-13.626	0.100
548.900	-19.988	0.100
549.000	-1.995	0.100
549.100	-15.787	0.100
549.200	-17.919	0.100
549.300	-10.080	0.100
549.400	-15.180	0.100
549.500	-3.979	0.100
549.600	3.058	0.100
549.700	-10.767	0.100
549.800	-13.713	0.100
549.900	-11.102	0.100
550.000	-4.122	0.100
550.100	-8.179	0.100
550.200	-15.848	0.100
550.300	-15.957	0.100
550.400	-25.273	0.100
550.500	-6.689	0.100
550.600	-9.921	0.100
550.700	-9.151	0.100
550.800	-14.631	0.100
550.900	-9.852	0.100
551.000	-11.331	0.100
551.100	-11.974	0.100
551.200	-6.229	0.100
551.300	-5.315	0.100
551.400	-12.774	0.100
551.500	-21.907	0.100
551.600	-16.007	0.100
551.700	-6.634	0.100
551.800	-12.677	0.100
551.900	-7.574	0.100
552.000	-22.441	0.100
552.100	-15.834	0.100
552.200	-10.900	0.100
552.300	-7.532	0.100
552.400	-11.982	0.100
552.500	-11.426	0.100
552.600	-7.943	0.100
552.700	-11.160	0.100
552.800	-25.379	0.100
552.900	-16.563	0.100
553.000	-23.398	0.100
553.100	-15.061	0.100
553.200	-15.646	0.100
553.300	-11.519	0.100
553.400	-18.139	0.100
553.500	-4.567	0.100
553.600	-9.125	0.100
553.700	-18.802	0.100
553.800	-10.170	0.100
553.900	-16.347	0.100
554.000	-19.426	0.100
554.100	-12.542	0.100
554.200	-14.190	0.100
554.300	-15.933	0.100
554.400	-18.767	0.100
554.500	-7.890	0.100
554.600	-21.306	0.100
554.700	-17.203	0.100
554.800	-13.273	0.100
554.900	-17.788	0.100
555.000	-15.063	0.100
555.100	-18.712	0.100
555.200	-15.748	0.100
555.300	-18.675	0.100
555.400	-15.268	0.100
555.500	-22.437	0.100
555.600	-15.879	0.100
555.700	-21.184	0.100
555.800	-16.169	0.100
555.900	-23.431	0.100
556.000	-21.329	0.100
556.100	-18.969	0.100
556.200	-22.171	0.100
556.300	-5.767	0.100
556.400	-18.085	0.100
556.500	-23.125	0.100
556.600	-24.214	0.100
556.700	-21.484	0.100
556.800	-14.569	0.100
556.900	-10.636	0.100
557.000	-13.144	0.100
557.100	-20.555	0.100
557.200	-18.541	0.100
557.300	-17.169	0.100
557.400	-23.075	0.100
557.500	-17.284	0.100
557.600	-22.027	0.100
557.700	-22.988	0.100
557.800	-14.515	0.100
557.900	-4.666	0.100
558.000	-19.613	0.100
558.100	-14.664	0.100
558.200	-29.436	0.100
558.300	-16.497	0.100
558.400	-22.581	0.100
558.500	-29.594	0.100
558.600	-11.634	0.100
558.700	-26.560	0.100
558.800	-28.010	0.100
558.900	-25.415	0.100
559.000	-12.232	0.100
559.100	-26.640	0.100
559.200	-24.111	0.100
559.300	-22.832	0.100
559.400	-26.819	0.100
559.500	-33.401	0.100
559.600	-18.391	0.100
559.700	-26.948	0.100
559.800	-29.757	0.100
559.900	-18.043	0.100
560.000	-21.720	0.100
560.100	-21.776	0.100
560.200	-34.823	0.100
560.300	-30.552	0.100
560.400	-20.626	0.100
560.500	-25.033	0.100
560.600	-28.001	0.100
560.700	-15.502	0.100
560.800	-24.146	0.100
560.900	-32.465	0.100
561.000	-30.318	0.100
561.100	-26.010	0.100
561.200	-20.897	0.100
561.300	-15.214	0.100
561.400	-25.353	0.100
561.500	-21.792	0.100
561.600	-32.676	0.100
561.700	-25.528	0.100
561.800	-21.825	0.100
561.900	-23.524	0.100
562.000	-32.520	0.100
562.100	-35.102	0.100
562.200	-18.277	0.100
562.300	-17.903	0.100
562.400	-27.495	0.100
562.500	-28.636	0.100
562.600	-23.917	0.100
562.700	-27.739	0.100
562.800	-29.213	0.100
562.900	-29.159	0.100
563.000	-23.767	0.100
563.100	-27.464	0.100
563.200	-25.931	0.100
563.300	-31.459	0.100
563.400	-23.186	0.100
563.500	-27.063	0.100
563.600	-28.078	0.100
563.700	-28.973	0.100
563.800	-30.810	0.100
563.900	-27.966	0.100
564.000	-23.730	0.100
564.100	-21.697	0.100
564.200	-31.465	0.100
564.300	-21.462	0.100
564.400	-38.383	0.100
564.500	-22.618	0.100
564.600	-35.954	0.100
564.700	-28.434	0.100
564.800	-30.007	0.100
564.900	-19.491	0.100
565.000	-26.465	0.100
565.100	-17.776	0.100
565.200	-28.330	0.100
565.300	-33.967	0.100
565.400	-27.242	0.100
565.500	-20.745	0.100
565.600	-26.245	0.100
565.700	-31.874	0.100
565.800	-21.717	0.100
565.900	-34.447	0.100
566.000	-30.209	0.100
566.100	-28.268	0.100
566.200	-21.134	0.100
566.300	-30.769	0.100
566.400	-29.185	0.100
566.500	-27.044	0.100
566.600	-31.637	0.100
566.700	-34.793	0.100
566.800	-30.302	0.100
566.900	-15.453	0.100
567.000	-22.326	0.100
567.100	-31.256	0.100
567.200	-32.187	0.100
567.300	-39.257	0.100
567.400	-37.216	0.100
567.500	-18.165	0.100
567.600	-32.547	0.100
567.700	-30.074	0.100
567.800	-34.406	0.100
567.900	-36.819	0.100
568.000	-30.608	0.100
568.100	-23.352	0.100
568.200	-28.825	0.100
568.300	-29.829	0.100
568.400	-33.506	0.100
568.500	-25.484	0.100
568.600	-30.966	0.100
568.700	-36.607	0.100
568.800	-38.144	0.100
568.900	-39.183	0.100
569.000	-35.260	0.100
569.100	-27.299	0.100
569.200	-24.447	0.100
569.300	-28.666	0.100
569.400	-30.348	0.100
569.500	-25.191	0.100
569.600	-36.690	0.100
569.700	-32.320	0.100
569.800	-27.727	0.100
569.900	-23.081	0.100
570.000	-37.923	0.100
570.100	-30.915	0.100
570.200	-27.619	0.100
570.300	-38.103	0.100
570.400	-32.140	0.100
570.500	-37.258	0.100
570.600	-30.941	0.100
570.700	-43.952	0.100
570.800	-34.918	0.100
570.900	-28.299	0.100
571.000	-27.860	0.100
571.100	-39.110	0.100
571.200	-29.423	0.100
571.300	-23.398	0.100
571.400	-35.146	0.100
571.500	-28.526	0.100
571.600	-32.898	0.100
571.700	-39.033	0.100
571.800	-42.034	0.100
571.900	-39.733	0.100
572.000	-39.320	0.101
572.100	-37.882	0.100
572.200	-26.278	0.100
572.300	-32.620	0.101
572.400	-38.634	0.101
572.500	-31.964	0.101
572.600	-34.916	0.101
572.700	-30.665	0.101
572.800	-40.248	0.101
572.900	-28.805	0.101
573.000	-27.380	0.101
573.100	-35.523	0.101
573.200	-28.668	0.101
573.300	-43.960	0.101
573.400	-28.610	0.101
573.500	-32.481	0.101
573.600	-40.774	0.101
573.700	-34.382	0.101
573.800	-28.892	0.101
573.900	-40.760	0.101
574.000	-29.704	0.101
574.100	-27.614	0.101
574.200	-41.407	0.101
574.300	-42.268	0.101
574.400	-34.008	0.101
574.500	-29.913	0.101
574.600	-33.593	0.101
574.700	-33.527	0.101
574.800	-39.672	0.101
574.900	-35.596	0.101
575.000	-38.156	0.101
575.100	-40.689	0.101
575.200	-36.880	0.101
575.300	-49.562	0.101
575.400	-37.851	0.101
575.500	-36.629	0.101
575.600	-37.685	0.101
575.700	-39.765	0.101
575.800	-33.287	0.101
575.900	-40.119	0.101
576.000	-33.904	0.101
576.100	-29.032	0.101
576.200	-37.014	0.101
576.300	-35.261	0.101
576.400	-38.239	0.101
576.500	-40.657	0.101
576.600	-35.896	0.101
576.700	-35.607	0.101
576.800	-33.981	0.101
576.900	-42.681	0.101
577.000	-52.313	0.101
577.100	-28.629	0.101
577.200	-33.929	0.101
577.300	-36.623	0.101
577.400	-35.241	0.101
577.500	-37.503	0.101
577.600	-39.834	0.101
577.700	-38.907	0.101
577.800	-42.596	0.101
577.900	-30.317	0.101
578.000	-33.426	0.101
578.100	-43.647	0.101
578.200	-39.939	0.101
578.300	-27.757	0.101
578.400	-37.500	0.101
578.500	-35.820	0.101
578.600	-37.802	0.101
578.700	-37.850	0.101
578.800	-41.527	0.101
578.900	-31.802	0.101
579.000	-34.849	0.101
579.100	-44.826	0.101
579.200	-42.521	0.101
579.300	-32.618	0.101
579.400	-36.996	0.101
579.500	-36.277	0.101
579.600	-34.751	0.101
579.700	-34.954	0.101
579.800	-41.880	0.101
579.900	-36.979	0.101
580.000	-40.243	0.101
580.100	-45.633	0.101
580.200	-37.051	0.101
580.300	-38.850	0.101
580.400	-36.329	0.101
580.500	-40.964	0.101
580.600	-27.860	0.101
580.700	-36.357	0.101
580.800	-34.455	0.101
580.900	-41.705	0.101
581.000	-32.938	0.101
581.100	-32.977	0.101
581.200	-32.595	0.101
581.300	-34.453	0.101
581.400	-46.145	0.101
581.500	-29.359	0.101
581.600	-34.756	0.101
581.700	-32.033	0.101
581.800	-44.258	0.101
581.900	-33.835	0.101
582.000	-39.175	0.101
582.100	-39.078	0.101
582.200	-35.822	0.101
582.300	-38.562	0.101
582.400	-38.018	0.101
582.500	-40.772	0.101
582.600	-35.478	0.101
582.700	-30.006	0.101
582.800	-35.668	0.101
582.900	-32.675	0.101
583.000	-30.216	0.101
583.100	-38.642	0.101
583.200	-43.467	0.101
583.300	-33.556	0.101
583.400	-37.249	0.101
583.500	-31.487	0.101
583.600	-33.955	0.101
583.700	-39.713	0.101
583.800	-36.009	0.101
583.900	-37.257	0.101
584.000	-35.172	0.101
584.100	-35.648	0.101
584.200	-30.307	0.101
584.300	-40.802	0.101
584.400	-43.232	0.101
584.500	-42.503	0.101
584.600	-29.663	0.101
584.700	-34.096	0.101
584.800	-31.355	0.101
584.900	-37.801	0.101
585.000	-39.185	0.101
585.100	-49.318	0.101
585.200	-36.320	0.101
585.300	-41.567	0.101
585.400	-33.374	0.101
585.500	-34.503	0.101
585.600	-35.105	0.101
585.700	-46.817	0.101
585.800	-40.918	0.101
585.900	-39.957	0.101
586.000	-26.284	0.101
586.100	-36.463	0.101
586.200	-42.342	0.101
586.300	-41.437	0.101
586.400	-38.319	0.101
586.500	-44.193	0.101
586.600	-35.413	0.101
586.700	-41.053	0.101
586.800	-37.330	0.101
586.900	-41.349	0.101
587.000	-35.759	0.101
587.100	-45.811	0.101
587.200	-39.189	0.101
587.300	-43.890	0.101
587.400	-36.088	0.101
587.500	-34.758	0.101
587.600	-37.893	0.101
587.700	-42.032	0.101
587.800	-40.121	0.101
587.900	-47.681	0.101
588.000	-41.687	0.101
588.100	-34.931	0.101
588.200	-38.827	0.101
588.300	-40.559	0.101
588.400	-40.719	0.101
588.500	-31.313	0.101
588.600	-36.919	0.101
588.700	-43.180	0.101
588.800	-43.457	0.101
588.900	-37.099	0.101
589.000	-33.307	0.101
589.100	-34.912	0.101
589.200	-40.302	0.101
589.300	-41.194	0.101
589.400	-38.201	0.101
589.500	-41.422	0.101
589.600	-44.546	0.101
589.700	-43.911	0.101
589.800	-33.547	0.101
589.900	-35.647	0.101
590.000	-43.437	0.101
590.100	-34.680	0.101
590.200	-34.946	0.101
590.300	-40.287	0.101
590.400	-42.923	0.101
590.500	-44.531	0.101
590.600	-35.304	0.101
590.700	-41.028	0.100
590.800	-41.183	0.100
590.900	-38.498	0.100
591.000	-25.678	0.101
591.100	-31.259	0.100
591.200	-34.793	0.101
591.300	-45.323	0.101
591.400	-37.168	0.100
591.500	-33.472	0.100
591.600	-32.457	0.100
591.700	-37.394	0.100
591.800	-36.244	0.100
591.900	-38.402	0.101
592.000	-42.790	0.100
592.100	-37.698	0.100
592.200	-50.196	0.100
592.300	-41.184	0.100
592.400	-30.401	0.100
592.500	-36.804	0.100
592.600	-30.576	0.100
592.700	-37.321	0.100
592.800	-36.130	0.100
592.900	-33.073	0.100
593.000	-32.321	0.100
593.100	-35.859	0.100
593.200	-45.780	0.100
593.300	-35.570	0.100
593.400	-33.743	0.100
593.500	-35.646	0.100
593.600	-38.022	0.100
593.700	-44.557	0.100
593.800	-40.083	0.100
593.900	-39.568	0.100
594.000	-35.011	0.100
594.100	-46.933	0.100
594.200	-40.330	0.100
594.300	-40.270	0.100
594.400	-35.880	0.100
594.500	-34.448	0.100
594.600	-41.619	0.100
594.700	-38.813	0.100
594.800	-35.634	0.100
594.900	-38.549	0.100
595.000	-39.457	0.100
595.100	-37.915	0.100
595.200	-43.776	0.100
595.300	-33.024	0.100
595.400	-36.708	0.100
595.500	-42.837	0.100
595.600	-36.177	0.100
595.700	-26.919	0.100
595.800	-41.300	0.100
595.900	-33.431	0.100
596.000	-38.254	0.100
596.100	-31.610	0.100
596.200	-36.878	0.100
596.300	-27.246	0.100
596.400	-34.131	0.100
596.500	-29.698	0.100
596.600	-41.515	0.100
596.700	-42.255	0.100
596.800	-32.132	0.100
596.900	-40.380	0.100
597.000	-34.917	0.100
597.100	-30.280	0.100
597.200	-30.635	0.100
597.300	-36.366	0.100
597.400	-35.615	0.100
597.500	-38.550	0.100
597.600	-42.102	0.100
597.700	-36.803	0.100
597.800	-20.522	0.100
597.900	-37.496	0.100
598.000	-46.498	0.100
598.100	-29.144	0.100
598.200	-34.675	0.100
598.300	-48.091	0.100
598.400	-30.529	0.100
598.500	-32.652	0.100
598.600	-39.087	0.100
598.700	-32.165	0.100
598.800	-39.232	0.100
598.900	-39.855	0.100
599.000	-31.674	0.100
599.100	-37.744	0.100
599.200	-40.628	0.100
599.300	-42.562	0.100
599.400	-34.888	0.100
599.500	-28.601	0.100
599.600	-39.826	0.100
599.700	-36.513	0.100
599.800	-24.063	0.100
599.900	-38.990	0.100
600.000	-45.413	0.100
600.100	-31.882	0.100
600.200	-33.781	0.100
600.300	-36.958	0.100
600.400	-40.729	0.100
600.500	-39.639	0.100
600.600	-42.641	0.100
600.700	-35.032	0.100
600.800	-36.710	0.100
600.900	-40.546	0.100
601.000	-38.713	0.100
601.100	-43.021	0.100
601.200	-37.406	0.100
601.300	-27.981	0.100
601.400	-27.760	0.100
601.500	-37.394	0.100
601.600	-41.073	0.100
601.700	-41.186	0.100
601.800	-40.689	0.100
601.900	-35.025	0.100
602.000	-28.455	0.100
602.100	-30.092	0.100
602.200	-31.655	0.100
602.300	-41.086	0.100
602.400	-42.598	0.100
602.500	-44.419	0.100
602.600	-38.271	0.100
602.700	-40.007	0.100
602.800	-40.587	0.100
602.900	-29.631	0.100
603.000	-32.323	0.100
603.100	-29.693	0.100
603.200	-38.270	0.100
603.300	-34.421	0.100
603.400	-35.178	0.100
603.500	-34.571	0.100
603.600	-31.001	0.100
603.700	-34.911	0.100
603.800	-35.120	0.100
603.900	-37.890	0.100
604.000	-38.993	0.100
604.100	-39.506	0.100
604.200	-35.505	0.100
604.300	-25.623	0.100
604.400	-23.826	0.100
604.500	-28.811	0.100
604.600	-35.327	0.100
604.700	-40.834	0.100
604.800	-46.446	0.100
604.900	-28.957	0.100
605.000	-30.451	0.100
605.100	-30.629	0.100
605.200	-39.792	0.100
605.300	-44.722	0.100
605.400	-46.602	0.100
605.500	-45.145	0.100
605.600	-34.221	0.100
605.700	-35.035	0.100
605.800	-30.650	0.100
605.900	-42.102	0.100
606.000	-45.326	0.100
606.100	-38.370	0.100
606.200	-31.720	0.100
606.300	-43.180	0.100
606.400	-36.904	0.100
606.500	-34.908	0.100
606.600	-36.013	0.100
606.700	-43.190	0.100
606.800	-35.047	0.100
606.900	-34.880	0.100
607.000	-34.296	0.100
607.100	-41.535	0.100
607.200	-35.076	0.100
607.300	-36.309	0.100
607.400	-34.867	0.100
607.500	-39.841	0.100
607.600	-30.294	0.100
607.700	-33.658	0.100
607.800	-30.056	0.100
607.900	-34.318	0.100
608.000	-25.783	0.100
608.100	-32.844	0.100
608.200	-31.025	0.100
608.300	-41.325	0.100
608.400	-40.178	0.100
608.500	-30.274	0.100
608.600	-25.409	0.100
608.700	-37.957	0.100
608.800	-44.517	0.100
608.900	-36.172	0.100
609.000	-23.325	0.100
609.100	-31.531	0.100
609.200	-36.393	0.100
609.300	-34.162	0.100
609.400	-35.892	0.100
609.500	-40.100	0.100
609.600	-34.889	0.100
609.700	-30.929	0.100
609.800	-33.091	0.100
609.900	-36.666	0.100
610.000	-39.477	0.100
610.100	-48.112	0.100
610.200	-34.937	0.100
610.300	-31.665	0.100
610.400	-27.905	0.100
610.500	-28.630	0.100
610.600	-39.858	0.100
610.700	-36.782	0.100
610.800	-28.711	0.100
610.900	-41.358	0.100
611.000	-38.644	0.100
611.100	-35.654	0.100
611.200	-30.260	0.100
611.300	-46.639	0.100
611.400	-26.004	0.100
611.500	-35.070	0.100
611.600	-38.799	0.100
611.700	-33.446	0.100
611.800	-35.436	0.100
611.900	-31.526	0.100
612.000	-41.404	0.100
612.100	-33.402	0.100
612.200	-34.393	0.100
612.300	-38.392	0.100
612.400	-36.411	0.100
612.500	-33.300	0.100
612.600	-34.663	0.100
612.700	-26.209	0.100
612.800	-34.659	0.100
612.900	-40.804	0.100
613.000	-34.225	0.100
613.100	-33.977	0.100
613.200	-39.447	0.100
613.300	-42.467	0.100
613.400	-30.867	0.100
613.500	-30.382	0.100
613.600	-38.331	0.100
613.700	-32.230	0.100
613.800	-28.716	0.100
613.900	-26.125	0.100
614.000	-30.297	0.100
614.100	-21.890	0.100
614.200	-31.969	0.100
614.300	-33.836	0.100
614.400	-33.476	0.100
614.500	-34.345	0.100
614.600	-39.948	0.100
614.700	-36.288	0.100
614.800	-34.220	0.100
614.900	-36.564	0.100
615.000	-34.957	0.100
615.100	-29.411	0.100
615.200	-36.653	0.100
615.300	-37.291	0.100
615.400	-33.684	0.100
615.500	-31.017	0.100
615.600	-42.724	0.100
615.700	-31.165	0.100
615.800	-28.720	0.100
615.900	-24.429	0.100
616.000	-26.834	0.100
616.100	-36.298	0.100
616.200	-43.393	0.100
616.300	-31.836	0.100
616.400	-44.223	0.100
616.500	-34.248	0.100
616.600	-36.290	0.100
616.700	-31.100	0.100
616.800	-39.148	0.100
616.900	-31.480	0.100
617.000	-35.994	0.100
617.100	-39.143	0.100
617.200	-35.208	0.100
617.300	-26.290	0.100
617.400	-35.590	0.100
617.500	-36.050	0.100
617.600	-30.405	0.100
617.700	-37.149	0.100
617.800	-27.692	0.100
617.900	-32.717	0.100
618.000	-36.585	0.100
618.100	-38.425	0.100
618.200	-38.404	0.100
618.300	-27.228	0.100
618.400	-30.150	0.100
618.500	-36.645	0.100
618.600	-37.203	0.100
618.700	-36.282	0.100
618.800	-37.944	0.100
618.900	-38.474	0.100
619.000	-29.842	0.100
619.100	-31.759	0.100
619.200	-30.893	0.100
619.300	-24.398	0.100
619.400	-36.406	0.100
619.500	-32.598	0.100
619.600	-27.827	0.100
619.700	-27.101	0.100
619.800	-31.477	0.100
619.900	-34.257	0.100
620.000	-35.558	0.100
620.100	-33.292	0.100
620.200	-27.150	0.100
620.300	-36.301	0.100
620.400	-44.545	0.100
620.500	-43.990	0.100
620.600	-38.205	0.100
620.700	-32.177	0.100
620.800	-30.414	0.100
620.900	-36.493	0.100
621.000	-29.972	0.100
621.100	-23.889	0.100
621.200	-34.487	0.100
621.300	-28.634	0.100
621.400	-36.295	0.100
621.500	-27.327	0.100
621.600	-29.499	0.100
621.700	-28.746	0.100
621.800	-32.391	0.100
621.900	-31.129	0.100
622.000	-36.071	0.100
622.100	-28.180	0.100
622.200	-36.843	0.100
622.300	-29.430	0.100
622.400	-31.008	0.100
622.500	-35.323	0.100
622.600	-36.314	0.100
622.700	-35.063	0.100
622.800	-35.830	0.100
622.900	-31.469	0.100
623.000	-34.437	0.100
623.100	-33.232	0.100
623.200	-25.481	0.100
623.300	-31.097	0.100
623.400	-24.601	0.100
623.500	-35.496	0.100
623.600	-38.865	0.100
623.700	-39.506	0.100
623.800	-35.407	0.100
623.900	-30.358	0.100
624.000	-30.019	0.100
624.100	-21.575	0.100
624.200	-33.920	0.100
624.300	-34.247	0.100
624.400	-36.082	0.100
624.500	-30.586	0.100
624.600	-33.837	0.100
624.700	-24.388	0.100
624.800	-28.311	0.100
624.900	-29.622	0.100
625.000	-32.438	0.100
625.100	-37.229	0.100
625.200	-27.292	0.100
625.300	-28.578	0.100
625.400	-29.148	0.100
625.500	-26.887	0.100
625.600	-35.058	0.100
625.700	-37.179	0.100
625.800	-28.860	0.100
625.900	-35.664	0.100
626.000	-40.517	0.100
626.100	-31.352	0.100
626.200	-34.295	0.100
626.300	-35.028	0.100
626.400	-35.168	0.100
626.500	-30.823	0.100
626.600	-25.192	0.100
626.700	-27.561	0.100
626.800	-30.306	0.100
626.900	-33.117	0.100
627.000	-31.168	0.100
627.100	-35.178	0.100
627.200	-37.589	0.100
627.300	-26.056	0.100
627.400	-38.214	0.100
627.500	-37.000	0.100
627.600	-36.990	0.100
627.700	-17.323	0.100
627.800	-33.819	0.100
627.900	-27.923	0.100
628.000	-28.991	0.100
628.100	-21.409	0.100
628.200	-30.215	0.100
628.300	-33.191	0.100
628.400	-37.176	0.100
628.500	-38.561	0.100
628.600	-36.653	0.100
628.700	-32.383	0.100
628.800	-25.108	0.100
628.900	-24.077	0.100
629.000	-37.204	0.100
629.100	-31.387	0.100
629.200	-21.920	0.100
629.300	-38.640	0.100
629.400	-26.478	0.100
629.500	-35.633	0.100
629.600	-29.632	0.100
629.700	-32.347	0.100
629.800	-30.514	0.100
629.900	-29.331	0.100
630.000	-28.741	0.100
630.100	-31.073	0.100
630.200	-33.880	0.100
630.300	-36.100	0.100
630.400	-37.528	0.100
630.500	-29.150	0.100
630.600	-25.027	0.100
630.700	-25.793	0.100
630.800	-22.693	0.100
630.900	-22.776	0.100
631.000	-28.987	0.100
631.100	-23.256	0.100
631.200	-19.556	0.100
631.300	-17.579	0.100
631.400	-12.258	0.100
631.500	-12.108	0.100
631.600	-9.350	0.100
631.700	-10.869	0.100
631.800	-7.281	0.100
631.900	-10.784	0.100
632.000	-16.401	0.100
632.100	-0.029	0.100
632.200	-5.774	0.100
632.300	-11.377	0.100
632.400	-13.778	0.100
632.500	-3.517	0.100
632.600	1.642	0.100
632.700	2.674	0.100
632.800	2.634	0.100
632.900	-1.337	0.100
633.000	4.906	0.100
633.100	-0.310	0.100
633.200	1.357	0.100
633.300	-4.826	0.100
633.400	-4.494	0.100
633.500	-7.338	0.100
633.600	2.931	0.100
633.700	2.244	0.100
633.800	5.855	0.100
633.900	-0.954	0.100
634.000	3.886	0.100
634.100	4.776	0.100
634.200	-2.496	0.100
634.300	-0.875	0.100
634.400	1.006	0.100
634.500	10.703	0.100
634.600	2.991	0.100
634.700	12.115	0.100
634.800	-6.866	0.100
634.900	-4.214	0.100
635.000	-2.849	0.100
635.100	-10.696	0.100
635.200	3.180	0.100
635.300	9.283	0.100
635.400	6.067	0.100
635.500	3.893	0.100
635.600	8.790	0.100
635.700	8.672	0.100
635.800	5.371	0.100
635.900	0.307	0.100
636.000	3.484	0.100
636.100	6.316	0.100
636.200	2.047	0.100
636.300	6.439	0.100
636.400	9.170	0.100
636.500	-1.009	0.100
636.600	-6.940	0.100
636.700	-0.939	0.100
636.800	16.914	0.100
636.900	3.305	0.100
637.000	-0.216	0.100
637.100	3.834	0.100
637.200	-9.729	0.100
637.300	-2.153	0.100
637.400	1.160	0.100
637.500	13.151	0.100
637.600	5.936	0.100
637.700	-1.106	0.100
637.800	4.549	0.100
637.900	-5.365	0.100
638.000	3.657	0.100
638.100	5.664	0.100
638.200	2.492	0.100
638.300	7.844	0.100
638.400	15.437	0.100
638.500	6.219	0.100
638.600	7.941	0.100
638.700	8.642	0.100
638.800	1.039	0.100
638.900	7.907	0.100
639.000	0.750	0.100
639.100	6.031	0.100
639.200	10.172	0.100
639.300	13.935	0.100
639.400	1.105	0.100
639.500	7.147	0.100
639.600	11.594	0.100
639.700	3.162	0.100
639.800	3.887	0.100
639.900	-1.911	0.100
640.000	3.645	0.100
640.100	9.872	0.100
640.200	16.205	0.100
640.300	16.898	0.100
640.400	2.028	0.100
640.500	12.809	0.100
640.600	10.007	0.100
640.700	14.251	0.100
640.800	5.555	0.100
640.900	8.072	0.100
641.000	0.264	0.100
641.100	9.417	0.100
641.200	10.312	0.100
641.300	4.448	0.100
641.400	13.050	0.100
641.500	14.378	0.100
641.600	6.306	0.100
641.700	14.679	0.100
641.800	11.221	0.100
641.900	13.203	0.100
642.000	20.379	0.100
642.100	28.365	0.100
642.200	17.380	0.100
642.300	18.355	0.100
642.400	10.427	0.100
642.500	16.833	0.100
642.600	20.950	0.100
642.700	15.134	0.100
642.800	13.772	0.100
642.900	20.364	0.100
643.000	14.005	0.100
643.100	15.395	0.100
643.200	17.936	0.100
643.300	20.843	0.100
643.400	19.713	0.100
643.500	21.068	0.100
643.600	21.720	0.100
643.700	22.795	0.100
643.800	20.094	0.100
643.900	19.705	0.100
644.000	24.337	0.100
644.100	15.241	0.100
644.200	36.608	0.100
644.300	20.192	0.100
644.400	24.564	0.100
644.500	24.219	0.100
644.600	22.520	0.100
644.700	28.265	0.100
644.800	26.914	0.100
644.900	20.714	0.100
645.000	31.708	0.100
645.100	29.024	0.100
645.200	23.091	0.100
645.300	30.937	0.100
645.400	28.564	0.100
645.500	28.382	0.100
645.600	25.840	0.100
645.700	36.796	0.100
645.800	40.816	0.100
645.900	20.127	0.100
646.000	37.471	0.100
646.100	26.800	0.100
646.200	26.991	0.100
646.300	31.968	0.100
646.400	33.067	0.100
646.500	29.784	0.100
646.600	43.363	0.100
646.700	38.736	0.100
646.800	33.564	0.100
646.900	39.633	0.100
647.000	36.819	0.100
647.100	31.770	0.100
647.200	44.524	0.100
647.300	30.188	0.100
647.400	33.991	0.100
647.500	42.805	0.100
647.600	42.595	0.100
647.700	39.039	0.100
647.800	50.469	0.100
647.900	37.923	0.100
648.000	33.082	0.100
648.100	36.557	0.100
648.200	33.583	0.100
648.300	33.884	0.100
648.400	44.519	0.100
648.500	43.510	0.100
648.600	42.501	0.100
648.700	37.768	0.100
648.800	48.227	0.100
648.900	40.969	0.100
649.000	48.004	0.100
649.100	40.430	0.100
649.200	50.809	0.100
649.300	49.130	0.100
649.400	41.965	0.100
649.500	38.011	0.100
649.600	39.457	0.100
649.700	49.904	0.100
649.800	49.566	0.100
649.900	47.806	0.100
650.000	50.870	0.100
650.100	42.816	0.100
650.200	47.518	0.100
650.300	44.874	0.100
650.400	48.791	0.100
650.500	43.948	0.100
650.600	51.888	0.100
650.700	48.478	0.100
650.800	54.142	0.100
650.900	45.177	0.100
651.000	47.204	0.100
651.100	44.573	0.100
651.200	55.284	0.100
651.300	48.131	0.100
651.400	45.057	0.100
651.500	48.416	0.100
651.600	40.883	0.100
651.700	52.879	0.100
651.800	41.098	0.100
651.900	51.295	0.100
652.000	54.819	0.100
652.100	39.836	0.100
652.200	42.861	0.100
652.300	50.386	0.100
652.400	52.459	0.100
652.500	58.736	0.100
652.600	45.025	0.100
652.700	54.855	0.100
652.800	40.504	0.100
652.900	61.940	0.100
653.000	50.240	0.100
653.100	43.504	0.100
653.200	55.294	0.100
653.300	51.504	0.100
653.400	48.324	0.100
653.500	47.308	0.100
653.600	42.862	0.100
653.700	45.990	0.100
653.800	44.288	0.100
653.900	46.495	0.100
654.000	54.390	0.100
654.100	50.386	0.100
654.200	50.374	0.100
654.300	41.902	0.100
654.400	41.469	0.100
654.500	60.461	0.100
654.600	52.594	0.100
654.700	53.601	0.100
654.800	52.217	0.100
654.900	52.216	0.100
655.000	53.786	0.100
655.100	53.052	0.100
655.200	51.322	0.100
655.300	46.229	0.100
655.400	40.715	0.100
655.500	48.373	0.100
655.600	47.568	0.100
655.700	50.761	0.100
655.800	46.009	0.100
655.900	58.834	0.100
656.000	52.617	0.100
656.100	43.150	0.100
656.200	45.193	0.100
656.300	46.624	0.100
656.400	51.846	0.100
656.500	58.000	0.100
656.600	55.480	0.100
656.700	50.123	0.100
656.800	47.013	0.100
656.900	60.402	0.100
657.000	52.658	0.100
657.100	43.273	0.100
657.200	45.103	0.100
657.300	56.537	0.100
657.400	49.914	0.100
657.500	48.222	0.100
657.600	49.291	0.100
657.700	54.373	0.100
657.800	47.384	0.100
657.900	60.769	0.100
658.000	47.110	0.100
658.100	46.706	0.100
658.200	58.247	0.100
658.300	60.687	0.100
658.400	53.575	0.100
658.500	41.851	0.100
658.600	44.100	0.100
658.700	45.929	0.100
658.800	51.885	0.100
658.900	64.350	0.100
659.000	54.583	0.100
659.100	50.192	0.100
659.200	46.540	0.100
659.300	47.187	0.100
659.400	53.943	0.100
659.500	51.977	0.100
659.600	44.851	0.100
659.700	46.808	0.100
659.800	46.247	0.100
659.900	44.822	0.100
660.000	53.938	0.100
660.100	45.303	0.100
660.200	59.589	0.100
660.300	47.331	0.100
660.400	43.646	0.100
660.500	57.193	0.100
660.600	54.221	0.100
660.700	52.236	0.100
660.800	51.050	0.100
660.900	54.413	0.100
661.000	52.968	0.100
661.100	48.980	0.100
661.200	52.245	0.100
661.300	47.240	0.100
661.400	48.519	0.100
661.500	59.642	0.100
661.600	56.023	0.100
661.700	47.211	0.100
661.800	58.258	0.100
661.900	52.261	0.100
662.000	48.342	0.100
662.100	58.306	0.100
662.200	51.576	0.100
662.300	47.864	0.100
662.400	50.133	0.100
662.500	50.398	0.100
662.600	44.561	0.100
662.700	41.858	0.100
662.800	45.968	0.100
662.900	57.979	0.100
663.000	53.460	0.100
663.100	54.055	0.100
663.200	50.435	0.100
663.300	52.215	0.100
663.400	52.005	0.100
663.500	56.972	0.100
663.600	52.907	0.100
663.700	44.704	0.100
663.800	50.909	0.100
663.900	44.969	0.100
664.000	55.679	0.100
664.100	57.061	0.100
664.200	53.731	0.100
664.300	44.990	0.100
664.400	43.134	0.100
664.500	50.265	0.100
664.600	52.849	0.100
664.700	57.215	0.100
664.800	57.215	0.100
664.900	63.705	0.100
665.000	53.451	0.100
665.100	51.110	0.100
665.200	54.160	0.100
665.300	41.849	0.100
665.400	45.060	0.100
665.500	44.809	0.100
665.600	47.254	0.100
665.700	45.921	0.100
665.800	46.652	0.100
665.900	58.688	0.100
666.000	51.095	0.100
666.100	50.392	0.100
666.200	46.908	0.100
666.300	40.275	0.100
666.400	47.852	0.100
666.500	43.320	0.100
666.600	57.045	0.100
666.700	46.854	0.100
666.800	55.204	0.100
666.900	61.013	0.100
667.000	53.069	0.100
667.100	56.827	0.100
667.200	49.607	0.100
667.300	51.376	0.100
667.400	50.950	0.100
667.500	45.049	0.100
667.600	40.415	0.100
667.700	46.891	0.100
667.800	45.979	0.100
667.900	48.918	0.100
668.000	48.494	0.100
668.100	58.242	0.100
668.200	52.579	0.100
668.300	51.366	0.100
668.400	54.336	0.100
668.500	41.999	0.100
668.600	46.160	0.100
668.700	52.772	0.100
668.800	40.921	0.100
668.900	45.192	0.100
669.000	54.295	0.100
669.100	48.647	0.100
669.200	53.410	0.100
669.300	51.148	0.100
669.400	48.770	0.100
669.500	62.004	0.100
669.600	59.249	0.100
669.700	43.728	0.100
669.800	53.722	0.100
669.900	49.280	0.100
670.000	50.901	0.100
670.100	53.008	0.100
670.200	48.905	0.100
670.300	38.677	0.100
670.400	50.438	0.100
670.500	52.727	0.100
670.600	52.397	0.100
670.700	48.275	0.100
670.800	50.168	0.100
670.900	39.027	0.100
671.000	45.196	0.100
671.100	52.833	0.100
671.200	55.340	0.100
671.300	47.123	0.100
671.400	60.349	0.100
671.500	53.818	0.100
671.600	45.318	0.100
671.700	47.049	0.100
671.800	58.601	0.100
671.900	43.519	0.100
672.000	47.580	0.100
672.100	41.858	0.100
672.200	40.639	0.100
672.300	39.149	0.100
672.400	46.071	0.100
672.500	49.564	0.100
672.600	51.685	0.100
672.700	44.935	0.100
672.800	53.545	0.100
672.900	56.973	0.100
673.000	62.272	0.100
673.100	46.272	0.100
673.200	49.448	0.100
673.300	49.821	0.100
673.400	52.279	0.100
673.500	47.844	0.100
673.600	56.137	0.100
673.700	56.098	0.100
673.800	53.889	0.100
673.900	44.942	0.100
674.000	52.427	0.100
674.100	57.708	0.100
674.200	45.811	0.100
674.300	48.748	0.100
674.400	50.660	0.100
674.500	40.255	0.100
674.600	47.224	0.100
674.700	53.227	0.100
674.800	56.136	0.100
674.900	50.195	0.100
675.000	55.564	0.100
675.100	59.800	0.100
675.200	48.884	0.100
675.300	55.994	0.100
675.400	49.245	0.100
675.500	52.876	0.100
675.600	53.296	0.100
675.700	48.655	0.100
675.800	47.116	0.100
675.900	50.972	0.100
676.000	51.298	0.100
676.100	52.541	0.100
676.200	48.342	0.100
676.300	48.015	0.100
676.400	56.803	0.100
676.500	52.624	0.100
676.600	48.371	0.100
676.700	45.345	0.100
676.800	48.849	0.100
676.900	50.712	0.100
677.000	52.248	0.100
677.100	46.306	0.100
677.200	51.728	0.100
677.300	56.026	0.100
677.400	55.882	0.100
677.500	52.191	0.100
677.600	52.741	0.100
677.700	44.043	0.100
677.800	51.396	0.100
677.900	57.307	0.100
678.000	53.679	0.100
678.100	52.597	0.100
678.200	50.028	0.100
678.300	53.084	0.100
678.400	51.466	0.100
678.500	52.255	0.100
678.600	56.607	0.100
678.700	41.422	0.100
678.800	50.986	0.100
678.900	50.569	0.100
679.000	41.829	0.100
679.100	52.931	0.100
679.200	47.612	0.100
679.300	58.325	0.100
679.400	39.966	0.100
679.500	47.506	0.100
679.600	44.251	0.100
679.700	46.588	0.100
679.800	54.813	0.100
679.900	57.429	0.100
680.000	53.558	0.100
680.100	52.758	0.100
680.200	47.480	0.100
680.300	45.120	0.100
680.400	52.077	0.100
680.500	60.639	0.100
680.600	49.798	0.100
680.700	42.292	0.100
680.800	51.657	0.100
680.900	63.005	0.100
681.000	49.874	0.100
681.100	43.436	0.100
681.200	45.161	0.100
681.300	39.654	0.100
681.400	52.981	0.100
681.500	52.629	0.100
681.600	52.166	0.100
681.700	44.907	0.100
681.800	53.547	0.100
681.900	45.339	0.100
682.000	40.724	0.100
682.100	51.939	0.100
682.200	52.399	0.100
682.300	56.407	0.100
682.400	51.123	0.100
682.500	43.046	0.100
682.600	56.274	0.100
682.700	54.970	0.100
682.800	50.663	0.100
682.900	51.281	0.100
683.000	52.805	0.100
683.100	54.407	0.100
683.200	54.234	0.100
683.300	44.840	0.100
683.400	49.688	0.100
683.500	48.088	0.100
683.600	45.818	0.100
683.700	47.688	0.100
683.800	47.239	0.100
683.900	49.197	0.100
684.000	47.002	0.100
684.100	45.456	0.100
684.200	39.449	0.100
684.300	54.356	0.100
684.400	48.800	0.100
684.500	54.608	0.100
684.600	56.506	0.100
684.700	45.041	0.100
684.800	62.883	0.100
684.900	54.121	0.100
685.000	53.288	0.100
685.100	47.713	0.100
685.200	52.516	0.100
685.300	51.339	0.100
685.400	48.491	0.100
685.500	39.994	0.100
685.600	53.872	0.100
685.700	52.427	0.100
685.800	40.529	0.100
685.900	48.462	0.100
686.000	52.928	0.100
686.100	40.810	0.100
686.200	51.830	0.100
686.300	50.248	0.100
686.400	41.617	0.100
686.500	40.073	0.100
686.600	55.949	0.100
686.700	51.045	0.100
686.800	61.531	0.100
686.900	42.202	0.100
687.000	49.173	0.100
687.100	42.668	0.100
687.200	57.139	0.100
687.300	57.392	0.100
687.400	48.987	0.100
687.500	52.414	0.100
687.600	57.628	0.100
687.700	47.151	0.100
687.800	43.958	0.100
687.900	42.410	0.100
688.000	39.865	0.100
688.100	55.462	0.100
688.200	55.362	0.100
688.300	43.222	0.100
688.400	39.848	0.100
688.500	51.134	0.100
688.600	45.438	0.100
688.700	55.557	0.100
688.800	44.669	0.100
688.900	47.213	0.100
689.000	48.390	0.100
689.100	55.515	0.100
689.200	46.977	0.100
689.300	59.681	0.100
689.400	51.019	0.100
689.500	46.107	0.100
689.600	49.588	0.100
689.700	57.486	0.100
689.800	53.411	0.100
689.900	41.977	0.100
690.000	43.639	0.100
690.100	48.898	0.100
690.200	53.513	0.100
690.300	46.990	0.100
690.400	52.227	0.100
690.500	51.286	0.100
690.600	39.685	0.100
690.700	43.208	0.100
690.800	48.134	0.100
690.900	39.132	0.100
691.000	36.699	0.100
691.100	39.469	0.100
691.200	25.849	0.100
691.300	26.872	0.100
691.400	24.151	0.100
691.500	18.598	0.100
691.600	15.175	0.100
691.700	18.998	0.100
691.800	15.765	0.100
691.900	10.463	0.100
692.000	16.102	0.100
692.100	9.287	0.100
692.200	7.133	0.100
692.300	4.665	0.100
692.400	9.084	0.100
692.500	-0.193	0.100
692.600	2.514	0.100
692.700	11.725	0.100
692.800	8.799	0.100
692.900	17.217	0.100
693.000	-4.916	0.100
693.100	0.076	0.100
693.200	0.346	0.100
693.300	-4.699	0.100
693.400	-8.989	0.100
693.500	3.239	0.100
693.600	4.355	0.100
693.700	-3.190	0.100
693.800	-1.940	0.100
693.900	3.163	0.100
694.000	-10.583	0.100
694.100	-9.343	0.100
694.200	-4.451	0.100
694.300	-12.764	0.100
694.400	-8.596	0.100
694.500	-6.468	0.100
694.600	-7.568	0.100
694.700	-4.843	0.100
694.800	-7.014	0.100
694.900	-7.757	0.100
695.000	-11.861	0.100
695.100	-9.747	0.100
695.200	5.319	0.100
695.300	-12.374	0.100
695.400	-2.561	0.100
695.500	-2.465	0.100
695.600	-9.740	0.100
695.700	-12.318	0.100
695.800	-1.283	0.100
695.900	-1.187	0.100
696.000	-0.514	0.100
696.100	1.625	0.100
696.200	-12.211	0.100
696.300	-10.200	0.100
696.400	-9.797	0.100
696.500	-7.624	0.100
696.600	-4.180	0.100
696.700	-5.315	0.100
696.800	-7.522	0.100
696.900	-18.496	0.100
697.000	-2.845	0.100
697.100	-13.224	0.100
697.200	-1.450	0.100
697.300	-0.527	0.100
697.400	-8.595	0.100
697.500	-6.898	0.100
697.600	-16.577	0.100
697.700	-10.175	0.100
697.800	-7.954	0.100
697.900	-1.272	0.100
698.000	-6.395	0.100
698.100	-25.719	0.100
698.200	-12.357	0.100
698.300	-16.537	0.100
698.400	-3.151	0.100
698.500	-5.252	0.100
698.600	-10.801	0.100
698.700	-7.275	0.100
698.800	-18.572	0.100
698.900	-8.277	0.100
699.000	-7.399	0.100
699.100	-9.055	0.100
699.200	-10.279	0.100
699.300	-18.187	0.100
699.400	-15.184	0.100
699.500	-11.851	0.100
699.600	-11.066	0.100
699.700	-8.030	0.100
699.800	-16.295	0.100
699.900	-6.890	0.100
700.000	-4.374	0.100
700.100	-5.448	0.100
700.200	-18.165	0.100
700.300	-11.833	0.100
700.400	-12.348	0.100
700.500	-5.345	0.100
700.600	-10.907	0.100
700.700	-12.545	0.100
700.800	-6.382	0.100
700.900	-19.361	0.100
701.000	-12.597	0.100
701.100	-12.451	0.100
701.200	-19.304	0.100
701.300	-11.318	0.100
701.400	-8.558	0.100
701.500	-4.871	0.100
701.600	-15.852	0.100
701.700	-15.344	0.100
701.800	-12.176	0.100
701.900	-15.529	0.100
702.000	-16.070	0.100
702.100	-15.843	0.100
702.200	-8.220	0.100
702.300	-19.227	0.100
702.400	-10.980	0.100
702.500	-12.457	0.100
702.600	-13.113	0.100
702.700	-15.781	0.100
702.800	-14.125	0.100
702.900	-19.511	0.100
703.000	-19.786	0.100
703.100	-18.512	0.100
703.200	-24.002	0.100
703.300	-12.263	0.100
703.400	-18.846	0.100
703.500	-23.312	0.100
703.600	-8.413	0.100
703.700	-11.699	0.100
703.800	-14.615	0.100
703.900	-12.173	0.100
704.000	-18.586	0.100
704.100	-20.800	0.100
704.200	-16.004	0.100
704.300	-22.703	0.100
704.400	-21.263	0.100
704.500	-14.987	0.100
704.600	-9.837	0.100
704.700	-18.150	0.100
704.800	-23.053	0.100
704.900	-13.101	0.100
705.000	-27.200	0.100
705.100	-20.048	0.100
705.200	-17.687	0.100
705.300	-10.781	0.100
705.400	-20.257	0.100
705.500	-15.110	0.100
705.600	-25.844	0.100
705.700	-12.499	0.100
705.800	-19.597	0.100
705.900	-22.086	0.100
706.000	-15.084	0.100
706.100	-16.531	0.100
706.200	-19.823	0.100
706.300	-8.988	0.100
706.400	-22.620	0.100
706.500	-14.795	0.100
706.600	-16.251	0.100
706.700	-25.648	0.100
706.800	-16.327	0.100
706.900	-20.593	0.100
707.000	-18.781	0.100
707.100	-31.747	0.100
707.200	-12.286	0.100
707.300	-26.387	0.100
707.400	-24.785	0.100
707.500	-20.099	0.100
707.600	-19.978	0.100
707.700	-21.143	0.100
707.800	-21.048	0.100
707.900	-14.358	0.100
708.000	-13.677	0.100
708.100	-15.285	0.100
708.200	-22.032	0.100
708.300	-27.963	0.100
708.400	-22.386	0.100
708.500	-26.515	0.100
708.600	-24.963	0.100
708.700	-26.024	0.100
708.800	-31.235	0.100
708.900	-17.351	0.100
709.000	-26.133	0.100
709.100	-19.620	0.100
709.200	-18.436	0.100
709.300	-22.029	0.100
709.400	-29.221	0.100
709.500	-31.697	0.100
709.600	-16.177	0.100
709.700	-17.199	0.100
709.800	-29.025	0.100
709.900	-24.787	0.100
710.000	-37.386	0.100
710.100	-25.000	0.100
710.200	-23.070	0.100
710.300	-29.498	0.100
710.400	-23.002	0.100
710.500	-29.024	0.100
710.600	-17.166	0.100
710.700	-17.995	0.100
710.800	-28.512	0.100
710.900	-20.102	0.100
711.000	-27.779	0.100
711.100	-34.000	0.100
711.200	-29.307	0.100
711.300	-31.024	0.100
711.400	-25.161	0.100
711.500	-24.880	0.100
711.600	-25.229	0.100
711.700	-33.983	0.100
711.800	-29.465	0.100
711.900	-20.130	0.100
712.000	-24.114	0.100
712.100	-27.615	0.100
712.200	-20.545	0.100
712.300	-27.416	0.100
712.400	-24.889	0.100
712.500	-23.102	0.100
712.600	-34.667	0.100
712.700	-19.938	0.100
712.800	-21.690	0.100
712.900	-23.292	0.100
713.000	-29.354	0.100
713.100	-33.513	0.100
713.200	-34.536	0.100
713.300	-34.527	0.100
713.400	-34.071	0.100
713.500	-24.189	0.100
713.600	-31.351	0.100
713.700	-22.526	0.100
713.800	-33.221	0.100
713.900	-25.735	0.100
714.000	-27.730	0.100
714.100	-27.224	0.100
714.200	-30.443	0.100
714.300	-30.928	0.100
714.400	-32.043	0.100
714.500	-26.992	0.100
714.600	-39.902	0.100
714.700	-26.528	0.100
714.800	-16.488	0.100
714.900	-22.701	0.100
715.000	-35.132	0.100
715.100	-30.697	0.100
715.200	-24.477	0.100
715.300	-32.158	0.100
715.400	-41.522	0.100
715.500	-30.998	0.100
715.600	-33.777	0.100
715.700	-29.332	0.100
715.800	-30.956	0.100
715.900	-26.708	0.100
716.000	-30.837	0.100
716.100	-29.920	0.100
716.200	-26.963	0.100
716.300	-33.987	0.100
716.400	-36.574	0.100
716.500	-28.836	0.100
716.600	-28.010	0.100
716.700	-28.247	0.100
716.800	-30.649	0.100
716.900	-24.175	0.100
717.000	-27.382	0.100
717.100	-31.984	0.100
717.200	-30.133	0.100
717.300	-36.817	0.100
717.400	-29.582	0.100
717.500	-33.463	0.100
717.600	-21.525	0.100
717.700	-22.581	0.100
717.800	-35.258	0.100
717.900	-41.758	0.100
718.000	-31.280	0.100
718.100	-25.883	0.100
718.200	-36.117	0.100
718.300	-36.771	0.100
718.400	-25.115	0.100
718.500	-23.467	0.100
718.600	-26.886	0.100
718.700	-29.402	0.100
718.800	-32.446	0.100
718.900	-43.129	0.100
719.000	-32.192	0.100
719.100	-31.362	0.100
719.200	-34.335	0.100
719.300	-44.302	0.100
719.400	-30.334	0.100
719.500	-36.535	0.100
719.600	-30.049	0.100
719.700	-31.901	0.100
719.800	-31.236	0.100
719.900	-44.479	0.100
720.000	-35.443	0.100
720.100	-32.152	0.100
720.200	-38.483	0.100
720.300	-31.500	0.100
720.400	-28.341	0.100
720.500	-36.782	0.100
720.600	-37.495	0.100
720.700	-44.683	0.100
720.800	-35.944	0.100
720.900	-35.264	0.100
721.000	-36.966	0.100
721.100	-35.174	0.100
721.200	-33.341	0.100
721.300	-42.058	0.100
721.400	-32.865	0.100
721.500	-28.707	0.100
721.600	-33.376	0.100
721.700	-41.729	0.100
721.800	-38.308	0.100
721.900	-35.929	0.100
722.000	-37.664	0.100
722.100	-34.548	0.100
722.200	-40.984	0.100
722.300	-36.900	0.100
722.400	-29.573	0.100
722.500	-37.234	0.100
722.600	-36.552	0.100
722.700	-28.098	0.100
722.800	-44.687	0.100
722.900	-38.795	0.100
723.000	-40.913	0.100
723.100	-39.463	0.100
723.200	-28.883	0.100
723.300	-17.627	0.100
723.400	-35.500	0.100
723.500	-43.030	0.100
723.600	-38.634	0.100
723.700	-42.514	0.100
723.800	-36.508	0.100
723.900	-35.527	0.100
724.000	-43.798	0.100
724.100	-30.592	0.100
724.200	-43.442	0.100
724.300	-36.552	0.100
724.400	-39.927	0.100
724.500	-34.823	0.100
724.600	-37.986	0.100
724.700	-42.703	0.100
724.800	-36.980	0.100
724.900	-39.474	0.100
725.000	-45.923	0.100
725.100	-34.808	0.100
725.200	-35.019	0.100
725.300	-39.764	0.100
725.400	-33.143	0.100
725.500	-42.036	0.100
725.600	-39.690	0.100
725.700	-48.135	0.100
725.800	-41.911	0.100
725.900	-36.726	0.100
726.000	-31.855	0.100
726.100	-30.517	0.100
726.200	-31.045	0.100
726.300	-38.919	0.100
726.400	-44.761	0.100
726.500	-36.141	0.100
726.600	-30.632	0.100
726.700	-42.961	0.100
726.800	-33.427	0.100
726.900	-37.160	0.100
727.000	-28.341	0.100
727.100	-40.570	0.100
727.200	-39.152	0.100
727.300	-36.603	0.100
727.400	-33.632	0.100
727.500	-37.217	0.100
727.600	-38.416	0.100
727.700	-40.348	0.100
727.800	-35.379	0.100
727.900	-34.610	0.100
728.000	-39.287	0.100
728.100	-37.065	0.100
728.200	-38.712	0.100
728.300	-43.289	0.100
728.400	-36.662	0.100
728.500	-35.801	0.100
728.600	-36.855	0.100
728.700	-33.840	0.100
728.800	-45.398	0.100
728.900	-37.133	0.100
729.000	-40.811	0.100
729.100	-37.690	0.100
729.200	-50.985	0.100
729.300	-30.462	0.100
729.400	-26.175	0.100
729.500	-37.732	0.100
729.600	-37.234	0.100
729.700	-42.796	0.100
729.800	-44.767	0.100
729.900	-41.828	0.100
730.000	-27.789	0.100
730.100	-30.115	0.100
730.200	-43.152	0.100
730.300	-49.314	0.100
730.400	-35.938	0.100
730.500	-45.924	0.100
730.600	-33.738	0.100
730.700	-37.329	0.100
730.800	-41.151	0.100
730.900	-38.883	0.100
731.000	-42.947	0.100
731.100	-38.630	0.100
731.200	-40.709	0.100
731.300	-52.111	0.100
731.400	-43.245	0.100
731.500	-41.520	0.100
731.600	-28.408	0.100
731.700	-34.202	0.100
731.800	-42.244	0.100
731.900	-37.788	0.100
732.000	-46.914	0.100
732.100	-41.404	0.100
732.200	-42.460	0.100
732.300	-41.762	0.100
732.400	-36.954	0.100
732.500	-40.374	0.100
732.600	-41.911	0.100
732.700	-32.163	0.100
732.800	-38.277	0.100
732.900	-34.366	0.100
733.000	-38.180	0.100
733.100	-46.460	0.100
733.200	-47.727	0.100
733.300	-42.393	0.100
733.400	-43.867	0.100
733.500	-43.392	0.100
733.600	-40.750	0.100
733.700	-33.555	0.100
733.800	-41.436	0.100
733.900	-43.226	0.100
734.000	-38.938	0.100
734.100	-40.163	0.100
734.200	-38.716	0.100
734.300	-40.668	0.100
734.400	-43.442	0.100
734.500	-37.784	0.100
734.600	-43.176	0.100
734.700	-39.830	0.100
734.800	-38.326	0.100
734.900	-42.156	0.100
735.000	-38.538	0.100
735.100	-30.842	0.100
735.200	-34.646	0.100
735.300	-43.362	0.100
735.400	-37.191	0.100
735.500	-51.049	0.100
735.600	-38.236	0.100
735.700	-29.068	0.100
735.800	-31.715	0.100
735.900	-39.017	0.100
736.000	-46.992	0.100
736.100	-42.483	0.100
736.200	-39.522	0.100
736.300	-31.269	0.100
736.400	-42.883	0.100
736.500	-26.875	0.100
736.600	-37.718	0.100
736.700	-35.161	0.100
736.800	-46.786	0.100
736.900	-43.674	0.100
737.000	-43.768	0.100
737.100	-46.404	0.100
737.200	-36.971	0.100
737.300	-50.547	0.100
737.400	-35.779	0.100
737.500	-34.968	0.100
737.600	-46.500	0.100
737.700	-39.659	0.100
737.800	-33.730	0.100
737.900	-37.685	0.100
738.000	-45.423	0.100
738.100	-45.266	0.100
738.200	-33.415	0.100
738.300	-26.249	0.100
738.400	-33.023	0.100
738.500	-45.522	0.100
738.600	-38.973	0.100
738.700	-39.740	0.100
738.800	-40.782	0.100
738.900	-29.522	0.100
739.000	-32.723	0.100
739.100	-36.984	0.100
739.200	-38.398	0.100
739.300	-46.146	0.100
739.400	-44.206	0.100
739.500	-44.317	0.100
739.600	-32.839	0.100
739.700	-37.748	0.100
739.800	-44.869	0.100
739.900	-38.709	0.100
740.000	-38.839	0.100
740.100	-30.942	0.100
740.200	-43.973	0.100
740.300	-41.632	0.100
740.400	-41.220	0.100
740.500	-35.018	0.100
740.600	-30.387	0.100
740.700	-36.107	0.100
740.800	-31.932	0.100
740.900	-47.614	0.100
741.000	-51.460	0.100
741.100	-36.009	0.100
741.200	-30.278	0.100
741.300	-44.065	0.100
741.400	-31.351	0.100
741.500	-40.042	0.100
741.600	-38.700	0.100
741.700	-47.624	0.100
741.800	-49.789	0.100
741.900	-27.257	0.100
742.000	-42.188	0.100
742.100	-38.159	0.100
742.200	-38.766	0.100
742.300	-55.058	0.100
742.400	-39.596	0.100
742.500	-38.234	0.100
742.600	-37.198	0.100
742.700	-44.908	0.100
742.800	-39.485	0.100
742.900	-32.019	0.100
743.000	-49.897	0.100
743.100	-37.238	0.100
743.200	-44.242	0.100
743.300	-45.106	0.100
743.400	-35.356	0.100
743.500	-33.901	0.100
743.600	-46.732	0.100
743.700	-36.152	0.100
743.800	-35.721	0.100
743.900	-40.852	0.100
744.000	-40.180	0.100
744.100	-45.960	0.100
744.200	-33.878	0.100
744.300	-36.485	0.100
744.400	-30.393	0.100
744.500	-41.156	0.100
744.600	-34.898	0.100
744.700	-46.972	0.100
744.800	-39.526	0.100
744.900	-50.479	0.100
745.000	-42.443	0.100
745.100	-42.082	0.100
745.200	-29.659	0.100
745.300	-36.056	0.100
745.400	-36.533	0.100
745.500	-29.348	0.100
745.600	-42.616	0.100
745.700	-40.017	0.100
745.800	-39.795	0.100
745.900	-44.088	0.100
746.000	-36.930	0.100
746.100	-36.083	0.100
746.200	-34.881	0.100
746.300	-35.350	0.100
746.400	-34.303	0.100
746.500	-44.550	0.100
746.600	-44.464	0.100
746.700	-37.650	0.100
746.800	-34.097	0.100
746.900	-43.644	0.100
747.000	-36.469	0.100
747.100	-40.232	0.100
747.200	-34.176	0.100
747.300	-30.924	0.100
747.400	-42.110	0.100
747.500	-38.478	0.100
747.600	-38.736	0.100
747.700	-38.608	0.100
747.800	-30.193	0.100
747.900	-38.080	0.100
748.000	-40.621	0.100
748.100	-44.744	0.100
748.200	-38.719	0.100
748.300	-38.194	0.100
748.400	-38.838	0.100
748.500	-33.859	0.100
748.600	-35.470	0.100
748.700	-40.921	0.100
748.800	-41.336	0.100
748.900	-44.441	0.100
749.000	-34.269	0.100
749.100	-39.739	0.100
749.200	-37.387	0.100
749.300	-47.873	0.100
749.400	-37.141	0.100
749.500	-33.795	0.100
749.600	-33.172	0.100
749.700	-28.966	0.100
749.800	-31.642	0.100
749.900	-40.813	0.100
750.000	-47.385	0.100
750.100	-37.782	0.100
750.200	-40.370	0.100
750.300	-44.787	0.100
750.400	-42.166	0.100
750.500	-39.205	0.100
750.600	-39.799	0.100
750.700	-37.828	0.100
750.800	-41.424	0.100
750.900	-37.736	0.100
751.000	-35.893	0.100
751.100	-40.187	0.100
751.200	-42.538	0.100
751.300	-29.287	0.100
751.400	-39.260	0.100
751.500	-30.016	0.100
751.600	-47.355	0.100
751.700	-36.148	0.100
751.800	-38.043	0.100
751.900	-26.945	0.100
752.000	-23.730	0.100
752.100	-26.785	0.100
752.200	-38.393	0.100
752.300	-36.594	0.100
752.400	-41.385	0.100
752.500	-42.488	0.100
752.600	-36.240	0.100
752.700	-41.345	0.100
752.800	-39.982	0.100
752.900	-31.250	0.100
753.000	-44.718	0.100
753.100	-32.375	0.100
753.200	-34.251	0.100
753.300	-33.632	0.100
753.400	-35.962	0.100
753.500	-41.764	0.100
753.600	-41.762	0.100
753.700	-32.293	0.100
753.800	-38.422	0.100
753.900	-33.841	0.100
754.000	-40.305	0.100
754.100	-33.906	0.100
754.200	-44.176	0.100
754.300	-42.030	0.100
754.400	-42.627	0.100
754.500	-37.667	0.100
754.600	-36.433	0.100
754.700	-36.594	0.100
754.800	-37.997	0.100
754.900	-30.346	0.100
755.000	-31.654	0.100
755.100	-41.480	0.100
755.200	-40.007	0.100
755.300	-37.798	0.100
755.400	-38.806	0.100
755.500	-41.960	0.100
755.600	-30.069	0.100
755.700	-33.131	0.100
755.800	-39.903	0.100
755.900	-40.063	0.100
756.000	-42.499	0.100
756.100	-36.277	0.100
756.200	-37.539	0.100
756.300	-42.719	0.100
756.400	-37.390	0.100
756.500	-37.980	0.100
756.600	-35.296	0.100
756.700	-46.449	0.100
756.800	-36.357	0.100
756.900	-38.158	0.100
757.000	-32.780	0.100
757.100	-38.032	0.100
757.200	-40.616	0.100
757.300	-38.635	0.100
757.400	-36.566	0.100
757.500	-28.698	0.100
757.600	-34.512	0.100
757.700	-31.486	0.100
757.800	-37.080	0.100
757.900	-36.241	0.100
758.000	-36.587	0.100
758.100	-36.416	0.100
758.200	-36.377	0.100
758.300	-39.032	0.100
758.400	-41.178	0.100
758.500	-29.772	0.100
758.600	-33.867	0.100
758.700	-38.797	0.100
758.800	-25.840	0.100
758.900	-32.459	0.100
759.000	-27.881	0.100
759.100	-34.690	0.100
759.200	-43.961	0.100
759.300	-40.412	0.100
759.400	-33.685	0.100
759.500	-29.936	0.100
759.600	-41.432	0.100
759.700	-25.850	0.100
759.800	-41.083	0.100
759.900	-35.765	0.100
760.000	-31.555	0.100
760.100	-29.572	0.100
760.200	-31.988	0.100
760.300	-32.064	0.100
760.400	-40.856	0.100
760.500	-38.602	0.100
760.600	-41.848	0.100
760.700	-40.835	0.100
760.800	-33.051	0.100
760.900	-36.575	0.100
761.000	-35.994	0.100
761.100	-36.728	0.100
761.200	-30.614	0.100
761.300	-39.148	0.100
761.400	-30.879	0.100
761.500	-31.129	0.100
761.600	-37.740	0.100
761.700	-42.803	0.100
761.800	-39.799	0.100
761.900	-41.065	0.100
762.000	-27.716	0.100
762.100	-33.638	0.100
762.200	-36.760	0.100
762.300	-30.142	0.100
762.400	-33.172	0.100
762.500	-36.447	0.100
762.600	-29.408	0.100
762.700	-35.900	0.100
762.800	-27.636	0.100
762.900	-36.718	0.100
763.000	-42.056	0.100
763.100	-33.890	0.100
763.200	-29.474	0.100
763.300	-34.613	0.100
763.400	-43.627	0.100
763.500	-40.608	0.100
763.600	-34.159	0.100
763.700	-29.256	0.100
763.800	-31.874	0.100
763.900	-40.962	0.100
764.000	-35.880	0.100
764.100	-34.765	0.100
764.200	-37.178	0.100
764.300	-23.702	0.100
764.400	-27.363	0.100
764.500	-31.702	0.100
764.600	-41.781	0.100
764.700	-38.104	0.100
764.800	-46.152	0.100
764.900	-30.858	0.100
765.000	-23.610	0.100
765.100	-28.313	0.100
765.200	-30.776	0.100
765.300	-34.269	0.100
765.400	-33.364	0.100
765.500	-36.250	0.100
765.600	-40.616	0.100
765.700	-42.839	0.100
765.800	-37.889	0.100
765.900	-40.987	0.100
766.000	-39.519	0.100
766.100	-29.735	0.100
766.200	-35.837	0.100
766.300	-38.738	0.100
766.400	-36.805	0.100
766.500	-31.827	0.100
766.600	-36.567	0.100
766.700	-30.168	0.100
766.800	-27.579	0.100
766.900	-38.558	0.100
767.000	-34.016	0.100
767.100	-34.912	0.100
767.200	-40.165	0.100
767.300	-37.557	0.100
767.400	-39.598	0.100
767.500	-30.168	0.100
767.600	-36.041	0.100
767.700	-34.760	0.100
767.800	-28.390	0.100
767.900	-29.450	0.100
768.000	-28.031	0.100
768.100	-28.517	0.100
768.200	-43.854	0.100
768.300	-29.750	0.100
768.400	-33.537	0.100
768.500	-33.805	0.100
768.600	-31.723	0.100
768.700	-37.562	0.100
768.800	-30.260	0.100
768.900	-36.006	0.100
769.000	-33.537	0.100
769.100	-35.172	0.100
769.200	-36.083	0.100
769.300	-38.377	0.100
769.400	-36.154	0.100
769.500	-47.840	0.100
769.600	-39.502	0.100
769.700	-30.937	0.100
769.800	-32.022	0.100
769.900	-33.649	0.100
770.000	-35.194	0.100
770.100	-30.476	0.100
770.200	-37.775	0.100
770.300	-34.184	0.100
770.400	-43.936	0.100
770.500	-31.633	0.100
770.600	-38.568	0.100
770.700	-22.551	0.100
770.800	-32.536	0.100
770.900	-37.759	0.100
771.000	-38.439	0.100
771.100	-31.742	0.100
771.200	-31.129	0.100
771.300	-42.263	0.100
771.400	-35.363	0.100
771.500	-36.248	0.100
771.600	-29.900	0.100
771.700	-36.166	0.100
771.800	-32.556	0.100
771.900	-29.408	0.100
772.000	-21.595	0.100
772.100	-29.776	0.100
772.200	-31.467	0.100
772.300	-39.275	0.100
772.400	-38.538	0.100
772.500	-32.065	0.100
772.600	-33.538	0.100
772.700	-32.117	0.100
772.800	-50.800	0.100
772.900	-33.589	0.100
773.000	-33.398	0.100
773.100	-31.134	0.100
773.200	-34.859	0.100
773.300	-36.542	0.100
773.400	-31.845	0.100
773.500	-31.707	0.100
773.600	-33.366	0.100
773.700	-32.679	0.100
773.800	-33.885	0.100
773.900	-41.036	0.100
774.000	-31.555	0.100
774.100	-21.230	0.100
774.200	-34.061	0.100
774.300	-33.088	0.100
774.400	-32.846	0.100
774.500	-32.425	0.100
774.600	-38.546	0.100
774.700	-27.824	0.100
774.800	-29.285	0.100
774.900	-37.296	0.100
775.000	-39.998	0.100
775.100	-36.130	0.100
775.200	-24.260	0.100
775.300	-30.966	0.100
775.400	-38.011	0.100
775.500	-35.110	0.100
775.600	-32.473	0.100
775.700	-28.589	0.100
775.800	-31.978	0.100
775.900	-28.809	0.100
776.000	-31.471	0.100
776.100	-39.196	0.100
776.200	-32.061	0.100
776.300	-37.857	0.100
776.400	-32.732	0.100
776.500	-33.820	0.100
776.600	-29.509	0.100
776.700	-26.159	0.100
776.800	-31.186	0.100
776.900	-34.379	0.100
777.000	-32.004	0.100
777.100	-34.057	0.100
777.200	-31.450	0.100
777.300	-31.141	0.100
777.400	-36.075	0.100
777.500	-45.325	0.100
777.600	-51.360	0.100
777.700	-35.312	0.100
777.800	-28.816	0.100
777.900	-34.595	0.100
778.000	-28.028	0.100
778.100	-21.360	0.100
778.200	-35.570	0.100
778.300	-32.321	0.100
778.400	-35.123	0.100
778.500	-41.444	0.100
778.600	-37.949	0.100
778.700	-30.571	0.100
778.800	-40.228	0.100
778.900	-26.458	0.100
779.000	-34.741	0.100
779.100	-36.321	0.100
779.200	-31.224	0.100
779.300	-28.845	0.100
779.400	-22.766	0.100
779.500	-45.602	0.100
779.600	-31.522	0.100
779.700	-26.595	0.100
779.800	-30.647	0.100
779.900	-35.613	0.100
780.000	-41.534	0.100
780.100	-30.526	0.100
780.200	-24.389	0.100
780.300	-36.605	0.100
780.400	-34.183	0.100
780.500	-30.621	0.100
780.600	-27.750	0.100
780.700	-24.742	0.100
780.800	-30.969	0.100
780.900	-22.022	0.100
781.000	-19.415	0.100
781.100	-23.740	0.100
781.200	-30.169	0.100
781.300	-27.293	0.100
781.400	-22.790	0.100
781.500	-20.602	0.100
781.600	-16.320	0.100
781.700	-11.297	0.100
781.800	-16.691	0.100
781.900	3.845	0.100
782.000	1.826	0.100
782.100	-0.316	0.100
782.200	-7.583	0.100
782.300	-12.782	0.100
782.400	-12.574	0.100
782.500	-15.795	0.100
782.600	-3.327	0.100
782.700	-5.700	0.100
782.800	0.861	0.100
782.900	1.204	0.100
783.000	-2.189	0.100
783.100	-9.224	0.100
783.200	0.523	0.100
783.300	5.688	0.100
783.400	1.687	0.100
783.500	-1.661	0.100
783.600	-1.249	0.100
783.700	0.680	0.100
783.800	4.652	0.100
783.900	-1.074	0.100
784.000	7.427	0.100
784.100	8.460	0.100
784.200	9.249	0.100
784.300	-5.339	0.100
784.400	1.836	0.100
784.500	6.697	0.100
784.600	3.109	0.100
784.700	-1.650	0.100
784.800	6.625	0.100
784.900	0.484	0.100
785.000	7.435	0.100
785.100	0.502	0.100
785.200	-2.290	0.100
785.300	6.061	0.100
785.400	9.757	0.100
785.500	-2.377	0.100
785.600	2.089	0.100
785.700	0.684	0.100
785.800	10.535	0.100
785.900	9.145	0.100
786.000	1.402	0.100
786.100	-9.185	0.100
786.200	2.203	0.100
786.300	4.373	0.100
786.400	4.248	0.100
786.500	3.751	0.100
786.600	-9.491	0.100
786.700	4.399	0.100
786.800	8.443	0.100
786.900	-3.533	0.100
787.000	0.171	0.100
787.100	6.355	0.100
787.200	14.305	0.100
787.300	4.145	0.100
787.400	-4.757	0.100
787.500	9.236	0.100
787.600	-0.665	0.100
787.700	5.354	0.100
787.800	-2.082	0.100
787.900	-4.039	0.100
788.000	-1.176	0.100
788.100	9.077	0.100
788.200	9.439	0.100
788.300	0.544	0.100
788.400	4.033	0.100
788.500	4.900	0.100
788.600	3.248	0.100
788.700	10.152	0.100
788.800	3.226	0.100
788.900	-1.427	0.100
789.000	2.833	0.100
789.100	2.081	0.100
789.200	6.280	0.100
789.300	14.505	0.100
789.400	14.588	0.100
789.500	2.492	0.100
789.600	0.760	0.100
789.700	5.174	0.100
789.800	0.401	0.100
789.900	3.699	0.100
790.000	3.637	0.100
790.100	14.492	0.100
790.200	8.376	0.100
790.300	3.034	0.100
790.400	16.671	0.100
790.500	9.022	0.100
790.600	11.353	0.100
790.700	11.263	0.100
790.800	14.799	0.100
790.900	2.102	0.100
791.000	13.031	0.100
791.100	10.816	0.100
791.200	14.044	0.100
791.300	6.811	0.100
791.400	7.864	0.100
791.500	14.084	0.100
791.600	8.870	0.100
791.700	12.610	0.100
791.800	10.229	0.100
791.900	3.575	0.100
792.000	12.584	0.100
792.100	7.792	0.100
792.200	7.791	0.100
792.300	9.545	0.100
792.400	12.463	0.100
792.500	17.737	0.100
792.600	12.400	0.100
792.700	16.245	0.100
792.800	15.429	0.100
792.900	16.391	0.100
793.000	21.347	0.100
793.100	17.866	0.100
793.200	17.710	0.100
793.300	18.672	0.100
793.400	10.259	0.100
793.500	15.640	0.100
793.600	18.035	0.100
793.700	30.126	0.100
793.800	15.336	0.100
793.900	17.623	0.100
794.000	17.096	0.100
794.100	21.064	0.100
794.200	30.698	0.100
794.300	28.704	0.100
794.400	22.526	0.100
794.500	26.994	0.100
794.600	15.203	0.100
794.700	20.807	0.100
794.800	16.046	0.100
794.900	28.859	0.100
795.000	32.169	0.100
795.100	22.700	0.100
795.200	20.216	0.100
795.300	24.537	0.100
795.400	23.539	0.100
795.500	24.148	0.100
795.600	26.094	0.100
795.700	28.735	0.100
795.800	29.985	0.100
795.900	27.483	0.100
796.000	35.669	0.100
796.100	33.902	0.100
796.200	35.938	0.100
796.300	42.133	0.100
796.400	32.927	0.100
796.500	26.593	0.100
796.600	33.217	0.100
796.700	42.397	0.100
796.800	33.062	0.100
796.900	24.864	0.100
797.000	40.127	0.100
797.100	34.882	0.100
797.200	28.857	0.100
797.300	40.304	0.100
797.400	40.251	0.100
797.500	30.916	0.100
797.600	28.481	0.100
797.700	27.129	0.100
797.800	34.601	0.100
797.900	37.215	0.100
798.000	48.625	0.100
798.100	35.695	0.100
798.200	47.786	0.100
798.300	33.896	0.100
798.400	36.665	0.100
798.500	38.721	0.100
798.600	39.848	0.100
798.700	35.788	0.100
798.800	41.736	0.100
798.900	38.992	0.100
799.000	44.993	0.100
799.100	40.957	0.100
799.200	38.857	0.100
799.300	35.090	0.100
799.400	42.838	0.100
799.500	34.430	0.100
799.600	42.305	0.100
799.700	44.287	0.100
799.800	44.890	0.100
799.900	42.723	0.100
800.000	52.503	0.100
