time /s	I /nA	E /V
0.100	0.596	0.100
0.200	-8.117	0.100
0.300	-6.291	0.100
0.400	-6.735	0.100
0.500	-8.111	0.100
0.600	-2.765	0.100
0.700	-3.077	0.100
0.800	-4.324	0.100
0.900	-3.033	0.100
1.000	-20.687	0.100
1.100	-7.456	0.100
1.200	-2.667	0.100
1.300	-10.565	0.100
1.400	-0.823	0.100
1.500	-4.205	0.100
1.600	-12.715	0.100
1.700	-4.377	0.100
1.800	-3.430	0.100
1.900	-0.624	0.100
2.000	-7.846	0.100
2.100	-3.432	0.100
2.200	-11.138	0.100
2.300	-10.573	0.100
2.400	-3.128	0.100
2.500	-1.882	0.100
2.600	-3.922	0.100
2.700	2.282	0.100
2.800	-11.606	0.100
2.900	0.159	0.100
3.000	-12.015	0.100
3.100	2.934	0.100
3.200	-3.357	0.100
3.300	-5.351	0.100
3.400	-12.678	0.100
3.500	3.032	0.100
3.600	0.584	0.100
3.700	-8.889	0.100
3.800	-9.824	0.100
3.900	-8.842	0.100
4.000	-3.127	0.100
4.100	-0.662	0.100
4.200	-6.249	0.100
4.300	-2.652	0.100
4.400	-4.177	0.100
4.500	-13.944	0.100
4.600	-8.900	0.100
4.700	-5.101	0.100
4.800	-4.249	0.100
4.900	0.778	0.100
5.000	3.367	0.100
5.100	-5.520	0.100
5.200	-12.801	0.100
5.300	-10.412	0.100
5.400	-3.578	0.100
5.500	-2.011	0.100
5.600	-11.949	0.100
5.700	-4.258	0.100
5.800	-8.641	0.100
5.900	-13.278	0.100
6.000	-4.876	0.100
6.100	-0.090	0.100
6.200	-15.323	0.100
6.300	-10.649	0.100
6.400	-4.140	0.100
6.500	-2.743	0.100
6.600	-4.585	0.100
6.700	-11.404	0.100
6.800	-7.262	0.100
6.900	1.850	0.100
7.000	-5.799	0.100
7.100	-4.795	0.100
7.200	-12.483	0.100
7.300	-4.077	0.100
7.400	1.618	0.100
7.500	-3.891	0.100
7.600	-4.020	0.100
7.700	-3.630	0.100
7.800	-14.224	0.100
7.900	-13.414	0.100
8.000	3.536	0.100
8.100	-3.609	0.100
8.200	-8.575	0.100
8.300	-2.447	0.100
8.400	-1.786	0.100
8.500	-8.077	0.100
8.600	0.552	0.100
8.700	-8.257	0.100
8.800	0.913	0.100
8.900	-7.968	0.100
9.000	-2.558	0.100
9.100	-12.056	0.100
9.200	-5.325	0.100
9.300	-6.612	0.100
9.400	-7.615	0.100
9.500	-5.295	0.100
9.600	-1.811	0.100
9.700	-10.736	0.100
9.800	-1.847	0.100
9.900	2.577	0.100
10.000	-7.376	0.100
10.100	-8.315	0.100
10.200	-6.177	0.100
10.300	-2.721	0.100
10.400	-4.493	0.100
10.500	-2.136	0.100
10.600	-14.512	0.100
10.700	-2.785	0.100
10.800	-1.562	0.100
10.900	-5.910	0.100
11.000	-7.885	0.100
11.100	-7.115	0.100
11.200	-1.368	0.100
11.300	-9.286	0.100
11.400	-9.792	0.100
11.500	-5.597	0.100
11.600	-3.462	0.100
11.700	-8.564	0.100
11.800	-0.910	0.100
11.900	-16.402	0.100
12.000	-5.828	0.100
12.100	-10.160	0.100
12.200	-3.719	0.100
12.300	-10.547	0.100
12.400	-4.935	0.100
12.500	-4.327	0.100
12.600	4.750	0.100
12.700	-2.456	0.100
12.800	-11.160	0.100
12.900	-11.281	0.100
13.000	-3.739	0.100
13.100	-8.286	0.100
13.200	-4.845	0.100
13.300	-6.430	0.100
13.400	-2.880	0.100
13.500	-10.936	0.100
13.600	2.789	0.100
13.700	-1.501	0.100
13.800	-0.683	0.100
13.900	-8.199	0.100
14.000	-8.661	0.100
14.100	-2.375	0.100
14.200	-3.620	0.100
14.300	-5.387	0.100
14.400	-7.264	0.100
14.500	-7.201	0.100
14.600	-3.404	0.100
14.700	-20.169	0.100
14.800	-1.997	0.100
14.900	1.033	0.100
15.000	-10.045	0.100
15.100	-2.963	0.100
15.200	-3.493	0.100
15.300	-5.500	0.100
15.400	-4.435	0.100
15.500	-0.629	0.100
15.600	-4.571	0.100
15.700	-5.910	0.100
15.800	-6.141	0.100
15.900	-8.211	0.100
16.000	-6.092	0.100
16.100	-16.656	0.100
16.200	-13.616	0.100
16.300	-3.674	0.100
16.400	-6.768	0.100
16.500	2.085	0.100
16.600	-1.261	0.100
16.700	1.036	0.100
16.800	-13.587	0.100
16.900	-13.989	0.100
17.000	-3.392	0.100
17.100	-5.623	0.100
17.200	1.648	0.100
17.300	-12.348	0.100
17.400	-2.039	0.100
17.500	-1.956	0.100
17.600	-0.265	0.100
17.700	8.995	0.100
17.800	-13.118	0.100
17.900	-6.988	0.100
18.000	-9.139	0.100
18.100	-5.082	0.100
18.200	-9.843	0.100
18.300	-10.928	0.100
18.400	-7.248	0.100
18.500	-10.791	0.100
18.600	-4.223	0.100
18.700	-9.649	0.100
18.800	-4.247	0.100
18.900	-4.674	0.100
19.000	-10.245	0.100
19.100	-0.585	0.100
19.200	-0.230	0.100
19.300	-2.841	0.100
19.400	-2.713	0.100
19.500	-9.651	0.100
19.600	-8.394	0.100
19.700	-1.686	0.100
19.800	1.223	0.100
19.900	-6.100	0.100
20.000	-11.013	0.100
20.100	-2.236	0.100
20.200	-6.606	0.100
20.300	-9.311	0.100
20.400	-3.866	0.100
20.500	-1.225	0.100
20.600	-3.875	0.100
20.700	-0.907	0.100
20.800	-1.893	0.100
20.900	-4.115	0.100
21.000	-2.438	0.100
21.100	-5.728	0.100
21.200	-10.867	0.100
21.300	-9.513	0.100
21.400	-6.319	0.100
21.500	3.127	0.100
21.600	-2.687	0.100
21.700	-1.340	0.100
21.800	-7.840	0.100
21.900	-6.455	0.100
22.000	-5.997	0.100
22.100	-9.683	0.100
22.200	-12.344	0.100
22.300	-5.707	0.100
22.400	1.632	0.100
22.500	-16.425	0.100
22.600	-3.401	0.100
22.700	-6.250	0.100
22.800	-11.231	0.100
22.900	0.897	0.100
23.000	2.530	0.100
23.100	-12.243	0.100
23.200	-9.830	0.100
23.300	-4.574	0.100
23.400	-3.609	0.100
23.500	0.935	0.100
23.600	-2.802	0.100
23.700	-5.611	0.100
23.800	-9.941	0.100
23.900	-5.627	0.100
24.000	-4.264	0.100
24.100	-2.757	0.100
24.200	-11.077	0.100
24.300	1.469	0.100
24.400	-5.286	0.100
24.500	-7.981	0.100
24.600	-7.708	0.100
24.700	-3.937	0.100
24.800	-0.803	0.100
24.900	-16.636	0.100
25.000	-4.321	0.100
25.100	0.740	0.100
25.200	-1.289	0.100
25.300	-1.309	0.100
25.400	-0.289	0.100
25.500	-2.077	0.100
25.600	-3.534	0.100
25.700	0.980	0.100
25.800	-4.833	0.100
25.900	0.852	0.100
26.000	-5.334	0.100
26.100	-17.949	0.100
26.200	-5.767	0.100
26.300	-6.827	0.100
26.400	-3.701	0.100
26.500	-4.280	0.100
26.600	-12.713	0.100
26.700	-1.806	0.100
26.800	-6.453	0.100
26.900	-12.407	0.100
27.000	-0.083	0.100
27.100	-7.423	0.100
27.200	-4.727	0.100
27.300	-10.199	0.100
27.400	-3.732	0.100
27.500	-1.926	0.100
27.600	-1.256	0.100
27.700	-1.574	0.100
27.800	-5.535	0.100
27.900	-8.909	0.100
28.000	-11.678	0.100
28.100	1.562	0.100
28.200	-3.108	0.100
28.300	-3.836	0.100
28.400	-6.606	0.100
28.500	-0.982	0.100
28.600	1.854	0.100
28.700	-10.820	0.100
28.800	-8.353	0.100
28.900	-5.405	0.100
29.000	-14.897	0.100
29.100	-4.947	0.100
29.200	2.324	0.100
29.300	-3.852	0.100
29.400	-2.829	0.100
29.500	-12.224	0.100
29.600	-2.792	0.100
29.700	-0.404	0.100
29.800	-7.021	0.100
29.900	3.390	0.100
30.000	-15.207	0.100
30.100	-5.456	0.100
30.200	-6.111	0.100
30.300	-9.199	0.100
30.400	2.207	0.100
30.500	0.085	0.100
30.600	5.527	0.100
30.700	5.460	0.100
30.800	10.995	0.100
30.900	11.036	0.100
31.000	-0.558	0.100
31.100	13.318	0.100
31.200	16.808	0.100
31.300	8.062	0.100
31.400	2.312	0.100
31.500	13.429	0.100
31.600	28.002	0.100
31.700	27.558	0.100
31.800	20.288	0.100
31.900	23.508	0.100
32.000	17.509	0.100
32.100	18.964	0.100
32.200	21.834	0.100
32.300	15.657	0.100
32.400	19.788	0.100
32.500	18.364	0.100
32.600	15.940	0.100
32.700	8.580	0.100
32.800	23.388	0.100
32.900	18.379	0.100
33.000	20.547	0.100
33.100	16.887	0.100
33.200	27.918	0.100
33.300	20.474	0.100
33.400	16.011	0.100
33.500	19.966	0.100
33.600	15.744	0.100
33.700	9.680	0.100
33.800	22.518	0.100
33.900	15.042	0.100
34.000	17.594	0.100
34.100	13.726	0.100
34.200	34.756	0.100
34.300	20.301	0.100
34.400	14.032	0.100
34.500	8.467	0.100
34.600	20.228	0.100
34.700	15.066	0.100
34.800	17.702	0.100
34.900	8.174	0.100
35.000	15.189	0.100
35.100	13.873	0.100
35.200	16.708	0.100
35.300	16.439	0.100
35.400	19.144	0.100
35.500	15.808	0.100
35.600	14.751	0.100
35.700	17.519	0.100
35.800	7.336	0.100
35.900	15.544	0.100
36.000	18.004	0.100
36.100	17.915	0.100
36.200	17.729	0.100
36.300	27.449	0.100
36.400	13.514	0.100
36.500	16.353	0.100
36.600	9.980	0.100
36.700	18.731	0.100
36.800	14.111	0.100
36.900	13.521	0.100
37.000	16.715	0.100
37.100	21.250	0.100
37.200	20.437	0.100
37.300	7.600	0.100
37.400	16.884	0.100
37.500	26.743	0.100
37.600	19.401	0.100
37.700	9.363	0.100
37.800	13.970	0.100
37.900	15.621	0.100
38.000	15.364	0.100
38.100	19.722	0.100
38.200	15.488	0.100
38.300	12.511	0.100
38.400	25.004	0.100
38.500	22.131	0.100
38.600	22.843	0.100
38.700	19.029	0.100
38.800	21.272	0.100
38.900	28.589	0.100
39.000	16.101	0.100
39.100	14.531	0.100
39.200	18.748	0.100
39.300	15.079	0.100
39.400	12.471	0.100
39.500	13.922	0.100
39.600	21.683	0.100
39.700	17.865	0.100
39.800	19.915	0.100
39.900	28.913	0.100
40.000	20.519	0.100
40.100	24.787	0.100
40.200	19.135	0.100
40.300	12.127	0.100
40.400	23.064	0.100
40.500	18.217	0.100
40.600	16.734	0.100
40.700	10.380	0.100
40.800	14.356	0.100
40.900	21.644	0.100
41.000	22.616	0.100
41.100	15.392	0.100
41.200	17.549	0.100
41.300	18.988	0.100
41.400	22.712	0.100
41.500	17.887	0.100
41.600	10.068	0.100
41.700	18.584	0.100
41.800	16.710	0.100
41.900	16.489	0.100
42.000	19.025	0.100
42.100	15.901	0.100
42.200	20.124	0.100
42.300	18.719	0.100
42.400	18.638	0.100
42.500	19.713	0.100
42.600	17.492	0.100
42.700	9.327	0.100
42.800	10.933	0.100
42.900	20.500	0.100
43.000	19.062	0.100
43.100	16.121	0.100
43.200	21.770	0.100
43.300	19.417	0.100
43.400	12.397	0.100
43.500	19.250	0.100
43.600	19.460	0.100
43.700	9.374	0.100
43.800	19.067	0.100
43.900	20.863	0.100
44.000	19.447	0.100
44.100	15.872	0.100
44.200	15.202	0.100
44.300	13.592	0.100
44.400	16.224	0.100
44.500	21.817	0.100
44.600	11.762	0.100
44.700	16.395	0.100
44.800	13.960	0.100
44.900	18.415	0.100
45.000	17.691	0.100
45.100	11.868	0.100
45.200	10.485	0.100
45.300	13.129	0.100
45.400	11.416	0.100
45.500	26.739	0.100
45.600	21.113	0.100
45.700	18.668	0.100
45.800	10.740	0.100
45.900	16.631	0.100
46.000	23.958	0.100
46.100	12.117	0.100
46.200	19.618	0.100
46.300	4.230	0.100
46.400	17.791	0.100
46.500	8.131	0.100
46.600	22.520	0.100
46.700	6.078	0.100
46.800	17.954	0.100
46.900	17.348	0.100
47.000	13.569	0.100
47.100	12.450	0.100
47.200	16.319	0.100
47.300	19.579	0.100
47.400	16.772	0.100
47.500	18.616	0.100
47.600	8.359	0.100
47.700	16.715	0.100
47.800	17.111	0.100
47.900	12.795	0.100
48.000	15.773	0.100
48.100	15.324	0.100
48.200	14.167	0.100
48.300	17.883	0.100
48.400	12.793	0.100
48.500	17.311	0.100
48.600	15.765	0.100
48.700	13.759	0.100
48.800	6.655	0.100
48.900	9.393	0.100
49.000	20.306	0.100
49.100	26.547	0.100
49.200	11.512	0.100
49.300	14.643	0.100
49.400	15.572	0.100
49.500	17.232	0.100
49.600	10.414	0.100
49.700	9.162	0.100
49.800	20.686	0.100
49.900	12.459	0.100
50.000	19.792	0.100
50.100	23.272	0.100
50.200	16.160	0.100
50.300	12.108	0.100
50.400	12.681	0.100
50.500	17.077	0.100
50.600	11.743	0.100
50.700	12.375	0.100
50.800	12.316	0.100
50.900	20.052	0.100
51.000	21.432	0.100
51.100	18.569	0.100
51.200	7.577	0.100
51.300	19.940	0.100
51.400	20.516	0.100
51.500	10.777	0.100
51.600	25.986	0.100
51.700	18.477	0.100
51.800	18.545	0.100
51.900	2.813	0.100
52.000	20.270	0.100
52.100	27.478	0.100
52.200	19.666	0.100
52.300	10.001	0.100
52.400	13.487	0.100
52.500	24.134	0.100
52.600	23.091	0.100
52.700	13.154	0.100
52.800	13.506	0.100
52.900	22.540	0.100
53.000	22.473	0.100
53.100	19.674	0.100
53.200	23.615	0.100
53.300	14.751	0.100
53.400	13.233	0.100
53.500	17.510	0.100
53.600	10.905	0.100
53.700	15.015	0.100
53.800	12.765	0.100
53.900	22.151	0.100
54.000	14.229	0.100
54.100	17.178	0.100
54.200	18.477	0.100
54.300	13.538	0.100
54.400	17.626	0.100
54.500	20.128	0.100
54.600	20.607	0.100
54.700	18.600	0.100
54.800	21.417	0.100
54.900	13.255	0.100
55.000	20.930	0.100
55.100	15.081	0.100
55.200	17.419	0.100
55.300	21.765	0.100
55.400	23.929	0.100
55.500	11.900	0.100
55.600	24.031	0.100
55.700	22.699	0.100
55.800	19.247	0.100
55.900	16.639	0.100
56.000	18.840	0.100
56.100	20.259	0.100
56.200	20.991	0.100
56.300	15.812	0.100
56.400	19.558	0.100
56.500	16.324	0.100
56.600	23.322	0.100
56.700	20.009	0.100
56.800	8.690	0.100
56.900	21.619	0.100
57.000	26.294	0.100
57.100	21.361	0.100
57.200	17.640	0.100
57.300	14.220	0.100
57.400	14.877	0.100
57.500	12.472	0.100
57.600	18.456	0.100
57.700	18.964	0.100
57.800	23.864	0.100
57.900	17.979	0.100
58.000	19.824	0.100
58.100	22.521	0.100
58.200	5.704	0.100
58.300	24.511	0.100
58.400	23.594	0.100
58.500	24.317	0.100
58.600	22.584	0.100
58.700	19.375	0.100
58.800	18.313	0.100
58.900	27.377	0.100
59.000	16.212	0.100
59.100	17.435	0.100
59.200	27.819	0.100
59.300	15.841	0.100
59.400	20.672	0.100
59.500	14.476	0.100
59.600	27.380	0.100
59.700	13.436	0.100
59.800	19.357	0.100
59.900	27.133	0.100
60.000	13.557	0.100
60.100	17.453	0.100
60.200	31.599	0.100
60.300	20.590	0.100
60.400	20.792	0.100
60.500	16.968	0.100
60.600	25.650	0.100
60.700	18.820	0.100
60.800	21.849	0.100
60.900	25.935	0.100
61.000	18.187	0.100
61.100	9.960	0.100
61.200	27.480	0.100
61.300	17.594	0.100
61.400	15.252	0.100
61.500	10.114	0.100
61.600	22.638	0.100
61.700	19.134	0.100
61.800	24.466	0.100
61.900	25.273	0.100
62.000	13.412	0.100
62.100	19.444	0.100
62.200	14.861	0.100
62.300	27.681	0.100
62.400	24.689	0.100
62.500	19.369	0.100
62.600	25.627	0.100
62.700	20.604	0.100
62.800	12.625	0.100
62.900	17.565	0.100
63.000	21.273	0.100
63.100	19.057	0.100
63.200	21.344	0.100
63.300	20.125	0.100
63.400	28.769	0.100
63.500	28.861	0.100
63.600	19.758	0.100
63.700	16.713	0.100
63.800	15.017	0.100
63.900	19.612	0.100
64.000	22.130	0.100
64.100	22.255	0.100
64.200	24.963	0.100
64.300	17.614	0.100
64.400	22.150	0.100
64.500	22.489	0.100
64.600	24.171	0.100
64.700	26.289	0.100
64.800	16.949	0.100
64.900	22.162	0.100
65.000	22.818	0.100
65.100	21.010	0.100
65.200	27.128	0.100
65.300	22.147	0.100
65.400	17.450	0.100
65.500	25.654	0.100
65.600	22.028	0.100
65.700	20.854	0.100
65.800	16.368	0.100
65.900	23.736	0.100
66.000	21.756	0.100
66.100	17.241	0.100
66.200	16.103	0.100
66.300	21.000	0.100
66.400	15.433	0.100
66.500	22.654	0.100
66.600	26.354	0.100
66.700	21.016	0.100
66.800	20.043	0.100
66.900	19.157	0.100
67.000	17.274	0.100
67.100	25.619	0.100
67.200	20.080	0.100
67.300	23.096	0.100
67.400	19.758	0.100
67.500	21.306	0.100
67.600	19.861	0.100
67.700	15.971	0.100
67.800	26.162	0.100
67.900	16.256	0.100
68.000	16.298	0.100
68.100	23.461	0.100
68.200	17.602	0.100
68.300	17.942	0.100
68.400	21.542	0.100
68.500	29.680	0.100
68.600	24.712	0.100
68.700	19.421	0.100
68.800	21.267	0.100
68.900	17.315	0.100
69.000	24.628	0.100
69.100	23.140	0.100
69.200	14.907	0.100
69.300	25.839	0.100
69.400	14.574	0.100
69.500	18.515	0.100
69.600	20.969	0.100
69.700	20.139	0.100
69.800	22.180	0.100
69.900	15.918	0.100
70.000	17.557	0.100
70.100	24.968	0.100
70.200	17.934	0.100
70.300	17.525	0.100
70.400	14.798	0.100
70.500	22.398	0.100
70.600	31.071	0.100
70.700	19.532	0.100
70.800	27.108	0.100
70.900	25.395	0.100
71.000	12.562	0.100
71.100	20.016	0.100
71.200	20.660	0.100
71.300	23.434	0.100
71.400	24.644	0.100
71.500	5.907	0.100
71.600	22.252	0.100
71.700	21.939	0.100
71.800	28.407	0.100
71.900	25.053	0.100
72.000	19.999	0.100
72.100	25.385	0.100
72.200	14.070	0.100
72.300	19.810	0.100
72.400	20.090	0.100
72.500	21.655	0.100
72.600	20.408	0.100
72.700	32.148	0.100
72.800	20.322	0.100
72.900	17.777	0.100
73.000	12.773	0.100
73.100	18.646	0.100
73.200	18.773	0.100
73.300	30.031	0.100
73.400	23.507	0.100
73.500	25.554	0.100
73.600	22.987	0.100
73.700	23.934	0.100
73.800	18.698	0.100
73.900	17.852	0.100
74.000	18.176	0.100
74.100	26.734	0.100
74.200	16.241	0.100
74.300	24.780	0.100
74.400	23.876	0.100
74.500	22.051	0.100
74.600	11.591	0.100
74.700	17.019	0.100
74.800	19.171	0.100
74.900	19.977	0.100
75.000	24.052	0.100
75.100	18.744	0.100
75.200	21.586	0.100
75.300	17.008	0.100
75.400	18.104	0.100
75.500	18.721	0.100
75.600	21.765	0.100
75.700	16.337	0.100
75.800	23.885	0.100
75.900	18.893	0.100
76.000	23.766	0.100
76.100	16.392	0.100
76.200	27.982	0.100
76.300	24.890	0.100
76.400	21.020	0.100
76.500	18.921	0.100
76.600	19.035	0.100
76.700	32.939	0.100
76.800	28.506	0.100
76.900	18.349	0.100
77.000	25.042	0.100
77.100	15.965	0.100
77.200	15.804	0.100
77.300	15.488	0.100
77.400	19.149	0.100
77.500	26.189	0.100
77.600	19.555	0.100
77.700	21.509	0.100
77.800	20.250	0.100
77.900	16.832	0.100
78.000	20.504	0.100
78.100	19.812	0.100
78.200	26.678	0.100
78.300	26.783	0.100
78.400	16.699	0.100
78.500	15.840	0.100
78.600	12.373	0.100
78.700	16.459	0.100
78.800	30.641	0.100
78.900	25.775	0.100
79.000	24.915	0.100
79.100	18.642	0.100
79.200	23.653	0.100
79.300	21.582	0.100
79.400	13.466	0.100
79.500	14.882	0.100
79.600	25.880	0.100
79.700	19.576	0.100
79.800	21.253	0.100
79.900	23.386	0.100
80.000	15.316	0.100
80.100	26.896	0.100
80.200	28.031	0.100
80.300	21.732	0.100
80.400	19.457	0.100
80.500	17.090	0.100
80.600	21.865	0.100
80.700	16.375	0.100
80.800	21.565	0.100
80.900	20.540	0.100
81.000	18.630	0.100
81.100	24.944	0.100
81.200	18.536	0.100
81.300	22.018	0.100
81.400	24.560	0.100
81.500	16.880	0.100
81.600	14.504	0.100
81.700	24.360	0.100
81.800	25.238	0.100
81.900	16.607	0.100
82.000	27.371	0.100
82.100	15.985	0.100
82.200	20.391	0.100
82.300	23.380	0.100
82.400	27.033	0.100
82.500	21.985	0.100
82.600	18.968	0.100
82.700	23.044	0.100
82.800	27.900	0.100
82.900	20.240	0.100
83.000	23.494	0.100
83.100	24.370	0.100
83.200	21.517	0.100
83.300	12.187	0.100
83.400	20.170	0.100
83.500	18.689	0.100
83.600	19.135	0.100
83.700	22.140	0.100
83.800	24.917	0.100
83.900	32.795	0.100
84.000	22.204	0.100
84.100	27.826	0.100
84.200	17.395	0.100
84.300	18.558	0.100
84.400	28.158	0.100
84.500	20.673	0.100
84.600	17.273	0.100
84.700	22.439	0.100
84.800	16.387	0.100
84.900	22.133	0.100
85.000	13.480	0.100
85.100	29.929	0.100
85.200	18.341	0.100
85.300	16.309	0.100
85.400	13.736	0.100
85.500	15.291	0.100
85.600	25.298	0.100
85.700	20.798	0.100
85.800	24.529	0.100
85.900	12.559	0.100
86.000	17.948	0.100
86.100	23.145	0.100
86.200	25.111	0.100
86.300	23.103	0.100
86.400	23.797	0.100
86.500	24.461	0.100
86.600	30.055	0.100
86.700	15.481	0.100
86.800	22.307	0.100
86.900	15.116	0.100
87.000	21.099	0.100
87.100	16.313	0.100
87.200	22.963	0.100
87.300	18.039	0.100
87.400	26.639	0.100
87.500	26.971	0.100
87.600	13.849	0.100
87.700	12.900	0.100
87.800	18.286	0.100
87.900	25.842	0.100
88.000	28.547	0.100
88.100	20.654	0.100
88.200	24.570	0.100
88.300	16.797	0.100
88.400	9.101	0.100
88.500	19.141	0.100
88.600	30.139	0.100
88.700	26.127	0.100
88.800	15.160	0.100
88.900	26.174	0.100
89.000	18.783	0.100
89.100	18.159	0.100
89.200	16.808	0.100
89.300	25.333	0.100
89.400	23.578	0.100
89.500	18.362	0.100
89.600	20.610	0.100
89.700	13.063	0.100
89.800	22.186	0.100
89.900	30.659	0.100
90.000	26.225	0.100
90.100	17.411	0.100
90.200	24.550	0.100
90.300	18.657	0.100
90.400	16.493	0.100
90.500	14.569	0.100
90.600	11.695	0.100
90.700	13.263	0.100
90.800	7.366	0.100
90.900	8.129	0.100
91.000	11.742	0.100
91.100	6.879	0.100
91.200	0.732	0.100
91.300	10.085	0.100
91.400	-3.230	0.100
91.500	1.565	0.100
91.600	-13.122	0.100
91.700	-4.326	0.100
91.800	5.938	0.100
91.900	-2.257	0.100
92.000	-4.033	0.100
92.100	-1.272	0.100
92.200	-3.945	0.100
92.300	-9.201	0.100
92.400	-21.533	0.100
92.500	-5.570	0.100
92.600	-6.982	0.100
92.700	0.378	0.100
92.800	-0.799	0.100
92.900	-7.502	0.100
93.000	-5.186	0.100
93.100	-9.589	0.100
93.200	-9.873	0.100
93.300	-4.404	0.100
93.400	0.448	0.100
93.500	-6.433	0.100
93.600	-10.885	0.100
93.700	-9.417	0.100
93.800	4.667	0.100
93.900	-9.179	0.100
94.000	1.037	0.100
94.100	-10.708	0.100
94.200	-17.229	0.100
94.300	-5.680	0.100
94.400	-15.582	0.100
94.500	-8.204	0.100
94.600	-15.880	0.100
94.700	-14.102	0.100
94.800	-12.870	0.100
94.900	-16.017	0.100
95.000	-8.962	0.100
95.100	-11.244	0.100
95.200	-11.115	0.100
95.300	-14.181	0.100
95.400	-10.517	0.100
95.500	-8.652	0.100
95.600	-5.975	0.100
95.700	-6.833	0.100
95.800	-7.880	0.100
95.900	-11.293	0.100
96.000	-14.103	0.100
96.100	-8.584	0.100
96.200	-11.130	0.100
96.300	-11.750	0.100
96.400	-14.748	0.100
96.500	-13.746	0.100
96.600	-3.650	0.100
96.700	-14.953	0.100
96.800	-11.885	0.100
96.900	-4.763	0.100
97.000	-13.964	0.100
97.100	-11.040	0.100
97.200	-0.627	0.100
97.300	-12.289	0.100
97.400	-5.924	0.100
97.500	-10.390	0.100
97.600	-6.076	0.100
97.700	-12.715	0.100
97.800	-21.461	0.100
97.900	-9.248	0.100
98.000	-7.532	0.100
98.100	-10.782	0.100
98.200	-5.142	0.100
98.300	-7.275	0.100
98.400	-9.714	0.100
98.500	-11.063	0.100
98.600	-3.933	0.100
98.700	-15.994	0.100
98.800	-6.907	0.100
98.900	-10.471	0.100
99.000	-8.640	0.100
99.100	-7.438	0.100
99.200	-5.071	0.100
99.300	-9.563	0.100
99.400	2.575	0.100
99.500	-11.748	0.100
99.600	-8.891	0.100
99.700	-7.759	0.100
99.800	-3.330	0.100
99.900	-3.627	0.100
100.000	-12.729	0.100
100.100	-3.479	0.100
100.200	9.720	0.100
100.300	-5.596	0.100
100.400	-8.040	0.100
100.500	-6.455	0.100
100.600	-14.130	0.100
100.700	2.091	0.100
100.800	-3.977	0.100
100.900	-4.983	0.100
101.000	-3.641	0.100
101.100	0.981	0.100
101.200	-10.880	0.100
101.300	-7.750	0.100
101.400	-2.117	0.100
101.500	-4.051	0.100
101.600	-10.220	0.100
101.700	-5.432	0.100
101.800	-8.895	0.100
101.900	-5.710	0.100
102.000	-4.656	0.100
102.100	-10.182	0.100
102.200	-10.024	0.100
102.300	-2.062	0.100
102.400	-5.762	0.100
102.500	-4.659	0.100
102.600	-6.340	0.100
102.700	-1.177	0.100
102.800	-0.475	0.100
102.900	-4.713	0.100
103.000	-0.913	0.100
103.100	-3.276	0.100
103.200	-6.481	0.100
103.300	-8.121	0.100
103.400	-12.291	0.100
103.500	-2.801	0.100
103.600	-9.034	0.100
103.700	4.673	0.100
103.800	-5.762	0.100
103.900	-10.950	0.100
104.000	-7.037	0.100
104.100	-11.584	0.100
104.200	4.740	0.100
104.300	-9.820	0.100
104.400	-4.475	0.100
104.500	-6.230	0.100
104.600	2.375	0.100
104.700	5.159	0.100
104.800	2.231	0.100
104.900	-17.483	0.100
105.000	-4.230	0.100
105.100	-2.729	0.100
105.200	-11.900	0.100
105.300	-8.118	0.100
105.400	-2.694	0.100
105.500	-1.739	0.100
105.600	-2.261	0.100
105.700	-8.627	0.100
105.800	-2.844	0.100
105.900	-6.660	0.100
106.000	0.922	0.100
106.100	-4.870	0.100
106.200	-12.120	0.100
106.300	-5.435	0.100
106.400	-2.362	0.100
106.500	-0.037	0.100
106.600	-6.614	0.100
106.700	-4.088	0.100
106.800	-4.265	0.100
106.900	-0.203	0.100
107.000	-2.343	0.100
107.100	-7.470	0.100
107.200	-10.159	0.100
107.300	-6.555	0.100
107.400	-11.648	0.100
107.500	-4.406	0.100
107.600	-6.975	0.100
107.700	-10.151	0.100
107.800	-0.689	0.100
107.900	-14.040	0.100
108.000	-5.129	0.100
108.100	-3.895	0.100
108.200	-6.029	0.100
108.300	0.401	0.100
108.400	9.244	0.100
108.500	-14.289	0.100
108.600	-10.694	0.100
108.700	-2.573	0.100
108.800	-4.668	0.100
108.900	-12.518	0.100
109.000	-6.703	0.100
109.100	-1.778	0.100
109.200	-8.637	0.100
109.300	-9.493	0.100
109.400	-9.194	0.100
109.500	1.125	0.100
109.600	-12.039	0.100
109.700	-4.351	0.100
109.800	-4.654	0.100
109.900	-14.461	0.100
110.000	0.033	0.100
110.100	-7.503	0.100
110.200	-9.781	0.100
110.300	-3.643	0.100
110.400	-5.939	0.100
110.500	-4.586	0.100
110.600	-10.641	0.100
110.700	-12.534	0.100
110.800	-14.624	0.100
110.900	1.501	0.100
111.000	-4.750	0.100
111.100	-4.432	0.100
111.200	-14.901	0.100
111.300	-9.432	0.100
111.400	-2.573	0.100
111.500	-0.863	0.100
111.600	-6.099	0.100
111.700	-4.663	0.100
111.800	-0.970	0.100
111.900	-3.819	0.100
112.000	-14.740	0.100
112.100	-4.875	0.100
112.200	-4.126	0.100
112.300	-6.550	0.100
112.400	-10.201	0.100
112.500	-7.407	0.100
112.600	-2.562	0.100
112.700	-8.463	0.100
112.800	-7.604	0.100
112.900	-9.211	0.100
113.000	-9.986	0.100
113.100	7.924	0.100
113.200	-5.481	0.100
113.300	-2.548	0.100
113.400	-5.281	0.100
113.500	-9.878	0.100
113.600	-19.130	0.100
113.700	-12.206	0.100
113.800	-0.076	0.100
113.900	0.506	0.100
114.000	-7.442	0.100
114.100	-11.950	0.100
114.200	6.954	0.100
114.300	-4.872	0.100
114.400	-13.266	0.100
114.500	-4.937	0.100
114.600	-11.888	0.100
114.700	-16.175	0.100
114.800	-3.448	0.100
114.900	-2.381	0.100
115.000	-13.502	0.100
115.100	-8.847	0.100
115.200	-2.292	0.100
115.300	-7.994	0.100
115.400	-5.991	0.100
115.500	-6.082	0.100
115.600	-2.007	0.100
115.700	-17.129	0.100
115.800	-3.634	0.100
115.900	-8.432	0.100
116.000	-10.609	0.100
116.100	-5.529	0.100
116.200	-11.378	0.100
116.300	-13.241	0.100
116.400	-10.865	0.100
116.500	-5.943	0.100
116.600	-5.588	0.100
116.700	-3.417	0.100
116.800	-5.152	0.100
116.900	-7.691	0.100
117.000	-13.798	0.100
117.100	-4.046	0.100
117.200	2.097	0.100
117.300	-11.996	0.100
117.400	-14.071	0.100
117.500	-3.853	0.100
117.600	-19.944	0.100
117.700	-16.469	0.100
117.800	-6.231	0.100
117.900	-2.448	0.100
118.000	-6.990	0.100
118.100	-4.475	0.100
118.200	-7.313	0.100
118.300	-9.830	0.100
118.400	0.013	0.100
118.500	-7.185	0.100
118.600	-10.377	0.100
118.700	-16.048	0.100
118.800	-6.216	0.100
118.900	-16.754	0.100
119.000	-9.948	0.100
119.100	-8.155	0.100
119.200	-13.132	0.100
119.300	-3.542	0.100
119.400	-8.040	0.100
119.500	-9.605	0.100
119.600	-7.647	0.100
119.700	-7.934	0.100
119.800	-11.440	0.100
119.900	-5.961	0.100
120.000	-11.699	0.100
120.100	-10.500	0.100
120.200	-8.337	0.100
120.300	-1.238	0.100
120.400	-3.652	0.100
120.500	-4.538	0.100
120.600	-12.162	0.100
120.700	-6.808	0.100
120.800	-12.403	0.100
120.900	-10.595	0.100
121.000	-7.956	0.100
121.100	-7.204	0.100
121.200	-12.294	0.100
121.300	-2.347	0.100
121.400	-7.100	0.100
121.500	-12.837	0.100
121.600	2.288	0.100
121.700	-2.250	0.100
121.800	-12.610	0.100
121.900	-1.206	0.100
122.000	-8.175	0.100
122.100	-18.726	0.100
122.200	-12.328	0.100
122.300	-11.119	0.100
122.400	-0.097	0.100
122.500	-7.394	0.100
122.600	-13.605	0.100
122.700	-9.778	0.100
122.800	-7.617	0.100
122.900	-9.905	0.100
123.000	-8.199	0.100
123.100	-15.352	0.100
123.200	-11.399	0.100
123.300	-9.118	0.100
123.400	-8.139	0.100
123.500	-7.273	0.100
123.600	-11.778	0.100
123.700	-14.204	0.100
123.800	-4.348	0.100
123.900	-14.421	0.100
124.000	-8.640	0.100
124.100	-6.653	0.100
124.200	-9.376	0.100
124.300	-10.167	0.100
124.400	-10.798	0.100
124.500	-2.551	0.100
124.600	-0.500	0.100
124.700	-17.198	0.100
124.800	-17.155	0.100
124.900	-14.861	0.100
125.000	-10.724	0.100
125.100	-11.836	0.100
125.200	-3.713	0.100
125.300	-3.592	0.100
125.400	-17.125	0.100
125.500	-11.650	0.100
125.600	-5.813	0.100
125.700	-8.505	0.100
125.800	-2.374	0.100
125.900	-10.326	0.100
126.000	-17.016	0.100
126.100	-5.517	0.100
126.200	-1.479	0.100
126.300	-11.793	0.100
126.400	-12.955	0.100
126.500	-12.508	0.100
126.600	-12.160	0.100
126.700	-9.156	0.100
126.800	-7.702	0.100
126.900	-5.526	0.100
127.000	-1.546	0.100
127.100	-10.945	0.100
127.200	-10.326	0.100
127.300	-8.020	0.100
127.400	-7.446	0.100
127.500	-14.508	0.100
127.600	-13.701	0.100
127.700	-27.745	0.100
127.800	-3.902	0.100
127.900	-5.465	0.100
128.000	-4.606	0.100
128.100	-19.261	0.100
128.200	-12.449	0.100
128.300	-10.340	0.100
128.400	0.174	0.100
128.500	-9.580	0.100
128.600	-13.971	0.100
128.700	-11.487	0.100
128.800	-18.699	0.100
128.900	-10.875	0.100
129.000	-11.679	0.100
129.100	-9.771	0.100
129.200	-7.397	0.100
129.300	-10.480	0.100
129.400	-19.088	0.100
129.500	-11.923	0.100
129.600	-12.735	0.100
129.700	-9.636	0.100
129.800	-3.935	0.100
129.900	-13.704	0.100
130.000	-12.388	0.100
130.100	-12.178	0.100
130.200	-11.910	0.100
130.300	-6.392	0.100
130.400	-3.764	0.100
130.500	-20.775	0.100
130.600	-11.350	0.100
130.700	-10.554	0.100
130.800	-13.357	0.100
130.900	-15.365	0.100
131.000	-8.807	0.100
131.100	-11.235	0.100
131.200	-5.890	0.100
131.300	-6.311	0.100
131.400	-4.197	0.100
131.500	-6.322	0.100
131.600	-12.261	0.100
131.700	-5.700	0.100
131.800	-14.842	0.100
131.900	-14.532	0.100
132.000	-12.502	0.100
132.100	-4.374	0.100
132.200	-15.588	0.100
132.300	-12.114	0.100
132.400	-15.339	0.100
132.500	-4.967	0.100
132.600	-6.299	0.100
132.700	-12.633	0.100
132.800	-9.104	0.100
132.900	-13.257	0.100
133.000	-6.622	0.100
133.100	-3.024	0.100
133.200	-15.554	0.100
133.300	-18.209	0.100
133.400	-21.173	0.100
133.500	-2.345	0.100
133.600	-5.992	0.100
133.700	-1.960	0.100
133.800	-8.466	0.100
133.900	-11.863	0.100
134.000	-14.041	0.100
134.100	-2.829	0.100
134.200	-12.550	0.100
134.300	-13.249	0.100
134.400	-7.851	0.100
134.500	-2.981	0.100
134.600	-11.925	0.100
134.700	-13.977	0.100
134.800	-14.376	0.100
134.900	-7.425	0.100
135.000	-5.074	0.100
135.100	-18.384	0.100
135.200	-10.920	0.100
135.300	-11.376	0.100
135.400	-7.311	0.100
135.500	-15.587	0.100
135.600	-7.472	0.100
135.700	-7.721	0.100
135.800	-10.934	0.100
135.900	-13.712	0.100
136.000	-8.823	0.100
136.100	-9.981	0.100
136.200	-2.835	0.100
136.300	-8.220	0.100
136.400	-11.866	0.100
136.500	-10.271	0.100
136.600	-13.717	0.100
136.700	-12.379	0.100
136.800	-4.623	0.100
136.900	-8.087	0.100
137.000	-9.200	0.100
137.100	-5.999	0.100
137.200	-9.835	0.100
137.300	-13.785	0.100
137.400	-17.341	0.100
137.500	-9.822	0.100
137.600	-13.985	0.100
137.700	-11.551	0.100
137.800	-9.436	0.100
137.900	-12.648	0.100
138.000	-17.077	0.100
138.100	-4.464	0.100
138.200	-14.838	0.100
138.300	-6.463	0.100
138.400	-9.310	0.100
138.500	-14.789	0.100
138.600	-3.077	0.100
138.700	-13.218	0.100
138.800	-10.332	0.100
138.900	-9.532	0.100
139.000	-10.876	0.100
139.100	-16.111	0.100
139.200	-11.453	0.100
139.300	-18.442	0.100
139.400	-12.626	0.100
139.500	-2.600	0.100
139.600	-10.517	0.100
139.700	-11.896	0.100
139.800	-6.636	0.100
139.900	-11.724	0.100
140.000	-15.881	0.100
140.100	-5.179	0.100
140.200	-6.855	0.100
140.300	-12.274	0.100
140.400	-8.503	0.100
140.500	-6.075	0.100
140.600	-8.465	0.100
140.700	-6.447	0.100
140.800	-10.466	0.100
140.900	-8.413	0.100
141.000	-5.733	0.100
141.100	-17.453	0.100
141.200	-3.215	0.100
141.300	-3.838	0.100
141.400	-10.082	0.100
141.500	-11.110	0.100
141.600	-4.084	0.100
141.700	-12.800	0.100
141.800	-13.285	0.100
141.900	-16.346	0.100
142.000	-21.553	0.100
142.100	-10.406	0.100
142.200	-1.580	0.100
142.300	-4.975	0.100
142.400	-11.085	0.100
142.500	-7.744	0.100
142.600	-10.554	0.100
142.700	-5.476	0.100
142.800	-2.811	0.100
142.900	-5.149	0.100
143.000	-10.834	0.100
143.100	-13.843	0.100
143.200	-19.159	0.100
143.300	-10.178	0.100
143.400	-11.469	0.100
143.500	-4.147	0.100
143.600	-11.951	0.100
143.700	-3.417	0.100
143.800	-14.446	0.100
143.900	-3.708	0.100
144.000	-11.363	0.100
144.100	-8.905	0.100
144.200	-6.130	0.100
144.300	-9.520	0.100
144.400	-17.788	0.100
144.500	-6.387	0.100
144.600	-9.868	0.100
144.700	-6.105	0.100
144.800	-6.540	0.100
144.900	-10.536	0.100
145.000	-10.848	0.100
145.100	-14.137	0.100
145.200	-5.375	0.100
145.300	-10.948	0.100
145.400	-7.978	0.100
145.500	-13.417	0.100
145.600	-5.530	0.100
145.700	-17.560	0.100
145.800	-12.717	0.100
145.900	-5.991	0.100
146.000	-12.286	0.100
146.100	-5.758	0.100
146.200	-1.142	0.100
146.300	-9.919	0.100
146.400	-14.391	0.100
146.500	-5.643	0.100
146.600	-8.450	0.100
146.700	-11.768	0.100
146.800	-3.640	0.100
146.900	-10.035	0.100
147.000	-12.474	0.100
147.100	-10.267	0.100
147.200	-3.924	0.100
147.300	-20.589	0.100
147.400	-12.308	0.100
147.500	-6.068	0.100
147.600	-23.016	0.100
147.700	-7.723	0.100
147.800	-8.408	0.100
147.900	-10.270	0.100
148.000	-10.011	0.100
148.100	-7.157	0.100
148.200	-6.856	0.100
148.300	-11.390	0.100
148.400	-11.206	0.100
148.500	-8.484	0.100
148.600	-4.379	0.100
148.700	-12.303	0.100
148.800	-15.637	0.100
148.900	-0.470	0.100
149.000	-11.143	0.100
149.100	-3.749	0.100
149.200	-12.222	0.100
149.300	-13.616	0.100
149.400	-2.505	0.100
149.500	-0.495	0.100
149.600	-11.705	0.100
149.700	-19.212	0.100
149.800	-14.990	0.100
149.900	-3.199	0.100
150.000	-8.482	0.100
150.100	-7.960	0.100
150.200	-7.874	0.100
150.300	-4.201	0.100
150.400	0.987	0.100
150.500	-6.637	0.100
150.600	-9.949	0.100
150.700	-11.768	0.100
150.800	-3.671	0.100
150.900	-11.691	0.100
151.000	-10.971	0.100
151.100	-9.025	0.100
151.200	-13.183	0.100
151.300	-11.330	0.100
151.400	-1.438	0.100
151.500	-11.860	0.100
151.600	-7.167	0.100
151.700	-4.447	0.100
151.800	-10.422	0.100
151.900	-8.977	0.100
152.000	-8.153	0.100
152.100	-19.618	0.100
152.200	-8.238	0.100
152.300	-6.985	0.100
152.400	-10.292	0.100
152.500	-14.204	0.100
152.600	-14.414	0.100
152.700	-10.647	0.100
152.800	-4.862	0.100
152.900	-1.407	0.100
153.000	-9.165	0.100
153.100	-8.283	0.100
153.200	-11.475	0.100
153.300	-4.083	0.100
153.400	-9.085	0.100
153.500	-8.105	0.100
153.600	-7.933	0.100
153.700	-3.606	0.100
153.800	-4.778	0.100
153.900	-9.919	0.100
154.000	-9.574	0.100
154.100	-8.103	0.100
154.200	-15.311	0.100
154.300	-7.280	0.100
154.400	-7.194	0.100
154.500	-13.501	0.100
154.600	-10.048	0.100
154.700	-0.651	0.100
154.800	-5.413	0.100
154.900	-4.343	0.100
155.000	-5.664	0.100
155.100	-8.676	0.100
155.200	-13.127	0.100
155.300	-2.886	0.100
155.400	-10.845	0.100
155.500	-18.144	0.100
155.600	-3.293	0.100
155.700	-5.824	0.100
155.800	-10.534	0.100
155.900	1.403	0.100
156.000	-6.151	0.100
156.100	-11.294	0.100
156.200	-7.081	0.100
156.300	-3.623	0.100
156.400	-5.833	0.100
156.500	-10.846	0.100
156.600	-7.477	0.100
156.700	-13.706	0.100
156.800	-10.786	0.100
156.900	-5.258	0.100
157.000	-10.340	0.100
157.100	-8.163	0.100
157.200	-9.056	0.100
157.300	-9.715	0.100
157.400	-7.232	0.100
157.500	-5.745	0.100
157.600	-10.479	0.100
157.700	-5.091	0.100
157.800	2.708	0.100
157.900	-3.086	0.100
158.000	-9.635	0.100
158.100	-5.004	0.100
158.200	-6.978	0.100
158.300	-8.129	0.100
158.400	-5.118	0.100
158.500	-4.850	0.100
158.600	-2.978	0.100
158.700	-6.058	0.100
158.800	-10.759	0.100
158.900	-12.469	0.100
159.000	-10.963	0.100
159.100	-13.730	0.100
159.200	-6.287	0.100
159.300	-6.538	0.100
159.400	-6.480	0.100
159.500	-8.110	0.100
159.600	-8.344	0.100
159.700	-4.190	0.100
159.800	-21.423	0.100
159.900	-7.235	0.100
160.000	-11.115	0.100
160.100	-8.585	0.100
160.200	-12.353	0.100
160.300	-10.061	0.100
160.400	-7.488	0.100
160.500	-5.651	0.100
160.600	-12.189	0.100
160.700	-8.862	0.100
160.800	2.187	0.100
160.900	-5.411	0.100
161.000	-12.563	0.100
161.100	-7.849	0.100
161.200	-13.091	0.100
161.300	-9.473	0.100
161.400	-7.699	0.100
161.500	-8.512	0.100
161.600	0.067	0.100
161.700	-5.514	0.100
161.800	-9.644	0.100
161.900	-10.946	0.100
162.000	-3.147	0.100
162.100	-5.611	0.100
162.200	-11.579	0.100
162.300	-9.014	0.100
162.400	-10.312	0.100
162.500	-11.485	0.100
162.600	-0.249	0.100
162.700	-15.768	0.100
162.800	-8.171	0.100
162.900	-1.791	0.100
163.000	-12.189	0.100
163.100	-8.105	0.100
163.200	-2.744	0.100
163.300	-15.250	0.100
163.400	-7.599	0.100
163.500	-11.287	0.100
163.600	-8.553	0.100
163.700	-6.527	0.100
163.800	-5.740	0.100
163.900	-3.067	0.100
164.000	-8.669	0.100
164.100	-7.557	0.100
164.200	-3.773	0.100
164.300	-9.502	0.100
164.400	-14.856	0.100
164.500	-13.915	0.100
164.600	-1.784	0.100
164.700	-8.499	0.100
164.800	-3.674	0.100
164.900	-9.549	0.100
165.000	-3.443	0.100
165.100	-9.908	0.100
165.200	-13.203	0.100
165.300	0.844	0.100
165.400	-6.207	0.100
165.500	-13.377	0.100
165.600	-9.275	0.100
165.700	-4.429	0.100
165.800	-13.759	0.100
165.900	-8.228	0.100
166.000	-4.778	0.100
166.100	0.310	0.100
166.200	-1.907	0.100
166.300	-5.683	0.100
166.400	-5.357	0.100
166.500	-3.210	0.100
166.600	-10.661	0.100
166.700	-9.632	0.100
166.800	-6.163	0.100
166.900	-8.935	0.100
167.000	-13.203	0.100
167.100	-11.542	0.100
167.200	-5.747	0.100
167.300	-3.592	0.100
167.400	-7.631	0.100
167.500	-13.716	0.100
167.600	-10.569	0.100
167.700	-0.026	0.100
167.800	-0.644	0.100
167.900	-8.934	0.100
168.000	-13.386	0.100
168.100	-14.641	0.100
168.200	-7.543	0.100
168.300	-13.609	0.100
168.400	-8.945	0.100
168.500	-4.539	0.100
168.600	0.452	0.100
168.700	3.105	0.100
168.800	-12.063	0.100
168.900	-8.032	0.100
169.000	-9.075	0.100
169.100	-5.703	0.100
169.200	-5.921	0.100
169.300	-13.760	0.100
169.400	-5.778	0.100
169.500	-9.944	0.100
169.600	-7.387	0.100
169.700	-6.622	0.100
169.800	-6.493	0.100
169.900	0.022	0.100
170.000	-14.261	0.100
170.100	-11.595	0.100
170.200	-0.939	0.100
170.300	-9.359	0.100
170.400	-0.879	0.100
170.500	-15.854	0.100
170.600	-11.414	0.100
170.700	-1.830	0.100
170.800	-6.927	0.100
170.900	-14.298	0.100
171.000	-7.669	0.100
171.100	-12.442	0.100
171.200	-8.488	0.100
171.300	-6.990	0.100
171.400	-7.826	0.100
171.500	-11.886	0.100
171.600	-13.100	0.100
171.700	1.029	0.100
171.800	-8.209	0.100
171.900	-4.277	0.100
172.000	-5.613	0.100
172.100	-8.504	0.100
172.200	-8.417	0.100
172.300	-4.173	0.100
172.400	-11.375	0.100
172.500	-7.403	0.100
172.600	-7.182	0.100
172.700	-2.628	0.100
172.800	0.993	0.100
172.900	-18.903	0.100
173.000	-9.226	0.100
173.100	-12.173	0.100
173.200	-2.953	0.100
173.300	-12.556	0.100
173.400	-5.636	0.100
173.500	-6.036	0.100
173.600	-14.830	0.100
173.700	-4.256	0.100
173.800	-10.052	0.100
173.900	-0.271	0.100
174.000	-3.207	0.100
174.100	-6.454	0.100
174.200	-13.006	0.100
174.300	-7.685	0.100
174.400	-6.845	0.100
174.500	0.758	0.100
174.600	-5.136	0.100
174.700	-14.792	0.100
174.800	-15.537	0.100
174.900	-4.423	0.100
175.000	-4.856	0.100
175.100	-7.863	0.100
175.200	-8.022	0.100
175.300	-10.187	0.100
175.400	-13.761	0.100
175.500	-1.825	0.100
175.600	-9.555	0.100
175.700	-8.127	0.100
175.800	-9.816	0.100
175.900	-16.043	0.100
176.000	-10.044	0.100
176.100	1.571	0.100
176.200	2.043	0.100
176.300	-4.335	0.100
176.400	-11.806	0.100
176.500	-14.022	0.100
176.600	-6.358	0.100
176.700	-2.938	0.100
176.800	-19.401	0.100
176.900	-7.425	0.100
177.000	-3.732	0.100
177.100	-14.952	0.100
177.200	-5.065	0.100
177.300	-2.204	0.100
177.400	-2.310	0.100
177.500	-10.179	0.100
177.600	-6.563	0.100
177.700	-1.586	0.100
177.800	-14.132	0.100
177.900	-7.140	0.100
178.000	-6.282	0.100
178.100	-4.109	0.100
178.200	-7.941	0.100
178.300	-7.844	0.100
178.400	0.587	0.100
178.500	-10.164	0.100
178.600	-8.219	0.100
178.700	-4.935	0.100
178.800	-8.759	0.100
178.900	-4.664	0.100
179.000	-1.580	0.100
179.100	-6.510	0.100
179.200	-14.130	0.100
179.300	2.110	0.100
179.400	0.433	0.100
179.500	-7.917	0.100
179.600	-9.626	0.100
179.700	-6.962	0.100
179.800	-14.548	0.100
179.900	-2.534	0.100
180.000	-10.546	0.100
180.100	-3.555	0.100
180.200	-4.516	0.100
180.300	1.224	0.100
180.400	2.312	0.100
180.500	-8.566	0.100
180.600	9.803	0.100
180.700	-1.655	0.100
180.800	9.053	0.100
180.900	3.048	0.100
181.000	12.383	0.100
181.100	10.858	0.100
181.200	17.796	0.100
181.300	15.925	0.100
181.400	18.583	0.100
181.500	17.114	0.100
181.600	20.021	0.100
181.700	23.527	0.100
181.800	10.644	0.100
181.900	23.340	0.100
182.000	25.088	0.100
182.100	23.377	0.100
182.200	14.857	0.100
182.300	21.982	0.100
182.400	27.456	0.100
182.500	22.660	0.100
182.600	27.440	0.100
182.700	23.140	0.100
182.800	18.392	0.100
182.900	24.182	0.100
183.000	26.470	0.100
183.100	21.211	0.100
183.200	19.168	0.100
183.300	21.859	0.100
183.400	22.029	0.100
183.500	14.481	0.100
183.600	19.737	0.100
183.700	21.296	0.100
183.800	20.083	0.100
183.900	25.894	0.100
184.000	21.533	0.100
184.100	16.742	0.100
184.200	29.265	0.100
184.300	14.673	0.100
184.400	19.934	0.100
184.500	24.393	0.100
184.600	13.616	0.100
184.700	11.033	0.100
184.800	14.573	0.100
184.900	17.837	0.100
185.000	21.864	0.100
185.100	16.676	0.100
185.200	20.749	0.100
185.300	23.368	0.100
185.400	16.152	0.100
185.500	19.036	0.100
185.600	11.849	0.100
185.700	18.208	0.100
185.800	19.145	0.100
185.900	17.291	0.100
186.000	18.600	0.100
186.100	6.867	0.100
186.200	6.494	0.100
186.300	11.034	0.100
186.400	11.994	0.100
186.500	23.399	0.100
186.600	14.156	0.100
186.700	8.387	0.100
186.800	6.991	0.100
186.900	17.135	0.100
187.000	11.839	0.100
187.100	11.055	0.100
187.200	17.866	0.100
187.300	9.657	0.100
187.400	9.503	0.100
187.500	8.225	0.100
187.600	22.174	0.100
187.700	18.433	0.100
187.800	12.541	0.100
187.900	6.743	0.100
188.000	22.117	0.100
188.100	13.617	0.100
188.200	15.357	0.100
188.300	18.733	0.100
188.400	17.731	0.100
188.500	20.404	0.100
188.600	19.500	0.100
188.700	22.085	0.100
188.800	20.714	0.100
188.900	8.072	0.100
189.000	18.810	0.100
189.100	17.278	0.100
189.200	20.116	0.100
189.300	16.451	0.100
189.400	23.853	0.100
189.500	28.906	0.100
189.600	18.012	0.100
189.700	16.719	0.100
189.800	12.234	0.100
189.900	24.864	0.100
190.000	22.896	0.100
190.100	16.993	0.100
190.200	23.975	0.100
190.300	11.137	0.100
190.400	16.679	0.100
190.500	14.398	0.100
190.600	14.603	0.100
190.700	19.254	0.100
190.800	28.147	0.100
190.900	17.363	0.100
191.000	22.085	0.100
191.100	24.971	0.100
191.200	22.305	0.100
191.300	15.864	0.100
191.400	16.820	0.100
191.500	24.124	0.100
191.600	16.161	0.100
191.700	18.999	0.100
191.800	26.366	0.100
191.900	25.923	0.100
192.000	32.227	0.100
192.100	22.751	0.100
192.200	19.270	0.100
192.300	25.423	0.100
192.400	26.574	0.100
192.500	25.897	0.100
192.600	17.967	0.100
192.700	25.899	0.100
192.800	23.248	0.100
192.900	23.127	0.100
193.000	30.738	0.100
193.100	25.596	0.100
193.200	23.139	0.100
193.300	21.393	0.100
193.400	22.062	0.100
193.500	26.603	0.100
193.600	24.069	0.100
193.700	24.153	0.100
193.800	24.490	0.100
193.900	24.652	0.100
194.000	22.056	0.100
194.100	25.872	0.100
194.200	23.463	0.100
194.300	21.642	0.100
194.400	25.795	0.100
194.500	21.423	0.100
194.600	27.426	0.100
194.700	24.259	0.100
194.800	24.342	0.100
194.900	33.363	0.100
195.000	17.509	0.100
195.100	22.013	0.100
195.200	27.320	0.100
195.300	26.683	0.100
195.400	21.547	0.100
195.500	26.088	0.100
195.600	27.136	0.100
195.700	17.451	0.100
195.800	34.588	0.100
195.900	21.200	0.100
196.000	32.739	0.100
196.100	28.326	0.100
196.200	26.787	0.100
196.300	22.131	0.100
196.400	28.279	0.100
196.500	28.500	0.100
196.600	23.465	0.100
196.700	28.907	0.100
196.800	19.423	0.100
196.900	29.798	0.100
197.000	29.268	0.100
197.100	29.335	0.100
197.200	18.537	0.100
197.300	33.645	0.100
197.400	24.607	0.100
197.500	19.699	0.100
197.600	25.025	0.100
197.700	35.130	0.100
197.800	25.681	0.100
197.900	27.289	0.100
198.000	24.001	0.100
198.100	22.854	0.100
198.200	35.248	0.100
198.300	26.596	0.100
198.400	29.649	0.100
198.500	28.781	0.100
198.600	20.436	0.100
198.700	26.082	0.100
198.800	26.466	0.100
198.900	34.269	0.100
199.000	30.039	0.100
199.100	28.749	0.100
199.200	27.233	0.100
199.300	30.455	0.100
199.400	24.561	0.100
199.500	25.465	0.100
199.600	24.255	0.100
199.700	29.753	0.100
199.800	32.333	0.100
199.900	29.385	0.100
200.000	29.739	0.100
200.100	25.729	0.100
200.200	20.627	0.100
200.300	27.558	0.100
200.400	22.171	0.100
200.500	16.169	0.100
200.600	30.644	0.100
200.700	32.416	0.100
200.800	39.973	0.100
200.900	29.646	0.100
201.000	33.321	0.100
201.100	22.246	0.100
201.200	31.030	0.100
201.300	23.231	0.100
201.400	30.796	0.100
201.500	23.613	0.100
201.600	19.212	0.100
201.700	32.757	0.100
201.800	27.029	0.100
201.900	28.026	0.100
202.000	26.012	0.100
202.100	26.589	0.100
202.200	33.075	0.100
202.300	30.270	0.100
202.400	28.167	0.100
202.500	31.173	0.100
202.600	25.481	0.100
202.700	20.310	0.100
202.800	26.784	0.100
202.900	26.077	0.100
203.000	16.826	0.100
203.100	34.913	0.100
203.200	22.567	0.100
203.300	39.733	0.100
203.400	29.108	0.100
203.500	28.070	0.100
203.600	25.896	0.100
203.700	27.760	0.100
203.800	26.331	0.100
203.900	27.607	0.100
204.000	30.779	0.100
204.100	32.101	0.100
204.200	28.285	0.100
204.300	25.530	0.100
204.400	28.545	0.100
204.500	31.662	0.100
204.600	24.549	0.100
204.700	36.274	0.100
204.800	30.154	0.100
204.900	25.118	0.100
205.000	25.981	0.100
205.100	31.698	0.100
205.200	33.636	0.100
205.300	21.830	0.100
205.400	29.486	0.100
205.500	21.827	0.100
205.600	31.627	0.100
205.700	23.944	0.100
205.800	25.787	0.100
205.900	32.101	0.100
206.000	20.750	0.100
206.100	25.882	0.100
206.200	25.125	0.100
206.300	18.734	0.100
206.400	24.159	0.100
206.500	25.423	0.100
206.600	40.210	0.100
206.700	25.279	0.100
206.800	28.043	0.100
206.900	27.716	0.100
207.000	21.494	0.100
207.100	27.240	0.100
207.200	29.696	0.100
207.300	33.258	0.100
207.400	30.379	0.100
207.500	26.171	0.100
207.600	28.764	0.100
207.700	32.277	0.100
207.800	25.994	0.100
207.900	24.851	0.100
208.000	26.103	0.100
208.100	33.061	0.100
208.200	22.962	0.100
208.300	31.703	0.100
208.400	23.961	0.100
208.500	25.306	0.100
208.600	25.073	0.100
208.700	26.416	0.100
208.800	23.021	0.100
208.900	18.589	0.100
209.000	31.616	0.100
209.100	30.194	0.100
209.200	27.839	0.100
209.300	38.737	0.100
209.400	31.039	0.100
209.500	29.806	0.100
209.600	27.618	0.100
209.700	22.110	0.100
209.800	27.516	0.100
209.900	29.547	0.100
210.000	16.835	0.100
210.100	24.475	0.100
210.200	26.463	0.100
210.300	21.490	0.100
210.400	32.975	0.100
210.500	17.929	0.100
210.600	24.728	0.100
210.700	24.592	0.100
210.800	23.693	0.100
210.900	32.117	0.100
211.000	26.009	0.100
211.100	23.571	0.100
211.200	29.601	0.100
211.300	24.134	0.100
211.400	28.978	0.100
211.500	24.610	0.100
211.600	25.002	0.100
211.700	32.977	0.100
211.800	24.366	0.100
211.900	23.092	0.100
212.000	26.016	0.100
212.100	22.432	0.100
212.200	23.613	0.100
212.300	28.844	0.100
212.400	31.050	0.100
212.500	27.750	0.100
212.600	30.194	0.100
212.700	20.912	0.100
212.800	21.169	0.100
212.900	22.733	0.100
213.000	32.261	0.100
213.100	17.596	0.100
213.200	30.002	0.100
213.300	28.943	0.100
213.400	14.613	0.100
213.500	27.537	0.100
213.600	33.976	0.100
213.700	22.083	0.100
213.800	26.953	0.100
213.900	25.620	0.100
214.000	30.665	0.100
214.100	22.264	0.100
214.200	23.655	0.100
214.300	27.800	0.100
214.400	30.147	0.100
214.500	24.154	0.100
214.600	26.551	0.100
214.700	29.724	0.100
214.800	25.934	0.100
214.900	23.228	0.100
215.000	20.228	0.100
215.100	20.983	0.100
215.200	32.676	0.100
215.300	23.950	0.100
215.400	16.794	0.100
215.500	35.719	0.100
215.600	26.800	0.100
215.700	28.591	0.100
215.800	25.960	0.100
215.900	26.775	0.100
216.000	25.570	0.100
216.100	27.842	0.100
216.200	29.514	0.100
216.300	27.926	0.100
216.400	29.627	0.100
216.500	21.656	0.100
216.600	28.426	0.100
216.700	24.180	0.100
216.800	30.690	0.100
216.900	19.188	0.100
217.000	21.008	0.100
217.100	38.520	0.100
217.200	36.355	0.100
217.300	29.395	0.100
217.400	22.150	0.100
217.500	22.266	0.100
217.600	24.766	0.100
217.700	27.114	0.100
217.800	35.892	0.100
217.900	15.330	0.100
218.000	17.599	0.100
218.100	25.745	0.100
218.200	25.558	0.100
218.300	27.674	0.100
218.400	24.471	0.100
218.500	27.125	0.100
218.600	27.247	0.100
218.700	29.001	0.100
218.800	23.609	0.100
218.900	25.799	0.100
219.000	22.712	0.100
219.100	22.444	0.100
219.200	28.055	0.100
219.300	26.830	0.100
219.400	19.935	0.100
219.500	33.257	0.100
219.600	21.584	0.100
219.700	31.224	0.100
219.800	27.309	0.100
219.900	25.109	0.100
220.000	28.817	0.100
220.100	27.321	0.100
220.200	17.481	0.100
220.300	22.268	0.100
220.400	36.303	0.100
220.500	33.148	0.100
220.600	25.040	0.100
220.700	23.860	0.100
220.800	24.519	0.100
220.900	31.416	0.100
221.000	26.084	0.100
221.100	27.494	0.100
221.200	25.555	0.100
221.300	23.457	0.100
221.400	28.465	0.100
221.500	30.853	0.100
221.600	26.114	0.100
221.700	17.216	0.100
221.800	34.897	0.100
221.900	22.966	0.100
222.000	26.731	0.100
222.100	27.107	0.100
222.200	27.032	0.100
222.300	24.565	0.100
222.400	15.615	0.100
222.500	28.645	0.100
222.600	27.612	0.100
222.700	25.257	0.100
222.800	19.596	0.100
222.900	29.139	0.100
223.000	25.723	0.100
223.100	25.782	0.100
223.200	29.266	0.100
223.300	18.053	0.100
223.400	17.503	0.100
223.500	29.372	0.100
223.600	29.830	0.100
223.700	24.095	0.100
223.800	26.027	0.100
223.900	15.846	0.100
224.000	24.098	0.100
224.100	29.914	0.100
224.200	25.421	0.100
224.300	29.176	0.100
224.400	29.066	0.100
224.500	23.816	0.100
224.600	21.101	0.100
224.700	23.341	0.100
224.800	20.498	0.100
224.900	23.490	0.100
225.000	24.541	0.100
225.100	26.606	0.100
225.200	18.961	0.100
225.300	27.801	0.100
225.400	24.712	0.100
225.500	16.571	0.100
225.600	29.446	0.100
225.700	34.338	0.100
225.800	27.358	0.100
225.900	18.437	0.100
226.000	21.302	0.100
226.100	17.808	0.100
226.200	22.827	0.100
226.300	33.819	0.100
226.400	28.184	0.100
226.500	22.479	0.100
226.600	26.461	0.100
226.700	27.183	0.100
226.800	23.739	0.100
226.900	25.348	0.100
227.000	20.836	0.100
227.100	27.272	0.100
227.200	19.746	0.100
227.300	31.957	0.100
227.400	28.913	0.100
227.500	23.232	0.100
227.600	20.782	0.100
227.700	28.512	0.100
227.800	24.858	0.100
227.900	35.970	0.100
228.000	29.332	0.100
228.100	18.786	0.100
228.200	25.685	0.100
228.300	25.686	0.100
228.400	28.283	0.100
228.500	19.376	0.100
228.600	26.555	0.100
228.700	21.538	0.100
228.800	28.727	0.100
228.900	28.618	0.100
229.000	26.816	0.100
229.100	22.271	0.100
229.200	33.011	0.100
229.300	18.952	0.100
229.400	28.890	0.100
229.500	22.253	0.100
229.600	17.035	0.100
229.700	23.610	0.100
229.800	25.297	0.100
229.900	27.412	0.100
230.000	31.943	0.100
230.100	14.159	0.100
230.200	24.014	0.100
230.300	24.213	0.100
230.400	29.303	0.100
230.500	25.597	0.100
230.600	24.113	0.100
230.700	29.698	0.100
230.800	32.193	0.100
230.900	24.023	0.100
231.000	20.583	0.100
231.100	22.874	0.100
231.200	25.577	0.100
231.300	24.454	0.100
231.400	16.214	0.100
231.500	27.954	0.100
231.600	30.640	0.100
231.700	26.215	0.100
231.800	18.342	0.100
231.900	11.757	0.100
232.000	31.580	0.100
232.100	29.622	0.100
232.200	21.303	0.100
232.300	29.382	0.100
232.400	20.086	0.100
232.500	29.370	0.100
232.600	26.982	0.100
232.700	21.442	0.100
232.800	21.892	0.100
232.900	24.487	0.100
233.000	24.659	0.100
233.100	23.341	0.100
233.200	34.137	0.100
233.300	27.690	0.100
233.400	19.815	0.100
233.500	20.721	0.100
233.600	25.380	0.100
233.700	25.783	0.100
233.800	21.694	0.100
233.900	18.719	0.100
234.000	34.917	0.100
234.100	29.078	0.100
234.200	27.126	0.100
234.300	26.419	0.100
234.400	15.591	0.100
234.500	24.037	0.100
234.600	22.646	0.100
234.700	27.707	0.100
234.800	26.747	0.100
234.900	28.147	0.100
235.000	22.404	0.100
235.100	23.883	0.100
235.200	29.304	0.100
235.300	22.384	0.100
235.400	31.844	0.100
235.500	28.547	0.100
235.600	23.189	0.100
235.700	24.647	0.100
235.800	11.347	0.100
235.900	13.066	0.100
236.000	22.194	0.100
236.100	23.283	0.100
236.200	32.074	0.100
236.300	26.605	0.100
236.400	23.139	0.100
236.500	24.127	0.100
236.600	15.503	0.100
236.700	23.308	0.100
236.800	25.280	0.100
236.900	25.408	0.100
237.000	24.616	0.100
237.100	26.164	0.100
237.200	28.629	0.100
237.300	21.420	0.100
237.400	31.505	0.100
237.500	33.569	0.100
237.600	21.847	0.100
237.700	23.455	0.100
237.800	26.787	0.100
237.900	25.053	0.100
238.000	22.156	0.100
238.100	21.608	0.100
238.200	32.014	0.100
238.300	22.928	0.100
238.400	25.083	0.100
238.500	30.232	0.100
238.600	21.022	0.100
238.700	22.958	0.100
238.800	24.363	0.100
238.900	28.661	0.100
239.000	25.660	0.100
239.100	22.218	0.100
239.200	17.353	0.100
239.300	16.265	0.100
239.400	30.258	0.100
239.500	27.841	0.100
239.600	26.424	0.100
239.700	16.166	0.100
239.800	23.534	0.100
239.900	27.078	0.100
240.000	24.050	0.100
240.100	21.130	0.100
240.200	18.907	0.100
240.300	25.342	0.100
240.400	21.029	0.100
240.500	8.733	0.100
240.600	15.823	0.100
240.700	12.689	0.100
240.800	1.120	0.100
240.900	8.280	0.100
241.000	-0.129	0.100
241.100	12.102	0.100
241.200	6.981	0.100
241.300	-1.545	0.100
241.400	-6.824	0.100
241.500	-4.288	0.100
241.600	0.250	0.100
241.700	-10.284	0.100
241.800	-7.879	0.100
241.900	-9.750	0.100
242.000	-4.688	0.100
242.100	-8.373	0.100
242.200	-4.222	0.100
242.300	-7.385	0.100
242.400	-7.676	0.100
242.500	-8.613	0.100
242.600	-15.184	0.100
242.700	-20.577	0.100
242.800	-10.097	0.100
242.900	-1.626	0.100
243.000	-12.484	0.100
243.100	-12.282	0.100
243.200	-9.991	0.100
243.300	-8.965	0.100
243.400	-7.913	0.100
243.500	-15.544	0.100
243.600	-6.938	0.100
243.700	-14.497	0.100
243.800	-12.200	0.100
243.900	-15.103	0.100
244.000	-7.795	0.100
244.100	-11.657	0.100
244.200	-7.790	0.100
244.300	-7.597	0.100
244.400	-7.323	0.100
244.500	-6.034	0.100
244.600	-12.897	0.100
244.700	-8.460	0.100
244.800	-9.115	0.100
244.900	-11.269	0.100
245.000	-11.165	0.100
245.100	-11.541	0.100
245.200	-15.801	0.100
245.300	-7.540	0.100
245.400	-9.086	0.100
245.500	-13.252	0.100
245.600	-4.632	0.100
245.700	-17.540	0.100
245.800	-14.624	0.100
245.900	0.722	0.100
246.000	-7.877	0.100
246.100	-0.105	0.100
246.200	-16.437	0.100
246.300	-12.292	0.100
246.400	-16.995	0.100
246.500	-14.575	0.100
246.600	-2.332	0.100
246.700	-4.759	0.100
246.800	-1.054	0.100
246.900	-9.996	0.100
247.000	-10.649	0.100
247.100	-12.449	0.100
247.200	-10.149	0.100
247.300	-7.193	0.100
247.400	-0.809	0.100
247.500	-10.218	0.100
247.600	-9.672	0.100
247.700	-6.419	0.100
247.800	-16.137	0.100
247.900	-14.039	0.100
248.000	-10.072	0.100
248.100	-7.118	0.100
248.200	-10.738	0.100
248.300	-15.415	0.100
248.400	-8.326	0.100
248.500	1.780	0.100
248.600	6.329	0.100
248.700	-4.050	0.100
248.800	-7.666	0.100
248.900	-11.995	0.100
249.000	-14.002	0.100
249.100	-1.836	0.100
249.200	-17.387	0.100
249.300	-6.946	0.100
249.400	-7.914	0.100
249.500	-7.804	0.100
249.600	0.844	0.100
249.700	-1.003	0.100
249.800	-11.408	0.100
249.900	-7.698	0.100
250.000	-7.888	0.100
250.100	-11.285	0.100
250.200	8.369	0.100
250.300	-7.823	0.100
250.400	-13.021	0.100
250.500	-7.154	0.100
250.600	-10.699	0.100
250.700	-10.504	0.100
250.800	-5.578	0.100
250.900	-2.424	0.100
251.000	-7.006	0.100
251.100	-9.443	0.100
251.200	-9.201	0.100
251.300	-11.257	0.100
251.400	-3.073	0.100
251.500	2.946	0.100
251.600	-6.953	0.100
251.700	-3.854	0.100
251.800	-9.877	0.100
251.900	-10.001	0.100
252.000	-5.034	0.100
252.100	-0.772	0.100
252.200	-6.271	0.100
252.300	-7.948	0.100
252.400	-14.529	0.100
252.500	-4.754	0.100
252.600	-0.940	0.100
252.700	-0.371	0.100
252.800	-6.873	0.100
252.900	-10.267	0.100
253.000	-8.244	0.100
253.100	-7.506	0.100
253.200	-1.388	0.100
253.300	-16.529	0.100
253.400	0.960	0.100
253.500	-6.857	0.100
253.600	-8.522	0.100
253.700	-8.551	0.100
253.800	-9.430	0.100
253.900	-7.223	0.100
254.000	-6.913	0.100
254.100	-11.978	0.100
254.200	-12.330	0.100
254.300	-1.657	0.100
254.400	-5.588	0.100
254.500	-12.626	0.100
254.600	-10.563	0.100
254.700	-5.170	0.100
254.800	1.787	0.100
254.900	-3.811	0.100
255.000	-10.931	0.100
255.100	2.981	0.100
255.200	3.129	0.100
255.300	-17.927	0.100
255.400	-10.839	0.100
255.500	-5.993	0.100
255.600	0.761	0.100
255.700	-8.838	0.100
255.800	-10.167	0.100
255.900	-5.238	0.100
256.000	-13.557	0.100
256.100	-10.058	0.100
256.200	-7.145	0.100
256.300	-15.866	0.100
256.400	-10.599	0.100
256.500	0.913	0.100
256.600	-2.967	0.100
256.700	0.007	0.100
256.800	-14.955	0.100
256.900	-15.802	0.100
257.000	-6.572	0.100
257.100	-6.630	0.100
257.200	-11.520	0.100
257.300	-12.019	0.100
257.400	-8.766	0.100
257.500	-4.801	0.100
257.600	-9.004	0.100
257.700	-1.370	0.100
257.800	-9.029	0.100
257.900	-15.556	0.100
258.000	-6.627	0.100
258.100	-8.931	0.100
258.200	-7.287	0.100
258.300	-3.509	0.100
258.400	-6.755	0.100
258.500	-15.666	0.100
258.600	-8.170	0.100
258.700	-11.225	0.100
258.800	-13.686	0.100
258.900	-5.246	0.100
259.000	-14.282	0.100
259.100	-11.993	0.100
259.200	-11.411	0.100
259.300	-10.122	0.100
259.400	-14.490	0.100
259.500	-5.843	0.100
259.600	-14.221	0.100
259.700	-7.589	0.100
259.800	-12.858	0.100
259.900	-5.309	0.100
260.000	-17.253	0.100
260.100	-14.457	0.100
260.200	-12.831	0.100
260.300	-8.697	0.100
260.400	2.571	0.100
260.500	-16.621	0.100
260.600	-6.762	0.100
260.700	-16.559	0.100
260.800	-6.305	0.100
260.900	-15.278	0.100
261.000	-12.734	0.100
261.100	-9.121	0.100
261.200	-2.025	0.100
261.300	-6.022	0.100
261.400	-13.538	0.100
261.500	-4.372	0.100
261.600	-4.991	0.100
261.700	-7.444	0.100
261.800	-9.581	0.100
261.900	-9.131	0.100
262.000	-5.883	0.100
262.100	-22.641	0.100
262.200	-9.403	0.100
262.300	-5.277	0.100
262.400	-12.081	0.100
262.500	-9.601	0.100
262.600	-12.371	0.100
262.700	-14.346	0.100
262.800	-5.437	0.100
262.900	-5.341	0.100
263.000	-8.165	0.100
263.100	-11.217	0.100
263.200	-4.163	0.100
263.300	-9.282	0.100
263.400	-7.685	0.100
263.500	-11.930	0.100
263.600	-6.960	0.100
263.700	-17.597	0.100
263.800	-18.971	0.100
263.900	-18.786	0.100
264.000	-12.979	0.100
264.100	-4.477	0.100
264.200	-9.747	0.100
264.300	-11.733	0.100
264.400	-12.665	0.100
264.500	-12.474	0.100
264.600	-10.199	0.100
264.700	-1.478	0.100
264.800	-10.233	0.100
264.900	-14.454	0.100
265.000	-7.469	0.100
265.100	-8.231	0.100
265.200	-17.591	0.100
265.300	-2.193	0.100
265.400	-9.613	0.100
265.500	-2.898	0.100
265.600	-9.748	0.100
265.700	-11.611	0.100
265.800	-14.874	0.100
265.900	-7.976	0.100
266.000	-15.520	0.100
266.100	-13.209	0.100
266.200	-19.989	0.100
266.300	-10.414	0.100
266.400	-13.406	0.100
266.500	-12.966	0.100
266.600	3.027	0.100
266.700	-16.114	0.100
266.800	-8.267	0.100
266.900	-7.821	0.100
267.000	-15.484	0.100
267.100	-10.136	0.100
267.200	-14.157	0.100
267.300	-14.961	0.100
267.400	-6.301	0.100
267.500	-7.083	0.100
267.600	-10.226	0.100
267.700	-10.076	0.100
267.800	-10.133	0.100
267.900	-6.377	0.100
268.000	-19.122	0.100
268.100	-11.676	0.100
268.200	-9.255	0.100
268.300	-13.629	0.100
268.400	-11.113	0.100
268.500	-15.770	0.100
268.600	-9.322	0.100
268.700	-13.134	0.100
268.800	-5.485	0.100
268.900	-8.782	0.100
269.000	-17.098	0.100
269.100	-8.339	0.100
269.200	-9.516	0.100
269.300	-10.915	0.100
269.400	-12.506	0.100
269.500	-16.301	0.100
269.600	-16.886	0.100
269.700	-18.985	0.100
269.800	-16.418	0.100
269.900	-12.922	0.100
270.000	-2.093	0.100
270.100	-8.376	0.100
270.200	-15.254	0.100
270.300	-14.309	0.100
270.400	-7.734	0.100
270.500	-10.240	0.100
270.600	-10.811	0.100
270.700	-15.127	0.100
270.800	-15.974	0.100
270.900	-4.102	0.100
271.000	-10.067	0.100
271.100	-16.086	0.100
271.200	-14.469	0.100
271.300	-13.187	0.100
271.400	-9.970	0.100
271.500	-5.551	0.100
271.600	-11.643	0.100
271.700	-17.558	0.100
271.800	-13.120	0.100
271.900	-4.437	0.100
272.000	-11.249	0.100
272.100	-13.220	0.100
272.200	-16.471	0.100
272.300	-5.044	0.100
272.400	-10.643	0.100
272.500	-16.446	0.100
272.600	-20.341	0.100
272.700	-20.605	0.100
272.800	-10.543	0.100
272.900	-12.122	0.100
273.000	-1.577	0.100
273.100	-21.812	0.100
273.200	-9.707	0.100
273.300	-12.839	0.100
273.400	-2.274	0.100
273.500	-12.487	0.100
273.600	-16.679	0.100
273.700	-27.134	0.100
273.800	-14.289	0.100
273.900	-13.373	0.100
274.000	-5.318	0.100
274.100	-12.322	0.100
274.200	-12.582	0.100
274.300	-15.137	0.100
274.400	-14.572	0.100
274.500	-14.509	0.100
274.600	-7.726	0.100
274.700	-13.005	0.100
274.800	-17.905	0.100
274.900	-12.269	0.100
275.000	-9.143	0.100
275.100	-16.401	0.100
275.200	-10.980	0.100
275.300	-12.479	0.100
275.400	-19.114	0.100
275.500	-20.739	0.100
275.600	-15.003	0.100
275.700	-9.295	0.100
275.800	-2.763	0.100
275.900	-8.884	0.100
276.000	-19.457	0.100
276.100	-14.053	0.100
276.200	-8.236	0.100
276.300	-10.557	0.100
276.400	-13.123	0.100
276.500	-19.583	0.100
276.600	-7.537	0.100
276.700	-13.721	0.100
276.800	-15.527	0.100
276.900	-13.795	0.100
277.000	-10.561	0.100
277.100	-24.508	0.100
277.200	-8.676	0.100
277.300	-12.276	0.100
277.400	-5.070	0.100
277.500	-12.789	0.100
277.600	-12.493	0.100
277.700	-23.579	0.100
277.800	-10.588	0.100
277.900	-13.162	0.100
278.000	-15.067	0.100
278.100	-6.939	0.100
278.200	-8.742	0.100
278.300	-18.801	0.100
278.400	-13.046	0.100
278.500	-7.101	0.100
278.600	-19.490	0.100
278.700	-17.708	0.100
278.800	-22.563	0.100
278.900	-8.624	0.100
279.000	-4.113	0.100
279.100	-8.417	0.100
279.200	-15.927	0.100
279.300	-6.791	0.100
279.400	-15.020	0.100
279.500	-9.500	0.100
279.600	-12.863	0.100
279.700	-10.513	0.100
279.800	-9.092	0.100
279.900	-15.803	0.100
280.000	-7.800	0.100
280.100	-14.486	0.100
280.200	-14.001	0.100
280.300	-13.002	0.100
280.400	-9.636	0.100
280.500	-13.205	0.100
280.600	-12.609	0.100
280.700	-12.279	0.100
280.800	-18.060	0.100
280.900	-12.866	0.100
281.000	-13.831	0.100
281.100	-17.899	0.100
281.200	-11.407	0.100
281.300	-14.080	0.100
281.400	-14.361	0.100
281.500	-23.175	0.100
281.600	-5.265	0.100
281.700	-21.917	0.100
281.800	-5.760	0.100
281.900	-10.443	0.100
282.000	-10.878	0.100
282.100	-19.364	0.100
282.200	-10.207	0.100
282.300	-4.857	0.100
282.400	-17.940	0.100
282.500	-10.083	0.100
282.600	-16.545	0.100
282.700	-14.276	0.100
282.800	-15.914	0.100
282.900	-20.989	0.100
283.000	-3.862	0.100
283.100	-6.485	0.100
283.200	-10.358	0.100
283.300	-15.234	0.100
283.400	-22.342	0.100
283.500	-12.387	0.100
283.600	-9.946	0.100
283.700	-0.512	0.100
283.800	-16.765	0.100
283.900	-17.373	0.100
284.000	-8.493	0.100
284.100	-18.218	0.100
284.200	-15.097	0.100
284.300	-16.053	0.100
284.400	-15.531	0.100
284.500	-14.071	0.100
284.600	-11.809	0.100
284.700	-15.191	0.100
284.800	-7.989	0.100
284.900	-14.814	0.100
285.000	-16.611	0.100
285.100	-4.288	0.100
285.200	-17.694	0.100
285.300	-12.753	0.100
285.400	-7.154	0.100
285.500	-18.888	0.100
285.600	-12.977	0.100
285.700	-21.905	0.100
285.800	-15.723	0.100
285.900	-13.160	0.100
286.000	-11.544	0.100
286.100	-10.202	0.100
286.200	-1.285	0.100
286.300	-11.548	0.100
286.400	-5.364	0.100
286.500	-14.965	0.100
286.600	-3.400	0.100
286.700	-17.885	0.100
286.800	-19.638	0.100
286.900	-12.051	0.100
287.000	-13.942	0.100
287.100	-6.970	0.100
287.200	-11.434	0.100
287.300	-7.118	0.100
287.400	-5.857	0.100
287.500	-14.366	0.100
287.600	-23.593	0.100
287.700	-11.121	0.100
287.800	-11.889	0.100
287.900	-18.159	0.100
288.000	-14.280	0.100
288.100	-15.058	0.100
288.200	-11.973	0.100
288.300	-14.179	0.100
288.400	-20.627	0.100
288.500	-12.236	0.100
288.600	-7.906	0.100
288.700	-12.150	0.100
288.800	-10.521	0.100
288.900	-12.515	0.100
289.000	-6.012	0.100
289.100	-9.777	0.100
289.200	-20.232	0.100
289.300	-12.156	0.100
289.400	-15.526	0.100
289.500	-10.171	0.100
289.600	-12.700	0.100
289.700	-12.009	0.100
289.800	-13.780	0.100
289.900	-10.739	0.100
290.000	-21.549	0.100
290.100	-16.341	0.100
290.200	-3.796	0.100
290.300	-17.652	0.100
290.400	-16.476	0.100
290.500	-4.024	0.100
290.600	-9.352	0.100
290.700	-3.556	0.100
290.800	-7.980	0.100
290.900	-11.354	0.100
291.000	-19.797	0.100
291.100	-14.312	0.100
291.200	-19.010	0.100
291.300	-7.818	0.100
291.400	-8.837	0.100
291.500	-13.236	0.100
291.600	-16.730	0.100
291.700	-14.936	0.100
291.800	-12.825	0.100
291.900	-14.991	0.100
292.000	-8.980	0.100
292.100	-12.372	0.100
292.200	-9.312	0.100
292.300	-9.546	0.100
292.400	-17.498	0.100
292.500	-9.989	0.100
292.600	-9.468	0.100
292.700	-8.326	0.100
292.800	-11.028	0.100
292.900	-24.945	0.100
293.000	-8.689	0.100
293.100	-13.760	0.100
293.200	-25.543	0.100
293.300	-9.094	0.100
293.400	-13.969	0.100
293.500	-14.159	0.100
293.600	-11.496	0.100
293.700	-6.039	0.100
293.800	-11.393	0.100
293.900	-5.467	0.100
294.000	-8.769	0.100
294.100	-11.438	0.100
294.200	-6.200	0.100
294.300	-11.551	0.100
294.400	-9.943	0.100
294.500	-16.425	0.100
294.600	-14.315	0.100
294.700	-10.284	0.100
294.800	-16.245	0.100
294.900	-9.871	0.100
295.000	-10.201	0.100
295.100	-11.052	0.100
295.200	-7.902	0.100
295.300	-9.152	0.100
295.400	-13.503	0.100
295.500	-10.485	0.100
295.600	-7.339	0.100
295.700	-7.902	0.100
295.800	-8.820	0.100
295.900	-17.875	0.100
296.000	-12.019	0.100
296.100	-8.233	0.100
296.200	-17.059	0.100
296.300	-18.343	0.100
296.400	-16.909	0.100
296.500	-23.448	0.100
296.600	-8.288	0.100
296.700	-12.174	0.100
296.800	-6.891	0.100
296.900	-7.954	0.100
297.000	-8.677	0.100
297.100	-12.255	0.100
297.200	-14.741	0.100
297.300	-9.333	0.100
297.400	-8.428	0.100
297.500	-14.182	0.100
297.600	-13.028	0.100
297.700	-7.769	0.100
297.800	-5.651	0.100
297.900	-15.755	0.100
298.000	-11.756	0.100
298.100	-14.232	0.100
298.200	-13.334	0.100
298.300	-3.683	0.100
298.400	-17.578	0.100
298.500	-9.284	0.100
298.600	-13.549	0.100
298.700	-10.669	0.100
298.800	-9.391	0.100
298.900	-15.318	0.100
299.000	-12.025	0.100
299.100	-4.299	0.100
299.200	-12.886	0.100
299.300	-5.938	0.100
299.400	-11.169	0.100
299.500	-11.993	0.100
299.600	-15.840	0.100
299.700	-8.420	0.100
299.800	-16.259	0.100
299.900	-17.949	0.100
300.000	-13.097	0.100
300.100	-10.458	0.100
300.200	-11.539	0.100
300.300	-14.783	0.100
300.400	-13.176	0.100
300.500	-19.758	0.100
300.600	-8.021	0.100
300.700	-8.904	0.100
300.800	-4.577	0.100
300.900	-11.354	0.100
301.000	-7.108	0.100
301.100	-6.875	0.100
301.200	-6.256	0.100
301.300	-18.089	0.100
301.400	-12.947	0.100
301.500	-6.908	0.100
301.600	-10.922	0.100
301.700	-12.629	0.100
301.800	-18.260	0.100
301.900	-13.481	0.100
302.000	-5.389	0.100
302.100	-10.929	0.100
302.200	-16.113	0.100
302.300	-15.382	0.100
302.400	-10.010	0.100
302.500	-3.898	0.100
302.600	-11.581	0.100
302.700	-10.118	0.100
302.800	-2.724	0.100
302.900	-15.557	0.100
303.000	-11.931	0.100
303.100	-4.730	0.100
303.200	-8.941	0.100
303.300	-10.421	0.100
303.400	-8.603	0.100
303.500	-2.635	0.100
303.600	-11.274	0.100
303.700	-9.413	0.100
303.800	-11.631	0.100
303.900	-22.542	0.100
304.000	-10.362	0.100
304.100	-5.152	0.100
304.200	-17.411	0.100
304.300	-14.154	0.100
304.400	-9.240	0.100
304.500	-6.799	0.100
304.600	-14.828	0.100
304.700	-17.490	0.100
304.800	-8.502	0.100
304.900	-9.480	0.100
305.000	-7.263	0.100
305.100	-13.191	0.100
305.200	-8.208	0.100
305.300	-4.873	0.100
305.400	-9.680	0.100
305.500	-8.037	0.100
305.600	-17.351	0.100
305.700	-10.686	0.100
305.800	-13.825	0.100
305.900	-13.798	0.100
306.000	-9.602	0.100
306.100	-7.188	0.100
306.200	-2.111	0.100
306.300	-8.804	0.100
306.400	-17.116	0.100
306.500	-21.373	0.100
306.600	-13.845	0.100
306.700	-10.339	0.100
306.800	-9.049	0.100
306.900	-4.693	0.100
307.000	-6.585	0.100
307.100	-9.066	0.100
307.200	-24.096	0.100
307.300	-13.444	0.100
307.400	1.834	0.100
307.500	-11.753	0.100
307.600	-13.193	0.100
307.700	-10.312	0.100
307.800	-7.050	0.100
307.900	-15.287	0.100
308.000	-9.205	0.100
308.100	-12.759	0.100
308.200	-12.318	0.100
308.300	-7.002	0.100
308.400	-12.330	0.100
308.500	-7.675	0.100
308.600	-17.278	0.100
308.700	-8.904	0.100
308.800	-6.889	0.100
308.900	-15.844	0.100
309.000	-7.446	0.100
309.100	-16.605	0.100
309.200	-4.567	0.100
309.300	-11.633	0.100
309.400	-8.637	0.100
309.500	-12.917	0.100
309.600	-9.288	0.100
309.700	-14.935	0.100
309.800	-12.522	0.100
309.900	-6.196	0.100
310.000	-5.954	0.100
310.100	-12.442	0.100
310.200	-7.814	0.100
310.300	-9.234	0.100
310.400	-14.213	0.100
310.500	-7.756	0.100
310.600	-11.835	0.100
310.700	-7.482	0.100
310.800	-3.532	0.100
310.900	-9.110	0.100
311.000	-13.238	0.100
311.100	-13.641	0.100
311.200	-8.324	0.100
311.300	-5.852	0.100
311.400	-11.322	0.100
311.500	-10.663	0.100
311.600	-12.659	0.100
311.700	-7.125	0.100
311.800	-11.755	0.100
311.900	-19.912	0.100
312.000	-17.756	0.100
312.100	-14.098	0.100
312.200	-6.383	0.100
312.300	-4.322	0.100
312.400	-13.820	0.100
312.500	-6.154	0.100
312.600	-6.975	0.100
312.700	-18.195	0.100
312.800	-17.284	0.100
312.900	-5.592	0.100
313.000	-5.525	0.100
313.100	-7.901	0.100
313.200	-9.972	0.100
313.300	-11.852	0.100
313.400	-14.847	0.100
313.500	-9.262	0.100
313.600	-6.744	0.100
313.700	-5.447	0.100
313.800	-11.327	0.100
313.900	-12.151	0.100
314.000	-5.914	0.100
314.100	-19.932	0.100
314.200	-0.864	0.100
314.300	-3.163	0.100
314.400	-14.743	0.100
314.500	-10.796	0.100
314.600	-5.604	0.100
314.700	-6.556	0.100
314.800	-8.000	0.100
314.900	-11.486	0.100
315.000	-5.788	0.100
315.100	-12.295	0.100
315.200	-7.845	0.100
315.300	-7.803	0.100
315.400	-8.751	0.100
315.500	-13.890	0.100
315.600	-11.773	0.100
315.700	-6.711	0.100
315.800	-11.818	0.100
315.900	-8.367	0.100
316.000	-12.356	0.100
316.100	-10.712	0.100
316.200	-6.253	0.100
316.300	-12.989	0.100
316.400	-12.257	0.100
316.500	-14.913	0.100
316.600	-4.728	0.100
316.700	-11.832	0.100
316.800	-4.095	0.100
316.900	-8.266	0.100
317.000	-5.808	0.100
317.100	-7.306	0.100
317.200	-2.580	0.100
317.300	-9.103	0.100
317.400	-14.836	0.100
317.500	-4.134	0.100
317.600	-15.524	0.100
317.700	-15.406	0.100
317.800	-8.637	0.100
317.900	-16.635	0.100
318.000	-7.777	0.100
318.100	-10.062	0.100
318.200	-13.302	0.100
318.300	-13.696	0.100
318.400	-17.289	0.100
318.500	-16.389	0.100
318.600	0.423	0.100
318.700	-10.453	0.100
318.800	-3.036	0.100
318.900	-7.912	0.100
319.000	-15.917	0.100
319.100	-11.085	0.100
319.200	-4.046	0.100
319.300	-5.832	0.100
319.400	-11.844	0.100
319.500	-14.875	0.100
319.600	-7.473	0.100
319.700	-9.722	0.100
319.800	-20.289	0.100
319.900	-10.059	0.100
320.000	-3.385	0.100
320.100	-2.702	0.100
320.200	-15.716	0.100
320.300	-6.716	0.100
320.400	-10.036	0.100
320.500	-6.022	0.100
320.600	-7.874	0.100
320.700	-9.669	0.100
320.800	-9.265	0.100
320.900	-10.621	0.100
321.000	-12.995	0.100
321.100	-10.177	0.100
321.200	-10.699	0.100
321.300	-9.710	0.100
321.400	-6.240	0.100
321.500	-13.645	0.100
321.600	-3.639	0.100
321.700	-9.714	0.100
321.800	-14.344	0.100
321.900	-5.851	0.100
322.000	-13.312	0.100
322.100	-11.279	0.100
322.200	-14.852	0.100
322.300	-12.956	0.100
322.400	-5.880	0.100
322.500	-7.645	0.100
322.600	-4.475	0.100
322.700	-12.295	0.100
322.800	-5.078	0.100
322.900	-1.898	0.100
323.000	-7.367	0.100
323.100	-9.049	0.100
323.200	-13.651	0.100
323.300	-6.963	0.100
323.400	-12.452	0.100
323.500	-8.998	0.100
323.600	-13.207	0.100
323.700	-5.695	0.100
323.800	-12.560	0.100
323.900	-8.293	0.100
324.000	-4.160	0.100
324.100	-15.463	0.100
324.200	-11.229	0.100
324.300	-9.953	0.100
324.400	-8.494	0.100
324.500	-9.151	0.100
324.600	-10.288	0.100
324.700	-9.784	0.100
324.800	-4.552	0.100
324.900	-8.787	0.100
325.000	-4.513	0.100
325.100	-18.084	0.100
325.200	-3.522	0.100
325.300	-9.399	0.100
325.400	-4.094	0.100
325.500	-5.097	0.100
325.600	-12.500	0.100
325.700	-6.790	0.100
325.800	-5.673	0.100
325.900	-8.634	0.100
326.000	-8.930	0.100
326.100	-5.175	0.100
326.200	-11.030	0.100
326.300	-6.187	0.100
326.400	-11.511	0.100
326.500	-0.529	0.100
326.600	-12.516	0.100
326.700	-16.913	0.100
326.800	-6.693	0.100
326.900	-17.239	0.100
327.000	-8.046	0.100
327.100	-11.482	0.100
327.200	-14.684	0.100
327.300	-10.447	0.100
327.400	-6.958	0.100
327.500	-3.254	0.100
327.600	-4.576	0.100
327.700	-14.174	0.100
327.800	-11.582	0.100
327.900	-9.803	0.100
328.000	-11.323	0.100
328.100	-7.787	0.100
328.200	-9.364	0.100
328.300	-11.484	0.100
328.400	-8.002	0.100
328.500	-1.316	0.100
328.600	-13.716	0.100
328.700	-11.282	0.100
328.800	-10.005	0.100
328.900	-4.080	0.100
329.000	-13.923	0.100
329.100	-23.438	0.100
329.200	-3.646	0.100
329.300	-8.988	0.100
329.400	-9.098	0.100
329.500	-0.956	0.100
329.600	-4.123	0.100
329.700	-9.272	0.100
329.800	-12.790	0.100
329.900	-5.226	0.100
330.000	-5.966	0.100
330.100	-10.164	0.100
330.200	-6.584	0.100
330.300	-6.947	0.100
330.400	1.184	0.100
330.500	-1.638	0.100
330.600	6.607	0.100
330.700	5.337	0.100
330.800	8.047	0.100
330.900	1.603	0.100
331.000	6.026	0.100
331.100	14.565	0.100
331.200	8.905	0.100
331.300	27.779	0.100
331.400	17.064	0.100
331.500	15.029	0.100
331.600	22.537	0.100
331.700	23.136	0.100
331.800	22.101	0.100
331.900	17.513	0.100
332.000	26.930	0.100
332.100	25.552	0.100
332.200	28.170	0.100
332.300	22.745	0.100
332.400	20.771	0.100
332.500	27.907	0.100
332.600	17.639	0.100
332.700	21.028	0.100
332.800	19.379	0.100
332.900	16.306	0.100
333.000	23.732	0.100
333.100	12.694	0.100
333.200	30.316	0.100
333.300	16.934	0.100
333.400	21.300	0.100
333.500	20.352	0.100
333.600	24.147	0.100
333.700	18.970	0.100
333.800	27.559	0.100
333.900	20.096	0.100
334.000	21.383	0.100
334.100	24.276	0.100
334.200	17.593	0.100
334.300	19.758	0.100
334.400	16.987	0.100
334.500	15.864	0.100
334.600	16.926	0.100
334.700	22.592	0.100
334.800	17.631	0.100
334.900	20.729	0.100
335.000	19.728	0.100
335.100	17.705	0.100
335.200	8.803	0.100
335.300	17.623	0.100
335.400	18.847	0.100
335.500	21.412	0.100
335.600	19.220	0.100
335.700	14.006	0.100
335.800	7.694	0.100
335.900	12.307	0.100
336.000	14.284	0.100
336.100	15.612	0.100
336.200	13.607	0.100
336.300	15.473	0.100
336.400	9.702	0.100
336.500	9.771	0.100
336.600	13.395	0.100
336.700	15.627	0.100
336.800	8.636	0.100
336.900	18.449	0.100
337.000	8.562	0.100
337.100	7.592	0.100
337.200	14.783	0.100
337.300	6.312	0.100
337.400	11.893	0.100
337.500	19.371	0.100
337.600	5.385	0.100
337.700	19.708	0.100
337.800	12.662	0.100
337.900	9.912	0.100
338.000	17.184	0.100
338.100	17.719	0.100
338.200	25.896	0.100
338.300	21.574	0.100
338.400	21.118	0.100
338.500	9.875	0.100
338.600	21.289	0.100
338.700	12.002	0.100
338.800	9.871	0.100
338.900	17.693	0.100
339.000	7.520	0.100
339.100	16.192	0.100
339.200	18.236	0.100
339.300	21.305	0.100
339.400	16.008	0.100
339.500	16.443	0.100
339.600	13.737	0.100
339.700	21.073	0.100
339.800	16.294	0.100
339.900	17.439	0.100
340.000	17.975	0.100
340.100	18.801	0.100
340.200	18.213	0.100
340.300	10.672	0.100
340.400	16.568	0.100
340.500	18.790	0.100
340.600	20.411	0.100
340.700	19.921	0.100
340.800	17.095	0.100
340.900	18.971	0.100
341.000	24.032	0.100
341.100	17.389	0.100
341.200	20.553	0.100
341.300	21.470	0.100
341.400	14.948	0.100
341.500	16.842	0.100
341.600	19.339	0.100
341.700	16.859	0.100
341.800	12.889	0.100
341.900	24.174	0.100
342.000	22.032	0.100
342.100	25.729	0.100
342.200	27.292	0.100
342.300	21.740	0.100
342.400	30.023	0.100
342.500	20.982	0.100
342.600	14.979	0.100
342.700	20.511	0.100
342.800	22.168	0.100
342.900	26.093	0.100
343.000	23.606	0.100
343.100	22.047	0.100
343.200	19.045	0.100
343.300	23.014	0.100
343.400	21.569	0.100
343.500	22.045	0.100
343.600	35.339	0.100
343.700	29.856	0.100
343.800	24.161	0.100
343.900	29.416	0.100
344.000	16.949	0.100
344.100	25.782	0.100
344.200	27.303	0.100
344.300	21.533	0.100
344.400	21.458	0.100
344.500	23.367	0.100
344.600	26.746	0.100
344.700	26.822	0.100
344.800	27.567	0.100
344.900	21.051	0.100
345.000	28.883	0.100
345.100	29.375	0.100
345.200	30.064	0.100
345.300	26.262	0.100
345.400	21.197	0.100
345.500	27.363	0.100
345.600	25.567	0.100
345.700	14.771	0.100
345.800	31.383	0.100
345.900	31.490	0.100
346.000	9.292	0.100
346.100	25.827	0.100
346.200	26.101	0.100
346.300	16.344	0.100
346.400	23.386	0.100
346.500	31.693	0.100
346.600	24.944	0.100
346.700	31.328	0.100
346.800	33.471	0.100
346.900	18.787	0.100
347.000	25.245	0.100
347.100	26.420	0.100
347.200	23.249	0.100
347.300	33.687	0.100
347.400	23.778	0.100
347.500	28.352	0.100
347.600	20.150	0.100
347.700	31.339	0.100
347.800	33.914	0.100
347.900	35.251	0.100
348.000	28.056	0.100
348.100	33.197	0.100
348.200	23.289	0.100
348.300	24.719	0.100
348.400	24.019	0.100
348.500	26.384	0.100
348.600	31.344	0.100
348.700	29.284	0.100
348.800	34.488	0.100
348.900	16.361	0.100
349.000	34.377	0.100
349.100	30.251	0.100
349.200	23.788	0.100
349.300	27.940	0.100
349.400	28.612	0.100
349.500	24.610	0.100
349.600	27.638	0.100
349.700	20.757	0.100
349.800	29.668	0.100
349.900	34.297	0.100
350.000	31.555	0.100
350.100	31.901	0.100
350.200	18.349	0.100
350.300	42.911	0.100
350.400	30.314	0.100
350.500	36.294	0.100
350.600	32.358	0.100
350.700	27.447	0.100
350.800	26.308	0.100
350.900	25.943	0.100
351.000	33.936	0.100
351.100	34.675	0.100
351.200	34.039	0.100
351.300	28.489	0.100
351.400	23.665	0.100
351.500	31.184	0.100
351.600	38.225	0.100
351.700	28.666	0.100
351.800	31.983	0.100
351.900	33.457	0.100
352.000	22.876	0.100
352.100	30.806	0.100
352.200	32.492	0.100
352.300	29.972	0.100
352.400	30.117	0.100
352.500	35.949	0.100
352.600	29.353	0.100
352.700	27.771	0.100
352.800	30.923	0.100
352.900	30.299	0.100
353.000	26.932	0.100
353.100	28.349	0.100
353.200	32.504	0.100
353.300	29.899	0.100
353.400	24.843	0.100
353.500	33.435	0.100
353.600	29.174	0.100
353.700	32.472	0.100
353.800	30.772	0.100
353.900	25.160	0.100
354.000	28.714	0.100
354.100	30.881	0.100
354.200	20.547	0.100
354.300	35.956	0.100
354.400	33.832	0.100
354.500	31.525	0.100
354.600	26.544	0.100
354.700	24.668	0.100
354.800	39.673	0.100
354.900	36.702	0.100
355.000	27.325	0.100
355.100	30.572	0.100
355.200	34.300	0.100
355.300	24.941	0.100
355.400	24.881	0.100
355.500	29.517	0.100
355.600	32.247	0.100
355.700	25.369	0.100
355.800	29.390	0.100
355.900	28.123	0.100
356.000	28.910	0.100
356.100	25.455	0.100
356.200	37.574	0.100
356.300	27.179	0.100
356.400	28.633	0.100
356.500	35.309	0.100
356.600	28.053	0.100
356.700	29.673	0.100
356.800	26.779	0.100
356.900	24.985	0.100
357.000	30.950	0.100
357.100	31.461	0.100
357.200	32.475	0.100
357.300	31.664	0.100
357.400	22.602	0.100
357.500	33.896	0.100
357.600	35.552	0.100
357.700	26.834	0.100
357.800	31.227	0.100
357.900	27.552	0.100
358.000	30.576	0.100
358.100	21.265	0.100
358.200	33.571	0.100
358.300	25.383	0.100
358.400	25.234	0.100
358.500	25.375	0.100
358.600	39.820	0.100
358.700	31.069	0.100
358.800	19.794	0.100
358.900	25.588	0.100
359.000	29.706	0.100
359.100	33.200	0.100
359.200	32.744	0.100
359.300	24.229	0.100
359.400	15.434	0.100
359.500	25.456	0.100
359.600	25.750	0.100
359.700	37.534	0.100
359.800	33.562	0.100
359.900	30.676	0.100
360.000	29.597	0.100
360.100	21.590	0.100
360.200	28.801	0.100
360.300	33.114	0.100
360.400	33.615	0.100
360.500	29.654	0.100
360.600	15.481	0.100
360.700	34.249	0.100
360.800	25.054	0.100
360.900	36.774	0.100
361.000	23.502	0.100
361.100	34.415	0.100
361.200	25.527	0.100
361.300	29.620	0.100
361.400	22.231	0.100
361.500	32.261	0.100
361.600	30.358	0.100
361.700	25.831	0.100
361.800	28.351	0.100
361.900	32.600	0.100
362.000	25.441	0.100
362.100	20.468	0.100
362.200	22.293	0.100
362.300	26.958	0.100
362.400	28.256	0.100
362.500	30.385	0.100
362.600	26.948	0.100
362.700	29.559	0.100
362.800	28.483	0.100
362.900	26.700	0.100
363.000	17.508	0.100
363.100	27.388	0.100
363.200	29.302	0.100
363.300	21.960	0.100
363.400	21.659	0.100
363.500	24.454	0.100
363.600	26.842	0.100
363.700	30.709	0.100
363.800	20.188	0.100
363.900	24.403	0.100
364.000	31.466	0.100
364.100	24.626	0.100
364.200	29.797	0.100
364.300	20.204	0.100
364.400	23.605	0.100
364.500	24.639	0.100
364.600	30.252	0.100
364.700	29.303	0.100
364.800	23.087	0.100
364.900	19.947	0.100
365.000	21.377	0.100
365.100	33.422	0.100
365.200	31.527	0.100
365.300	31.919	0.100
365.400	33.172	0.100
365.500	30.051	0.100
365.600	26.273	0.100
365.700	27.384	0.100
365.800	26.056	0.100
365.900	24.791	0.100
366.000	26.829	0.100
366.100	20.525	0.100
366.200	33.344	0.100
366.300	25.151	0.100
366.400	23.633	0.100
366.500	35.020	0.100
366.600	30.514	0.100
366.700	27.019	0.100
366.800	30.637	0.100
366.900	21.676	0.100
367.000	29.684	0.100
367.100	31.807	0.100
367.200	26.442	0.100
367.300	25.042	0.100
367.400	26.509	0.100
367.500	31.519	0.100
367.600	33.881	0.100
367.700	34.938	0.100
367.800	28.241	0.100
367.900	26.126	0.100
368.000	20.580	0.100
368.100	32.599	0.100
368.200	31.107	0.100
368.300	24.922	0.100
368.400	24.730	0.100
368.500	27.120	0.100
368.600	27.385	0.100
368.700	25.242	0.100
368.800	22.463	0.100
368.900	22.785	0.100
369.000	26.564	0.100
369.100	27.881	0.100
369.200	27.155	0.100
369.300	26.691	0.100
369.400	20.938	0.100
369.500	31.719	0.100
369.600	30.856	0.100
369.700	30.374	0.100
369.800	28.662	0.100
369.900	32.279	0.100
370.000	26.692	0.100
370.100	24.410	0.100
370.200	30.366	0.100
370.300	29.488	0.100
370.400	25.450	0.100
370.500	29.218	0.100
370.600	31.004	0.100
370.700	20.808	0.100
370.800	25.290	0.100
370.900	14.958	0.100
371.000	22.137	0.100
371.100	42.363	0.100
371.200	27.354	0.100
371.300	25.917	0.100
371.400	25.027	0.100
371.500	22.978	0.100
371.600	37.778	0.100
371.700	30.245	0.100
371.800	25.684	0.100
371.900	28.737	0.100
372.000	28.219	0.100
372.100	28.675	0.100
372.200	30.731	0.100
372.300	25.588	0.100
372.400	19.701	0.100
372.500	22.991	0.100
372.600	28.273	0.100
372.700	26.440	0.100
372.800	28.835	0.100
372.900	27.464	0.100
373.000	27.049	0.100
373.100	21.245	0.100
373.200	28.355	0.100
373.300	26.594	0.100
373.400	31.553	0.100
373.500	21.667	0.100
373.600	21.857	0.100
373.700	23.740	0.100
373.800	33.057	0.100
373.900	25.309	0.100
374.000	27.148	0.100
374.100	27.212	0.100
374.200	23.185	0.100
374.300	12.806	0.100
374.400	24.121	0.100
374.500	34.027	0.100
374.600	27.764	0.100
374.700	15.525	0.100
374.800	22.764	0.100
374.900	31.914	0.100
375.000	32.512	0.100
375.100	38.406	0.100
375.200	24.885	0.100
375.300	22.972	0.100
375.400	34.805	0.100
375.500	22.039	0.100
375.600	26.336	0.100
375.700	22.358	0.100
375.800	19.494	0.100
375.900	33.720	0.100
376.000	17.322	0.100
376.100	25.959	0.100
376.200	17.132	0.100
376.300	21.736	0.100
376.400	26.989	0.100
376.500	21.727	0.100
376.600	29.899	0.100
376.700	29.527	0.100
376.800	30.526	0.100
376.900	25.551	0.100
377.000	21.412	0.100
377.100	22.435	0.100
377.200	30.672	0.100
377.300	23.770	0.100
377.400	27.039	0.100
377.500	22.521	0.100
377.600	23.681	0.100
377.700	28.918	0.100
377.800	26.102	0.100
377.900	23.100	0.100
378.000	28.326	0.100
378.100	22.942	0.100
378.200	32.352	0.100
378.300	31.758	0.100
378.400	26.477	0.100
378.500	18.126	0.100
378.600	21.135	0.100
378.700	22.772	0.100
378.800	32.512	0.100
378.900	24.753	0.100
379.000	27.002	0.100
379.100	21.068	0.100
379.200	29.376	0.100
379.300	20.716	0.100
379.400	20.671	0.100
379.500	30.214	0.100
379.600	24.413	0.100
379.700	24.647	0.100
379.800	13.777	0.100
379.900	25.995	0.100
380.000	25.490	0.100
380.100	28.476	0.100
380.200	22.093	0.100
380.300	29.145	0.100
380.400	22.844	0.100
380.500	14.354	0.100
380.600	27.233	0.100
380.700	24.423	0.100
380.800	20.976	0.100
380.900	30.862	0.100
381.000	33.877	0.100
381.100	29.321	0.100
381.200	28.186	0.100
381.300	32.952	0.100
381.400	19.618	0.100
381.500	20.107	0.100
381.600	20.797	0.100
381.700	25.912	0.100
381.800	25.661	0.100
381.900	22.501	0.100
382.000	32.498	0.100
382.100	30.763	0.100
382.200	21.929	0.100
382.300	24.743	0.100
382.400	32.898	0.100
382.500	21.661	0.100
382.600	27.509	0.100
382.700	23.038	0.100
382.800	17.017	0.100
382.900	27.735	0.100
383.000	29.180	0.100
383.100	28.885	0.100
383.200	24.444	0.100
383.300	31.605	0.100
383.400	29.250	0.100
383.500	30.810	0.100
383.600	26.259	0.100
383.700	25.230	0.100
383.800	21.510	0.100
383.900	31.780	0.100
384.000	22.201	0.100
384.100	23.377	0.100
384.200	17.093	0.100
384.300	34.138	0.100
384.400	29.261	0.100
384.500	24.529	0.100
384.600	20.767	0.100
384.700	27.155	0.100
384.800	24.838	0.100
384.900	27.967	0.100
385.000	24.327	0.100
385.100	27.587	0.100
385.200	32.832	0.100
385.300	21.824	0.100
385.400	24.039	0.100
385.500	23.161	0.100
385.600	40.760	0.100
385.700	23.761	0.100
385.800	26.886	0.100
385.900	24.406	0.100
386.000	23.500	0.100
386.100	26.203	0.100
386.200	12.255	0.100
386.300	27.265	0.100
386.400	17.917	0.100
386.500	31.295	0.100
386.600	24.642	0.100
386.700	22.885	0.100
386.800	26.080	0.100
386.900	21.795	0.100
387.000	22.681	0.100
387.100	25.878	0.100
387.200	23.217	0.100
387.300	19.700	0.100
387.400	16.824	0.100
387.500	26.420	0.100
387.600	35.710	0.100
387.700	27.662	0.100
387.800	29.559	0.100
387.900	31.678	0.100
388.000	20.743	0.100
388.100	27.724	0.100
388.200	26.702	0.100
388.300	22.819	0.100
388.400	30.233	0.100
388.500	27.612	0.100
388.600	23.204	0.100
388.700	27.801	0.100
388.800	20.177	0.100
388.900	25.647	0.100
389.000	27.811	0.100
389.100	29.499	0.100
389.200	9.119	0.100
389.300	20.208	0.100
389.400	28.851	0.100
389.500	29.801	0.100
389.600	32.901	0.100
389.700	28.335	0.100
389.800	23.278	0.100
389.900	29.139	0.100
390.000	28.405	0.100
390.100	19.086	0.100
390.200	24.660	0.100
390.300	19.175	0.100
390.400	23.613	0.100
390.500	15.762	0.100
390.600	14.768	0.100
390.700	10.773	0.100
390.800	6.841	0.100
390.900	16.228	0.100
391.000	6.971	0.100
391.100	3.028	0.100
391.200	6.323	0.100
391.300	-8.369	0.100
391.400	-2.754	0.100
391.500	-6.621	0.100
391.600	-9.068	0.100
391.700	-7.368	0.100
391.800	-8.884	0.100
391.900	-18.576	0.100
392.000	-15.769	0.100
392.100	-15.251	0.100
392.200	-7.007	0.100
392.300	-12.086	0.100
392.400	-8.300	0.100
392.500	-12.948	0.100
392.600	-7.472	0.100
392.700	-9.424	0.100
392.800	-6.459	0.100
392.900	-10.842	0.100
393.000	-20.167	0.100
393.100	-17.466	0.100
393.200	-19.635	0.100
393.300	-7.189	0.100
393.400	-17.736	0.100
393.500	-13.105	0.100
393.600	-21.790	0.100
393.700	-18.208	0.100
393.800	-21.353	0.100
393.900	-17.499	0.100
394.000	-5.455	0.100
394.100	-10.811	0.100
394.200	-18.842	0.100
394.300	-7.536	0.100
394.400	-15.016	0.100
394.500	-10.412	0.100
394.600	-15.095	0.100
394.700	-14.601	0.100
394.800	-11.629	0.100
394.900	-4.447	0.100
395.000	-15.252	0.100
395.100	-18.468	0.100
395.200	-9.689	0.100
395.300	-9.658	0.100
395.400	-6.622	0.100
395.500	-6.833	0.100
395.600	-22.255	0.100
395.700	-8.448	0.100
395.800	-7.035	0.100
395.900	-20.207	0.100
396.000	-14.769	0.100
396.100	-5.667	0.100
396.200	-6.993	0.100
396.300	-18.209	0.100
396.400	-22.452	0.100
396.500	-3.527	0.100
396.600	-13.577	0.100
396.700	-7.899	0.100
396.800	-15.565	0.100
396.900	-11.709	0.100
397.000	-12.307	0.100
397.100	-13.880	0.100
397.200	-10.296	0.100
397.300	-11.920	0.100
397.400	-12.035	0.100
397.500	-7.075	0.100
397.600	-15.611	0.100
397.700	-6.987	0.100
397.800	-3.263	0.100
397.900	-12.569	0.100
398.000	-10.702	0.100
398.100	-3.855	0.100
398.200	-16.665	0.100
398.300	-14.530	0.100
398.400	-5.842	0.100
398.500	-10.744	0.100
398.600	-15.472	0.100
398.700	-7.208	0.100
398.800	-4.816	0.100
398.900	-5.815	0.100
399.000	-17.689	0.100
399.100	-10.730	0.100
399.200	-1.755	0.100
399.300	-3.718	0.100
399.400	-8.741	0.100
399.500	-6.589	0.100
399.600	-10.593	0.100
399.700	-15.064	0.100
399.800	-13.838	0.100
399.900	-11.148	0.100
400.000	-6.608	0.100
400.100	-1.807	0.100
400.200	-10.202	0.100
400.300	-7.375	0.100
400.400	-4.070	0.100
400.500	-7.773	0.100
400.600	-7.638	0.100
400.700	-12.908	0.100
400.800	-7.060	0.100
400.900	-8.855	0.100
401.000	-18.338	0.100
401.100	0.600	0.100
401.200	-3.469	0.100
401.300	-12.777	0.100
401.400	-10.147	0.100
401.500	-6.663	0.100
401.600	-23.742	0.100
401.700	-4.964	0.100
401.800	-1.883	0.100
401.900	-18.646	0.100
402.000	-14.447	0.100
402.100	-1.593	0.100
402.200	-11.202	0.100
402.300	-1.736	0.100
402.400	-10.243	0.100
402.500	-5.652	0.100
402.600	-9.269	0.100
402.700	-7.468	0.100
402.800	-8.220	0.100
402.900	-12.986	0.100
403.000	-7.357	0.100
403.100	-8.996	0.100
403.200	-14.574	0.100
403.300	-10.381	0.100
403.400	-4.664	0.100
403.500	-11.872	0.100
403.600	-10.771	0.100
403.700	-8.266	0.100
403.800	-0.435	0.100
403.900	-11.192	0.100
404.000	-14.060	0.100
404.100	-10.561	0.100
404.200	-8.404	0.100
404.300	-10.508	0.100
404.400	-7.049	0.100
404.500	-16.981	0.100
404.600	-14.798	0.100
404.700	-9.970	0.100
404.800	-11.663	0.100
404.900	-19.822	0.100
405.000	-13.201	0.100
405.100	-13.198	0.100
405.200	-13.640	0.100
405.300	-4.660	0.100
405.400	-9.993	0.100
405.500	-14.423	0.100
405.600	-4.022	0.100
405.700	-15.362	0.100
405.800	-7.827	0.100
405.900	-21.589	0.100
406.000	-17.961	0.100
406.100	-6.243	0.100
406.200	-6.443	0.100
406.300	-3.714	0.100
406.400	-8.054	0.100
406.500	-24.952	0.100
406.600	-7.326	0.100
406.700	-9.945	0.100
406.800	-5.082	0.100
406.900	-20.667	0.100
407.000	-11.655	0.100
407.100	-13.186	0.100
407.200	-10.532	0.100
407.300	-14.061	0.100
407.400	-3.976	0.100
407.500	-21.061	0.100
407.600	-12.970	0.100
407.700	-9.902	0.100
407.800	-7.217	0.100
407.900	-8.078	0.100
408.000	-8.373	0.100
408.100	-6.451	0.100
408.200	-6.748	0.100
408.300	-7.193	0.100
408.400	-10.777	0.100
408.500	-13.411	0.100
408.600	-9.389	0.100
408.700	-10.488	0.100
408.800	-13.007	0.100
408.900	-4.427	0.100
409.000	-14.907	0.100
409.100	-17.560	0.100
409.200	-4.379	0.100
409.300	-16.232	0.100
409.400	-11.868	0.100
409.500	-8.795	0.100
409.600	-12.191	0.100
409.700	-8.622	0.100
409.800	-10.257	0.100
409.900	-15.199	0.100
410.000	-9.497	0.100
410.100	-11.761	0.100
410.200	-16.026	0.100
410.300	-6.109	0.100
410.400	-5.308	0.100
410.500	-15.437	0.100
410.600	-10.139	0.100
410.700	-10.198	0.100
410.800	-10.268	0.100
410.900	-11.425	0.100
411.000	-21.237	0.100
411.100	-17.146	0.100
411.200	-6.164	0.100
411.300	-8.116	0.100
411.400	-8.162	0.100
411.500	-15.242	0.100
411.600	-14.883	0.100
411.700	-12.026	0.100
411.800	-13.627	0.100
411.900	-18.878	0.100
412.000	-14.196	0.100
412.100	-10.835	0.100
412.200	-12.437	0.100
412.300	-9.226	0.100
412.400	-14.160	0.100
412.500	-8.949	0.100
412.600	-18.886	0.100
412.700	-12.914	0.100
412.800	-13.929	0.100
412.900	-3.531	0.100
413.000	-13.963	0.100
413.100	-18.200	0.100
413.200	-8.414	0.100
413.300	-14.773	0.100
413.400	-14.243	0.100
413.500	-11.370	0.100
413.600	-8.219	0.100
413.700	-5.214	0.100
413.800	-5.846	0.100
413.900	-17.347	0.100
414.000	-18.352	0.100
414.100	-19.158	0.100
414.200	-16.851	0.100
414.300	-12.056	0.100
414.400	-14.800	0.100
414.500	-10.753	0.100
414.600	-2.082	0.100
414.700	-8.696	0.100
414.800	-6.377	0.100
414.900	-16.274	0.100
415.000	-15.785	0.100
415.100	-18.402	0.100
415.200	-11.831	0.100
415.300	-12.567	0.100
415.400	-11.354	0.100
415.500	-18.978	0.100
415.600	-6.386	0.100
415.700	-22.170	0.100
415.800	-16.697	0.100
415.900	-12.673	0.100
416.000	-9.973	0.100
416.100	-14.512	0.100
416.200	-21.083	0.100
416.300	-8.389	0.100
416.400	-4.676	0.100
416.500	-10.320	0.100
416.600	-11.677	0.100
416.700	-13.628	0.100
416.800	-12.578	0.100
416.900	-23.959	0.100
417.000	-10.403	0.100
417.100	-19.118	0.100
417.200	-15.473	0.100
417.300	-8.737	0.100
417.400	-12.093	0.100
417.500	-9.381	0.100
417.600	-15.519	0.100
417.700	-12.755	0.100
417.800	-18.446	0.100
417.900	-25.983	0.100
418.000	-8.690	0.100
418.100	-8.802	0.100
418.200	-18.250	0.100
418.300	-14.514	0.100
418.400	-18.984	0.100
418.500	-18.391	0.100
418.600	-22.972	0.100
418.700	-14.515	0.100
418.800	-13.112	0.100
418.900	-12.026	0.100
419.000	-14.123	0.100
419.100	-9.084	0.100
419.200	-16.189	0.100
419.300	-15.348	0.100
419.400	-21.390	0.100
419.500	-19.184	0.100
419.600	-14.103	0.100
419.700	-17.530	0.100
419.800	-11.762	0.100
419.900	-13.252	0.100
420.000	-26.400	0.100
420.100	-9.582	0.100
420.200	-8.873	0.100
420.300	-12.587	0.100
420.400	-14.321	0.100
420.500	-18.849	0.100
420.600	-11.056	0.100
420.700	-13.537	0.100
420.800	-17.555	0.100
420.900	-19.667	0.100
421.000	-17.326	0.100
421.100	-5.452	0.100
421.200	-22.155	0.100
421.300	-9.441	0.100
421.400	-14.469	0.100
421.500	-12.702	0.100
421.600	-12.360	0.100
421.700	-12.781	0.100
421.800	-11.228	0.100
421.900	-16.713	0.100
422.000	-13.434	0.100
422.100	-18.973	0.100
422.200	-14.031	0.100
422.300	-11.854	0.100
422.400	-15.602	0.100
422.500	-24.706	0.100
422.600	-20.951	0.100
422.700	-13.568	0.100
422.800	-9.626	0.100
422.900	-19.445	0.100
423.000	-9.844	0.100
423.100	-17.464	0.100
423.200	-13.331	0.100
423.300	-17.552	0.100
423.400	-15.860	0.100
423.500	-6.919	0.100
423.600	-12.127	0.100
423.700	-16.138	0.100
423.800	-14.199	0.100
423.900	-17.121	0.100
424.000	-10.094	0.100
424.100	-19.633	0.100
424.200	-19.183	0.100
424.300	-13.039	0.100
424.400	-16.925	0.100
424.500	-28.352	0.100
424.600	-15.887	0.100
424.700	-14.505	0.100
424.800	-14.957	0.100
424.900	-25.950	0.100
425.000	-12.156	0.100
425.100	-12.686	0.100
425.200	-21.036	0.100
425.300	-16.272	0.100
425.400	-15.615	0.100
425.500	-9.145	0.100
425.600	-18.630	0.100
425.700	-16.891	0.100
425.800	-14.248	0.100
425.900	-19.145	0.100
426.000	-12.019	0.100
426.100	-16.576	0.100
426.200	-16.074	0.100
426.300	-14.547	0.100
426.400	-15.587	0.100
426.500	-11.228	0.100
426.600	-18.886	0.100
426.700	-12.501	0.100
426.800	-16.272	0.100
426.900	-13.059	0.100
427.000	-18.242	0.100
427.100	-7.767	0.100
427.200	-14.195	0.100
427.300	-17.305	0.100
427.400	-15.041	0.100
427.500	-19.035	0.100
427.600	-14.486	0.100
427.700	-13.926	0.100
427.800	-16.611	0.100
427.900	-6.864	0.100
428.000	-20.921	0.100
428.100	-17.248	0.100
428.200	-15.826	0.100
428.300	-9.504	0.100
428.400	-15.738	0.100
428.500	-21.345	0.100
428.600	-23.037	0.100
428.700	-10.489	0.100
428.800	-16.048	0.100
428.900	-17.152	0.100
429.000	-18.391	0.100
429.100	-15.608	0.100
429.200	-17.092	0.100
429.300	-14.625	0.100
429.400	-15.565	0.100
429.500	-15.714	0.100
429.600	-9.970	0.100
429.700	-22.905	0.100
429.800	-11.913	0.100
429.900	-14.903	0.100
430.000	-10.325	0.100
430.100	-15.634	0.100
430.200	-15.069	0.100
430.300	-18.759	0.100
430.400	-11.271	0.100
430.500	-7.342	0.100
430.600	-17.781	0.100
430.700	-17.429	0.100
430.800	-18.055	0.100
430.900	-15.347	0.100
431.000	-13.103	0.100
431.100	-10.776	0.100
431.200	-16.342	0.100
431.300	-11.814	0.100
431.400	-15.623	0.100
431.500	-15.872	0.100
431.600	-17.622	0.100
431.700	-20.946	0.100
431.800	-11.580	0.100
431.900	-26.459	0.100
432.000	-18.916	0.100
432.100	-9.206	0.100
432.200	-18.836	0.100
432.300	-14.583	0.100
432.400	-23.407	0.100
432.500	-7.407	0.100
432.600	-9.491	0.100
432.700	-16.548	0.100
432.800	-14.301	0.100
432.900	-15.285	0.100
433.000	-10.942	0.100
433.100	-17.697	0.100
433.200	-19.956	0.100
433.300	-24.155	0.100
433.400	-9.713	0.100
433.500	-6.700	0.100
433.600	-22.113	0.100
433.700	-27.686	0.100
433.800	-15.993	0.100
433.900	-10.978	0.100
434.000	-18.691	0.100
434.100	-17.023	0.100
434.200	-12.236	0.100
434.300	-10.533	0.100
434.400	-18.382	0.100
434.500	-15.697	0.100
434.600	-21.383	0.100
434.700	-12.223	0.100
434.800	-14.572	0.100
434.900	-8.608	0.100
435.000	-21.850	0.100
435.100	-12.107	0.100
435.200	-22.683	0.100
435.300	-11.036	0.100
435.400	-14.552	0.100
435.500	-15.905	0.100
435.600	-8.555	0.100
435.700	-13.183	0.100
435.800	-21.949	0.100
435.900	-21.613	0.100
436.000	-23.857	0.100
436.100	-13.955	0.100
436.200	-9.812	0.100
436.300	-13.419	0.100
436.400	-14.569	0.100
436.500	-15.541	0.100
436.600	-13.020	0.100
436.700	-16.887	0.100
436.800	-17.539	0.100
436.900	-17.040	0.100
437.000	-10.380	0.100
437.100	-12.676	0.100
437.200	-28.009	0.100
437.300	-3.197	0.100
437.400	-13.758	0.100
437.500	-11.450	0.100
437.600	-17.316	0.100
437.700	-23.010	0.100
437.800	-15.177	0.100
437.900	-16.640	0.100
438.000	-17.682	0.100
438.100	-9.651	0.100
438.200	-19.376	0.100
438.300	-13.170	0.100
438.400	-17.593	0.100
438.500	-17.653	0.100
438.600	-11.023	0.100
438.700	-19.219	0.100
438.800	-15.416	0.100
438.900	-12.339	0.100
439.000	-13.160	0.100
439.100	-17.248	0.100
439.200	-13.929	0.100
439.300	-22.070	0.100
439.400	-10.917	0.100
439.500	-7.886	0.100
439.600	-12.190	0.100
439.700	-7.110	0.100
439.800	-13.213	0.100
439.900	-10.106	0.100
440.000	-19.687	0.100
440.100	-15.794	0.100
440.200	-19.357	0.100
440.300	-16.263	0.100
440.400	-11.103	0.100
440.500	-10.799	0.100
440.600	-11.309	0.100
440.700	-16.589	0.100
440.800	-16.138	0.100
440.900	-16.878	0.100
441.000	-18.286	0.100
441.100	-16.987	0.100
441.200	-10.216	0.100
441.300	-18.227	0.100
441.400	-20.227	0.100
441.500	-9.633	0.100
441.600	-21.078	0.100
441.700	-4.468	0.100
441.800	-4.352	0.100
441.900	-6.179	0.100
442.000	-23.173	0.100
442.100	-19.493	0.100
442.200	-11.311	0.100
442.300	-7.107	0.100
442.400	-5.684	0.100
442.500	-11.466	0.100
442.600	-21.146	0.100
442.700	-15.769	0.100
442.800	-21.374	0.100
442.900	-13.834	0.100
443.000	-14.435	0.100
443.100	-15.039	0.100
443.200	-16.434	0.100
443.300	-9.645	0.100
443.400	-23.376	0.100
443.500	-15.213	0.100
443.600	-9.657	0.100
443.700	-10.427	0.100
443.800	-13.432	0.100
443.900	-25.186	0.100
444.000	-10.948	0.100
444.100	-17.334	0.100
444.200	-22.490	0.100
444.300	-15.326	0.100
444.400	-19.932	0.100
444.500	-8.401	0.100
444.600	-3.286	0.100
444.700	-11.085	0.100
444.800	-12.601	0.100
444.900	-17.176	0.100
445.000	-20.714	0.100
445.100	-16.307	0.100
445.200	-15.349	0.100
445.300	-14.344	0.100
445.400	-12.811	0.100
445.500	-5.985	0.100
445.600	-18.619	0.100
445.700	-9.593	0.100
445.800	-1.761	0.100
445.900	-16.816	0.100
446.000	-13.335	0.100
446.100	-11.704	0.100
446.200	-18.265	0.100
446.300	-10.810	0.100
446.400	-9.267	0.100
446.500	-14.789	0.100
446.600	-15.239	0.100
446.700	-19.826	0.100
446.800	-9.776	0.100
446.900	-7.795	0.100
447.000	-9.372	0.100
447.100	-4.376	0.100
447.200	-14.060	0.100
447.300	-11.129	0.100
447.400	-8.461	0.100
447.500	-13.891	0.100
447.600	-16.639	0.100
447.700	-12.742	0.100
447.800	-7.846	0.100
447.900	-10.662	0.100
448.000	-10.286	0.100
448.100	-12.527	0.100
448.200	-13.143	0.100
448.300	-12.952	0.100
448.400	-13.849	0.100
448.500	-14.904	0.100
448.600	-12.360	0.100
448.700	-15.768	0.100
448.800	-12.567	0.100
448.900	-3.512	0.100
449.000	-8.536	0.100
449.100	-16.007	0.100
449.200	-13.823	0.100
449.300	-10.843	0.100
449.400	-16.482	0.100
449.500	-21.292	0.100
449.600	-4.541	0.100
449.700	-4.402	0.100
449.800	-9.261	0.100
449.900	-19.822	0.100
450.000	-8.706	0.100
450.100	-12.997	0.100
450.200	-12.586	0.100
450.300	-12.566	0.100
450.400	-7.374	0.100
450.500	-7.878	0.100
450.600	-14.274	0.100
450.700	-20.149	0.100
450.800	-12.005	0.100
450.900	-24.817	0.100
451.000	-9.014	0.100
451.100	-6.337	0.100
451.200	-12.946	0.100
451.300	-13.543	0.100
451.400	-15.527	0.100
451.500	-15.092	0.100
451.600	-5.560	0.100
451.700	-13.935	0.100
451.800	-15.711	0.100
451.900	-12.353	0.100
452.000	-14.444	0.100
452.100	-17.821	0.100
452.200	-11.667	0.100
452.300	-12.929	0.100
452.400	-14.681	0.100
452.500	-13.840	0.100
452.600	-14.789	0.100
452.700	-13.248	0.100
452.800	-10.115	0.100
452.900	-9.292	0.100
453.000	-12.401	0.100
453.100	-9.373	0.100
453.200	-9.626	0.100
453.300	-14.916	0.100
453.400	-2.148	0.100
453.500	-8.182	0.100
453.600	-11.567	0.100
453.700	-18.691	0.100
453.800	-17.547	0.100
453.900	-8.761	0.100
454.000	-12.224	0.100
454.100	-10.090	0.100
454.200	-14.083	0.100
454.300	-9.910	0.100
454.400	-8.254	0.100
454.500	-18.361	0.100
454.600	-9.225	0.100
454.700	-9.120	0.100
454.800	-4.457	0.100
454.900	-13.231	0.100
455.000	-10.088	0.100
455.100	-8.644	0.100
455.200	-16.106	0.100
455.300	-20.235	0.100
455.400	-14.007	0.100
455.500	-6.488	0.100
455.600	-11.816	0.100
455.700	-8.286	0.100
455.800	-11.962	0.100
455.900	-9.969	0.100
456.000	-22.123	0.100
456.100	-6.869	0.100
456.200	-8.765	0.100
456.300	-12.922	0.100
456.400	-14.561	0.100
456.500	-16.260	0.100
456.600	-12.546	0.100
456.700	-11.555	0.100
456.800	-13.803	0.100
456.900	-2.986	0.100
457.000	-15.415	0.100
457.100	-12.441	0.100
457.200	-12.296	0.100
457.300	-6.021	0.100
457.400	-14.888	0.100
457.500	-12.550	0.100
457.600	-5.744	0.100
457.700	-11.904	0.100
457.800	-15.481	0.100
457.900	-8.111	0.100
458.000	-8.918	0.100
458.100	-9.439	0.100
458.200	-12.657	0.100
458.300	-18.993	0.100
458.400	-19.469	0.100
458.500	-12.164	0.100
458.600	-9.177	0.100
458.700	-10.447	0.100
458.800	-6.212	0.100
458.900	-8.745	0.100
459.000	-9.885	0.100
459.100	-11.227	0.100
459.200	-12.419	0.100
459.300	-10.527	0.100
459.400	-11.743	0.100
459.500	-15.157	0.100
459.600	-15.540	0.100
459.700	-0.580	0.100
459.800	-10.867	0.100
459.900	-12.881	0.100
460.000	-9.851	0.100
460.100	-20.886	0.100
460.200	-9.618	0.100
460.300	0.888	0.100
460.400	-12.817	0.100
460.500	-11.685	0.100
460.600	-7.334	0.100
460.700	-10.835	0.100
460.800	-8.296	0.100
460.900	-8.740	0.100
461.000	-7.569	0.100
461.100	-14.078	0.100
461.200	-12.234	0.100
461.300	-4.068	0.100
461.400	-6.151	0.100
461.500	-15.924	0.100
461.600	-12.015	0.100
461.700	-9.874	0.100
461.800	-16.500	0.100
461.900	-9.122	0.100
462.000	-0.378	0.100
462.100	-8.788	0.100
462.200	-11.492	0.100
462.300	-12.344	0.100
462.400	-6.982	0.100
462.500	-10.926	0.100
462.600	-9.787	0.100
462.700	-13.444	0.100
462.800	-12.421	0.100
462.900	-19.671	0.100
463.000	-16.762	0.100
463.100	-5.086	0.100
463.200	-17.084	0.100
463.300	-9.981	0.100
463.400	-15.350	0.100
463.500	-12.145	0.100
463.600	-13.856	0.100
463.700	-3.867	0.100
463.800	-9.185	0.100
463.900	-13.049	0.100
464.000	-7.426	0.100
464.100	-9.999	0.100
464.200	-17.199	0.100
464.300	-11.909	0.100
464.400	-14.340	0.100
464.500	-13.364	0.100
464.600	-6.765	0.100
464.700	-1.742	0.100
464.800	-9.849	0.100
464.900	-25.773	0.100
465.000	-7.706	0.100
465.100	-15.955	0.100
465.200	-12.568	0.100
465.300	-9.548	0.100
465.400	-8.674	0.100
465.500	-6.539	0.100
465.600	-7.395	0.100
465.700	-17.811	0.100
465.800	-13.563	0.100
465.900	-6.401	0.100
466.000	-12.277	0.100
466.100	-14.558	0.100
466.200	-11.124	0.100
466.300	-8.756	0.100
466.400	-3.013	0.100
466.500	-11.722	0.100
466.600	-14.176	0.100
466.700	-4.936	0.100
466.800	-8.157	0.100
466.900	-12.155	0.100
467.000	-13.057	0.100
467.100	-13.763	0.100
467.200	-9.318	0.100
467.300	-12.386	0.100
467.400	-12.428	0.100
467.500	-12.074	0.100
467.600	-10.589	0.100
467.700	-10.939	0.100
467.800	-9.570	0.100
467.900	-12.719	0.100
468.000	-4.140	0.100
468.100	-10.125	0.100
468.200	-9.797	0.100
468.300	-3.032	0.100
468.400	-16.087	0.100
468.500	-17.127	0.100
468.600	-1.194	0.100
468.700	-10.931	0.100
468.800	-12.446	0.100
468.900	-9.565	0.100
469.000	-9.203	0.100
469.100	-16.726	0.100
469.200	-14.783	0.100
469.300	-15.703	0.100
469.400	-19.331	0.100
469.500	-11.961	0.100
469.600	-6.231	0.100
469.700	-15.328	0.100
469.800	-17.489	0.100
469.900	-7.098	0.100
470.000	-10.115	0.100
470.100	-9.397	0.100
470.200	-9.942	0.100
470.300	-10.067	0.100
470.400	-9.162	0.100
470.500	-10.166	0.100
470.600	-12.255	0.100
470.700	-12.821	0.100
470.800	-9.912	0.100
470.900	-8.663	0.100
471.000	-11.246	0.100
471.100	-15.120	0.100
471.200	-5.915	0.100
471.300	-9.959	0.100
471.400	-6.226	0.100
471.500	-5.905	0.100
471.600	-4.330	0.100
471.700	-11.834	0.100
471.800	-10.792	0.100
471.900	-11.401	0.100
472.000	-21.258	0.100
472.100	-6.133	0.100
472.200	-8.808	0.100
472.300	-9.696	0.100
472.400	-16.215	0.100
472.500	-16.348	0.100
472.600	-6.513	0.100
472.700	-6.389	0.099
472.800	-8.074	0.099
472.900	-13.219	0.099
473.000	-14.017	0.099
473.100	-11.434	0.099
473.200	-8.705	0.099
473.300	-15.600	0.099
473.400	-6.071	0.099
473.500	-15.776	0.099
473.600	-4.544	0.099
473.700	-6.018	0.099
473.800	-7.577	0.099
473.900	-12.003	0.099
474.000	-12.104	0.099
474.100	-7.967	0.099
474.200	-7.242	0.099
474.300	-0.953	0.099
474.400	-17.533	0.099
474.500	-10.970	0.099
474.600	-12.181	0.099
474.700	-9.092	0.099
474.800	-10.270	0.099
474.900	-12.863	0.099
475.000	-6.221	0.099
475.100	-7.755	0.099
475.200	-13.613	0.099
475.300	-9.538	0.099
475.400	-8.076	0.099
475.500	-12.889	0.099
475.600	-13.644	0.099
475.700	-14.249	0.099
475.800	-6.873	0.099
475.900	-0.323	0.099
476.000	-3.769	0.099
476.100	-8.290	0.099
476.200	-18.910	0.099
476.300	-16.848	0.099
476.400	-13.314	0.099
476.500	-6.873	0.099
476.600	-12.832	0.099
476.700	-4.108	0.099
476.800	-5.641	0.099
476.900	-5.752	0.099
477.000	-11.377	0.099
477.100	-10.349	0.099
477.200	-8.016	0.099
477.300	-27.005	0.099
477.400	-26.633	0.099
477.500	-18.098	0.099
477.600	-0.416	0.099
477.700	-6.132	0.099
477.800	-8.162	0.099
477.900	-13.019	0.099
478.000	-3.761	0.099
478.100	-9.539	0.099
478.200	-8.857	0.099
478.300	-15.197	0.099
478.400	-7.591	0.099
478.500	-9.515	0.099
478.600	-7.864	0.099
478.700	-11.926	0.099
478.800	-14.960	0.099
478.900	-12.608	0.099
479.000	-12.352	0.099
479.100	-13.998	0.099
479.200	-7.057	0.099
479.300	-11.052	0.099
479.400	-9.317	0.099
479.500	-18.652	0.099
479.600	-8.912	0.099
479.700	-6.756	0.099
479.800	-5.149	0.099
479.900	-8.554	0.099
480.000	-12.421	0.099
480.100	-13.293	0.099
480.200	-11.224	0.099
480.300	-11.021	0.099
480.400	-4.643	0.099
480.500	-4.423	0.099
480.600	-1.219	0.099
480.700	-2.271	0.099
480.800	6.670	0.099
480.900	6.407	0.099
481.000	16.615	0.099
481.100	7.473	0.099
481.200	8.831	0.099
481.300	21.390	0.099
481.400	17.791	0.099
481.500	16.598	0.099
481.600	24.081	0.099
481.700	26.358	0.099
481.800	16.880	0.099
481.900	33.105	0.099
482.000	19.537	0.099
482.100	25.414	0.099
482.200	19.840	0.099
482.300	21.334	0.099
482.400	22.924	0.099
482.500	17.098	0.099
482.600	21.534	0.099
482.700	21.561	0.099
482.800	22.608	0.099
482.900	14.187	0.099
483.000	17.377	0.099
483.100	23.091	0.099
483.200	17.314	0.099
483.300	25.844	0.099
483.400	25.635	0.099
483.500	17.633	0.099
483.600	17.073	0.099
483.700	20.583	0.099
483.800	12.058	0.099
483.900	18.439	0.099
484.000	23.436	0.099
484.100	24.207	0.099
484.200	18.760	0.099
484.300	20.103	0.099
484.400	14.834	0.099
484.500	21.828	0.099
484.600	9.019	0.099
484.700	17.305	0.099
484.800	24.690	0.099
484.900	17.269	0.099
485.000	17.223	0.099
485.100	21.943	0.099
485.200	25.507	0.099
485.300	12.461	0.099
485.400	16.577	0.099
485.500	12.035	0.099
485.600	12.412	0.099
485.700	15.357	0.099
485.800	23.712	0.099
485.900	3.566	0.099
486.000	12.095	0.099
486.100	13.676	0.099
486.200	11.586	0.099
486.300	14.878	0.099
486.400	14.782	0.099
486.500	12.971	0.099
486.600	14.511	0.099
486.700	10.036	0.099
486.800	7.438	0.099
486.900	9.717	0.099
487.000	10.016	0.099
487.100	9.358	0.099
487.200	6.685	0.099
487.300	11.907	0.099
487.400	10.126	0.099
487.500	11.389	0.099
487.600	8.023	0.099
487.700	13.094	0.099
487.800	12.103	0.099
487.900	14.816	0.099
488.000	6.064	0.099
488.100	6.639	0.099
488.200	10.248	0.099
488.300	11.437	0.099
488.400	10.181	0.099
488.500	12.996	0.099
488.600	11.938	0.099
488.700	9.362	0.099
488.800	9.652	0.099
488.900	17.899	0.099
489.000	7.456	0.099
489.100	15.507	0.099
489.200	21.760	0.099
489.300	12.612	0.099
489.400	18.072	0.099
489.500	13.393	0.099
489.600	13.165	0.099
489.700	13.753	0.099
489.800	12.659	0.099
489.900	10.604	0.099
490.000	19.896	0.100
490.100	19.558	0.100
490.200	8.450	0.100
490.300	22.883	0.099
490.400	17.181	0.100
490.500	31.730	0.100
490.600	16.635	0.100
490.700	12.736	0.100
490.800	19.174	0.099
490.900	16.161	0.099
491.000	7.610	0.100
491.100	20.109	0.100
491.200	22.663	0.100
491.300	19.592	0.100
491.400	9.649	0.100
491.500	18.929	0.100
491.600	13.787	0.100
491.700	12.108	0.099
491.800	27.120	0.100
491.900	25.569	0.100
492.000	8.520	0.100
492.100	21.809	0.100
492.200	19.252	0.100
492.300	25.702	0.099
492.400	18.891	0.100
492.500	23.485	0.100
492.600	17.427	0.100
492.700	7.311	0.100
492.800	24.144	0.099
492.900	26.114	0.100
493.000	18.798	0.100
493.100	26.358	0.100
493.200	25.610	0.100
493.300	11.613	0.100
493.400	18.459	0.100
493.500	29.203	0.100
493.600	24.057	0.100
493.700	20.831	0.100
493.800	25.104	0.100
493.900	16.578	0.100
494.000	19.751	0.100
494.100	21.169	0.100
494.200	13.971	0.100
494.300	19.232	0.099
494.400	23.118	0.100
494.500	22.594	0.100
494.600	32.465	0.100
494.700	24.471	0.100
494.800	19.137	0.100
494.900	19.007	0.100
495.000	25.230	0.100
495.100	24.785	0.100
495.200	22.218	0.100
495.300	30.027	0.100
495.400	20.811	0.100
495.500	21.130	0.100
495.600	22.334	0.100
495.700	24.019	0.100
495.800	31.303	0.100
495.900	20.716	0.100
496.000	26.564	0.100
496.100	30.824	0.100
496.200	27.235	0.100
496.300	21.520	0.100
496.400	24.115	0.100
496.500	27.512	0.100
496.600	30.395	0.100
496.700	25.376	0.100
496.800	15.524	0.100
496.900	19.699	0.100
497.000	31.409	0.100
497.100	29.784	0.100
497.200	32.398	0.100
497.300	34.751	0.100
497.400	33.597	0.100
497.500	31.270	0.100
497.600	19.828	0.100
497.700	28.295	0.100
497.800	20.197	0.100
497.900	25.192	0.100
498.000	26.392	0.100
498.100	27.423	0.100
498.200	30.727	0.100
498.300	32.931	0.100
498.400	30.281	0.100
498.500	27.032	0.100
498.600	31.983	0.100
498.700	20.352	0.100
498.800	25.084	0.100
498.900	36.575	0.100
499.000	24.708	0.100
499.100	31.350	0.100
499.200	31.745	0.100
499.300	26.930	0.100
499.400	20.422	0.100
499.500	26.926	0.100
499.600	34.810	0.100
499.700	34.024	0.100
499.800	29.447	0.100
499.900	33.886	0.100
500.000	30.115	0.100
500.100	30.924	0.100
500.200	27.478	0.100
500.300	28.016	0.100
500.400	29.218	0.100
500.500	27.483	0.100
500.600	27.666	0.100
500.700	28.310	0.100
500.800	31.274	0.100
500.900	30.918	0.100
501.000	29.639	0.100
501.100	38.004	0.100
501.200	24.931	0.100
501.300	25.031	0.100
501.400	27.992	0.100
501.500	34.443	0.100
501.600	28.641	0.100
501.700	32.481	0.100
501.800	35.951	0.100
501.900	37.799	0.100
502.000	31.323	0.100
502.100	29.249	0.100
502.200	26.040	0.100
502.300	37.281	0.100
502.400	32.697	0.100
502.500	23.176	0.100
502.600	27.138	0.100
502.700	40.802	0.100
502.800	34.483	0.100
502.900	35.062	0.100
503.000	28.197	0.100
503.100	29.583	0.100
503.200	25.136	0.100
503.300	29.425	0.100
503.400	24.444	0.100
503.500	27.760	0.100
503.600	20.923	0.100
503.700	27.774	0.100
503.800	31.690	0.100
503.900	28.845	0.100
504.000	32.629	0.100
504.100	22.123	0.100
504.200	26.663	0.100
504.300	29.145	0.100
504.400	34.984	0.100
504.500	34.759	0.100
504.600	27.182	0.100
504.700	27.418	0.100
504.800	28.577	0.100
504.900	34.304	0.100
505.000	31.425	0.100
505.100	34.681	0.100
505.200	26.060	0.100
505.300	23.770	0.100
505.400	35.568	0.100
505.500	36.316	0.100
505.600	26.813	0.100
505.700	32.165	0.100
505.800	25.203	0.100
505.900	26.067	0.100
506.000	34.028	0.100
506.100	30.040	0.100
506.200	30.464	0.100
506.300	24.966	0.100
506.400	26.178	0.100
506.500	23.179	0.100
506.600	30.140	0.100
506.700	25.382	0.100
506.800	26.722	0.100
506.900	27.818	0.100
507.000	21.823	0.100
507.100	31.276	0.100
507.200	34.507	0.100
507.300	31.536	0.100
507.400	31.969	0.100
507.500	35.293	0.100
507.600	25.194	0.100
507.700	28.826	0.100
507.800	19.600	0.100
507.900	25.403	0.100
508.000	29.126	0.100
508.100	32.900	0.100
508.200	34.552	0.100
508.300	31.358	0.100
508.400	31.220	0.100
508.500	25.728	0.100
508.600	28.010	0.100
508.700	20.717	0.100
508.800	26.328	0.100
508.900	32.703	0.100
509.000	31.621	0.100
509.100	40.008	0.100
509.200	33.271	0.100
509.300	38.827	0.100
509.400	29.102	0.100
509.500	32.254	0.100
509.600	25.750	0.100
509.700	34.960	0.100
509.800	25.883	0.100
509.900	26.506	0.100
510.000	23.891	0.100
510.100	30.692	0.100
510.200	27.248	0.100
510.300	36.423	0.100
510.400	27.688	0.100
510.500	30.165	0.100
510.600	20.011	0.100
510.700	30.746	0.100
510.800	28.170	0.100
510.900	26.988	0.100
511.000	30.218	0.100
511.100	33.962	0.100
511.200	33.836	0.100
511.300	33.576	0.100
511.400	31.597	0.100
511.500	21.217	0.100
511.600	19.645	0.100
511.700	30.110	0.100
511.800	28.880	0.100
511.900	34.404	0.100
512.000	22.298	0.100
512.100	31.240	0.100
512.200	21.002	0.100
512.300	26.194	0.100
512.400	29.527	0.100
512.500	29.744	0.100
512.600	20.746	0.100
512.700	30.247	0.100
512.800	34.455	0.099
512.900	27.807	0.100
513.000	30.628	0.100
513.100	25.035	0.100
513.200	29.041	0.100
513.300	24.064	0.100
513.400	25.502	0.100
513.500	23.767	0.100
513.600	22.111	0.100
513.700	32.208	0.100
513.800	21.492	0.100
513.900	32.489	0.100
514.000	27.935	0.099
514.100	25.342	0.100
514.200	34.052	0.100
514.300	26.512	0.100
514.400	33.296	0.100
514.500	30.184	0.100
514.600	22.702	0.100
514.700	30.341	0.100
514.800	26.625	0.100
514.900	23.804	0.100
515.000	21.202	0.099
515.100	31.440	0.100
515.200	31.796	0.100
515.300	19.113	0.100
515.400	32.801	0.099
515.500	28.973	0.100
515.600	29.417	0.100
515.700	26.627	0.100
515.800	22.915	0.100
515.900	30.807	0.100
516.000	30.124	0.100
516.100	24.855	0.100
516.200	31.017	0.100
516.300	29.249	0.100
516.400	19.518	0.100
516.500	28.400	0.100
516.600	26.418	0.100
516.700	24.018	0.100
516.800	27.606	0.100
516.900	27.610	0.100
517.000	20.912	0.100
517.100	17.170	0.100
517.200	29.822	0.100
517.300	25.651	0.100
517.400	30.325	0.100
517.500	33.125	0.100
517.600	27.639	0.100
517.700	26.050	0.099
517.800	23.460	0.099
517.900	34.650	0.100
518.000	25.089	0.099
518.100	30.089	0.100
518.200	28.636	0.100
518.300	21.485	0.100
518.400	23.824	0.099
518.500	27.129	0.099
518.600	26.670	0.099
518.700	26.050	0.099
518.800	29.410	0.100
518.900	29.005	0.099
519.000	33.371	0.099
519.100	21.727	0.100
519.200	26.619	0.099
519.300	28.705	0.099
519.400	30.683	0.099
519.500	22.017	0.100
519.600	22.720	0.099
519.700	25.285	0.099
519.800	24.532	0.099
519.900	22.128	0.100
520.000	32.772	0.100
520.100	30.303	0.100
520.200	26.012	0.099
520.300	29.949	0.100
520.400	25.703	0.099
520.500	19.069	0.100
520.600	22.463	0.100
520.700	30.151	0.100
520.800	32.918	0.099
520.900	20.167	0.099
521.000	20.940	0.099
521.100	33.820	0.100
521.200	30.302	0.100
521.300	24.547	0.099
521.400	34.939	0.100
521.500	27.700	0.100
521.600	22.079	0.100
521.700	22.842	0.099
521.800	23.342	0.099
521.900	27.206	0.099
522.000	28.407	0.100
522.100	32.800	0.099
522.200	21.920	0.100
522.300	24.546	0.099
522.400	22.939	0.099
522.500	22.461	0.099
522.600	30.283	0.099
522.700	20.677	0.100
522.800	24.295	0.099
522.900	25.762	0.099
523.000	28.890	0.100
523.100	28.305	0.100
523.200	27.497	0.100
523.300	28.311	0.100
523.400	22.424	0.100
523.500	24.362	0.100
523.600	18.376	0.100
523.700	32.621	0.100
523.800	23.102	0.100
523.900	28.291	0.100
524.000	29.402	0.100
524.100	26.786	0.100
524.200	23.485	0.100
524.300	23.449	0.100
524.400	25.951	0.100
524.500	21.749	0.100
524.600	25.417	0.100
524.700	22.264	0.100
524.800	34.929	0.100
524.900	30.031	0.100
525.000	27.816	0.100
525.100	25.592	0.100
525.200	26.567	0.100
525.300	19.545	0.100
525.400	24.693	0.100
525.500	22.776	0.100
525.600	19.111	0.100
525.700	29.554	0.100
525.800	28.771	0.100
525.900	19.186	0.100
526.000	28.898	0.100
526.100	21.346	0.100
526.200	20.414	0.100
526.300	31.284	0.100
526.400	18.446	0.100
526.500	25.038	0.100
526.600	26.333	0.100
526.700	24.055	0.100
526.800	32.215	0.100
526.900	27.122	0.100
527.000	25.778	0.100
527.100	22.371	0.100
527.200	28.251	0.100
527.300	25.435	0.100
527.400	24.251	0.100
527.500	20.342	0.100
527.600	24.239	0.100
527.700	25.258	0.100
527.800	12.994	0.100
527.900	28.554	0.100
528.000	24.153	0.100
528.100	30.498	0.100
528.200	29.839	0.100
528.300	36.222	0.100
528.400	21.962	0.100
528.500	32.904	0.100
528.600	31.008	0.100
528.700	23.216	0.100
528.800	35.492	0.100
528.900	28.893	0.100
529.000	23.138	0.100
529.100	25.431	0.100
529.200	19.012	0.100
529.300	25.193	0.100
529.400	23.984	0.100
529.500	23.799	0.100
529.600	34.884	0.100
529.700	27.507	0.100
529.800	12.064	0.100
529.900	31.933	0.100
530.000	22.885	0.100
530.100	25.722	0.100
530.200	21.549	0.100
530.300	27.797	0.100
530.400	30.255	0.100
530.500	25.948	0.100
530.600	29.128	0.100
530.700	24.276	0.100
530.800	24.503	0.100
530.900	29.288	0.100
531.000	28.598	0.100
531.100	33.303	0.100
531.200	13.215	0.100
531.300	22.395	0.100
531.400	28.509	0.100
531.500	21.917	0.100
531.600	26.841	0.100
531.700	35.539	0.100
531.800	19.263	0.100
531.900	24.170	0.100
532.000	26.044	0.100
532.100	29.228	0.100
532.200	24.833	0.100
532.300	19.155	0.100
532.400	30.621	0.100
532.500	27.260	0.100
532.600	27.641	0.100
532.700	28.754	0.100
532.800	31.047	0.100
532.900	26.569	0.100
533.000	27.565	0.100
533.100	26.146	0.100
533.200	21.126	0.100
533.300	24.886	0.100
533.400	23.567	0.100
533.500	23.483	0.100
533.600	27.925	0.100
533.700	26.591	0.100
533.800	28.742	0.100
533.900	20.582	0.100
534.000	22.257	0.100
534.100	26.418	0.100
534.200	22.495	0.100
534.300	27.555	0.100
534.400	22.545	0.100
534.500	31.404	0.099
534.600	23.864	0.099
534.700	26.031	0.099
534.800	24.527	0.100
534.900	21.634	0.100
535.000	15.726	0.099
535.100	32.700	0.099
535.200	26.853	0.099
535.300	23.970	0.099
535.400	20.719	0.099
535.500	25.139	0.099
535.600	27.841	0.099
535.700	26.300	0.099
535.800	21.418	0.099
535.900	20.043	0.099
536.000	23.331	0.099
536.100	25.066	0.099
536.200	21.169	0.099
536.300	23.216	0.099
536.400	17.841	0.099
536.500	24.518	0.099
536.600	31.122	0.099
536.700	27.834	0.099
536.800	25.352	0.099
536.900	24.353	0.099
537.000	36.266	0.099
537.100	20.491	0.099
537.200	27.153	0.099
537.300	24.289	0.099
537.400	33.208	0.099
537.500	29.727	0.099
537.600	32.132	0.099
537.700	15.007	0.099
537.800	18.979	0.099
537.900	27.833	0.099
538.000	23.358	0.099
538.100	26.458	0.099
538.200	29.138	0.099
538.300	26.311	0.099
538.400	25.697	0.099
538.500	20.509	0.099
538.600	21.405	0.099
538.700	28.835	0.099
538.800	26.520	0.099
538.900	28.804	0.099
539.000	18.723	0.099
539.100	16.923	0.099
539.200	23.695	0.099
539.300	36.128	0.099
539.400	26.084	0.099
539.500	38.310	0.099
539.600	24.966	0.099
539.700	16.868	0.099
539.800	18.486	0.099
539.900	20.790	0.099
540.000	24.426	0.099
540.100	23.575	0.099
540.200	17.272	0.099
540.300	20.352	0.099
540.400	20.856	0.099
540.500	26.018	0.099
540.600	19.871	0.099
540.700	11.618	0.099
540.800	9.804	0.099
540.900	4.529	0.099
541.000	4.660	0.099
541.100	4.488	0.099
541.200	-6.799	0.099
541.300	-10.481	0.099
541.400	-9.034	0.099
541.500	-7.441	0.099
541.600	-7.372	0.099
541.700	-13.416	0.099
541.800	-6.553	0.099
541.900	-1.644	0.099
542.000	-12.638	0.099
542.100	-11.366	0.099
542.200	-16.488	0.099
542.300	-15.307	0.099
542.400	-19.691	0.099
542.500	-17.569	0.099
542.600	-12.152	0.099
542.700	-12.008	0.099
542.800	-14.892	0.099
542.900	-13.710	0.099
543.000	-26.803	0.099
543.100	-13.225	0.099
543.200	-14.514	0.099
543.300	-17.905	0.099
543.400	-12.886	0.099
543.500	-18.050	0.099
543.600	-16.217	0.099
543.700	-15.977	0.099
543.800	-19.888	0.099
543.900	-15.638	0.099
544.000	-12.945	0.099
544.100	-22.861	0.099
544.200	-26.733	0.099
544.300	-17.596	0.099
544.400	-15.855	0.099
544.500	-18.856	0.099
544.600	-11.653	0.099
544.700	-11.271	0.099
544.800	-17.477	0.099
544.900	-8.463	0.099
545.000	-22.807	0.099
545.100	-25.975	0.099
545.200	-9.107	0.099
545.300	-12.955	0.099
545.400	-14.288	0.099
545.500	-19.294	0.099
545.600	-9.223	0.099
545.700	-15.322	0.099
545.800	-13.056	0.099
545.900	-21.790	0.099
546.000	-19.827	0.099
546.100	-14.827	0.099
546.200	-14.007	0.099
546.300	-2.757	0.099
546.400	-9.911	0.099
546.500	-12.202	0.099
546.600	-8.189	0.099
546.700	-15.773	0.099
546.800	-12.979	0.099
546.900	-17.362	0.099
547.000	-14.921	0.099
547.100	-14.584	0.099
547.200	-17.073	0.099
547.300	-9.744	0.099
547.400	-15.698	0.099
547.500	-17.962	0.099
547.600	-20.430	0.099
547.700	-8.649	0.099
547.800	-13.051	0.099
547.900	-9.018	0.099
548.000	-6.228	0.099
548.100	-12.243	0.099
548.200	-10.682	0.099
548.300	-13.814	0.099
548.400	-15.606	0.099
548.500	-11.615	0.099
548.600	-4.254	0.099
548.700	-10.359	0.099
548.800	-17.012	0.099
548.900	-6.226	0.099
549.000	-15.598	0.099
549.100	-1.518	0.099
549.200	-22.509	0.099
549.300	-18.067	0.099
549.400	-3.994	0.099
549.500	-2.574	0.099
549.600	-13.307	0.099
549.700	-8.133	0.099
549.800	-10.922	0.099
549.900	-10.056	0.099
550.000	-7.587	0.099
550.100	-11.199	0.099
550.200	-13.650	0.099
550.300	-14.819	0.099
550.400	-13.694	0.099
550.500	-15.380	0.099
550.600	-10.592	0.099
550.700	-7.989	0.099
550.800	-9.518	0.099
550.900	-9.323	0.099
551.000	-6.102	0.100
551.100	-7.425	0.100
551.200	-6.373	0.100
551.300	-5.310	0.100
551.400	-12.525	0.100
551.500	-8.853	0.100
551.600	-10.582	0.100
551.700	-15.302	0.100
551.800	-13.112	0.100
551.900	-8.173	0.100
552.000	-6.309	0.100
552.100	-12.916	0.100
552.200	-5.726	0.100
552.300	-8.095	0.100
552.400	-11.911	0.100
552.500	-17.882	0.100
552.600	-10.057	0.100
552.700	-2.948	0.100
552.800	-12.278	0.100
552.900	-13.318	0.100
553.000	-9.676	0.100
553.100	-13.818	0.100
553.200	-9.016	0.100
553.300	-11.122	0.100
553.400	-13.504	0.100
553.500	-16.937	0.100
553.600	-6.179	0.100
553.700	-8.091	0.100
553.800	-8.631	0.100
553.900	-11.685	0.099
554.000	-4.183	0.100
554.100	-13.429	0.100
554.200	-15.907	0.100
554.300	-2.365	0.100
554.400	-12.441	0.099
554.500	-8.540	0.100
554.600	-17.062	0.100
554.700	-13.271	0.099
554.800	-11.303	0.100
554.900	-13.892	0.100
555.000	-15.625	0.100
555.100	-11.958	0.099
555.200	-11.340	0.100
555.300	-7.348	0.100
555.400	-11.255	0.100
555.500	-17.261	0.100
555.600	-12.517	0.099
555.700	-15.869	0.100
555.800	-14.040	0.100
555.900	-11.551	0.100
556.000	-13.065	0.099
556.100	-11.310	0.099
556.200	-9.956	0.100
556.300	1.886	0.099
556.400	-14.057	0.100
556.500	-11.439	0.100
556.600	-13.039	0.100
556.700	-16.887	0.100
556.800	-15.833	0.100
556.900	-8.603	0.100
557.000	-5.626	0.100
557.100	-12.417	0.100
557.200	-10.098	0.100
557.300	-12.939	0.100
557.400	-14.648	0.100
557.500	-7.241	0.100
557.600	-8.265	0.100
557.700	-11.075	0.100
557.800	-20.619	0.100
557.900	-14.387	0.100
558.000	-7.892	0.100
558.100	-7.515	0.100
558.200	-10.601	0.100
558.300	-4.196	0.100
558.400	-15.468	0.100
558.500	-18.113	0.100
558.600	-16.892	0.100
558.700	-11.772	0.100
558.800	-10.028	0.100
558.900	-18.512	0.100
559.000	-11.048	0.100
559.100	-7.342	0.100
559.200	-10.432	0.100
559.300	-20.972	0.100
559.400	-19.245	0.100
559.500	-14.007	0.100
559.600	-9.274	0.100
559.700	-17.579	0.100
559.800	-12.119	0.100
559.900	-16.651	0.100
560.000	-5.813	0.100
560.100	-7.554	0.100
560.200	-19.108	0.100
560.300	-13.608	0.100
560.400	-10.921	0.100
560.500	-13.267	0.100
560.600	-8.332	0.100
560.700	-15.864	0.100
560.800	-4.752	0.100
560.900	-14.862	0.100
561.000	-15.793	0.100
561.100	-14.458	0.100
561.200	-15.892	0.100
561.300	-8.789	0.100
561.400	-14.827	0.100
561.500	-14.317	0.100
561.600	-9.935	0.100
561.700	-20.425	0.100
561.800	-18.398	0.100
561.900	-13.325	0.100
562.000	-17.255	0.100
562.100	-9.167	0.100
562.200	-5.734	0.099
562.300	-8.003	0.099
562.400	-14.617	0.099
562.500	-19.875	0.099
562.600	-18.575	0.099
562.700	-8.726	0.099
562.800	-7.998	0.099
562.900	-23.357	0.099
563.000	-12.075	0.099
563.100	-10.975	0.099
563.200	-10.073	0.099
563.300	-10.373	0.099
563.400	-19.135	0.099
563.500	-11.889	0.099
563.600	-14.439	0.099
563.700	-14.817	0.099
563.800	-13.525	0.099
563.900	-11.187	0.099
564.000	-8.906	0.099
564.100	-12.830	0.099
564.200	-13.153	0.099
564.300	-20.447	0.099
564.400	-16.615	0.099
564.500	-12.560	0.099
564.600	-18.272	0.099
564.700	-18.718	0.099
564.800	-10.509	0.099
564.900	-13.854	0.099
565.000	-20.168	0.099
565.100	-15.381	0.099
565.200	-8.081	0.099
565.300	-15.372	0.099
565.400	-18.656	0.099
565.500	-14.422	0.099
565.600	-6.898	0.099
565.700	-24.827	0.099
565.800	-11.817	0.099
565.900	-19.959	0.099
566.000	-11.591	0.099
566.100	-18.045	0.099
566.200	-9.277	0.099
566.300	-15.506	0.099
566.400	-13.708	0.099
566.500	-24.655	0.099
566.600	-6.286	0.099
566.700	-3.827	0.099
566.800	-16.154	0.099
566.900	-13.596	0.099
567.000	-10.490	0.099
567.100	-17.800	0.099
567.200	-10.393	0.099
567.300	-20.791	0.099
567.400	-17.194	0.099
567.500	-18.967	0.099
567.600	-15.058	0.099
567.700	-17.151	0.099
567.800	-17.605	0.099
567.900	-10.349	0.099
568.000	-16.003	0.099
568.100	-30.666	0.099
568.200	-21.262	0.099
568.300	-10.977	0.099
568.400	-11.512	0.099
568.500	-16.558	0.099
568.600	-10.875	0.099
568.700	-22.713	0.099
568.800	-10.828	0.099
568.900	-15.831	0.099
569.000	-19.680	0.099
569.100	-10.788	0.099
569.200	-15.644	0.099
569.300	-5.008	0.099
569.400	-15.801	0.099
569.500	-11.320	0.099
569.600	-27.091	0.099
569.700	-13.648	0.099
569.800	-21.394	0.099
569.900	-11.184	0.099
570.000	-23.855	0.099
570.100	-16.288	0.099
570.200	-18.692	0.099
570.300	-15.068	0.099
570.400	-22.156	0.099
570.500	-16.102	0.099
570.600	-7.545	0.099
570.700	-21.374	0.099
570.800	-14.205	0.099
570.900	-14.855	0.099
571.000	-23.377	0.099
571.100	-21.246	0.099
571.200	-14.808	0.099
571.300	-20.727	0.099
571.400	-15.265	0.099
571.500	-22.916	0.099
571.600	-15.702	0.099
571.700	-11.164	0.099
571.800	-11.160	0.099
571.900	-20.909	0.099
572.000	-22.887	0.099
572.100	-15.722	0.099
572.200	-18.063	0.099
572.300	-8.972	0.099
572.400	-13.850	0.099
572.500	-17.158	0.099
572.600	-25.928	0.099
572.700	-19.412	0.099
572.800	-18.310	0.099
572.900	-10.934	0.099
573.000	-11.852	0.099
573.100	-24.956	0.099
573.200	-17.337	0.099
573.300	-17.123	0.099
573.400	-12.385	0.099
573.500	-17.335	0.099
573.600	-17.244	0.099
573.700	-27.857	0.099
573.800	-23.517	0.099
573.900	-10.349	0.099
574.000	-24.596	0.099
574.100	-10.911	0.099
574.200	-11.431	0.099
574.300	-14.989	0.099
574.400	-14.533	0.099
574.500	-11.755	0.099
574.600	-17.205	0.099
574.700	-15.512	0.099
574.800	-25.759	0.099
574.900	-19.021	0.099
575.000	-4.681	0.099
575.100	-10.532	0.099
575.200	-16.313	0.099
575.300	-21.117	0.099
575.400	-19.861	0.099
575.500	-21.598	0.099
575.600	-20.850	0.099
575.700	-15.150	0.099
575.800	-14.782	0.099
575.900	-16.678	0.099
576.000	-19.070	0.099
576.100	-19.611	0.099
576.200	-21.250	0.099
576.300	-10.025	0.099
576.400	-17.087	0.099
576.500	-7.826	0.099
576.600	-23.188	0.099
576.700	-15.151	0.099
576.800	-17.896	0.099
576.900	-21.415	0.099
577.000	-18.403	0.099
577.100	-9.001	0.099
577.200	-16.414	0.099
577.300	-16.257	0.099
577.400	-16.383	0.099
577.500	-11.930	0.099
577.600	-11.212	0.099
577.700	-18.492	0.099
577.800	-18.268	0.099
577.900	-22.188	0.099
578.000	-27.907	0.099
578.100	-7.040	0.099
578.200	-16.941	0.099
578.300	-23.995	0.099
578.400	-20.984	0.099
578.500	-18.842	0.099
578.600	-20.598	0.099
578.700	-27.408	0.099
578.800	-12.273	0.099
578.900	-22.870	0.100
579.000	-18.175	0.099
579.100	-10.811	0.099
579.200	-18.968	0.099
579.300	-10.924	0.099
579.400	-18.085	0.100
579.500	-13.596	0.100
579.600	-10.648	0.100
579.700	-27.654	0.099
579.800	-10.673	0.100
579.900	-24.951	0.100
580.000	-18.531	0.100
580.100	-16.904	0.100
580.200	-13.831	0.100
580.300	-18.280	0.100
580.400	-20.062	0.100
580.500	-21.551	0.100
580.600	-20.513	0.100
580.700	-17.563	0.100
580.800	-9.277	0.100
580.900	-15.263	0.100
581.000	-16.768	0.100
581.100	-21.163	0.100
581.200	-12.170	0.100
581.300	-19.984	0.100
581.400	-11.879	0.100
581.500	-17.501	0.100
581.600	-15.970	0.100
581.700	-16.305	0.100
581.800	-18.787	0.100
581.900	-16.569	0.100
582.000	-20.114	0.100
582.100	-20.418	0.100
582.200	-17.349	0.100
582.300	-17.883	0.100
582.400	-19.336	0.100
582.500	-10.798	0.100
582.600	-11.579	0.100
582.700	-20.211	0.100
582.800	-16.554	0.100
582.900	-22.500	0.100
583.000	-10.051	0.100
583.100	-15.016	0.100
583.200	-23.999	0.100
583.300	-15.604	0.100
583.400	-8.614	0.100
583.500	-13.953	0.100
583.600	-15.772	0.100
583.700	-23.400	0.100
583.800	-13.670	0.100
583.900	-18.619	0.100
584.000	-13.742	0.100
584.100	-17.183	0.100
584.200	-17.313	0.100
584.300	-18.935	0.100
584.400	-10.112	0.100
584.500	-14.393	0.100
584.600	-17.957	0.100
584.700	-24.968	0.100
584.800	-14.445	0.100
584.900	-18.609	0.100
585.000	-5.163	0.100
585.100	-12.158	0.100
585.200	-17.899	0.100
585.300	-24.088	0.100
585.400	-13.919	0.100
585.500	-8.035	0.100
585.600	-16.900	0.100
585.700	-17.591	0.100
585.800	-12.870	0.100
585.900	-14.884	0.100
586.000	-12.637	0.100
586.100	-17.928	0.100
586.200	-20.823	0.100
586.300	-16.073	0.100
586.400	-13.862	0.100
586.500	-17.801	0.100
586.600	-11.201	0.100
586.700	-23.242	0.100
586.800	-13.982	0.100
586.900	-12.896	0.100
587.000	-15.615	0.100
587.100	-10.510	0.100
587.200	-19.252	0.100
587.300	-16.497	0.100
587.400	-13.082	0.100
587.500	-18.841	0.100
587.600	-15.081	0.100
587.700	-22.152	0.100
587.800	-14.990	0.100
587.900	-12.435	0.100
588.000	-16.575	0.100
588.100	-22.094	0.100
588.200	-16.501	0.100
588.300	-18.581	0.100
588.400	-14.945	0.100
588.500	-21.583	0.100
588.600	-10.642	0.100
588.700	-11.214	0.100
588.800	-18.320	0.100
588.900	-17.179	0.100
589.000	-14.837	0.100
589.100	-24.718	0.100
589.200	-13.505	0.100
589.300	-11.900	0.100
589.400	-12.053	0.100
589.500	-22.491	0.100
589.600	-18.429	0.100
589.700	-14.388	0.100
589.800	-21.083	0.100
589.900	-10.946	0.100
590.000	-16.147	0.100
590.100	-12.189	0.099
590.200	-16.874	0.099
590.300	-22.312	0.099
590.400	-13.799	0.099
590.500	-15.236	0.099
590.600	-19.136	0.099
590.700	-14.002	0.099
590.800	-12.387	0.099
590.900	-17.915	0.099
591.000	-19.326	0.099
591.100	-14.176	0.099
591.200	-15.719	0.099
591.300	-7.290	0.099
591.400	-19.088	0.099
591.500	-12.167	0.099
591.600	-16.575	0.099
591.700	-21.792	0.099
591.800	-19.386	0.099
591.900	-18.185	0.099
592.000	-26.944	0.099
592.100	-14.254	0.099
592.200	-18.788	0.099
592.300	-8.509	0.099
592.400	-18.076	0.099
592.500	-6.887	0.099
592.600	-12.821	0.099
592.700	-17.041	0.099
592.800	-16.854	0.099
592.900	-11.518	0.099
593.000	-18.140	0.099
593.100	-22.050	0.099
593.200	-17.922	0.099
593.300	-12.525	0.099
593.400	-15.409	0.099
593.500	-5.158	0.099
593.600	-21.059	0.099
593.700	-14.278	0.099
593.800	-20.698	0.099
593.900	-9.980	0.099
594.000	-19.364	0.099
594.100	-24.904	0.099
594.200	-14.178	0.099
594.300	-16.010	0.099
594.400	-16.958	0.099
594.500	-18.928	0.099
594.600	-13.669	0.099
594.700	-14.010	0.099
594.800	-12.244	0.099
594.900	-15.747	0.099
595.000	-17.423	0.099
595.100	-13.800	0.099
595.200	-5.835	0.099
595.300	-14.822	0.099
595.400	-14.284	0.099
595.500	-12.502	0.099
595.600	-11.725	0.099
595.700	-20.200	0.099
595.800	-18.148	0.099
595.900	-19.263	0.099
596.000	-23.439	0.099
596.100	-6.419	0.099
596.200	-19.756	0.099
596.300	-11.804	0.099
596.400	-17.188	0.099
596.500	-24.892	0.099
596.600	-21.542	0.099
596.700	-6.817	0.099
596.800	-15.734	0.099
596.900	-9.350	0.099
597.000	-8.896	0.099
597.100	-12.303	0.099
597.200	-18.405	0.099
597.300	-16.012	0.099
597.400	-18.398	0.099
597.500	-17.354	0.099
597.600	-4.654	0.099
597.700	-15.860	0.099
597.800	-14.236	0.099
597.900	-12.520	0.099
598.000	-13.001	0.099
598.100	-9.016	0.099
598.200	-13.553	0.099
598.300	-13.646	0.099
598.400	-14.901	0.099
598.500	-17.526	0.099
598.600	-19.172	0.099
598.700	-16.810	0.099
598.800	-14.887	0.099
598.900	-17.136	0.099
599.000	-6.165	0.099
599.100	-16.257	0.099
599.200	-8.007	0.099
599.300	-17.482	0.099
599.400	-26.675	0.099
599.500	-14.371	0.099
599.600	-5.544	0.099
599.700	-19.311	0.099
599.800	-17.410	0.099
599.900	-13.898	0.099
600.000	-20.100	0.099
600.100	-22.544	0.099
600.200	-12.231	0.099
600.300	-22.175	0.099
600.400	-10.176	0.099
600.500	-10.144	0.099
600.600	-10.960	0.099
600.700	-17.952	0.099
600.800	-17.699	0.099
600.900	-18.038	0.099
601.000	-13.420	0.099
601.100	-11.263	0.099
601.200	-10.720	0.099
601.300	-18.412	0.099
601.400	-12.486	0.099
601.500	-19.865	0.099
601.600	-12.724	0.099
601.700	-6.941	0.099
601.800	-15.777	0.099
601.900	-12.572	0.099
602.000	-13.058	0.099
602.100	-16.369	0.099
602.200	-14.561	0.099
602.300	-15.368	0.099
602.400	-16.119	0.099
602.500	-22.111	0.099
602.600	-5.737	0.099
602.700	-2.276	0.099
602.800	-9.207	0.099
602.900	-16.564	0.099
603.000	-21.627	0.099
603.100	-17.955	0.099
603.200	-13.830	0.099
603.300	-18.338	0.099
603.400	-17.186	0.099
603.500	-10.250	0.099
603.600	-25.709	0.099
603.700	-13.079	0.099
603.800	-0.823	0.099
603.900	-15.814	0.099
604.000	-16.470	0.099
604.100	-12.401	0.099
604.200	-15.767	0.099
604.300	-15.990	0.099
604.400	-18.285	0.099
604.500	-13.049	0.099
604.600	-11.358	0.099
604.700	-14.287	0.099
604.800	-8.463	0.099
604.900	-19.537	0.099
605.000	-18.183	0.099
605.100	-5.863	0.099
605.200	-15.594	0.099
605.300	-19.197	0.099
605.400	-9.807	0.099
605.500	-11.209	0.099
605.600	-23.403	0.099
605.700	-14.952	0.099
605.800	-7.490	0.099
605.900	-15.639	0.099
606.000	-8.112	0.099
606.100	-14.058	0.099
606.200	-13.234	0.099
606.300	-10.761	0.099
606.400	-15.859	0.099
606.500	-9.845	0.099
606.600	-12.883	0.099
606.700	-15.109	0.099
606.800	-16.889	0.099
606.900	-17.114	0.100
607.000	-9.903	0.100
607.100	-12.209	0.100
607.200	-20.193	0.100
607.300	-10.170	0.100
607.400	-18.721	0.100
607.500	-17.011	0.100
607.600	-12.322	0.100
607.700	-2.132	0.100
607.800	-7.241	0.100
607.900	-10.874	0.100
608.000	-10.571	0.100
608.100	-7.605	0.100
608.200	-12.508	0.100
608.300	-19.619	0.100
608.400	-12.205	0.100
608.500	-13.242	0.100
608.600	-14.946	0.100
608.700	-3.202	0.100
608.800	-12.217	0.100
608.900	-13.262	0.100
609.000	-12.662	0.100
609.100	-13.229	0.100
609.200	-11.755	0.100
609.300	-11.845	0.100
609.400	-17.364	0.100
609.500	-11.337	0.100
609.600	-6.262	0.100
609.700	-14.044	0.100
609.800	-5.935	0.100
609.900	-17.917	0.100
610.000	-9.523	0.100
610.100	-8.245	0.100
610.200	-13.010	0.100
610.300	-15.493	0.100
610.400	-13.335	0.100
610.500	-14.062	0.100
610.600	-12.551	0.100
610.700	-6.939	0.100
610.800	-14.234	0.100
610.900	-5.621	0.100
611.000	-11.142	0.100
611.100	-22.293	0.100
611.200	-11.571	0.100
611.300	-9.705	0.100
611.400	-13.259	0.100
611.500	-19.380	0.100
611.600	-13.401	0.100
611.700	-4.942	0.100
611.800	-14.822	0.100
611.900	-20.388	0.100
612.000	-14.625	0.100
612.100	-8.623	0.100
612.200	-10.399	0.100
612.300	-16.963	0.100
612.400	-16.279	0.100
612.500	-14.381	0.100
612.600	-8.043	0.100
612.700	-1.731	0.100
612.800	-17.797	0.100
612.900	-20.622	0.100
613.000	-12.096	0.100
613.100	-14.567	0.100
613.200	-9.760	0.100
613.300	-1.305	0.100
613.400	-12.668	0.100
613.500	-16.120	0.100
613.600	-9.884	0.100
613.700	-19.771	0.100
613.800	-12.592	0.100
613.900	-13.031	0.100
614.000	-11.920	0.100
614.100	-11.967	0.100
614.200	-8.662	0.100
614.300	-0.221	0.100
614.400	-14.143	0.100
614.500	-12.777	0.100
614.600	-16.583	0.100
614.700	-9.907	0.100
614.800	-9.965	0.100
614.900	-18.445	0.100
615.000	-9.281	0.100
615.100	-4.445	0.100
615.200	-9.273	0.100
615.300	-18.162	0.100
615.400	-13.347	0.100
615.500	-9.905	0.100
615.600	-12.961	0.100
615.700	-15.522	0.100
615.800	-12.131	0.100
615.900	-9.874	0.100
616.000	-10.404	0.100
616.100	-11.635	0.100
616.200	-5.304	0.100
616.300	-14.749	0.100
616.400	-7.835	0.100
616.500	-11.739	0.100
616.600	-16.085	0.100
616.700	-15.951	0.100
616.800	-10.558	0.100
616.900	-10.826	0.100
617.000	-5.720	0.100
617.100	-11.540	0.100
617.200	-11.833	0.100
617.300	-0.528	0.100
617.400	-5.790	0.100
617.500	-7.334	0.100
617.600	-2.081	0.100
617.700	-10.679	0.100
617.800	-18.455	0.100
617.900	-7.442	0.100
618.000	-14.048	0.100
618.100	-13.143	0.100
618.200	-8.514	0.100
618.300	-10.662	0.100
618.400	-9.330	0.100
618.500	-15.683	0.100
618.600	-7.414	0.100
618.700	-11.594	0.100
618.800	-14.824	0.100
618.900	-9.765	0.100
619.000	-8.052	0.100
619.100	-10.734	0.100
619.200	-7.228	0.100
619.300	-13.554	0.100
619.400	-11.560	0.100
619.500	-10.623	0.100
619.600	-10.877	0.100
619.700	-17.445	0.100
619.800	-9.191	0.100
619.900	-5.955	0.100
620.000	-13.049	0.100
620.100	-8.916	0.100
620.200	-11.496	0.100
620.300	-10.600	0.100
620.400	-6.214	0.100
620.500	-12.878	0.100
620.600	-18.332	0.100
620.700	-7.799	0.100
620.800	-10.815	0.100
620.900	-8.880	0.100
621.000	-10.148	0.100
621.100	-4.640	0.100
621.200	-16.923	0.100
621.300	-10.273	0.100
621.400	-15.726	0.100
621.500	-0.814	0.100
621.600	-8.183	0.100
621.700	-11.407	0.100
621.800	-8.447	0.100
621.900	-18.933	0.100
622.000	-17.680	0.100
622.100	-8.382	0.100
622.200	-13.754	0.100
622.300	-6.543	0.100
622.400	-15.113	0.100
622.500	-14.619	0.100
622.600	-5.882	0.100
622.700	-3.706	0.100
622.800	-18.904	0.100
622.900	-11.984	0.100
623.000	-5.844	0.100
623.100	-2.313	0.100
623.200	-19.708	0.100
623.300	-23.362	0.100
623.400	-12.825	0.100
623.500	-6.040	0.100
623.600	-12.583	0.100
623.700	-2.710	0.100
623.800	-11.419	0.100
623.900	-4.463	0.100
624.000	-11.548	0.100
624.100	-13.595	0.100
624.200	-13.183	0.100
624.300	-12.875	0.100
624.400	-7.688	0.100
624.500	-11.332	0.100
624.600	-10.153	0.100
624.700	-8.761	0.100
624.800	-1.996	0.100
624.900	-11.327	0.100
625.000	-9.632	0.100
625.100	-2.967	0.100
625.200	-16.965	0.100
625.300	-16.307	0.100
625.400	-7.591	0.100
625.500	-11.493	0.100
625.600	-10.137	0.100
625.700	-15.419	0.100
625.800	-20.341	0.100
625.900	-12.317	0.100
626.000	-7.212	0.100
626.100	-15.568	0.100
626.200	-8.006	0.100
626.300	-19.742	0.100
626.400	-4.589	0.100
626.500	-6.489	0.100
626.600	-14.806	0.100
626.700	-7.553	0.100
626.800	-7.140	0.100
626.900	-6.630	0.100
627.000	-18.575	0.100
627.100	-8.821	0.100
627.200	-9.164	0.100
627.300	-11.873	0.100
627.400	-9.188	0.100
627.500	-10.302	0.100
627.600	-10.408	0.100
627.700	-5.353	0.100
627.800	-14.381	0.100
627.900	-11.771	0.100
628.000	-10.401	0.100
628.100	-10.521	0.100
628.200	-9.760	0.100
628.300	-5.079	0.100
628.400	-14.406	0.100
628.500	-14.119	0.100
628.600	-15.533	0.100
628.700	-10.284	0.100
628.800	-6.139	0.100
628.900	-7.675	0.100
629.000	-9.191	0.100
629.100	-15.631	0.100
629.200	-13.624	0.100
629.300	-11.551	0.100
629.400	-12.157	0.100
629.500	-9.310	0.100
629.600	-9.514	0.100
629.700	-5.757	0.100
629.800	-1.854	0.100
629.900	-5.709	0.100
630.000	-15.579	0.100
630.100	-10.531	0.100
630.200	-7.705	0.100
630.300	-19.512	0.100
630.400	-8.711	0.100
630.500	-2.065	0.100
630.600	-1.854	0.100
630.700	0.951	0.100
630.800	1.945	0.100
630.900	6.564	0.100
631.000	2.639	0.100
631.100	13.573	0.100
631.200	15.626	0.100
631.300	14.544	0.100
631.400	22.453	0.100
631.500	15.054	0.100
631.600	31.988	0.100
631.700	28.658	0.100
631.800	23.657	0.100
631.900	23.256	0.100
632.000	29.232	0.100
632.100	25.189	0.100
632.200	28.647	0.100
632.300	20.727	0.100
632.400	24.613	0.100
632.500	24.899	0.100
632.600	25.418	0.100
632.700	12.985	0.100
632.800	28.215	0.100
632.900	22.840	0.100
633.000	17.793	0.100
633.100	21.392	0.100
633.200	13.087	0.100
633.300	24.754	0.100
633.400	26.688	0.100
633.500	25.844	0.100
633.600	14.917	0.100
633.700	16.786	0.100
633.800	22.085	0.100
633.900	22.867	0.100
634.000	20.457	0.100
634.100	18.387	0.100
634.200	20.715	0.100
634.300	21.261	0.100
634.400	14.928	0.100
634.500	18.765	0.100
634.600	24.143	0.100
634.700	21.213	0.100
634.800	19.008	0.100
634.900	17.142	0.100
635.000	21.467	0.100
635.100	6.115	0.100
635.200	14.602	0.100
635.300	16.198	0.100
635.400	15.644	0.100
635.500	19.337	0.100
635.600	16.668	0.100
635.700	12.443	0.100
635.800	12.622	0.100
635.900	18.222	0.100
636.000	11.595	0.100
636.100	2.670	0.100
636.200	18.765	0.100
636.300	12.911	0.100
636.400	11.202	0.100
636.500	12.904	0.100
636.600	4.646	0.100
636.700	21.511	0.100
636.800	17.990	0.100
636.900	13.388	0.100
637.000	9.169	0.100
637.100	7.285	0.100
637.200	15.435	0.100
637.300	10.405	0.100
637.400	9.989	0.100
637.500	12.889	0.100
637.600	13.761	0.100
637.700	7.700	0.100
637.800	9.848	0.100
637.900	8.247	0.100
638.000	13.062	0.100
638.100	15.135	0.100
638.200	9.606	0.100
638.300	8.527	0.100
638.400	14.881	0.100
638.500	15.913	0.100
638.600	15.273	0.100
638.700	14.596	0.100
638.800	15.220	0.100
638.900	14.799	0.100
639.000	14.012	0.100
639.100	8.542	0.100
639.200	11.668	0.100
639.300	14.589	0.100
639.400	16.543	0.100
639.500	12.517	0.100
639.600	12.829	0.100
639.700	15.939	0.100
639.800	14.830	0.100
639.900	7.750	0.100
640.000	13.185	0.100
640.100	17.378	0.100
640.200	14.823	0.100
640.300	11.827	0.100
640.400	17.233	0.100
640.500	15.901	0.100
640.600	22.029	0.100
640.700	11.800	0.100
640.800	11.184	0.100
640.900	15.943	0.100
641.000	13.386	0.100
641.100	15.690	0.100
641.200	12.366	0.100
641.300	21.945	0.100
641.400	11.376	0.100
641.500	18.411	0.100
641.600	32.915	0.100
641.700	17.193	0.100
641.800	16.718	0.100
641.900	14.716	0.100
642.000	14.982	0.100
642.100	18.564	0.100
642.200	20.738	0.100
642.300	23.980	0.100
642.400	22.273	0.100
642.500	22.911	0.100
642.600	17.526	0.100
642.700	9.726	0.100
642.800	23.194	0.100
642.900	21.740	0.100
643.000	17.412	0.100
643.100	18.873	0.100
643.200	23.243	0.100
643.300	18.816	0.100
643.400	23.284	0.100
643.500	17.839	0.100
643.600	15.946	0.100
643.700	31.197	0.100
643.800	14.152	0.100
643.900	13.205	0.100
644.000	16.045	0.100
644.100	29.937	0.100
644.200	22.274	0.100
644.300	26.238	0.100
644.400	22.413	0.100
644.500	20.744	0.100
644.600	20.061	0.100
644.700	25.902	0.100
644.800	21.433	0.100
644.900	21.116	0.100
645.000	30.329	0.100
645.100	28.723	0.100
645.200	23.992	0.100
645.300	24.498	0.100
645.400	21.034	0.100
645.500	21.597	0.100
645.600	29.794	0.100
645.700	23.119	0.100
645.800	31.652	0.100
645.900	24.774	0.100
646.000	20.953	0.100
646.100	22.580	0.100
646.200	28.668	0.100
646.300	25.331	0.100
646.400	32.966	0.100
646.500	25.132	0.100
646.600	21.061	0.100
646.700	22.447	0.100
646.800	22.855	0.100
646.900	24.010	0.100
647.000	27.890	0.100
647.100	17.799	0.100
647.200	29.670	0.100
647.300	31.454	0.100
647.400	26.557	0.100
647.500	27.838	0.100
647.600	26.812	0.100
647.700	29.216	0.100
647.800	19.278	0.100
647.900	27.730	0.100
648.000	26.541	0.100
648.100	27.230	0.100
648.200	27.502	0.100
648.300	33.054	0.100
648.400	29.497	0.100
648.500	25.179	0.100
648.600	22.985	0.100
648.700	24.405	0.100
648.800	23.833	0.100
648.900	22.374	0.100
649.000	22.125	0.100
649.100	26.436	0.100
649.200	29.272	0.100
649.300	24.847	0.100
649.400	34.149	0.100
649.500	32.465	0.100
649.600	32.956	0.100
649.700	34.132	0.100
649.800	36.428	0.100
649.900	22.911	0.100
650.000	31.153	0.100
650.100	32.993	0.100
650.200	24.058	0.100
650.300	39.236	0.100
650.400	19.160	0.100
650.500	36.627	0.100
650.600	33.057	0.100
650.700	21.868	0.100
650.800	27.040	0.100
650.900	28.197	0.100
651.000	23.636	0.100
651.100	33.668	0.100
651.200	28.560	0.100
651.300	29.337	0.100
651.400	37.148	0.100
651.500	25.273	0.100
651.600	25.601	0.100
651.700	28.104	0.100
651.800	39.113	0.100
651.900	25.382	0.100
652.000	25.318	0.100
652.100	29.687	0.100
652.200	34.547	0.100
652.300	34.842	0.100
652.400	26.289	0.100
652.500	26.831	0.100
652.600	28.869	0.100
652.700	28.964	0.100
652.800	27.946	0.100
652.900	37.099	0.100
653.000	35.119	0.100
653.100	23.681	0.100
653.200	32.241	0.100
653.300	34.720	0.100
653.400	30.455	0.100
653.500	30.617	0.100
653.600	25.690	0.100
653.700	29.525	0.100
653.800	33.462	0.100
653.900	23.908	0.100
654.000	28.559	0.100
654.100	36.332	0.100
654.200	27.901	0.100
654.300	29.089	0.100
654.400	27.871	0.100
654.500	14.636	0.100
654.600	29.121	0.100
654.700	36.925	0.100
654.800	33.010	0.100
654.900	29.953	0.100
655.000	32.836	0.100
655.100	37.293	0.100
655.200	27.280	0.100
655.300	28.161	0.100
655.400	34.349	0.100
655.500	24.335	0.100
655.600	28.322	0.100
655.700	25.902	0.100
655.800	25.044	0.100
655.900	26.773	0.100
656.000	34.843	0.100
656.100	30.558	0.100
656.200	32.771	0.100
656.300	35.043	0.100
656.400	25.381	0.100
656.500	28.788	0.100
656.600	25.805	0.100
656.700	33.871	0.100
656.800	42.500	0.100
656.900	23.646	0.100
657.000	30.217	0.100
657.100	34.079	0.100
657.200	31.430	0.100
657.300	33.258	0.100
657.400	37.630	0.100
657.500	26.019	0.100
657.600	27.729	0.100
657.700	29.700	0.100
657.800	33.172	0.100
657.900	35.338	0.100
658.000	21.998	0.100
658.100	32.518	0.100
658.200	27.500	0.100
658.300	23.060	0.100
658.400	27.668	0.100
658.500	38.374	0.100
658.600	36.462	0.100
658.700	25.470	0.100
658.800	25.802	0.100
658.900	34.517	0.100
659.000	30.688	0.100
659.100	23.923	0.100
659.200	29.671	0.100
659.300	25.993	0.100
659.400	30.133	0.100
659.500	30.447	0.100
659.600	26.037	0.100
659.700	31.209	0.100
659.800	31.279	0.100
659.900	26.203	0.100
660.000	23.919	0.100
660.100	31.040	0.100
660.200	20.364	0.100
660.300	25.422	0.100
660.400	34.890	0.100
660.500	30.339	0.100
660.600	34.397	0.100
660.700	28.182	0.100
660.800	29.714	0.100
660.900	21.943	0.100
661.000	25.346	0.100
661.100	27.978	0.100
661.200	25.448	0.100
661.300	28.668	0.100
661.400	20.170	0.100
661.500	22.607	0.100
661.600	35.568	0.100
661.700	22.618	0.100
661.800	26.520	0.100
661.900	30.554	0.100
662.000	34.898	0.100
662.100	30.648	0.100
662.200	20.624	0.100
662.300	23.976	0.100
662.400	21.087	0.100
662.500	26.539	0.100
662.600	27.003	0.100
662.700	30.454	0.100
662.800	18.306	0.100
662.900	35.470	0.100
663.000	17.421	0.100
663.100	25.894	0.100
663.200	23.047	0.100
663.300	28.757	0.100
663.400	28.261	0.100
663.500	26.892	0.100
663.600	19.393	0.100
663.700	21.075	0.100
663.800	32.177	0.100
663.900	32.613	0.100
664.000	32.761	0.100
664.100	31.119	0.100
664.200	20.507	0.100
664.300	23.983	0.100
664.400	26.090	0.100
664.500	32.115	0.100
664.600	19.037	0.100
664.700	30.490	0.100
664.800	26.655	0.100
664.900	26.439	0.100
665.000	26.176	0.100
665.100	20.766	0.100
665.200	24.772	0.100
665.300	23.132	0.100
665.400	28.459	0.100
665.500	25.958	0.100
665.600	26.998	0.100
665.700	25.119	0.100
665.800	24.110	0.100
665.900	33.515	0.100
666.000	29.443	0.100
666.100	20.673	0.100
666.200	22.955	0.100
666.300	20.723	0.100
666.400	29.786	0.100
666.500	32.502	0.100
666.600	25.191	0.100
666.700	33.994	0.100
666.800	21.320	0.100
666.900	25.125	0.100
667.000	30.519	0.100
667.100	21.012	0.100
667.200	27.959	0.100
667.300	31.343	0.100
667.400	25.114	0.100
667.500	25.571	0.100
667.600	21.530	0.100
667.700	31.314	0.100
667.800	25.941	0.100
667.900	25.234	0.100
668.000	23.820	0.100
668.100	24.195	0.100
668.200	35.988	0.100
668.300	22.513	0.100
668.400	24.827	0.100
668.500	35.056	0.100
668.600	29.241	0.100
668.700	25.434	0.100
668.800	21.877	0.100
668.900	19.082	0.100
669.000	24.362	0.100
669.100	25.712	0.100
669.200	27.760	0.100
669.300	34.509	0.100
669.400	24.605	0.100
669.500	21.916	0.100
669.600	23.272	0.100
669.700	38.846	0.100
669.800	31.672	0.100
669.900	20.901	0.100
670.000	22.928	0.100
670.100	20.082	0.100
670.200	19.012	0.100
670.300	16.661	0.100
670.400	28.409	0.100
670.500	31.178	0.100
670.600	27.974	0.100
670.700	27.380	0.100
670.800	36.910	0.100
670.900	30.378	0.100
671.000	19.556	0.100
671.100	24.396	0.100
671.200	16.620	0.100
671.300	21.568	0.100
671.400	19.701	0.100
671.500	32.709	0.100
671.600	34.306	0.100
671.700	32.668	0.100
671.800	33.698	0.100
671.900	19.994	0.100
672.000	32.693	0.100
672.100	26.073	0.100
672.200	26.976	0.100
672.300	16.229	0.100
672.400	35.314	0.100
672.500	32.365	0.100
672.600	32.251	0.100
672.700	21.826	0.100
672.800	24.049	0.100
672.900	26.548	0.100
673.000	19.948	0.100
673.100	25.716	0.100
673.200	20.386	0.100
673.300	25.618	0.100
673.400	24.275	0.100
673.500	29.244	0.100
673.600	25.118	0.100
673.700	27.526	0.100
673.800	23.405	0.100
673.900	23.933	0.100
674.000	22.528	0.100
674.100	27.989	0.100
674.200	30.710	0.100
674.300	31.686	0.100
674.400	26.635	0.100
674.500	19.999	0.100
674.600	25.407	0.100
674.700	24.291	0.100
674.800	24.943	0.100
674.900	17.455	0.100
675.000	25.538	0.100
675.100	27.358	0.100
675.200	36.449	0.100
675.300	24.050	0.100
675.400	27.260	0.100
675.500	28.468	0.100
675.600	29.843	0.100
675.700	21.412	0.100
675.800	21.028	0.100
675.900	21.249	0.100
676.000	27.986	0.100
676.100	25.998	0.100
676.200	25.826	0.100
676.300	20.122	0.100
676.400	30.914	0.100
676.500	33.269	0.100
676.600	29.230	0.100
676.700	24.685	0.100
676.800	26.997	0.100
676.900	30.826	0.100
677.000	17.614	0.100
677.100	29.801	0.100
677.200	25.566	0.100
677.300	33.340	0.100
677.400	23.797	0.100
677.500	20.106	0.100
677.600	25.090	0.100
677.700	26.717	0.100
677.800	25.901	0.100
677.900	24.078	0.100
678.000	34.811	0.100
678.100	17.592	0.100
678.200	26.447	0.100
678.300	28.275	0.100
678.400	25.929	0.100
678.500	22.680	0.100
678.600	23.742	0.100
678.700	26.805	0.100
678.800	26.788	0.100
678.900	34.428	0.100
679.000	22.722	0.100
679.100	32.645	0.100
679.200	27.348	0.100
679.300	19.295	0.100
679.400	25.589	0.100
679.500	27.290	0.100
679.600	27.616	0.100
679.700	28.156	0.100
679.800	25.592	0.100
679.900	21.971	0.100
680.000	20.087	0.100
680.100	30.370	0.100
680.200	37.240	0.100
680.300	24.956	0.100
680.400	16.519	0.100
680.500	28.691	0.100
680.600	37.905	0.100
680.700	31.620	0.100
680.800	28.025	0.100
680.900	17.444	0.100
681.000	22.592	0.100
681.100	19.917	0.100
681.200	21.269	0.100
681.300	27.564	0.100
681.400	28.150	0.100
681.500	32.574	0.100
681.600	26.826	0.100
681.700	21.793	0.100
681.800	26.315	0.100
681.900	32.363	0.100
682.000	14.445	0.100
682.100	26.510	0.100
682.200	29.328	0.100
682.300	31.630	0.100
682.400	20.821	0.100
682.500	21.444	0.100
682.600	31.451	0.100
682.700	23.574	0.100
682.800	32.126	0.100
682.900	29.076	0.100
683.000	25.283	0.100
683.100	21.815	0.100
683.200	24.989	0.100
683.300	23.157	0.100
683.400	23.720	0.100
683.500	19.122	0.100
683.600	29.548	0.100
683.700	33.942	0.100
683.800	36.714	0.100
683.900	23.369	0.100
684.000	24.363	0.100
684.100	25.379	0.100
684.200	27.777	0.100
684.300	29.346	0.100
684.400	22.541	0.100
684.500	13.458	0.100
684.600	18.851	0.100
684.700	24.924	0.100
684.800	29.703	0.100
684.900	20.826	0.100
685.000	35.719	0.100
685.100	20.977	0.100
685.200	25.551	0.100
685.300	21.446	0.100
685.400	25.461	0.100
685.500	19.881	0.100
685.600	30.488	0.100
685.700	22.522	0.100
685.800	32.364	0.100
685.900	28.984	0.100
686.000	22.270	0.100
686.100	20.363	0.100
686.200	28.565	0.100
686.300	22.096	0.100
686.400	34.459	0.100
686.500	23.698	0.100
686.600	25.410	0.100
686.700	28.791	0.100
686.800	27.382	0.100
686.900	22.782	0.100
687.000	25.139	0.100
687.100	19.805	0.100
687.200	40.526	0.100
687.300	28.566	0.100
687.400	20.958	0.100
687.500	20.915	0.100
687.600	30.990	0.100
687.700	28.654	0.100
687.800	28.703	0.100
687.900	26.434	0.100
688.000	18.916	0.100
688.100	18.066	0.099
688.200	26.441	0.099
688.300	18.632	0.099
688.400	19.181	0.099
688.500	25.208	0.099
688.600	28.108	0.099
688.700	24.353	0.099
688.800	23.584	0.099
688.900	24.210	0.099
689.000	36.544	0.099
689.100	24.949	0.099
689.200	27.192	0.099
689.300	23.907	0.099
689.400	19.648	0.099
689.500	22.088	0.099
689.600	36.059	0.099
689.700	22.974	0.099
689.800	23.319	0.099
689.900	25.265	0.099
690.000	23.948	0.099
690.100	27.468	0.099
690.200	26.122	0.099
690.300	23.445	0.099
690.400	23.035	0.099
690.500	23.918	0.099
690.600	15.940	0.099
690.700	3.875	0.099
690.800	12.696	0.099
690.900	7.597	0.099
691.000	2.822	0.099
691.100	-7.292	0.099
691.200	2.577	0.099
691.300	-8.660	0.099
691.400	-3.209	0.099
691.500	-13.481	0.099
691.600	-2.984	0.099
691.700	-13.306	0.099
691.800	-11.026	0.099
691.900	-11.254	0.099
692.000	-10.719	0.099
692.100	-13.661	0.099
692.200	-10.204	0.099
692.300	-8.267	0.099
692.400	-12.339	0.099
692.500	-31.689	0.099
692.600	-17.223	0.099
692.700	-16.245	0.099
692.800	-13.997	0.099
692.900	-17.335	0.099
693.000	-18.016	0.099
693.100	-16.719	0.099
693.200	-19.724	0.099
693.300	-10.674	0.099
693.400	-10.518	0.099
693.500	-17.015	0.099
693.600	-18.402	0.099
693.700	-24.546	0.099
693.800	-17.876	0.099
693.900	-18.737	0.099
694.000	-15.752	0.099
694.100	-13.810	0.099
694.200	-16.035	0.099
694.300	-16.608	0.099
694.400	-12.244	0.099
694.500	-19.976	0.099
694.600	-15.019	0.099
694.700	-18.313	0.099
694.800	-7.517	0.099
694.900	-10.613	0.099
695.000	-17.706	0.099
695.100	-18.657	0.099
695.200	-21.619	0.099
695.300	-6.220	0.099
695.400	-8.903	0.099
695.500	-14.264	0.099
695.600	-24.284	0.099
695.700	-16.625	0.099
695.800	-17.682	0.099
695.900	-12.804	0.099
696.000	-3.294	0.099
696.100	-22.144	0.099
696.200	-20.441	0.099
696.300	-11.239	0.099
696.400	-15.876	0.099
696.500	-16.544	0.099
696.600	-15.331	0.099
696.700	-7.628	0.099
696.800	-12.312	0.099
696.900	-18.092	0.099
697.000	-13.618	0.099
697.100	-11.196	0.099
697.200	-10.516	0.099
697.300	-9.179	0.099
697.400	-11.347	0.099
697.500	-15.723	0.099
697.600	-15.152	0.099
697.700	-16.950	0.099
697.800	-13.337	0.099
697.900	-11.957	0.099
698.000	-9.955	0.099
698.100	-9.667	0.099
698.200	-13.080	0.099
698.300	-13.677	0.099
698.400	-13.523	0.099
698.500	-10.739	0.099
698.600	-4.978	0.099
698.700	-10.825	0.099
698.800	-16.410	0.099
698.900	-20.122	0.099
699.000	-16.322	0.099
699.100	-5.989	0.099
699.200	-17.255	0.099
699.300	-22.117	0.099
699.400	-11.212	0.099
699.500	-9.491	0.099
699.600	-6.293	0.099
699.700	-12.672	0.099
699.800	-11.582	0.099
699.900	-12.298	0.099
700.000	-5.703	0.099
700.100	-11.638	0.099
700.200	-17.256	0.099
700.300	-4.074	0.099
700.400	-10.371	0.099
700.500	-9.257	0.099
700.600	-15.402	0.099
700.700	-8.147	0.099
700.800	-13.522	0.099
700.900	-16.747	0.099
701.000	-12.796	0.099
701.100	-11.847	0.099
701.200	-10.608	0.099
701.300	-13.641	0.099
701.400	-13.287	0.099
701.500	-13.042	0.099
701.600	-15.105	0.099
701.700	-9.669	0.099
701.800	-11.748	0.099
701.900	-18.593	0.099
702.000	-15.674	0.099
702.100	-5.270	0.099
702.200	-10.570	0.099
702.300	-12.598	0.099
702.400	-11.006	0.099
702.500	-13.478	0.099
702.600	-12.555	0.099
702.700	-15.714	0.099
702.800	-13.129	0.099
702.900	-5.653	0.099
703.000	-7.664	0.099
703.100	-8.149	0.099
703.200	-14.802	0.099
703.300	-14.681	0.099
703.400	-9.566	0.099
703.500	-19.842	0.099
703.600	-7.749	0.099
703.700	-14.173	0.099
703.800	-20.789	0.099
703.900	-2.734	0.099
704.000	-7.713	0.099
704.100	-7.416	0.099
704.200	-9.481	0.099
704.300	-4.954	0.099
704.400	-16.060	0.099
704.500	-14.752	0.100
704.600	-18.116	0.100
704.700	-14.340	0.100
704.800	-4.921	0.100
704.900	-17.243	0.100
705.000	-11.597	0.100
705.100	-13.689	0.100
705.200	-11.347	0.100
705.300	-15.722	0.100
705.400	-11.681	0.100
705.500	-10.811	0.100
705.600	-17.921	0.100
705.700	-8.448	0.100
705.800	-15.008	0.100
705.900	-16.167	0.100
706.000	-6.102	0.100
706.100	-11.534	0.100
706.200	-16.485	0.100
706.300	-8.320	0.100
706.400	-13.651	0.100
706.500	-12.502	0.100
706.600	-14.048	0.100
706.700	-15.694	0.100
706.800	-5.156	0.100
706.900	-16.014	0.100
707.000	-16.024	0.100
707.100	-11.573	0.100
707.200	-3.448	0.100
707.300	-15.359	0.100
707.400	-17.791	0.100
707.500	-11.405	0.100
707.600	-9.733	0.100
707.700	-14.229	0.100
707.800	-13.390	0.100
707.900	-17.112	0.100
708.000	-14.135	0.100
708.100	-17.122	0.100
708.200	-17.541	0.100
708.300	-15.139	0.100
708.400	-14.460	0.100
708.500	-14.878	0.100
708.600	-21.327	0.100
708.700	-16.640	0.100
708.800	-24.576	0.100
708.900	-12.327	0.100
709.000	-15.983	0.100
709.100	-6.770	0.100
709.200	-17.779	0.100
709.300	-20.130	0.100
709.400	-16.225	0.100
709.500	-15.078	0.100
709.600	-16.848	0.100
709.700	-14.565	0.100
709.800	-13.662	0.100
709.900	-9.551	0.100
710.000	-10.755	0.100
710.100	-20.183	0.100
710.200	-6.609	0.100
710.300	-11.746	0.100
710.400	-11.300	0.100
710.500	-11.466	0.100
710.600	-15.570	0.100
710.700	-23.211	0.100
710.800	-12.242	0.100
710.900	-13.286	0.100
711.000	-15.856	0.100
711.100	-11.730	0.100
711.200	-18.016	0.100
711.300	-14.274	0.100
711.400	-19.694	0.100
711.500	-5.099	0.100
711.600	-6.210	0.100
711.700	-12.293	0.100
711.800	-18.504	0.100
711.900	-16.939	0.100
712.000	-13.962	0.100
712.100	-14.371	0.100
712.200	-13.155	0.100
712.300	-9.057	0.100
712.400	-8.568	0.100
712.500	-24.302	0.100
712.600	-21.043	0.100
712.700	-14.586	0.100
712.800	-18.871	0.100
712.900	-14.893	0.100
713.000	-12.314	0.100
713.100	-14.399	0.100
713.200	-17.033	0.100
713.300	-9.431	0.100
713.400	-17.168	0.100
713.500	-16.478	0.100
713.600	-24.933	0.100
713.700	-18.059	0.100
713.800	-12.834	0.100
713.900	-12.885	0.100
714.000	-13.028	0.100
714.100	-18.974	0.100
714.200	-20.565	0.100
714.300	-13.541	0.100
714.400	-13.715	0.100
714.500	-21.071	0.100
714.600	-13.908	0.100
714.700	-13.069	0.100
714.800	-15.795	0.100
714.900	-17.182	0.100
715.000	-21.600	0.100
715.100	-13.972	0.100
715.200	-13.570	0.100
715.300	-14.676	0.100
715.400	-17.040	0.100
715.500	-11.214	0.100
715.600	-14.739	0.100
715.700	-12.222	0.100
715.800	-7.497	0.100
715.900	-16.604	0.100
716.000	-12.095	0.100
716.100	-18.687	0.100
716.200	-19.080	0.100
716.300	-17.775	0.100
716.400	-10.323	0.100
716.500	-16.215	0.100
716.600	-12.959	0.100
716.700	-16.254	0.100
716.800	-16.490	0.100
716.900	-12.697	0.100
717.000	-14.492	0.100
717.100	-10.057	0.100
717.200	-16.962	0.100
717.300	-17.191	0.100
717.400	-16.500	0.100
717.500	-16.686	0.100
717.600	-10.944	0.100
717.700	-19.076	0.100
717.800	-10.223	0.100
717.900	-11.741	0.100
718.000	-22.645	0.100
718.100	-17.561	0.100
718.200	-15.082	0.100
718.300	-10.047	0.100
718.400	-17.068	0.100
718.500	-13.859	0.100
718.600	-14.072	0.100
718.700	-14.308	0.100
718.800	-12.412	0.100
718.900	-28.743	0.100
719.000	-11.430	0.100
719.100	-20.518	0.100
719.200	-21.855	0.100
719.300	-18.571	0.100
719.400	-13.438	0.100
719.500	-24.015	0.100
719.600	-10.933	0.100
719.700	-17.000	0.100
719.800	-18.250	0.100
719.900	-15.485	0.100
720.000	-13.025	0.100
720.100	-12.281	0.100
720.200	-22.416	0.100
720.300	-16.750	0.100
720.400	-17.425	0.100
720.500	-23.640	0.100
720.600	-17.660	0.100
720.700	-6.971	0.100
720.800	-18.946	0.100
720.900	-19.002	0.100
721.000	-17.552	0.100
721.100	-14.854	0.100
721.200	-20.294	0.100
721.300	-14.474	0.100
721.400	-18.999	0.100
721.500	-18.266	0.100
721.600	-18.362	0.100
721.700	-13.755	0.100
721.800	-19.176	0.100
721.900	-20.182	0.100
722.000	-23.989	0.100
722.100	-16.018	0.100
722.200	-15.515	0.100
722.300	-14.608	0.100
722.400	-15.309	0.100
722.500	-14.351	0.100
722.600	-17.579	0.100
722.700	-18.401	0.100
722.800	-15.342	0.100
722.900	-16.560	0.100
723.000	-16.282	0.100
723.100	-20.407	0.100
723.200	-23.119	0.100
723.300	-16.422	0.100
723.400	-18.110	0.100
723.500	-12.398	0.100
723.600	-25.530	0.100
723.700	-17.799	0.100
723.800	-13.661	0.100
723.900	-15.489	0.100
724.000	-17.607	0.100
724.100	-18.310	0.100
724.200	-19.168	0.100
724.300	-16.793	0.100
724.400	-14.549	0.100
724.500	-19.087	0.100
724.600	-17.757	0.100
724.700	-14.817	0.100
724.800	-12.956	0.100
724.900	-32.000	0.100
725.000	-18.633	0.100
725.100	-11.061	0.100
725.200	-22.018	0.100
725.300	-16.108	0.100
725.400	-14.251	0.100
725.500	-15.461	0.100
725.600	-7.566	0.100
725.700	-18.080	0.100
725.800	-18.176	0.100
725.900	-15.879	0.100
726.000	-20.061	0.100
726.100	-26.915	0.100
726.200	-16.981	0.100
726.300	-20.967	0.100
726.400	-8.541	0.100
726.500	-16.826	0.100
726.600	-20.045	0.100
726.700	-22.172	0.100
726.800	-25.267	0.100
726.900	-16.025	0.100
727.000	-13.940	0.100
727.100	-10.054	0.100
727.200	-21.301	0.100
727.300	-17.858	0.100
727.400	-11.834	0.100
727.500	-25.849	0.100
727.600	-12.781	0.100
727.700	-23.173	0.100
727.800	-9.809	0.100
727.900	-19.017	0.100
728.000	-12.076	0.100
728.100	-22.615	0.100
728.200	-15.070	0.100
728.300	-12.685	0.100
728.400	-17.017	0.100
728.500	-27.373	0.100
728.600	-14.709	0.100
728.700	-20.813	0.100
728.800	-12.809	0.100
728.900	-4.227	0.100
729.000	-14.496	0.100
729.100	-19.078	0.100
729.200	-19.205	0.100
729.300	-21.370	0.100
729.400	-17.019	0.100
729.500	-19.774	0.100
729.600	-8.518	0.100
729.700	-16.197	0.100
729.800	-18.038	0.100
729.900	-17.241	0.100
730.000	-17.887	0.100
730.100	-13.536	0.100
730.200	-22.877	0.100
730.300	-14.821	0.100
730.400	-14.687	0.100
730.500	-14.133	0.100
730.600	-21.260	0.100
730.700	-10.520	0.100
730.800	-19.638	0.100
730.900	-17.375	0.100
731.000	-18.600	0.100
731.100	-18.865	0.100
731.200	-16.571	0.100
731.300	-16.937	0.100
731.400	-15.491	0.100
731.500	-19.828	0.100
731.600	-20.677	0.100
731.700	-16.283	0.100
731.800	-14.030	0.100
731.900	-24.254	0.100
732.000	-14.875	0.100
732.100	-10.017	0.100
732.200	-27.335	0.100
732.300	-12.462	0.100
732.400	-26.941	0.100
732.500	-16.668	0.100
732.600	-7.606	0.100
732.700	-19.796	0.100
732.800	-27.080	0.100
732.900	-13.272	0.100
733.000	-20.540	0.100
733.100	-13.200	0.100
733.200	-14.660	0.100
733.300	-9.608	0.100
733.400	-14.570	0.100
733.500	-17.620	0.100
733.600	-12.026	0.100
733.700	-16.917	0.100
733.800	-18.912	0.100
733.900	-11.530	0.100
734.000	-18.341	0.100
734.100	-15.710	0.100
734.200	-7.438	0.100
734.300	-15.290	0.100
734.400	-18.893	0.100
734.500	-27.012	0.100
734.600	-11.979	0.100
734.700	-18.752	0.100
734.800	-17.768	0.100
734.900	-22.149	0.100
735.000	-14.393	0.100
735.100	-12.455	0.100
735.200	-12.719	0.100
735.300	-14.601	0.100
735.400	-23.604	0.100
735.500	-21.075	0.100
735.600	-24.626	0.100
735.700	-10.672	0.100
735.800	-16.001	0.100
735.900	-17.003	0.100
736.000	-19.361	0.100
736.100	-18.384	0.100
736.200	-11.690	0.100
736.300	-12.917	0.100
736.400	-9.421	0.100
736.500	-16.880	0.100
736.600	-15.111	0.100
736.700	-18.165	0.100
736.800	-14.074	0.100
736.900	-14.836	0.100
737.000	-19.071	0.100
737.100	-17.654	0.100
737.200	-17.427	0.100
737.300	-15.824	0.100
737.400	-24.533	0.100
737.500	-15.932	0.100
737.600	-18.147	0.100
737.700	-21.828	0.100
737.800	-19.130	0.100
737.900	-16.162	0.100
738.000	-12.738	0.100
738.100	-17.667	0.100
738.200	-15.956	0.100
738.300	-11.053	0.100
738.400	-16.017	0.100
738.500	-28.724	0.100
738.600	-19.741	0.100
738.700	-17.631	0.100
738.800	-8.149	0.100
738.900	-12.580	0.100
739.000	-18.936	0.100
739.100	-13.887	0.100
739.200	-18.379	0.100
739.300	-10.963	0.100
739.400	-14.966	0.100
739.500	-12.443	0.100
739.600	-10.963	0.100
739.700	-15.248	0.100
739.800	-23.083	0.100
739.900	-18.946	0.100
740.000	-17.944	0.100
740.100	-15.338	0.100
740.200	-19.837	0.100
740.300	-16.428	0.100
740.400	-14.977	0.100
740.500	-14.151	0.100
740.600	-21.377	0.100
740.700	-18.094	0.100
740.800	-16.004	0.100
740.900	-18.539	0.100
741.000	-16.822	0.100
741.100	-12.823	0.100
741.200	-12.414	0.100
741.300	-19.070	0.100
741.400	-14.482	0.100
741.500	-24.029	0.100
741.600	-12.101	0.100
741.700	-16.045	0.100
741.800	-25.144	0.100
741.900	-14.389	0.100
742.000	-14.471	0.100
742.100	-14.094	0.100
742.200	-21.207	0.100
742.300	-6.097	0.100
742.400	-17.314	0.100
742.500	-15.727	0.100
742.600	-17.718	0.100
742.700	-6.233	0.100
742.800	-19.297	0.100
742.900	-19.154	0.100
743.000	-19.382	0.100
743.100	-6.476	0.100
743.200	-16.362	0.100
743.300	-13.488	0.100
743.400	-17.138	0.100
743.500	-16.721	0.100
743.600	-17.649	0.100
743.700	-17.506	0.100
743.800	-12.439	0.100
743.900	-15.201	0.100
744.000	-16.962	0.100
744.100	-13.784	0.099
744.200	-13.247	0.099
744.300	-23.324	0.099
744.400	-10.729	0.099
744.500	-12.651	0.099
744.600	-16.518	0.099
744.700	-17.130	0.099
744.800	-23.476	0.099
744.900	-18.106	0.099
745.000	-20.148	0.099
745.100	-4.538	0.099
745.200	-12.100	0.099
745.300	-16.625	0.099
745.400	-11.358	0.099
745.500	-10.451	0.099
745.600	-14.947	0.099
745.700	-14.409	0.099
745.800	-18.467	0.099
745.900	-14.247	0.099
746.000	-11.251	0.099
746.100	-10.226	0.099
746.200	-17.907	0.099
746.300	-16.605	0.099
746.400	-23.070	0.099
746.500	-12.415	0.099
746.600	-17.321	0.099
746.700	-8.652	0.099
746.800	-15.961	0.099
746.900	-9.152	0.099
747.000	-15.797	0.099
747.100	-19.740	0.099
747.200	-13.073	0.099
747.300	-18.888	0.099
747.400	-17.481	0.099
747.500	-8.255	0.099
747.600	-9.764	0.099
747.700	-16.230	0.099
747.800	-11.938	0.099
747.900	-15.972	0.099
748.000	-17.097	0.099
748.100	-11.797	0.099
748.200	-21.398	0.099
748.300	-18.048	0.099
748.400	-21.128	0.099
748.500	-5.963	0.099
748.600	-14.893	0.099
748.700	-9.269	0.099
748.800	-17.956	0.099
748.900	-14.824	0.099
749.000	-18.955	0.099
749.100	-10.045	0.099
749.200	-9.165	0.099
749.300	-11.957	0.099
749.400	-19.415	0.099
749.500	-16.870	0.099
749.600	-9.184	0.099
749.700	-25.472	0.099
749.800	-23.053	0.099
749.900	-7.183	0.099
750.000	-13.428	0.099
750.100	-14.226	0.099
750.200	-11.567	0.099
750.300	-12.860	0.099
750.400	-10.301	0.099
750.500	-23.661	0.099
750.600	-16.325	0.099
750.700	-26.915	0.099
750.800	-23.834	0.099
750.900	-7.432	0.099
751.000	-4.137	0.099
751.100	-9.050	0.099
751.200	-14.414	0.099
751.300	-17.093	0.099
751.400	-15.719	0.099
751.500	-17.467	0.099
751.600	-15.327	0.099
751.700	-15.795	0.099
751.800	-26.033	0.099
751.900	-12.837	0.099
752.000	-16.314	0.099
752.100	-17.923	0.099
752.200	-12.107	0.099
752.300	-19.150	0.099
752.400	-18.328	0.099
752.500	-17.519	0.099
752.600	-22.223	0.099
752.700	-8.890	0.099
752.800	-11.829	0.099
752.900	-18.598	0.099
753.000	-22.306	0.099
753.100	-16.259	0.099
753.200	-11.153	0.099
753.300	-15.449	0.099
753.400	-12.900	0.099
753.500	-14.414	0.099
753.600	-15.562	0.099
753.700	-16.227	0.099
753.800	-15.533	0.099
753.900	-16.780	0.099
754.000	-18.881	0.099
754.100	-14.821	0.099
754.200	-20.320	0.099
754.300	-13.412	0.099
754.400	-8.486	0.099
754.500	-16.886	0.099
754.600	-14.444	0.099
754.700	-15.365	0.099
754.800	-20.754	0.099
754.900	-11.361	0.099
755.000	-14.778	0.099
755.100	-21.184	0.099
755.200	-18.018	0.099
755.300	-10.564	0.099
755.400	-9.433	0.099
755.500	-12.455	0.099
755.600	-19.457	0.099
755.700	-6.615	0.099
755.800	-12.709	0.099
755.900	-15.755	0.099
756.000	-20.892	0.099
756.100	-12.642	0.099
756.200	-13.569	0.099
756.300	-18.771	0.099
756.400	-11.099	0.099
756.500	-22.007	0.099
756.600	-9.944	0.099
756.700	-11.038	0.099
756.800	-16.293	0.099
756.900	-15.053	0.099
757.000	-16.907	0.099
757.100	-10.528	0.099
757.200	-22.556	0.099
757.300	-7.791	0.099
757.400	-9.611	0.099
757.500	-26.301	0.099
757.600	-11.960	0.099
757.700	-12.065	0.099
757.800	-15.423	0.099
757.900	-18.836	0.099
758.000	-10.452	0.099
758.100	-11.981	0.099
758.200	-20.351	0.099
758.300	-18.441	0.099
758.400	-14.163	0.099
758.500	-11.910	0.099
758.600	-10.252	0.099
758.700	-12.858	0.099
758.800	-18.002	0.099
758.900	-13.873	0.099
759.000	-20.701	0.099
759.100	-19.931	0.099
759.200	-15.834	0.099
759.300	-11.676	0.099
759.400	-11.157	0.099
759.500	-15.739	0.099
759.600	-15.134	0.099
759.700	-20.645	0.099
759.800	-14.702	0.099
759.900	-6.400	0.099
760.000	-5.996	0.099
760.100	-18.094	0.099
760.200	-16.200	0.099
760.300	-6.781	0.099
760.400	-15.763	0.099
760.500	-13.016	0.099
760.600	-24.170	0.099
760.700	-14.306	0.099
760.800	-6.720	0.099
760.900	-9.442	0.099
761.000	-22.234	0.099
761.100	-14.952	0.099
761.200	-10.358	0.099
761.300	-10.255	0.100
761.400	-14.981	0.100
761.500	-21.106	0.100
761.600	-15.550	0.099
761.700	-9.332	0.099
761.800	-10.718	0.100
761.900	-10.229	0.100
762.000	-12.922	0.099
762.100	-18.059	0.100
762.200	-12.058	0.099
762.300	-7.390	0.100
762.400	-7.216	0.099
762.500	-11.043	0.100
762.600	-16.973	0.099
762.700	-7.956	0.100
762.800	-13.304	0.100
762.900	-19.075	0.099
763.000	-16.384	0.100
763.100	-17.257	0.100
763.200	-15.340	0.099
763.300	-12.184	0.099
763.400	-12.356	0.099
763.500	-9.699	0.100
763.600	-11.471	0.100
763.700	-17.043	0.099
763.800	-15.639	0.100
763.900	-13.690	0.100
764.000	-16.092	0.100
764.100	-16.740	0.100
764.200	-4.827	0.100
764.300	-13.306	0.100
764.400	-19.670	0.100
764.500	-12.228	0.100
764.600	-11.032	0.100
764.700	-16.679	0.100
764.800	-11.903	0.100
764.900	-7.576	0.100
765.000	-14.110	0.100
765.100	-13.461	0.100
765.200	-16.807	0.100
765.300	-12.408	0.100
765.400	-13.013	0.100
765.500	-9.703	0.100
765.600	-16.233	0.100
765.700	-7.211	0.100
765.800	-13.473	0.100
765.900	-9.576	0.100
766.000	-11.698	0.100
766.100	-15.669	0.100
766.200	-14.949	0.100
766.300	-16.887	0.100
766.400	-16.007	0.100
766.500	-11.239	0.100
766.600	-18.102	0.100
766.700	-13.426	0.100
766.800	-9.019	0.100
766.900	-13.039	0.100
767.000	-21.334	0.100
767.100	-16.190	0.100
767.200	-13.659	0.100
767.300	-6.438	0.100
767.400	-6.073	0.100
767.500	-12.030	0.100
767.600	-12.026	0.100
767.700	-18.854	0.100
767.800	-17.687	0.100
767.900	-10.284	0.100
768.000	-18.046	0.100
768.100	-8.647	0.100
768.200	-25.466	0.100
768.300	-12.160	0.100
768.400	-0.160	0.100
768.500	-4.161	0.100
768.600	-12.003	0.100
768.700	-4.096	0.100
768.800	-13.770	0.100
768.900	-19.785	0.100
769.000	-3.780	0.100
769.100	-14.523	0.100
769.200	-11.981	0.100
769.300	-16.205	0.100
769.400	-16.084	0.100
769.500	-27.966	0.100
769.600	-17.601	0.100
769.700	-13.247	0.100
769.800	-21.326	0.100
769.900	-20.133	0.100
770.000	-10.887	0.100
770.100	-16.340	0.100
770.200	-11.355	0.100
770.300	-10.809	0.100
770.400	-2.126	0.100
770.500	-14.765	0.100
770.600	-6.941	0.100
770.700	-10.364	0.100
770.800	-15.047	0.100
770.900	-20.001	0.100
771.000	-9.646	0.100
771.100	-13.487	0.100
771.200	-12.046	0.100
771.300	-16.839	0.100
771.400	-13.978	0.100
771.500	-14.125	0.100
771.600	-4.796	0.100
771.700	-12.384	0.100
771.800	-16.217	0.100
771.900	-20.210	0.100
772.000	-9.483	0.100
772.100	-5.879	0.100
772.200	-2.422	0.100
772.300	-8.862	0.100
772.400	-9.906	0.100
772.500	-6.877	0.100
772.600	-26.150	0.100
772.700	-3.406	0.100
772.800	-12.142	0.100
772.900	-13.934	0.100
773.000	-5.194	0.100
773.100	-13.483	0.100
773.200	-13.377	0.100
773.300	-16.318	0.100
773.400	-18.755	0.100
773.500	-6.692	0.100
773.600	-8.006	0.100
773.700	-14.241	0.100
773.800	-9.302	0.100
773.900	-23.286	0.100
774.000	-16.588	0.100
774.100	-12.815	0.100
774.200	-12.527	0.100
774.300	-17.079	0.100
774.400	-8.728	0.100
774.500	-10.899	0.100
774.600	-19.672	0.100
774.700	-11.830	0.100
774.800	-15.611	0.100
774.900	-10.724	0.100
775.000	-17.721	0.100
775.100	-9.401	0.100
775.200	-5.936	0.100
775.300	-22.675	0.100
775.400	-4.124	0.100
775.500	-7.609	0.100
775.600	-13.953	0.100
775.700	-10.894	0.100
775.800	-10.448	0.100
775.900	-18.132	0.100
776.000	-15.495	0.100
776.100	-14.023	0.100
776.200	-3.400	0.100
776.300	-9.999	0.100
776.400	-15.385	0.100
776.500	-5.990	0.100
776.600	-15.186	0.100
776.700	-6.004	0.100
776.800	-18.663	0.100
776.900	-11.066	0.100
777.000	-21.421	0.100
777.100	-8.643	0.100
777.200	-7.830	0.100
777.300	-13.021	0.100
777.400	-18.727	0.100
777.500	-7.506	0.100
777.600	-17.617	0.100
777.700	-18.253	0.100
777.800	-4.358	0.100
777.900	-7.246	0.100
778.000	-10.486	0.100
778.100	-3.935	0.100
778.200	-23.108	0.100
778.300	-7.674	0.100
778.400	-19.415	0.100
778.500	-14.459	0.100
778.600	-11.881	0.100
778.700	-1.711	0.100
778.800	-11.381	0.100
778.900	-10.535	0.100
779.000	-11.141	0.100
779.100	-21.757	0.100
779.200	-10.940	0.100
779.300	-8.991	0.100
779.400	-20.180	0.100
779.500	-17.279	0.100
779.600	-11.625	0.100
779.700	-12.502	0.100
779.800	-17.133	0.100
779.900	-6.435	0.100
780.000	-9.517	0.100
780.100	-17.846	0.100
780.200	-6.501	0.100
780.300	-13.411	0.100
780.400	-5.894	0.100
780.500	-5.715	0.100
780.600	2.365	0.100
780.700	-14.344	0.100
780.800	-2.934	0.100
780.900	4.095	0.100
781.000	9.520	0.100
781.100	11.563	0.100
781.200	9.402	0.100
781.300	17.083	0.100
781.400	15.048	0.100
781.500	22.402	0.100
781.600	28.498	0.100
781.700	25.549	0.100
781.800	11.487	0.100
781.900	25.323	0.100
782.000	21.674	0.100
782.100	22.598	0.100
782.200	21.073	0.100
782.300	29.359	0.100
782.400	26.773	0.100
782.500	20.577	0.100
782.600	20.198	0.100
782.700	14.929	0.100
782.800	20.286	0.100
782.900	27.693	0.100
783.000	27.212	0.100
783.100	12.510	0.100
783.200	20.173	0.100
783.300	30.389	0.100
783.400	23.453	0.100
783.500	26.004	0.100
783.600	22.959	0.100
783.700	8.599	0.100
783.800	12.053	0.100
783.900	19.075	0.100
784.000	27.986	0.100
784.100	23.884	0.100
784.200	14.522	0.100
784.300	12.263	0.100
784.400	17.220	0.100
784.500	14.250	0.100
784.600	19.049	0.100
784.700	20.122	0.100
784.800	13.264	0.100
784.900	16.195	0.100
785.000	17.042	0.100
785.100	19.501	0.100
785.200	16.696	0.100
785.300	19.154	0.100
785.400	20.046	0.100
785.500	13.965	0.100
785.600	18.629	0.100
785.700	23.989	0.100
785.800	23.321	0.100
785.900	18.118	0.100
786.000	14.194	0.100
786.100	15.839	0.100
786.200	13.330	0.100
786.300	10.278	0.100
786.400	9.647	0.100
786.500	8.103	0.100
786.600	17.203	0.100
786.700	22.663	0.100
786.800	11.513	0.100
786.900	9.062	0.100
787.000	13.096	0.100
787.100	6.588	0.100
787.200	7.131	0.100
787.300	5.208	0.100
787.400	7.823	0.100
787.500	15.113	0.100
787.600	15.472	0.100
787.700	12.801	0.100
787.800	12.140	0.100
787.900	12.916	0.100
788.000	8.590	0.100
788.100	14.527	0.100
788.200	12.558	0.100
788.300	17.696	0.100
788.400	9.082	0.100
788.500	13.409	0.100
788.600	13.580	0.100
788.700	19.040	0.100
788.800	10.091	0.100
788.900	14.015	0.100
789.000	18.463	0.100
789.100	18.324	0.100
789.200	20.781	0.100
789.300	13.911	0.100
789.400	4.301	0.100
789.500	19.436	0.100
789.600	8.547	0.100
789.700	15.567	0.100
789.800	17.976	0.100
789.900	13.650	0.100
790.000	6.726	0.100
790.100	8.905	0.100
790.200	20.466	0.100
790.300	12.811	0.100
790.400	12.833	0.100
790.500	20.305	0.100
790.600	17.214	0.100
790.700	13.212	0.100
790.800	15.251	0.100
790.900	22.168	0.100
791.000	18.767	0.100
791.100	17.531	0.100
791.200	15.731	0.100
791.300	11.829	0.100
791.400	12.152	0.100
791.500	14.532	0.100
791.600	15.216	0.100
791.700	16.385	0.100
791.800	21.402	0.100
791.900	15.798	0.100
792.000	12.699	0.100
792.100	8.019	0.100
792.200	29.933	0.100
792.300	16.691	0.100
792.400	18.318	0.100
792.500	19.591	0.100
792.600	18.333	0.100
792.700	22.891	0.100
792.800	22.266	0.100
792.900	16.550	0.100
793.000	23.072	0.100
793.100	16.277	0.100
793.200	16.317	0.100
793.300	24.084	0.100
793.400	14.792	0.100
793.500	18.867	0.100
793.600	17.538	0.100
793.700	16.710	0.100
793.800	13.522	0.100
793.900	21.314	0.100
794.000	19.466	0.100
794.100	15.571	0.100
794.200	17.110	0.100
794.300	16.580	0.100
794.400	24.731	0.100
794.500	27.212	0.100
794.600	21.035	0.100
794.700	24.347	0.100
794.800	19.135	0.100
794.900	24.795	0.100
795.000	22.575	0.100
795.100	30.298	0.100
795.200	18.392	0.100
795.300	24.273	0.100
795.400	17.726	0.100
795.500	21.300	0.100
795.600	29.086	0.100
795.700	20.101	0.100
795.800	20.840	0.100
795.900	19.113	0.100
796.000	18.746	0.100
796.100	22.928	0.100
796.200	25.695	0.100
796.300	24.762	0.100
796.400	24.977	0.100
796.500	25.539	0.100
796.600	19.435	0.100
796.700	26.995	0.100
796.800	29.435	0.100
796.900	25.478	0.100
797.000	26.229	0.100
797.100	22.823	0.100
797.200	30.648	0.100
797.300	29.532	0.100
797.400	28.679	0.100
797.500	19.751	0.100
797.600	21.015	0.100
797.700	25.465	0.100
797.800	18.709	0.100
797.900	20.185	0.100
798.000	21.651	0.100
798.100	29.741	0.100
798.200	26.441	0.100
798.300	39.099	0.100
798.400	27.983	0.100
798.500	19.575	0.100
798.600	30.574	0.100
798.700	29.425	0.100
798.800	24.614	0.100
798.900	29.391	0.100
799.000	30.711	0.100
799.100	34.394	0.100
799.200	29.456	0.100
799.300	25.735	0.100
799.400	21.526	0.100
799.500	31.005	0.100
799.600	22.149	0.100
799.700	31.587	0.100
799.800	30.945	0.100
799.900	31.238	0.100
800.000	24.791	0.100
