time /s	I /nA	E /V
0.100	-4.619	0.100
0.200	-11.371	0.100
0.300	-7.618	0.100
0.400	-9.491	0.100
0.500	-9.576	0.100
0.600	-17.767	0.100
0.700	-10.727	0.100
0.800	2.287	0.100
0.900	-5.103	0.100
1.000	-9.476	0.100
1.100	-8.174	0.100
1.200	-17.582	0.100
1.300	-8.656	0.100
1.400	-5.222	0.100
1.500	-1.902	0.100
1.600	-5.763	0.100
1.700	-11.825	0.100
1.800	-8.191	0.100
1.900	-9.200	0.100
2.000	-14.410	0.100
2.100	-8.504	0.100
2.200	-7.390	0.100
2.300	-7.998	0.100
2.400	-8.322	0.100
2.500	-10.586	0.100
2.600	-12.865	0.100
2.700	-11.334	0.100
2.800	-5.779	0.100
2.900	-8.188	0.100
3.000	-10.702	0.100
3.100	-6.289	0.100
3.200	-13.588	0.100
3.300	-6.648	0.100
3.400	-12.179	0.100
3.500	-12.272	0.100
3.600	-6.562	0.100
3.700	-11.400	0.100
3.800	-12.606	0.100
3.900	-9.654	0.100
4.000	1.233	0.100
4.100	1.079	0.100
4.200	-3.345	0.100
4.300	-10.548	0.100
4.400	-12.094	0.100
4.500	-8.555	0.100
4.600	-9.229	0.100
4.700	-1.725	0.100
4.800	-13.247	0.100
4.900	3.338	0.100
5.000	-2.323	0.100
5.100	-13.456	0.100
5.200	-2.363	0.100
5.300	-8.483	0.100
5.400	-12.214	0.100
5.500	-2.701	0.100
5.600	-9.117	0.100
5.700	-6.317	0.100
5.800	-7.098	0.100
5.900	-12.066	0.100
6.000	-15.629	0.100
6.100	-4.738	0.100
6.200	-4.274	0.100
6.300	-6.374	0.100
6.400	-6.658	0.100
6.500	-1.972	0.100
6.600	-12.853	0.100
6.700	-12.839	0.100
6.800	-7.055	0.100
6.900	-9.875	0.100
7.000	-10.508	0.100
7.100	-2.650	0.100
7.200	-5.910	0.100
7.300	-10.192	0.100
7.400	-5.341	0.100
7.500	-17.077	0.100
7.600	-0.507	0.100
7.700	-4.718	0.100
7.800	-11.488	0.100
7.900	-5.397	0.100
8.000	-11.073	0.100
8.100	-11.616	0.100
8.200	-6.969	0.100
8.300	-5.174	0.100
8.400	-8.402	0.100
8.500	3.218	0.100
8.600	-6.672	0.100
8.700	-10.929	0.100
8.800	-8.093	0.100
8.900	-11.565	0.100
9.000	-5.461	0.100
9.100	-10.843	0.100
9.200	-4.803	0.100
9.300	-5.422	0.100
9.400	-5.372	0.100
9.500	-5.000	0.100
9.600	-5.178	0.100
9.700	-4.680	0.100
9.800	-8.800	0.100
9.900	-1.453	0.100
10.000	-10.855	0.100
10.100	-7.995	0.100
10.200	-8.833	0.100
10.300	-9.287	0.100
10.400	-6.764	0.100
10.500	-7.876	0.100
10.600	-3.056	0.100
10.700	-14.376	0.100
10.800	-12.266	0.100
10.900	-5.753	0.100
11.000	-5.094	0.100
11.100	-1.014	0.100
11.200	-8.445	0.100
11.300	-4.362	0.100
11.400	-15.996	0.100
11.500	-8.525	0.100
11.600	-8.262	0.100
11.700	-11.977	0.100
11.800	-10.777	0.100
11.900	-1.126	0.100
12.000	4.296	0.100
12.100	-2.881	0.100
12.200	-5.621	0.100
12.300	-4.009	0.100
12.400	-1.449	0.100
12.500	-9.343	0.100
12.600	-5.339	0.100
12.700	-8.427	0.100
12.800	-7.390	0.100
12.900	3.008	0.100
13.000	-11.975	0.100
13.100	-11.359	0.100
13.200	-7.595	0.100
13.300	0.055	0.100
13.400	-2.718	0.100
13.500	-6.383	0.100
13.600	-10.741	0.100
13.700	-6.301	0.100
13.800	-3.463	0.100
13.900	-6.329	0.100
14.000	-8.681	0.100
14.100	-7.543	0.100
14.200	-10.886	0.100
14.300	-11.397	0.100
14.400	1.786	0.100
14.500	-14.448	0.100
14.600	-12.323	0.100
14.700	-14.454	0.100
14.800	7.277	0.100
14.900	-5.029	0.100
15.000	-9.840	0.100
15.100	-12.634	0.100
15.200	-7.707	0.100
15.300	-8.267	0.100
15.400	-4.753	0.100
15.500	-5.253	0.100
15.600	-5.061	0.100
15.700	-13.986	0.100
15.800	-9.505	0.100
15.900	-6.098	0.100
16.000	-5.954	0.100
16.100	-1.869	0.100
16.200	-13.931	0.100
16.300	-6.880	0.100
16.400	-6.679	0.100
16.500	-12.877	0.100
16.600	-4.395	0.100
16.700	-7.349	0.100
16.800	-12.000	0.100
16.900	-9.356	0.100
17.000	-1.214	0.100
17.100	-9.048	0.100
17.200	-10.020	0.100
17.300	-8.341	0.100
17.400	-1.457	0.100
17.500	-7.993	0.100
17.600	0.763	0.100
17.700	-6.912	0.100
17.800	-7.604	0.100
17.900	-5.980	0.100
18.000	-16.936	0.100
18.100	-1.154	0.100
18.200	-3.814	0.100
18.300	-8.936	0.100
18.400	-11.807	0.100
18.500	-5.145	0.100
18.600	-11.683	0.100
18.700	-9.180	0.100
18.800	-10.429	0.100
18.900	-5.955	0.100
19.000	-6.340	0.100
19.100	-16.361	0.100
19.200	-10.967	0.100
19.300	-3.907	0.100
19.400	-4.605	0.100
19.500	-4.971	0.100
19.600	-16.729	0.100
19.700	-9.443	0.100
19.800	-9.197	0.100
19.900	-5.679	0.100
20.000	-10.466	0.100
20.100	-1.627	0.100
20.200	-2.395	0.100
20.300	-7.538	0.100
20.400	-1.842	0.100
20.500	-9.416	0.100
20.600	-7.904	0.100
20.700	-16.563	0.100
20.800	-1.472	0.100
20.900	-4.462	0.100
21.000	-13.972	0.100
21.100	-14.825	0.100
21.200	-1.847	0.100
21.300	-12.513	0.100
21.400	-9.901	0.100
21.500	-2.814	0.100
21.600	-6.710	0.100
21.700	-10.328	0.100
21.800	-2.525	0.100
21.900	-7.015	0.100
22.000	-12.061	0.100
22.100	-1.237	0.100
22.200	-3.329	0.100
22.300	-2.709	0.100
22.400	-7.922	0.100
22.500	-6.097	0.100
22.600	-11.460	0.100
22.700	-3.585	0.100
22.800	2.680	0.100
22.900	-0.657	0.100
23.000	-7.292	0.100
23.100	-14.445	0.100
23.200	-4.572	0.100
23.300	-2.914	0.100
23.400	-15.946	0.100
23.500	-17.180	0.100
23.600	-2.307	0.100
23.700	-7.026	0.100
23.800	-9.213	0.100
23.900	-14.443	0.100
24.000	-9.596	0.100
24.100	-8.276	0.100
24.200	-5.959	0.100
24.300	-7.768	0.100
24.400	-2.162	0.100
24.500	-11.654	0.100
24.600	-9.095	0.100
24.700	-9.230	0.100
24.800	-10.485	0.100
24.900	-15.256	0.100
25.000	-2.425	0.100
25.100	-8.567	0.100
25.200	-6.607	0.100
25.300	-8.801	0.100
25.400	-12.301	0.100
25.500	-11.123	0.100
25.600	0.539	0.100
25.700	-13.463	0.100
25.800	-0.313	0.100
25.900	2.669	0.100
26.000	-4.253	0.100
26.100	-13.663	0.100
26.200	-13.035	0.100
26.300	1.304	0.100
26.400	-5.856	0.100
26.500	-7.271	0.100
26.600	-9.877	0.100
26.700	-11.234	0.100
26.800	-14.269	0.100
26.900	-4.261	0.100
27.000	-3.831	0.100
27.100	-4.939	0.100
27.200	-9.593	0.100
27.300	-2.952	0.100
27.400	-9.642	0.100
27.500	-6.238	0.100
27.600	-8.932	0.100
27.700	-14.265	0.100
27.800	-15.359	0.100
27.900	-3.648	0.100
28.000	-2.765	0.100
28.100	-9.731	0.100
28.200	-0.660	0.100
28.300	-10.361	0.100
28.400	-6.001	0.100
28.500	-2.193	0.100
28.600	0.532	0.100
28.700	-4.576	0.100
28.800	-9.600	0.100
28.900	-14.124	0.100
29.000	-11.877	0.100
29.100	-5.409	0.100
29.200	-9.453	0.100
29.300	-3.874	0.100
29.400	-10.976	0.100
29.500	0.723	0.100
29.600	-8.877	0.100
29.700	-11.759	0.100
29.800	-3.686	0.100
29.900	-2.296	0.100
30.000	-9.499	0.100
30.100	-0.420	0.100
30.200	-8.825	0.100
30.300	-11.347	0.100
30.400	-11.089	0.100
30.500	-7.437	0.100
30.600	6.168	0.100
30.700	-0.263	0.100
30.800	7.400	0.100
30.900	3.734	0.100
31.000	6.291	0.100
31.100	7.042	0.100
31.200	2.815	0.100
31.300	9.176	0.100
31.400	15.842	0.100
31.500	11.131	0.100
31.600	12.362	0.100
31.700	13.563	0.100
31.800	11.083	0.100
31.900	14.111	0.100
32.000	18.233	0.100
32.100	21.897	0.100
32.200	12.729	0.100
32.300	20.518	0.100
32.400	16.416	0.100
32.500	24.559	0.100
32.600	17.349	0.100
32.700	19.796	0.100
32.800	19.488	0.100
32.900	18.039	0.100
33.000	22.944	0.100
33.100	21.190	0.100
33.200	17.845	0.100
33.300	20.444	0.100
33.400	15.086	0.100
33.500	21.976	0.100
33.600	23.344	0.100
33.700	30.723	0.100
33.800	17.644	0.100
33.900	15.499	0.100
34.000	22.085	0.100
34.100	13.056	0.100
34.200	15.774	0.100
34.300	16.376	0.100
34.400	13.274	0.100
34.500	25.104	0.100
34.600	16.794	0.100
34.700	8.638	0.100
34.800	21.842	0.100
34.900	10.273	0.100
35.000	21.545	0.100
35.100	15.830	0.100
35.200	24.996	0.100
35.300	22.195	0.100
35.400	8.835	0.100
35.500	5.133	0.100
35.600	16.439	0.100
35.700	18.138	0.100
35.800	11.533	0.100
35.900	14.809	0.100
36.000	12.828	0.100
36.100	10.153	0.100
36.200	9.463	0.100
36.300	0.360	0.100
36.400	16.341	0.100
36.500	12.127	0.100
36.600	14.117	0.100
36.700	9.629	0.100
36.800	10.014	0.100
36.900	17.549	0.100
37.000	11.890	0.100
37.100	9.617	0.100
37.200	11.928	0.100
37.300	7.151	0.100
37.400	12.336	0.100
37.500	-1.862	0.100
37.600	15.628	0.100
37.700	18.007	0.100
37.800	6.920	0.100
37.900	16.443	0.100
38.000	11.962	0.100
38.100	9.723	0.100
38.200	21.249	0.100
38.300	16.468	0.100
38.400	10.531	0.100
38.500	1.195	0.100
38.600	14.247	0.100
38.700	7.566	0.100
38.800	15.009	0.100
38.900	17.699	0.100
39.000	13.582	0.100
39.100	9.754	0.100
39.200	17.897	0.100
39.300	21.777	0.100
39.400	12.883	0.100
39.500	4.276	0.100
39.600	11.097	0.100
39.700	16.539	0.100
39.800	15.787	0.100
39.900	22.039	0.100
40.000	18.948	0.100
40.100	14.657	0.100
40.200	15.650	0.100
40.300	8.210	0.100
40.400	17.009	0.100
40.500	14.084	0.100
40.600	8.493	0.100
40.700	18.509	0.100
40.800	14.235	0.100
40.900	13.533	0.100
41.000	15.907	0.100
41.100	8.809	0.100
41.200	14.450	0.100
41.300	10.711	0.100
41.400	17.881	0.100
41.500	9.401	0.100
41.600	10.508	0.100
41.700	10.946	0.100
41.800	13.727	0.100
41.900	23.511	0.100
42.000	21.920	0.100
42.100	11.118	0.100
42.200	13.625	0.100
42.300	8.585	0.100
42.400	21.737	0.100
42.500	10.422	0.100
42.600	20.261	0.100
42.700	17.691	0.100
42.800	13.364	0.100
42.900	11.554	0.100
43.000	7.522	0.100
43.100	12.397	0.100
43.200	19.056	0.100
43.300	7.820	0.100
43.400	14.435	0.100
43.500	15.846	0.100
43.600	15.689	0.100
43.700	22.296	0.100
43.800	21.063	0.100
43.900	12.481	0.100
44.000	14.752	0.100
44.100	20.746	0.100
44.200	14.958	0.100
44.300	10.864	0.100
44.400	15.020	0.100
44.500	16.287	0.100
44.600	21.871	0.100
44.700	6.397	0.100
44.800	4.960	0.100
44.900	15.725	0.100
45.000	17.424	0.100
45.100	21.804	0.100
45.200	18.013	0.100
45.300	17.386	0.100
45.400	14.209	0.100
45.500	21.016	0.100
45.600	17.481	0.100
45.700	16.037	0.100
45.800	11.133	0.100
45.900	16.491	0.100
46.000	17.553	0.100
46.100	13.001	0.100
46.200	16.101	0.100
46.300	8.133	0.100
46.400	24.808	0.100
46.500	10.797	0.100
46.600	13.016	0.100
46.700	13.883	0.100
46.800	20.033	0.100
46.900	14.182	0.100
47.000	11.888	0.100
47.100	17.392	0.100
47.200	22.433	0.100
47.300	14.309	0.100
47.400	19.230	0.100
47.500	10.779	0.100
47.600	23.938	0.100
47.700	14.996	0.100
47.800	15.765	0.100
47.900	13.595	0.100
48.000	19.493	0.100
48.100	14.247	0.100
48.200	22.440	0.100
48.300	16.980	0.100
48.400	11.666	0.100
48.500	21.350	0.100
48.600	20.590	0.100
48.700	20.944	0.100
48.800	9.986	0.100
48.900	19.775	0.100
49.000	8.576	0.100
49.100	22.593	0.100
49.200	18.944	0.100
49.300	19.029	0.100
49.400	18.529	0.100
49.500	8.989	0.100
49.600	12.283	0.100
49.700	13.915	0.100
49.800	20.823	0.100
49.900	9.700	0.100
50.000	20.319	0.100
50.100	19.863	0.100
50.200	21.430	0.100
50.300	11.438	0.100
50.400	12.803	0.100
50.500	13.347	0.100
50.600	19.708	0.100
50.700	15.793	0.100
50.800	19.852	0.100
50.900	16.018	0.100
51.000	22.478	0.100
51.100	18.870	0.100
51.200	19.057	0.100
51.300	19.927	0.100
51.400	17.661	0.100
51.500	24.521	0.100
51.600	24.143	0.100
51.700	16.892	0.100
51.800	17.191	0.100
51.900	17.309	0.100
52.000	24.490	0.100
52.100	24.056	0.100
52.200	22.938	0.100
52.300	17.229	0.100
52.400	15.681	0.100
52.500	20.074	0.100
52.600	14.880	0.100
52.700	17.286	0.100
52.800	22.246	0.100
52.900	19.098	0.100
53.000	16.983	0.100
53.100	16.226	0.100
53.200	20.650	0.100
53.300	22.025	0.100
53.400	20.524	0.100
53.500	22.122	0.100
53.600	21.105	0.100
53.700	20.003	0.100
53.800	16.075	0.100
53.900	13.329	0.100
54.000	30.378	0.100
54.100	20.919	0.100
54.200	15.924	0.100
54.300	16.846	0.100
54.400	20.812	0.100
54.500	20.107	0.100
54.600	20.457	0.100
54.700	21.960	0.100
54.800	12.377	0.100
54.900	23.176	0.100
55.000	16.407	0.100
55.100	15.766	0.100
55.200	24.096	0.100
55.300	16.943	0.100
55.400	13.354	0.100
55.500	28.431	0.100
55.600	23.002	0.100
55.700	20.689	0.100
55.800	23.048	0.100
55.900	8.665	0.100
56.000	21.962	0.100
56.100	17.961	0.100
56.200	24.394	0.100
56.300	28.572	0.100
56.400	20.637	0.100
56.500	29.207	0.100
56.600	28.301	0.100
56.700	21.736	0.100
56.800	19.547	0.100
56.900	24.498	0.100
57.000	23.964	0.100
57.100	24.556	0.100
57.200	10.510	0.100
57.300	13.888	0.100
57.400	29.871	0.100
57.500	29.624	0.100
57.600	27.740	0.100
57.700	18.552	0.100
57.800	28.908	0.100
57.900	19.098	0.100
58.000	20.283	0.100
58.100	25.447	0.100
58.200	20.473	0.100
58.300	23.445	0.100
58.400	20.474	0.100
58.500	21.381	0.100
58.600	24.206	0.100
58.700	23.948	0.100
58.800	15.625	0.100
58.900	30.279	0.100
59.000	23.362	0.100
59.100	20.401	0.100
59.200	24.224	0.100
59.300	23.797	0.100
59.400	19.365	0.100
59.500	21.001	0.100
59.600	27.051	0.100
59.700	24.178	0.100
59.800	17.516	0.100
59.900	24.908	0.100
60.000	25.844	0.100
60.100	14.198	0.100
60.200	27.179	0.100
60.300	30.237	0.100
60.400	21.095	0.100
60.500	21.983	0.100
60.600	25.824	0.100
60.700	22.855	0.100
60.800	24.189	0.100
60.900	19.028	0.100
61.000	34.138	0.100
61.100	29.947	0.100
61.200	21.047	0.100
61.300	26.534	0.100
61.400	27.968	0.100
61.500	18.661	0.100
61.600	16.736	0.100
61.700	34.089	0.100
61.800	18.789	0.100
61.900	25.617	0.100
62.000	35.290	0.100
62.100	26.832	0.100
62.200	26.383	0.100
62.300	21.813	0.100
62.400	22.319	0.100
62.500	32.232	0.100
62.600	28.264	0.100
62.700	22.926	0.100
62.800	24.417	0.100
62.900	22.390	0.100
63.000	35.924	0.100
63.100	26.845	0.100
63.200	34.515	0.100
63.300	21.854	0.100
63.400	11.507	0.100
63.500	23.183	0.100
63.600	25.188	0.100
63.700	30.389	0.100
63.800	24.155	0.100
63.900	25.221	0.100
64.000	13.149	0.100
64.100	23.755	0.100
64.200	32.274	0.100
64.300	30.727	0.100
64.400	31.447	0.100
64.500	31.513	0.100
64.600	24.423	0.100
64.700	22.213	0.100
64.800	23.677	0.100
64.900	26.477	0.100
65.000	24.677	0.100
65.100	29.610	0.100
65.200	32.312	0.100
65.300	26.840	0.100
65.400	27.461	0.100
65.500	22.280	0.100
65.600	28.230	0.100
65.700	25.797	0.100
65.800	20.199	0.100
65.900	32.194	0.100
66.000	19.506	0.100
66.100	18.086	0.100
66.200	23.891	0.100
66.300	24.532	0.100
66.400	27.936	0.100
66.500	31.015	0.100
66.600	26.440	0.100
66.700	25.660	0.100
66.800	18.651	0.100
66.900	27.424	0.100
67.000	24.049	0.100
67.100	17.142	0.100
67.200	26.157	0.100
67.300	32.930	0.100
67.400	26.745	0.100
67.500	27.601	0.100
67.600	25.836	0.100
67.700	29.964	0.100
67.800	24.676	0.100
67.900	33.151	0.100
68.000	27.715	0.100
68.100	22.801	0.100
68.200	21.052	0.100
68.300	18.936	0.100
68.400	29.950	0.100
68.500	22.232	0.100
68.600	28.275	0.100
68.700	32.761	0.100
68.800	26.181	0.100
68.900	13.912	0.100
69.000	29.550	0.100
69.100	21.596	0.100
69.200	22.961	0.100
69.300	27.288	0.100
69.400	39.076	0.100
69.500	25.120	0.100
69.600	29.771	0.100
69.700	25.073	0.100
69.800	27.470	0.100
69.900	27.694	0.100
70.000	31.147	0.100
70.100	25.751	0.100
70.200	25.235	0.100
70.300	20.737	0.100
70.400	28.704	0.100
70.500	35.448	0.100
70.600	19.570	0.100
70.700	28.889	0.100
70.800	28.264	0.100
70.900	22.838	0.100
71.000	31.400	0.100
71.100	25.720	0.100
71.200	23.680	0.100
71.300	33.399	0.100
71.400	28.143	0.100
71.500	27.195	0.100
71.600	29.727	0.100
71.700	17.494	0.100
71.800	32.961	0.100
71.900	23.232	0.100
72.000	31.736	0.100
72.100	34.249	0.100
72.200	27.590	0.100
72.300	31.035	0.100
72.400	34.106	0.100
72.500	15.422	0.100
72.600	21.468	0.100
72.700	35.353	0.100
72.800	31.097	0.100
72.900	30.573	0.100
73.000	24.936	0.100
73.100	32.862	0.100
73.200	17.676	0.100
73.300	29.795	0.100
73.400	30.536	0.100
73.500	27.723	0.100
73.600	19.177	0.100
73.700	22.808	0.100
73.800	31.837	0.100
73.900	24.815	0.100
74.000	27.873	0.100
74.100	19.817	0.100
74.200	20.512	0.100
74.300	23.472	0.100
74.400	29.022	0.100
74.500	13.439	0.100
74.600	35.712	0.100
74.700	25.714	0.100
74.800	33.959	0.100
74.900	33.282	0.100
75.000	26.164	0.100
75.100	26.284	0.100
75.200	36.808	0.100
75.300	33.914	0.100
75.400	16.143	0.100
75.500	26.344	0.100
75.600	25.371	0.100
75.700	27.072	0.100
75.800	28.063	0.100
75.900	25.878	0.100
76.000	22.719	0.100
76.100	32.005	0.100
76.200	28.754	0.100
76.300	25.923	0.100
76.400	26.186	0.100
76.500	26.317	0.100
76.600	21.790	0.100
76.700	25.206	0.100
76.800	24.923	0.100
76.900	20.278	0.100
77.000	18.395	0.100
77.100	27.793	0.100
77.200	35.093	0.100
77.300	34.512	0.100
77.400	31.338	0.100
77.500	24.798	0.100
77.600	27.437	0.100
77.700	37.283	0.100
77.800	27.041	0.100
77.900	30.800	0.100
78.000	25.935	0.100
78.100	27.550	0.100
78.200	30.213	0.100
78.300	24.614	0.100
78.400	23.601	0.100
78.500	22.161	0.100
78.600	28.231	0.100
78.700	30.451	0.100
78.800	24.122	0.100
78.900	21.672	0.100
79.000	24.891	0.100
79.100	32.500	0.100
79.200	22.820	0.100
79.300	28.539	0.100
79.400	26.371	0.100
79.500	21.568	0.100
79.600	24.914	0.100
79.700	29.115	0.100
79.800	18.682	0.100
79.900	27.084	0.100
80.000	38.941	0.100
80.100	20.979	0.100
80.200	22.977	0.100
80.300	25.327	0.100
80.400	28.042	0.100
80.500	27.219	0.100
80.600	25.679	0.100
80.700	27.543	0.100
80.800	24.823	0.100
80.900	26.169	0.100
81.000	21.427	0.100
81.100	29.100	0.100
81.200	28.538	0.100
81.300	33.256	0.100
81.400	26.296	0.100
81.500	21.449	0.100
81.600	27.723	0.100
81.700	34.842	0.100
81.800	29.526	0.100
81.900	29.336	0.100
82.000	27.383	0.100
82.100	25.811	0.100
82.200	35.529	0.100
82.300	21.033	0.100
82.400	29.196	0.100
82.500	29.149	0.100
82.600	30.406	0.100
82.700	27.716	0.100
82.800	27.734	0.100
82.900	20.741	0.100
83.000	21.208	0.100
83.100	27.469	0.100
83.200	25.653	0.100
83.300	33.557	0.100
83.400	24.979	0.100
83.500	29.163	0.100
83.600	26.984	0.100
83.700	22.767	0.100
83.800	26.139	0.100
83.900	30.520	0.100
84.000	31.486	0.100
84.100	30.362	0.100
84.200	20.695	0.100
84.300	22.284	0.100
84.400	26.387	0.100
84.500	29.842	0.100
84.600	25.352	0.100
84.700	28.032	0.100
84.800	27.923	0.100
84.900	28.599	0.100
85.000	24.025	0.100
85.100	18.310	0.100
85.200	31.106	0.100
85.300	24.274	0.100
85.400	23.838	0.100
85.500	27.398	0.100
85.600	31.670	0.100
85.700	25.119	0.100
85.800	19.817	0.100
85.900	29.228	0.100
86.000	19.782	0.100
86.100	32.472	0.100
86.200	23.655	0.100
86.300	20.309	0.100
86.400	21.234	0.100
86.500	30.212	0.100
86.600	25.418	0.100
86.700	22.974	0.100
86.800	28.456	0.100
86.900	33.466	0.100
87.000	25.543	0.100
87.100	26.008	0.100
87.200	24.531	0.100
87.300	17.638	0.100
87.400	29.753	0.100
87.500	34.200	0.100
87.600	34.838	0.100
87.700	37.774	0.100
87.800	24.412	0.100
87.900	23.318	0.100
88.000	25.655	0.100
88.100	17.279	0.100
88.200	31.684	0.100
88.300	20.599	0.100
88.400	20.779	0.100
88.500	31.736	0.100
88.600	24.938	0.100
88.700	24.861	0.100
88.800	39.285	0.100
88.900	21.987	0.100
89.000	20.681	0.100
89.100	34.212	0.100
89.200	28.032	0.100
89.300	24.316	0.100
89.400	34.540	0.100
89.500	28.960	0.100
89.600	32.731	0.100
89.700	34.041	0.100
89.800	22.188	0.100
89.900	21.758	0.100
90.000	35.452	0.100
90.100	18.352	0.100
90.200	22.340	0.100
90.300	29.981	0.100
90.400	13.075	0.100
90.500	22.680	0.100
90.600	16.703	0.100
90.700	23.057	0.100
90.800	8.794	0.100
90.900	14.735	0.100
91.000	7.877	0.100
91.100	14.348	0.100
91.200	10.213	0.100
91.300	18.864	0.100
91.400	-0.975	0.100
91.500	14.660	0.100
91.600	8.296	0.100
91.700	10.335	0.100
91.800	6.037	0.100
91.900	-0.549	0.100
92.000	-6.730	0.100
92.100	-10.579	0.100
92.200	-2.150	0.100
92.300	7.262	0.100
92.400	2.804	0.100
92.500	-3.162	0.100
92.600	-2.071	0.100
92.700	1.756	0.100
92.800	-6.023	0.100
92.900	-8.894	0.100
93.000	-5.043	0.100
93.100	2.586	0.100
93.200	-8.916	0.100
93.300	-6.844	0.100
93.400	0.466	0.100
93.500	2.052	0.100
93.600	-0.797	0.100
93.700	-8.410	0.100
93.800	-1.249	0.100
93.900	0.173	0.100
94.000	-5.482	0.100
94.100	-3.886	0.100
94.200	-13.614	0.100
94.300	2.442	0.100
94.400	8.228	0.100
94.500	-3.592	0.100
94.600	-11.202	0.100
94.700	-2.889	0.100
94.800	0.373	0.100
94.900	-1.074	0.100
95.000	-10.096	0.100
95.100	-2.658	0.100
95.200	-0.369	0.100
95.300	1.996	0.100
95.400	-5.008	0.100
95.500	-5.173	0.100
95.600	1.532	0.100
95.700	2.408	0.100
95.800	-1.736	0.100
95.900	-7.478	0.100
96.000	5.838	0.100
96.100	-12.792	0.100
96.200	-0.509	0.100
96.300	-2.596	0.100
96.400	-1.843	0.100
96.500	-6.947	0.100
96.600	0.510	0.100
96.700	-1.571	0.100
96.800	-9.526	0.100
96.900	-3.337	0.100
97.000	-6.679	0.100
97.100	-1.641	0.100
97.200	0.457	0.100
97.300	-8.656	0.100
97.400	8.898	0.100
97.500	3.051	0.100
97.600	-3.309	0.100
97.700	-2.494	0.100
97.800	3.109	0.100
97.900	-2.980	0.100
98.000	-5.888	0.100
98.100	-3.417	0.100
98.200	-1.631	0.100
98.300	-10.009	0.100
98.400	-12.385	0.100
98.500	-10.898	0.100
98.600	-1.669	0.100
98.700	1.148	0.100
98.800	-1.532	0.100
98.900	2.672	0.100
99.000	-3.742	0.100
99.100	3.814	0.100
99.200	-4.831	0.100
99.300	2.157	0.100
99.400	-3.754	0.100
99.500	-4.469	0.100
99.600	0.284	0.100
99.700	-2.301	0.100
99.800	-13.583	0.100
99.900	-6.383	0.100
100.000	1.978	0.100
100.100	1.474	0.100
100.200	-0.196	0.100
100.300	-7.448	0.100
100.400	-4.282	0.100
100.500	-7.154	0.100
100.600	6.363	0.100
100.700	-3.483	0.100
100.800	8.198	0.100
100.900	-11.491	0.100
101.000	-6.840	0.100
101.100	-7.322	0.100
101.200	-6.149	0.100
101.300	-8.171	0.100
101.400	-2.578	0.100
101.500	-8.139	0.100
101.600	-9.238	0.100
101.700	1.860	0.100
101.800	4.115	0.100
101.900	-1.776	0.100
102.000	-0.810	0.100
102.100	-8.346	0.100
102.200	-3.932	0.100
102.300	-1.288	0.100
102.400	-0.689	0.100
102.500	-2.839	0.100
102.600	-2.707	0.100
102.700	-1.411	0.100
102.800	-3.397	0.100
102.900	-0.732	0.100
103.000	6.929	0.100
103.100	-3.589	0.100
103.200	-5.427	0.100
103.300	-2.337	0.100
103.400	0.511	0.100
103.500	-8.138	0.100
103.600	-3.606	0.100
103.700	0.862	0.100
103.800	-17.806	0.100
103.900	-4.936	0.100
104.000	-0.781	0.100
104.100	2.804	0.100
104.200	-3.958	0.100
104.300	-4.369	0.100
104.400	-2.763	0.100
104.500	-8.397	0.100
104.600	-3.439	0.100
104.700	-3.204	0.100
104.800	2.570	0.100
104.900	2.554	0.100
105.000	-8.687	0.100
105.100	-11.353	0.100
105.200	0.602	0.100
105.300	1.923	0.100
105.400	-5.897	0.100
105.500	-6.484	0.100
105.600	-6.586	0.100
105.700	-10.812	0.100
105.800	-5.932	0.100
105.900	-1.716	0.100
106.000	3.498	0.100
106.100	-8.450	0.100
106.200	-11.698	0.100
106.300	0.477	0.100
106.400	-4.596	0.100
106.500	-4.824	0.100
106.600	1.719	0.100
106.700	-6.554	0.100
106.800	0.334	0.100
106.900	-0.303	0.100
107.000	-3.825	0.100
107.100	-3.703	0.100
107.200	-13.140	0.100
107.300	-7.007	0.100
107.400	-6.916	0.100
107.500	-9.461	0.100
107.600	-8.279	0.100
107.700	-2.998	0.100
107.800	-1.123	0.100
107.900	-7.531	0.100
108.000	8.226	0.100
108.100	-2.447	0.100
108.200	-8.811	0.100
108.300	-10.084	0.100
108.400	-10.447	0.100
108.500	3.207	0.100
108.600	-4.254	0.100
108.700	-5.050	0.100
108.800	-11.021	0.100
108.900	-16.166	0.100
109.000	-12.883	0.100
109.100	0.558	0.100
109.200	1.317	0.100
109.300	-4.278	0.100
109.400	-6.940	0.100
109.500	-2.099	0.100
109.600	-10.132	0.100
109.700	-4.718	0.100
109.800	-3.978	0.100
109.900	2.966	0.100
110.000	-11.333	0.100
110.100	-7.580	0.100
110.200	0.535	0.100
110.300	-7.140	0.100
110.400	-12.987	0.100
110.500	1.866	0.100
110.600	-8.616	0.100
110.700	-7.825	0.100
110.800	-15.727	0.100
110.900	-2.262	0.100
111.000	-1.509	0.100
111.100	-8.433	0.100
111.200	-4.512	0.100
111.300	-16.881	0.100
111.400	-2.634	0.100
111.500	-6.869	0.100
111.600	-4.227	0.100
111.700	-7.374	0.100
111.800	-12.478	0.100
111.900	-7.162	0.100
112.000	-4.579	0.100
112.100	-7.052	0.100
112.200	-11.169	0.100
112.300	-6.113	0.100
112.400	-1.521	0.100
112.500	-5.078	0.100
112.600	-9.972	0.100
112.700	-0.431	0.100
112.800	0.272	0.100
112.900	-3.890	0.100
113.000	-7.527	0.100
113.100	-4.169	0.100
113.200	-1.166	0.100
113.300	-4.033	0.100
113.400	-8.577	0.100
113.500	-4.849	0.100
113.600	-5.554	0.100
113.700	-7.933	0.100
113.800	-4.471	0.100
113.900	-3.723	0.100
114.000	-13.094	0.100
114.100	-12.991	0.100
114.200	-13.210	0.100
114.300	-15.462	0.100
114.400	-0.347	0.100
114.500	-4.861	0.100
114.600	-15.551	0.100
114.700	-8.885	0.100
114.800	-2.896	0.100
114.900	-10.317	0.100
115.000	-9.028	0.100
115.100	-11.160	0.100
115.200	-3.516	0.100
115.300	-3.260	0.100
115.400	-6.220	0.100
115.500	-8.503	0.100
115.600	-0.043	0.100
115.700	-7.532	0.100
115.800	-12.094	0.100
115.900	-7.153	0.100
116.000	-6.012	0.100
116.100	-5.185	0.100
116.200	-6.858	0.100
116.300	-12.940	0.100
116.400	-8.164	0.100
116.500	-0.061	0.100
116.600	-6.609	0.100
116.700	-8.095	0.100
116.800	-3.295	0.100
116.900	-3.048	0.100
117.000	-13.653	0.100
117.100	-18.037	0.100
117.200	-3.969	0.100
117.300	-7.318	0.100
117.400	-3.927	0.100
117.500	-12.846	0.100
117.600	-2.597	0.100
117.700	-7.228	0.100
117.800	-7.238	0.100
117.900	-9.487	0.100
118.000	-15.385	0.100
118.100	-11.333	0.100
118.200	-9.869	0.100
118.300	-14.058	0.100
118.400	-10.236	0.100
118.500	-16.148	0.100
118.600	-3.062	0.100
118.700	-4.683	0.100
118.800	-3.629	0.100
118.900	-6.417	0.100
119.000	-10.184	0.100
119.100	-2.275	0.100
119.200	-16.615	0.100
119.300	-9.275	0.100
119.400	-10.196	0.100
119.500	-7.310	0.100
119.600	-1.123	0.100
119.700	-10.533	0.100
119.800	-6.747	0.100
119.900	-14.675	0.100
120.000	-13.615	0.100
120.100	-9.254	0.100
120.200	-6.169	0.100
120.300	-6.573	0.100
120.400	-5.420	0.100
120.500	-6.052	0.100
120.600	-10.434	0.100
120.700	-7.934	0.100
120.800	-1.286	0.100
120.900	-13.904	0.100
121.000	-10.427	0.100
121.100	-3.076	0.100
121.200	-16.155	0.100
121.300	-11.012	0.100
121.400	-13.729	0.100
121.500	-10.860	0.100
121.600	-13.179	0.100
121.700	-14.977	0.100
121.800	-15.311	0.100
121.900	-15.576	0.100
122.000	-11.239	0.100
122.100	-7.333	0.100
122.200	-12.108	0.100
122.300	-10.260	0.100
122.400	-21.901	0.100
122.500	-7.684	0.100
122.600	-4.896	0.100
122.700	-8.979	0.100
122.800	-10.250	0.100
122.900	-8.572	0.100
123.000	-9.419	0.100
123.100	-11.299	0.100
123.200	-6.178	0.100
123.300	-7.742	0.100
123.400	-6.160	0.100
123.500	-9.937	0.100
123.600	-13.968	0.100
123.700	-12.408	0.100
123.800	-8.024	0.100
123.900	-11.336	0.100
124.000	-21.102	0.100
124.100	-4.205	0.100
124.200	-3.554	0.100
124.300	-9.425	0.100
124.400	-13.349	0.100
124.500	-16.610	0.100
124.600	-10.862	0.100
124.700	-11.785	0.100
124.800	-8.441	0.100
124.900	-6.425	0.100
125.000	-15.139	0.100
125.100	-8.039	0.100
125.200	-7.506	0.100
125.300	-16.767	0.100
125.400	-11.625	0.100
125.500	-9.465	0.100
125.600	-15.351	0.100
125.700	-10.611	0.100
125.800	-16.364	0.100
125.900	-9.822	0.100
126.000	-4.596	0.100
126.100	-8.569	0.100
126.200	-15.279	0.100
126.300	-11.885	0.100
126.400	-16.715	0.100
126.500	-18.141	0.100
126.600	-13.173	0.100
126.700	-9.750	0.100
126.800	-4.224	0.100
126.900	-15.926	0.100
127.000	-3.881	0.100
127.100	-19.403	0.100
127.200	-21.024	0.100
127.300	-7.944	0.100
127.400	-15.418	0.100
127.500	-9.456	0.100
127.600	-5.031	0.100
127.700	-9.489	0.100
127.800	-3.403	0.100
127.900	-14.329	0.100
128.000	-12.537	0.100
128.100	-14.488	0.100
128.200	-14.866	0.100
128.300	0.401	0.100
128.400	-9.824	0.100
128.500	-12.500	0.100
128.600	-14.089	0.100
128.700	-9.193	0.100
128.800	-15.904	0.100
128.900	-20.855	0.100
129.000	-7.341	0.100
129.100	-12.634	0.100
129.200	-13.716	0.100
129.300	-5.743	0.100
129.400	-9.669	0.100
129.500	-17.803	0.100
129.600	-9.692	0.100
129.700	-10.893	0.100
129.800	-18.149	0.100
129.900	-9.176	0.100
130.000	-10.727	0.100
130.100	-8.637	0.100
130.200	-11.763	0.100
130.300	-11.446	0.100
130.400	-12.211	0.100
130.500	-12.415	0.100
130.600	-22.476	0.100
130.700	-12.092	0.100
130.800	-13.275	0.100
130.900	-12.452	0.100
131.000	-7.499	0.100
131.100	-16.975	0.100
131.200	-16.617	0.100
131.300	-7.169	0.100
131.400	-13.432	0.100
131.500	-7.903	0.100
131.600	-17.080	0.100
131.700	-10.899	0.100
131.800	-13.718	0.100
131.900	-11.700	0.100
132.000	-9.271	0.100
132.100	-3.850	0.100
132.200	-12.063	0.100
132.300	-8.604	0.100
132.400	-7.918	0.100
132.500	-17.610	0.100
132.600	-10.860	0.100
132.700	-11.023	0.100
132.800	-11.279	0.100
132.900	-10.692	0.100
133.000	-10.873	0.100
133.100	-2.083	0.100
133.200	-16.648	0.100
133.300	-6.197	0.100
133.400	-15.197	0.100
133.500	-13.963	0.100
133.600	-7.551	0.100
133.700	-14.228	0.100
133.800	-16.329	0.100
133.900	-18.476	0.100
134.000	-12.362	0.100
134.100	-16.858	0.100
134.200	-12.761	0.100
134.300	-15.182	0.100
134.400	-13.519	0.100
134.500	-6.040	0.100
134.600	-8.836	0.100
134.700	-12.837	0.100
134.800	-14.766	0.100
134.900	-9.551	0.100
135.000	-5.854	0.100
135.100	-13.444	0.100
135.200	-9.167	0.100
135.300	-12.303	0.100
135.400	-6.635	0.100
135.500	-10.382	0.100
135.600	-17.448	0.100
135.700	-14.661	0.100
135.800	-20.746	0.100
135.900	-17.778	0.100
136.000	-13.919	0.100
136.100	-12.989	0.100
136.200	-17.186	0.100
136.300	-7.760	0.100
136.400	-9.958	0.100
136.500	-10.456	0.100
136.600	-11.668	0.100
136.700	-5.785	0.100
136.800	-10.699	0.100
136.900	-20.399	0.100
137.000	-8.084	0.100
137.100	-16.236	0.100
137.200	-6.172	0.100
137.300	-12.391	0.100
137.400	-9.355	0.100
137.500	-18.147	0.100
137.600	-19.273	0.100
137.700	-3.088	0.100
137.800	-11.342	0.100
137.900	-23.972	0.100
138.000	-12.325	0.100
138.100	-7.928	0.100
138.200	-11.016	0.100
138.300	-11.038	0.100
138.400	-15.120	0.100
138.500	-1.247	0.100
138.600	-8.783	0.100
138.700	-22.387	0.100
138.800	-11.122	0.100
138.900	-21.026	0.100
139.000	-9.128	0.100
139.100	-13.300	0.100
139.200	-4.610	0.100
139.300	-9.105	0.100
139.400	-11.267	0.100
139.500	-15.372	0.100
139.600	-11.219	0.100
139.700	-7.878	0.100
139.800	-6.059	0.100
139.900	-8.672	0.100
140.000	-18.616	0.100
140.100	-6.446	0.100
140.200	-5.799	0.100
140.300	-23.287	0.100
140.400	-20.462	0.100
140.500	-2.881	0.100
140.600	-14.357	0.100
140.700	-8.182	0.100
140.800	-6.221	0.100
140.900	-11.813	0.100
141.000	-8.281	0.100
141.100	-14.891	0.100
141.200	-13.682	0.100
141.300	-13.583	0.100
141.400	-10.211	0.100
141.500	-15.147	0.100
141.600	-13.944	0.100
141.700	-13.173	0.100
141.800	-9.602	0.100
141.900	-14.252	0.100
142.000	-16.607	0.100
142.100	-6.958	0.100
142.200	-13.807	0.100
142.300	-6.863	0.100
142.400	-22.124	0.100
142.500	-9.621	0.100
142.600	-8.952	0.100
142.700	-2.335	0.100
142.800	-8.694	0.100
142.900	-20.894	0.100
143.000	-10.479	0.100
143.100	-13.755	0.100
143.200	-9.753	0.100
143.300	-8.306	0.100
143.400	-11.858	0.100
143.500	-10.322	0.100
143.600	-16.197	0.100
143.700	-10.517	0.100
143.800	-6.983	0.100
143.900	-18.690	0.100
144.000	-9.105	0.100
144.100	-7.989	0.100
144.200	-6.896	0.100
144.300	-18.615	0.100
144.400	-9.767	0.100
144.500	-9.443	0.100
144.600	-7.943	0.100
144.700	-9.098	0.100
144.800	-5.953	0.100
144.900	-17.297	0.100
145.000	-7.918	0.100
145.100	-6.264	0.100
145.200	-14.885	0.100
145.300	-19.535	0.100
145.400	-12.661	0.100
145.500	-11.743	0.100
145.600	-12.653	0.100
145.700	-15.705	0.100
145.800	-6.814	0.100
145.900	-7.544	0.100
146.000	-13.097	0.100
146.100	-9.100	0.100
146.200	-8.116	0.100
146.300	-17.559	0.100
146.400	-14.429	0.100
146.500	-10.086	0.100
146.600	-18.090	0.100
146.700	-12.254	0.100
146.800	-5.009	0.100
146.900	-16.249	0.100
147.000	-11.887	0.100
147.100	-1.899	0.100
147.200	-12.196	0.100
147.300	-10.318	0.100
147.400	-6.701	0.100
147.500	-13.675	0.100
147.600	-12.285	0.100
147.700	-14.480	0.100
147.800	-9.820	0.100
147.900	-4.933	0.100
148.000	-18.217	0.100
148.100	-6.275	0.100
148.200	-7.980	0.100
148.300	-12.813	0.100
148.400	-17.561	0.100
148.500	-5.085	0.100
148.600	-10.455	0.100
148.700	-14.313	0.100
148.800	-14.756	0.100
148.900	-12.887	0.100
149.000	-14.297	0.100
149.100	-11.223	0.100
149.200	-12.690	0.100
149.300	-11.567	0.100
149.400	-6.417	0.100
149.500	-9.343	0.100
149.600	-17.074	0.100
149.700	-12.998	0.100
149.800	-9.730	0.100
149.900	-15.053	0.100
150.000	-11.287	0.100
150.100	-7.983	0.100
150.200	-11.808	0.100
150.300	-8.692	0.100
150.400	-9.957	0.100
150.500	-7.279	0.100
150.600	-17.817	0.100
150.700	-3.267	0.100
150.800	-4.963	0.100
150.900	-13.163	0.100
151.000	-5.821	0.100
151.100	-6.188	0.100
151.200	-12.973	0.100
151.300	-3.699	0.100
151.400	-16.501	0.100
151.500	-13.361	0.100
151.600	-7.135	0.100
151.700	-15.169	0.100
151.800	-6.413	0.100
151.900	-14.057	0.100
152.000	-14.586	0.100
152.100	-1.306	0.100
152.200	-8.943	0.100
152.300	-11.670	0.100
152.400	-21.632	0.100
152.500	-3.530	0.100
152.600	-1.820	0.100
152.700	-23.206	0.100
152.800	-14.044	0.100
152.900	-11.827	0.100
153.000	-12.756	0.100
153.100	-13.242	0.100
153.200	-7.367	0.100
153.300	-13.232	0.100
153.400	-13.582	0.100
153.500	-14.115	0.100
153.600	-11.147	0.100
153.700	-6.826	0.100
153.800	-10.873	0.100
153.900	-15.467	0.100
154.000	-0.922	0.100
154.100	-13.370	0.100
154.200	-17.230	0.100
154.300	-12.360	0.100
154.400	-9.590	0.100
154.500	-9.891	0.100
154.600	-7.073	0.100
154.700	-13.438	0.100
154.800	-15.009	0.100
154.900	-17.601	0.100
155.000	-12.955	0.100
155.100	-18.450	0.100
155.200	-5.745	0.100
155.300	-15.712	0.100
155.400	-4.508	0.100
155.500	-15.046	0.100
155.600	-4.424	0.100
155.700	-10.597	0.100
155.800	-8.261	0.100
155.900	-16.566	0.100
156.000	-12.943	0.100
156.100	-22.821	0.100
156.200	-17.472	0.100
156.300	-11.837	0.100
156.400	-8.433	0.100
156.500	-3.186	0.100
156.600	-6.041	0.100
156.700	-10.173	0.100
156.800	-13.135	0.100
156.900	-9.762	0.100
157.000	-12.873	0.100
157.100	-11.284	0.100
157.200	-5.364	0.100
157.300	-7.909	0.100
157.400	-8.849	0.100
157.500	-3.766	0.100
157.600	-14.296	0.100
157.700	-5.526	0.100
157.800	-14.059	0.100
157.900	-7.013	0.100
158.000	-11.931	0.100
158.100	-16.498	0.100
158.200	-12.558	0.100
158.300	-5.526	0.100
158.400	-3.708	0.100
158.500	-14.060	0.100
158.600	-13.958	0.100
158.700	-6.959	0.100
158.800	-7.610	0.100
158.900	-9.553	0.100
159.000	-13.393	0.100
159.100	-15.400	0.100
159.200	-14.172	0.100
159.300	-8.943	0.100
159.400	-8.178	0.100
159.500	-12.533	0.100
159.600	-5.375	0.100
159.700	-2.164	0.100
159.800	-9.278	0.100
159.900	-18.327	0.100
160.000	-4.425	0.100
160.100	-11.193	0.100
160.200	-9.456	0.100
160.300	-17.882	0.100
160.400	-10.676	0.100
160.500	-11.257	0.100
160.600	-0.970	0.100
160.700	-15.248	0.100
160.800	-17.646	0.100
160.900	-8.894	0.100
161.000	-10.574	0.100
161.100	-9.437	0.100
161.200	-15.675	0.100
161.300	-6.278	0.100
161.400	-4.461	0.100
161.500	-16.617	0.100
161.600	-8.992	0.100
161.700	-4.725	0.100
161.800	-5.515	0.100
161.900	-11.767	0.100
162.000	-14.242	0.100
162.100	-7.288	0.100
162.200	-4.727	0.100
162.300	-14.633	0.100
162.400	-12.318	0.100
162.500	-8.155	0.100
162.600	-9.906	0.100
162.700	-16.572	0.100
162.800	-10.818	0.100
162.900	-6.567	0.100
163.000	-17.744	0.100
163.100	-11.223	0.100
163.200	-13.132	0.100
163.300	-15.883	0.100
163.400	-12.017	0.100
163.500	-10.598	0.100
163.600	-7.194	0.100
163.700	-10.219	0.100
163.800	-6.183	0.100
163.900	-12.303	0.100
164.000	-2.726	0.100
164.100	-8.011	0.100
164.200	-5.299	0.100
164.300	-8.147	0.100
164.400	-15.115	0.100
164.500	-12.088	0.100
164.600	-11.472	0.100
164.700	-8.454	0.100
164.800	-11.059	0.100
164.900	-12.685	0.100
165.000	-10.321	0.100
165.100	-8.821	0.100
165.200	-9.677	0.100
165.300	-6.025	0.100
165.400	-9.114	0.100
165.500	-11.341	0.100
165.600	-13.066	0.100
165.700	-8.682	0.100
165.800	-4.400	0.100
165.900	-1.409	0.100
166.000	-10.879	0.100
166.100	-8.997	0.100
166.200	-10.078	0.100
166.300	-9.086	0.100
166.400	-7.149	0.100
166.500	-9.182	0.100
166.600	-4.245	0.100
166.700	-17.310	0.100
166.800	-12.323	0.100
166.900	-9.271	0.100
167.000	-16.815	0.100
167.100	-8.007	0.100
167.200	-10.612	0.100
167.300	-10.237	0.100
167.400	-7.903	0.100
167.500	-9.974	0.100
167.600	-13.176	0.100
167.700	-8.505	0.100
167.800	3.509	0.100
167.900	-10.242	0.100
168.000	-9.828	0.100
168.100	-5.937	0.100
168.200	-7.493	0.100
168.300	-11.903	0.100
168.400	-11.219	0.100
168.500	-9.882	0.100
168.600	-10.517	0.100
168.700	-5.808	0.100
168.800	-12.491	0.100
168.900	-10.228	0.100
169.000	-7.512	0.100
169.100	-4.454	0.100
169.200	-12.750	0.100
169.300	-14.490	0.100
169.400	-13.118	0.100
169.500	-5.457	0.100
169.600	-9.505	0.100
169.700	-16.272	0.100
169.800	-14.908	0.100
169.900	-14.061	0.100
170.000	-7.533	0.100
170.100	-13.250	0.100
170.200	-13.673	0.100
170.300	-14.717	0.100
170.400	-14.485	0.100
170.500	-3.396	0.100
170.600	-6.204	0.100
170.700	-3.015	0.100
170.800	-2.491	0.100
170.900	-13.161	0.100
171.000	-9.278	0.100
171.100	-12.501	0.100
171.200	-2.929	0.100
171.300	-9.655	0.100
171.400	-12.363	0.100
171.500	-12.448	0.100
171.600	-7.544	0.100
171.700	-15.931	0.100
171.800	-12.011	0.100
171.900	-9.138	0.100
172.000	-15.855	0.100
172.100	-3.252	0.100
172.200	-5.447	0.100
172.300	-12.330	0.100
172.400	-7.932	0.100
172.500	-9.024	0.100
172.600	-12.058	0.100
172.700	-11.961	0.100
172.800	-1.137	0.100
172.900	-9.352	0.100
173.000	-14.530	0.100
173.100	-12.867	0.100
173.200	-8.974	0.100
173.300	-11.734	0.100
173.400	-14.436	0.100
173.500	-12.350	0.100
173.600	-12.535	0.100
173.700	-12.098	0.100
173.800	-7.635	0.100
173.900	-21.113	0.100
174.000	-14.606	0.100
174.100	-9.884	0.100
174.200	-4.370	0.100
174.300	-8.117	0.100
174.400	-2.534	0.100
174.500	-0.285	0.100
174.600	-7.040	0.100
174.700	-8.538	0.100
174.800	-10.256	0.100
174.900	-5.887	0.100
175.000	-18.874	0.100
175.100	-11.735	0.100
175.200	-11.921	0.100
175.300	-8.551	0.100
175.400	-11.324	0.100
175.500	-4.468	0.100
175.600	-12.400	0.100
175.700	-8.416	0.100
175.800	-11.677	0.100
175.900	-11.224	0.100
176.000	-9.899	0.100
176.100	-7.525	0.100
176.200	-13.847	0.100
176.300	-5.588	0.100
176.400	-11.822	0.100
176.500	-8.274	0.100
176.600	-6.769	0.100
176.700	-12.358	0.100
176.800	-9.937	0.100
176.900	-12.361	0.100
177.000	-8.841	0.100
177.100	3.992	0.100
177.200	-12.259	0.100
177.300	-4.002	0.100
177.400	-7.314	0.100
177.500	-2.737	0.100
177.600	-14.648	0.100
177.700	-9.714	0.100
177.800	-8.023	0.100
177.900	-13.026	0.100
178.000	-10.460	0.100
178.100	-3.410	0.100
178.200	-4.291	0.100
178.300	-7.355	0.100
178.400	-13.237	0.100
178.500	-14.416	0.100
178.600	-9.648	0.100
178.700	-9.058	0.100
178.800	-4.652	0.100
178.900	-19.171	0.100
179.000	-15.465	0.100
179.100	-4.929	0.100
179.200	-2.254	0.100
179.300	-10.779	0.100
179.400	-6.110	0.100
179.500	-15.163	0.100
179.600	-9.849	0.100
179.700	-2.986	0.100
179.800	-9.534	0.100
179.900	-1.002	0.100
180.000	-16.720	0.100
180.100	-7.730	0.100
180.200	-14.023	0.100
180.300	-10.955	0.100
180.400	-7.609	0.100
180.500	-10.778	0.100
180.600	-6.610	0.100
180.700	0.132	0.100
180.800	-3.615	0.100
180.900	10.882	0.100
181.000	3.561	0.100
181.100	10.360	0.100
181.200	9.756	0.100
181.300	12.872	0.100
181.400	10.205	0.100
181.500	8.534	0.100
181.600	12.173	0.100
181.700	9.595	0.100
181.800	14.353	0.100
181.900	26.017	0.100
182.000	24.726	0.100
182.100	18.046	0.100
182.200	21.367	0.100
182.300	18.860	0.100
182.400	21.198	0.100
182.500	16.526	0.100
182.600	17.926	0.100
182.700	17.659	0.100
182.800	23.661	0.100
182.900	20.535	0.100
183.000	18.669	0.100
183.100	22.572	0.100
183.200	12.996	0.100
183.300	13.773	0.100
183.400	14.393	0.100
183.500	17.723	0.100
183.600	23.677	0.100
183.700	20.976	0.100
183.800	20.722	0.100
183.900	21.089	0.100
184.000	15.560	0.100
184.100	19.342	0.100
184.200	22.823	0.100
184.300	24.404	0.100
184.400	23.883	0.100
184.500	14.355	0.100
184.600	23.686	0.100
184.700	28.565	0.100
184.800	17.682	0.100
184.900	13.863	0.100
185.000	18.115	0.100
185.100	17.763	0.100
185.200	22.156	0.100
185.300	15.733	0.100
185.400	13.681	0.100
185.500	10.682	0.100
185.600	12.184	0.100
185.700	12.612	0.100
185.800	16.412	0.100
185.900	19.198	0.100
186.000	17.022	0.100
186.100	14.734	0.100
186.200	19.513	0.100
186.300	16.836	0.100
186.400	12.308	0.100
186.500	21.998	0.100
186.600	4.780	0.100
186.700	11.162	0.100
186.800	12.216	0.100
186.900	10.983	0.100
187.000	10.221	0.100
187.100	13.504	0.100
187.200	13.784	0.100
187.300	13.164	0.100
187.400	9.667	0.100
187.500	14.384	0.100
187.600	4.976	0.100
187.700	20.836	0.100
187.800	14.788	0.100
187.900	16.219	0.100
188.000	19.120	0.100
188.100	9.686	0.100
188.200	13.325	0.100
188.300	14.696	0.100
188.400	14.752	0.100
188.500	12.914	0.100
188.600	15.732	0.100
188.700	0.151	0.100
188.800	17.391	0.100
188.900	5.229	0.100
189.000	13.146	0.100
189.100	13.454	0.100
189.200	12.519	0.100
189.300	14.303	0.100
189.400	14.087	0.100
189.500	12.438	0.100
189.600	19.927	0.100
189.700	19.412	0.100
189.800	15.333	0.100
189.900	12.978	0.100
190.000	13.090	0.100
190.100	13.545	0.100
190.200	19.771	0.100
190.300	17.427	0.100
190.400	12.440	0.100
190.500	9.851	0.100
190.600	25.540	0.100
190.700	15.891	0.100
190.800	14.903	0.100
190.900	18.766	0.100
191.000	19.675	0.100
191.100	21.405	0.100
191.200	13.006	0.100
191.300	21.920	0.100
191.400	19.569	0.100
191.500	10.171	0.100
191.600	24.215	0.100
191.700	19.640	0.100
191.800	23.475	0.100
191.900	20.960	0.100
192.000	9.778	0.100
192.100	18.827	0.100
192.200	24.852	0.100
192.300	21.592	0.100
192.400	22.081	0.100
192.500	18.070	0.100
192.600	16.821	0.100
192.700	18.191	0.100
192.800	17.221	0.100
192.900	20.966	0.100
193.000	22.542	0.100
193.100	24.957	0.100
193.200	14.331	0.100
193.300	14.305	0.100
193.400	17.486	0.100
193.500	21.060	0.100
193.600	30.174	0.100
193.700	26.831	0.100
193.800	14.302	0.100
193.900	24.367	0.100
194.000	16.584	0.100
194.100	20.657	0.100
194.200	20.426	0.100
194.300	19.312	0.100
194.400	20.701	0.100
194.500	24.115	0.100
194.600	20.119	0.100
194.700	20.995	0.100
194.800	14.162	0.100
194.900	16.037	0.100
195.000	27.462	0.100
195.100	24.165	0.100
195.200	24.523	0.100
195.300	24.358	0.100
195.400	18.081	0.100
195.500	20.570	0.100
195.600	23.904	0.100
195.700	24.704	0.100
195.800	19.839	0.100
195.900	28.292	0.100
196.000	23.455	0.100
196.100	28.053	0.100
196.200	26.467	0.100
196.300	24.261	0.100
196.400	27.832	0.100
196.500	22.249	0.100
196.600	18.881	0.100
196.700	26.830	0.100
196.800	19.364	0.100
196.900	26.908	0.100
197.000	17.392	0.100
197.100	34.824	0.100
197.200	28.850	0.100
197.300	26.566	0.100
197.400	32.889	0.100
197.500	31.080	0.100
197.600	15.383	0.100
197.700	26.726	0.100
197.800	16.884	0.100
197.900	27.265	0.100
198.000	26.064	0.100
198.100	18.454	0.100
198.200	11.709	0.100
198.300	30.261	0.100
198.400	31.245	0.100
198.500	15.394	0.100
198.600	35.079	0.100
198.700	19.529	0.100
198.800	25.938	0.100
198.900	27.169	0.100
199.000	28.039	0.100
199.100	24.212	0.100
199.200	25.230	0.100
199.300	22.994	0.100
199.400	24.105	0.100
199.500	30.404	0.100
199.600	22.994	0.100
199.700	23.138	0.100
199.800	27.410	0.100
199.900	19.598	0.100
200.000	26.892	0.100
200.100	34.185	0.100
200.200	27.872	0.100
200.300	11.706	0.100
200.400	36.405	0.100
200.500	28.517	0.100
200.600	22.767	0.100
200.700	29.497	0.100
200.800	25.909	0.100
200.900	23.491	0.100
201.000	24.918	0.100
201.100	30.371	0.100
201.200	28.960	0.100
201.300	27.966	0.100
201.400	26.308	0.100
201.500	33.427	0.100
201.600	26.865	0.100
201.700	25.590	0.100
201.800	30.704	0.100
201.900	31.225	0.100
202.000	33.526	0.100
202.100	28.695	0.100
202.200	30.160	0.100
202.300	12.477	0.100
202.400	29.503	0.100
202.500	27.376	0.100
202.600	36.378	0.100
202.700	21.250	0.100
202.800	16.602	0.100
202.900	22.052	0.100
203.000	25.929	0.100
203.100	28.394	0.100
203.200	28.076	0.100
203.300	28.510	0.100
203.400	34.462	0.100
203.500	32.428	0.100
203.600	16.428	0.100
203.700	27.054	0.100
203.800	30.817	0.100
203.900	27.610	0.100
204.000	27.414	0.100
204.100	30.174	0.100
204.200	36.733	0.100
204.300	37.688	0.100
204.400	24.750	0.100
204.500	30.182	0.100
204.600	25.860	0.100
204.700	31.639	0.100
204.800	37.471	0.100
204.900	26.785	0.100
205.000	25.191	0.100
205.100	31.121	0.100
205.200	35.078	0.100
205.300	17.627	0.100
205.400	18.550	0.100
205.500	32.484	0.100
205.600	33.358	0.100
205.700	31.114	0.100
205.800	26.341	0.100
205.900	19.759	0.100
206.000	33.055	0.100
206.100	33.402	0.100
206.200	29.042	0.100
206.300	32.316	0.100
206.400	32.206	0.100
206.500	22.147	0.100
206.600	34.219	0.100
206.700	30.958	0.100
206.800	27.274	0.100
206.900	29.651	0.100
207.000	30.023	0.100
207.100	30.030	0.100
207.200	31.459	0.100
207.300	21.590	0.100
207.400	31.561	0.100
207.500	31.314	0.100
207.600	30.278	0.100
207.700	30.075	0.100
207.800	25.475	0.100
207.900	29.455	0.100
208.000	33.569	0.100
208.100	31.839	0.100
208.200	23.418	0.100
208.300	28.452	0.100
208.400	32.151	0.100
208.500	31.797	0.100
208.600	31.628	0.100
208.700	28.601	0.100
208.800	28.145	0.100
208.900	36.828	0.100
209.000	30.419	0.100
209.100	30.376	0.100
209.200	32.337	0.100
209.300	31.212	0.100
209.400	31.155	0.100
209.500	25.624	0.100
209.600	36.037	0.100
209.700	32.102	0.100
209.800	26.516	0.100
209.900	26.860	0.100
210.000	28.285	0.100
210.100	30.093	0.100
210.200	29.639	0.100
210.300	25.341	0.100
210.400	37.700	0.100
210.500	26.737	0.100
210.600	34.869	0.100
210.700	28.829	0.100
210.800	31.777	0.100
210.900	28.744	0.100
211.000	24.427	0.100
211.100	32.192	0.100
211.200	26.229	0.100
211.300	27.224	0.100
211.400	31.985	0.100
211.500	37.620	0.100
211.600	24.556	0.100
211.700	29.893	0.100
211.800	36.305	0.100
211.900	35.369	0.100
212.000	30.605	0.100
212.100	32.202	0.100
212.200	30.068	0.100
212.300	31.565	0.100
212.400	30.023	0.100
212.500	24.769	0.100
212.600	33.737	0.100
212.700	25.054	0.100
212.800	40.236	0.100
212.900	30.693	0.100
213.000	25.814	0.100
213.100	18.579	0.100
213.200	25.389	0.100
213.300	23.573	0.100
213.400	41.267	0.100
213.500	27.227	0.100
213.600	30.104	0.100
213.700	34.070	0.100
213.800	27.161	0.100
213.900	31.820	0.100
214.000	44.173	0.100
214.100	28.587	0.100
214.200	28.770	0.100
214.300	26.088	0.100
214.400	36.831	0.100
214.500	32.265	0.100
214.600	37.123	0.100
214.700	32.016	0.100
214.800	27.225	0.100
214.900	28.751	0.100
215.000	19.812	0.100
215.100	28.430	0.100
215.200	31.912	0.100
215.300	28.051	0.100
215.400	25.582	0.100
215.500	29.977	0.100
215.600	35.324	0.100
215.700	29.640	0.100
215.800	30.862	0.100
215.900	23.822	0.100
216.000	31.842	0.100
216.100	22.600	0.100
216.200	38.517	0.100
216.300	31.926	0.100
216.400	31.822	0.100
216.500	27.056	0.100
216.600	32.745	0.100
216.700	30.809	0.100
216.800	37.484	0.100
216.900	32.544	0.100
217.000	32.819	0.100
217.100	23.839	0.100
217.200	37.118	0.100
217.300	28.475	0.100
217.400	32.274	0.100
217.500	31.293	0.100
217.600	31.635	0.100
217.700	32.007	0.100
217.800	32.254	0.100
217.900	25.929	0.100
218.000	34.649	0.100
218.100	33.916	0.100
218.200	17.347	0.100
218.300	32.575	0.100
218.400	32.595	0.100
218.500	28.077	0.100
218.600	28.134	0.100
218.700	31.616	0.100
218.800	35.514	0.100
218.900	29.093	0.100
219.000	27.862	0.100
219.100	37.742	0.100
219.200	29.064	0.100
219.300	34.436	0.100
219.400	34.656	0.100
219.500	24.289	0.100
219.600	34.278	0.100
219.700	26.224	0.100
219.800	33.726	0.100
219.900	27.195	0.100
220.000	24.610	0.100
220.100	29.700	0.100
220.200	27.465	0.100
220.300	28.779	0.100
220.400	30.201	0.100
220.500	34.287	0.100
220.600	26.678	0.100
220.700	34.482	0.100
220.800	26.463	0.100
220.900	23.324	0.100
221.000	25.606	0.100
221.100	33.204	0.100
221.200	39.122	0.100
221.300	32.746	0.100
221.400	26.633	0.100
221.500	33.380	0.100
221.600	32.231	0.100
221.700	30.234	0.100
221.800	30.583	0.100
221.900	29.906	0.100
222.000	26.507	0.100
222.100	33.120	0.100
222.200	37.358	0.100
222.300	34.739	0.100
222.400	28.297	0.100
222.500	30.911	0.100
222.600	25.275	0.100
222.700	27.886	0.100
222.800	34.099	0.100
222.900	24.914	0.100
223.000	34.198	0.100
223.100	30.429	0.100
223.200	34.433	0.100
223.300	27.535	0.100
223.400	33.304	0.100
223.500	34.495	0.100
223.600	31.364	0.100
223.700	29.981	0.100
223.800	26.806	0.100
223.900	22.549	0.100
224.000	27.074	0.100
224.100	26.637	0.100
224.200	33.530	0.100
224.300	26.606	0.100
224.400	27.372	0.100
224.500	34.289	0.100
224.600	34.824	0.100
224.700	32.003	0.100
224.800	25.692	0.100
224.900	30.101	0.100
225.000	30.771	0.100
225.100	26.131	0.100
225.200	25.592	0.100
225.300	35.703	0.100
225.400	33.914	0.100
225.500	27.963	0.100
225.600	34.276	0.100
225.700	37.325	0.100
225.800	20.598	0.100
225.900	24.248	0.100
226.000	37.416	0.100
226.100	39.944	0.100
226.200	29.200	0.100
226.300	24.000	0.100
226.400	40.654	0.100
226.500	30.776	0.100
226.600	29.338	0.100
226.700	39.746	0.100
226.800	28.424	0.100
226.900	29.951	0.100
227.000	30.504	0.100
227.100	30.924	0.100
227.200	28.632	0.100
227.300	31.920	0.100
227.400	33.364	0.100
227.500	26.074	0.100
227.600	25.253	0.100
227.700	31.748	0.100
227.800	27.961	0.100
227.900	32.010	0.100
228.000	27.113	0.100
228.100	30.611	0.100
228.200	24.024	0.100
228.300	33.352	0.100
228.400	27.467	0.100
228.500	30.820	0.100
228.600	36.316	0.100
228.700	32.910	0.100
228.800	26.167	0.100
228.900	34.371	0.100
229.000	30.350	0.100
229.100	33.134	0.100
229.200	32.077	0.100
229.300	37.984	0.100
229.400	24.064	0.100
229.500	27.991	0.100
229.600	34.331	0.100
229.700	31.158	0.100
229.800	27.791	0.100
229.900	26.129	0.100
230.000	32.404	0.100
230.100	26.900	0.100
230.200	25.162	0.100
230.300	30.348	0.100
230.400	34.483	0.100
230.500	38.499	0.100
230.600	30.460	0.100
230.700	21.787	0.100
230.800	30.992	0.100
230.900	35.092	0.100
231.000	34.412	0.100
231.100	28.127	0.100
231.200	29.099	0.100
231.300	30.913	0.100
231.400	27.660	0.100
231.500	29.568	0.100
231.600	36.309	0.100
231.700	32.146	0.100
231.800	27.743	0.100
231.900	21.714	0.100
232.000	32.877	0.100
232.100	29.235	0.100
232.200	33.184	0.100
232.300	36.854	0.100
232.400	30.865	0.100
232.500	29.636	0.100
232.600	27.984	0.100
232.700	25.692	0.100
232.800	23.282	0.100
232.900	32.923	0.100
233.000	29.293	0.100
233.100	32.096	0.100
233.200	30.348	0.100
233.300	19.099	0.100
233.400	33.925	0.100
233.500	34.766	0.100
233.600	39.091	0.100
233.700	29.376	0.100
233.800	32.960	0.100
233.900	27.737	0.100
234.000	35.585	0.100
234.100	25.492	0.100
234.200	33.650	0.100
234.300	29.197	0.100
234.400	26.251	0.100
234.500	32.956	0.100
234.600	32.681	0.100
234.700	37.341	0.100
234.800	32.119	0.100
234.900	30.221	0.100
235.000	30.959	0.100
235.100	26.227	0.100
235.200	26.922	0.100
235.300	31.527	0.100
235.400	31.545	0.100
235.500	34.449	0.100
235.600	37.737	0.100
235.700	29.848	0.100
235.800	29.632	0.100
235.900	33.420	0.100
236.000	22.944	0.100
236.100	19.152	0.100
236.200	37.417	0.100
236.300	31.616	0.100
236.400	25.554	0.100
236.500	32.778	0.100
236.600	25.924	0.100
236.700	20.958	0.100
236.800	34.137	0.100
236.900	24.979	0.100
237.000	26.194	0.100
237.100	33.683	0.100
237.200	43.998	0.100
237.300	20.327	0.100
237.400	37.483	0.100
237.500	30.387	0.100
237.600	27.440	0.100
237.700	35.538	0.100
237.800	24.390	0.100
237.900	26.338	0.100
238.000	33.031	0.100
238.100	30.539	0.100
238.200	30.700	0.100
238.300	32.269	0.100
238.400	24.408	0.100
238.500	28.475	0.100
238.600	33.832	0.100
238.700	38.481	0.100
238.800	25.694	0.100
238.900	18.716	0.100
239.000	33.368	0.100
239.100	33.836	0.100
239.200	27.034	0.100
239.300	29.693	0.100
239.400	23.442	0.100
239.500	26.695	0.100
239.600	30.920	0.100
239.700	44.090	0.100
239.800	32.093	0.100
239.900	31.141	0.100
240.000	28.428	0.100
240.100	33.019	0.100
240.200	23.829	0.100
240.300	22.327	0.100
240.400	26.114	0.100
240.500	32.059	0.100
240.600	24.257	0.100
240.700	22.510	0.100
240.800	13.032	0.100
240.900	13.757	0.100
241.000	19.895	0.100
241.100	16.400	0.100
241.200	9.446	0.100
241.300	1.772	0.100
241.400	10.174	0.100
241.500	2.684	0.100
241.600	-1.623	0.100
241.700	7.641	0.100
241.800	11.512	0.100
241.900	1.466	0.100
242.000	-9.000	0.100
242.100	8.459	0.100
242.200	-6.447	0.100
242.300	-5.622	0.100
242.400	-0.128	0.100
242.500	-4.146	0.100
242.600	1.718	0.100
242.700	4.527	0.100
242.800	2.261	0.100
242.900	-1.913	0.100
243.000	-5.046	0.100
243.100	-9.737	0.100
243.200	-7.630	0.100
243.300	-2.322	0.100
243.400	-2.566	0.100
243.500	-4.675	0.100
243.600	-1.931	0.100
243.700	-3.450	0.100
243.800	-11.160	0.100
243.900	-7.308	0.100
244.000	1.177	0.100
244.100	-8.322	0.100
244.200	-9.699	0.100
244.300	-11.834	0.100
244.400	-6.220	0.100
244.500	-2.514	0.100
244.600	-6.858	0.100
244.700	-3.195	0.100
244.800	-6.310	0.100
244.900	-9.411	0.100
245.000	-6.165	0.100
245.100	-1.790	0.100
245.200	-4.207	0.100
245.300	-3.147	0.100
245.400	-10.941	0.100
245.500	-5.481	0.100
245.600	-2.320	0.100
245.700	-10.633	0.100
245.800	-3.717	0.100
245.900	-2.927	0.100
246.000	-1.639	0.100
246.100	-6.247	0.100
246.200	-9.940	0.100
246.300	-5.561	0.100
246.400	-3.559	0.100
246.500	-10.573	0.100
246.600	-3.964	0.100
246.700	0.320	0.100
246.800	-8.591	0.099
246.900	2.454	0.100
247.000	2.923	0.100
247.100	-10.382	0.100
247.200	-4.562	0.100
247.300	-7.141	0.100
247.400	-6.429	0.100
247.500	-5.293	0.100
247.600	-4.440	0.100
247.700	-3.352	0.100
247.800	-5.003	0.100
247.900	0.117	0.100
248.000	-1.488	0.100
248.100	-7.832	0.100
248.200	-10.955	0.100
248.300	-7.773	0.100
248.400	0.414	0.100
248.500	-13.513	0.100
248.600	-6.856	0.100
248.700	-0.382	0.100
248.800	1.702	0.100
248.900	-2.035	0.100
249.000	-8.307	0.100
249.100	-7.505	0.100
249.200	-4.136	0.100
249.300	-10.155	0.100
249.400	-12.371	0.100
249.500	-8.720	0.100
249.600	-8.576	0.100
249.700	-0.895	0.100
249.800	2.613	0.100
249.900	-5.075	0.100
250.000	-5.848	0.100
250.100	-2.329	0.100
250.200	-5.991	0.099
250.300	3.985	0.099
250.400	-9.064	0.099
250.500	-0.494	0.100
250.600	-2.451	0.100
250.700	-14.062	0.099
250.800	-6.504	0.100
250.900	1.273	0.100
251.000	2.326	0.100
251.100	-0.487	0.100
251.200	-9.478	0.100
251.300	-6.090	0.100
251.400	-2.577	0.099
251.500	-7.088	0.099
251.600	-11.605	0.100
251.700	-3.921	0.100
251.800	-1.760	0.099
251.900	-9.270	0.099
252.000	-11.565	0.099
252.100	-5.193	0.100
252.200	-0.043	0.100
252.300	0.741	0.099
252.400	-11.438	0.099
252.500	-4.384	0.099
252.600	-5.367	0.099
252.700	-1.302	0.099
252.800	-8.084	0.099
252.900	-10.048	0.099
253.000	-2.259	0.099
253.100	-13.188	0.099
253.200	-8.668	0.100
253.300	-7.458	0.099
253.400	-5.476	0.099
253.500	-3.911	0.099
253.600	-8.285	0.099
253.700	-4.110	0.099
253.800	1.104	0.099
253.900	-1.303	0.099
254.000	-5.953	0.099
254.100	-7.444	0.099
254.200	-6.210	0.099
254.300	-2.870	0.099
254.400	-14.178	0.099
254.500	-7.966	0.099
254.600	-9.147	0.099
254.700	-0.671	0.099
254.800	-15.680	0.099
254.900	-5.148	0.099
255.000	-2.087	0.099
255.100	-6.041	0.099
255.200	-12.989	0.099
255.300	-11.080	0.099
255.400	-6.127	0.099
255.500	-9.604	0.099
255.600	-2.094	0.099
255.700	-4.368	0.099
255.800	-15.519	0.099
255.900	-1.678	0.099
256.000	-11.127	0.099
256.100	-8.271	0.099
256.200	-7.458	0.099
256.300	-7.351	0.099
256.400	-9.559	0.099
256.500	-8.264	0.099
256.600	-7.359	0.099
256.700	-1.248	0.099
256.800	-8.406	0.099
256.900	-14.985	0.099
257.000	-6.948	0.099
257.100	-10.350	0.099
257.200	0.931	0.099
257.300	-9.408	0.099
257.400	-3.571	0.099
257.500	-13.317	0.099
257.600	-13.277	0.099
257.700	-12.107	0.099
257.800	-13.360	0.099
257.900	1.901	0.099
258.000	-7.666	0.099
258.100	-8.467	0.099
258.200	-4.124	0.099
258.300	-8.857	0.099
258.400	-8.677	0.099
258.500	-1.507	0.099
258.600	-7.715	0.099
258.700	-16.009	0.099
258.800	-0.219	0.099
258.900	-9.508	0.099
259.000	-9.818	0.099
259.100	-7.678	0.099
259.200	-1.484	0.099
259.300	-17.749	0.099
259.400	-11.451	0.099
259.500	-16.557	0.099
259.600	-6.234	0.099
259.700	-18.293	0.099
259.800	-11.258	0.099
259.900	-12.174	0.099
260.000	-5.815	0.099
260.100	-7.765	0.099
260.200	-8.370	0.099
260.300	-12.048	0.099
260.400	-3.570	0.099
260.500	-14.533	0.099
260.600	-11.712	0.099
260.700	-9.374	0.099
260.800	-8.219	0.099
260.900	-14.206	0.099
261.000	-7.137	0.099
261.100	-9.794	0.099
261.200	-8.306	0.099
261.300	-3.028	0.099
261.400	-8.444	0.099
261.500	-11.310	0.099
261.600	-11.054	0.099
261.700	-7.949	0.099
261.800	-12.908	0.099
261.900	-7.651	0.099
262.000	-6.844	0.099
262.100	-13.774	0.099
262.200	-5.015	0.099
262.300	-5.434	0.099
262.400	-12.047	0.099
262.500	-13.492	0.099
262.600	-9.837	0.099
262.700	-16.765	0.099
262.800	-13.178	0.099
262.900	-8.124	0.099
263.000	-11.024	0.099
263.100	-11.366	0.099
263.200	-18.703	0.099
263.300	-11.726	0.099
263.400	-12.561	0.099
263.500	-9.925	0.099
263.600	-14.854	0.099
263.700	-12.983	0.099
263.800	-2.686	0.099
263.900	-15.312	0.099
264.000	-8.913	0.099
264.100	-9.088	0.099
264.200	-11.798	0.099
264.300	-16.607	0.099
264.400	-10.741	0.099
264.500	-2.941	0.099
264.600	-5.638	0.099
264.700	-16.919	0.099
264.800	-13.286	0.099
264.900	-5.549	0.099
265.000	-16.477	0.099
265.100	-14.228	0.099
265.200	-10.603	0.099
265.300	-17.772	0.099
265.400	-19.662	0.099
265.500	-9.428	0.099
265.600	-13.949	0.099
265.700	-9.644	0.099
265.800	-13.190	0.099
265.900	-0.171	0.099
266.000	-5.433	0.099
266.100	-6.107	0.099
266.200	-10.745	0.099
266.300	-19.751	0.099
266.400	-7.313	0.099
266.500	-12.841	0.099
266.600	-3.110	0.099
266.700	-14.326	0.099
266.800	-17.200	0.099
266.900	-11.620	0.099
267.000	-8.672	0.099
267.100	-14.405	0.099
267.200	-8.603	0.099
267.300	-14.530	0.099
267.400	-11.024	0.099
267.500	-5.788	0.099
267.600	-13.110	0.099
267.700	-17.285	0.099
267.800	-20.631	0.099
267.900	-12.514	0.099
268.000	-7.925	0.099
268.100	-12.320	0.099
268.200	-14.792	0.099
268.300	-6.485	0.099
268.400	-14.447	0.099
268.500	-9.745	0.099
268.600	-8.508	0.099
268.700	-12.531	0.099
268.800	-18.191	0.099
268.900	-12.107	0.099
269.000	-8.236	0.099
269.100	-19.606	0.099
269.200	-19.850	0.099
269.300	-9.862	0.099
269.400	-11.982	0.099
269.500	-13.412	0.099
269.600	-10.634	0.099
269.700	-18.026	0.099
269.800	-10.490	0.099
269.900	-17.945	0.099
270.000	-17.073	0.099
270.100	-7.680	0.099
270.200	-13.340	0.099
270.300	-16.706	0.099
270.400	-9.552	0.099
270.500	-21.797	0.099
270.600	-10.616	0.099
270.700	-13.119	0.099
270.800	-15.156	0.099
270.900	-7.089	0.099
271.000	-18.487	0.099
271.100	-16.594	0.099
271.200	-10.359	0.099
271.300	-13.262	0.099
271.400	-13.260	0.099
271.500	-18.768	0.099
271.600	-0.913	0.099
271.700	-12.538	0.099
271.800	-15.959	0.099
271.900	-12.740	0.099
272.000	-15.231	0.099
272.100	-10.557	0.099
272.200	-12.120	0.099
272.300	-19.132	0.099
272.400	-16.492	0.099
272.500	-15.185	0.099
272.600	-18.809	0.099
272.700	-7.956	0.099
272.800	-7.786	0.099
272.900	-13.861	0.099
273.000	-14.730	0.099
273.100	-11.804	0.099
273.200	-11.989	0.099
273.300	-15.997	0.099
273.400	-9.665	0.099
273.500	-20.494	0.099
273.600	-9.397	0.099
273.700	-13.960	0.099
273.800	-18.523	0.099
273.900	-22.066	0.099
274.000	-16.807	0.099
274.100	-17.566	0.099
274.200	-4.065	0.099
274.300	-14.301	0.099
274.400	-23.029	0.099
274.500	-14.688	0.099
274.600	-17.122	0.099
274.700	-13.087	0.099
274.800	-16.957	0.099
274.900	-9.163	0.099
275.000	-19.076	0.099
275.100	-17.508	0.099
275.200	-9.216	0.099
275.300	-13.445	0.099
275.400	-18.979	0.099
275.500	-23.242	0.099
275.600	-5.233	0.099
275.700	-13.324	0.099
275.800	-20.035	0.099
275.900	-16.894	0.099
276.000	-11.975	0.099
276.100	-19.199	0.099
276.200	-23.857	0.099
276.300	-13.539	0.099
276.400	-15.135	0.099
276.500	-15.672	0.099
276.600	-12.254	0.099
276.700	-13.052	0.099
276.800	-19.499	0.099
276.900	-17.138	0.099
277.000	-14.146	0.099
277.100	-7.747	0.099
277.200	-22.574	0.099
277.300	-20.244	0.099
277.400	-21.548	0.099
277.500	-7.089	0.099
277.600	-15.780	0.099
277.700	-17.741	0.099
277.800	-17.505	0.099
277.900	-14.469	0.099
278.000	-10.992	0.099
278.100	-8.691	0.099
278.200	-15.817	0.099
278.300	-19.909	0.099
278.400	-17.860	0.099
278.500	-19.747	0.099
278.600	-18.269	0.099
278.700	-17.148	0.099
278.800	-10.008	0.099
278.900	-17.994	0.099
279.000	-14.860	0.099
279.100	-15.359	0.099
279.200	-17.705	0.099
279.300	-10.959	0.099
279.400	-9.110	0.099
279.500	-21.521	0.099
279.600	-20.474	0.099
279.700	-15.687	0.099
279.800	-20.666	0.099
279.900	-11.756	0.099
280.000	-5.931	0.099
280.100	-12.772	0.099
280.200	-16.971	0.099
280.300	-18.032	0.099
280.400	-16.659	0.099
280.500	-12.127	0.099
280.600	-18.984	0.099
280.700	-12.223	0.099
280.800	-12.490	0.099
280.900	-8.783	0.099
281.000	-21.278	0.099
281.100	-23.591	0.099
281.200	-15.185	0.099
281.300	-11.100	0.099
281.400	-7.966	0.099
281.500	-28.048	0.099
281.600	-15.006	0.099
281.700	-9.656	0.099
281.800	-18.550	0.099
281.900	-15.329	0.099
282.000	-20.321	0.099
282.100	-13.872	0.099
282.200	-17.021	0.099
282.300	-15.107	0.099
282.400	-19.616	0.099
282.500	-20.397	0.099
282.600	-15.227	0.099
282.700	-10.860	0.099
282.800	-19.736	0.099
282.900	-13.317	0.099
283.000	-14.664	0.099
283.100	-19.348	0.099
283.200	-19.084	0.099
283.300	-21.954	0.099
283.400	-13.612	0.099
283.500	-13.062	0.099
283.600	-22.467	0.099
283.700	-11.648	0.099
283.800	-16.973	0.099
283.900	-19.261	0.099
284.000	-15.633	0.099
284.100	-13.509	0.099
284.200	-26.113	0.099
284.300	-12.536	0.099
284.400	-15.804	0.099
284.500	-22.115	0.099
284.600	-16.809	0.099
284.700	-22.001	0.099
284.800	-17.764	0.099
284.900	-12.119	0.099
285.000	-16.005	0.099
285.100	-26.547	0.099
285.200	-17.684	0.099
285.300	-18.013	0.099
285.400	-10.796	0.099
285.500	-2.035	0.099
285.600	-12.081	0.099
285.700	-17.383	0.099
285.800	-16.792	0.099
285.900	-17.566	0.099
286.000	-17.195	0.099
286.100	-16.683	0.099
286.200	-17.933	0.099
286.300	-16.716	0.099
286.400	-9.898	0.099
286.500	-10.415	0.099
286.600	-17.451	0.099
286.700	-12.894	0.099
286.800	-20.786	0.099
286.900	-12.745	0.099
287.000	-11.194	0.099
287.100	-19.780	0.099
287.200	-8.664	0.099
287.300	-14.267	0.099
287.400	-9.700	0.099
287.500	-18.393	0.099
287.600	-15.256	0.099
287.700	-19.436	0.099
287.800	-16.021	0.099
287.900	-16.758	0.099
288.000	-11.975	0.099
288.100	-17.838	0.099
288.200	-17.832	0.099
288.300	-15.017	0.099
288.400	-15.716	0.099
288.500	-20.045	0.099
288.600	-16.967	0.099
288.700	-21.950	0.099
288.800	-17.075	0.099
288.900	-25.023	0.099
289.000	-13.365	0.099
289.100	-17.649	0.099
289.200	-10.142	0.099
289.300	-4.847	0.099
289.400	-19.223	0.099
289.500	-21.422	0.099
289.600	-21.258	0.099
289.700	-13.664	0.099
289.800	-11.256	0.099
289.900	-17.498	0.099
290.000	-10.844	0.099
290.100	-16.506	0.099
290.200	-20.389	0.099
290.300	-18.252	0.099
290.400	-11.419	0.099
290.500	-14.832	0.099
290.600	-16.042	0.099
290.700	-21.394	0.099
290.800	-7.310	0.099
290.900	-12.425	0.099
291.000	-9.352	0.099
291.100	-13.147	0.099
291.200	-16.987	0.099
291.300	-15.010	0.099
291.400	-14.864	0.099
291.500	-9.175	0.099
291.600	-17.370	0.099
291.700	-16.085	0.099
291.800	-21.101	0.099
291.900	-6.884	0.099
292.000	-13.714	0.099
292.100	-17.626	0.099
292.200	-19.402	0.099
292.300	-19.766	0.099
292.400	-16.199	0.099
292.500	-14.590	0.099
292.600	-19.428	0.099
292.700	-13.455	0.099
292.800	-11.451	0.099
292.900	-13.547	0.099
293.000	-15.198	0.099
293.100	-13.548	0.099
293.200	-15.277	0.099
293.300	-20.003	0.099
293.400	-16.312	0.099
293.500	-27.635	0.099
293.600	-7.485	0.099
293.700	-11.231	0.099
293.800	-15.455	0.099
293.900	-19.690	0.099
294.000	-12.167	0.099
294.100	-10.003	0.099
294.200	-7.891	0.099
294.300	-11.103	0.099
294.400	-19.083	0.099
294.500	-19.739	0.099
294.600	-17.618	0.099
294.700	-7.755	0.099
294.800	-19.419	0.099
294.900	-14.288	0.099
295.000	-10.476	0.099
295.100	-13.904	0.099
295.200	-8.523	0.099
295.300	-17.174	0.099
295.400	-13.035	0.099
295.500	-11.481	0.099
295.600	-17.072	0.099
295.700	-14.258	0.099
295.800	-19.977	0.099
295.900	-13.622	0.099
296.000	-12.822	0.099
296.100	-18.292	0.099
296.200	-11.523	0.099
296.300	-12.044	0.099
296.400	-16.695	0.099
296.500	-15.828	0.099
296.600	-4.381	0.099
296.700	-13.501	0.099
296.800	-12.795	0.099
296.900	-19.917	0.099
297.000	-11.086	0.099
297.100	-17.553	0.099
297.200	-19.817	0.099
297.300	-21.610	0.099
297.400	-16.837	0.099
297.500	-15.248	0.099
297.600	-8.535	0.099
297.700	-13.991	0.099
297.800	-13.890	0.099
297.900	-18.216	0.099
298.000	-14.398	0.099
298.100	-16.878	0.099
298.200	-23.015	0.099
298.300	-15.343	0.099
298.400	-12.941	0.099
298.500	-7.098	0.099
298.600	-18.426	0.099
298.700	-7.749	0.099
298.800	-13.958	0.099
298.900	-11.125	0.099
299.000	-19.020	0.099
299.100	-24.633	0.099
299.200	-6.171	0.099
299.300	-6.994	0.099
299.400	-11.880	0.099
299.500	-10.878	0.099
299.600	-14.740	0.099
299.700	-9.805	0.099
299.800	-16.501	0.099
299.900	-12.695	0.099
300.000	-18.259	0.099
300.100	-13.672	0.099
300.200	-11.317	0.099
300.300	-17.131	0.099
300.400	-18.591	0.099
300.500	-7.878	0.099
300.600	-12.057	0.099
300.700	-14.909	0.099
300.800	-21.371	0.099
300.900	-14.060	0.099
301.000	-12.700	0.099
301.100	-18.156	0.099
301.200	-5.951	0.099
301.300	-17.075	0.099
301.400	-18.742	0.099
301.500	-13.865	0.099
301.600	-14.098	0.099
301.700	-12.956	0.099
301.800	-12.161	0.099
301.900	-19.369	0.099
302.000	-11.492	0.099
302.100	-14.226	0.099
302.200	-16.259	0.099
302.300	-18.580	0.099
302.400	-12.246	0.099
302.500	-12.500	0.099
302.600	-5.044	0.099
302.700	-11.213	0.099
302.800	-9.488	0.099
302.900	-13.639	0.099
303.000	-16.274	0.099
303.100	-18.494	0.099
303.200	-12.088	0.099
303.300	-14.630	0.099
303.400	-10.198	0.099
303.500	-20.113	0.099
303.600	-17.459	0.099
303.700	-12.835	0.099
303.800	-14.519	0.099
303.900	-10.093	0.099
304.000	-11.093	0.099
304.100	-13.368	0.099
304.200	-20.573	0.099
304.300	-9.248	0.099
304.400	-26.780	0.099
304.500	-19.155	0.099
304.600	-11.107	0.099
304.700	-17.870	0.099
304.800	-14.456	0.099
304.900	-11.624	0.099
305.000	-8.756	0.099
305.100	-15.587	0.099
305.200	-19.941	0.099
305.300	-20.042	0.099
305.400	-16.517	0.099
305.500	-7.237	0.099
305.600	-7.363	0.099
305.700	-8.335	0.099
305.800	-17.565	0.099
305.900	-21.654	0.100
306.000	-5.592	0.100
306.100	-17.140	0.100
306.200	-8.019	0.100
306.300	-10.494	0.100
306.400	-16.263	0.100
306.500	-21.589	0.100
306.600	-17.002	0.100
306.700	-15.631	0.100
306.800	-1.089	0.100
306.900	-4.837	0.100
307.000	-21.510	0.100
307.100	-13.580	0.100
307.200	-17.486	0.100
307.300	-9.577	0.100
307.400	-9.247	0.100
307.500	-10.804	0.100
307.600	-9.466	0.100
307.700	-16.009	0.100
307.800	-8.586	0.100
307.900	-15.555	0.100
308.000	-13.273	0.100
308.100	-12.037	0.100
308.200	-13.449	0.100
308.300	-14.630	0.100
308.400	-18.737	0.100
308.500	-6.213	0.100
308.600	-10.439	0.100
308.700	-14.275	0.100
308.800	-21.092	0.100
308.900	-16.978	0.100
309.000	-9.425	0.100
309.100	-14.935	0.100
309.200	-8.618	0.100
309.300	-9.359	0.100
309.400	-23.751	0.100
309.500	-18.856	0.100
309.600	-6.139	0.100
309.700	-10.413	0.100
309.800	-13.775	0.100
309.900	-11.550	0.100
310.000	-16.683	0.100
310.100	-10.742	0.100
310.200	-11.286	0.100
310.300	-12.489	0.100
310.400	-12.299	0.100
310.500	-11.571	0.100
310.600	-9.309	0.100
310.700	-9.938	0.100
310.800	-18.661	0.100
310.900	-11.209	0.100
311.000	-8.906	0.100
311.100	-13.444	0.100
311.200	-13.138	0.100
311.300	-11.659	0.100
311.400	-12.706	0.100
311.500	-13.023	0.100
311.600	-9.849	0.100
311.700	-13.224	0.100
311.800	-11.294	0.100
311.900	-19.561	0.100
312.000	-13.544	0.100
312.100	-19.273	0.100
312.200	-18.072	0.100
312.300	-9.883	0.100
312.400	-15.488	0.100
312.500	-4.174	0.100
312.600	-11.861	0.100
312.700	-11.587	0.100
312.800	-16.085	0.100
312.900	-15.507	0.100
313.000	-15.288	0.100
313.100	-20.155	0.100
313.200	-9.319	0.100
313.300	-6.698	0.100
313.400	-12.978	0.100
313.500	-6.255	0.100
313.600	-7.128	0.100
313.700	-2.433	0.100
313.800	-9.646	0.100
313.900	-8.045	0.100
314.000	-14.842	0.100
314.100	-15.706	0.100
314.200	-16.870	0.100
314.300	-14.514	0.100
314.400	-11.911	0.100
314.500	-14.895	0.100
314.600	-12.721	0.100
314.700	-5.789	0.100
314.800	-7.910	0.100
314.900	-7.698	0.100
315.000	-12.002	0.100
315.100	-8.671	0.100
315.200	-13.127	0.100
315.300	-19.963	0.100
315.400	-4.294	0.100
315.500	-8.108	0.100
315.600	-22.007	0.100
315.700	-17.763	0.100
315.800	-5.429	0.100
315.900	-19.451	0.100
316.000	-4.079	0.100
316.100	-10.972	0.100
316.200	-8.544	0.100
316.300	-14.371	0.100
316.400	-12.544	0.100
316.500	-17.855	0.100
316.600	-9.928	0.100
316.700	-16.427	0.100
316.800	-7.287	0.100
316.900	-5.300	0.100
317.000	-4.144	0.100
317.100	-7.773	0.100
317.200	-8.629	0.100
317.300	-17.186	0.100
317.400	-7.906	0.100
317.500	-15.744	0.100
317.600	-10.339	0.100
317.700	-9.025	0.100
317.800	-15.382	0.100
317.900	-10.585	0.100
318.000	-5.326	0.100
318.100	-16.855	0.100
318.200	-5.970	0.100
318.300	-11.020	0.100
318.400	-21.437	0.100
318.500	-10.676	0.100
318.600	-8.952	0.100
318.700	-18.040	0.100
318.800	-16.326	0.100
318.900	-2.356	0.100
319.000	-9.206	0.100
319.100	-12.595	0.100
319.200	-18.925	0.100
319.300	-10.285	0.100
319.400	-7.557	0.100
319.500	-0.417	0.100
319.600	-9.012	0.100
319.700	-13.972	0.100
319.800	-16.251	0.100
319.900	-13.626	0.100
320.000	-8.358	0.100
320.100	-16.996	0.100
320.200	-11.769	0.100
320.300	-8.893	0.100
320.400	-12.580	0.100
320.500	-10.565	0.100
320.600	-11.474	0.100
320.700	-7.073	0.100
320.800	-3.933	0.100
320.900	-10.191	0.100
321.000	-22.020	0.100
321.100	-16.479	0.100
321.200	-10.918	0.100
321.300	-12.829	0.100
321.400	-3.736	0.100
321.500	-11.452	0.100
321.600	-9.134	0.100
321.700	-13.324	0.100
321.800	-6.707	0.100
321.900	-9.870	0.100
322.000	-8.929	0.100
322.100	-17.357	0.100
322.200	-2.946	0.100
322.300	-12.519	0.100
322.400	-9.022	0.100
322.500	-11.933	0.100
322.600	-13.084	0.100
322.700	-6.583	0.100
322.800	-9.805	0.100
322.900	-6.853	0.100
323.000	-11.212	0.100
323.100	-0.396	0.100
323.200	-22.784	0.100
323.300	-17.908	0.100
323.400	-10.203	0.100
323.500	-0.632	0.100
323.600	-12.308	0.100
323.700	-10.185	0.100
323.800	-10.605	0.100
323.900	-15.953	0.100
324.000	-17.367	0.100
324.100	-17.447	0.100
324.200	-6.756	0.100
324.300	-5.373	0.100
324.400	-5.056	0.100
324.500	-12.848	0.100
324.600	-15.417	0.100
324.700	-8.218	0.100
324.800	-25.974	0.100
324.900	-12.521	0.100
325.000	-14.937	0.100
325.100	-12.304	0.100
325.200	-14.681	0.100
325.300	-16.931	0.100
325.400	-13.389	0.100
325.500	-9.299	0.100
325.600	-6.506	0.100
325.700	-13.030	0.100
325.800	-18.739	0.100
325.900	-12.055	0.100
326.000	-14.517	0.100
326.100	-3.839	0.100
326.200	-6.506	0.100
326.300	-18.748	0.100
326.400	-10.175	0.100
326.500	-10.015	0.100
326.600	-7.871	0.100
326.700	-4.776	0.100
326.800	-18.670	0.100
326.900	-15.214	0.100
327.000	-7.384	0.100
327.100	-10.152	0.100
327.200	-13.290	0.100
327.300	-3.374	0.100
327.400	-13.622	0.100
327.500	-7.720	0.100
327.600	-13.180	0.100
327.700	-12.628	0.100
327.800	-17.029	0.100
327.900	-18.531	0.100
328.000	-18.887	0.100
328.100	-7.372	0.100
328.200	-7.135	0.100
328.300	-6.392	0.100
328.400	-15.800	0.100
328.500	-16.220	0.100
328.600	8.534	0.100
328.700	-8.743	0.100
328.800	-17.131	0.100
328.900	-14.452	0.100
329.000	-14.653	0.100
329.100	-11.419	0.100
329.200	-9.713	0.100
329.300	-7.819	0.100
329.400	-11.759	0.100
329.500	-8.983	0.100
329.600	-9.379	0.100
329.700	-7.866	0.100
329.800	-11.509	0.100
329.900	-9.459	0.100
330.000	-0.232	0.100
330.100	-16.782	0.100
330.200	-10.059	0.100
330.300	-17.881	0.100
330.400	-12.599	0.100
330.500	-4.585	0.100
330.600	1.263	0.100
330.700	-6.225	0.100
330.800	-12.806	0.100
330.900	1.279	0.100
331.000	4.965	0.100
331.100	-3.576	0.100
331.200	13.910	0.100
331.300	7.432	0.100
331.400	10.014	0.100
331.500	17.786	0.100
331.600	14.184	0.100
331.700	11.819	0.100
331.800	11.942	0.100
331.900	17.620	0.100
332.000	32.598	0.100
332.100	18.760	0.100
332.200	27.607	0.100
332.300	11.798	0.100
332.400	5.019	0.100
332.500	20.807	0.100
332.600	21.128	0.100
332.700	22.135	0.100
332.800	24.046	0.100
332.900	22.455	0.100
333.000	19.649	0.100
333.100	11.289	0.100
333.200	7.938	0.100
333.300	21.757	0.100
333.400	17.545	0.100
333.500	23.646	0.100
333.600	19.401	0.100
333.700	14.549	0.100
333.800	15.299	0.100
333.900	18.282	0.100
334.000	12.955	0.100
334.100	23.146	0.100
334.200	16.490	0.100
334.300	16.430	0.100
334.400	14.627	0.100
334.500	11.495	0.100
334.600	19.938	0.100
334.700	9.605	0.100
334.800	19.785	0.100
334.900	20.804	0.100
335.000	16.310	0.100
335.100	20.002	0.100
335.200	10.909	0.100
335.300	9.868	0.100
335.400	6.765	0.100
335.500	18.482	0.100
335.600	29.169	0.100
335.700	16.517	0.100
335.800	10.922	0.100
335.900	9.638	0.100
336.000	5.472	0.100
336.100	22.529	0.100
336.200	12.821	0.100
336.300	15.340	0.100
336.400	7.499	0.100
336.500	14.163	0.100
336.600	12.534	0.100
336.700	9.864	0.100
336.800	6.561	0.100
336.900	25.963	0.100
337.000	11.239	0.100
337.100	8.008	0.100
337.200	14.555	0.100
337.300	23.160	0.100
337.400	8.109	0.100
337.500	8.482	0.100
337.600	9.345	0.100
337.700	8.759	0.100
337.800	11.832	0.100
337.900	14.844	0.100
338.000	12.516	0.100
338.100	6.834	0.100
338.200	14.984	0.100
338.300	2.198	0.100
338.400	6.143	0.100
338.500	12.840	0.100
338.600	17.550	0.100
338.700	14.407	0.100
338.800	11.358	0.100
338.900	12.421	0.100
339.000	14.533	0.100
339.100	18.668	0.100
339.200	14.763	0.100
339.300	15.498	0.100
339.400	17.304	0.100
339.500	15.907	0.100
339.600	12.663	0.100
339.700	21.435	0.100
339.800	17.146	0.100
339.900	9.207	0.100
340.000	6.062	0.100
340.100	21.739	0.100
340.200	12.300	0.100
340.300	21.249	0.100
340.400	12.456	0.100
340.500	10.657	0.100
340.600	14.944	0.100
340.700	12.635	0.100
340.800	16.143	0.100
340.900	13.512	0.100
341.000	16.555	0.100
341.100	16.254	0.100
341.200	19.562	0.100
341.300	13.892	0.100
341.400	16.413	0.100
341.500	7.935	0.100
341.600	12.266	0.100
341.700	19.871	0.100
341.800	14.938	0.100
341.900	14.690	0.100
342.000	17.836	0.100
342.100	9.573	0.100
342.200	25.422	0.100
342.300	21.420	0.100
342.400	17.539	0.100
342.500	20.119	0.100
342.600	21.143	0.100
342.700	24.093	0.100
342.800	14.294	0.100
342.900	14.460	0.100
343.000	10.965	0.100
343.100	22.639	0.100
343.200	17.309	0.100
343.300	20.628	0.100
343.400	20.220	0.100
343.500	12.242	0.100
343.600	12.234	0.100
343.700	19.666	0.100
343.800	17.283	0.100
343.900	18.755	0.100
344.000	20.643	0.100
344.100	22.033	0.100
344.200	25.481	0.100
344.300	19.205	0.100
344.400	20.756	0.100
344.500	24.285	0.100
344.600	20.027	0.100
344.700	19.863	0.100
344.800	23.341	0.100
344.900	26.864	0.100
345.000	23.583	0.100
345.100	16.866	0.100
345.200	19.766	0.100
345.300	21.768	0.100
345.400	21.183	0.100
345.500	23.555	0.100
345.600	23.945	0.100
345.700	26.734	0.100
345.800	23.684	0.100
345.900	20.558	0.100
346.000	20.894	0.100
346.100	21.377	0.100
346.200	23.999	0.100
346.300	21.964	0.100
346.400	25.631	0.100
346.500	21.107	0.100
346.600	18.599	0.100
346.700	23.558	0.100
346.800	19.986	0.100
346.900	25.427	0.100
347.000	22.601	0.100
347.100	19.810	0.100
347.200	26.534	0.100
347.300	31.136	0.100
347.400	25.257	0.100
347.500	19.597	0.100
347.600	19.490	0.100
347.700	23.664	0.100
347.800	25.254	0.100
347.900	32.652	0.100
348.000	32.054	0.100
348.100	25.294	0.100
348.200	22.674	0.100
348.300	34.573	0.100
348.400	22.845	0.100
348.500	29.133	0.100
348.600	24.473	0.100
348.700	28.029	0.100
348.800	24.012	0.100
348.900	27.497	0.100
349.000	19.000	0.100
349.100	31.446	0.100
349.200	27.096	0.100
349.300	31.326	0.100
349.400	27.452	0.100
349.500	31.157	0.100
349.600	19.648	0.100
349.700	33.169	0.100
349.800	33.733	0.100
349.900	27.891	0.100
350.000	23.537	0.100
350.100	38.180	0.100
350.200	21.902	0.100
350.300	26.735	0.100
350.400	29.696	0.100
350.500	29.738	0.100
350.600	23.516	0.100
350.700	30.411	0.100
350.800	27.166	0.100
350.900	30.623	0.100
351.000	30.991	0.100
351.100	30.975	0.100
351.200	25.253	0.100
351.300	27.282	0.100
351.400	20.031	0.100
351.500	31.827	0.100
351.600	26.077	0.100
351.700	22.890	0.100
351.800	29.750	0.100
351.900	32.669	0.100
352.000	29.655	0.100
352.100	32.821	0.100
352.200	28.710	0.100
352.300	22.087	0.100
352.400	25.079	0.100
352.500	26.987	0.100
352.600	39.379	0.100
352.700	33.540	0.100
352.800	34.035	0.100
352.900	27.911	0.100
353.000	30.767	0.100
353.100	30.351	0.100
353.200	32.473	0.100
353.300	32.461	0.100
353.400	32.065	0.100
353.500	30.493	0.100
353.600	30.595	0.100
353.700	31.698	0.100
353.800	35.149	0.100
353.900	28.747	0.100
354.000	30.786	0.100
354.100	30.487	0.100
354.200	29.985	0.100
354.300	32.925	0.100
354.400	30.611	0.100
354.500	29.868	0.100
354.600	35.672	0.100
354.700	35.868	0.100
354.800	26.086	0.100
354.900	31.386	0.100
355.000	28.589	0.100
355.100	28.186	0.100
355.200	30.194	0.100
355.300	42.915	0.100
355.400	34.235	0.100
355.500	39.953	0.100
355.600	29.280	0.100
355.700	30.777	0.100
355.800	28.373	0.100
355.900	27.898	0.100
356.000	30.807	0.100
356.100	31.477	0.100
356.200	20.688	0.100
356.300	42.680	0.100
356.400	26.219	0.100
356.500	32.191	0.100
356.600	29.879	0.100
356.700	34.156	0.100
356.800	30.591	0.100
356.900	34.642	0.100
357.000	34.204	0.100
357.100	27.632	0.100
357.200	36.686	0.100
357.300	25.339	0.100
357.400	30.303	0.100
357.500	26.436	0.100
357.600	37.987	0.100
357.700	35.620	0.100
357.800	29.447	0.100
357.900	36.865	0.100
358.000	33.043	0.100
358.100	35.884	0.100
358.200	34.541	0.100
358.300	17.334	0.100
358.400	30.977	0.100
358.500	41.072	0.100
358.600	34.670	0.100
358.700	32.742	0.100
358.800	40.263	0.100
358.900	36.871	0.100
359.000	29.539	0.100
359.100	27.559	0.100
359.200	44.917	0.100
359.300	32.345	0.100
359.400	29.428	0.100
359.500	35.792	0.100
359.600	31.452	0.100
359.700	31.543	0.100
359.800	28.511	0.100
359.900	20.913	0.100
360.000	36.323	0.100
360.100	31.419	0.100
360.200	36.626	0.100
360.300	31.722	0.100
360.400	42.643	0.100
360.500	28.114	0.100
360.600	31.600	0.100
360.700	35.957	0.100
360.800	29.785	0.100
360.900	29.081	0.100
361.000	30.651	0.100
361.100	40.166	0.100
361.200	26.703	0.100
361.300	38.150	0.100
361.400	34.298	0.100
361.500	20.901	0.100
361.600	31.833	0.100
361.700	39.838	0.100
361.800	40.116	0.100
361.900	22.786	0.100
362.000	33.657	0.100
362.100	41.865	0.100
362.200	40.734	0.100
362.300	31.373	0.100
362.400	38.181	0.100
362.500	29.121	0.100
362.600	28.628	0.100
362.700	27.314	0.100
362.800	28.336	0.100
362.900	31.827	0.100
363.000	32.534	0.100
363.100	34.916	0.100
363.200	38.694	0.100
363.300	29.516	0.100
363.400	31.034	0.100
363.500	38.555	0.100
363.600	32.180	0.100
363.700	40.114	0.100
363.800	32.090	0.100
363.900	35.912	0.100
364.000	27.712	0.100
364.100	29.906	0.100
364.200	32.122	0.100
364.300	34.551	0.100
364.400	32.786	0.100
364.500	31.159	0.100
364.600	35.752	0.100
364.700	31.793	0.100
364.800	27.844	0.100
364.900	33.353	0.100
365.000	36.059	0.100
365.100	38.147	0.100
365.200	26.063	0.100
365.300	41.667	0.100
365.400	28.901	0.100
365.500	27.796	0.100
365.600	26.736	0.100
365.700	32.951	0.100
365.800	31.504	0.100
365.900	31.057	0.100
366.000	27.866	0.100
366.100	27.957	0.100
366.200	29.201	0.100
366.300	35.688	0.100
366.400	33.751	0.100
366.500	38.306	0.100
366.600	34.459	0.100
366.700	25.569	0.100
366.800	32.512	0.100
366.900	34.016	0.100
367.000	29.602	0.100
367.100	38.422	0.100
367.200	31.030	0.100
367.300	30.587	0.100
367.400	37.367	0.100
367.500	30.281	0.100
367.600	31.112	0.100
367.700	39.926	0.100
367.800	26.327	0.100
367.900	30.612	0.100
368.000	27.598	0.100
368.100	32.313	0.100
368.200	27.164	0.100
368.300	32.457	0.100
368.400	32.370	0.100
368.500	35.616	0.100
368.600	20.808	0.100
368.700	36.609	0.100
368.800	35.723	0.100
368.900	35.108	0.100
369.000	35.591	0.100
369.100	29.843	0.100
369.200	35.051	0.100
369.300	22.959	0.100
369.400	28.039	0.100
369.500	29.371	0.100
369.600	29.167	0.100
369.700	29.871	0.100
369.800	31.119	0.100
369.900	32.034	0.100
370.000	31.229	0.100
370.100	35.842	0.100
370.200	33.981	0.100
370.300	33.899	0.100
370.400	27.863	0.100
370.500	35.218	0.100
370.600	27.826	0.100
370.700	42.555	0.100
370.800	34.679	0.100
370.900	26.653	0.100
371.000	29.808	0.100
371.100	30.289	0.100
371.200	31.924	0.100
371.300	34.320	0.100
371.400	33.137	0.100
371.500	30.910	0.100
371.600	29.657	0.100
371.700	30.153	0.100
371.800	33.404	0.100
371.900	32.314	0.100
372.000	29.081	0.100
372.100	34.982	0.100
372.200	32.178	0.100
372.300	33.861	0.100
372.400	33.919	0.100
372.500	35.736	0.100
372.600	31.119	0.100
372.700	24.653	0.100
372.800	27.094	0.100
372.900	33.827	0.100
373.000	34.820	0.100
373.100	36.112	0.100
373.200	28.525	0.100
373.300	31.794	0.100
373.400	32.733	0.100
373.500	20.931	0.100
373.600	28.812	0.100
373.700	34.884	0.100
373.800	33.145	0.100
373.900	41.948	0.100
374.000	34.891	0.100
374.100	35.483	0.100
374.200	27.516	0.100
374.300	22.980	0.100
374.400	37.038	0.100
374.500	34.830	0.100
374.600	37.747	0.100
374.700	27.286	0.100
374.800	32.609	0.100
374.900	33.839	0.100
375.000	28.142	0.100
375.100	23.894	0.100
375.200	34.623	0.100
375.300	36.627	0.100
375.400	32.662	0.100
375.500	35.032	0.100
375.600	33.195	0.100
375.700	32.061	0.100
375.800	32.016	0.100
375.900	28.421	0.100
376.000	26.972	0.100
376.100	26.201	0.100
376.200	31.257	0.100
376.300	41.174	0.100
376.400	22.669	0.100
376.500	33.667	0.100
376.600	29.212	0.100
376.700	35.941	0.100
376.800	24.401	0.100
376.900	33.816	0.100
377.000	25.513	0.100
377.100	32.631	0.100
377.200	21.476	0.100
377.300	23.774	0.100
377.400	33.115	0.100
377.500	40.053	0.100
377.600	35.033	0.100
377.700	23.884	0.100
377.800	34.118	0.100
377.900	32.720	0.100
378.000	28.597	0.100
378.100	28.364	0.100
378.200	30.902	0.100
378.300	25.414	0.100
378.400	31.684	0.100
378.500	35.097	0.100
378.600	31.521	0.100
378.700	27.603	0.100
378.800	33.126	0.100
378.900	31.942	0.100
379.000	34.808	0.100
379.100	25.953	0.100
379.200	31.758	0.100
379.300	33.720	0.100
379.400	31.611	0.100
379.500	32.814	0.100
379.600	29.798	0.100
379.700	32.545	0.100
379.800	26.971	0.100
379.900	29.666	0.100
380.000	30.552	0.100
380.100	33.731	0.100
380.200	27.388	0.100
380.300	29.063	0.100
380.400	34.362	0.100
380.500	30.913	0.100
380.600	27.939	0.100
380.700	30.019	0.100
380.800	29.453	0.100
380.900	35.672	0.100
381.000	42.207	0.100
381.100	35.438	0.100
381.200	23.767	0.100
381.300	30.916	0.100
381.400	23.510	0.100
381.500	28.006	0.100
381.600	21.195	0.100
381.700	39.848	0.100
381.800	35.765	0.100
381.900	33.679	0.100
382.000	28.725	0.100
382.100	25.017	0.100
382.200	25.871	0.100
382.300	33.236	0.100
382.400	39.378	0.100
382.500	36.047	0.100
382.600	27.835	0.100
382.700	28.139	0.100
382.800	23.041	0.100
382.900	31.198	0.100
383.000	28.277	0.100
383.100	25.613	0.100
383.200	34.351	0.100
383.300	30.418	0.100
383.400	29.581	0.100
383.500	28.175	0.100
383.600	33.044	0.100
383.700	23.746	0.100
383.800	27.705	0.100
383.900	34.143	0.100
384.000	22.869	0.100
384.100	30.843	0.100
384.200	19.772	0.100
384.300	30.812	0.100
384.400	32.676	0.100
384.500	28.377	0.100
384.600	38.550	0.100
384.700	23.582	0.100
384.800	31.072	0.100
384.900	29.100	0.100
385.000	36.109	0.100
385.100	32.576	0.100
385.200	30.364	0.100
385.300	22.792	0.100
385.400	29.081	0.100
385.500	30.035	0.100
385.600	33.951	0.100
385.700	35.288	0.100
385.800	26.583	0.100
385.900	35.361	0.100
386.000	26.116	0.100
386.100	29.308	0.100
386.200	23.274	0.100
386.300	32.422	0.100
386.400	28.305	0.100
386.500	32.004	0.100
386.600	36.772	0.100
386.700	29.364	0.100
386.800	28.046	0.100
386.900	36.166	0.100
387.000	26.984	0.100
387.100	25.196	0.100
387.200	38.173	0.100
387.300	38.266	0.100
387.400	36.410	0.100
387.500	30.771	0.100
387.600	23.840	0.100
387.700	23.971	0.100
387.800	32.731	0.100
387.900	38.015	0.100
388.000	28.628	0.100
388.100	33.886	0.100
388.200	25.884	0.100
388.300	24.159	0.100
388.400	27.594	0.100
388.500	26.465	0.100
388.600	37.511	0.100
388.700	29.218	0.100
388.800	27.626	0.100
388.900	31.999	0.100
389.000	34.798	0.100
389.100	29.988	0.100
389.200	32.492	0.100
389.300	30.233	0.100
389.400	26.158	0.100
389.500	31.366	0.100
389.600	29.962	0.100
389.700	22.681	0.100
389.800	34.113	0.100
389.900	24.961	0.100
390.000	26.707	0.100
390.100	30.001	0.100
390.200	25.615	0.100
390.300	27.461	0.100
390.400	28.824	0.100
390.500	29.150	0.100
390.600	28.173	0.100
390.700	7.443	0.100
390.800	12.729	0.100
390.900	19.802	0.100
391.000	17.471	0.100
391.100	13.176	0.100
391.200	10.893	0.100
391.300	5.965	0.100
391.400	-7.368	0.100
391.500	9.462	0.100
391.600	3.134	0.100
391.700	5.076	0.100
391.800	-8.407	0.100
391.900	-7.487	0.100
392.000	-2.009	0.100
392.100	5.173	0.100
392.200	-8.503	0.100
392.300	8.557	0.100
392.400	-6.522	0.100
392.500	-10.660	0.100
392.600	-8.727	0.100
392.700	-2.983	0.100
392.800	-17.485	0.100
392.900	-6.827	0.100
393.000	-6.363	0.100
393.100	-4.549	0.100
393.200	0.255	0.100
393.300	-6.358	0.100
393.400	-15.633	0.100
393.500	-2.731	0.100
393.600	-7.057	0.100
393.700	-9.648	0.100
393.800	-15.552	0.100
393.900	-11.169	0.100
394.000	3.848	0.100
394.100	-16.875	0.100
394.200	3.233	0.100
394.300	-5.692	0.100
394.400	-13.014	0.100
394.500	-7.271	0.100
394.600	-7.396	0.100
394.700	-1.303	0.100
394.800	-8.678	0.100
394.900	-16.133	0.100
395.000	-13.563	0.100
395.100	-7.807	0.100
395.200	1.417	0.100
395.300	-7.016	0.100
395.400	-9.205	0.100
395.500	-8.886	0.100
395.600	-7.918	0.100
395.700	-13.549	0.100
395.800	-12.440	0.100
395.900	2.211	0.100
396.000	-6.436	0.100
396.100	-10.177	0.100
396.200	-10.566	0.100
396.300	-3.130	0.100
396.400	-9.610	0.100
396.500	-2.415	0.100
396.600	-11.323	0.100
396.700	-10.136	0.100
396.800	-4.132	0.100
396.900	-11.716	0.100
397.000	-9.266	0.100
397.100	-4.224	0.100
397.200	-11.952	0.100
397.300	-3.640	0.100
397.400	-6.015	0.100
397.500	-10.891	0.100
397.600	-6.166	0.100
397.700	-6.943	0.100
397.800	-10.157	0.100
397.900	-0.974	0.100
398.000	-4.189	0.100
398.100	-14.646	0.100
398.200	-12.106	0.100
398.300	-5.831	0.100
398.400	-5.825	0.100
398.500	-9.741	0.100
398.600	-6.839	0.100
398.700	4.584	0.100
398.800	-6.318	0.100
398.900	-8.809	0.100
399.000	-4.192	0.100
399.100	-5.696	0.100
399.200	-13.806	0.100
399.300	-6.007	0.100
399.400	-9.928	0.100
399.500	-3.955	0.100
399.600	-5.443	0.100
399.700	-8.717	0.100
399.800	1.273	0.100
399.900	-10.109	0.100
400.000	-0.283	0.100
400.100	-7.449	0.100
400.200	-8.818	0.100
400.300	-3.034	0.100
400.400	-5.390	0.100
400.500	-6.854	0.100
400.600	-7.177	0.100
400.700	-10.554	0.100
400.800	-2.190	0.100
400.900	-9.715	0.100
401.000	-1.133	0.100
401.100	-4.312	0.100
401.200	-15.886	0.100
401.300	-10.595	0.100
401.400	-8.371	0.100
401.500	-13.196	0.100
401.600	-6.070	0.100
401.700	-8.849	0.100
401.800	-2.561	0.100
401.900	-4.821	0.100
402.000	-2.765	0.100
402.100	-8.835	0.100
402.200	-11.309	0.100
402.300	-9.951	0.100
402.400	-13.870	0.100
402.500	-8.625	0.100
402.600	0.088	0.100
402.700	-14.603	0.100
402.800	-7.805	0.100
402.900	-13.077	0.100
403.000	-13.225	0.100
403.100	-4.346	0.100
403.200	-21.096	0.100
403.300	-6.545	0.100
403.400	-1.476	0.100
403.500	-0.639	0.100
403.600	-8.668	0.100
403.700	-8.946	0.100
403.800	-4.039	0.100
403.900	-10.677	0.100
404.000	-13.999	0.100
404.100	-3.592	0.100
404.200	-5.040	0.100
404.300	-2.349	0.100
404.400	-9.480	0.100
404.500	-4.908	0.100
404.600	-9.183	0.100
404.700	1.090	0.100
404.800	-4.844	0.100
404.900	-10.433	0.100
405.000	-17.956	0.100
405.100	-18.029	0.100
405.200	-18.172	0.100
405.300	-10.514	0.100
405.400	-14.861	0.100
405.500	-11.323	0.100
405.600	-12.345	0.100
405.700	-5.703	0.100
405.800	-10.510	0.100
405.900	-4.142	0.100
406.000	-12.226	0.100
406.100	-8.538	0.100
406.200	-8.706	0.100
406.300	-7.212	0.100
406.400	-18.656	0.100
406.500	-9.411	0.100
406.600	-4.643	0.100
406.700	-18.379	0.100
406.800	-8.731	0.100
406.900	-6.024	0.100
407.000	-9.587	0.100
407.100	-11.800	0.100
407.200	-2.537	0.100
407.300	3.642	0.100
407.400	-12.673	0.100
407.500	-14.701	0.100
407.600	-12.885	0.100
407.700	-4.722	0.100
407.800	-16.141	0.100
407.900	-14.409	0.100
408.000	-9.442	0.100
408.100	-13.839	0.100
408.200	-9.856	0.100
408.300	-14.449	0.100
408.400	-13.375	0.100
408.500	-8.565	0.100
408.600	-7.886	0.100
408.700	-5.605	0.100
408.800	-14.820	0.100
408.900	-10.856	0.100
409.000	-5.367	0.100
409.100	-10.539	0.100
409.200	-7.241	0.100
409.300	-4.246	0.100
409.400	-9.545	0.100
409.500	-13.876	0.100
409.600	-12.777	0.100
409.700	-12.565	0.100
409.800	-9.493	0.100
409.900	-18.556	0.100
410.000	-13.823	0.100
410.100	-16.998	0.100
410.200	-7.322	0.100
410.300	-8.092	0.100
410.400	-18.316	0.100
410.500	-11.111	0.100
410.600	-11.703	0.100
410.700	-11.552	0.100
410.800	-15.482	0.100
410.900	-13.072	0.100
411.000	-4.202	0.100
411.100	-9.573	0.100
411.200	-15.237	0.100
411.300	-12.087	0.100
411.400	-15.316	0.100
411.500	-9.637	0.100
411.600	-9.409	0.100
411.700	-13.345	0.100
411.800	-11.292	0.100
411.900	-16.195	0.100
412.000	-17.535	0.100
412.100	-9.503	0.100
412.200	-2.510	0.100
412.300	-14.474	0.100
412.400	-18.073	0.100
412.500	-4.267	0.100
412.600	-13.377	0.100
412.700	-12.317	0.100
412.800	-17.700	0.100
412.900	-12.597	0.100
413.000	-8.743	0.100
413.100	-11.757	0.100
413.200	-6.323	0.100
413.300	-16.096	0.100
413.400	-17.043	0.100
413.500	-13.472	0.100
413.600	-16.942	0.100
413.700	-3.681	0.100
413.800	-13.291	0.100
413.900	-21.872	0.100
414.000	-3.826	0.100
414.100	-12.720	0.100
414.200	-13.243	0.100
414.300	-16.734	0.100
414.400	-11.787	0.100
414.500	-3.109	0.100
414.600	-4.123	0.100
414.700	-14.862	0.100
414.800	-24.078	0.100
414.900	-14.174	0.100
415.000	-7.337	0.100
415.100	-15.406	0.100
415.200	-14.828	0.100
415.300	-16.197	0.100
415.400	-11.251	0.100
415.500	-20.196	0.100
415.600	-14.130	0.100
415.700	-14.414	0.100
415.800	-13.653	0.100
415.900	-13.283	0.100
416.000	-12.889	0.100
416.100	-11.277	0.100
416.200	-22.832	0.100
416.300	-17.692	0.100
416.400	-22.120	0.100
416.500	-15.849	0.100
416.600	-8.334	0.100
416.700	-7.830	0.100
416.800	-12.094	0.100
416.900	-16.430	0.100
417.000	-13.402	0.100
417.100	-11.044	0.100
417.200	-19.351	0.100
417.300	-15.767	0.100
417.400	-19.330	0.100
417.500	-13.763	0.100
417.600	-18.587	0.100
417.700	-18.413	0.100
417.800	-4.518	0.100
417.900	-9.836	0.100
418.000	-12.418	0.100
418.100	-13.863	0.100
418.200	-13.299	0.100
418.300	-17.119	0.100
418.400	-23.240	0.100
418.500	-21.944	0.100
418.600	-15.533	0.100
418.700	-17.820	0.100
418.800	-14.361	0.100
418.900	-12.285	0.100
419.000	-16.595	0.100
419.100	-12.580	0.100
419.200	-15.415	0.100
419.300	-11.350	0.100
419.400	-14.161	0.100
419.500	-17.056	0.100
419.600	-10.382	0.100
419.700	-12.050	0.100
419.800	-13.843	0.100
419.900	-16.534	0.100
420.000	-21.218	0.100
420.100	-18.284	0.100
420.200	-12.339	0.100
420.300	-15.794	0.100
420.400	-20.054	0.100
420.500	-15.152	0.100
420.600	-13.571	0.100
420.700	-14.143	0.100
420.800	-16.268	0.100
420.900	-15.240	0.100
421.000	-8.940	0.100
421.100	-22.855	0.100
421.200	-13.453	0.100
421.300	-8.166	0.100
421.400	-12.830	0.100
421.500	-19.639	0.100
421.600	-24.770	0.100
421.700	-19.443	0.100
421.800	-9.376	0.100
421.900	-12.072	0.100
422.000	-17.929	0.100
422.100	-13.911	0.100
422.200	-15.386	0.100
422.300	-15.752	0.100
422.400	-12.399	0.100
422.500	-16.931	0.100
422.600	-19.048	0.100
422.700	-12.705	0.100
422.800	-17.401	0.100
422.900	-19.848	0.100
423.000	-23.980	0.100
423.100	-21.482	0.100
423.200	-8.927	0.100
423.300	-24.145	0.100
423.400	-28.234	0.100
423.500	-6.796	0.100
423.600	-25.824	0.100
423.700	-18.442	0.100
423.800	-6.462	0.100
423.900	-16.543	0.100
424.000	-21.796	0.100
424.100	-22.787	0.100
424.200	-20.572	0.100
424.300	-13.121	0.100
424.400	-17.338	0.100
424.500	-18.626	0.100
424.600	-16.293	0.100
424.700	-17.173	0.100
424.800	-27.847	0.100
424.900	-19.642	0.100
425.000	-11.350	0.100
425.100	-21.486	0.100
425.200	-19.050	0.100
425.300	-10.712	0.100
425.400	-19.292	0.100
425.500	-13.214	0.100
425.600	-13.375	0.100
425.700	-11.520	0.100
425.800	-16.437	0.100
425.900	-15.206	0.100
426.000	-16.706	0.100
426.100	-17.129	0.100
426.200	-27.382	0.100
426.300	-28.040	0.100
426.400	-11.775	0.100
426.500	-22.822	0.100
426.600	-15.314	0.100
426.700	-16.948	0.100
426.800	-25.800	0.100
426.900	-15.925	0.100
427.000	-22.903	0.100
427.100	-12.969	0.100
427.200	-20.992	0.100
427.300	-19.619	0.100
427.400	-8.081	0.100
427.500	-21.342	0.100
427.600	-17.077	0.100
427.700	-17.511	0.100
427.800	-16.827	0.100
427.900	-14.186	0.100
428.000	-14.571	0.100
428.100	-14.780	0.100
428.200	-20.370	0.100
428.300	-20.565	0.100
428.400	-19.430	0.100
428.500	-17.577	0.100
428.600	-23.739	0.100
428.700	-17.908	0.100
428.800	-9.984	0.100
428.900	-11.319	0.100
429.000	-21.553	0.100
429.100	-18.208	0.100
429.200	-13.762	0.100
429.300	-18.222	0.100
429.400	-22.176	0.100
429.500	-15.011	0.100
429.600	-12.023	0.100
429.700	-21.208	0.100
429.800	-18.752	0.100
429.900	-22.391	0.100
430.000	-26.354	0.100
430.100	-10.766	0.100
430.200	-15.080	0.100
430.300	-18.574	0.100
430.400	-15.350	0.100
430.500	-23.350	0.100
430.600	-19.600	0.100
430.700	-21.792	0.100
430.800	-16.558	0.100
430.900	-14.550	0.100
431.000	-18.842	0.100
431.100	-6.707	0.100
431.200	-25.333	0.100
431.300	-19.709	0.100
431.400	-16.292	0.100
431.500	-12.952	0.100
431.600	-21.827	0.100
431.700	-18.432	0.100
431.800	-19.696	0.100
431.900	-20.401	0.100
432.000	-20.148	0.100
432.100	-15.251	0.100
432.200	-24.548	0.100
432.300	-18.047	0.100
432.400	-13.648	0.100
432.500	-13.236	0.100
432.600	-19.165	0.100
432.700	-17.027	0.100
432.800	-22.696	0.100
432.900	-16.600	0.100
433.000	-16.868	0.100
433.100	-8.218	0.100
433.200	-24.663	0.100
433.300	-13.371	0.100
433.400	-15.711	0.100
433.500	-22.029	0.100
433.600	-14.440	0.100
433.700	-15.470	0.100
433.800	-7.804	0.100
433.900	-16.046	0.100
434.000	-20.309	0.100
434.100	-16.356	0.100
434.200	-19.408	0.100
434.300	-16.636	0.100
434.400	-18.591	0.100
434.500	-21.288	0.100
434.600	-15.628	0.100
434.700	-19.970	0.100
434.800	-20.328	0.100
434.900	-15.874	0.100
435.000	-21.597	0.100
435.100	-22.272	0.100
435.200	-22.418	0.100
435.300	-20.850	0.100
435.400	-19.174	0.100
435.500	-22.415	0.100
435.600	-14.616	0.100
435.700	-13.563	0.100
435.800	-12.911	0.100
435.900	-5.157	0.100
436.000	-18.371	0.100
436.100	-18.621	0.100
436.200	-15.720	0.100
436.300	-26.808	0.100
436.400	-6.390	0.100
436.500	-17.537	0.100
436.600	-19.319	0.100
436.700	-15.048	0.100
436.800	-13.414	0.100
436.900	-20.369	0.100
437.000	-16.456	0.100
437.100	-11.687	0.100
437.200	-22.750	0.100
437.300	-19.398	0.100
437.400	-16.723	0.100
437.500	-29.163	0.100
437.600	-28.140	0.100
437.700	-10.521	0.100
437.800	-9.434	0.100
437.900	-24.288	0.100
438.000	-16.482	0.100
438.100	-4.244	0.100
438.200	-15.935	0.100
438.300	-19.377	0.100
438.400	-13.731	0.100
438.500	-10.617	0.100
438.600	-15.548	0.100
438.700	-14.809	0.100
438.800	-13.767	0.100
438.900	-23.228	0.100
439.000	-14.452	0.100
439.100	-22.187	0.100
439.200	-15.595	0.100
439.300	-20.692	0.100
439.400	-23.826	0.100
439.500	-18.357	0.100
439.600	-21.116	0.100
439.700	-23.131	0.100
439.800	-20.414	0.100
439.900	-7.744	0.100
440.000	-16.933	0.100
440.100	-18.798	0.100
440.200	-22.707	0.100
440.300	-17.491	0.100
440.400	-15.510	0.100
440.500	-15.502	0.100
440.600	-26.134	0.100
440.700	-15.695	0.100
440.800	-11.209	0.100
440.900	-16.150	0.100
441.000	-18.185	0.100
441.100	-11.821	0.100
441.200	-10.286	0.100
441.300	-20.749	0.100
441.400	-19.261	0.100
441.500	-20.056	0.100
441.600	-22.470	0.100
441.700	-19.467	0.100
441.800	-11.319	0.100
441.900	-14.121	0.100
442.000	-19.519	0.100
442.100	-15.656	0.100
442.200	-12.829	0.100
442.300	-17.439	0.100
442.400	-10.031	0.100
442.500	-21.508	0.100
442.600	-20.795	0.100
442.700	-8.173	0.100
442.800	-13.175	0.100
442.900	-9.099	0.100
443.000	-16.801	0.100
443.100	-19.962	0.100
443.200	-19.221	0.100
443.300	-20.975	0.100
443.400	-4.218	0.100
443.500	-8.404	0.100
443.600	-16.032	0.100
443.700	-21.491	0.100
443.800	-24.810	0.100
443.900	-18.964	0.100
444.000	-15.154	0.100
444.100	-10.859	0.100
444.200	-9.599	0.100
444.300	-22.955	0.100
444.400	-20.012	0.100
444.500	-18.157	0.100
444.600	-16.782	0.100
444.700	-16.574	0.100
444.800	-7.243	0.100
444.900	-14.884	0.100
445.000	-16.180	0.100
445.100	-15.164	0.100
445.200	-20.890	0.100
445.300	-18.555	0.100
445.400	-13.405	0.100
445.500	-23.064	0.100
445.600	-16.692	0.100
445.700	-15.804	0.100
445.800	-15.167	0.100
445.900	-9.332	0.100
446.000	-5.985	0.100
446.100	-12.497	0.100
446.200	-16.853	0.100
446.300	-10.322	0.100
446.400	-19.572	0.100
446.500	-18.152	0.100
446.600	-17.274	0.100
446.700	-19.436	0.100
446.800	-20.966	0.100
446.900	-13.898	0.100
447.000	-22.994	0.100
447.100	-20.728	0.100
447.200	-15.622	0.100
447.300	-16.689	0.100
447.400	-13.382	0.100
447.500	-12.776	0.100
447.600	-13.268	0.100
447.700	-21.064	0.100
447.800	-16.849	0.100
447.900	-19.562	0.100
448.000	-10.261	0.100
448.100	-18.724	0.100
448.200	-19.846	0.100
448.300	-21.355	0.100
448.400	-15.581	0.100
448.500	-18.628	0.100
448.600	-25.028	0.100
448.700	-21.171	0.100
448.800	-19.070	0.100
448.900	-12.977	0.100
449.000	-1.314	0.100
449.100	-16.697	0.100
449.200	-10.988	0.100
449.300	-21.329	0.100
449.400	-19.512	0.100
449.500	-15.312	0.100
449.600	-17.892	0.100
449.700	-11.955	0.100
449.800	-17.552	0.100
449.900	-13.569	0.100
450.000	-15.869	0.100
450.100	-18.932	0.100
450.200	-17.420	0.100
450.300	-10.642	0.100
450.400	-8.012	0.100
450.500	-9.596	0.100
450.600	-16.604	0.100
450.700	-20.516	0.100
450.800	-8.370	0.100
450.900	-16.818	0.100
451.000	-10.370	0.100
451.100	-16.185	0.100
451.200	-16.118	0.100
451.300	-17.311	0.100
451.400	-15.193	0.100
451.500	-23.497	0.100
451.600	-22.906	0.100
451.700	-14.072	0.100
451.800	-16.112	0.100
451.900	-14.397	0.100
452.000	-21.415	0.100
452.100	-11.760	0.100
452.200	-12.257	0.100
452.300	-5.935	0.100
452.400	-15.519	0.100
452.500	-11.850	0.100
452.600	-12.166	0.100
452.700	-13.345	0.100
452.800	-8.543	0.100
452.900	-17.361	0.100
453.000	-18.818	0.100
453.100	-18.049	0.100
453.200	-6.809	0.100
453.300	-16.548	0.100
453.400	-16.571	0.100
453.500	-12.438	0.100
453.600	-14.025	0.100
453.700	-15.479	0.100
453.800	-13.968	0.100
453.900	-20.703	0.100
454.000	-13.660	0.100
454.100	-12.383	0.100
454.200	-9.701	0.100
454.300	-15.351	0.100
454.400	-21.873	0.100
454.500	-11.304	0.100
454.600	-16.989	0.100
454.700	-16.187	0.100
454.800	-9.762	0.100
454.900	-18.536	0.100
455.000	-13.714	0.100
455.100	-23.137	0.100
455.200	-14.501	0.100
455.300	-2.559	0.100
455.400	-24.416	0.100
455.500	-11.344	0.100
455.600	-15.268	0.100
455.700	-24.953	0.100
455.800	-15.166	0.100
455.900	-16.879	0.100
456.000	-7.589	0.100
456.100	-17.096	0.100
456.200	-13.556	0.100
456.300	-6.644	0.100
456.400	-20.624	0.100
456.500	-16.891	0.100
456.600	-12.431	0.100
456.700	-20.000	0.100
456.800	-5.216	0.100
456.900	-24.663	0.100
457.000	-10.469	0.100
457.100	-25.051	0.100
457.200	-12.888	0.100
457.300	-14.680	0.100
457.400	-7.827	0.100
457.500	-15.910	0.100
457.600	-12.446	0.100
457.700	-7.610	0.100
457.800	-18.359	0.100
457.900	-25.026	0.100
458.000	-20.379	0.100
458.100	-19.411	0.100
458.200	-9.690	0.100
458.300	-9.870	0.100
458.400	-25.826	0.100
458.500	-14.828	0.100
458.600	-12.504	0.100
458.700	-11.763	0.100
458.800	-10.931	0.100
458.900	-20.178	0.100
459.000	-19.972	0.100
459.100	-19.917	0.100
459.200	-5.885	0.100
459.300	-7.636	0.100
459.400	-23.314	0.100
459.500	-17.148	0.100
459.600	-23.466	0.100
459.700	-11.190	0.100
459.800	-10.443	0.100
459.900	-10.101	0.100
460.000	-17.338	0.100
460.100	-17.554	0.100
460.200	-15.400	0.100
460.300	-11.705	0.100
460.400	-8.189	0.100
460.500	-32.066	0.100
460.600	-13.713	0.100
460.700	-11.440	0.100
460.800	-14.781	0.100
460.900	-19.608	0.100
461.000	-7.499	0.100
461.100	-15.927	0.100
461.200	-8.508	0.100
461.300	-14.467	0.100
461.400	-13.070	0.100
461.500	-16.345	0.100
461.600	-10.052	0.100
461.700	-14.099	0.100
461.800	-15.276	0.100
461.900	-9.962	0.100
462.000	-19.580	0.100
462.100	-12.157	0.100
462.200	-9.978	0.100
462.300	-15.921	0.100
462.400	-22.264	0.100
462.500	-15.976	0.100
462.600	-17.035	0.100
462.700	-19.606	0.100
462.800	-13.392	0.100
462.900	-12.473	0.100
463.000	-11.695	0.100
463.100	-12.274	0.100
463.200	-12.361	0.100
463.300	-16.045	0.100
463.400	-11.767	0.100
463.500	-21.158	0.100
463.600	-18.021	0.100
463.700	-17.801	0.100
463.800	-17.011	0.100
463.900	-24.736	0.100
464.000	-14.547	0.100
464.100	-5.593	0.100
464.200	-11.044	0.100
464.300	-13.076	0.100
464.400	-17.929	0.100
464.500	-17.609	0.100
464.600	-18.754	0.100
464.700	-10.457	0.100
464.800	-21.183	0.100
464.900	-8.047	0.100
465.000	-3.539	0.100
465.100	-15.051	0.100
465.200	-16.439	0.100
465.300	-7.713	0.100
465.400	-17.527	0.100
465.500	-21.090	0.100
465.600	-7.028	0.100
465.700	-16.625	0.100
465.800	-11.360	0.100
465.900	-14.388	0.100
466.000	-22.707	0.100
466.100	-17.245	0.100
466.200	-14.522	0.100
466.300	-16.787	0.100
466.400	-11.581	0.100
466.500	-11.121	0.100
466.600	-16.147	0.100
466.700	-15.939	0.100
466.800	-12.088	0.100
466.900	-4.828	0.100
467.000	-12.469	0.100
467.100	-13.614	0.100
467.200	-10.592	0.100
467.300	-12.082	0.100
467.400	-15.114	0.100
467.500	-16.526	0.100
467.600	-21.157	0.100
467.700	-11.200	0.100
467.800	-10.971	0.100
467.900	-15.623	0.100
468.000	-12.124	0.100
468.100	-4.197	0.100
468.200	-16.167	0.100
468.300	-20.400	0.100
468.400	-10.421	0.100
468.500	-24.742	0.100
468.600	-8.231	0.100
468.700	-4.452	0.100
468.800	-10.577	0.100
468.900	-15.029	0.100
469.000	-10.361	0.100
469.100	-18.641	0.100
469.200	-10.092	0.100
469.300	-17.891	0.100
469.400	-9.611	0.100
469.500	-12.836	0.100
469.600	-15.412	0.100
469.700	-12.126	0.100
469.800	-10.817	0.100
469.900	-8.901	0.100
470.000	-9.213	0.100
470.100	-20.159	0.100
470.200	-16.774	0.100
470.300	-13.586	0.100
470.400	-8.002	0.100
470.500	-14.536	0.100
470.600	-12.888	0.100
470.700	-13.566	0.100
470.800	-10.497	0.100
470.900	-18.795	0.100
471.000	-16.021	0.100
471.100	-6.390	0.100
471.200	-12.809	0.100
471.300	-11.699	0.100
471.400	-10.892	0.100
471.500	-18.394	0.100
471.600	-12.127	0.100
471.700	-17.528	0.100
471.800	-14.175	0.100
471.900	-17.404	0.100
472.000	-16.995	0.100
472.100	-11.333	0.100
472.200	-7.570	0.100
472.300	-14.936	0.100
472.400	-4.057	0.100
472.500	-12.352	0.100
472.600	-23.414	0.100
472.700	-21.667	0.100
472.800	-10.954	0.100
472.900	-12.695	0.100
473.000	-13.305	0.100
473.100	-10.031	0.100
473.200	-14.093	0.100
473.300	-9.443	0.100
473.400	-13.977	0.100
473.500	-12.103	0.100
473.600	-10.839	0.100
473.700	-15.953	0.100
473.800	-15.476	0.100
473.900	-12.234	0.100
474.000	-13.756	0.100
474.100	-14.192	0.100
474.200	-13.746	0.100
474.300	-17.913	0.100
474.400	-8.970	0.100
474.500	-15.032	0.100
474.600	-9.143	0.100
474.700	-17.250	0.100
474.800	-16.403	0.100
474.900	-10.901	0.100
475.000	-8.206	0.100
475.100	-12.152	0.100
475.200	-7.672	0.100
475.300	-13.493	0.100
475.400	-16.316	0.100
475.500	-10.531	0.100
475.600	-8.623	0.100
475.700	-14.854	0.100
475.800	-7.581	0.100
475.900	-24.117	0.100
476.000	-3.734	0.100
476.100	-10.191	0.100
476.200	-18.795	0.100
476.300	-15.007	0.100
476.400	-12.018	0.100
476.500	-3.793	0.100
476.600	-9.283	0.100
476.700	-19.181	0.100
476.800	-17.345	0.100
476.900	-18.593	0.100
477.000	-12.536	0.100
477.100	-10.831	0.100
477.200	-11.315	0.100
477.300	-18.086	0.100
477.400	-10.318	0.100
477.500	-14.319	0.100
477.600	-6.739	0.100
477.700	-11.758	0.100
477.800	-17.748	0.100
477.900	-11.589	0.100
478.000	-12.259	0.100
478.100	-13.779	0.100
478.200	-14.067	0.100
478.300	-5.933	0.100
478.400	-13.851	0.100
478.500	-16.701	0.100
478.600	-10.067	0.100
478.700	-10.036	0.100
478.800	-17.874	0.100
478.900	-13.686	0.100
479.000	-21.197	0.100
479.100	-10.767	0.100
479.200	-13.241	0.100
479.300	-14.859	0.100
479.400	-15.904	0.100
479.500	-10.889	0.100
479.600	-20.915	0.100
479.700	-12.351	0.100
479.800	-15.690	0.100
479.900	-6.353	0.100
480.000	-11.301	0.100
480.100	-14.693	0.100
480.200	-11.500	0.100
480.300	-11.753	0.100
480.400	-11.630	0.100
480.500	-12.525	0.100
480.600	-10.795	0.100
480.700	-0.234	0.100
480.800	2.048	0.100
480.900	-5.320	0.100
481.000	-5.586	0.100
481.100	7.044	0.100
481.200	9.470	0.100
481.300	14.889	0.100
481.400	11.739	0.100
481.500	15.585	0.100
481.600	3.225	0.100
481.700	21.103	0.100
481.800	25.042	0.100
481.900	23.439	0.100
482.000	20.740	0.100
482.100	18.087	0.100
482.200	16.786	0.100
482.300	18.980	0.100
482.400	23.012	0.100
482.500	23.720	0.100
482.600	15.634	0.100
482.700	13.526	0.100
482.800	27.099	0.100
482.900	17.566	0.100
483.000	15.714	0.100
483.100	22.317	0.100
483.200	16.803	0.100
483.300	22.840	0.100
483.400	9.535	0.100
483.500	12.656	0.100
483.600	14.658	0.100
483.700	17.949	0.100
483.800	18.265	0.100
483.900	20.833	0.100
484.000	15.836	0.100
484.100	16.280	0.100
484.200	9.964	0.100
484.300	24.020	0.100
484.400	19.966	0.100
484.500	21.310	0.100
484.600	19.450	0.100
484.700	11.079	0.100
484.800	13.612	0.100
484.900	18.267	0.100
485.000	16.097	0.100
485.100	18.649	0.100
485.200	15.307	0.100
485.300	12.018	0.100
485.400	19.842	0.100
485.500	17.277	0.100
485.600	6.124	0.100
485.700	13.318	0.100
485.800	17.624	0.100
485.900	19.294	0.100
486.000	13.554	0.100
486.100	16.560	0.100
486.200	18.851	0.100
486.300	15.100	0.100
486.400	9.171	0.100
486.500	8.681	0.100
486.600	0.937	0.100
486.700	17.687	0.100
486.800	21.665	0.100
486.900	13.344	0.100
487.000	11.006	0.100
487.100	11.370	0.100
487.200	17.339	0.100
487.300	17.097	0.100
487.400	0.168	0.100
487.500	9.468	0.100
487.600	9.264	0.100
487.700	20.997	0.100
487.800	15.904	0.100
487.900	5.824	0.100
488.000	12.027	0.100
488.100	15.385	0.100
488.200	15.211	0.100
488.300	12.502	0.100
488.400	11.839	0.100
488.500	8.554	0.100
488.600	17.256	0.100
488.700	9.208	0.100
488.800	14.495	0.100
488.900	12.342	0.100
489.000	5.919	0.100
489.100	2.493	0.100
489.200	17.585	0.100
489.300	16.765	0.100
489.400	14.706	0.100
489.500	12.742	0.100
489.600	14.758	0.100
489.700	12.110	0.100
489.800	7.356	0.100
489.900	15.026	0.100
490.000	17.397	0.100
490.100	15.984	0.100
490.200	15.267	0.100
490.300	17.541	0.100
490.400	13.539	0.100
490.500	13.468	0.100
490.600	16.330	0.100
490.700	6.170	0.100
490.800	8.664	0.100
490.900	16.135	0.100
491.000	5.781	0.100
491.100	21.580	0.100
491.200	11.677	0.100
491.300	18.053	0.100
491.400	16.811	0.100
491.500	17.211	0.100
491.600	13.533	0.100
491.700	11.928	0.100
491.800	22.698	0.100
491.900	13.730	0.100
492.000	11.956	0.100
492.100	21.136	0.100
492.200	20.942	0.100
492.300	26.458	0.100
492.400	16.488	0.100
492.500	18.337	0.100
492.600	15.292	0.100
492.700	20.547	0.100
492.800	21.958	0.100
492.900	20.277	0.100
493.000	19.659	0.100
493.100	13.996	0.100
493.200	16.265	0.100
493.300	2.593	0.100
493.400	12.766	0.100
493.500	23.891	0.100
493.600	13.480	0.100
493.700	10.955	0.100
493.800	20.798	0.100
493.900	23.880	0.100
494.000	13.521	0.100
494.100	19.556	0.100
494.200	22.440	0.100
494.300	25.186	0.100
494.400	16.317	0.100
494.500	16.614	0.100
494.600	25.690	0.100
494.700	10.411	0.100
494.800	23.143	0.100
494.900	22.179	0.100
495.000	17.277	0.100
495.100	28.918	0.100
495.200	27.381	0.100
495.300	18.145	0.100
495.400	24.273	0.100
495.500	23.431	0.100
495.600	20.868	0.100
495.700	26.139	0.100
495.800	18.771	0.100
495.900	23.210	0.100
496.000	17.690	0.100
496.100	17.351	0.100
496.200	30.515	0.100
496.300	23.278	0.100
496.400	26.471	0.100
496.500	35.884	0.100
496.600	22.703	0.100
496.700	19.965	0.100
496.800	20.604	0.100
496.900	21.510	0.100
497.000	25.392	0.100
497.100	20.384	0.100
497.200	18.925	0.100
497.300	25.720	0.100
497.400	16.226	0.100
497.500	26.877	0.100
497.600	21.773	0.100
497.700	26.820	0.100
497.800	19.623	0.100
497.900	17.606	0.100
498.000	19.923	0.100
498.100	35.224	0.100
498.200	27.941	0.100
498.300	29.049	0.100
498.400	25.235	0.100
498.500	24.179	0.100
498.600	25.794	0.100
498.700	22.611	0.100
498.800	30.445	0.100
498.900	23.922	0.100
499.000	25.787	0.100
499.100	27.228	0.100
499.200	27.808	0.100
499.300	26.694	0.100
499.400	20.986	0.100
499.500	25.398	0.100
499.600	30.244	0.100
499.700	30.257	0.100
499.800	27.635	0.100
499.900	23.383	0.100
500.000	37.512	0.100
500.100	29.970	0.100
500.200	29.211	0.100
500.300	26.203	0.100
500.400	23.439	0.100
500.500	36.700	0.100
500.600	21.288	0.100
500.700	34.809	0.100
500.800	24.557	0.100
500.900	18.147	0.100
501.000	28.770	0.100
501.100	37.225	0.100
501.200	36.988	0.100
501.300	23.503	0.100
501.400	26.247	0.100
501.500	29.335	0.100
501.600	30.342	0.100
501.700	20.095	0.100
501.800	34.254	0.100
501.900	36.553	0.100
502.000	36.171	0.100
502.100	26.329	0.100
502.200	27.150	0.100
502.300	28.948	0.100
502.400	37.778	0.100
502.500	36.809	0.100
502.600	21.916	0.100
502.700	30.353	0.100
502.800	40.374	0.100
502.900	32.903	0.100
503.000	32.169	0.100
503.100	32.815	0.100
503.200	23.848	0.100
503.300	27.561	0.100
503.400	33.826	0.100
503.500	31.311	0.100
503.600	32.552	0.100
503.700	31.554	0.100
503.800	28.353	0.100
503.900	28.977	0.100
504.000	31.145	0.100
504.100	27.605	0.100
504.200	41.023	0.100
504.300	31.813	0.100
504.400	32.445	0.100
504.500	32.968	0.100
504.600	33.129	0.100
504.700	32.329	0.100
504.800	33.151	0.100
504.900	32.161	0.100
505.000	35.821	0.100
505.100	35.545	0.100
505.200	28.893	0.100
505.300	29.657	0.100
505.400	39.348	0.100
505.500	40.429	0.100
505.600	33.190	0.100
505.700	32.436	0.100
505.800	29.647	0.100
505.900	23.290	0.100
506.000	23.012	0.100
506.100	37.588	0.100
506.200	37.516	0.100
506.300	31.876	0.100
506.400	30.414	0.100
506.500	29.677	0.100
506.600	30.319	0.100
506.700	28.642	0.100
506.800	28.775	0.100
506.900	22.182	0.100
507.000	30.007	0.100
507.100	33.479	0.100
507.200	32.670	0.100
507.300	31.103	0.100
507.400	41.104	0.100
507.500	31.640	0.100
507.600	32.282	0.100
507.700	32.809	0.100
507.800	27.698	0.100
507.900	27.914	0.100
508.000	33.405	0.100
508.100	30.979	0.100
508.200	25.618	0.100
508.300	33.874	0.100
508.400	30.788	0.100
508.500	47.833	0.100
508.600	33.329	0.100
508.700	35.739	0.100
508.800	27.610	0.100
508.900	34.507	0.100
509.000	37.701	0.100
509.100	30.720	0.100
509.200	36.015	0.100
509.300	23.233	0.100
509.400	30.761	0.100
509.500	38.496	0.100
509.600	35.442	0.100
509.700	31.972	0.100
509.800	25.690	0.100
509.900	32.813	0.100
510.000	36.709	0.100
510.100	26.689	0.100
510.200	31.655	0.100
510.300	35.557	0.100
510.400	32.220	0.100
510.500	33.228	0.100
510.600	36.655	0.100
510.700	35.089	0.100
510.800	33.684	0.100
510.900	32.589	0.100
511.000	35.293	0.100
511.100	27.422	0.100
511.200	35.158	0.100
511.300	26.250	0.100
511.400	43.093	0.100
511.500	35.414	0.100
511.600	36.322	0.100
511.700	35.581	0.100
511.800	24.956	0.100
511.900	30.552	0.100
512.000	30.555	0.100
512.100	36.515	0.100
512.200	31.745	0.100
512.300	37.732	0.100
512.400	34.144	0.100
512.500	33.963	0.100
512.600	29.445	0.100
512.700	30.969	0.100
512.800	33.986	0.100
512.900	43.940	0.100
513.000	34.838	0.100
513.100	27.573	0.100
513.200	27.595	0.100
513.300	45.732	0.100
513.400	36.876	0.100
513.500	37.013	0.100
513.600	30.648	0.100
513.700	37.466	0.100
513.800	36.993	0.100
513.900	30.343	0.100
514.000	29.982	0.100
514.100	26.964	0.100
514.200	32.816	0.100
514.300	32.444	0.100
514.400	27.769	0.100
514.500	31.120	0.100
514.600	31.665	0.100
514.700	31.985	0.100
514.800	27.800	0.100
514.900	32.677	0.100
515.000	32.181	0.100
515.100	41.183	0.100
515.200	37.979	0.100
515.300	28.972	0.100
515.400	35.587	0.100
515.500	36.744	0.100
515.600	31.813	0.100
515.700	24.636	0.100
515.800	30.708	0.100
515.900	40.325	0.100
516.000	28.781	0.100
516.100	38.329	0.100
516.200	32.705	0.100
516.300	35.636	0.100
516.400	27.128	0.100
516.500	32.506	0.100
516.600	26.829	0.100
516.700	27.299	0.100
516.800	33.122	0.100
516.900	36.437	0.100
517.000	33.047	0.100
517.100	37.577	0.100
517.200	34.321	0.100
517.300	26.597	0.100
517.400	31.143	0.100
517.500	37.578	0.100
517.600	30.971	0.100
517.700	30.449	0.100
517.800	29.400	0.100
517.900	31.839	0.100
518.000	30.316	0.100
518.100	33.720	0.100
518.200	29.833	0.100
518.300	36.755	0.100
518.400	34.043	0.100
518.500	37.754	0.100
518.600	31.077	0.100
518.700	29.934	0.100
518.800	27.460	0.100
518.900	28.638	0.100
519.000	24.642	0.100
519.100	31.062	0.100
519.200	27.587	0.100
519.300	22.230	0.100
519.400	39.923	0.100
519.500	30.121	0.100
519.600	34.119	0.100
519.700	37.808	0.100
519.800	31.133	0.100
519.900	30.738	0.100
520.000	34.581	0.100
520.100	32.776	0.100
520.200	30.394	0.100
520.300	37.087	0.100
520.400	27.502	0.100
520.500	35.338	0.100
520.600	32.329	0.100
520.700	29.148	0.100
520.800	28.631	0.100
520.900	28.394	0.100
521.000	29.830	0.100
521.100	36.436	0.100
521.200	33.580	0.100
521.300	35.145	0.100
521.400	29.656	0.100
521.500	18.088	0.100
521.600	22.447	0.100
521.700	37.893	0.100
521.800	40.124	0.100
521.900	27.542	0.100
522.000	28.214	0.100
522.100	26.461	0.100
522.200	30.030	0.100
522.300	37.898	0.100
522.400	32.502	0.100
522.500	36.528	0.100
522.600	24.062	0.100
522.700	26.869	0.100
522.800	36.543	0.100
522.900	36.362	0.100
523.000	37.262	0.100
523.100	34.604	0.100
523.200	35.493	0.100
523.300	30.463	0.100
523.400	32.002	0.100
523.500	21.443	0.100
523.600	35.194	0.100
523.700	38.879	0.100
523.800	23.514	0.100
523.900	37.476	0.100
524.000	24.521	0.100
524.100	32.576	0.100
524.200	32.745	0.100
524.300	28.622	0.100
524.400	31.935	0.100
524.500	30.808	0.100
524.600	27.473	0.100
524.700	25.274	0.100
524.800	34.017	0.100
524.900	34.301	0.100
525.000	36.350	0.100
525.100	33.498	0.100
525.200	41.013	0.100
525.300	30.045	0.100
525.400	32.614	0.100
525.500	32.207	0.100
525.600	25.069	0.100
525.700	34.181	0.100
525.800	26.292	0.100
525.900	33.768	0.100
526.000	22.641	0.100
526.100	34.132	0.100
526.200	35.414	0.100
526.300	27.833	0.100
526.400	31.693	0.100
526.500	34.737	0.100
526.600	35.354	0.100
526.700	29.633	0.100
526.800	31.190	0.100
526.900	35.157	0.100
527.000	29.473	0.100
527.100	29.301	0.100
527.200	35.795	0.100
527.300	35.824	0.100
527.400	34.967	0.100
527.500	29.849	0.100
527.600	27.651	0.100
527.700	24.286	0.100
527.800	35.062	0.100
527.900	36.327	0.100
528.000	33.439	0.100
528.100	29.662	0.100
528.200	31.532	0.100
528.300	36.812	0.100
528.400	31.891	0.100
528.500	26.026	0.100
528.600	29.137	0.100
528.700	27.345	0.100
528.800	34.021	0.100
528.900	34.289	0.100
529.000	29.588	0.100
529.100	30.607	0.100
529.200	36.612	0.100
529.300	28.702	0.100
529.400	36.202	0.100
529.500	27.680	0.100
529.600	32.785	0.100
529.700	25.902	0.100
529.800	27.739	0.100
529.900	34.081	0.100
530.000	23.507	0.100
530.100	31.348	0.100
530.200	34.547	0.100
530.300	33.845	0.100
530.400	30.608	0.100
530.500	24.942	0.100
530.600	35.026	0.100
530.700	28.908	0.100
530.800	34.065	0.100
530.900	36.925	0.100
531.000	30.591	0.100
531.100	20.719	0.100
531.200	29.825	0.100
531.300	31.953	0.100
531.400	25.938	0.100
531.500	24.906	0.100
531.600	30.613	0.100
531.700	24.446	0.100
531.800	36.152	0.100
531.900	38.076	0.100
532.000	28.122	0.100
532.100	31.581	0.100
532.200	29.218	0.100
532.300	26.501	0.100
532.400	23.609	0.100
532.500	32.390	0.100
532.600	30.360	0.100
532.700	32.968	0.100
532.800	30.664	0.100
532.900	36.878	0.100
533.000	43.730	0.100
533.100	27.139	0.100
533.200	37.662	0.100
533.300	26.746	0.100
533.400	32.049	0.100
533.500	35.039	0.100
533.600	32.800	0.100
533.700	27.086	0.100
533.800	29.805	0.100
533.900	31.122	0.100
534.000	29.187	0.100
534.100	37.585	0.100
534.200	29.976	0.100
534.300	32.261	0.100
534.400	31.754	0.100
534.500	36.932	0.100
534.600	29.016	0.100
534.700	29.811	0.100
534.800	32.541	0.100
534.900	28.593	0.100
535.000	27.693	0.100
535.100	27.150	0.100
535.200	28.831	0.100
535.300	32.317	0.100
535.400	33.646	0.100
535.500	32.493	0.100
535.600	27.241	0.100
535.700	29.989	0.100
535.800	28.413	0.100
535.900	31.316	0.100
536.000	33.388	0.100
536.100	28.101	0.100
536.200	29.737	0.100
536.300	31.713	0.100
536.400	32.984	0.100
536.500	28.037	0.100
536.600	24.411	0.100
536.700	26.618	0.100
536.800	34.499	0.100
536.900	27.415	0.100
537.000	33.576	0.100
537.100	23.676	0.100
537.200	32.161	0.100
537.300	39.791	0.100
537.400	25.272	0.100
537.500	31.790	0.100
537.600	36.522	0.100
537.700	34.944	0.100
537.800	33.407	0.100
537.900	29.420	0.100
538.000	26.233	0.100
538.100	26.956	0.100
538.200	25.559	0.100
538.300	28.423	0.100
538.400	30.688	0.100
538.500	33.334	0.100
538.600	38.058	0.100
538.700	33.826	0.100
538.800	28.894	0.100
538.900	33.095	0.100
539.000	33.342	0.100
539.100	26.409	0.100
539.200	31.774	0.100
539.300	28.630	0.100
539.400	22.440	0.100
539.500	32.941	0.100
539.600	27.458	0.100
539.700	28.566	0.100
539.800	41.345	0.100
539.900	25.767	0.100
540.000	31.587	0.100
540.100	33.912	0.100
540.200	34.399	0.100
540.300	33.118	0.100
540.400	22.379	0.100
540.500	31.359	0.100
540.600	30.597	0.100
540.700	6.205	0.100
540.800	16.879	0.100
540.900	9.308	0.100
541.000	25.215	0.100
541.100	8.462	0.100
541.200	7.796	0.100
541.300	-2.076	0.100
541.400	1.966	0.100
541.500	3.446	0.100
541.600	0.164	0.100
541.700	-0.068	0.100
541.800	-2.807	0.100
541.900	-9.583	0.100
542.000	-4.464	0.100
542.100	2.527	0.100
542.200	-4.252	0.100
542.300	-8.872	0.100
542.400	-6.433	0.100
542.500	-7.900	0.100
542.600	-7.514	0.100
542.700	-2.581	0.100
542.800	-7.522	0.100
542.900	-12.563	0.100
543.000	-10.613	0.100
543.100	-0.710	0.100
543.200	-7.008	0.100
543.300	-18.518	0.100
543.400	-12.535	0.100
543.500	-14.414	0.100
543.600	-8.064	0.100
543.700	-14.360	0.100
543.800	-11.360	0.100
543.900	-7.880	0.100
544.000	-5.651	0.100
544.100	-13.413	0.100
544.200	-15.050	0.100
544.300	-16.324	0.100
544.400	-14.908	0.100
544.500	-9.514	0.100
544.600	-11.144	0.100
544.700	-0.961	0.100
544.800	-9.096	0.100
544.900	-2.820	0.100
545.000	-6.269	0.100
545.100	-5.681	0.100
545.200	-7.375	0.100
545.300	-9.815	0.100
545.400	-4.044	0.100
545.500	-8.399	0.100
545.600	-7.344	0.100
545.700	-19.622	0.100
545.800	-13.293	0.100
545.900	-7.167	0.100
546.000	-1.011	0.100
546.100	-4.460	0.100
546.200	-17.291	0.100
546.300	-11.841	0.100
546.400	-8.596	0.100
546.500	-15.193	0.100
546.600	-10.326	0.100
546.700	-7.318	0.100
546.800	-11.343	0.100
546.900	-5.767	0.100
547.000	-10.164	0.100
547.100	-10.866	0.100
547.200	-8.161	0.100
547.300	-9.455	0.100
547.400	-13.973	0.100
547.500	-12.761	0.100
547.600	-3.672	0.100
547.700	-4.581	0.100
547.800	-13.893	0.100
547.900	-7.607	0.100
548.000	-7.965	0.100
548.100	-0.975	0.100
548.200	-14.273	0.100
548.300	-14.208	0.100
548.400	-16.550	0.100
548.500	-0.082	0.100
548.600	-0.637	0.100
548.700	-10.150	0.100
548.800	-6.037	0.100
548.900	-15.162	0.100
549.000	-5.762	0.100
549.100	-5.157	0.100
549.200	-11.957	0.100
549.300	-9.023	0.100
549.400	-20.161	0.100
549.500	-6.101	0.100
549.600	-2.067	0.100
549.700	-8.834	0.100
549.800	-13.195	0.100
549.900	-3.990	0.100
550.000	-9.518	0.100
550.100	-6.969	0.100
550.200	-5.333	0.100
550.300	2.142	0.100
550.400	-9.220	0.100
550.500	-22.039	0.100
550.600	-7.983	0.100
550.700	-9.015	0.100
550.800	-7.817	0.100
550.900	-12.311	0.100
551.000	-3.725	0.100
551.100	-10.460	0.100
551.200	-23.518	0.100
551.300	-10.038	0.100
551.400	4.234	0.100
551.500	-16.119	0.100
551.600	-3.223	0.100
551.700	-12.314	0.100
551.800	-12.139	0.100
551.900	-1.420	0.100
552.000	-14.215	0.100
552.100	-12.869	0.100
552.200	-7.698	0.100
552.300	-1.944	0.100
552.400	-11.428	0.100
552.500	-7.350	0.100
552.600	-13.624	0.100
552.700	-8.168	0.100
552.800	-13.533	0.100
552.900	-7.922	0.100
553.000	-7.990	0.100
553.100	-12.737	0.100
553.200	-4.458	0.100
553.300	-21.783	0.100
553.400	-7.071	0.100
553.500	-7.172	0.100
553.600	-9.144	0.100
553.700	-11.225	0.100
553.800	-10.960	0.100
553.900	-9.689	0.100
554.000	-7.833	0.100
554.100	-5.075	0.100
554.200	-5.588	0.100
554.300	-12.146	0.100
554.400	-9.460	0.100
554.500	0.292	0.100
554.600	-7.844	0.100
554.700	-7.354	0.100
554.800	-12.331	0.100
554.900	-11.871	0.100
555.000	-12.725	0.100
555.100	-17.516	0.100
555.200	-4.390	0.100
555.300	-4.031	0.100
555.400	-12.060	0.100
555.500	-11.775	0.100
555.600	-8.666	0.100
555.700	-11.716	0.100
555.800	-17.285	0.100
555.900	-5.648	0.100
556.000	-11.136	0.100
556.100	-13.247	0.100
556.200	-11.117	0.100
556.300	-14.185	0.100
556.400	-13.743	0.100
556.500	-12.646	0.100
556.600	-15.767	0.100
556.700	-10.170	0.100
556.800	-9.783	0.100
556.900	-8.679	0.100
557.000	-13.324	0.100
557.100	-7.106	0.100
557.200	-21.854	0.100
557.300	-18.227	0.100
557.400	-10.264	0.100
557.500	-11.088	0.100
557.600	-19.215	0.100
557.700	-10.218	0.100
557.800	-13.813	0.100
557.900	1.354	0.100
558.000	-9.018	0.100
558.100	-4.649	0.100
558.200	-15.229	0.100
558.300	-5.253	0.100
558.400	-9.818	0.100
558.500	-11.631	0.100
558.600	-10.809	0.100
558.700	-14.054	0.100
558.800	-11.877	0.100
558.900	-16.778	0.100
559.000	-14.141	0.100
559.100	-21.428	0.100
559.200	-14.568	0.100
559.300	-3.922	0.100
559.400	-8.955	0.100
559.500	-13.889	0.100
559.600	-14.458	0.100
559.700	-10.664	0.100
559.800	-10.274	0.100
559.900	-8.792	0.100
560.000	-11.562	0.100
560.100	-13.003	0.100
560.200	-12.512	0.100
560.300	-21.652	0.100
560.400	-15.209	0.100
560.500	-11.726	0.100
560.600	-19.843	0.100
560.700	-14.901	0.100
560.800	-14.269	0.100
560.900	-6.031	0.100
561.000	-14.584	0.100
561.100	-14.735	0.100
561.200	-16.964	0.100
561.300	-16.893	0.100
561.400	-10.477	0.100
561.500	-20.184	0.100
561.600	-6.742	0.100
561.700	-11.377	0.100
561.800	-4.130	0.100
561.900	-13.031	0.100
562.000	-23.226	0.100
562.100	-11.203	0.100
562.200	-27.077	0.100
562.300	-14.909	0.100
562.400	-5.039	0.100
562.500	-14.798	0.100
562.600	-7.848	0.100
562.700	-10.534	0.100
562.800	-10.893	0.100
562.900	-16.454	0.100
563.000	-9.810	0.100
563.100	-14.168	0.100
563.200	-14.924	0.100
563.300	-18.725	0.100
563.400	-19.626	0.100
563.500	-5.454	0.100
563.600	-16.374	0.100
563.700	-9.648	0.100
563.800	-16.639	0.100
563.900	-13.864	0.100
564.000	-25.629	0.100
564.100	-18.594	0.100
564.200	-14.165	0.100
564.300	-13.017	0.100
564.400	-16.955	0.100
564.500	-16.831	0.100
564.600	-14.024	0.100
564.700	-21.325	0.100
564.800	-21.504	0.100
564.900	-10.269	0.100
565.000	-18.824	0.100
565.100	-16.158	0.100
565.200	-9.589	0.100
565.300	-18.480	0.100
565.400	-18.375	0.100
565.500	-0.063	0.100
565.600	-11.731	0.100
565.700	-20.118	0.100
565.800	-16.913	0.100
565.900	-22.207	0.100
566.000	-13.281	0.100
566.100	-22.698	0.100
566.200	-14.988	0.100
566.300	-16.920	0.100
566.400	-6.562	0.100
566.500	-13.000	0.100
566.600	-12.127	0.100
566.700	-18.564	0.100
566.800	-18.439	0.100
566.900	-11.755	0.100
567.000	-17.433	0.100
567.100	-19.110	0.100
567.200	-6.583	0.100
567.300	-14.374	0.100
567.400	-22.961	0.100
567.500	-28.669	0.100
567.600	-6.983	0.100
567.700	-14.633	0.100
567.800	-10.388	0.100
567.900	-19.131	0.100
568.000	-19.463	0.100
568.100	-13.664	0.100
568.200	-18.155	0.100
568.300	-19.425	0.100
568.400	-16.206	0.100
568.500	-13.949	0.100
568.600	-20.910	0.100
568.700	-20.510	0.100
568.800	-19.676	0.100
568.900	-30.157	0.100
569.000	-16.894	0.100
569.100	-9.361	0.100
569.200	-11.335	0.100
569.300	-18.641	0.100
569.400	-20.848	0.100
569.500	-10.874	0.100
569.600	-17.430	0.100
569.700	-18.562	0.100
569.800	-18.213	0.100
569.900	-13.241	0.100
570.000	-13.514	0.100
570.100	-23.222	0.100
570.200	-22.471	0.100
570.300	-18.911	0.100
570.400	-17.296	0.100
570.500	-19.427	0.100
570.600	-12.818	0.100
570.700	-5.352	0.100
570.800	-24.945	0.100
570.900	-18.702	0.100
571.000	-16.905	0.100
571.100	-22.569	0.100
571.200	-22.658	0.100
571.300	-18.011	0.100
571.400	-11.731	0.100
571.500	-18.188	0.100
571.600	-13.401	0.100
571.700	-20.018	0.100
571.800	-16.410	0.100
571.900	-20.396	0.100
572.000	-13.953	0.100
572.100	-14.837	0.100
572.200	-18.588	0.100
572.300	-23.163	0.100
572.400	-21.970	0.100
572.500	-18.789	0.100
572.600	-20.657	0.100
572.700	-9.093	0.100
572.800	-16.726	0.100
572.900	-28.862	0.100
573.000	-25.726	0.100
573.100	-10.994	0.100
573.200	-22.753	0.100
573.300	-28.668	0.100
573.400	-19.011	0.100
573.500	-10.599	0.100
573.600	-21.766	0.100
573.700	-26.815	0.100
573.800	-17.225	0.100
573.900	-18.310	0.100
574.000	-17.160	0.100
574.100	-21.007	0.100
574.200	-27.824	0.100
574.300	-7.058	0.100
574.400	-18.843	0.100
574.500	-12.268	0.100
574.600	-14.739	0.100
574.700	-26.438	0.100
574.800	-15.177	0.100
574.900	-18.139	0.100
575.000	-18.565	0.100
575.100	-24.293	0.100
575.200	-25.213	0.100
575.300	-15.156	0.100
575.400	-14.226	0.100
575.500	-23.556	0.100
575.600	-14.179	0.100
575.700	-20.294	0.100
575.800	-16.082	0.100
575.900	-24.681	0.100
576.000	-21.065	0.100
576.100	-15.857	0.100
576.200	-14.902	0.100
576.300	-21.758	0.100
576.400	-26.312	0.100
576.500	-13.947	0.100
576.600	-17.484	0.100
576.700	-19.411	0.100
576.800	-16.466	0.100
576.900	-14.684	0.100
577.000	-15.004	0.100
577.100	-10.767	0.100
577.200	-27.463	0.100
577.300	-17.327	0.100
577.400	-20.687	0.100
577.500	-21.023	0.100
577.600	-21.678	0.100
577.700	-14.949	0.100
577.800	-21.960	0.100
577.900	-19.863	0.100
578.000	-13.950	0.100
578.100	-20.140	0.100
578.200	-20.574	0.100
578.300	-20.231	0.100
578.400	-15.642	0.100
578.500	-19.017	0.100
578.600	-21.595	0.100
578.700	-20.575	0.100
578.800	-26.751	0.100
578.900	-21.028	0.100
579.000	-19.609	0.100
579.100	-18.848	0.100
579.200	-18.442	0.100
579.300	-13.023	0.100
579.400	-14.317	0.100
579.500	-17.665	0.100
579.600	-19.403	0.100
579.700	-18.549	0.100
579.800	-19.907	0.100
579.900	-22.231	0.100
580.000	-23.210	0.100
580.100	-20.687	0.100
580.200	-21.945	0.100
580.300	-21.240	0.100
580.400	-20.653	0.100
580.500	-19.661	0.100
580.600	-19.107	0.100
580.700	-13.304	0.100
580.800	-13.721	0.100
580.900	-21.735	0.100
581.000	-14.731	0.100
581.100	-28.838	0.100
581.200	-12.340	0.100
581.300	-18.982	0.100
581.400	-20.640	0.100
581.500	-23.690	0.100
581.600	-20.625	0.100
581.700	-15.831	0.100
581.800	-21.768	0.100
581.900	-23.104	0.100
582.000	-19.764	0.100
582.100	-18.517	0.100
582.200	-20.763	0.100
582.300	-17.772	0.100
582.400	-22.807	0.100
582.500	-15.975	0.100
582.600	-20.254	0.100
582.700	-14.393	0.100
582.800	-19.019	0.100
582.900	-29.158	0.100
583.000	-19.220	0.100
583.100	-22.844	0.100
583.200	-17.364	0.100
583.300	-16.793	0.100
583.400	-23.993	0.100
583.500	-10.744	0.100
583.600	-20.473	0.100
583.700	-23.545	0.100
583.800	-20.228	0.100
583.900	-20.185	0.100
584.000	-11.227	0.100
584.100	-21.364	0.100
584.200	-15.433	0.100
584.300	-21.179	0.100
584.400	-13.956	0.100
584.500	-19.718	0.100
584.600	-22.179	0.100
584.700	-26.256	0.100
584.800	-20.319	0.100
584.900	-22.975	0.100
585.000	-21.360	0.100
585.100	-14.153	0.100
585.200	-19.029	0.100
585.300	-24.625	0.100
585.400	-8.711	0.100
585.500	-26.694	0.100
585.600	-16.925	0.100
585.700	-16.882	0.100
585.800	-19.103	0.100
585.900	-14.078	0.100
586.000	-12.908	0.100
586.100	-8.043	0.100
586.200	-21.423	0.100
586.300	-21.580	0.100
586.400	-17.365	0.100
586.500	-19.105	0.100
586.600	-14.944	0.100
586.700	-16.996	0.100
586.800	-21.340	0.100
586.900	-19.811	0.100
587.000	-16.893	0.100
587.100	-13.962	0.100
587.200	-30.956	0.100
587.300	-14.686	0.100
587.400	-26.270	0.100
587.500	-18.231	0.100
587.600	-18.403	0.100
587.700	-18.260	0.100
587.800	-8.945	0.100
587.900	-20.599	0.100
588.000	-19.361	0.100
588.100	-19.305	0.100
588.200	-19.786	0.100
588.300	-26.069	0.100
588.400	-16.614	0.100
588.500	-17.414	0.100
588.600	-21.241	0.100
588.700	-10.539	0.100
588.800	-11.254	0.100
588.900	-17.010	0.100
589.000	-23.429	0.100
589.100	-29.344	0.100
589.200	-13.972	0.100
589.300	-20.104	0.100
589.400	-20.120	0.100
589.500	-12.577	0.100
589.600	-24.970	0.100
589.700	-22.746	0.100
589.800	-9.304	0.100
589.900	-14.829	0.100
590.000	-17.730	0.100
590.100	-19.516	0.100
590.200	-18.388	0.100
590.300	-17.614	0.100
590.400	-30.184	0.100
590.500	-9.575	0.100
590.600	-22.378	0.100
590.700	-21.687	0.100
590.800	-18.059	0.100
590.900	-16.773	0.100
591.000	-15.519	0.100
591.100	-19.912	0.100
591.200	-18.076	0.100
591.300	-18.253	0.100
591.400	-19.352	0.100
591.500	-19.202	0.100
591.600	-19.365	0.100
591.700	-17.270	0.100
591.800	-22.760	0.100
591.900	-11.542	0.100
592.000	-16.667	0.100
592.100	-14.099	0.100
592.200	-17.619	0.100
592.300	-22.387	0.100
592.400	-21.104	0.100
592.500	-16.961	0.100
592.600	-23.312	0.100
592.700	-12.843	0.100
592.800	-9.614	0.100
592.900	-24.597	0.100
593.000	-16.949	0.100
593.100	-18.710	0.100
593.200	-25.668	0.100
593.300	-26.911	0.100
593.400	-15.972	0.100
593.500	-13.429	0.100
593.600	-17.550	0.100
593.700	-15.528	0.100
593.800	-10.332	0.100
593.900	-19.624	0.100
594.000	-19.577	0.100
594.100	-19.774	0.100
594.200	-12.273	0.100
594.300	-20.870	0.100
594.400	-12.324	0.100
594.500	-12.682	0.100
594.600	-21.016	0.100
594.700	-19.959	0.100
594.800	-13.984	0.100
594.900	-18.237	0.100
595.000	-22.073	0.100
595.100	-18.204	0.100
595.200	-25.056	0.100
595.300	-19.534	0.100
595.400	-26.091	0.100
595.500	-18.857	0.100
595.600	-14.596	0.100
595.700	-17.744	0.100
595.800	-16.100	0.100
595.900	-14.267	0.100
596.000	-17.308	0.100
596.100	-15.674	0.100
596.200	-9.979	0.100
596.300	-15.800	0.100
596.400	-14.202	0.100
596.500	-10.344	0.100
596.600	-21.707	0.100
596.700	-23.558	0.100
596.800	-23.161	0.100
596.900	-15.717	0.100
597.000	-21.086	0.100
597.100	-5.610	0.100
597.200	-2.125	0.100
597.300	-21.326	0.100
597.400	-15.968	0.100
597.500	-18.226	0.100
597.600	-20.922	0.100
597.700	-18.811	0.100
597.800	-18.670	0.100
597.900	-11.643	0.100
598.000	-13.151	0.100
598.100	-19.678	0.100
598.200	-12.921	0.100
598.300	-17.437	0.100
598.400	-23.153	0.100
598.500	-17.011	0.100
598.600	-17.976	0.100
598.700	-24.855	0.100
598.800	-15.624	0.100
598.900	-19.205	0.100
599.000	-16.067	0.100
599.100	-19.654	0.100
599.200	-4.791	0.100
599.300	-22.059	0.100
599.400	-18.765	0.100
599.500	-16.599	0.100
599.600	-11.595	0.100
599.700	-15.695	0.100
599.800	-18.046	0.100
599.900	-12.267	0.100
600.000	-9.727	0.100
600.100	-21.573	0.100
600.200	-22.105	0.100
600.300	-14.669	0.100
600.400	-16.768	0.100
600.500	-14.241	0.100
600.600	-18.344	0.100
600.700	-18.576	0.100
600.800	-18.509	0.100
600.900	-18.765	0.100
601.000	-14.956	0.100
601.100	-16.649	0.100
601.200	-19.384	0.100
601.300	-14.360	0.100
601.400	-12.633	0.100
601.500	-25.303	0.100
601.600	-12.686	0.100
601.700	-16.295	0.100
601.800	-18.579	0.100
601.900	-24.346	0.100
602.000	-10.244	0.100
602.100	-11.066	0.100
602.200	-18.203	0.100
602.300	-22.366	0.100
602.400	-14.391	0.100
602.500	-10.728	0.100
602.600	-10.290	0.100
602.700	-14.985	0.100
602.800	-12.013	0.100
602.900	-15.141	0.100
603.000	-19.549	0.100
603.100	-15.600	0.100
603.200	-18.806	0.100
603.300	-17.043	0.100
603.400	-18.227	0.100
603.500	-13.747	0.100
603.600	-14.073	0.100
603.700	-8.590	0.100
603.800	-14.174	0.100
603.900	-23.092	0.100
604.000	-15.291	0.100
604.100	-13.524	0.100
604.200	-25.428	0.100
604.300	-15.332	0.100
604.400	-17.958	0.100
604.500	-16.360	0.100
604.600	-13.462	0.100
604.700	-18.908	0.100
604.800	-14.697	0.100
604.900	-21.641	0.100
605.000	-11.631	0.100
605.100	-12.975	0.100
605.200	-16.990	0.100
605.300	-20.856	0.100
605.400	-9.005	0.100
605.500	-20.228	0.100
605.600	-21.120	0.100
605.700	-11.195	0.100
605.800	-15.580	0.100
605.900	-16.624	0.100
606.000	-18.250	0.100
606.100	-16.766	0.100
606.200	-17.562	0.100
606.300	-9.321	0.100
606.400	-14.791	0.100
606.500	-23.977	0.100
606.600	-19.626	0.100
606.700	-13.915	0.100
606.800	-13.372	0.100
606.900	-19.631	0.100
607.000	-10.427	0.100
607.100	-9.554	0.100
607.200	-11.920	0.100
607.300	-20.447	0.100
607.400	-11.898	0.100
607.500	-15.735	0.100
607.600	-9.737	0.100
607.700	-20.870	0.100
607.800	-15.329	0.100
607.900	-19.161	0.100
608.000	-20.381	0.100
608.100	-18.153	0.100
608.200	-18.860	0.100
608.300	-13.278	0.100
608.400	-15.625	0.100
608.500	-19.957	0.100
608.600	-9.666	0.100
608.700	-16.465	0.100
608.800	-14.188	0.100
608.900	-19.600	0.100
609.000	-17.793	0.100
609.100	-14.604	0.100
609.200	-18.620	0.100
609.300	-15.270	0.100
609.400	-15.771	0.100
609.500	-12.136	0.100
609.600	-21.893	0.100
609.700	-20.501	0.100
609.800	-10.682	0.100
609.900	-15.806	0.100
610.000	-13.031	0.100
610.100	-13.515	0.100
610.200	-17.725	0.100
610.300	-8.802	0.100
610.400	-9.128	0.100
610.500	-14.286	0.100
610.600	-22.193	0.100
610.700	-12.490	0.100
610.800	-25.190	0.100
610.900	-15.684	0.100
611.000	-18.235	0.100
611.100	-13.313	0.100
611.200	-9.965	0.100
611.300	-11.508	0.100
611.400	-13.017	0.100
611.500	-24.390	0.100
611.600	-4.233	0.100
611.700	-17.047	0.100
611.800	-23.109	0.100
611.900	-25.427	0.100
612.000	-19.511	0.100
612.100	-22.598	0.100
612.200	-16.595	0.100
612.300	-10.779	0.100
612.400	-10.102	0.100
612.500	-21.409	0.100
612.600	-11.567	0.100
612.700	-15.843	0.100
612.800	-18.166	0.100
612.900	-13.048	0.100
613.000	-15.365	0.100
613.100	-5.845	0.100
613.200	-17.407	0.100
613.300	-20.673	0.100
613.400	-17.418	0.100
613.500	-20.918	0.100
613.600	-25.445	0.100
613.700	-18.440	0.100
613.800	-21.587	0.100
613.900	-22.040	0.100
614.000	-4.389	0.100
614.100	-10.996	0.100
614.200	-16.481	0.100
614.300	-17.273	0.100
614.400	-8.336	0.100
614.500	-14.240	0.100
614.600	-3.386	0.100
614.700	-14.896	0.100
614.800	-21.273	0.100
614.900	-8.558	0.100
615.000	-8.632	0.100
615.100	-23.893	0.100
615.200	-5.808	0.100
615.300	-18.712	0.100
615.400	-12.466	0.100
615.500	-17.484	0.100
615.600	-15.336	0.100
615.700	-17.555	0.100
615.800	-14.478	0.100
615.900	-11.356	0.100
616.000	-8.860	0.100
616.100	-19.679	0.100
616.200	-15.167	0.100
616.300	-21.628	0.100
616.400	-13.291	0.100
616.500	-21.829	0.100
616.600	-6.391	0.100
616.700	-14.984	0.100
616.800	-7.583	0.100
616.900	-7.758	0.100
617.000	-17.611	0.100
617.100	-16.704	0.100
617.200	-19.277	0.100
617.300	-14.770	0.100
617.400	-18.565	0.100
617.500	-13.083	0.100
617.600	-17.344	0.100
617.700	-24.151	0.100
617.800	-11.461	0.100
617.900	-14.815	0.100
618.000	-13.388	0.100
618.100	-25.019	0.100
618.200	-18.860	0.100
618.300	-15.650	0.100
618.400	-12.749	0.100
618.500	-11.766	0.100
618.600	-16.681	0.100
618.700	-22.215	0.100
618.800	-8.708	0.100
618.900	-9.994	0.100
619.000	-19.743	0.100
619.100	-6.157	0.100
619.200	-13.244	0.100
619.300	-9.330	0.100
619.400	-16.994	0.100
619.500	-18.991	0.100
619.600	-13.911	0.100
619.700	-14.472	0.100
619.800	-11.834	0.100
619.900	-15.671	0.100
620.000	-20.264	0.100
620.100	-16.835	0.100
620.200	-11.583	0.100
620.300	-12.813	0.100
620.400	-13.990	0.100
620.500	-10.660	0.100
620.600	-13.955	0.100
620.700	-10.184	0.100
620.800	-16.869	0.100
620.900	-15.858	0.100
621.000	-8.941	0.100
621.100	-20.207	0.100
621.200	-13.557	0.100
621.300	-16.880	0.100
621.400	-11.072	0.100
621.500	-15.198	0.100
621.600	-13.301	0.100
621.700	-13.010	0.100
621.800	-10.897	0.100
621.900	-8.311	0.100
622.000	-14.580	0.100
622.100	-14.016	0.100
622.200	-15.705	0.100
622.300	-9.548	0.100
622.400	-11.600	0.100
622.500	-15.620	0.100
622.600	-10.499	0.100
622.700	-14.622	0.100
622.800	-17.872	0.100
622.900	-12.084	0.100
623.000	-19.007	0.100
623.100	-11.196	0.100
623.200	-16.633	0.100
623.300	-14.264	0.100
623.400	-17.565	0.100
623.500	-11.493	0.100
623.600	-8.535	0.100
623.700	-18.570	0.100
623.800	-9.917	0.100
623.900	-12.327	0.100
624.000	-15.419	0.100
624.100	-15.865	0.100
624.200	-2.544	0.100
624.300	-17.819	0.100
624.400	-18.824	0.100
624.500	-17.035	0.100
624.600	-14.033	0.100
624.700	-9.875	0.100
624.800	-4.200	0.100
624.900	-11.745	0.100
625.000	-14.069	0.100
625.100	-16.633	0.100
625.200	-15.781	0.100
625.300	-15.421	0.100
625.400	-25.151	0.100
625.500	-14.473	0.100
625.600	-9.214	0.100
625.700	-12.697	0.100
625.800	-22.547	0.100
625.900	-15.459	0.100
626.000	-16.401	0.100
626.100	-17.353	0.100
626.200	-17.283	0.100
626.300	-10.315	0.100
626.400	-12.866	0.100
626.500	-10.749	0.100
626.600	-14.084	0.100
626.700	-14.524	0.100
626.800	-9.872	0.100
626.900	-12.116	0.100
627.000	-17.951	0.100
627.100	-7.381	0.100
627.200	-5.305	0.100
627.300	-18.567	0.100
627.400	-14.586	0.100
627.500	-7.260	0.100
627.600	-11.485	0.100
627.700	-14.018	0.100
627.800	-14.934	0.100
627.900	-23.177	0.100
628.000	-9.702	0.100
628.100	-9.338	0.100
628.200	-10.156	0.100
628.300	-15.179	0.100
628.400	-16.776	0.100
628.500	-13.607	0.100
628.600	-8.317	0.100
628.700	-15.272	0.100
628.800	-16.538	0.100
628.900	-12.773	0.100
629.000	-13.307	0.100
629.100	-16.977	0.100
629.200	-12.185	0.100
629.300	-13.463	0.100
629.400	-11.690	0.100
629.500	-21.454	0.100
629.600	-16.478	0.100
629.700	-10.244	0.100
629.800	-16.658	0.100
629.900	-13.444	0.100
630.000	-15.246	0.100
630.100	-15.972	0.100
630.200	-26.188	0.100
630.300	-11.456	0.100
630.400	-15.641	0.100
630.500	-6.198	0.100
630.600	-9.783	0.100
630.700	-10.745	0.100
630.800	-3.962	0.100
630.900	1.856	0.100
631.000	-4.057	0.100
631.100	1.985	0.100
631.200	6.776	0.100
631.300	9.757	0.100
631.400	12.759	0.100
631.500	12.194	0.100
631.600	12.212	0.100
631.700	11.747	0.100
631.800	26.836	0.100
631.900	11.438	0.100
632.000	16.858	0.100
632.100	14.944	0.100
632.200	25.041	0.100
632.300	22.201	0.100
632.400	21.055	0.100
632.500	15.525	0.100
632.600	18.787	0.100
632.700	21.988	0.100
632.800	21.814	0.100
632.900	24.085	0.100
633.000	19.948	0.100
633.100	18.781	0.100
633.200	17.423	0.100
633.300	22.481	0.100
633.400	14.370	0.100
633.500	21.539	0.100
633.600	25.986	0.100
633.700	13.316	0.100
633.800	18.570	0.100
633.900	13.508	0.100
634.000	29.641	0.100
634.100	20.490	0.100
634.200	20.098	0.100
634.300	17.199	0.100
634.400	17.208	0.100
634.500	15.284	0.100
634.600	24.563	0.100
634.700	15.211	0.100
634.800	21.917	0.100
634.900	17.074	0.100
635.000	18.122	0.100
635.100	10.440	0.100
635.200	19.239	0.100
635.300	18.509	0.100
635.400	7.519	0.100
635.500	21.451	0.100
635.600	19.975	0.100
635.700	12.723	0.100
635.800	19.704	0.100
635.900	18.615	0.100
636.000	13.833	0.100
636.100	8.006	0.100
636.200	12.257	0.100
636.300	17.515	0.100
636.400	6.481	0.100
636.500	5.409	0.100
636.600	15.117	0.100
636.700	9.797	0.100
636.800	8.112	0.100
636.900	12.521	0.100
637.000	8.573	0.100
637.100	10.891	0.100
637.200	3.106	0.100
637.300	6.558	0.100
637.400	6.116	0.100
637.500	10.764	0.100
637.600	10.008	0.100
637.700	13.623	0.100
637.800	6.179	0.100
637.900	6.304	0.100
638.000	5.722	0.100
638.100	12.622	0.100
638.200	7.602	0.100
638.300	20.271	0.100
638.400	2.291	0.100
638.500	16.992	0.100
638.600	11.687	0.100
638.700	10.462	0.100
638.800	3.870	0.100
638.900	13.916	0.100
639.000	14.269	0.100
639.100	15.050	0.100
639.200	8.368	0.100
639.300	17.785	0.100
639.400	9.562	0.100
639.500	11.428	0.100
639.600	14.170	0.100
639.700	12.801	0.100
639.800	16.230	0.100
639.900	22.894	0.100
640.000	9.023	0.100
640.100	11.282	0.100
640.200	7.289	0.100
640.300	6.554	0.100
640.400	17.753	0.100
640.500	14.288	0.100
640.600	14.957	0.100
640.700	16.406	0.100
640.800	14.793	0.100
640.900	15.170	0.100
641.000	10.923	0.100
641.100	13.062	0.100
641.200	25.638	0.100
641.300	16.496	0.100
641.400	16.698	0.100
641.500	17.704	0.100
641.600	8.258	0.100
641.700	11.157	0.100
641.800	21.680	0.100
641.900	16.503	0.100
642.000	12.342	0.100
642.100	20.733	0.100
642.200	23.653	0.100
642.300	6.812	0.100
642.400	17.702	0.100
642.500	18.180	0.100
642.600	6.673	0.100
642.700	14.001	0.100
642.800	15.912	0.100
642.900	23.704	0.100
643.000	15.477	0.100
643.100	20.326	0.100
643.200	12.597	0.100
643.300	25.669	0.100
643.400	13.815	0.100
643.500	11.193	0.100
643.600	13.980	0.100
643.700	9.626	0.100
643.800	22.735	0.100
643.900	16.939	0.100
644.000	25.919	0.100
644.100	19.342	0.100
644.200	16.569	0.100
644.300	29.771	0.100
644.400	12.578	0.100
644.500	24.561	0.100
644.600	21.122	0.100
644.700	22.263	0.100
644.800	19.229	0.100
644.900	14.412	0.100
645.000	18.385	0.100
645.100	25.326	0.100
645.200	18.745	0.100
645.300	19.409	0.100
645.400	18.728	0.100
645.500	18.042	0.100
645.600	20.092	0.100
645.700	20.999	0.100
645.800	18.659	0.100
645.900	13.479	0.100
646.000	15.925	0.100
646.100	23.776	0.100
646.200	22.308	0.100
646.300	21.163	0.100
646.400	23.086	0.100
646.500	17.030	0.100
646.600	23.062	0.100
646.700	16.491	0.100
646.800	13.480	0.100
646.900	34.778	0.100
647.000	25.833	0.100
647.100	27.677	0.100
647.200	27.719	0.100
647.300	17.157	0.100
647.400	29.071	0.100
647.500	27.718	0.100
647.600	22.733	0.100
647.700	27.640	0.100
647.800	24.775	0.100
647.900	27.647	0.100
648.000	18.422	0.100
648.100	29.132	0.100
648.200	23.177	0.100
648.300	32.208	0.100
648.400	26.330	0.100
648.500	28.579	0.100
648.600	34.983	0.100
648.700	28.005	0.100
648.800	26.173	0.100
648.900	24.942	0.100
649.000	34.867	0.100
649.100	26.158	0.100
649.200	16.393	0.100
649.300	30.765	0.100
649.400	32.854	0.100
649.500	31.777	0.100
649.600	18.388	0.100
649.700	24.084	0.100
649.800	27.958	0.100
649.900	33.401	0.100
650.000	21.490	0.100
650.100	20.288	0.100
650.200	21.732	0.100
650.300	36.874	0.100
650.400	39.469	0.100
650.500	27.310	0.100
650.600	16.873	0.100
650.700	31.518	0.100
650.800	33.213	0.100
650.900	31.956	0.100
651.000	30.618	0.100
651.100	29.401	0.100
651.200	36.014	0.100
651.300	21.725	0.100
651.400	33.360	0.100
651.500	26.330	0.100
651.600	30.536	0.100
651.700	29.432	0.100
651.800	30.130	0.100
651.900	30.399	0.100
652.000	29.920	0.100
652.100	25.856	0.100
652.200	24.594	0.100
652.300	25.185	0.100
652.400	34.953	0.100
652.500	27.314	0.100
652.600	35.736	0.100
652.700	26.515	0.100
652.800	31.219	0.100
652.900	33.640	0.100
653.000	41.123	0.100
653.100	36.770	0.100
653.200	30.481	0.100
653.300	27.424	0.100
653.400	29.251	0.100
653.500	20.407	0.100
653.600	33.948	0.100
653.700	39.220	0.100
653.800	35.348	0.100
653.900	26.168	0.100
654.000	22.995	0.100
654.100	32.790	0.100
654.200	37.574	0.100
654.300	29.104	0.100
654.400	38.595	0.100
654.500	35.660	0.100
654.600	27.624	0.100
654.700	37.953	0.100
654.800	26.319	0.100
654.900	27.945	0.100
655.000	32.622	0.100
655.100	34.126	0.100
655.200	30.011	0.100
655.300	31.209	0.100
655.400	34.772	0.100
655.500	31.576	0.100
655.600	37.032	0.100
655.700	28.269	0.100
655.800	33.034	0.100
655.900	35.396	0.100
656.000	37.356	0.100
656.100	32.438	0.100
656.200	34.486	0.100
656.300	34.426	0.100
656.400	31.116	0.100
656.500	37.130	0.100
656.600	32.809	0.100
656.700	29.019	0.100
656.800	31.712	0.100
656.900	35.352	0.100
657.000	35.556	0.100
657.100	24.941	0.100
657.200	34.463	0.100
657.300	26.829	0.100
657.400	36.111	0.100
657.500	36.327	0.100
657.600	29.570	0.100
657.700	30.512	0.100
657.800	38.511	0.100
657.900	36.836	0.100
658.000	40.680	0.100
658.100	34.588	0.100
658.200	28.480	0.100
658.300	31.816	0.100
658.400	36.293	0.100
658.500	36.845	0.100
658.600	32.249	0.100
658.700	30.576	0.100
658.800	27.815	0.100
658.900	33.043	0.100
659.000	33.423	0.100
659.100	31.174	0.100
659.200	37.293	0.100
659.300	38.137	0.100
659.400	36.544	0.100
659.500	33.774	0.100
659.600	29.955	0.100
659.700	29.992	0.100
659.800	39.286	0.100
659.900	34.651	0.100
660.000	28.179	0.100
660.100	30.728	0.100
660.200	35.435	0.100
660.300	31.183	0.100
660.400	35.935	0.100
660.500	31.799	0.100
660.600	32.028	0.100
660.700	35.202	0.100
660.800	35.738	0.100
660.900	30.839	0.100
661.000	34.560	0.100
661.100	40.899	0.100
661.200	34.098	0.100
661.300	32.449	0.100
661.400	32.712	0.100
661.500	38.898	0.100
661.600	31.812	0.100
661.700	25.228	0.100
661.800	23.190	0.100
661.900	31.058	0.100
662.000	34.807	0.100
662.100	34.977	0.100
662.200	37.242	0.100
662.300	27.997	0.100
662.400	35.450	0.100
662.500	22.904	0.100
662.600	25.220	0.100
662.700	34.566	0.100
662.800	31.607	0.100
662.900	40.133	0.100
663.000	39.495	0.100
663.100	27.383	0.100
663.200	32.967	0.100
663.300	30.253	0.100
663.400	32.131	0.100
663.500	34.178	0.100
663.600	34.022	0.100
663.700	40.106	0.100
663.800	35.046	0.100
663.900	26.566	0.100
664.000	32.602	0.100
664.100	34.955	0.100
664.200	35.500	0.100
664.300	34.039	0.100
664.400	32.559	0.100
664.500	34.050	0.100
664.600	30.255	0.100
664.700	38.674	0.100
664.800	30.755	0.100
664.900	21.354	0.100
665.000	27.794	0.100
665.100	28.481	0.100
665.200	34.845	0.100
665.300	31.538	0.100
665.400	33.252	0.100
665.500	31.819	0.100
665.600	42.097	0.100
665.700	37.689	0.100
665.800	31.593	0.100
665.900	39.033	0.100
666.000	30.924	0.100
666.100	34.736	0.100
666.200	37.060	0.100
666.300	24.852	0.100
666.400	33.316	0.100
666.500	36.642	0.100
666.600	32.624	0.100
666.700	32.991	0.100
666.800	32.513	0.100
666.900	36.363	0.100
667.000	30.911	0.100
667.100	28.598	0.100
667.200	33.311	0.100
667.300	35.047	0.100
667.400	19.118	0.100
667.500	42.158	0.100
667.600	26.798	0.100
667.700	33.884	0.100
667.800	34.946	0.100
667.900	31.835	0.100
668.000	28.217	0.100
668.100	23.322	0.100
668.200	32.136	0.100
668.300	33.800	0.100
668.400	31.253	0.100
668.500	34.854	0.100
668.600	30.740	0.100
668.700	34.008	0.100
668.800	33.281	0.100
668.900	25.294	0.100
669.000	35.910	0.100
669.100	26.438	0.100
669.200	29.367	0.100
669.300	26.494	0.100
669.400	33.544	0.100
669.500	21.279	0.100
669.600	35.667	0.100
669.700	30.914	0.100
669.800	34.306	0.100
669.900	37.364	0.100
670.000	29.324	0.100
670.100	22.659	0.100
670.200	34.783	0.100
670.300	35.681	0.100
670.400	34.125	0.100
670.500	34.630	0.100
670.600	24.597	0.100
670.700	31.561	0.100
670.800	33.245	0.100
670.900	31.241	0.100
671.000	31.731	0.100
671.100	38.933	0.100
671.200	35.552	0.100
671.300	30.140	0.100
671.400	30.062	0.100
671.500	31.670	0.100
671.600	36.890	0.100
671.700	32.981	0.100
671.800	27.888	0.100
671.900	34.311	0.100
672.000	33.550	0.100
672.100	30.669	0.100
672.200	24.383	0.100
672.300	33.246	0.100
672.400	31.255	0.100
672.500	29.909	0.100
672.600	35.518	0.100
672.700	29.108	0.100
672.800	35.854	0.100
672.900	29.502	0.100
673.000	32.730	0.100
673.100	35.896	0.100
673.200	22.090	0.100
673.300	32.696	0.100
673.400	31.821	0.100
673.500	25.907	0.100
673.600	30.197	0.100
673.700	29.381	0.100
673.800	36.300	0.100
673.900	34.363	0.100
674.000	31.874	0.100
674.100	32.791	0.100
674.200	32.906	0.100
674.300	28.532	0.100
674.400	28.278	0.100
674.500	33.135	0.100
674.600	35.736	0.100
674.700	32.226	0.100
674.800	34.158	0.100
674.900	29.134	0.100
675.000	33.427	0.100
675.100	27.742	0.100
675.200	27.873	0.100
675.300	36.640	0.100
675.400	30.892	0.100
675.500	31.823	0.100
675.600	33.143	0.100
675.700	31.614	0.100
675.800	28.468	0.100
675.900	30.335	0.100
676.000	30.436	0.100
676.100	32.155	0.100
676.200	27.057	0.100
676.300	29.299	0.100
676.400	33.677	0.100
676.500	30.908	0.100
676.600	28.975	0.100
676.700	35.158	0.100
676.800	33.356	0.100
676.900	39.784	0.100
677.000	25.612	0.100
677.100	24.688	0.100
677.200	33.294	0.100
677.300	29.237	0.100
677.400	29.514	0.100
677.500	34.023	0.100
677.600	33.557	0.100
677.700	30.003	0.100
677.800	23.386	0.100
677.900	26.645	0.100
678.000	41.082	0.100
678.100	27.671	0.100
678.200	33.650	0.100
678.300	23.510	0.100
678.400	39.270	0.100
678.500	32.251	0.100
678.600	26.684	0.100
678.700	30.969	0.100
678.800	35.745	0.100
678.900	27.715	0.100
679.000	28.076	0.100
679.100	36.434	0.100
679.200	34.977	0.100
679.300	36.670	0.100
679.400	35.762	0.100
679.500	28.005	0.100
679.600	32.046	0.100
679.700	29.251	0.100
679.800	34.168	0.100
679.900	29.220	0.100
680.000	34.916	0.100
680.100	28.379	0.100
680.200	28.771	0.100
680.300	18.434	0.100
680.400	30.286	0.100
680.500	29.938	0.100
680.600	28.453	0.100
680.700	23.814	0.100
680.800	33.733	0.100
680.900	25.281	0.100
681.000	30.825	0.100
681.100	27.624	0.100
681.200	25.923	0.100
681.300	33.411	0.100
681.400	36.700	0.100
681.500	32.103	0.100
681.600	35.540	0.100
681.700	31.567	0.100
681.800	38.119	0.100
681.900	36.250	0.100
682.000	22.248	0.100
682.100	31.254	0.100
682.200	36.358	0.100
682.300	22.470	0.100
682.400	29.043	0.100
682.500	31.009	0.100
682.600	26.841	0.100
682.700	25.158	0.100
682.800	23.808	0.100
682.900	26.854	0.100
683.000	33.778	0.100
683.100	31.204	0.100
683.200	29.055	0.100
683.300	36.683	0.100
683.400	30.681	0.100
683.500	31.262	0.100
683.600	25.816	0.100
683.700	19.367	0.100
683.800	24.930	0.100
683.900	29.257	0.100
684.000	30.363	0.100
684.100	29.478	0.100
684.200	20.212	0.100
684.300	30.899	0.100
684.400	29.198	0.100
684.500	24.362	0.100
684.600	40.000	0.100
684.700	27.254	0.100
684.800	32.033	0.100
684.900	26.804	0.100
685.000	36.333	0.100
685.100	35.085	0.100
685.200	32.069	0.100
685.300	36.666	0.100
685.400	30.081	0.100
685.500	25.548	0.100
685.600	25.895	0.100
685.700	29.704	0.100
685.800	33.533	0.100
685.900	27.147	0.100
686.000	26.511	0.100
686.100	31.171	0.100
686.200	33.963	0.100
686.300	27.674	0.100
686.400	32.977	0.100
686.500	30.034	0.100
686.600	31.464	0.100
686.700	32.938	0.100
686.800	29.159	0.100
686.900	29.681	0.100
687.000	33.523	0.100
687.100	25.014	0.100
687.200	31.197	0.100
687.300	32.101	0.100
687.400	31.844	0.100
687.500	25.702	0.100
687.600	35.055	0.100
687.700	28.857	0.100
687.800	26.087	0.100
687.900	29.038	0.100
688.000	33.047	0.100
688.100	33.396	0.100
688.200	32.703	0.100
688.300	27.243	0.100
688.400	33.394	0.100
688.500	27.568	0.100
688.600	27.698	0.100
688.700	35.599	0.100
688.800	33.061	0.100
688.900	25.845	0.100
689.000	34.173	0.100
689.100	26.518	0.100
689.200	33.375	0.100
689.300	30.014	0.100
689.400	28.965	0.100
689.500	26.257	0.100
689.600	40.032	0.100
689.700	30.037	0.100
689.800	34.461	0.100
689.900	31.156	0.100
690.000	27.523	0.100
690.100	28.136	0.100
690.200	24.820	0.100
690.300	25.576	0.100
690.400	28.662	0.100
690.500	20.585	0.100
690.600	15.073	0.100
690.700	27.421	0.100
690.800	28.859	0.100
690.900	20.928	0.100
691.000	11.953	0.100
691.100	8.849	0.100
691.200	5.389	0.100
691.300	2.520	0.100
691.400	6.321	0.100
691.500	-8.210	0.100
691.600	-1.266	0.100
691.700	-0.705	0.100
691.800	2.205	0.100
691.900	-4.850	0.100
692.000	-12.852	0.100
692.100	-3.840	0.100
692.200	-8.338	0.100
692.300	-12.738	0.100
692.400	-11.567	0.100
692.500	-16.465	0.100
692.600	-6.500	0.100
692.700	1.974	0.100
692.800	-11.505	0.100
692.900	-7.535	0.100
693.000	-9.677	0.100
693.100	-16.091	0.100
693.200	-8.307	0.100
693.300	-2.117	0.100
693.400	-6.616	0.100
693.500	-9.225	0.100
693.600	-12.756	0.100
693.700	-12.776	0.100
693.800	-10.067	0.100
693.900	-23.931	0.100
694.000	-5.679	0.100
694.100	-1.034	0.100
694.200	-13.523	0.100
694.300	-12.630	0.100
694.400	-19.001	0.100
694.500	-10.030	0.100
694.600	-3.257	0.100
694.700	-2.587	0.100
694.800	-4.898	0.100
694.900	-2.981	0.100
695.000	-14.201	0.100
695.100	-14.466	0.100
695.200	-3.875	0.100
695.300	-1.310	0.100
695.400	-11.935	0.100
695.500	-2.400	0.100
695.600	-9.353	0.100
695.700	-16.154	0.100
695.800	-16.271	0.100
695.900	-5.410	0.100
696.000	-11.111	0.100
696.100	-11.732	0.100
696.200	-6.914	0.100
696.300	-17.851	0.100
696.400	-8.732	0.100
696.500	-8.060	0.100
696.600	-9.274	0.100
696.700	-7.348	0.100
696.800	-12.094	0.100
696.900	-7.362	0.100
697.000	-9.837	0.100
697.100	-10.987	0.100
697.200	-1.954	0.100
697.300	-16.781	0.100
697.400	-9.167	0.100
697.500	-14.305	0.100
697.600	-6.651	0.100
697.700	-4.288	0.100
697.800	-10.872	0.100
697.900	-3.934	0.100
698.000	-9.722	0.100
698.100	-2.963	0.100
698.200	-11.760	0.100
698.300	-15.790	0.100
698.400	-9.711	0.100
698.500	-6.411	0.100
698.600	-8.525	0.100
698.700	-9.531	0.100
698.800	-9.954	0.100
698.900	-12.519	0.100
699.000	-8.612	0.100
699.100	-5.575	0.100
699.200	-13.254	0.100
699.300	-9.451	0.100
699.400	-2.683	0.100
699.500	-7.371	0.100
699.600	-9.047	0.100
699.700	-4.495	0.100
699.800	-7.353	0.100
699.900	-15.560	0.100
700.000	-9.079	0.100
700.100	-9.874	0.100
700.200	-3.609	0.100
700.300	-5.508	0.100
700.400	-4.468	0.100
700.500	-10.900	0.100
700.600	-13.062	0.100
700.700	-15.296	0.100
700.800	-9.284	0.100
700.900	-9.230	0.100
701.000	-5.398	0.100
701.100	-7.169	0.100
701.200	-8.929	0.100
701.300	-12.821	0.100
701.400	-13.193	0.100
701.500	-11.086	0.100
701.600	-2.345	0.100
701.700	-9.277	0.100
701.800	-5.831	0.100
701.900	-9.577	0.100
702.000	-10.218	0.100
702.100	-9.430	0.100
702.200	-18.788	0.100
702.300	-17.723	0.100
702.400	-9.252	0.100
702.500	-15.594	0.100
702.600	-7.906	0.100
702.700	-8.407	0.100
702.800	-11.780	0.100
702.900	-24.588	0.100
703.000	-16.747	0.100
703.100	-4.818	0.100
703.200	-9.337	0.100
703.300	-10.063	0.100
703.400	-10.736	0.100
703.500	-13.610	0.100
703.600	-10.851	0.100
703.700	-5.912	0.100
703.800	-6.932	0.100
703.900	-16.052	0.100
704.000	-16.419	0.100
704.100	-6.166	0.100
704.200	-9.701	0.100
704.300	-12.436	0.100
704.400	-4.020	0.100
704.500	-12.320	0.100
704.600	-9.688	0.100
704.700	-6.222	0.100
704.800	-15.128	0.100
704.900	-16.295	0.100
705.000	-4.603	0.100
705.100	-13.461	0.100
705.200	-5.201	0.100
705.300	-12.607	0.100
705.400	-12.902	0.100
705.500	-20.082	0.100
705.600	-20.972	0.100
705.700	-11.296	0.100
705.800	-15.856	0.100
705.900	-8.754	0.100
706.000	-16.862	0.100
706.100	-10.977	0.100
706.200	-6.397	0.100
706.300	-13.811	0.100
706.400	-8.656	0.100
706.500	-6.618	0.100
706.600	-18.014	0.100
706.700	-7.928	0.100
706.800	-11.121	0.100
706.900	-13.704	0.100
707.000	-11.580	0.100
707.100	-16.823	0.100
707.200	-18.780	0.100
707.300	-22.017	0.100
707.400	-8.028	0.100
707.500	-13.549	0.100
707.600	-16.529	0.100
707.700	-5.363	0.100
707.800	-9.022	0.100
707.900	-5.111	0.100
708.000	-17.772	0.100
708.100	-17.395	0.100
708.200	-13.554	0.100
708.300	-19.042	0.100
708.400	-15.024	0.100
708.500	-17.052	0.100
708.600	-7.315	0.100
708.700	-16.445	0.100
708.800	-14.550	0.100
708.900	-6.626	0.100
709.000	-19.171	0.100
709.100	-17.516	0.100
709.200	-15.012	0.100
709.300	-20.469	0.100
709.400	-17.141	0.100
709.500	-18.714	0.100
709.600	-9.957	0.100
709.700	-17.816	0.100
709.800	-7.684	0.100
709.900	-8.631	0.100
710.000	-15.129	0.100
710.100	-20.644	0.100
710.200	-12.628	0.100
710.300	-13.166	0.100
710.400	-11.681	0.100
710.500	-21.061	0.100
710.600	-11.303	0.100
710.700	-19.596	0.100
710.800	-10.843	0.100
710.900	-11.054	0.100
711.000	-16.372	0.100
711.100	-10.190	0.100
711.200	-11.435	0.100
711.300	-14.824	0.100
711.400	-17.366	0.100
711.500	-15.595	0.100
711.600	-17.119	0.100
711.700	-10.886	0.100
711.800	-6.132	0.100
711.900	-10.542	0.100
712.000	-14.997	0.100
712.100	-22.219	0.100
712.200	-17.677	0.100
712.300	-13.039	0.100
712.400	-14.159	0.100
712.500	-18.072	0.100
712.600	-15.829	0.100
712.700	-11.562	0.100
712.800	-15.240	0.100
712.900	-27.342	0.100
713.000	-14.233	0.100
713.100	-17.096	0.100
713.200	-8.985	0.100
713.300	-17.691	0.100
713.400	-17.943	0.100
713.500	-6.665	0.100
713.600	-11.879	0.100
713.700	-17.345	0.100
713.800	-17.141	0.100
713.900	-9.889	0.100
714.000	-20.063	0.100
714.100	-26.391	0.100
714.200	-14.640	0.100
714.300	-10.150	0.100
714.400	-17.734	0.100
714.500	-13.775	0.100
714.600	-8.916	0.100
714.700	-22.417	0.100
714.800	-20.751	0.100
714.900	-17.469	0.100
715.000	-17.932	0.100
715.100	-16.139	0.100
715.200	-21.397	0.100
715.300	-20.297	0.100
715.400	-14.163	0.100
715.500	-12.159	0.100
715.600	-18.110	0.100
715.700	-18.792	0.100
715.800	-19.854	0.100
715.900	-11.674	0.100
716.000	-21.866	0.100
716.100	-20.330	0.100
716.200	-2.586	0.100
716.300	-15.986	0.100
716.400	-14.049	0.100
716.500	-17.131	0.100
716.600	-16.127	0.100
716.700	-21.078	0.100
716.800	-14.522	0.100
716.900	-21.655	0.100
717.000	-13.346	0.100
717.100	-15.133	0.100
717.200	-11.913	0.100
717.300	-17.750	0.100
717.400	-19.844	0.100
717.500	-19.187	0.100
717.600	-15.903	0.100
717.700	-15.375	0.100
717.800	-15.949	0.100
717.900	-18.714	0.100
718.000	-16.675	0.100
718.100	-17.668	0.100
718.200	-16.955	0.100
718.300	-14.323	0.100
718.400	-21.617	0.100
718.500	-17.839	0.100
718.600	-18.991	0.100
718.700	-16.548	0.100
718.800	-19.859	0.100
718.900	-16.200	0.100
719.000	-30.103	0.100
719.100	-17.298	0.100
719.200	-23.684	0.100
719.300	-14.105	0.100
719.400	-11.882	0.100
719.500	-13.614	0.100
719.600	-25.583	0.100
719.700	-21.244	0.100
719.800	-23.587	0.100
719.900	-24.294	0.100
720.000	-13.759	0.100
720.100	-6.189	0.100
720.200	-22.886	0.100
720.300	-17.611	0.100
720.400	-17.163	0.100
720.500	-18.804	0.100
720.600	-14.755	0.100
720.700	-15.638	0.100
720.800	-19.519	0.100
720.900	-19.208	0.100
721.000	-16.093	0.100
721.100	-25.548	0.100
721.200	-18.861	0.100
721.300	-8.231	0.100
721.400	-23.443	0.100
721.500	-20.798	0.100
721.600	-17.643	0.100
721.700	-20.245	0.100
721.800	-20.641	0.100
721.900	-17.642	0.100
722.000	-18.470	0.100
722.100	-18.581	0.100
722.200	-18.058	0.100
722.300	-18.541	0.100
722.400	-16.947	0.100
722.500	-17.917	0.100
722.600	-16.279	0.100
722.700	-20.369	0.100
722.800	-15.115	0.100
722.900	-21.205	0.100
723.000	-17.439	0.100
723.100	-18.411	0.100
723.200	-29.265	0.100
723.300	-20.705	0.100
723.400	-19.308	0.100
723.500	-17.995	0.100
723.600	-22.684	0.100
723.700	-19.184	0.100
723.800	-24.906	0.100
723.900	-14.346	0.100
724.000	-22.686	0.100
724.100	-22.763	0.100
724.200	-19.221	0.100
724.300	-15.396	0.100
724.400	-18.190	0.100
724.500	-20.687	0.100
724.600	-20.770	0.100
724.700	-15.272	0.100
724.800	-21.724	0.100
724.900	-15.029	0.100
725.000	-17.512	0.100
725.100	-23.818	0.100
725.200	-18.167	0.100
725.300	-21.692	0.100
725.400	-21.630	0.100
725.500	-14.762	0.100
725.600	-22.039	0.100
725.700	-26.506	0.100
725.800	-23.429	0.100
725.900	-20.580	0.100
726.000	-17.739	0.100
726.100	-19.762	0.100
726.200	-13.576	0.100
726.300	-14.863	0.100
726.400	-21.577	0.100
726.500	-17.881	0.100
726.600	-22.039	0.100
726.700	-12.814	0.100
726.800	-24.710	0.100
726.900	-11.468	0.100
727.000	-22.575	0.100
727.100	-30.055	0.100
727.200	-26.859	0.100
727.300	-21.540	0.100
727.400	-14.190	0.100
727.500	-20.346	0.100
727.600	-11.539	0.100
727.700	-20.154	0.100
727.800	-22.203	0.100
727.900	-26.948	0.100
728.000	-19.790	0.100
728.100	-18.798	0.100
728.200	-21.865	0.100
728.300	-15.408	0.100
728.400	-21.100	0.100
728.500	-21.041	0.100
728.600	-16.516	0.100
728.700	-15.020	0.100
728.800	-18.462	0.100
728.900	-18.850	0.100
729.000	-17.322	0.100
729.100	-17.328	0.100
729.200	-19.505	0.100
729.300	-25.944	0.100
729.400	-17.362	0.100
729.500	-18.432	0.100
729.600	-23.846	0.100
729.700	-25.436	0.100
729.800	-23.158	0.100
729.900	-19.472	0.100
730.000	-16.622	0.100
730.100	-16.726	0.100
730.200	-21.888	0.100
730.300	-20.859	0.100
730.400	-30.926	0.100
730.500	-21.167	0.100
730.600	-17.933	0.100
730.700	-18.493	0.100
730.800	-27.910	0.100
730.900	-23.890	0.100
731.000	-29.416	0.100
731.100	-15.863	0.100
731.200	-23.455	0.100
731.300	-12.479	0.100
731.400	-26.897	0.100
731.500	-28.635	0.100
731.600	-23.314	0.100
731.700	-16.378	0.100
731.800	-13.706	0.100
731.900	-29.538	0.100
732.000	-17.659	0.100
732.100	-23.644	0.100
732.200	-15.522	0.100
732.300	-16.076	0.100
732.400	-26.913	0.100
732.500	-17.874	0.100
732.600	-18.655	0.100
732.700	-14.629	0.100
732.800	-19.446	0.100
732.900	-17.249	0.100
733.000	-16.393	0.100
733.100	-24.246	0.100
733.200	-16.992	0.100
733.300	-20.491	0.100
733.400	-24.025	0.100
733.500	-23.632	0.100
733.600	-7.427	0.100
733.700	-15.370	0.100
733.800	-21.480	0.100
733.900	-23.892	0.100
734.000	-15.550	0.100
734.100	-9.817	0.100
734.200	-11.934	0.100
734.300	-20.732	0.100
734.400	-19.271	0.100
734.500	-11.492	0.100
734.600	-17.550	0.100
734.700	-25.710	0.100
734.800	-16.707	0.100
734.900	-24.353	0.100
735.000	-23.421	0.100
735.100	-25.059	0.100
735.200	-13.418	0.100
735.300	-21.417	0.100
735.400	-16.371	0.100
735.500	-20.393	0.100
735.600	-21.850	0.100
735.700	-18.875	0.100
735.800	-25.000	0.100
735.900	-20.078	0.100
736.000	-20.863	0.100
736.100	-22.585	0.100
736.200	-10.934	0.100
736.300	-22.304	0.100
736.400	-23.450	0.100
736.500	-14.309	0.100
736.600	-23.899	0.100
736.700	-20.484	0.100
736.800	-18.114	0.100
736.900	-20.310	0.100
737.000	-23.292	0.100
737.100	-13.695	0.100
737.200	-26.468	0.100
737.300	-15.853	0.100
737.400	-14.321	0.100
737.500	-20.641	0.100
737.600	-13.779	0.100
737.700	-23.803	0.100
737.800	-26.793	0.100
737.900	-12.273	0.100
738.000	-16.848	0.100
738.100	-13.618	0.100
738.200	-26.064	0.100
738.300	-23.976	0.100
738.400	-18.722	0.100
738.500	-22.034	0.100
738.600	-25.427	0.100
738.700	-8.873	0.100
738.800	-19.771	0.100
738.900	-18.768	0.100
739.000	-24.609	0.100
739.100	-11.637	0.100
739.200	-11.272	0.100
739.300	-17.534	0.100
739.400	-20.325	0.100
739.500	-20.528	0.100
739.600	-24.489	0.100
739.700	-20.465	0.100
739.800	-18.507	0.100
739.900	-13.373	0.100
740.000	-20.804	0.100
740.100	-13.713	0.100
740.200	-21.078	0.100
740.300	-16.044	0.100
740.400	-13.966	0.100
740.500	-14.056	0.100
740.600	-22.023	0.100
740.700	-22.099	0.100
740.800	-20.384	0.100
740.900	-13.199	0.100
741.000	-21.115	0.100
741.100	-17.541	0.100
741.200	-17.841	0.100
741.300	-18.418	0.100
741.400	-18.874	0.100
741.500	-24.011	0.100
741.600	-23.693	0.100
741.700	-18.186	0.100
741.800	-17.001	0.100
741.900	-15.575	0.100
742.000	-17.843	0.100
742.100	-22.870	0.100
742.200	-15.574	0.100
742.300	-22.992	0.100
742.400	-14.652	0.100
742.500	-11.504	0.100
742.600	-21.093	0.100
742.700	-17.393	0.100
742.800	-23.246	0.100
742.900	-16.747	0.100
743.000	-17.803	0.100
743.100	-22.650	0.100
743.200	-22.230	0.100
743.300	-22.985	0.100
743.400	-27.120	0.100
743.500	-21.894	0.100
743.600	-15.321	0.100
743.700	-20.262	0.100
743.800	-19.187	0.100
743.900	-21.598	0.100
744.000	-22.121	0.100
744.100	-22.336	0.100
744.200	-18.428	0.100
744.300	-18.092	0.100
744.400	-21.636	0.100
744.500	-15.893	0.100
744.600	-22.457	0.100
744.700	-18.683	0.100
744.800	-19.429	0.100
744.900	-16.000	0.100
745.000	-18.382	0.100
745.100	-28.221	0.100
745.200	-12.696	0.100
745.300	-21.093	0.100
745.400	-8.799	0.100
745.500	-19.592	0.100
745.600	-15.754	0.100
745.700	-16.875	0.100
745.800	-22.264	0.100
745.900	-23.203	0.100
746.000	-22.702	0.100
746.100	-14.763	0.100
746.200	-20.485	0.100
746.300	-17.677	0.100
746.400	-17.751	0.100
746.500	-16.809	0.100
746.600	-19.840	0.100
746.700	-19.535	0.100
746.800	-15.189	0.100
746.900	-26.404	0.100
747.000	-19.772	0.100
747.100	-12.284	0.100
747.200	-12.509	0.100
747.300	-19.049	0.100
747.400	-20.695	0.100
747.500	-14.158	0.100
747.600	-19.669	0.100
747.700	-9.344	0.100
747.800	-12.415	0.100
747.900	-20.440	0.100
748.000	-16.898	0.100
748.100	-15.260	0.100
748.200	-27.656	0.100
748.300	-10.729	0.100
748.400	-18.467	0.100
748.500	-14.771	0.100
748.600	-17.968	0.100
748.700	-21.468	0.100
748.800	-17.150	0.100
748.900	-24.976	0.100
749.000	-20.462	0.100
749.100	-16.415	0.100
749.200	-13.683	0.100
749.300	-21.524	0.100
749.400	-15.975	0.100
749.500	-13.532	0.100
749.600	-14.228	0.100
749.700	-14.912	0.100
749.800	-13.603	0.100
749.900	-19.279	0.100
750.000	-16.580	0.100
750.100	-16.980	0.100
750.200	-15.930	0.100
750.300	-15.388	0.100
750.400	-22.984	0.100
750.500	-22.650	0.100
750.600	-26.184	0.100
750.700	-12.989	0.100
750.800	-13.315	0.100
750.900	-19.532	0.100
751.000	-16.776	0.100
751.100	-21.540	0.100
751.200	-16.358	0.100
751.300	-18.879	0.100
751.400	-9.281	0.100
751.500	-21.748	0.100
751.600	-18.800	0.100
751.700	-21.440	0.100
751.800	-20.157	0.100
751.900	-17.115	0.100
752.000	-20.205	0.100
752.100	-15.655	0.100
752.200	-16.945	0.100
752.300	-15.319	0.100
752.400	-16.653	0.100
752.500	-21.044	0.100
752.600	-19.640	0.100
752.700	-11.278	0.100
752.800	-17.130	0.100
752.900	-14.934	0.100
753.000	-15.724	0.100
753.100	-16.054	0.100
753.200	-14.810	0.100
753.300	-27.097	0.100
753.400	-14.801	0.100
753.500	-16.446	0.100
753.600	-11.509	0.100
753.700	-15.730	0.100
753.800	-11.843	0.100
753.900	-23.468	0.100
754.000	-17.040	0.100
754.100	-19.001	0.100
754.200	-16.310	0.100
754.300	-20.260	0.100
754.400	-16.247	0.100
754.500	-17.119	0.100
754.600	-18.847	0.100
754.700	-18.443	0.100
754.800	-17.009	0.100
754.900	-11.152	0.100
755.000	-18.306	0.100
755.100	-23.839	0.100
755.200	-25.057	0.100
755.300	-12.079	0.100
755.400	-9.982	0.100
755.500	-16.112	0.100
755.600	-15.738	0.100
755.700	-18.023	0.100
755.800	-22.910	0.100
755.900	-17.071	0.100
756.000	-21.269	0.100
756.100	-15.515	0.100
756.200	-13.317	0.100
756.300	-18.687	0.100
756.400	-16.783	0.100
756.500	-12.246	0.100
756.600	-12.394	0.100
756.700	-13.213	0.100
756.800	-13.028	0.100
756.900	-12.398	0.100
757.000	-18.529	0.100
757.100	-21.225	0.100
757.200	-16.817	0.100
757.300	-11.420	0.100
757.400	-18.052	0.100
757.500	-22.064	0.100
757.600	-14.827	0.100
757.700	-18.565	0.100
757.800	-14.067	0.100
757.900	-13.578	0.100
758.000	-13.118	0.100
758.100	-17.923	0.100
758.200	-25.386	0.100
758.300	-21.512	0.100
758.400	-16.229	0.100
758.500	-8.995	0.100
758.600	-18.605	0.100
758.700	-25.470	0.100
758.800	-18.075	0.100
758.900	-18.497	0.100
759.000	-15.332	0.100
759.100	-19.830	0.100
759.200	-16.934	0.100
759.300	-15.471	0.100
759.400	-19.852	0.100
759.500	-15.203	0.100
759.600	-13.733	0.100
759.700	-9.536	0.100
759.800	-22.447	0.100
759.900	-17.383	0.100
760.000	-10.042	0.100
760.100	-14.800	0.100
760.200	-13.811	0.100
760.300	-20.087	0.100
760.400	-20.058	0.100
760.500	-12.917	0.100
760.600	-18.515	0.100
760.700	-20.359	0.100
760.800	-15.328	0.100
760.900	-15.692	0.100
761.000	-12.200	0.100
761.100	-14.939	0.100
761.200	-10.717	0.100
761.300	-13.379	0.100
761.400	-28.044	0.100
761.500	-15.898	0.100
761.600	-4.997	0.100
761.700	-18.092	0.100
761.800	-10.390	0.100
761.900	-23.874	0.100
762.000	-13.151	0.100
762.100	-9.972	0.100
762.200	-12.536	0.100
762.300	-13.744	0.100
762.400	-15.117	0.100
762.500	-19.257	0.100
762.600	-13.558	0.100
762.700	-19.791	0.100
762.800	-14.016	0.100
762.900	-16.094	0.100
763.000	-16.695	0.100
763.100	-17.139	0.100
763.200	-21.590	0.100
763.300	-18.815	0.100
763.400	-5.090	0.100
763.500	-8.349	0.100
763.600	-19.782	0.100
763.700	-21.712	0.100
763.800	-22.709	0.100
763.900	-20.986	0.100
764.000	-15.875	0.100
764.100	-14.953	0.100
764.200	-13.149	0.100
764.300	-17.727	0.100
764.400	-9.538	0.100
764.500	-16.446	0.100
764.600	-18.447	0.100
764.700	-18.113	0.100
764.800	-20.705	0.100
764.900	-14.492	0.100
765.000	-17.961	0.100
765.100	-17.427	0.100
765.200	-12.660	0.100
765.300	-16.062	0.100
765.400	-19.089	0.100
765.500	-22.747	0.100
765.600	-11.826	0.100
765.700	-9.295	0.100
765.800	-20.345	0.100
765.900	-15.205	0.100
766.000	-12.753	0.100
766.100	-16.821	0.100
766.200	-11.509	0.100
766.300	-12.765	0.100
766.400	-19.703	0.100
766.500	-17.252	0.100
766.600	-11.892	0.100
766.700	-17.830	0.100
766.800	-15.672	0.100
766.900	-10.484	0.100
767.000	-17.392	0.100
767.100	-24.686	0.100
767.200	-11.305	0.100
767.300	-9.129	0.100
767.400	-17.305	0.100
767.500	-14.178	0.100
767.600	-15.726	0.100
767.700	-13.896	0.100
767.800	-14.356	0.100
767.900	-7.571	0.100
768.000	-12.476	0.100
768.100	-17.017	0.100
768.200	-21.326	0.100
768.300	-17.281	0.100
768.400	-16.062	0.100
768.500	-10.600	0.100
768.600	-25.339	0.100
768.700	-18.385	0.100
768.800	-15.317	0.100
768.900	-11.675	0.100
769.000	-10.156	0.100
769.100	-10.841	0.100
769.200	-15.095	0.100
769.300	-13.574	0.100
769.400	-18.764	0.100
769.500	-18.899	0.100
769.600	-14.744	0.100
769.700	-18.789	0.100
769.800	-16.917	0.100
769.900	-14.591	0.100
770.000	-17.490	0.100
770.100	-16.179	0.100
770.200	-22.812	0.100
770.300	-18.098	0.100
770.400	-18.667	0.100
770.500	-19.560	0.100
770.600	-22.947	0.100
770.700	-16.729	0.100
770.800	-19.719	0.100
770.900	-8.906	0.100
771.000	-15.119	0.100
771.100	-4.045	0.100
771.200	-14.104	0.100
771.300	-24.663	0.100
771.400	-17.467	0.100
771.500	-14.454	0.100
771.600	-8.626	0.100
771.700	-8.202	0.100
771.800	-26.521	0.100
771.900	-22.961	0.100
772.000	-15.276	0.100
772.100	-14.350	0.100
772.200	-5.767	0.100
772.300	-10.963	0.100
772.400	-14.546	0.100
772.500	-10.929	0.100
772.600	-15.683	0.100
772.700	-22.474	0.100
772.800	-21.750	0.100
772.900	-16.379	0.100
773.000	-12.076	0.100
773.100	-11.287	0.100
773.200	-13.805	0.100
773.300	-18.133	0.100
773.400	-18.737	0.100
773.500	-21.282	0.100
773.600	-15.240	0.100
773.700	-9.908	0.100
773.800	-10.183	0.100
773.900	-20.341	0.100
774.000	-12.786	0.100
774.100	-6.852	0.100
774.200	-15.013	0.100
774.300	-18.417	0.100
774.400	-16.009	0.100
774.500	-14.861	0.100
774.600	-11.710	0.100
774.700	-15.292	0.100
774.800	-27.792	0.100
774.900	-17.212	0.100
775.000	-9.165	0.100
775.100	-15.924	0.100
775.200	-18.014	0.100
775.300	-17.623	0.100
775.400	-8.003	0.100
775.500	-12.974	0.100
775.600	-14.480	0.100
775.700	-11.673	0.100
775.800	-17.513	0.100
775.900	-14.605	0.100
776.000	-11.039	0.100
776.100	-11.892	0.100
776.200	-18.751	0.100
776.300	-13.209	0.100
776.400	-13.661	0.100
776.500	-19.494	0.100
776.600	-14.645	0.100
776.700	-18.329	0.100
776.800	-20.086	0.100
776.900	-11.954	0.100
777.000	-11.139	0.100
777.100	-11.978	0.100
777.200	-13.043	0.100
777.300	-7.306	0.100
777.400	-24.128	0.100
777.500	-17.876	0.100
777.600	-13.998	0.100
777.700	-10.375	0.100
777.800	-9.968	0.100
777.900	-17.481	0.100
778.000	-5.942	0.100
778.100	-11.061	0.100
778.200	-13.493	0.100
778.300	-14.841	0.100
778.400	-13.423	0.100
778.500	-11.110	0.100
778.600	-14.407	0.100
778.700	-13.622	0.100
778.800	-15.794	0.100
778.900	-23.962	0.100
779.000	-14.576	0.100
779.100	-10.799	0.100
779.200	-13.130	0.100
779.300	-16.093	0.100
779.400	-16.602	0.100
779.500	-14.462	0.100
779.600	-9.608	0.100
779.700	-15.010	0.100
779.800	-11.193	0.100
779.900	-23.256	0.100
780.000	-10.137	0.100
780.100	-9.566	0.100
780.200	-18.399	0.100
780.300	-16.346	0.100
780.400	-15.100	0.100
780.500	-13.361	0.100
780.600	-12.853	0.100
780.700	-9.313	0.100
780.800	-9.467	0.100
780.900	-8.642	0.100
781.000	-1.670	0.100
781.100	1.740	0.100
781.200	5.396	0.100
781.300	6.111	0.100
781.400	7.958	0.100
781.500	17.727	0.100
781.600	16.580	0.100
781.700	15.555	0.100
781.800	19.669	0.100
781.900	26.043	0.100
782.000	19.406	0.100
782.100	16.221	0.100
782.200	18.127	0.100
782.300	24.010	0.100
782.400	28.408	0.100
782.500	20.004	0.100
782.600	21.581	0.100
782.700	17.910	0.100
782.800	20.902	0.100
782.900	17.814	0.100
783.000	23.123	0.100
783.100	29.211	0.100
783.200	15.447	0.100
783.300	14.178	0.100
783.400	24.663	0.100
783.500	21.050	0.100
783.600	16.022	0.100
783.700	23.516	0.100
783.800	20.164	0.100
783.900	22.540	0.100
784.000	19.817	0.100
784.100	25.076	0.100
784.200	12.041	0.100
784.300	22.615	0.100
784.400	12.522	0.100
784.500	7.865	0.100
784.600	23.682	0.100
784.700	27.563	0.100
784.800	18.664	0.100
784.900	8.360	0.100
785.000	19.080	0.100
785.100	17.148	0.100
785.200	12.453	0.100
785.300	16.473	0.100
785.400	22.517	0.100
785.500	12.526	0.100
785.600	16.452	0.100
785.700	10.785	0.100
785.800	14.886	0.100
785.900	21.815	0.100
786.000	14.256	0.100
786.100	10.300	0.100
786.200	11.446	0.100
786.300	-1.065	0.100
786.400	10.697	0.100
786.500	20.861	0.100
786.600	9.632	0.100
786.700	16.436	0.100
786.800	10.408	0.100
786.900	8.600	0.100
787.000	6.380	0.100
787.100	14.313	0.100
787.200	3.410	0.100
787.300	3.766	0.100
787.400	13.968	0.100
787.500	4.121	0.100
787.600	16.158	0.100
787.700	17.141	0.100
787.800	9.217	0.100
787.900	10.590	0.100
788.000	7.321	0.100
788.100	3.809	0.100
788.200	18.433	0.100
788.300	5.532	0.100
788.400	7.719	0.100
788.500	14.335	0.100
788.600	14.418	0.100
788.700	12.666	0.100
788.800	8.453	0.100
788.900	7.677	0.100
789.000	6.429	0.100
789.100	10.290	0.100
789.200	20.363	0.100
789.300	6.151	0.100
789.400	8.392	0.100
789.500	6.334	0.100
789.600	20.981	0.100
789.700	10.214	0.100
789.800	10.054	0.100
789.900	21.025	0.100
790.000	10.821	0.100
790.100	13.862	0.100
790.200	19.906	0.100
790.300	12.492	0.100
790.400	6.315	0.100
790.500	12.064	0.100
790.600	11.100	0.100
790.700	11.623	0.100
790.800	11.846	0.100
790.900	10.826	0.100
791.000	10.285	0.100
791.100	12.339	0.100
791.200	12.873	0.100
791.300	17.322	0.100
791.400	14.619	0.100
791.500	16.343	0.100
791.600	20.553	0.100
791.700	11.948	0.100
791.800	10.259	0.100
791.900	12.887	0.100
792.000	10.980	0.100
792.100	23.743	0.100
792.200	17.692	0.100
792.300	15.154	0.100
792.400	13.816	0.100
792.500	12.821	0.100
792.600	11.605	0.100
792.700	16.808	0.100
792.800	16.933	0.100
792.900	19.178	0.100
793.000	17.105	0.100
793.100	16.225	0.100
793.200	17.388	0.100
793.300	23.878	0.100
793.400	23.344	0.100
793.500	20.235	0.100
793.600	19.491	0.100
793.700	24.085	0.100
793.800	21.832	0.100
793.900	12.295	0.100
794.000	14.140	0.100
794.100	16.967	0.100
794.200	18.754	0.100
794.300	24.274	0.100
794.400	20.539	0.100
794.500	16.714	0.100
794.600	11.272	0.100
794.700	17.143	0.100
794.800	18.935	0.100
794.900	25.896	0.100
795.000	17.922	0.100
795.100	21.883	0.100
795.200	20.578	0.100
795.300	16.000	0.100
795.400	21.506	0.100
795.500	14.809	0.100
795.600	25.233	0.100
795.700	21.774	0.100
795.800	22.457	0.100
795.900	22.848	0.100
796.000	27.482	0.100
796.100	21.955	0.100
796.200	17.435	0.100
796.300	26.227	0.100
796.400	22.601	0.100
796.500	20.296	0.100
796.600	25.351	0.100
796.700	27.498	0.100
796.800	24.575	0.100
796.900	15.217	0.100
797.000	17.856	0.100
797.100	28.306	0.100
797.200	25.698	0.100
797.300	28.555	0.100
797.400	19.838	0.100
797.500	31.739	0.100
797.600	25.391	0.100
797.700	30.145	0.100
797.800	24.099	0.100
797.900	26.737	0.100
798.000	23.832	0.100
798.100	32.143	0.100
798.200	19.629	0.100
798.300	25.362	0.100
798.400	26.349	0.100
798.500	22.176	0.100
798.600	22.576	0.100
798.700	24.732	0.100
798.800	26.260	0.100
798.900	27.407	0.100
799.000	20.530	0.100
799.100	32.490	0.100
799.200	25.097	0.100
799.300	39.046	0.100
799.400	20.922	0.100
799.500	32.482	0.100
799.600	38.909	0.100
799.700	34.761	0.100
799.800	22.852	0.100
799.900	23.474	0.100
800.000	15.035	0.100
