time /s	I /nA	E /V
0.100	-11.841	0.100
0.200	-10.985	0.100
0.300	-6.993	0.100
0.400	-18.170	0.100
0.500	-14.986	0.100
0.600	-15.917	0.100
0.700	-4.770	0.100
0.800	-10.604	0.100
0.900	-7.678	0.100
1.000	-19.920	0.100
1.100	-13.697	0.100
1.200	-16.021	0.100
1.300	-17.516	0.100
1.400	-6.307	0.100
1.500	-9.274	0.100
1.600	-10.245	0.100
1.700	-13.064	0.100
1.800	-13.258	0.100
1.900	-8.807	0.100
2.000	-12.322	0.100
2.100	-2.430	0.100
2.200	-3.806	0.100
2.300	-11.429	0.100
2.400	-2.272	0.100
2.500	-16.159	0.100
2.600	-12.993	0.100
2.700	-5.392	0.100
2.800	-12.285	0.100
2.900	-10.172	0.100
3.000	-10.404	0.100
3.100	-10.394	0.100
3.200	-11.983	0.100
3.300	-2.364	0.100
3.400	-18.387	0.100
3.500	-13.364	0.100
3.600	-11.596	0.100
3.700	-13.008	0.100
3.800	-5.993	0.100
3.900	-9.442	0.100
4.000	-11.073	0.100
4.100	-16.884	0.100
4.200	-8.878	0.100
4.300	-4.119	0.100
4.400	-12.865	0.100
4.500	-13.186	0.100
4.600	-13.404	0.100
4.700	-17.113	0.100
4.800	-3.765	0.100
4.900	-2.548	0.100
5.000	-13.320	0.100
5.100	-4.786	0.100
5.200	-8.577	0.100
5.300	-6.952	0.100
5.400	-21.908	0.100
5.500	-9.918	0.100
5.600	-18.522	0.100
5.700	0.254	0.100
5.800	-11.238	0.100
5.900	-3.616	0.100
6.000	-9.116	0.100
6.100	-16.191	0.100
6.200	-6.778	0.100
6.300	-12.410	0.100
6.400	-16.555	0.100
6.500	-11.060	0.100
6.600	-12.005	0.100
6.700	-6.072	0.100
6.800	-11.782	0.100
6.900	-13.131	0.100
7.000	-13.291	0.100
7.100	-6.032	0.100
7.200	-1.378	0.100
7.300	-8.536	0.100
7.400	-6.736	0.100
7.500	2.562	0.100
7.600	-2.064	0.100
7.700	-3.497	0.100
7.800	-13.623	0.100
7.900	-20.591	0.100
8.000	-14.074	0.100
8.100	-2.815	0.100
8.200	-11.474	0.100
8.300	-15.649	0.100
8.400	-15.365	0.100
8.500	-17.891	0.100
8.600	-8.961	0.100
8.700	-16.373	0.100
8.800	-12.094	0.100
8.900	-7.844	0.100
9.000	-10.862	0.100
9.100	-5.205	0.100
9.200	-14.811	0.100
9.300	-5.420	0.100
9.400	-11.069	0.100
9.500	1.176	0.100
9.600	-7.851	0.100
9.700	-3.491	0.100
9.800	-18.937	0.100
9.900	-7.149	0.100
10.000	-16.873	0.100
10.100	-9.862	0.100
10.200	-6.621	0.100
10.300	-10.634	0.100
10.400	-10.057	0.100
10.500	-9.121	0.100
10.600	-8.804	0.100
10.700	-3.754	0.100
10.800	-11.180	0.100
10.900	-12.115	0.100
11.000	-9.222	0.100
11.100	-6.386	0.100
11.200	-2.861	0.100
11.300	-7.846	0.100
11.400	-13.064	0.100
11.500	-7.915	0.100
11.600	-10.802	0.100
11.700	-12.604	0.100
11.800	-6.411	0.100
11.900	-12.035	0.100
12.000	-0.708	0.100
12.100	-3.045	0.100
12.200	-10.832	0.100
12.300	-10.767	0.100
12.400	-5.701	0.100
12.500	-4.084	0.100
12.600	-10.788	0.100
12.700	-12.584	0.100
12.800	-12.767	0.100
12.900	-8.326	0.100
13.000	-10.508	0.100
13.100	-13.309	0.100
13.200	-11.490	0.100
13.300	-7.779	0.100
13.400	-15.416	0.100
13.500	-10.740	0.100
13.600	-2.506	0.100
13.700	0.473	0.100
13.800	-16.150	0.100
13.900	-14.183	0.100
14.000	-10.719	0.100
14.100	-3.433	0.100
14.200	-21.128	0.100
14.300	-7.689	0.100
14.400	-2.994	0.100
14.500	-7.304	0.100
14.600	-9.709	0.100
14.700	-14.639	0.100
14.800	-6.321	0.100
14.900	-0.785	0.100
15.000	-13.227	0.100
15.100	-5.619	0.100
15.200	-10.591	0.100
15.300	-8.972	0.100
15.400	-13.172	0.100
15.500	-7.038	0.100
15.600	-4.602	0.100
15.700	-7.359	0.100
15.800	-7.969	0.100
15.900	-6.236	0.100
16.000	-10.803	0.100
16.100	-8.992	0.100
16.200	-11.991	0.100
16.300	-6.643	0.100
16.400	-2.552	0.100
16.500	-12.764	0.100
16.600	-10.448	0.100
16.700	-8.978	0.100
16.800	-11.145	0.100
16.900	-11.192	0.100
17.000	-7.702	0.100
17.100	-14.444	0.100
17.200	-7.696	0.100
17.300	-5.748	0.100
17.400	-11.308	0.100
17.500	-13.884	0.100
17.600	-11.795	0.100
17.700	-12.561	0.100
17.800	-3.596	0.100
17.900	-9.207	0.100
18.000	-9.318	0.100
18.100	-9.260	0.100
18.200	-13.748	0.100
18.300	-13.538	0.100
18.400	-10.740	0.100
18.500	-9.604	0.100
18.600	-7.119	0.100
18.700	-13.707	0.100
18.800	-10.299	0.100
18.900	-5.618	0.100
19.000	-2.717	0.100
19.100	-13.147	0.100
19.200	-7.343	0.100
19.300	-9.935	0.100
19.400	-5.029	0.100
19.500	-4.685	0.100
19.600	-15.218	0.100
19.700	-8.166	0.100
19.800	-9.995	0.100
19.900	-4.541	0.100
20.000	-2.951	0.100
20.100	-5.973	0.100
20.200	-13.042	0.100
20.300	-15.901	0.100
20.400	-16.539	0.100
20.500	-8.917	0.100
20.600	0.539	0.100
20.700	-11.286	0.100
20.800	-15.457	0.100
20.900	-7.015	0.100
21.000	-10.985	0.100
21.100	-9.667	0.100
21.200	-6.440	0.100
21.300	-7.763	0.100
21.400	-6.859	0.100
21.500	-9.759	0.100
21.600	-6.672	0.100
21.700	-13.262	0.100
21.800	-10.994	0.100
21.900	-3.125	0.100
22.000	-10.414	0.100
22.100	-2.630	0.100
22.200	-8.422	0.100
22.300	-13.025	0.100
22.400	-4.803	0.100
22.500	-10.802	0.100
22.600	-5.563	0.100
22.700	-3.951	0.100
22.800	-20.557	0.100
22.900	-18.905	0.100
23.000	-3.137	0.100
23.100	0.098	0.100
23.200	-10.980	0.100
23.300	-13.499	0.100
23.400	-13.734	0.100
23.500	-8.813	0.100
23.600	-11.020	0.100
23.700	-10.004	0.100
23.800	-5.985	0.100
23.900	-4.223	0.100
24.000	-12.551	0.100
24.100	-3.702	0.100
24.200	-15.468	0.100
24.300	-11.939	0.100
24.400	-4.932	0.100
24.500	-10.447	0.100
24.600	-9.126	0.100
24.700	-1.009	0.100
24.800	-6.346	0.100
24.900	-13.035	0.100
25.000	-8.664	0.100
25.100	-14.444	0.100
25.200	-9.487	0.100
25.300	0.936	0.100
25.400	-16.507	0.100
25.500	-8.259	0.100
25.600	-2.365	0.100
25.700	-15.812	0.100
25.800	-11.538	0.100
25.900	-19.672	0.100
26.000	-3.860	0.100
26.100	-1.173	0.100
26.200	-15.719	0.100
26.300	-9.054	0.100
26.400	-12.579	0.100
26.500	-3.058	0.100
26.600	-4.689	0.100
26.700	-16.866	0.100
26.800	-5.869	0.100
26.900	5.074	0.100
27.000	-0.022	0.100
27.100	-5.726	0.100
27.200	-12.103	0.100
27.300	-12.325	0.100
27.400	-8.574	0.100
27.500	-7.115	0.100
27.600	-7.601	0.100
27.700	-13.105	0.100
27.800	-11.348	0.100
27.900	-12.235	0.100
28.000	-0.640	0.100
28.100	-8.986	0.100
28.200	-6.747	0.100
28.300	-7.015	0.100
28.400	-9.504	0.100
28.500	-10.766	0.100
28.600	-15.129	0.100
28.700	-9.277	0.100
28.800	-10.207	0.100
28.900	-6.404	0.100
29.000	-12.531	0.100
29.100	-14.180	0.100
29.200	-13.598	0.100
29.300	-6.185	0.100
29.400	-7.784	0.100
29.500	-11.644	0.100
29.600	-5.569	0.100
29.700	-1.675	0.100
29.800	-8.022	0.100
29.900	-6.857	0.100
30.000	-15.098	0.100
30.100	0.361	0.100
30.200	-10.199	0.100
30.300	-14.566	0.100
30.400	-17.676	0.100
30.500	-5.031	0.100
30.600	-10.394	0.100
30.700	-0.534	0.100
30.800	2.438	0.100
30.900	-4.921	0.100
31.000	-6.590	0.100
31.100	5.049	0.100
31.200	4.605	0.100
31.300	-0.138	0.100
31.400	12.875	0.100
31.500	8.721	0.100
31.600	9.355	0.100
31.700	-0.444	0.100
31.800	13.279	0.100
31.900	10.758	0.100
32.000	4.475	0.100
32.100	1.921	0.100
32.200	11.919	0.100
32.300	9.618	0.100
32.400	10.103	0.100
32.500	19.226	0.100
32.600	12.369	0.100
32.700	14.425	0.100
32.800	14.795	0.100
32.900	15.051	0.100
33.000	9.889	0.100
33.100	16.716	0.100
33.200	24.137	0.100
33.300	17.296	0.100
33.400	16.352	0.100
33.500	15.152	0.100
33.600	9.748	0.100
33.700	13.974	0.100
33.800	10.767	0.100
33.900	11.766	0.100
34.000	10.051	0.100
34.100	19.923	0.100
34.200	7.419	0.100
34.300	12.565	0.100
34.400	15.625	0.100
34.500	8.982	0.100
34.600	18.710	0.100
34.700	14.954	0.100
34.800	12.670	0.100
34.900	10.911	0.100
35.000	17.550	0.100
35.100	8.683	0.100
35.200	11.749	0.100
35.300	14.535	0.100
35.400	14.892	0.100
35.500	-0.930	0.100
35.600	19.491	0.100
35.700	15.997	0.100
35.800	7.397	0.100
35.900	-1.244	0.100
36.000	1.693	0.100
36.100	6.436	0.100
36.200	18.905	0.100
36.300	13.636	0.100
36.400	8.613	0.100
36.500	10.906	0.100
36.600	9.800	0.100
36.700	2.799	0.100
36.800	6.015	0.100
36.900	10.150	0.100
37.000	13.439	0.100
37.100	21.136	0.100
37.200	11.186	0.100
37.300	10.012	0.100
37.400	10.614	0.100
37.500	8.506	0.100
37.600	13.400	0.100
37.700	10.355	0.100
37.800	2.297	0.100
37.900	3.423	0.100
38.000	2.113	0.100
38.100	10.144	0.100
38.200	8.264	0.100
38.300	5.418	0.100
38.400	16.159	0.100
38.500	10.095	0.100
38.600	7.729	0.100
38.700	18.831	0.100
38.800	15.988	0.100
38.900	7.583	0.100
39.000	10.451	0.100
39.100	13.935	0.100
39.200	14.367	0.100
39.300	12.882	0.100
39.400	10.631	0.100
39.500	14.582	0.100
39.600	18.620	0.100
39.700	17.622	0.100
39.800	13.708	0.100
39.900	7.626	0.100
40.000	10.334	0.100
40.100	14.541	0.100
40.200	10.293	0.100
40.300	13.114	0.100
40.400	11.743	0.100
40.500	12.021	0.100
40.600	9.510	0.100
40.700	23.644	0.100
40.800	20.004	0.100
40.900	15.166	0.100
41.000	10.497	0.100
41.100	21.300	0.100
41.200	18.586	0.100
41.300	16.670	0.100
41.400	10.933	0.100
41.500	21.008	0.100
41.600	9.623	0.100
41.700	13.478	0.100
41.800	11.075	0.100
41.900	12.990	0.100
42.000	21.039	0.100
42.100	22.056	0.100
42.200	17.309	0.100
42.300	16.560	0.100
42.400	15.338	0.100
42.500	16.780	0.100
42.600	27.158	0.100
42.700	11.597	0.100
42.800	11.479	0.100
42.900	12.226	0.100
43.000	19.810	0.100
43.100	17.892	0.100
43.200	15.702	0.100
43.300	7.381	0.100
43.400	15.192	0.100
43.500	12.078	0.100
43.600	21.493	0.100
43.700	8.663	0.100
43.800	17.435	0.100
43.900	11.818	0.100
44.000	13.952	0.100
44.100	13.629	0.100
44.200	8.064	0.100
44.300	23.199	0.100
44.400	10.275	0.100
44.500	12.597	0.100
44.600	17.105	0.100
44.700	14.889	0.100
44.800	19.493	0.100
44.900	9.364	0.100
45.000	17.262	0.100
45.100	12.933	0.100
45.200	16.498	0.100
45.300	9.004	0.100
45.400	10.745	0.100
45.500	22.510	0.100
45.600	18.530	0.100
45.700	17.981	0.100
45.800	7.700	0.100
45.900	20.387	0.100
46.000	15.537	0.100
46.100	11.976	0.100
46.200	23.913	0.100
46.300	20.598	0.100
46.400	12.272	0.100
46.500	20.523	0.100
46.600	10.473	0.100
46.700	18.330	0.100
46.800	16.727	0.100
46.900	19.391	0.100
47.000	18.485	0.100
47.100	23.507	0.100
47.200	24.048	0.100
47.300	7.075	0.100
47.400	17.599	0.100
47.500	23.039	0.100
47.600	24.894	0.100
47.700	22.455	0.100
47.800	21.505	0.100
47.900	16.138	0.100
48.000	9.065	0.100
48.100	16.791	0.100
48.200	14.099	0.100
48.300	16.812	0.100
48.400	17.397	0.100
48.500	23.331	0.100
48.600	19.142	0.100
48.700	12.993	0.100
48.800	11.411	0.100
48.900	11.964	0.100
49.000	23.518	0.100
49.100	30.810	0.100
49.200	17.964	0.100
49.300	13.504	0.100
49.400	19.108	0.100
49.500	14.191	0.100
49.600	21.825	0.100
49.700	18.978	0.100
49.800	14.278	0.100
49.900	12.540	0.100
50.000	28.698	0.100
50.100	20.992	0.100
50.200	23.659	0.100
50.300	15.122	0.100
50.400	22.432	0.100
50.500	16.466	0.100
50.600	25.480	0.100
50.700	18.144	0.100
50.800	4.061	0.100
50.900	21.528	0.100
51.000	21.290	0.100
51.100	16.711	0.100
51.200	22.556	0.100
51.300	28.784	0.100
51.400	12.429	0.100
51.500	20.980	0.100
51.600	16.889	0.100
51.700	13.110	0.100
51.800	23.457	0.100
51.900	18.764	0.100
52.000	17.162	0.100
52.100	15.399	0.100
52.200	26.180	0.100
52.300	15.729	0.100
52.400	22.832	0.100
52.500	22.302	0.100
52.600	27.533	0.100
52.700	17.985	0.100
52.800	21.000	0.100
52.900	14.727	0.100
53.000	19.497	0.100
53.100	17.198	0.100
53.200	14.457	0.100
53.300	27.751	0.100
53.400	28.243	0.100
53.500	18.880	0.100
53.600	19.690	0.100
53.700	17.824	0.100
53.800	13.590	0.100
53.900	24.496	0.100
54.000	29.369	0.100
54.100	16.242	0.100
54.200	31.251	0.100
54.300	22.909	0.100
54.400	12.307	0.100
54.500	27.823	0.100
54.600	18.951	0.100
54.700	29.717	0.100
54.800	19.282	0.100
54.900	29.746	0.100
55.000	19.444	0.100
55.100	26.063	0.100
55.200	29.526	0.100
55.300	21.472	0.100
55.400	26.127	0.100
55.500	22.847	0.100
55.600	24.973	0.100
55.700	18.239	0.100
55.800	21.142	0.100
55.900	26.203	0.100
56.000	13.592	0.100
56.100	14.857	0.100
56.200	19.823	0.100
56.300	25.873	0.100
56.400	23.793	0.100
56.500	24.452	0.100
56.600	20.648	0.100
56.700	20.486	0.100
56.800	34.173	0.100
56.900	13.404	0.100
57.000	23.122	0.100
57.100	22.123	0.100
57.200	14.833	0.100
57.300	35.754	0.100
57.400	23.213	0.100
57.500	25.755	0.100
57.600	15.628	0.100
57.700	22.727	0.100
57.800	20.090	0.100
57.900	15.876	0.100
58.000	27.635	0.100
58.100	19.942	0.100
58.200	27.608	0.100
58.300	16.962	0.100
58.400	26.450	0.100
58.500	24.669	0.100
58.600	33.595	0.100
58.700	27.639	0.100
58.800	24.741	0.100
58.900	23.927	0.100
59.000	24.566	0.100
59.100	24.356	0.100
59.200	22.765	0.100
59.300	24.733	0.100
59.400	18.976	0.100
59.500	29.566	0.100
59.600	19.520	0.100
59.700	25.941	0.100
59.800	24.649	0.100
59.900	21.976	0.100
60.000	24.793	0.100
60.100	34.721	0.100
60.200	31.008	0.100
60.300	19.575	0.100
60.400	16.106	0.100
60.500	35.714	0.100
60.600	30.474	0.100
60.700	26.034	0.100
60.800	29.396	0.100
60.900	19.586	0.100
61.000	20.963	0.100
61.100	29.929	0.100
61.200	24.436	0.100
61.300	27.729	0.100
61.400	24.519	0.100
61.500	31.829	0.100
61.600	14.920	0.100
61.700	24.679	0.100
61.800	30.015	0.100
61.900	22.437	0.100
62.000	25.389	0.100
62.100	24.576	0.100
62.200	36.017	0.100
62.300	43.023	0.100
62.400	19.310	0.100
62.500	25.792	0.100
62.600	29.693	0.100
62.700	20.322	0.100
62.800	22.802	0.100
62.900	30.971	0.100
63.000	27.858	0.100
63.100	29.575	0.100
63.200	22.119	0.100
63.300	13.696	0.100
63.400	19.532	0.100
63.500	32.793	0.100
63.600	32.115	0.100
63.700	37.792	0.100
63.800	28.951	0.100
63.900	29.892	0.100
64.000	24.297	0.100
64.100	21.132	0.100
64.200	27.647	0.100
64.300	32.478	0.100
64.400	32.899	0.100
64.500	21.880	0.100
64.600	30.237	0.100
64.700	23.553	0.100
64.800	25.515	0.100
64.900	23.041	0.100
65.000	32.826	0.100
65.100	22.966	0.100
65.200	32.224	0.100
65.300	38.963	0.100
65.400	28.326	0.100
65.500	20.517	0.100
65.600	34.095	0.100
65.700	21.400	0.100
65.800	25.760	0.100
65.900	20.634	0.100
66.000	28.702	0.100
66.100	28.294	0.100
66.200	18.760	0.100
66.300	36.932	0.100
66.400	36.253	0.100
66.500	27.831	0.100
66.600	30.822	0.100
66.700	20.539	0.100
66.800	33.292	0.100
66.900	29.289	0.100
67.000	21.911	0.100
67.100	22.610	0.100
67.200	29.027	0.100
67.300	12.830	0.100
67.400	22.867	0.100
67.500	32.364	0.100
67.600	28.376	0.100
67.700	27.986	0.100
67.800	29.090	0.100
67.900	27.696	0.100
68.000	29.421	0.100
68.100	28.640	0.100
68.200	29.164	0.100
68.300	25.333	0.100
68.400	20.836	0.100
68.500	25.437	0.100
68.600	33.613	0.100
68.700	24.646	0.100
68.800	26.014	0.100
68.900	29.787	0.100
69.000	31.084	0.100
69.100	29.637	0.100
69.200	25.185	0.100
69.300	38.340	0.100
69.400	27.952	0.100
69.500	27.757	0.100
69.600	29.687	0.100
69.700	18.438	0.100
69.800	28.901	0.100
69.900	29.272	0.100
70.000	46.919	0.100
70.100	30.065	0.100
70.200	27.574	0.100
70.300	28.385	0.100
70.400	30.312	0.100
70.500	29.035	0.100
70.600	23.901	0.100
70.700	26.760	0.100
70.800	27.589	0.100
70.900	35.406	0.100
71.000	32.030	0.100
71.100	34.219	0.100
71.200	28.317	0.100
71.300	29.407	0.100
71.400	29.341	0.100
71.500	27.131	0.100
71.600	38.189	0.100
71.700	29.338	0.100
71.800	31.281	0.100
71.900	26.767	0.100
72.000	35.453	0.100
72.100	22.295	0.100
72.200	33.168	0.100
72.300	34.875	0.100
72.400	31.355	0.100
72.500	27.356	0.100
72.600	33.438	0.100
72.700	27.634	0.100
72.800	29.189	0.100
72.900	30.913	0.100
73.000	32.707	0.100
73.100	32.511	0.100
73.200	23.029	0.100
73.300	34.015	0.100
73.400	19.179	0.100
73.500	24.691	0.100
73.600	33.897	0.100
73.700	19.984	0.100
73.800	24.965	0.100
73.900	31.864	0.100
74.000	35.064	0.100
74.100	27.535	0.100
74.200	20.031	0.100
74.300	26.786	0.100
74.400	32.049	0.100
74.500	22.347	0.100
74.600	27.744	0.100
74.700	38.827	0.100
74.800	30.410	0.100
74.900	28.871	0.100
75.000	28.001	0.100
75.100	25.503	0.100
75.200	37.344	0.100
75.300	33.937	0.100
75.400	23.448	0.100
75.500	36.252	0.100
75.600	25.487	0.100
75.700	31.760	0.100
75.800	32.653	0.100
75.900	30.654	0.100
76.000	27.404	0.100
76.100	39.382	0.100
76.200	28.972	0.100
76.300	27.203	0.100
76.400	36.153	0.100
76.500	25.228	0.100
76.600	29.564	0.100
76.700	37.464	0.100
76.800	29.011	0.100
76.900	32.350	0.100
77.000	24.374	0.100
77.100	29.302	0.100
77.200	32.100	0.100
77.300	36.977	0.100
77.400	18.453	0.100
77.500	26.431	0.100
77.600	33.094	0.100
77.700	32.943	0.100
77.800	29.949	0.100
77.900	28.817	0.100
78.000	34.494	0.100
78.100	25.865	0.100
78.200	24.898	0.100
78.300	29.937	0.100
78.400	33.029	0.100
78.500	25.428	0.100
78.600	31.064	0.100
78.700	27.067	0.100
78.800	26.649	0.100
78.900	29.204	0.100
79.000	33.423	0.100
79.100	28.196	0.100
79.200	36.504	0.100
79.300	30.798	0.100
79.400	28.830	0.100
79.500	32.803	0.100
79.600	33.040	0.100
79.700	26.497	0.100
79.800	26.154	0.100
79.900	31.115	0.100
80.000	30.149	0.100
80.100	36.224	0.100
80.200	28.649	0.100
80.300	26.507	0.100
80.400	27.542	0.100
80.500	27.049	0.100
80.600	23.720	0.100
80.700	28.870	0.100
80.800	28.478	0.100
80.900	35.205	0.100
81.000	21.000	0.100
81.100	30.083	0.100
81.200	30.559	0.100
81.300	30.151	0.100
81.400	30.515	0.100
81.500	28.334	0.100
81.600	34.945	0.100
81.700	30.454	0.100
81.800	26.639	0.100
81.900	25.634	0.100
82.000	37.144	0.100
82.100	26.309	0.100
82.200	24.270	0.100
82.300	36.916	0.100
82.400	20.411	0.100
82.500	33.808	0.100
82.600	29.855	0.100
82.700	26.615	0.100
82.800	25.471	0.100
82.900	25.894	0.100
83.000	32.600	0.100
83.100	26.101	0.100
83.200	25.759	0.100
83.300	29.679	0.100
83.400	29.085	0.100
83.500	27.756	0.100
83.600	34.637	0.100
83.700	29.928	0.100
83.800	28.430	0.100
83.900	34.177	0.100
84.000	29.639	0.100
84.100	28.905	0.100
84.200	46.418	0.100
84.300	26.800	0.100
84.400	24.815	0.100
84.500	24.825	0.100
84.600	39.437	0.100
84.700	34.858	0.100
84.800	34.071	0.100
84.900	32.499	0.100
85.000	27.368	0.100
85.100	31.592	0.100
85.200	28.518	0.100
85.300	30.904	0.100
85.400	29.328	0.100
85.500	37.409	0.100
85.600	23.610	0.100
85.700	30.507	0.100
85.800	36.047	0.100
85.900	29.234	0.100
86.000	32.063	0.100
86.100	28.857	0.100
86.200	32.274	0.100
86.300	31.762	0.100
86.400	26.833	0.100
86.500	28.543	0.100
86.600	30.150	0.100
86.700	26.146	0.100
86.800	26.773	0.100
86.900	30.078	0.100
87.000	29.883	0.100
87.100	31.629	0.100
87.200	34.253	0.100
87.300	24.819	0.100
87.400	29.776	0.100
87.500	30.674	0.100
87.600	29.906	0.100
87.700	33.573	0.100
87.800	31.236	0.100
87.900	28.096	0.100
88.000	31.242	0.100
88.100	34.382	0.100
88.200	21.152	0.100
88.300	28.857	0.100
88.400	30.117	0.100
88.500	43.306	0.100
88.600	28.823	0.100
88.700	33.104	0.100
88.800	31.450	0.100
88.900	34.657	0.100
89.000	30.090	0.100
89.100	32.540	0.100
89.200	38.128	0.100
89.300	25.199	0.100
89.400	33.007	0.100
89.500	32.572	0.100
89.600	34.278	0.100
89.700	24.858	0.100
89.800	32.125	0.100
89.900	26.629	0.100
90.000	26.646	0.100
90.100	29.305	0.100
90.200	25.930	0.100
90.300	32.670	0.100
90.400	25.473	0.100
90.500	23.571	0.100
90.600	30.622	0.100
90.700	23.202	0.100
90.800	23.644	0.100
90.900	23.014	0.100
91.000	19.149	0.100
91.100	19.816	0.100
91.200	16.686	0.100
91.300	18.212	0.100
91.400	18.884	0.100
91.500	10.214	0.100
91.600	15.159	0.100
91.700	12.127	0.100
91.800	10.445	0.100
91.900	16.797	0.100
92.000	10.946	0.100
92.100	13.279	0.100
92.200	2.637	0.100
92.300	13.453	0.100
92.400	20.711	0.100
92.500	-0.621	0.100
92.600	3.693	0.100
92.700	3.307	0.100
92.800	8.333	0.100
92.900	0.147	0.100
93.000	4.576	0.100
93.100	-3.876	0.100
93.200	2.598	0.100
93.300	15.089	0.100
93.400	9.263	0.100
93.500	5.765	0.100
93.600	4.005	0.100
93.700	-1.867	0.100
93.800	3.322	0.100
93.900	11.520	0.100
94.000	0.482	0.100
94.100	8.229	0.100
94.200	-5.953	0.100
94.300	4.668	0.100
94.400	3.844	0.100
94.500	2.722	0.100
94.600	-3.608	0.100
94.700	-1.194	0.100
94.800	3.067	0.100
94.900	1.250	0.100
95.000	3.476	0.100
95.100	1.032	0.100
95.200	4.636	0.100
95.300	1.862	0.100
95.400	3.827	0.100
95.500	7.206	0.100
95.600	-2.408	0.100
95.700	-6.455	0.100
95.800	1.154	0.100
95.900	3.265	0.100
96.000	6.999	0.100
96.100	-1.021	0.100
96.200	4.914	0.100
96.300	4.739	0.100
96.400	3.116	0.100
96.500	1.443	0.100
96.600	1.627	0.100
96.700	8.542	0.100
96.800	-0.657	0.100
96.900	-3.639	0.100
97.000	-3.610	0.100
97.100	-0.314	0.100
97.200	4.035	0.100
97.300	2.244	0.100
97.400	-5.097	0.100
97.500	2.304	0.100
97.600	-1.752	0.100
97.700	4.586	0.100
97.800	4.985	0.100
97.900	3.068	0.100
98.000	-2.228	0.100
98.100	-7.413	0.100
98.200	1.619	0.100
98.300	3.084	0.100
98.400	1.870	0.100
98.500	-0.112	0.100
98.600	-5.841	0.100
98.700	-2.751	0.100
98.800	0.974	0.100
98.900	2.521	0.100
99.000	3.786	0.100
99.100	1.911	0.100
99.200	-0.438	0.100
99.300	-6.347	0.100
99.400	3.474	0.100
99.500	3.225	0.100
99.600	5.761	0.100
99.700	3.398	0.100
99.800	3.438	0.100
99.900	3.317	0.100
100.000	4.422	0.100
100.100	-0.901	0.100
100.200	-0.581	0.100
100.300	-6.216	0.100
100.400	2.784	0.100
100.500	-3.671	0.100
100.600	-0.154	0.100
100.700	9.638	0.100
100.800	-8.160	0.100
100.900	3.465	0.100
101.000	4.696	0.100
101.100	1.833	0.100
101.200	6.678	0.100
101.300	1.680	0.100
101.400	8.172	0.100
101.500	-4.465	0.100
101.600	-1.768	0.100
101.700	-3.756	0.100
101.800	-0.634	0.100
101.900	-7.228	0.100
102.000	3.881	0.100
102.100	0.606	0.100
102.200	2.112	0.100
102.300	-0.552	0.100
102.400	3.433	0.100
102.500	4.648	0.100
102.600	-3.469	0.100
102.700	-2.334	0.100
102.800	0.558	0.100
102.900	-0.866	0.100
103.000	2.440	0.100
103.100	-1.735	0.100
103.200	-0.121	0.100
103.300	-1.273	0.100
103.400	-2.399	0.100
103.500	-9.624	0.100
103.600	3.635	0.100
103.700	-4.733	0.100
103.800	-5.177	0.100
103.900	2.157	0.100
104.000	-1.309	0.100
104.100	0.142	0.100
104.200	-0.404	0.100
104.300	1.794	0.100
104.400	-4.133	0.100
104.500	3.016	0.100
104.600	-2.195	0.100
104.700	-1.498	0.100
104.800	-7.749	0.100
104.900	-0.655	0.100
105.000	-4.147	0.100
105.100	-3.051	0.100
105.200	1.947	0.100
105.300	1.552	0.100
105.400	-6.487	0.100
105.500	-10.607	0.100
105.600	8.049	0.100
105.700	1.046	0.100
105.800	-4.403	0.100
105.900	0.959	0.100
106.000	-1.126	0.100
106.100	-0.866	0.100
106.200	-2.286	0.100
106.300	3.442	0.100
106.400	-0.945	0.100
106.500	0.345	0.100
106.600	-5.738	0.100
106.700	-4.534	0.100
106.800	-5.135	0.100
106.900	-1.062	0.100
107.000	-4.563	0.100
107.100	-5.197	0.100
107.200	-11.885	0.100
107.300	0.482	0.100
107.400	2.462	0.100
107.500	-8.912	0.100
107.600	-4.245	0.100
107.700	0.385	0.100
107.800	-1.851	0.100
107.900	6.067	0.100
108.000	-6.143	0.100
108.100	0.927	0.100
108.200	7.661	0.100
108.300	-3.737	0.100
108.400	-0.796	0.100
108.500	-1.490	0.100
108.600	-4.966	0.100
108.700	-1.224	0.100
108.800	-6.745	0.100
108.900	-0.402	0.100
109.000	-5.087	0.100
109.100	4.333	0.100
109.200	0.018	0.100
109.300	-13.137	0.100
109.400	-5.315	0.100
109.500	1.893	0.100
109.600	-2.594	0.100
109.700	-2.632	0.100
109.800	-2.244	0.100
109.900	-7.128	0.100
110.000	-3.316	0.100
110.100	-6.074	0.100
110.200	1.690	0.100
110.300	-7.479	0.100
110.400	-8.727	0.100
110.500	-11.770	0.100
110.600	-2.907	0.100
110.700	-0.454	0.100
110.800	-3.559	0.100
110.900	4.033	0.100
111.000	-6.198	0.100
111.100	-3.542	0.100
111.200	-6.740	0.100
111.300	-1.161	0.100
111.400	-13.511	0.100
111.500	5.181	0.100
111.600	-1.337	0.100
111.700	-3.745	0.100
111.800	-5.426	0.100
111.900	-1.569	0.100
112.000	-8.022	0.100
112.100	-4.791	0.100
112.200	-1.731	0.100
112.300	-2.544	0.100
112.400	-8.124	0.100
112.500	-1.384	0.100
112.600	1.710	0.100
112.700	-5.599	0.100
112.800	-3.321	0.100
112.900	-6.614	0.100
113.000	-10.587	0.100
113.100	-11.421	0.100
113.200	-8.116	0.100
113.300	-5.809	0.100
113.400	-7.877	0.100
113.500	-4.821	0.100
113.600	-0.403	0.100
113.700	-8.545	0.100
113.800	-6.399	0.100
113.900	-5.713	0.100
114.000	-5.325	0.100
114.100	-1.964	0.100
114.200	-8.234	0.100
114.300	0.187	0.100
114.400	-14.223	0.100
114.500	-0.091	0.100
114.600	-4.555	0.100
114.700	-3.187	0.100
114.800	-0.224	0.100
114.900	-7.977	0.100
115.000	-6.203	0.100
115.100	-9.856	0.100
115.200	-7.844	0.100
115.300	-4.893	0.100
115.400	-9.091	0.100
115.500	-3.452	0.100
115.600	-11.855	0.100
115.700	-7.037	0.100
115.800	-7.053	0.100
115.900	-5.721	0.100
116.000	-9.607	0.100
116.100	9.096	0.100
116.200	-5.149	0.100
116.300	-3.519	0.100
116.400	-8.359	0.100
116.500	-7.136	0.100
116.600	-15.855	0.100
116.700	-3.271	0.100
116.800	-1.358	0.100
116.900	-10.496	0.100
117.000	-2.730	0.100
117.100	-8.117	0.100
117.200	-5.860	0.100
117.300	-4.148	0.100
117.400	-5.424	0.100
117.500	-2.327	0.100
117.600	-10.201	0.100
117.700	-7.367	0.100
117.800	-0.001	0.100
117.900	-8.185	0.100
118.000	-13.736	0.100
118.100	-13.314	0.100
118.200	-5.457	0.100
118.300	-10.681	0.100
118.400	1.987	0.100
118.500	-9.027	0.100
118.600	-10.967	0.100
118.700	-5.404	0.100
118.800	-3.591	0.100
118.900	-3.512	0.100
119.000	0.211	0.100
119.100	-13.984	0.100
119.200	-10.988	0.100
119.300	-13.155	0.100
119.400	-2.801	0.100
119.500	-4.077	0.100
119.600	2.473	0.100
119.700	-6.056	0.100
119.800	-12.742	0.100
119.900	-5.457	0.100
120.000	-9.829	0.100
120.100	-10.698	0.100
120.200	-16.329	0.100
120.300	-11.363	0.100
120.400	0.904	0.100
120.500	-7.800	0.100
120.600	-8.776	0.100
120.700	-13.776	0.100
120.800	-3.069	0.100
120.900	-8.395	0.100
121.000	-10.351	0.100
121.100	-5.078	0.100
121.200	-9.192	0.100
121.300	-9.335	0.100
121.400	-3.943	0.100
121.500	-6.546	0.100
121.600	-6.204	0.100
121.700	-6.625	0.100
121.800	-20.656	0.100
121.900	0.043	0.100
122.000	-18.216	0.100
122.100	-13.463	0.100
122.200	-14.501	0.100
122.300	-8.841	0.100
122.400	-0.668	0.100
122.500	-3.296	0.100
122.600	-4.212	0.100
122.700	-5.192	0.100
122.800	-6.970	0.100
122.900	-12.690	0.100
123.000	-10.720	0.100
123.100	-8.120	0.100
123.200	-10.259	0.100
123.300	-13.184	0.100
123.400	-9.638	0.100
123.500	-11.911	0.100
123.600	-6.993	0.100
123.700	-10.637	0.100
123.800	-0.826	0.100
123.900	-7.861	0.100
124.000	-16.360	0.100
124.100	-8.857	0.100
124.200	-4.714	0.100
124.300	-11.184	0.100
124.400	-9.718	0.100
124.500	-3.753	0.100
124.600	-11.816	0.100
124.700	-12.540	0.100
124.800	-7.636	0.100
124.900	-13.144	0.100
125.000	-16.911	0.100
125.100	-9.832	0.100
125.200	-11.445	0.100
125.300	-19.488	0.100
125.400	-2.691	0.100
125.500	-8.737	0.100
125.600	-0.348	0.100
125.700	-13.553	0.100
125.800	-8.277	0.100
125.900	-7.562	0.100
126.000	-5.579	0.100
126.100	-11.783	0.100
126.200	-10.134	0.100
126.300	-17.498	0.100
126.400	-14.930	0.100
126.500	-18.331	0.100
126.600	-11.852	0.100
126.700	-14.413	0.100
126.800	6.718	0.100
126.900	-7.814	0.100
127.000	-1.569	0.100
127.100	-11.695	0.100
127.200	-3.708	0.100
127.300	-8.846	0.100
127.400	-8.389	0.100
127.500	-15.025	0.100
127.600	-16.517	0.100
127.700	-4.036	0.100
127.800	-8.824	0.100
127.900	-10.662	0.100
128.000	-11.028	0.100
128.100	-18.209	0.100
128.200	-10.694	0.100
128.300	-10.020	0.100
128.400	-9.281	0.100
128.500	-19.602	0.100
128.600	-5.637	0.100
128.700	-9.253	0.100
128.800	-10.336	0.100
128.900	-5.338	0.100
129.000	-10.727	0.100
129.100	-11.654	0.100
129.200	-15.923	0.100
129.300	-8.433	0.100
129.400	-2.865	0.100
129.500	-8.693	0.100
129.600	-4.511	0.100
129.700	-10.977	0.100
129.800	-14.622	0.100
129.900	-15.000	0.100
130.000	-17.100	0.100
130.100	-16.054	0.100
130.200	-9.362	0.100
130.300	-3.415	0.100
130.400	-13.600	0.100
130.500	-14.693	0.100
130.600	-11.991	0.100
130.700	-8.607	0.100
130.800	-3.402	0.100
130.900	-10.017	0.100
131.000	-15.375	0.100
131.100	-5.747	0.100
131.200	-12.890	0.100
131.300	-12.980	0.100
131.400	-8.988	0.100
131.500	-12.936	0.100
131.600	-9.800	0.100
131.700	-11.921	0.100
131.800	-10.577	0.100
131.900	-9.317	0.100
132.000	-13.164	0.100
132.100	-11.113	0.100
132.200	-11.189	0.100
132.300	-17.527	0.100
132.400	-2.802	0.100
132.500	-6.802	0.100
132.600	-10.741	0.100
132.700	-16.827	0.100
132.800	-13.200	0.100
132.900	-7.870	0.100
133.000	-14.150	0.100
133.100	-12.455	0.100
133.200	-11.344	0.100
133.300	-20.535	0.100
133.400	-13.492	0.100
133.500	-7.057	0.100
133.600	-16.487	0.100
133.700	-12.274	0.100
133.800	-17.008	0.100
133.900	-5.025	0.100
134.000	-13.240	0.100
134.100	-11.768	0.100
134.200	-4.185	0.100
134.300	-17.308	0.100
134.400	-11.908	0.100
134.500	-12.666	0.100
134.600	-15.388	0.100
134.700	-9.767	0.100
134.800	-12.815	0.100
134.900	-12.393	0.100
135.000	-4.910	0.100
135.100	-5.251	0.100
135.200	-15.572	0.100
135.300	-16.188	0.100
135.400	-18.545	0.100
135.500	-2.367	0.100
135.600	-21.549	0.100
135.700	-21.580	0.100
135.800	-11.793	0.100
135.900	-8.579	0.100
136.000	-7.393	0.100
136.100	-13.324	0.100
136.200	-12.419	0.100
136.300	-13.191	0.100
136.400	-14.858	0.100
136.500	-9.186	0.100
136.600	-14.443	0.100
136.700	-10.226	0.100
136.800	-18.362	0.100
136.900	-10.421	0.100
137.000	-8.612	0.100
137.100	-14.288	0.100
137.200	-12.141	0.100
137.300	-8.970	0.100
137.400	-9.398	0.100
137.500	-18.486	0.100
137.600	-11.876	0.100
137.700	-11.261	0.100
137.800	-5.767	0.100
137.900	-14.562	0.100
138.000	-8.015	0.100
138.100	-8.445	0.100
138.200	-8.666	0.100
138.300	-13.584	0.100
138.400	-10.496	0.100
138.500	-10.394	0.100
138.600	-7.146	0.100
138.700	-10.222	0.100
138.800	-20.590	0.100
138.900	-11.070	0.100
139.000	-13.323	0.100
139.100	-6.693	0.100
139.200	-8.871	0.100
139.300	-9.294	0.100
139.400	-3.489	0.100
139.500	-11.825	0.100
139.600	-13.467	0.100
139.700	-20.240	0.100
139.800	-16.654	0.100
139.900	-16.605	0.100
140.000	-15.293	0.100
140.100	-4.729	0.100
140.200	-15.039	0.100
140.300	-12.171	0.100
140.400	-5.899	0.100
140.500	-15.481	0.100
140.600	-8.882	0.100
140.700	-15.234	0.100
140.800	-19.686	0.100
140.900	-12.655	0.100
141.000	-7.834	0.100
141.100	-15.311	0.100
141.200	-12.695	0.100
141.300	-7.595	0.100
141.400	-7.501	0.100
141.500	-17.808	0.100
141.600	-19.029	0.100
141.700	-14.430	0.100
141.800	-9.593	0.100
141.900	-5.662	0.100
142.000	-8.932	0.100
142.100	-12.843	0.100
142.200	-15.253	0.100
142.300	-12.549	0.100
142.400	-10.489	0.100
142.500	-16.330	0.100
142.600	-8.098	0.100
142.700	-0.329	0.100
142.800	-13.632	0.100
142.900	-21.127	0.100
143.000	-16.445	0.100
143.100	-13.236	0.100
143.200	-18.950	0.100
143.300	-7.318	0.100
143.400	-15.420	0.100
143.500	-16.623	0.100
143.600	-3.695	0.100
143.700	-13.003	0.100
143.800	-9.189	0.100
143.900	-11.617	0.100
144.000	-20.055	0.100
144.100	-6.257	0.100
144.200	-9.420	0.100
144.300	-14.735	0.100
144.400	-17.587	0.100
144.500	-4.930	0.100
144.600	-12.293	0.100
144.700	-12.850	0.100
144.800	-15.570	0.100
144.900	-10.398	0.100
145.000	-4.467	0.100
145.100	-10.274	0.100
145.200	-16.550	0.100
145.300	-9.298	0.100
145.400	-14.401	0.100
145.500	-13.995	0.100
145.600	-12.885	0.100
145.700	-10.060	0.100
145.800	-12.222	0.100
145.900	-15.477	0.100
146.000	-17.627	0.100
146.100	-10.883	0.100
146.200	-8.283	0.100
146.300	-10.966	0.100
146.400	-7.420	0.100
146.500	-9.711	0.100
146.600	-15.637	0.100
146.700	-12.047	0.100
146.800	-9.131	0.100
146.900	-9.505	0.100
147.000	-16.051	0.100
147.100	-13.222	0.100
147.200	-13.844	0.100
147.300	-10.036	0.100
147.400	-9.513	0.100
147.500	-11.703	0.100
147.600	-16.277	0.100
147.700	-10.920	0.100
147.800	-9.624	0.100
147.900	-19.064	0.100
148.000	-7.439	0.100
148.100	-12.782	0.100
148.200	-13.713	0.100
148.300	-14.930	0.100
148.400	-14.778	0.100
148.500	-3.898	0.100
148.600	-11.655	0.100
148.700	-15.910	0.100
148.800	-14.184	0.100
148.900	-20.652	0.100
149.000	-10.600	0.100
149.100	-9.897	0.100
149.200	-1.977	0.100
149.300	-15.156	0.100
149.400	-11.262	0.100
149.500	-10.597	0.100
149.600	-11.587	0.100
149.700	-13.995	0.100
149.800	-14.712	0.100
149.900	-11.688	0.100
150.000	-17.323	0.100
150.100	-11.950	0.100
150.200	-9.366	0.100
150.300	-14.350	0.100
150.400	-2.297	0.100
150.500	-16.455	0.100
150.600	-5.265	0.100
150.700	-12.867	0.100
150.800	-19.222	0.100
150.900	-7.823	0.100
151.000	-19.197	0.100
151.100	-9.222	0.100
151.200	-14.392	0.100
151.300	-6.677	0.100
151.400	-5.881	0.100
151.500	-13.495	0.100
151.600	-10.289	0.100
151.700	-10.351	0.100
151.800	-13.886	0.100
151.900	-5.973	0.100
152.000	-4.575	0.100
152.100	-16.199	0.100
152.200	-17.624	0.100
152.300	-10.326	0.100
152.400	-16.884	0.100
152.500	-10.518	0.100
152.600	-14.224	0.100
152.700	-20.352	0.100
152.800	-5.652	0.100
152.900	-14.673	0.100
153.000	-12.872	0.100
153.100	-8.368	0.100
153.200	-17.523	0.100
153.300	-8.008	0.100
153.400	-13.844	0.100
153.500	-20.308	0.100
153.600	-13.663	0.100
153.700	-12.970	0.100
153.800	-15.886	0.100
153.900	-11.408	0.100
154.000	-3.422	0.100
154.100	-11.601	0.100
154.200	-7.640	0.100
154.300	-9.244	0.100
154.400	-17.671	0.100
154.500	-18.680	0.100
154.600	-2.462	0.100
154.700	-10.275	0.100
154.800	-12.687	0.100
154.900	-13.199	0.100
155.000	-18.685	0.100
155.100	-13.088	0.100
155.200	-12.708	0.100
155.300	-12.724	0.100
155.400	-4.361	0.100
155.500	-9.152	0.100
155.600	-11.384	0.100
155.700	-7.841	0.100
155.800	-12.258	0.100
155.900	-11.207	0.100
156.000	-11.885	0.100
156.100	-9.702	0.100
156.200	-11.158	0.100
156.300	-8.890	0.100
156.400	-13.988	0.100
156.500	-12.489	0.100
156.600	-15.143	0.100
156.700	-12.801	0.100
156.800	-18.234	0.100
156.900	-7.604	0.100
157.000	-16.305	0.100
157.100	-10.170	0.100
157.200	-4.959	0.100
157.300	-7.794	0.100
157.400	-10.114	0.100
157.500	-11.090	0.100
157.600	-7.278	0.100
157.700	-6.888	0.100
157.800	-16.016	0.100
157.900	-20.579	0.100
158.000	-7.357	0.100
158.100	-5.115	0.100
158.200	-12.231	0.100
158.300	-5.648	0.100
158.400	-14.108	0.100
158.500	-11.985	0.100
158.600	-13.705	0.100
158.700	-11.298	0.100
158.800	-11.449	0.100
158.900	-11.824	0.100
159.000	-6.718	0.100
159.100	-15.815	0.100
159.200	-14.686	0.100
159.300	-12.078	0.100
159.400	-4.422	0.100
159.500	-11.907	0.100
159.600	-8.954	0.100
159.700	-14.729	0.100
159.800	-8.050	0.100
159.900	-20.539	0.100
160.000	-10.382	0.100
160.100	-8.672	0.100
160.200	-5.834	0.100
160.300	-19.940	0.100
160.400	4.525	0.100
160.500	-9.149	0.100
160.600	-4.565	0.100
160.700	-7.559	0.100
160.800	-16.453	0.100
160.900	-18.592	0.100
161.000	-7.100	0.100
161.100	-12.203	0.100
161.200	-5.074	0.100
161.300	-15.964	0.100
161.400	-9.995	0.100
161.500	-24.200	0.100
161.600	-9.455	0.100
161.700	-11.259	0.100
161.800	-5.666	0.100
161.900	-6.298	0.100
162.000	-11.013	0.100
162.100	-9.562	0.100
162.200	-9.224	0.100
162.300	-5.875	0.100
162.400	-7.202	0.100
162.500	-12.530	0.100
162.600	-15.011	0.100
162.700	-10.235	0.100
162.800	-17.890	0.100
162.900	-17.384	0.100
163.000	-13.756	0.100
163.100	-7.377	0.100
163.200	-10.353	0.100
163.300	-5.997	0.100
163.400	-11.381	0.100
163.500	-11.754	0.100
163.600	-22.978	0.100
163.700	-6.536	0.100
163.800	2.795	0.100
163.900	-17.880	0.100
164.000	-14.459	0.100
164.100	-12.994	0.100
164.200	-15.993	0.100
164.300	-5.259	0.100
164.400	-12.429	0.100
164.500	-0.723	0.100
164.600	-7.531	0.100
164.700	-18.159	0.100
164.800	-5.975	0.100
164.900	-10.282	0.100
165.000	-13.252	0.100
165.100	-5.418	0.100
165.200	-8.187	0.100
165.300	-14.417	0.100
165.400	-10.494	0.100
165.500	-13.002	0.100
165.600	-0.714	0.100
165.700	-5.333	0.100
165.800	-13.183	0.100
165.900	-11.106	0.100
166.000	-7.850	0.100
166.100	-11.714	0.100
166.200	-13.469	0.100
166.300	-8.880	0.100
166.400	-18.938	0.100
166.500	-18.256	0.100
166.600	-3.167	0.100
166.700	-13.427	0.100
166.800	-16.786	0.100
166.900	-18.307	0.099
167.000	-12.604	0.099
167.100	-7.846	0.099
167.200	-11.865	0.099
167.300	-11.840	0.099
167.400	-10.644	0.099
167.500	-12.825	0.099
167.600	-16.001	0.099
167.700	-10.835	0.099
167.800	-16.125	0.099
167.900	-7.346	0.099
168.000	-6.473	0.099
168.100	-4.951	0.099
168.200	-8.623	0.099
168.300	-16.255	0.099
168.400	-1.099	0.099
168.500	-14.166	0.099
168.600	-16.936	0.099
168.700	-11.476	0.099
168.800	-3.276	0.099
168.900	-9.543	0.099
169.000	-11.330	0.099
169.100	-13.310	0.099
169.200	2.270	0.099
169.300	-10.803	0.099
169.400	-15.764	0.099
169.500	-14.037	0.099
169.600	-15.261	0.099
169.700	-10.945	0.099
169.800	-15.693	0.099
169.900	-12.106	0.099
170.000	-10.657	0.099
170.100	-0.037	0.099
170.200	-14.837	0.099
170.300	-9.112	0.099
170.400	-9.887	0.099
170.500	-13.290	0.099
170.600	-17.927	0.099
170.700	-7.427	0.099
170.800	-10.636	0.099
170.900	-8.435	0.099
171.000	-9.085	0.099
171.100	-13.523	0.099
171.200	-4.681	0.099
171.300	-9.845	0.099
171.400	-3.718	0.099
171.500	-12.827	0.099
171.600	-13.971	0.099
171.700	-10.776	0.099
171.800	-15.876	0.099
171.900	-11.604	0.099
172.000	-9.816	0.099
172.100	-14.987	0.099
172.200	-18.660	0.099
172.300	-12.237	0.099
172.400	-6.149	0.099
172.500	-15.154	0.099
172.600	-13.534	0.099
172.700	-11.301	0.099
172.800	-16.572	0.099
172.900	-12.206	0.099
173.000	-5.416	0.099
173.100	-6.886	0.099
173.200	-13.223	0.099
173.300	-20.456	0.099
173.400	-17.969	0.099
173.500	-9.661	0.099
173.600	-7.686	0.099
173.700	-10.039	0.099
173.800	-20.323	0.099
173.900	-10.158	0.099
174.000	-6.435	0.099
174.100	-13.032	0.099
174.200	-15.118	0.099
174.300	-11.558	0.099
174.400	-12.938	0.099
174.500	-3.969	0.099
174.600	-14.859	0.099
174.700	-5.232	0.099
174.800	-3.945	0.099
174.900	-15.493	0.099
175.000	-9.151	0.099
175.100	-4.806	0.099
175.200	-7.785	0.099
175.300	-13.821	0.099
175.400	-14.740	0.099
175.500	-5.994	0.099
175.600	-5.372	0.099
175.700	-10.950	0.099
175.800	-9.637	0.099
175.900	-11.470	0.099
176.000	-9.458	0.099
176.100	-12.772	0.099
176.200	-14.028	0.099
176.300	-9.504	0.099
176.400	-13.232	0.099
176.500	-10.437	0.099
176.600	-13.084	0.099
176.700	-14.182	0.099
176.800	-9.243	0.099
176.900	-14.530	0.099
177.000	-13.236	0.099
177.100	-13.348	0.099
177.200	-10.069	0.099
177.300	-8.234	0.099
177.400	-20.134	0.099
177.500	-14.023	0.099
177.600	-2.292	0.099
177.700	-6.848	0.099
177.800	-8.498	0.099
177.900	-1.242	0.099
178.000	-12.388	0.099
178.100	-8.757	0.099
178.200	-15.438	0.099
178.300	-15.851	0.099
178.400	-7.732	0.099
178.500	-14.248	0.099
178.600	-8.871	0.099
178.700	-11.064	0.099
178.800	-12.379	0.099
178.900	-1.927	0.099
179.000	-20.810	0.099
179.100	-18.747	0.099
179.200	-8.155	0.099
179.300	-1.759	0.099
179.400	-11.254	0.099
179.500	-14.708	0.099
179.600	-17.106	0.099
179.700	-14.094	0.099
179.800	-16.434	0.099
179.900	-3.779	0.099
180.000	-14.087	0.099
180.100	-10.884	0.099
180.200	-2.483	0.099
180.300	-9.629	0.099
180.400	-11.721	0.099
180.500	-15.428	0.099
180.600	-3.961	0.099
180.700	-9.368	0.099
180.800	-5.660	0.099
180.900	-1.122	0.099
181.000	-2.177	0.099
181.100	2.024	0.099
181.200	14.591	0.099
181.300	6.710	0.099
181.400	2.851	0.099
181.500	6.125	0.099
181.600	2.741	0.099
181.700	8.082	0.099
181.800	8.864	0.099
181.900	12.071	0.099
182.000	1.096	0.099
182.100	9.374	0.099
182.200	13.359	0.099
182.300	16.821	0.099
182.400	8.292	0.099
182.500	11.599	0.099
182.600	13.717	0.099
182.700	15.443	0.099
182.800	2.732	0.099
182.900	15.148	0.099
183.000	15.391	0.099
183.100	10.304	0.099
183.200	12.893	0.099
183.300	17.298	0.099
183.400	22.562	0.099
183.500	11.552	0.099
183.600	17.608	0.099
183.700	1.212	0.099
183.800	13.157	0.099
183.900	21.128	0.099
184.000	17.368	0.099
184.100	16.368	0.100
184.200	18.422	0.100
184.300	12.999	0.099
184.400	9.334	0.100
184.500	19.023	0.100
184.600	24.383	0.100
184.700	7.264	0.100
184.800	17.065	0.100
184.900	22.646	0.100
185.000	11.869	0.100
185.100	9.764	0.100
185.200	12.322	0.100
185.300	15.525	0.100
185.400	15.172	0.100
185.500	17.853	0.100
185.600	10.787	0.100
185.700	13.561	0.100
185.800	8.314	0.100
185.900	15.335	0.100
186.000	16.886	0.100
186.100	19.421	0.100
186.200	8.626	0.100
186.300	5.625	0.100
186.400	12.136	0.100
186.500	14.318	0.100
186.600	19.181	0.100
186.700	7.977	0.100
186.800	8.572	0.100
186.900	14.443	0.100
187.000	14.759	0.100
187.100	12.875	0.100
187.200	3.464	0.100
187.300	8.188	0.100
187.400	10.651	0.100
187.500	8.493	0.100
187.600	9.304	0.100
187.700	11.296	0.100
187.800	17.318	0.100
187.900	19.586	0.100
188.000	10.572	0.100
188.100	8.390	0.100
188.200	17.730	0.100
188.300	-4.075	0.100
188.400	12.824	0.100
188.500	9.702	0.100
188.600	11.784	0.100
188.700	11.096	0.100
188.800	8.889	0.100
188.900	7.507	0.100
189.000	11.630	0.100
189.100	8.015	0.100
189.200	13.670	0.100
189.300	7.931	0.100
189.400	15.708	0.100
189.500	23.493	0.100
189.600	16.070	0.100
189.700	10.628	0.100
189.800	19.080	0.100
189.900	11.417	0.100
190.000	17.685	0.100
190.100	9.058	0.100
190.200	17.205	0.100
190.300	11.900	0.100
190.400	20.244	0.100
190.500	13.910	0.100
190.600	14.465	0.100
190.700	16.280	0.100
190.800	21.102	0.100
190.900	11.006	0.100
191.000	16.836	0.100
191.100	13.701	0.100
191.200	12.671	0.100
191.300	15.321	0.100
191.400	16.009	0.100
191.500	21.032	0.100
191.600	17.841	0.100
191.700	9.463	0.100
191.800	24.647	0.100
191.900	19.985	0.100
192.000	14.675	0.100
192.100	11.707	0.100
192.200	12.652	0.100
192.300	16.638	0.100
192.400	25.541	0.100
192.500	14.869	0.100
192.600	20.247	0.100
192.700	13.413	0.100
192.800	17.130	0.100
192.900	15.696	0.100
193.000	21.694	0.100
193.100	13.082	0.100
193.200	18.929	0.100
193.300	18.259	0.100
193.400	15.857	0.100
193.500	19.791	0.100
193.600	16.112	0.100
193.700	22.460	0.100
193.800	16.321	0.100
193.900	16.768	0.100
194.000	16.630	0.100
194.100	14.013	0.100
194.200	8.562	0.100
194.300	22.353	0.100
194.400	26.868	0.100
194.500	25.543	0.100
194.600	23.326	0.100
194.700	16.441	0.100
194.800	14.396	0.100
194.900	23.771	0.100
195.000	10.317	0.100
195.100	27.446	0.100
195.200	17.201	0.100
195.300	14.953	0.100
195.400	21.240	0.100
195.500	20.983	0.100
195.600	25.611	0.100
195.700	14.120	0.100
195.800	23.653	0.100
195.900	21.868	0.100
196.000	22.075	0.100
196.100	21.685	0.100
196.200	18.050	0.100
196.300	26.437	0.100
196.400	20.935	0.100
196.500	15.594	0.100
196.600	23.627	0.100
196.700	19.608	0.100
196.800	19.926	0.100
196.900	20.394	0.100
197.000	11.841	0.100
197.100	34.359	0.100
197.200	18.660	0.100
197.300	18.624	0.100
197.400	16.126	0.100
197.500	20.318	0.100
197.600	26.316	0.100
197.700	26.139	0.100
197.800	21.114	0.100
197.900	18.710	0.100
198.000	12.551	0.100
198.100	22.264	0.100
198.200	17.906	0.100
198.300	22.444	0.100
198.400	23.687	0.100
198.500	21.061	0.100
198.600	30.693	0.100
198.700	18.509	0.100
198.800	27.307	0.100
198.900	19.818	0.100
199.000	20.977	0.100
199.100	22.227	0.100
199.200	24.311	0.100
199.300	28.514	0.100
199.400	25.074	0.100
199.500	24.150	0.100
199.600	19.729	0.100
199.700	25.332	0.100
199.800	15.336	0.100
199.900	20.535	0.100
200.000	26.444	0.100
200.100	29.703	0.100
200.200	19.953	0.100
200.300	31.348	0.100
200.400	20.776	0.100
200.500	23.739	0.100
200.600	22.542	0.100
200.700	34.105	0.100
200.800	22.528	0.100
200.900	21.026	0.100
201.000	25.322	0.100
201.100	25.653	0.100
201.200	24.913	0.100
201.300	32.294	0.100
201.400	28.562	0.100
201.500	21.138	0.100
201.600	23.518	0.100
201.700	29.347	0.100
201.800	27.371	0.100
201.900	30.579	0.100
202.000	26.076	0.100
202.100	23.897	0.100
202.200	26.839	0.100
202.300	27.621	0.100
202.400	19.543	0.100
202.500	22.648	0.100
202.600	25.098	0.100
202.700	26.225	0.100
202.800	25.835	0.100
202.900	33.090	0.100
203.000	27.031	0.100
203.100	21.465	0.100
203.200	18.438	0.100
203.300	31.503	0.100
203.400	24.938	0.100
203.500	26.546	0.100
203.600	28.856	0.100
203.700	17.098	0.100
203.800	22.466	0.100
203.900	17.504	0.100
204.000	34.151	0.100
204.100	31.788	0.100
204.200	30.877	0.100
204.300	28.107	0.100
204.400	28.362	0.100
204.500	34.218	0.100
204.600	28.889	0.100
204.700	26.474	0.100
204.800	29.613	0.100
204.900	19.467	0.100
205.000	38.686	0.100
205.100	29.624	0.100
205.200	24.380	0.100
205.300	39.665	0.100
205.400	26.126	0.100
205.500	36.359	0.100
205.600	20.200	0.100
205.700	34.454	0.100
205.800	20.968	0.100
205.900	23.616	0.100
206.000	26.937	0.100
206.100	26.418	0.100
206.200	33.187	0.100
206.300	23.586	0.100
206.400	23.376	0.100
206.500	30.791	0.100
206.600	32.237	0.100
206.700	33.905	0.100
206.800	27.919	0.100
206.900	26.519	0.100
207.000	30.315	0.100
207.100	30.787	0.100
207.200	31.768	0.100
207.300	38.585	0.100
207.400	24.193	0.100
207.500	37.916	0.100
207.600	25.641	0.100
207.700	20.332	0.100
207.800	37.861	0.100
207.900	29.233	0.100
208.000	25.628	0.100
208.100	26.153	0.100
208.200	40.182	0.100
208.300	28.838	0.100
208.400	27.677	0.100
208.500	30.373	0.100
208.600	27.295	0.100
208.700	17.429	0.100
208.800	24.395	0.100
208.900	32.630	0.100
209.000	33.413	0.100
209.100	31.927	0.100
209.200	30.482	0.100
209.300	31.588	0.100
209.400	31.734	0.100
209.500	32.175	0.100
209.600	31.266	0.100
209.700	27.402	0.100
209.800	37.308	0.100
209.900	32.943	0.100
210.000	30.331	0.100
210.100	34.275	0.100
210.200	29.005	0.100
210.300	33.054	0.100
210.400	33.780	0.100
210.500	29.593	0.100
210.600	33.148	0.100
210.700	26.235	0.100
210.800	32.487	0.100
210.900	34.169	0.100
211.000	26.245	0.100
211.100	38.222	0.100
211.200	24.132	0.100
211.300	40.653	0.100
211.400	42.334	0.100
211.500	31.479	0.100
211.600	25.529	0.100
211.700	28.850	0.100
211.800	34.077	0.100
211.900	38.121	0.100
212.000	29.916	0.100
212.100	36.654	0.100
212.200	24.628	0.100
212.300	30.933	0.100
212.400	28.979	0.100
212.500	37.331	0.100
212.600	31.669	0.100
212.700	27.947	0.100
212.800	36.634	0.100
212.900	27.703	0.100
213.000	38.957	0.100
213.100	28.399	0.100
213.200	28.488	0.100
213.300	34.404	0.100
213.400	39.673	0.100
213.500	25.462	0.100
213.600	24.044	0.100
213.700	22.988	0.100
213.800	37.558	0.100
213.900	34.977	0.100
214.000	36.147	0.100
214.100	30.229	0.100
214.200	37.842	0.100
214.300	33.746	0.100
214.400	35.726	0.100
214.500	25.496	0.100
214.600	31.963	0.100
214.700	36.395	0.100
214.800	26.113	0.100
214.900	27.025	0.100
215.000	40.566	0.100
215.100	26.410	0.100
215.200	28.350	0.100
215.300	38.906	0.100
215.400	42.085	0.100
215.500	31.357	0.100
215.600	37.131	0.100
215.700	33.087	0.100
215.800	32.943	0.100
215.900	28.589	0.100
216.000	31.946	0.100
216.100	37.069	0.100
216.200	31.848	0.100
216.300	34.337	0.100
216.400	38.668	0.100
216.500	25.671	0.100
216.600	32.366	0.100
216.700	25.471	0.100
216.800	31.356	0.100
216.900	27.838	0.100
217.000	31.322	0.100
217.100	41.442	0.100
217.200	38.184	0.100
217.300	35.150	0.100
217.400	31.553	0.100
217.500	34.462	0.100
217.600	32.765	0.100
217.700	33.236	0.100
217.800	31.252	0.100
217.900	37.848	0.100
218.000	35.949	0.100
218.100	34.004	0.100
218.200	26.302	0.100
218.300	38.035	0.100
218.400	35.317	0.100
218.500	38.376	0.100
218.600	31.923	0.100
218.700	31.451	0.100
218.800	31.781	0.100
218.900	32.012	0.100
219.000	28.887	0.100
219.100	25.618	0.100
219.200	44.282	0.100
219.300	34.474	0.100
219.400	34.227	0.100
219.500	31.772	0.100
219.600	23.107	0.100
219.700	35.642	0.100
219.800	38.340	0.100
219.900	36.051	0.100
220.000	41.421	0.100
220.100	36.086	0.100
220.200	33.761	0.100
220.300	24.624	0.100
220.400	28.424	0.100
220.500	37.234	0.100
220.600	28.250	0.100
220.700	34.809	0.100
220.800	34.154	0.100
220.900	39.476	0.100
221.000	38.653	0.100
221.100	25.172	0.100
221.200	32.508	0.100
221.300	28.320	0.100
221.400	33.035	0.100
221.500	47.211	0.100
221.600	36.916	0.100
221.700	37.251	0.100
221.800	40.342	0.100
221.900	27.027	0.100
222.000	41.916	0.100
222.100	37.587	0.100
222.200	32.725	0.100
222.300	26.120	0.100
222.400	25.727	0.100
222.500	39.703	0.100
222.600	32.012	0.100
222.700	21.231	0.100
222.800	31.839	0.100
222.900	32.620	0.100
223.000	36.815	0.100
223.100	35.005	0.100
223.200	33.611	0.100
223.300	31.802	0.100
223.400	39.418	0.100
223.500	30.019	0.100
223.600	39.856	0.100
223.700	29.235	0.100
223.800	35.777	0.100
223.900	36.348	0.100
224.000	30.230	0.100
224.100	26.206	0.100
224.200	30.905	0.100
224.300	28.780	0.100
224.400	31.785	0.100
224.500	40.108	0.100
224.600	35.304	0.100
224.700	37.041	0.100
224.800	36.406	0.100
224.900	30.403	0.100
225.000	29.172	0.100
225.100	26.703	0.100
225.200	32.524	0.100
225.300	44.786	0.100
225.400	38.215	0.100
225.500	28.725	0.100
225.600	37.543	0.100
225.700	31.063	0.100
225.800	37.826	0.100
225.900	31.850	0.100
226.000	33.426	0.100
226.100	37.772	0.100
226.200	21.608	0.100
226.300	34.661	0.100
226.400	41.217	0.100
226.500	34.382	0.100
226.600	29.363	0.100
226.700	30.906	0.100
226.800	36.836	0.100
226.900	35.019	0.100
227.000	31.617	0.100
227.100	39.606	0.100
227.200	39.320	0.100
227.300	35.699	0.100
227.400	33.434	0.100
227.500	30.223	0.100
227.600	37.830	0.100
227.700	37.472	0.100
227.800	25.716	0.100
227.900	35.240	0.100
228.000	38.328	0.100
228.100	28.966	0.100
228.200	31.434	0.100
228.300	38.644	0.100
228.400	43.297	0.100
228.500	26.613	0.100
228.600	40.571	0.100
228.700	22.667	0.100
228.800	35.966	0.100
228.900	29.490	0.100
229.000	35.703	0.100
229.100	31.851	0.100
229.200	26.067	0.100
229.300	36.548	0.100
229.400	34.705	0.100
229.500	24.788	0.100
229.600	38.137	0.100
229.700	42.860	0.100
229.800	33.783	0.100
229.900	37.636	0.100
230.000	34.367	0.100
230.100	32.209	0.100
230.200	37.939	0.100
230.300	29.197	0.100
230.400	35.020	0.100
230.500	38.862	0.100
230.600	32.980	0.100
230.700	34.283	0.100
230.800	35.990	0.100
230.900	37.420	0.100
231.000	34.703	0.100
231.100	43.749	0.100
231.200	37.840	0.100
231.300	31.176	0.100
231.400	36.418	0.100
231.500	34.265	0.100
231.600	30.606	0.100
231.700	36.043	0.100
231.800	35.048	0.100
231.900	33.761	0.100
232.000	31.095	0.100
232.100	34.043	0.100
232.200	25.126	0.100
232.300	40.120	0.100
232.400	36.417	0.100
232.500	29.872	0.100
232.600	25.096	0.100
232.700	37.637	0.100
232.800	29.969	0.100
232.900	38.759	0.100
233.000	35.685	0.100
233.100	23.341	0.100
233.200	34.474	0.100
233.300	33.090	0.100
233.400	27.167	0.100
233.500	39.160	0.100
233.600	28.026	0.100
233.700	39.882	0.100
233.800	35.060	0.100
233.900	33.912	0.100
234.000	31.924	0.100
234.100	30.332	0.100
234.200	29.660	0.100
234.300	40.220	0.100
234.400	29.950	0.100
234.500	29.958	0.100
234.600	35.527	0.100
234.700	36.426	0.100
234.800	36.523	0.100
234.900	28.616	0.100
235.000	24.003	0.100
235.100	26.061	0.100
235.200	48.721	0.100
235.300	32.312	0.100
235.400	24.684	0.100
235.500	37.498	0.100
235.600	47.586	0.100
235.700	26.379	0.100
235.800	38.408	0.100
235.900	45.318	0.100
236.000	34.483	0.100
236.100	27.165	0.100
236.200	32.623	0.100
236.300	36.147	0.100
236.400	32.810	0.100
236.500	31.919	0.100
236.600	34.907	0.100
236.700	31.620	0.100
236.800	35.151	0.100
236.900	33.704	0.100
237.000	32.844	0.100
237.100	35.938	0.100
237.200	28.133	0.100
237.300	41.534	0.100
237.400	23.981	0.100
237.500	26.084	0.100
237.600	36.486	0.100
237.700	36.570	0.100
237.800	32.983	0.100
237.900	33.757	0.100
238.000	36.754	0.100
238.100	38.624	0.100
238.200	33.061	0.100
238.300	32.608	0.100
238.400	35.219	0.100
238.500	34.194	0.100
238.600	22.395	0.100
238.700	34.271	0.100
238.800	31.707	0.100
238.900	38.059	0.100
239.000	32.073	0.100
239.100	27.068	0.100
239.200	43.867	0.100
239.300	31.810	0.100
239.400	30.624	0.100
239.500	37.181	0.100
239.600	36.427	0.100
239.700	37.551	0.100
239.800	39.768	0.100
239.900	26.328	0.100
240.000	28.797	0.100
240.100	40.424	0.100
240.200	34.799	0.100
240.300	31.101	0.100
240.400	35.472	0.100
240.500	27.681	0.100
240.600	28.363	0.100
240.700	29.648	0.100
240.800	22.443	0.100
240.900	27.829	0.100
241.000	21.952	0.100
241.100	20.740	0.100
241.200	14.110	0.100
241.300	5.492	0.100
241.400	16.937	0.100
241.500	17.122	0.100
241.600	11.582	0.100
241.700	3.503	0.100
241.800	12.262	0.100
241.900	20.982	0.100
242.000	2.515	0.100
242.100	12.730	0.100
242.200	6.417	0.100
242.300	11.218	0.100
242.400	1.711	0.100
242.500	3.360	0.100
242.600	8.500	0.100
242.700	1.468	0.100
242.800	5.465	0.100
242.900	-1.473	0.100
243.000	4.853	0.100
243.100	3.286	0.100
243.200	1.151	0.100
243.300	-0.172	0.100
243.400	10.147	0.100
243.500	-3.936	0.100
243.600	-1.278	0.100
243.700	-1.468	0.100
243.800	-0.661	0.100
243.900	4.412	0.100
244.000	12.107	0.100
244.100	8.586	0.100
244.200	4.544	0.100
244.300	-1.839	0.100
244.400	0.940	0.100
244.500	5.336	0.100
244.600	-2.048	0.100
244.700	2.808	0.100
244.800	-1.007	0.100
244.900	5.875	0.100
245.000	-0.506	0.100
245.100	6.380	0.100
245.200	1.048	0.100
245.300	6.400	0.100
245.400	-1.260	0.100
245.500	3.613	0.100
245.600	1.218	0.100
245.700	2.077	0.100
245.800	6.060	0.100
245.900	3.077	0.100
246.000	-4.219	0.100
246.100	1.176	0.100
246.200	-5.458	0.100
246.300	-3.797	0.100
246.400	4.204	0.100
246.500	-1.509	0.100
246.600	-1.297	0.100
246.700	0.595	0.100
246.800	5.230	0.100
246.900	-5.910	0.100
247.000	5.833	0.100
247.100	2.549	0.100
247.200	3.225	0.100
247.300	-5.542	0.100
247.400	-3.146	0.100
247.500	0.107	0.100
247.600	10.141	0.100
247.700	4.048	0.100
247.800	-3.358	0.100
247.900	1.492	0.100
248.000	-9.172	0.100
248.100	5.779	0.100
248.200	-1.444	0.100
248.300	3.088	0.100
248.400	-1.785	0.100
248.500	-9.456	0.100
248.600	0.300	0.100
248.700	9.931	0.100
248.800	3.027	0.100
248.900	-3.716	0.100
249.000	2.088	0.100
249.100	1.564	0.100
249.200	1.976	0.100
249.300	3.363	0.100
249.400	4.000	0.100
249.500	-4.811	0.100
249.600	1.908	0.100
249.700	-1.087	0.100
249.800	-3.085	0.100
249.900	2.664	0.100
250.000	2.689	0.100
250.100	-2.050	0.100
250.200	-1.018	0.100
250.300	-3.497	0.100
250.400	-1.204	0.100
250.500	-3.555	0.100
250.600	1.673	0.100
250.700	-3.636	0.100
250.800	1.185	0.100
250.900	4.411	0.100
251.000	-2.433	0.100
251.100	-1.510	0.100
251.200	-0.636	0.100
251.300	-6.405	0.100
251.400	-0.737	0.100
251.500	4.338	0.100
251.600	-0.770	0.100
251.700	-1.533	0.100
251.800	0.362	0.100
251.900	1.514	0.100
252.000	-2.796	0.100
252.100	-0.705	0.100
252.200	3.801	0.100
252.300	-3.831	0.100
252.400	-6.264	0.100
252.500	4.416	0.100
252.600	2.203	0.100
252.700	-0.587	0.100
252.800	3.204	0.100
252.900	-3.916	0.100
253.000	-6.156	0.100
253.100	3.457	0.100
253.200	-3.247	0.100
253.300	-1.822	0.100
253.400	1.365	0.100
253.500	-4.266	0.100
253.600	-5.455	0.100
253.700	-3.235	0.100
253.800	-4.613	0.100
253.900	4.870	0.100
254.000	-0.727	0.100
254.100	-1.153	0.100
254.200	-7.109	0.100
254.300	1.273	0.100
254.400	-6.108	0.100
254.500	-0.405	0.100
254.600	-3.547	0.100
254.700	-5.862	0.100
254.800	-0.062	0.100
254.900	-9.594	0.100
255.000	-4.782	0.100
255.100	-9.377	0.100
255.200	-15.105	0.100
255.300	-6.627	0.100
255.400	-10.359	0.100
255.500	4.341	0.100
255.600	1.948	0.100
255.700	1.878	0.100
255.800	-9.620	0.100
255.900	1.165	0.100
256.000	-4.191	0.100
256.100	-5.255	0.100
256.200	-0.995	0.100
256.300	-6.685	0.100
256.400	-6.164	0.100
256.500	-2.191	0.100
256.600	-1.679	0.100
256.700	-1.697	0.100
256.800	-8.213	0.100
256.900	-12.091	0.100
257.000	-14.746	0.100
257.100	-7.390	0.100
257.200	-3.612	0.100
257.300	-0.704	0.100
257.400	-4.873	0.100
257.500	4.798	0.100
257.600	-4.498	0.100
257.700	-17.293	0.100
257.800	-7.755	0.100
257.900	-4.903	0.100
258.000	0.069	0.100
258.100	-5.631	0.100
258.200	0.029	0.100
258.300	-3.088	0.100
258.400	-8.628	0.100
258.500	-6.405	0.100
258.600	-13.787	0.100
258.700	-9.877	0.100
258.800	-3.721	0.100
258.900	-9.268	0.100
259.000	2.601	0.100
259.100	-4.135	0.100
259.200	-1.837	0.100
259.300	-7.872	0.100
259.400	-3.181	0.100
259.500	-0.861	0.100
259.600	-9.381	0.100
259.700	-6.179	0.100
259.800	-11.094	0.100
259.900	-6.649	0.100
260.000	-3.053	0.100
260.100	2.560	0.100
260.200	-0.635	0.100
260.300	-12.454	0.100
260.400	-9.402	0.100
260.500	-12.717	0.100
260.600	-6.206	0.100
260.700	-10.739	0.100
260.800	-11.102	0.100
260.900	-9.536	0.100
261.000	-4.297	0.100
261.100	-9.791	0.100
261.200	-13.095	0.100
261.300	-5.174	0.100
261.400	-6.294	0.100
261.500	-7.541	0.100
261.600	-2.302	0.100
261.700	-8.684	0.100
261.800	-8.641	0.100
261.900	-18.570	0.100
262.000	-15.227	0.100
262.100	-9.230	0.100
262.200	-6.131	0.100
262.300	-7.548	0.100
262.400	-8.140	0.100
262.500	-5.150	0.100
262.600	-9.138	0.100
262.700	-6.341	0.100
262.800	-15.079	0.100
262.900	-1.736	0.100
263.000	-6.836	0.100
263.100	-6.975	0.100
263.200	-10.089	0.100
263.300	-7.896	0.100
263.400	-8.713	0.100
263.500	-18.636	0.100
263.600	-7.179	0.100
263.700	-10.961	0.100
263.800	-19.856	0.100
263.900	-3.126	0.100
264.000	-8.730	0.100
264.100	-8.389	0.100
264.200	-13.235	0.100
264.300	-8.629	0.100
264.400	-10.608	0.100
264.500	-9.649	0.100
264.600	-3.864	0.100
264.700	-12.201	0.100
264.800	-14.691	0.100
264.900	-12.647	0.100
265.000	-5.718	0.100
265.100	-7.969	0.100
265.200	-5.960	0.100
265.300	-15.120	0.100
265.400	-9.682	0.100
265.500	-6.350	0.100
265.600	-3.356	0.100
265.700	-4.982	0.100
265.800	-13.619	0.100
265.900	-17.650	0.100
266.000	-18.283	0.100
266.100	-10.934	0.100
266.200	-0.622	0.100
266.300	-21.539	0.100
266.400	-5.118	0.100
266.500	-15.949	0.100
266.600	-7.638	0.100
266.700	-9.255	0.100
266.800	-7.825	0.100
266.900	-5.582	0.100
267.000	-7.641	0.100
267.100	-10.397	0.100
267.200	-8.295	0.100
267.300	-16.733	0.100
267.400	-15.393	0.100
267.500	-10.477	0.100
267.600	-13.229	0.100
267.700	-9.142	0.100
267.800	-9.182	0.100
267.900	-8.173	0.100
268.000	-6.463	0.100
268.100	-4.795	0.100
268.200	-5.257	0.100
268.300	-16.389	0.100
268.400	-9.034	0.100
268.500	-21.619	0.100
268.600	-11.331	0.100
268.700	-4.035	0.100
268.800	-11.711	0.100
268.900	-11.797	0.100
269.000	-16.362	0.100
269.100	-4.661	0.100
269.200	-11.796	0.100
269.300	-16.205	0.100
269.400	-11.494	0.100
269.500	-16.022	0.100
269.600	-17.745	0.100
269.700	-17.778	0.100
269.800	-13.536	0.100
269.900	-9.131	0.100
270.000	-3.571	0.100
270.100	-14.352	0.100
270.200	-15.662	0.100
270.300	-15.822	0.100
270.400	-10.030	0.100
270.500	-10.170	0.100
270.600	-6.196	0.100
270.700	-25.056	0.100
270.800	-4.656	0.100
270.900	-16.981	0.100
271.000	-15.975	0.100
271.100	-17.497	0.100
271.200	-8.824	0.100
271.300	-1.794	0.100
271.400	-10.489	0.100
271.500	-11.082	0.100
271.600	-7.305	0.100
271.700	-18.454	0.100
271.800	-11.076	0.100
271.900	-18.392	0.100
272.000	-17.052	0.100
272.100	-14.189	0.100
272.200	-23.830	0.100
272.300	-7.838	0.100
272.400	-16.696	0.100
272.500	-12.263	0.100
272.600	-11.053	0.100
272.700	-20.687	0.100
272.800	-6.619	0.100
272.900	-9.145	0.100
273.000	-4.505	0.100
273.100	-16.921	0.100
273.200	-16.106	0.100
273.300	-8.648	0.100
273.400	-22.666	0.100
273.500	-11.394	0.100
273.600	-7.588	0.100
273.700	-11.642	0.100
273.800	-13.949	0.100
273.900	-12.756	0.100
274.000	-12.826	0.100
274.100	-14.160	0.100
274.200	-14.762	0.100
274.300	-11.257	0.100
274.400	-25.026	0.100
274.500	-25.296	0.100
274.600	-18.413	0.100
274.700	-15.634	0.100
274.800	-6.689	0.100
274.900	-4.187	0.100
275.000	-10.347	0.100
275.100	-25.502	0.100
275.200	-18.166	0.100
275.300	-11.124	0.100
275.400	-11.768	0.100
275.500	-17.888	0.100
275.600	-8.718	0.100
275.700	-12.033	0.100
275.800	-21.438	0.100
275.900	-13.899	0.100
276.000	-14.444	0.100
276.100	-10.568	0.100
276.200	-13.215	0.100
276.300	-9.893	0.100
276.400	-16.382	0.100
276.500	-17.385	0.100
276.600	-15.792	0.100
276.700	-21.652	0.100
276.800	-12.192	0.100
276.900	-21.778	0.100
277.000	-12.536	0.100
277.100	-18.382	0.100
277.200	-15.729	0.100
277.300	-2.726	0.100
277.400	-15.807	0.100
277.500	-14.723	0.100
277.600	-21.539	0.100
277.700	-14.268	0.100
277.800	-19.031	0.100
277.900	-14.778	0.100
278.000	-16.424	0.100
278.100	-13.781	0.100
278.200	-19.449	0.100
278.300	-14.846	0.100
278.400	-14.342	0.100
278.500	-16.931	0.100
278.600	-11.081	0.100
278.700	-10.401	0.100
278.800	-17.393	0.100
278.900	-6.412	0.100
279.000	-16.427	0.100
279.100	-13.919	0.100
279.200	-14.467	0.100
279.300	-14.301	0.100
279.400	-25.614	0.100
279.500	-17.092	0.100
279.600	-14.130	0.100
279.700	-12.462	0.100
279.800	-7.293	0.100
279.900	-11.122	0.100
280.000	-18.277	0.100
280.100	-18.111	0.100
280.200	-16.283	0.100
280.300	-12.703	0.100
280.400	-19.048	0.100
280.500	-11.695	0.100
280.600	-17.223	0.100
280.700	-28.326	0.100
280.800	-19.179	0.100
280.900	-16.517	0.100
281.000	-8.335	0.100
281.100	-20.520	0.100
281.200	-10.227	0.100
281.300	-16.677	0.100
281.400	-13.928	0.100
281.500	-19.700	0.100
281.600	-21.727	0.100
281.700	-15.120	0.100
281.800	-19.325	0.100
281.900	-17.500	0.100
282.000	-14.006	0.100
282.100	-13.043	0.100
282.200	-18.628	0.100
282.300	-19.512	0.100
282.400	-19.288	0.100
282.500	-9.114	0.100
282.600	-13.144	0.100
282.700	-15.381	0.100
282.800	-15.038	0.100
282.900	-16.307	0.100
283.000	-16.704	0.100
283.100	-17.791	0.100
283.200	-22.756	0.100
283.300	-18.023	0.100
283.400	-13.722	0.100
283.500	-11.088	0.100
283.600	-14.706	0.100
283.700	-16.479	0.100
283.800	-15.769	0.100
283.900	-16.611	0.100
284.000	-14.291	0.100
284.100	-13.967	0.100
284.200	-23.171	0.100
284.300	-24.876	0.100
284.400	-8.902	0.100
284.500	-10.552	0.100
284.600	-12.745	0.100
284.700	-10.683	0.100
284.800	-14.321	0.100
284.900	-14.631	0.100
285.000	-15.062	0.100
285.100	-16.968	0.100
285.200	-18.852	0.100
285.300	-9.771	0.100
285.400	-22.886	0.100
285.500	-12.318	0.100
285.600	-16.759	0.100
285.700	-30.396	0.100
285.800	-13.935	0.100
285.900	-15.557	0.100
286.000	-19.513	0.100
286.100	-24.231	0.100
286.200	-13.769	0.100
286.300	-12.227	0.100
286.400	-19.016	0.100
286.500	-14.493	0.100
286.600	-9.440	0.100
286.700	-14.700	0.100
286.800	-13.773	0.100
286.900	-13.469	0.100
287.000	-16.494	0.100
287.100	-16.113	0.100
287.200	-17.562	0.100
287.300	-14.349	0.100
287.400	-21.061	0.100
287.500	-15.834	0.100
287.600	-17.783	0.100
287.700	-20.481	0.100
287.800	0.810	0.100
287.900	-9.774	0.100
288.000	-15.786	0.100
288.100	-7.702	0.100
288.200	-10.686	0.100
288.300	-14.471	0.100
288.400	-19.888	0.100
288.500	-15.488	0.100
288.600	-20.727	0.100
288.700	-11.295	0.100
288.800	-15.300	0.100
288.900	-21.570	0.100
289.000	-18.514	0.100
289.100	-5.579	0.100
289.200	-13.449	0.100
289.300	-18.038	0.100
289.400	-22.661	0.100
289.500	-14.587	0.100
289.600	-14.285	0.100
289.700	-14.803	0.100
289.800	-15.232	0.100
289.900	-17.965	0.100
290.000	-16.600	0.100
290.100	-4.488	0.100
290.200	-10.595	0.100
290.300	-17.862	0.100
290.400	-20.501	0.100
290.500	-13.172	0.100
290.600	-15.210	0.100
290.700	-13.311	0.100
290.800	-16.103	0.100
290.900	-17.200	0.100
291.000	-20.633	0.100
291.100	-16.464	0.100
291.200	-13.001	0.100
291.300	-20.515	0.100
291.400	-16.179	0.100
291.500	-17.858	0.100
291.600	-17.615	0.100
291.700	-13.815	0.100
291.800	-11.590	0.100
291.900	-24.445	0.100
292.000	-11.705	0.100
292.100	-16.653	0.100
292.200	-16.496	0.100
292.300	-15.568	0.100
292.400	-19.123	0.100
292.500	-14.863	0.100
292.600	-10.168	0.100
292.700	-19.651	0.100
292.800	-18.646	0.100
292.900	-14.280	0.100
293.000	-12.294	0.100
293.100	-13.677	0.100
293.200	-14.537	0.100
293.300	-7.355	0.100
293.400	-17.670	0.100
293.500	-14.979	0.100
293.600	-13.353	0.100
293.700	-15.358	0.100
293.800	-15.517	0.100
293.900	-23.198	0.100
294.000	-15.677	0.100
294.100	-14.206	0.100
294.200	-16.903	0.100
294.300	-13.515	0.100
294.400	-21.076	0.100
294.500	-13.220	0.100
294.600	-19.589	0.100
294.700	-14.628	0.100
294.800	-13.214	0.100
294.900	-18.584	0.100
295.000	-13.020	0.100
295.100	-14.530	0.100
295.200	-23.155	0.100
295.300	-12.882	0.100
295.400	-15.920	0.100
295.500	-21.538	0.100
295.600	-17.981	0.100
295.700	-14.459	0.100
295.800	-9.005	0.100
295.900	-13.031	0.100
296.000	-17.676	0.100
296.100	-19.280	0.100
296.200	-15.950	0.100
296.300	-16.957	0.100
296.400	-8.404	0.100
296.500	-11.077	0.100
296.600	-14.212	0.100
296.700	-15.907	0.100
296.800	-16.654	0.100
296.900	-17.265	0.100
297.000	-13.325	0.100
297.100	-14.203	0.100
297.200	-14.872	0.100
297.300	-7.485	0.100
297.400	-16.384	0.100
297.500	-14.154	0.100
297.600	-11.607	0.100
297.700	-15.351	0.100
297.800	-13.154	0.100
297.900	-24.754	0.100
298.000	-20.325	0.100
298.100	-13.048	0.100
298.200	-11.328	0.100
298.300	-17.311	0.100
298.400	-14.969	0.100
298.500	-11.845	0.100
298.600	-14.047	0.100
298.700	-13.325	0.100
298.800	-13.397	0.100
298.900	-13.301	0.100
299.000	-13.990	0.100
299.100	-19.729	0.100
299.200	-21.192	0.100
299.300	-13.228	0.100
299.400	-3.519	0.100
299.500	-9.052	0.100
299.600	-13.573	0.100
299.700	-7.767	0.100
299.800	-19.823	0.100
299.900	-12.436	0.100
300.000	-14.360	0.100
300.100	-18.764	0.100
300.200	-12.965	0.100
300.300	-11.829	0.100
300.400	-9.319	0.100
300.500	-15.426	0.100
300.600	-17.735	0.100
300.700	-14.253	0.100
300.800	-7.648	0.100
300.900	-14.744	0.100
301.000	-14.496	0.100
301.100	-12.906	0.100
301.200	-17.842	0.100
301.300	-18.969	0.100
301.400	-23.614	0.100
301.500	-22.379	0.100
301.600	-20.217	0.100
301.700	-13.126	0.100
301.800	-11.223	0.100
301.900	-14.127	0.100
302.000	-13.225	0.100
302.100	-15.453	0.100
302.200	-14.756	0.100
302.300	-11.850	0.100
302.400	-7.257	0.100
302.500	-13.990	0.100
302.600	-19.988	0.100
302.700	-15.412	0.100
302.800	-7.182	0.100
302.900	-15.501	0.100
303.000	-16.454	0.100
303.100	-19.967	0.100
303.200	-15.488	0.100
303.300	-19.983	0.100
303.400	-11.662	0.100
303.500	-11.488	0.100
303.600	-14.370	0.100
303.700	-5.348	0.100
303.800	-11.126	0.100
303.900	-8.797	0.100
304.000	-17.091	0.100
304.100	-21.652	0.100
304.200	-17.538	0.100
304.300	-13.335	0.100
304.400	-15.586	0.100
304.500	-19.331	0.100
304.600	-9.038	0.100
304.700	-8.525	0.100
304.800	-14.195	0.100
304.900	-9.879	0.100
305.000	-14.669	0.100
305.100	-13.412	0.100
305.200	-15.388	0.100
305.300	-16.689	0.100
305.400	-6.838	0.100
305.500	-9.832	0.100
305.600	-14.701	0.100
305.700	-8.481	0.100
305.800	-11.959	0.100
305.900	-15.997	0.100
306.000	-18.790	0.100
306.100	-14.469	0.100
306.200	-16.192	0.100
306.300	-18.673	0.100
306.400	-12.127	0.100
306.500	-14.922	0.100
306.600	-12.506	0.100
306.700	-9.455	0.100
306.800	-13.582	0.100
306.900	-6.240	0.100
307.000	-11.410	0.100
307.100	-8.584	0.100
307.200	-11.003	0.100
307.300	-6.556	0.100
307.400	-7.335	0.100
307.500	-16.233	0.100
307.600	-13.385	0.100
307.700	-16.182	0.100
307.800	-14.629	0.100
307.900	-12.082	0.100
308.000	-10.737	0.100
308.100	-21.223	0.100
308.200	-15.784	0.100
308.300	-16.980	0.100
308.400	-15.815	0.100
308.500	-16.753	0.100
308.600	-13.165	0.100
308.700	-11.012	0.100
308.800	-13.264	0.100
308.900	-14.642	0.100
309.000	-7.273	0.100
309.100	-16.362	0.100
309.200	-18.507	0.100
309.300	-16.919	0.100
309.400	-8.197	0.100
309.500	-12.007	0.100
309.600	-8.880	0.100
309.700	-9.073	0.100
309.800	-9.234	0.100
309.900	-15.000	0.100
310.000	-14.379	0.100
310.100	-15.456	0.100
310.200	-10.366	0.100
310.300	-14.240	0.100
310.400	-17.185	0.100
310.500	-6.726	0.100
310.600	-17.498	0.100
310.700	-24.471	0.100
310.800	-12.422	0.100
310.900	-11.290	0.100
311.000	-16.588	0.100
311.100	-12.579	0.100
311.200	-1.322	0.100
311.300	-22.040	0.100
311.400	-20.395	0.100
311.500	-8.935	0.100
311.600	-1.985	0.100
311.700	-11.026	0.100
311.800	-21.406	0.100
311.900	-16.987	0.100
312.000	-17.668	0.100
312.100	-11.996	0.100
312.200	-10.800	0.100
312.300	-21.488	0.100
312.400	-5.878	0.100
312.500	-17.060	0.100
312.600	-12.553	0.100
312.700	-16.301	0.100
312.800	-5.552	0.100
312.900	-10.159	0.100
313.000	-25.283	0.100
313.100	-18.707	0.100
313.200	-18.774	0.100
313.300	-2.537	0.100
313.400	-8.184	0.100
313.500	-16.216	0.100
313.600	-14.047	0.100
313.700	-13.023	0.100
313.800	-11.600	0.100
313.900	-5.074	0.100
314.000	-8.711	0.100
314.100	-7.324	0.100
314.200	-16.529	0.100
314.300	-13.339	0.100
314.400	-3.771	0.100
314.500	-15.128	0.100
314.600	-18.924	0.100
314.700	-17.408	0.100
314.800	-9.628	0.100
314.900	-18.625	0.100
315.000	-28.686	0.100
315.100	-4.019	0.100
315.200	-9.161	0.100
315.300	-9.428	0.100
315.400	-9.795	0.100
315.500	-14.094	0.100
315.600	-25.481	0.100
315.700	-14.408	0.100
315.800	-16.742	0.100
315.900	-13.836	0.100
316.000	-15.051	0.100
316.100	-8.476	0.100
316.200	-19.240	0.100
316.300	-18.624	0.100
316.400	-16.686	0.100
316.500	-18.360	0.100
316.600	-16.320	0.100
316.700	-13.042	0.100
316.800	-5.762	0.100
316.900	-17.749	0.100
317.000	-9.573	0.100
317.100	-12.808	0.100
317.200	-23.189	0.100
317.300	-11.311	0.100
317.400	-19.058	0.100
317.500	-10.414	0.100
317.600	-8.315	0.100
317.700	-4.638	0.100
317.800	-10.290	0.100
317.900	-19.992	0.100
318.000	-17.555	0.100
318.100	-13.429	0.100
318.200	-16.636	0.100
318.300	-6.301	0.100
318.400	-10.836	0.100
318.500	-12.437	0.100
318.600	-26.268	0.100
318.700	-15.620	0.100
318.800	-18.331	0.100
318.900	-19.467	0.100
319.000	-7.856	0.100
319.100	-12.979	0.100
319.200	-9.362	0.100
319.300	-17.061	0.100
319.400	-17.541	0.100
319.500	5.372	0.100
319.600	-8.172	0.100
319.700	-9.654	0.100
319.800	-18.504	0.100
319.900	-16.061	0.100
320.000	-16.571	0.100
320.100	-20.490	0.100
320.200	0.482	0.100
320.300	-14.860	0.100
320.400	-11.658	0.100
320.500	-11.284	0.100
320.600	-15.707	0.100
320.700	-20.143	0.100
320.800	-5.368	0.100
320.900	-19.440	0.100
321.000	-15.655	0.100
321.100	-12.367	0.100
321.200	-15.345	0.100
321.300	-16.212	0.100
321.400	-10.173	0.100
321.500	-18.734	0.100
321.600	-10.234	0.100
321.700	-5.699	0.100
321.800	-19.548	0.100
321.900	-9.531	0.100
322.000	-7.261	0.100
322.100	-14.179	0.100
322.200	-27.647	0.100
322.300	-15.564	0.100
322.400	-3.244	0.100
322.500	-10.859	0.100
322.600	-16.542	0.100
322.700	-8.573	0.100
322.800	-14.535	0.100
322.900	-8.118	0.100
323.000	-12.883	0.100
323.100	-6.542	0.100
323.200	-12.124	0.100
323.300	-16.918	0.100
323.400	-13.776	0.100
323.500	-20.302	0.100
323.600	-16.488	0.100
323.700	-10.862	0.100
323.800	-8.619	0.100
323.900	-9.631	0.100
324.000	-14.127	0.100
324.100	-10.183	0.100
324.200	-10.867	0.100
324.300	-15.950	0.100
324.400	-10.001	0.100
324.500	-13.659	0.100
324.600	-6.842	0.100
324.700	-14.279	0.100
324.800	-14.952	0.100
324.900	-19.332	0.100
325.000	-22.731	0.100
325.100	-10.384	0.100
325.200	-12.481	0.100
325.300	-12.128	0.100
325.400	-14.727	0.100
325.500	-13.335	0.100
325.600	-6.182	0.100
325.700	-10.915	0.100
325.800	-12.664	0.100
325.900	-14.388	0.100
326.000	-9.397	0.100
326.100	-22.147	0.100
326.200	-6.155	0.100
326.300	-6.480	0.100
326.400	-9.845	0.100
326.500	-14.471	0.100
326.600	-8.573	0.100
326.700	-10.155	0.100
326.800	-14.781	0.100
326.900	-8.934	0.100
327.000	-17.472	0.100
327.100	-19.529	0.100
327.200	-20.700	0.100
327.300	-8.252	0.100
327.400	-6.795	0.100
327.500	-17.788	0.100
327.600	-13.086	0.100
327.700	-11.186	0.100
327.800	-10.032	0.100
327.900	-13.383	0.100
328.000	-12.426	0.100
328.100	-16.083	0.100
328.200	-12.080	0.100
328.300	4.351	0.100
328.400	-9.070	0.100
328.500	-22.050	0.100
328.600	-16.885	0.100
328.700	-9.909	0.100
328.800	-15.487	0.100
328.900	-12.150	0.100
329.000	-14.408	0.100
329.100	-14.186	0.100
329.200	-12.813	0.100
329.300	-13.430	0.100
329.400	-18.100	0.100
329.500	-9.944	0.100
329.600	-11.818	0.100
329.700	-17.168	0.100
329.800	-18.110	0.100
329.900	-6.850	0.100
330.000	-4.334	0.100
330.100	-5.029	0.100
330.200	-6.955	0.100
330.300	-15.678	0.100
330.400	-10.799	0.100
330.500	-20.014	0.100
330.600	-4.308	0.100
330.700	-8.262	0.100
330.800	-13.127	0.100
330.900	-6.360	0.100
331.000	-4.424	0.100
331.100	0.219	0.100
331.200	9.194	0.100
331.300	6.683	0.100
331.400	12.916	0.100
331.500	7.418	0.100
331.600	4.788	0.100
331.700	3.878	0.100
331.800	4.626	0.100
331.900	16.035	0.100
332.000	20.165	0.100
332.100	17.926	0.100
332.200	2.504	0.100
332.300	9.448	0.100
332.400	15.018	0.100
332.500	13.998	0.100
332.600	15.268	0.100
332.700	1.679	0.100
332.800	10.835	0.100
332.900	19.635	0.100
333.000	12.939	0.100
333.100	10.765	0.100
333.200	14.738	0.100
333.300	10.061	0.100
333.400	15.705	0.100
333.500	17.474	0.100
333.600	13.451	0.100
333.700	14.105	0.100
333.800	12.226	0.100
333.900	17.861	0.100
334.000	21.087	0.100
334.100	10.355	0.100
334.200	10.671	0.100
334.300	6.662	0.100
334.400	16.465	0.100
334.500	26.495	0.100
334.600	9.964	0.100
334.700	9.425	0.100
334.800	16.026	0.100
334.900	21.295	0.100
335.000	15.474	0.100
335.100	8.431	0.100
335.200	3.485	0.100
335.300	8.572	0.100
335.400	18.087	0.100
335.500	6.162	0.100
335.600	8.146	0.100
335.700	9.536	0.100
335.800	19.181	0.100
335.900	9.322	0.100
336.000	14.472	0.100
336.100	13.214	0.100
336.200	15.261	0.100
336.300	2.664	0.100
336.400	20.039	0.100
336.500	14.114	0.100
336.600	7.274	0.100
336.700	3.320	0.100
336.800	9.026	0.100
336.900	10.539	0.100
337.000	2.017	0.100
337.100	4.938	0.100
337.200	10.188	0.100
337.300	20.779	0.100
337.400	8.915	0.100
337.500	14.560	0.100
337.600	6.449	0.100
337.700	9.615	0.100
337.800	8.410	0.100
337.900	13.949	0.100
338.000	13.034	0.100
338.100	1.170	0.100
338.200	14.555	0.100
338.300	8.092	0.100
338.400	13.638	0.100
338.500	11.525	0.100
338.600	18.751	0.100
338.700	4.075	0.100
338.800	18.506	0.100
338.900	11.273	0.100
339.000	4.104	0.100
339.100	15.393	0.100
339.200	18.844	0.100
339.300	10.287	0.100
339.400	6.682	0.100
339.500	10.340	0.100
339.600	21.424	0.100
339.700	14.051	0.100
339.800	11.833	0.100
339.900	16.101	0.100
340.000	11.964	0.100
340.100	9.584	0.100
340.200	15.746	0.100
340.300	8.464	0.100
340.400	16.825	0.100
340.500	11.893	0.100
340.600	16.103	0.100
340.700	8.925	0.100
340.800	20.086	0.100
340.900	13.005	0.100
341.000	8.035	0.100
341.100	20.369	0.100
341.200	16.574	0.100
341.300	13.552	0.100
341.400	15.962	0.100
341.500	20.043	0.100
341.600	4.517	0.100
341.700	7.781	0.100
341.800	16.532	0.100
341.900	8.784	0.100
342.000	14.642	0.100
342.100	20.867	0.100
342.200	9.427	0.100
342.300	19.273	0.100
342.400	20.097	0.100
342.500	13.333	0.100
342.600	20.487	0.100
342.700	16.789	0.100
342.800	11.165	0.100
342.900	5.849	0.100
343.000	10.266	0.100
343.100	14.464	0.100
343.200	14.368	0.100
343.300	15.044	0.100
343.400	17.079	0.100
343.500	18.086	0.100
343.600	21.286	0.100
343.700	20.682	0.100
343.800	22.441	0.100
343.900	13.374	0.100
344.000	17.293	0.100
344.100	20.009	0.100
344.200	19.457	0.100
344.300	23.020	0.100
344.400	16.605	0.100
344.500	18.101	0.100
344.600	20.198	0.100
344.700	5.275	0.100
344.800	18.758	0.100
344.900	11.642	0.100
345.000	19.449	0.100
345.100	24.918	0.100
345.200	22.148	0.100
345.300	25.294	0.100
345.400	19.951	0.100
345.500	14.274	0.100
345.600	13.138	0.100
345.700	20.258	0.100
345.800	20.439	0.100
345.900	14.170	0.100
346.000	16.750	0.100
346.100	21.664	0.100
346.200	26.132	0.100
346.300	25.360	0.100
346.400	22.646	0.100
346.500	19.550	0.100
346.600	24.796	0.100
346.700	19.668	0.100
346.800	22.576	0.100
346.900	20.095	0.100
347.000	14.243	0.100
347.100	21.313	0.100
347.200	14.951	0.100
347.300	14.878	0.100
347.400	25.649	0.100
347.500	26.330	0.100
347.600	26.742	0.100
347.700	20.122	0.100
347.800	20.870	0.100
347.900	17.170	0.100
348.000	17.566	0.100
348.100	27.628	0.100
348.200	11.846	0.100
348.300	21.824	0.100
348.400	19.751	0.100
348.500	30.493	0.100
348.600	19.816	0.100
348.700	18.254	0.100
348.800	25.467	0.100
348.900	26.126	0.100
349.000	22.456	0.100
349.100	17.098	0.100
349.200	23.113	0.100
349.300	31.948	0.100
349.400	22.295	0.100
349.500	20.239	0.100
349.600	28.447	0.100
349.700	19.184	0.100
349.800	19.022	0.100
349.900	35.892	0.100
350.000	20.907	0.100
350.100	26.873	0.100
350.200	19.448	0.100
350.300	29.407	0.100
350.400	27.233	0.100
350.500	17.595	0.100
350.600	23.206	0.100
350.700	32.650	0.100
350.800	26.651	0.100
350.900	20.390	0.100
351.000	25.656	0.100
351.100	18.479	0.100
351.200	24.600	0.100
351.300	29.657	0.100
351.400	22.568	0.100
351.500	31.026	0.100
351.600	26.866	0.100
351.700	25.176	0.100
351.800	23.874	0.100
351.900	23.852	0.100
352.000	29.653	0.100
352.100	29.682	0.100
352.200	32.337	0.100
352.300	20.606	0.100
352.400	25.320	0.100
352.500	27.201	0.100
352.600	17.069	0.100
352.700	22.525	0.100
352.800	30.360	0.100
352.900	33.329	0.100
353.000	27.658	0.100
353.100	23.482	0.100
353.200	25.289	0.100
353.300	29.279	0.100
353.400	20.423	0.100
353.500	23.112	0.100
353.600	35.879	0.100
353.700	34.126	0.100
353.800	24.209	0.100
353.900	30.431	0.100
354.000	33.922	0.100
354.100	30.973	0.100
354.200	30.588	0.100
354.300	22.476	0.100
354.400	22.250	0.100
354.500	31.167	0.100
354.600	35.717	0.100
354.700	31.336	0.100
354.800	17.533	0.100
354.900	32.129	0.100
355.000	38.495	0.100
355.100	29.088	0.100
355.200	34.798	0.100
355.300	37.340	0.100
355.400	35.899	0.100
355.500	20.642	0.100
355.600	34.170	0.100
355.700	26.750	0.100
355.800	23.829	0.100
355.900	32.068	0.100
356.000	26.784	0.100
356.100	27.328	0.100
356.200	32.874	0.100
356.300	23.591	0.100
356.400	31.980	0.100
356.500	34.571	0.100
356.600	34.662	0.100
356.700	35.720	0.100
356.800	32.418	0.100
356.900	37.504	0.100
357.000	16.577	0.100
357.100	28.437	0.100
357.200	24.614	0.100
357.300	35.090	0.100
357.400	38.548	0.100
357.500	37.970	0.100
357.600	26.656	0.100
357.700	36.068	0.100
357.800	31.377	0.100
357.900	31.088	0.100
358.000	22.351	0.100
358.100	25.978	0.100
358.200	31.879	0.100
358.300	41.186	0.100
358.400	37.551	0.100
358.500	28.727	0.100
358.600	34.774	0.100
358.700	26.323	0.100
358.800	36.484	0.100
358.900	30.741	0.100
359.000	36.807	0.100
359.100	35.900	0.100
359.200	32.495	0.100
359.300	36.640	0.100
359.400	32.315	0.100
359.500	37.432	0.100
359.600	36.804	0.100
359.700	33.323	0.100
359.800	33.694	0.100
359.900	38.128	0.100
360.000	28.592	0.100
360.100	35.807	0.100
360.200	33.835	0.100
360.300	35.821	0.100
360.400	30.056	0.100
360.500	25.642	0.100
360.600	36.011	0.100
360.700	41.056	0.100
360.800	40.446	0.100
360.900	30.210	0.100
361.000	29.881	0.100
361.100	36.762	0.100
361.200	35.489	0.100
361.300	35.130	0.100
361.400	31.851	0.100
361.500	29.059	0.100
361.600	32.985	0.100
361.700	36.845	0.100
361.800	39.938	0.100
361.900	36.320	0.100
362.000	34.935	0.100
362.100	30.382	0.100
362.200	33.642	0.100
362.300	34.592	0.100
362.400	30.078	0.100
362.500	24.628	0.100
362.600	38.862	0.100
362.700	43.474	0.100
362.800	31.127	0.100
362.900	31.309	0.100
363.000	26.625	0.100
363.100	32.018	0.100
363.200	35.432	0.100
363.300	32.296	0.100
363.400	40.946	0.100
363.500	35.386	0.100
363.600	35.374	0.100
363.700	35.062	0.100
363.800	40.143	0.100
363.900	34.599	0.100
364.000	21.119	0.100
364.100	36.756	0.100
364.200	33.204	0.100
364.300	32.351	0.100
364.400	49.278	0.100
364.500	41.987	0.100
364.600	24.101	0.100
364.700	29.702	0.100
364.800	32.701	0.100
364.900	28.281	0.100
365.000	39.227	0.100
365.100	40.554	0.100
365.200	40.041	0.100
365.300	33.260	0.100
365.400	36.363	0.100
365.500	33.136	0.100
365.600	27.416	0.100
365.700	33.420	0.100
365.800	38.354	0.100
365.900	42.210	0.100
366.000	38.955	0.100
366.100	32.132	0.100
366.200	32.232	0.100
366.300	36.334	0.100
366.400	28.762	0.100
366.500	39.631	0.100
366.600	29.952	0.100
366.700	34.536	0.100
366.800	34.047	0.100
366.900	40.215	0.100
367.000	26.021	0.100
367.100	39.691	0.100
367.200	34.211	0.100
367.300	33.796	0.100
367.400	34.311	0.100
367.500	35.017	0.100
367.600	28.745	0.100
367.700	32.414	0.100
367.800	32.423	0.100
367.900	35.130	0.100
368.000	30.821	0.100
368.100	42.903	0.100
368.200	36.722	0.100
368.300	27.226	0.100
368.400	38.830	0.100
368.500	33.668	0.100
368.600	33.448	0.100
368.700	32.948	0.100
368.800	43.498	0.100
368.900	42.319	0.100
369.000	36.787	0.100
369.100	36.629	0.100
369.200	36.213	0.100
369.300	36.845	0.100
369.400	34.468	0.100
369.500	32.476	0.100
369.600	43.004	0.100
369.700	42.007	0.100
369.800	34.305	0.100
369.900	36.274	0.100
370.000	31.059	0.100
370.100	36.493	0.100
370.200	47.399	0.100
370.300	24.969	0.100
370.400	29.114	0.100
370.500	31.471	0.100
370.600	45.446	0.100
370.700	39.006	0.100
370.800	33.113	0.100
370.900	38.975	0.100
371.000	31.552	0.100
371.100	36.267	0.100
371.200	35.879	0.100
371.300	33.689	0.100
371.400	35.836	0.100
371.500	40.078	0.100
371.600	31.485	0.100
371.700	38.641	0.100
371.800	35.986	0.100
371.900	36.399	0.100
372.000	32.775	0.100
372.100	35.879	0.100
372.200	27.475	0.100
372.300	37.845	0.100
372.400	33.412	0.100
372.500	32.710	0.100
372.600	28.298	0.100
372.700	32.394	0.100
372.800	35.546	0.100
372.900	28.690	0.100
373.000	36.247	0.100
373.100	37.162	0.100
373.200	25.714	0.100
373.300	35.874	0.100
373.400	42.836	0.100
373.500	37.120	0.100
373.600	33.640	0.100
373.700	32.739	0.100
373.800	32.267	0.100
373.900	29.066	0.100
374.000	40.320	0.100
374.100	28.750	0.100
374.200	41.397	0.100
374.300	25.822	0.100
374.400	37.508	0.100
374.500	26.271	0.100
374.600	24.716	0.100
374.700	41.403	0.100
374.800	33.725	0.100
374.900	30.174	0.100
375.000	36.234	0.100
375.100	34.302	0.100
375.200	29.857	0.100
375.300	38.131	0.100
375.400	38.326	0.100
375.500	33.344	0.100
375.600	38.259	0.100
375.700	40.741	0.100
375.800	32.933	0.100
375.900	33.335	0.100
376.000	44.238	0.100
376.100	38.968	0.100
376.200	46.096	0.100
376.300	25.613	0.100
376.400	30.738	0.100
376.500	30.558	0.100
376.600	35.756	0.100
376.700	34.374	0.100
376.800	33.963	0.100
376.900	32.628	0.100
377.000	34.589	0.100
377.100	35.173	0.100
377.200	33.942	0.100
377.300	34.034	0.100
377.400	34.267	0.100
377.500	38.054	0.100
377.600	30.195	0.100
377.700	33.386	0.100
377.800	37.490	0.100
377.900	39.510	0.100
378.000	37.381	0.100
378.100	40.951	0.100
378.200	34.533	0.100
378.300	25.970	0.100
378.400	36.877	0.100
378.500	35.551	0.100
378.600	37.737	0.100
378.700	32.085	0.100
378.800	25.023	0.100
378.900	35.084	0.100
379.000	37.625	0.100
379.100	35.703	0.100
379.200	38.291	0.100
379.300	40.441	0.100
379.400	29.413	0.100
379.500	35.392	0.100
379.600	31.894	0.100
379.700	27.019	0.100
379.800	32.494	0.100
379.900	32.097	0.100
380.000	37.355	0.100
380.100	32.132	0.100
380.200	39.112	0.100
380.300	34.359	0.100
380.400	41.449	0.100
380.500	27.814	0.100
380.600	36.078	0.100
380.700	33.968	0.100
380.800	37.076	0.100
380.900	39.161	0.100
381.000	31.788	0.100
381.100	44.204	0.100
381.200	31.936	0.100
381.300	33.611	0.100
381.400	28.365	0.100
381.500	28.715	0.100
381.600	42.276	0.100
381.700	39.484	0.100
381.800	30.272	0.100
381.900	34.906	0.100
382.000	35.739	0.100
382.100	37.866	0.100
382.200	31.862	0.100
382.300	32.263	0.100
382.400	34.614	0.100
382.500	28.632	0.100
382.600	34.042	0.100
382.700	32.639	0.100
382.800	36.083	0.100
382.900	36.730	0.100
383.000	31.701	0.100
383.100	33.391	0.100
383.200	31.988	0.100
383.300	32.584	0.100
383.400	34.135	0.100
383.500	37.026	0.100
383.600	30.196	0.100
383.700	38.016	0.100
383.800	30.661	0.100
383.900	28.729	0.100
384.000	35.501	0.100
384.100	28.635	0.100
384.200	29.934	0.100
384.300	24.916	0.100
384.400	39.818	0.100
384.500	40.730	0.100
384.600	36.552	0.100
384.700	35.445	0.100
384.800	35.072	0.100
384.900	36.941	0.100
385.000	33.214	0.100
385.100	33.337	0.100
385.200	36.882	0.100
385.300	30.887	0.100
385.400	39.446	0.100
385.500	30.921	0.100
385.600	32.849	0.100
385.700	25.250	0.100
385.800	34.071	0.100
385.900	34.096	0.100
386.000	30.249	0.100
386.100	28.899	0.100
386.200	37.657	0.100
386.300	34.649	0.100
386.400	25.605	0.100
386.500	31.751	0.100
386.600	36.569	0.100
386.700	37.199	0.100
386.800	37.919	0.100
386.900	41.056	0.100
387.000	22.998	0.100
387.100	33.533	0.100
387.200	37.310	0.100
387.300	30.545	0.100
387.400	35.823	0.100
387.500	33.464	0.100
387.600	33.244	0.100
387.700	38.508	0.100
387.800	28.365	0.100
387.900	31.885	0.100
388.000	38.772	0.100
388.100	33.981	0.100
388.200	32.373	0.100
388.300	32.327	0.100
388.400	39.138	0.100
388.500	33.821	0.100
388.600	29.979	0.100
388.700	35.962	0.100
388.800	30.025	0.100
388.900	38.906	0.100
389.000	31.260	0.100
389.100	37.003	0.100
389.200	34.737	0.100
389.300	30.322	0.100
389.400	34.527	0.100
389.500	31.632	0.100
389.600	32.408	0.100
389.700	38.018	0.100
389.800	33.613	0.100
389.900	29.405	0.100
390.000	31.364	0.100
390.100	31.043	0.100
390.200	33.786	0.100
390.300	33.015	0.100
390.400	40.847	0.100
390.500	30.949	0.100
390.600	24.175	0.100
390.700	18.918	0.100
390.800	29.051	0.100
390.900	26.847	0.100
391.000	17.549	0.100
391.100	23.197	0.100
391.200	8.929	0.100
391.300	16.106	0.100
391.400	13.901	0.100
391.500	9.325	0.100
391.600	13.013	0.100
391.700	15.074	0.100
391.800	5.676	0.100
391.900	6.008	0.100
392.000	5.273	0.100
392.100	-1.205	0.100
392.200	0.952	0.100
392.300	5.244	0.100
392.400	-6.855	0.100
392.500	5.641	0.100
392.600	5.894	0.100
392.700	5.635	0.100
392.800	1.014	0.100
392.900	2.445	0.100
393.000	0.961	0.100
393.100	9.373	0.100
393.200	0.631	0.100
393.300	-1.833	0.100
393.400	-5.772	0.100
393.500	-0.422	0.100
393.600	2.681	0.100
393.700	-4.799	0.100
393.800	-10.229	0.100
393.900	-5.761	0.100
394.000	-5.459	0.100
394.100	-0.368	0.100
394.200	-1.330	0.100
394.300	-7.764	0.100
394.400	-1.569	0.100
394.500	-6.572	0.100
394.600	-3.617	0.100
394.700	-11.295	0.100
394.800	7.175	0.100
394.900	-4.672	0.100
395.000	-5.863	0.100
395.100	12.351	0.100
395.200	-4.660	0.100
395.300	-1.164	0.100
395.400	-5.294	0.100
395.500	-3.259	0.100
395.600	-4.281	0.100
395.700	-4.490	0.100
395.800	-0.114	0.100
395.900	2.349	0.100
396.000	-0.133	0.100
396.100	-1.265	0.100
396.200	-10.809	0.100
396.300	-8.329	0.100
396.400	5.389	0.100
396.500	1.884	0.100
396.600	1.366	0.100
396.700	-5.988	0.100
396.800	6.859	0.100
396.900	-1.928	0.100
397.000	-2.747	0.100
397.100	-1.514	0.100
397.200	-1.870	0.100
397.300	4.760	0.100
397.400	-4.326	0.100
397.500	0.911	0.100
397.600	-5.946	0.100
397.700	-5.110	0.100
397.800	3.049	0.100
397.900	-2.739	0.100
398.000	-5.389	0.100
398.100	0.354	0.100
398.200	0.806	0.100
398.300	-1.665	0.100
398.400	5.074	0.100
398.500	-4.156	0.100
398.600	-6.607	0.100
398.700	-7.851	0.100
398.800	-4.833	0.100
398.900	-12.894	0.100
399.000	8.478	0.100
399.100	-1.412	0.100
399.200	-0.218	0.100
399.300	-4.456	0.100
399.400	-3.463	0.100
399.500	-6.286	0.100
399.600	-8.000	0.100
399.700	-5.015	0.100
399.800	-9.791	0.100
399.900	-2.557	0.100
400.000	0.806	0.100
400.100	6.238	0.100
400.200	-3.131	0.100
400.300	5.961	0.100
400.400	-1.527	0.100
400.500	-12.323	0.100
400.600	-1.807	0.100
400.700	-4.820	0.100
400.800	9.119	0.100
400.900	-5.106	0.100
401.000	-0.992	0.100
401.100	2.250	0.100
401.200	-12.576	0.100
401.300	2.061	0.100
401.400	-5.071	0.100
401.500	-1.026	0.100
401.600	-7.876	0.100
401.700	-1.103	0.100
401.800	-10.653	0.100
401.900	-3.382	0.100
402.000	-5.348	0.100
402.100	9.506	0.100
402.200	-8.076	0.100
402.300	-3.572	0.100
402.400	1.139	0.100
402.500	-2.026	0.100
402.600	-9.222	0.100
402.700	-0.241	0.100
402.800	-14.330	0.100
402.900	-6.170	0.100
403.000	4.118	0.100
403.100	-8.834	0.100
403.200	-0.805	0.100
403.300	-6.207	0.100
403.400	7.384	0.100
403.500	-5.915	0.100
403.600	0.205	0.100
403.700	-10.596	0.100
403.800	-5.261	0.100
403.900	-11.240	0.100
404.000	-14.713	0.100
404.100	-7.264	0.100
404.200	3.042	0.100
404.300	-0.467	0.100
404.400	-0.254	0.100
404.500	-4.134	0.100
404.600	-9.613	0.100
404.700	-4.303	0.100
404.800	-11.309	0.100
404.900	-10.317	0.100
405.000	-8.327	0.100
405.100	-15.206	0.100
405.200	-6.803	0.100
405.300	-1.158	0.100
405.400	-6.790	0.100
405.500	-11.761	0.100
405.600	-1.605	0.100
405.700	-10.420	0.100
405.800	-8.629	0.100
405.900	-6.896	0.100
406.000	-6.323	0.100
406.100	-4.093	0.100
406.200	-11.491	0.100
406.300	-6.704	0.100
406.400	-14.266	0.100
406.500	-13.279	0.100
406.600	-0.544	0.100
406.700	-6.892	0.100
406.800	-2.173	0.100
406.900	-0.468	0.100
407.000	0.275	0.100
407.100	-12.202	0.100
407.200	-6.868	0.100
407.300	-10.164	0.100
407.400	-10.264	0.100
407.500	-3.979	0.100
407.600	-4.691	0.100
407.700	-2.188	0.100
407.800	-11.311	0.100
407.900	-5.619	0.100
408.000	-11.015	0.100
408.100	-8.436	0.100
408.200	-16.756	0.100
408.300	-2.735	0.100
408.400	-9.613	0.100
408.500	-7.406	0.100
408.600	-12.959	0.100
408.700	0.802	0.100
408.800	-5.983	0.100
408.900	-13.830	0.100
409.000	-10.650	0.100
409.100	-7.537	0.100
409.200	-2.297	0.100
409.300	-15.575	0.100
409.400	-14.201	0.100
409.500	-11.223	0.100
409.600	-6.001	0.100
409.700	-14.719	0.100
409.800	-3.267	0.100
409.900	-5.609	0.100
410.000	-4.572	0.100
410.100	-12.004	0.100
410.200	-12.668	0.100
410.300	-4.675	0.100
410.400	-12.020	0.100
410.500	-5.953	0.100
410.600	-8.590	0.100
410.700	-12.001	0.100
410.800	-17.996	0.100
410.900	-16.512	0.100
411.000	-5.841	0.100
411.100	-5.877	0.100
411.200	-16.002	0.100
411.300	-6.354	0.100
411.400	-9.065	0.100
411.500	-11.592	0.100
411.600	-12.119	0.100
411.700	-9.385	0.100
411.800	-11.046	0.100
411.900	-12.832	0.100
412.000	-5.846	0.100
412.100	-4.618	0.100
412.200	-14.743	0.100
412.300	-4.689	0.100
412.400	-13.665	0.100
412.500	-5.859	0.100
412.600	-10.777	0.100
412.700	-6.787	0.100
412.800	-8.768	0.100
412.900	-15.554	0.100
413.000	-9.721	0.100
413.100	-5.450	0.100
413.200	-12.018	0.100
413.300	-20.129	0.100
413.400	-9.537	0.100
413.500	-10.876	0.100
413.600	-15.707	0.100
413.700	-16.470	0.100
413.800	-6.503	0.100
413.900	-6.729	0.100
414.000	-4.785	0.100
414.100	-10.576	0.100
414.200	-12.785	0.100
414.300	-16.939	0.100
414.400	-18.719	0.100
414.500	-6.118	0.100
414.600	-4.103	0.100
414.700	-5.807	0.100
414.800	-10.581	0.100
414.900	-11.686	0.100
415.000	-16.304	0.100
415.100	-14.793	0.100
415.200	-8.120	0.100
415.300	-14.517	0.100
415.400	-4.639	0.100
415.500	-10.486	0.100
415.600	-7.931	0.100
415.700	-10.627	0.100
415.800	-14.867	0.100
415.900	-18.308	0.100
416.000	-7.849	0.100
416.100	-16.888	0.100
416.200	-12.599	0.100
416.300	-11.048	0.100
416.400	-14.546	0.100
416.500	-11.854	0.100
416.600	-15.641	0.100
416.700	-11.886	0.100
416.800	-12.200	0.100
416.900	-18.284	0.100
417.000	-18.775	0.100
417.100	-19.280	0.100
417.200	-16.656	0.100
417.300	-12.574	0.100
417.400	-18.928	0.100
417.500	-9.373	0.100
417.600	-16.046	0.100
417.700	-10.303	0.100
417.800	-6.360	0.100
417.900	-6.112	0.100
418.000	-13.249	0.100
418.100	-15.020	0.100
418.200	-10.017	0.100
418.300	-10.444	0.100
418.400	-10.836	0.100
418.500	-13.564	0.100
418.600	-13.184	0.100
418.700	-10.549	0.100
418.800	-14.555	0.100
418.900	-18.593	0.100
419.000	-15.472	0.100
419.100	-13.199	0.100
419.200	-12.953	0.100
419.300	-18.310	0.100
419.400	-11.593	0.100
419.500	-9.292	0.100
419.600	-15.211	0.100
419.700	-11.370	0.100
419.800	-21.094	0.100
419.900	-12.632	0.100
420.000	-6.888	0.100
420.100	-12.107	0.100
420.200	-13.565	0.100
420.300	-11.950	0.100
420.400	-14.898	0.100
420.500	-13.909	0.100
420.600	-13.500	0.100
420.700	-14.507	0.100
420.800	-17.732	0.100
420.900	-18.411	0.100
421.000	-20.148	0.100
421.100	-15.641	0.100
421.200	-9.134	0.100
421.300	-14.557	0.100
421.400	-26.745	0.100
421.500	-16.685	0.100
421.600	-11.212	0.100
421.700	-11.869	0.100
421.800	-13.696	0.100
421.900	-29.745	0.100
422.000	-12.256	0.100
422.100	-11.480	0.100
422.200	-14.490	0.100
422.300	-16.171	0.100
422.400	-16.541	0.100
422.500	-22.095	0.100
422.600	-15.164	0.100
422.700	-10.638	0.100
422.800	-18.852	0.100
422.900	-12.497	0.100
423.000	-17.892	0.100
423.100	-10.762	0.100
423.200	-16.937	0.100
423.300	-5.875	0.100
423.400	-12.674	0.100
423.500	-14.615	0.100
423.600	-24.618	0.100
423.700	-13.329	0.100
423.800	-19.140	0.100
423.900	-16.412	0.100
424.000	-20.336	0.100
424.100	-20.302	0.100
424.200	-17.104	0.100
424.300	-17.845	0.100
424.400	-12.978	0.100
424.500	-17.436	0.100
424.600	-15.217	0.100
424.700	-9.555	0.100
424.800	-17.880	0.100
424.900	-20.876	0.100
425.000	-12.557	0.100
425.100	-19.405	0.100
425.200	-16.602	0.100
425.300	-22.350	0.100
425.400	-22.108	0.100
425.500	-11.956	0.100
425.600	-12.965	0.100
425.700	-13.925	0.100
425.800	-13.202	0.100
425.900	-16.497	0.100
426.000	-16.882	0.100
426.100	-15.849	0.100
426.200	-14.788	0.100
426.300	-10.366	0.100
426.400	-18.727	0.100
426.500	-26.137	0.100
426.600	-13.215	0.100
426.700	-14.578	0.100
426.800	-13.042	0.100
426.900	-24.180	0.100
427.000	-20.969	0.100
427.100	-13.029	0.100
427.200	-18.194	0.100
427.300	-11.701	0.100
427.400	-12.634	0.100
427.500	-19.175	0.100
427.600	-20.378	0.100
427.700	-22.276	0.100
427.800	-22.439	0.100
427.900	-12.392	0.100
428.000	-12.699	0.100
428.100	-16.951	0.100
428.200	-7.295	0.100
428.300	-18.154	0.100
428.400	-21.823	0.100
428.500	-19.062	0.100
428.600	-16.390	0.100
428.700	-11.063	0.100
428.800	-23.296	0.100
428.900	-18.825	0.100
429.000	-14.354	0.100
429.100	-15.751	0.100
429.200	-17.107	0.100
429.300	-10.540	0.100
429.400	-16.280	0.100
429.500	-21.798	0.100
429.600	-23.312	0.100
429.700	-10.507	0.100
429.800	-21.636	0.100
429.900	-24.311	0.100
430.000	-9.340	0.100
430.100	-18.960	0.100
430.200	-12.425	0.100
430.300	-9.470	0.100
430.400	-12.252	0.100
430.500	-22.507	0.100
430.600	-15.985	0.100
430.700	-13.988	0.100
430.800	-21.410	0.100
430.900	-13.439	0.100
431.000	-19.408	0.100
431.100	-14.793	0.100
431.200	-14.670	0.100
431.300	-14.819	0.100
431.400	-19.324	0.100
431.500	-17.776	0.100
431.600	-18.083	0.100
431.700	-30.709	0.100
431.800	-14.181	0.100
431.900	-14.342	0.100
432.000	-10.310	0.100
432.100	-20.702	0.100
432.200	-11.477	0.100
432.300	-20.474	0.100
432.400	-29.067	0.100
432.500	-24.013	0.100
432.600	-12.986	0.100
432.700	-11.424	0.100
432.800	-19.813	0.100
432.900	-10.746	0.100
433.000	-21.466	0.100
433.100	-26.439	0.100
433.200	-29.130	0.100
433.300	-19.829	0.100
433.400	-13.224	0.100
433.500	-18.461	0.100
433.600	-17.052	0.100
433.700	-16.661	0.100
433.800	-16.573	0.100
433.900	-18.410	0.100
434.000	-17.674	0.100
434.100	-22.537	0.100
434.200	-12.936	0.100
434.300	-20.005	0.100
434.400	-23.919	0.100
434.500	-19.849	0.100
434.600	-12.460	0.100
434.700	-18.447	0.100
434.800	-15.519	0.100
434.900	-27.857	0.100
435.000	-13.764	0.100
435.100	-8.684	0.100
435.200	-16.583	0.100
435.300	-15.825	0.100
435.400	-20.535	0.100
435.500	-18.363	0.100
435.600	-17.402	0.100
435.700	-15.977	0.100
435.800	-13.341	0.100
435.900	-17.759	0.100
436.000	-31.997	0.100
436.100	-27.980	0.100
436.200	-16.692	0.100
436.300	-20.917	0.100
436.400	-16.159	0.100
436.500	-16.158	0.100
436.600	-17.102	0.100
436.700	-18.015	0.100
436.800	-9.940	0.100
436.900	-14.683	0.100
437.000	-15.671	0.100
437.100	-15.992	0.100
437.200	-17.825	0.100
437.300	-22.900	0.100
437.400	-21.585	0.100
437.500	-22.320	0.100
437.600	-18.529	0.100
437.700	-20.425	0.100
437.800	-8.646	0.100
437.900	-20.315	0.100
438.000	-23.571	0.100
438.100	-22.757	0.100
438.200	-7.044	0.100
438.300	-12.929	0.100
438.400	-17.094	0.100
438.500	-19.184	0.100
438.600	-16.759	0.100
438.700	-21.498	0.100
438.800	-18.075	0.100
438.900	-19.354	0.100
439.000	-13.735	0.100
439.100	-11.700	0.100
439.200	-22.065	0.100
439.300	-24.137	0.100
439.400	-11.539	0.100
439.500	-15.026	0.100
439.600	-13.425	0.100
439.700	-29.276	0.100
439.800	-22.333	0.100
439.900	-8.664	0.100
440.000	-14.155	0.100
440.100	-23.117	0.100
440.200	-8.722	0.100
440.300	-23.058	0.100
440.400	-29.723	0.100
440.500	-15.301	0.100
440.600	-16.306	0.100
440.700	-21.493	0.100
440.800	-11.210	0.100
440.900	-22.218	0.100
441.000	-16.687	0.100
441.100	-18.241	0.100
441.200	-18.711	0.100
441.300	-14.145	0.100
441.400	-20.934	0.100
441.500	-8.300	0.100
441.600	-8.972	0.100
441.700	-15.902	0.100
441.800	-20.793	0.100
441.900	-14.398	0.100
442.000	-19.708	0.100
442.100	-17.908	0.100
442.200	-17.922	0.100
442.300	-23.434	0.100
442.400	-18.946	0.100
442.500	-12.861	0.100
442.600	-16.255	0.100
442.700	-13.780	0.100
442.800	-16.135	0.100
442.900	-19.572	0.100
443.000	-23.904	0.100
443.100	-12.897	0.100
443.200	-15.174	0.100
443.300	-21.456	0.100
443.400	-21.068	0.100
443.500	-11.617	0.100
443.600	-15.842	0.100
443.700	-11.715	0.100
443.800	-17.605	0.100
443.900	-10.822	0.100
444.000	-14.595	0.100
444.100	-21.806	0.100
444.200	-19.533	0.100
444.300	-18.169	0.100
444.400	-16.567	0.100
444.500	-15.107	0.100
444.600	-21.093	0.100
444.700	-7.675	0.100
444.800	-14.833	0.100
444.900	-14.674	0.100
445.000	-23.810	0.100
445.100	-12.535	0.100
445.200	-17.749	0.100
445.300	-20.377	0.100
445.400	-9.661	0.100
445.500	-21.746	0.100
445.600	-14.077	0.100
445.700	-19.952	0.100
445.800	-15.551	0.100
445.900	-18.266	0.100
446.000	-20.217	0.100
446.100	-22.165	0.100
446.200	-11.086	0.100
446.300	-19.132	0.100
446.400	-15.545	0.100
446.500	-24.302	0.100
446.600	-17.336	0.100
446.700	-20.047	0.100
446.800	-19.173	0.100
446.900	-17.896	0.100
447.000	-9.696	0.100
447.100	-14.328	0.100
447.200	-17.481	0.100
447.300	-10.403	0.100
447.400	-19.533	0.100
447.500	-15.280	0.100
447.600	-16.638	0.100
447.700	-15.837	0.100
447.800	-18.604	0.100
447.900	-22.396	0.100
448.000	-16.897	0.100
448.100	-18.903	0.100
448.200	-16.854	0.100
448.300	-15.203	0.100
448.400	-15.699	0.100
448.500	-21.547	0.100
448.600	-15.152	0.100
448.700	-19.827	0.100
448.800	-17.167	0.100
448.900	-9.661	0.100
449.000	-17.880	0.100
449.100	-13.766	0.100
449.200	-14.420	0.100
449.300	-22.491	0.100
449.400	-18.595	0.100
449.500	-16.829	0.100
449.600	-15.049	0.100
449.700	-21.776	0.100
449.800	-19.781	0.100
449.900	-15.617	0.100
450.000	-11.430	0.100
450.100	-9.874	0.100
450.200	-12.102	0.100
450.300	-17.570	0.100
450.400	-14.460	0.100
450.500	-19.580	0.100
450.600	-15.935	0.100
450.700	-22.762	0.100
450.800	-21.576	0.100
450.900	-19.528	0.100
451.000	-17.729	0.100
451.100	-15.829	0.100
451.200	-2.889	0.100
451.300	-12.569	0.100
451.400	-19.174	0.100
451.500	-17.197	0.100
451.600	-20.810	0.100
451.700	-15.588	0.100
451.800	-18.283	0.100
451.900	-16.229	0.100
452.000	-13.451	0.100
452.100	-15.141	0.100
452.200	-16.398	0.100
452.300	-16.610	0.100
452.400	-12.957	0.100
452.500	-14.662	0.100
452.600	-23.869	0.100
452.700	-10.138	0.100
452.800	-30.262	0.100
452.900	-20.978	0.100
453.000	-16.344	0.100
453.100	-22.174	0.100
453.200	-13.141	0.100
453.300	-11.027	0.100
453.400	-16.129	0.100
453.500	-13.838	0.100
453.600	-16.021	0.100
453.700	-18.328	0.100
453.800	-17.351	0.100
453.900	-12.633	0.100
454.000	-15.790	0.100
454.100	-16.189	0.100
454.200	-14.217	0.100
454.300	-21.401	0.100
454.400	-17.302	0.100
454.500	-14.427	0.100
454.600	-19.561	0.100
454.700	-23.089	0.100
454.800	-10.910	0.100
454.900	-14.773	0.100
455.000	-11.622	0.100
455.100	-16.243	0.100
455.200	-21.400	0.100
455.300	-16.691	0.100
455.400	-15.803	0.100
455.500	-13.941	0.100
455.600	-19.351	0.100
455.700	-16.024	0.100
455.800	-19.015	0.100
455.900	-14.842	0.100
456.000	-15.379	0.100
456.100	-12.741	0.100
456.200	-13.268	0.100
456.300	-14.378	0.100
456.400	-12.664	0.100
456.500	-17.077	0.100
456.600	-13.975	0.100
456.700	-10.637	0.100
456.800	-9.305	0.100
456.900	-20.099	0.100
457.000	-15.136	0.100
457.100	-12.429	0.100
457.200	-12.989	0.100
457.300	-17.146	0.100
457.400	-15.049	0.100
457.500	-18.735	0.100
457.600	-18.596	0.100
457.700	-19.435	0.100
457.800	-16.110	0.100
457.900	-8.983	0.100
458.000	-16.317	0.100
458.100	-15.468	0.100
458.200	-16.934	0.100
458.300	-18.600	0.100
458.400	-29.660	0.100
458.500	-10.218	0.100
458.600	-13.621	0.100
458.700	-15.748	0.100
458.800	-10.211	0.100
458.900	-12.756	0.100
459.000	-14.964	0.100
459.100	-21.457	0.100
459.200	-18.562	0.100
459.300	-7.118	0.100
459.400	-10.659	0.100
459.500	-18.929	0.100
459.600	-17.090	0.100
459.700	-17.752	0.100
459.800	-18.447	0.100
459.900	-13.805	0.100
460.000	-14.301	0.100
460.100	-13.307	0.100
460.200	-21.888	0.100
460.300	-14.979	0.100
460.400	-2.581	0.100
460.500	-12.019	0.100
460.600	-19.001	0.100
460.700	-13.508	0.100
460.800	-13.146	0.100
460.900	-11.603	0.100
461.000	-21.748	0.100
461.100	-10.407	0.100
461.200	-13.768	0.100
461.300	-17.873	0.100
461.400	-16.116	0.100
461.500	-17.509	0.100
461.600	-11.147	0.100
461.700	-15.750	0.100
461.800	-17.196	0.100
461.900	-20.306	0.100
462.000	-14.674	0.100
462.100	-13.043	0.100
462.200	-20.710	0.100
462.300	-7.433	0.100
462.400	-13.229	0.100
462.500	-6.076	0.100
462.600	-24.754	0.100
462.700	-3.647	0.100
462.800	-21.184	0.100
462.900	-22.458	0.100
463.000	-21.332	0.100
463.100	-10.568	0.100
463.200	-10.143	0.100
463.300	-14.976	0.100
463.400	-16.156	0.100
463.500	-15.762	0.100
463.600	-20.187	0.100
463.700	-13.340	0.100
463.800	-12.627	0.100
463.900	-13.608	0.100
464.000	-5.558	0.100
464.100	-12.768	0.100
464.200	-20.695	0.100
464.300	-19.456	0.100
464.400	-14.936	0.100
464.500	-15.366	0.100
464.600	-13.946	0.100
464.700	-23.815	0.100
464.800	-12.034	0.100
464.900	-11.131	0.100
465.000	-19.090	0.100
465.100	-10.973	0.100
465.200	-18.518	0.100
465.300	-14.179	0.100
465.400	-12.705	0.100
465.500	-12.213	0.100
465.600	-12.079	0.100
465.700	-23.979	0.100
465.800	-15.135	0.100
465.900	-10.099	0.100
466.000	-8.479	0.100
466.100	-18.574	0.100
466.200	-18.361	0.100
466.300	-16.461	0.100
466.400	-13.614	0.100
466.500	-13.383	0.100
466.600	-15.737	0.100
466.700	-19.227	0.100
466.800	-21.158	0.100
466.900	-12.607	0.100
467.000	-10.628	0.100
467.100	-7.287	0.100
467.200	-17.807	0.100
467.300	-19.963	0.100
467.400	-6.331	0.100
467.500	-20.664	0.100
467.600	-11.274	0.100
467.700	-7.741	0.100
467.800	-17.790	0.100
467.900	-19.897	0.100
468.000	-7.518	0.100
468.100	-17.685	0.100
468.200	-13.468	0.100
468.300	-8.519	0.100
468.400	-13.668	0.100
468.500	-22.199	0.100
468.600	-11.867	0.100
468.700	-9.154	0.100
468.800	-14.528	0.100
468.900	-9.768	0.100
469.000	-17.425	0.100
469.100	-28.646	0.100
469.200	-12.689	0.100
469.300	-15.891	0.100
469.400	-18.753	0.100
469.500	-5.678	0.100
469.600	-12.084	0.100
469.700	-12.274	0.100
469.800	-11.435	0.100
469.900	-12.596	0.100
470.000	-10.568	0.100
470.100	-20.046	0.100
470.200	-17.901	0.100
470.300	-8.715	0.100
470.400	-13.391	0.100
470.500	-14.464	0.100
470.600	-14.720	0.100
470.700	-16.910	0.100
470.800	-12.515	0.100
470.900	-12.280	0.100
471.000	-14.565	0.100
471.100	-11.064	0.100
471.200	-19.205	0.100
471.300	-17.111	0.100
471.400	-11.300	0.100
471.500	-15.973	0.100
471.600	-15.618	0.100
471.700	-8.677	0.100
471.800	-20.189	0.100
471.900	-15.694	0.100
472.000	-15.773	0.100
472.100	-17.987	0.100
472.200	-16.324	0.100
472.300	-8.282	0.100
472.400	-17.077	0.100
472.500	-11.152	0.100
472.600	-18.186	0.100
472.700	-19.191	0.100
472.800	-15.390	0.100
472.900	-14.142	0.100
473.000	-18.544	0.100
473.100	-14.174	0.100
473.200	-14.578	0.100
473.300	-13.817	0.100
473.400	-17.024	0.100
473.500	-11.016	0.100
473.600	-3.837	0.100
473.700	-17.322	0.100
473.800	-13.894	0.100
473.900	-17.439	0.100
474.000	-18.921	0.100
474.100	-11.694	0.100
474.200	-14.304	0.100
474.300	-15.909	0.100
474.400	-22.140	0.100
474.500	-11.682	0.100
474.600	-15.001	0.100
474.700	-9.048	0.100
474.800	-9.987	0.100
474.900	-10.324	0.100
475.000	-9.913	0.100
475.100	-18.149	0.100
475.200	-10.593	0.100
475.300	-9.441	0.100
475.400	-10.441	0.100
475.500	-13.778	0.100
475.600	-13.366	0.100
475.700	-16.796	0.100
475.800	-15.519	0.100
475.900	-16.851	0.100
476.000	-18.028	0.100
476.100	-11.932	0.100
476.200	-10.477	0.100
476.300	-14.630	0.100
476.400	-12.153	0.100
476.500	-7.682	0.100
476.600	-9.027	0.100
476.700	-20.136	0.100
476.800	-10.235	0.100
476.900	-10.027	0.100
477.000	-20.619	0.100
477.100	-7.940	0.100
477.200	-9.992	0.100
477.300	-16.491	0.100
477.400	-15.759	0.100
477.500	-12.215	0.100
477.600	-10.928	0.100
477.700	-12.220	0.100
477.800	-20.150	0.100
477.900	-7.567	0.100
478.000	-18.162	0.100
478.100	-13.704	0.100
478.200	-8.229	0.100
478.300	-10.475	0.100
478.400	-15.397	0.100
478.500	-10.010	0.100
478.600	-6.123	0.100
478.700	-14.302	0.100
478.800	-9.611	0.100
478.900	-22.457	0.100
479.000	-18.637	0.100
479.100	-16.819	0.100
479.200	-6.612	0.100
479.300	-7.331	0.100
479.400	-12.969	0.100
479.500	-18.607	0.100
479.600	-13.433	0.100
479.700	-5.784	0.100
479.800	-15.469	0.100
479.900	-15.103	0.100
480.000	-11.368	0.100
480.100	-11.108	0.100
480.200	-11.690	0.100
480.300	-20.237	0.100
480.400	-19.404	0.100
480.500	-13.731	0.100
480.600	-15.207	0.100
480.700	-10.545	0.100
480.800	-18.530	0.100
480.900	-5.146	0.100
481.000	-0.522	0.100
481.100	3.342	0.100
481.200	6.444	0.100
481.300	0.008	0.100
481.400	1.542	0.100
481.500	3.079	0.100
481.600	9.698	0.100
481.700	12.010	0.100
481.800	2.415	0.100
481.900	6.525	0.100
482.000	10.131	0.100
482.100	16.704	0.100
482.200	11.437	0.100
482.300	12.248	0.100
482.400	7.060	0.100
482.500	6.656	0.100
482.600	20.456	0.100
482.700	6.872	0.100
482.800	17.001	0.100
482.900	20.095	0.100
483.000	17.178	0.100
483.100	12.911	0.100
483.200	18.841	0.100
483.300	13.328	0.100
483.400	12.287	0.100
483.500	23.043	0.100
483.600	16.194	0.100
483.700	12.354	0.100
483.800	-0.378	0.100
483.900	18.048	0.100
484.000	21.815	0.100
484.100	14.584	0.100
484.200	10.774	0.100
484.300	21.317	0.100
484.400	12.033	0.100
484.500	11.624	0.100
484.600	22.112	0.100
484.700	9.178	0.100
484.800	6.603	0.100
484.900	9.078	0.100
485.000	12.969	0.100
485.100	20.792	0.100
485.200	9.255	0.100
485.300	3.843	0.100
485.400	10.659	0.100
485.500	29.134	0.100
485.600	13.301	0.100
485.700	19.546	0.100
485.800	11.569	0.100
485.900	17.888	0.100
486.000	4.562	0.100
486.100	18.253	0.100
486.200	14.669	0.100
486.300	17.670	0.100
486.400	8.298	0.100
486.500	10.777	0.100
486.600	10.586	0.100
486.700	12.899	0.100
486.800	16.323	0.100
486.900	14.853	0.100
487.000	4.953	0.100
487.100	12.592	0.100
487.200	9.219	0.100
487.300	5.085	0.100
487.400	9.407	0.100
487.500	11.016	0.100
487.600	14.081	0.100
487.700	9.479	0.100
487.800	10.156	0.100
487.900	9.464	0.100
488.000	6.508	0.100
488.100	6.710	0.100
488.200	9.257	0.100
488.300	14.400	0.100
488.400	13.673	0.100
488.500	2.355	0.100
488.600	19.154	0.100
488.700	7.285	0.100
488.800	9.165	0.100
488.900	8.109	0.100
489.000	6.445	0.100
489.100	3.965	0.100
489.200	20.232	0.100
489.300	16.566	0.100
489.400	13.965	0.100
489.500	16.725	0.100
489.600	12.190	0.100
489.700	6.043	0.100
489.800	3.841	0.100
489.900	8.201	0.100
490.000	16.249	0.100
490.100	16.031	0.100
490.200	10.256	0.100
490.300	14.751	0.100
490.400	15.697	0.100
490.500	14.319	0.100
490.600	10.200	0.100
490.700	12.237	0.100
490.800	13.041	0.100
490.900	11.932	0.100
491.000	18.406	0.100
491.100	14.141	0.100
491.200	15.993	0.100
491.300	11.688	0.100
491.400	13.233	0.100
491.500	9.185	0.100
491.600	11.127	0.100
491.700	16.950	0.100
491.800	15.507	0.100
491.900	11.284	0.100
492.000	27.661	0.100
492.100	25.849	0.100
492.200	12.659	0.100
492.300	14.099	0.100
492.400	14.088	0.100
492.500	21.614	0.100
492.600	8.809	0.100
492.700	3.879	0.100
492.800	25.957	0.100
492.900	18.218	0.100
493.000	9.884	0.100
493.100	10.226	0.100
493.200	16.321	0.100
493.300	19.005	0.100
493.400	9.282	0.100
493.500	19.958	0.100
493.600	17.385	0.100
493.700	14.624	0.100
493.800	17.737	0.100
493.900	7.631	0.100
494.000	9.954	0.100
494.100	16.638	0.100
494.200	15.977	0.100
494.300	13.817	0.100
494.400	13.292	0.100
494.500	22.250	0.100
494.600	15.449	0.100
494.700	13.532	0.100
494.800	21.681	0.100
494.900	13.864	0.100
495.000	19.287	0.100
495.100	11.307	0.100
495.200	11.715	0.100
495.300	19.509	0.100
495.400	21.482	0.100
495.500	17.091	0.100
495.600	13.543	0.100
495.700	22.065	0.100
495.800	8.024	0.100
495.900	21.989	0.100
496.000	16.784	0.100
496.100	19.410	0.100
496.200	24.020	0.100
496.300	23.044	0.100
496.400	7.553	0.100
496.500	21.063	0.100
496.600	15.217	0.100
496.700	18.758	0.100
496.800	19.377	0.100
496.900	15.961	0.100
497.000	14.446	0.100
497.100	17.633	0.100
497.200	29.304	0.100
497.300	35.891	0.100
497.400	23.724	0.100
497.500	21.206	0.100
497.600	20.016	0.100
497.700	17.058	0.100
497.800	19.882	0.100
497.900	18.796	0.100
498.000	31.358	0.100
498.100	26.680	0.100
498.200	21.293	0.100
498.300	18.534	0.100
498.400	23.215	0.100
498.500	13.662	0.100
498.600	16.503	0.100
498.700	16.835	0.100
498.800	26.695	0.100
498.900	24.969	0.100
499.000	29.548	0.100
499.100	16.614	0.100
499.200	29.505	0.100
499.300	23.387	0.100
499.400	22.640	0.100
499.500	27.284	0.100
499.600	24.115	0.100
499.700	21.832	0.100
499.800	21.284	0.100
499.900	21.472	0.100
500.000	34.693	0.100
500.100	27.035	0.100
500.200	15.864	0.100
500.300	18.384	0.100
500.400	25.212	0.100
500.500	32.249	0.100
500.600	26.497	0.100
500.700	33.193	0.100
500.800	34.358	0.100
500.900	19.281	0.100
501.000	22.700	0.100
501.100	27.965	0.100
501.200	27.771	0.100
501.300	25.880	0.100
501.400	32.129	0.100
501.500	22.160	0.100
501.600	17.974	0.100
501.700	27.575	0.100
501.800	28.200	0.100
501.900	33.928	0.100
502.000	32.006	0.100
502.100	27.113	0.100
502.200	34.604	0.100
502.300	28.336	0.100
502.400	24.092	0.100
502.500	17.509	0.100
502.600	16.220	0.100
502.700	31.268	0.100
502.800	29.056	0.100
502.900	28.163	0.100
503.000	29.023	0.100
503.100	41.227	0.100
503.200	24.660	0.100
503.300	35.129	0.100
503.400	21.900	0.100
503.500	24.797	0.100
503.600	27.703	0.100
503.700	30.112	0.100
503.800	30.208	0.100
503.900	24.532	0.100
504.000	26.601	0.100
504.100	34.497	0.100
504.200	38.344	0.100
504.300	28.285	0.100
504.400	21.975	0.100
504.500	32.128	0.100
504.600	30.606	0.100
504.700	30.806	0.100
504.800	28.169	0.100
504.900	34.669	0.100
505.000	32.641	0.100
505.100	28.329	0.100
505.200	27.142	0.100
505.300	22.378	0.100
505.400	33.026	0.100
505.500	24.843	0.100
505.600	35.437	0.100
505.700	37.336	0.100
505.800	30.181	0.100
505.900	29.010	0.100
506.000	28.882	0.100
506.100	25.755	0.100
506.200	35.091	0.100
506.300	21.797	0.100
506.400	35.348	0.100
506.500	34.995	0.100
506.600	25.107	0.100
506.700	33.333	0.100
506.800	29.500	0.100
506.900	31.467	0.100
507.000	37.139	0.100
507.100	44.648	0.100
507.200	33.707	0.100
507.300	41.316	0.100
507.400	22.640	0.100
507.500	38.756	0.100
507.600	38.408	0.100
507.700	31.108	0.100
507.800	37.213	0.100
507.900	33.245	0.100
508.000	32.814	0.100
508.100	29.214	0.100
508.200	37.609	0.100
508.300	37.613	0.100
508.400	35.941	0.100
508.500	38.779	0.100
508.600	32.827	0.100
508.700	28.148	0.100
508.800	34.194	0.100
508.900	28.635	0.100
509.000	41.140	0.100
509.100	37.622	0.100
509.200	39.305	0.100
509.300	34.443	0.100
509.400	30.721	0.100
509.500	36.974	0.100
509.600	35.811	0.100
509.700	31.452	0.100
509.800	38.048	0.100
509.900	35.451	0.100
510.000	27.658	0.100
510.100	36.514	0.100
510.200	33.583	0.100
510.300	30.441	0.100
510.400	29.132	0.100
510.500	37.357	0.100
510.600	46.227	0.100
510.700	39.324	0.100
510.800	31.226	0.100
510.900	37.184	0.100
511.000	32.109	0.100
511.100	31.372	0.100
511.200	34.786	0.100
511.300	37.768	0.100
511.400	31.258	0.100
511.500	32.848	0.100
511.600	37.684	0.100
511.700	32.150	0.100
511.800	38.071	0.100
511.900	45.006	0.100
512.000	31.545	0.100
512.100	34.423	0.100
512.200	27.648	0.100
512.300	39.791	0.100
512.400	30.265	0.100
512.500	31.200	0.100
512.600	42.002	0.100
512.700	28.495	0.100
512.800	35.461	0.100
512.900	29.850	0.100
513.000	34.778	0.100
513.100	36.041	0.100
513.200	26.100	0.100
513.300	39.016	0.100
513.400	32.792	0.100
513.500	33.615	0.100
513.600	41.950	0.100
513.700	31.843	0.100
513.800	34.246	0.100
513.900	39.901	0.100
514.000	39.326	0.100
514.100	23.402	0.100
514.200	38.194	0.100
514.300	34.835	0.100
514.400	33.511	0.100
514.500	33.959	0.100
514.600	42.562	0.100
514.700	36.827	0.100
514.800	33.756	0.100
514.900	35.455	0.100
515.000	39.947	0.100
515.100	35.248	0.100
515.200	35.337	0.100
515.300	33.032	0.100
515.400	45.752	0.100
515.500	30.620	0.100
515.600	35.251	0.100
515.700	35.420	0.100
515.800	40.752	0.100
515.900	27.340	0.100
516.000	38.071	0.100
516.100	32.366	0.100
516.200	38.203	0.100
516.300	39.248	0.100
516.400	38.636	0.100
516.500	31.975	0.100
516.600	40.131	0.100
516.700	40.001	0.100
516.800	28.848	0.100
516.900	34.990	0.100
517.000	30.581	0.100
517.100	32.619	0.100
517.200	34.438	0.100
517.300	29.089	0.100
517.400	41.995	0.100
517.500	40.913	0.100
517.600	34.566	0.100
517.700	29.909	0.100
517.800	37.010	0.100
517.900	44.155	0.100
518.000	36.672	0.100
518.100	33.380	0.100
518.200	38.507	0.100
518.300	34.650	0.100
518.400	39.802	0.100
518.500	41.782	0.100
518.600	33.307	0.100
518.700	37.506	0.100
518.800	27.398	0.100
518.900	34.401	0.100
519.000	23.756	0.100
519.100	47.063	0.100
519.200	34.119	0.100
519.300	29.921	0.100
519.400	34.221	0.100
519.500	40.755	0.100
519.600	31.057	0.100
519.700	37.722	0.100
519.800	29.471	0.100
519.900	28.731	0.100
520.000	39.163	0.100
520.100	42.115	0.100
520.200	31.017	0.100
520.300	37.422	0.100
520.400	32.698	0.100
520.500	28.300	0.100
520.600	34.074	0.100
520.700	37.497	0.100
520.800	37.960	0.100
520.900	33.574	0.100
521.000	36.001	0.100
521.100	46.553	0.100
521.200	31.582	0.100
521.300	30.174	0.100
521.400	33.317	0.100
521.500	43.600	0.100
521.600	30.870	0.100
521.700	32.645	0.100
521.800	33.904	0.100
521.900	36.755	0.100
522.000	30.886	0.100
522.100	34.619	0.100
522.200	36.169	0.100
522.300	33.594	0.100
522.400	39.459	0.100
522.500	24.049	0.100
522.600	32.482	0.100
522.700	33.398	0.100
522.800	34.085	0.100
522.900	38.201	0.100
523.000	33.820	0.100
523.100	37.998	0.100
523.200	40.760	0.100
523.300	34.799	0.100
523.400	30.945	0.100
523.500	30.790	0.100
523.600	32.158	0.100
523.700	28.710	0.100
523.800	37.934	0.100
523.900	33.609	0.100
524.000	41.581	0.100
524.100	37.834	0.100
524.200	33.066	0.100
524.300	32.656	0.100
524.400	32.123	0.100
524.500	34.797	0.100
524.600	29.461	0.100
524.700	27.520	0.100
524.800	31.429	0.100
524.900	33.403	0.100
525.000	30.365	0.100
525.100	27.648	0.100
525.200	45.023	0.100
525.300	39.306	0.100
525.400	37.204	0.100
525.500	22.404	0.100
525.600	40.616	0.100
525.700	38.203	0.100
525.800	36.837	0.100
525.900	36.690	0.100
526.000	22.566	0.100
526.100	34.844	0.100
526.200	38.397	0.100
526.300	29.216	0.100
526.400	27.561	0.100
526.500	28.191	0.100
526.600	35.511	0.100
526.700	33.054	0.100
526.800	37.016	0.100
526.900	36.757	0.100
527.000	37.112	0.100
527.100	36.984	0.100
527.200	28.716	0.100
527.300	29.551	0.100
527.400	36.684	0.100
527.500	41.967	0.100
527.600	36.690	0.100
527.700	27.080	0.100
527.800	30.556	0.100
527.900	30.901	0.100
528.000	35.926	0.100
528.100	39.234	0.100
528.200	36.703	0.100
528.300	31.724	0.100
528.400	35.422	0.100
528.500	41.871	0.100
528.600	29.717	0.100
528.700	38.579	0.100
528.800	32.275	0.100
528.900	37.158	0.100
529.000	32.092	0.100
529.100	37.122	0.100
529.200	37.274	0.100
529.300	36.035	0.100
529.400	35.080	0.100
529.500	36.010	0.100
529.600	28.897	0.100
529.700	36.979	0.100
529.800	32.097	0.100
529.900	38.981	0.100
530.000	38.978	0.100
530.100	37.268	0.100
530.200	35.772	0.100
530.300	32.796	0.100
530.400	32.762	0.100
530.500	30.891	0.100
530.600	34.475	0.100
530.700	33.797	0.100
530.800	37.131	0.100
530.900	35.110	0.100
531.000	33.260	0.100
531.100	29.582	0.100
531.200	32.504	0.100
531.300	37.716	0.100
531.400	25.879	0.100
531.500	29.552	0.100
531.600	41.537	0.100
531.700	36.779	0.100
531.800	27.381	0.100
531.900	31.006	0.100
532.000	37.886	0.100
532.100	37.038	0.100
532.200	17.443	0.100
532.300	30.250	0.100
532.400	31.731	0.100
532.500	35.126	0.100
532.600	33.543	0.100
532.700	33.586	0.100
532.800	36.375	0.100
532.900	23.290	0.100
533.000	32.363	0.100
533.100	39.771	0.100
533.200	30.962	0.100
533.300	39.980	0.100
533.400	30.674	0.100
533.500	39.059	0.100
533.600	22.642	0.100
533.700	39.447	0.100
533.800	21.061	0.100
533.900	38.708	0.100
534.000	31.121	0.100
534.100	32.300	0.100
534.200	30.523	0.100
534.300	27.380	0.100
534.400	26.734	0.100
534.500	28.675	0.100
534.600	37.227	0.100
534.700	32.830	0.100
534.800	38.416	0.100
534.900	33.546	0.100
535.000	31.046	0.100
535.100	35.162	0.100
535.200	34.776	0.100
535.300	29.329	0.100
535.400	36.105	0.100
535.500	29.993	0.100
535.600	25.659	0.100
535.700	31.699	0.100
535.800	40.103	0.100
535.900	35.506	0.100
536.000	34.884	0.100
536.100	34.832	0.100
536.200	34.696	0.100
536.300	30.718	0.100
536.400	41.251	0.100
536.500	40.278	0.100
536.600	30.852	0.100
536.700	29.688	0.100
536.800	35.672	0.100
536.900	33.080	0.100
537.000	30.629	0.100
537.100	34.283	0.100
537.200	36.517	0.100
537.300	42.170	0.100
537.400	26.948	0.100
537.500	34.511	0.100
537.600	30.263	0.100
537.700	32.638	0.100
537.800	39.373	0.100
537.900	27.863	0.100
538.000	33.247	0.100
538.100	24.391	0.100
538.200	33.826	0.100
538.300	38.793	0.100
538.400	37.761	0.100
538.500	41.181	0.100
538.600	38.281	0.100
538.700	30.391	0.100
538.800	31.984	0.100
538.900	29.996	0.100
539.000	39.501	0.100
539.100	23.374	0.100
539.200	34.817	0.100
539.300	31.335	0.100
539.400	33.417	0.100
539.500	40.448	0.100
539.600	36.184	0.100
539.700	28.293	0.100
539.800	32.291	0.100
539.900	42.228	0.100
540.000	31.604	0.100
540.100	26.970	0.100
540.200	33.851	0.100
540.300	38.339	0.100
540.400	32.287	0.100
540.500	28.982	0.100
540.600	34.369	0.100
540.700	23.526	0.100
540.800	23.413	0.100
540.900	19.491	0.100
541.000	18.563	0.100
541.100	10.614	0.100
541.200	14.259	0.100
541.300	12.921	0.100
541.400	22.924	0.100
541.500	13.901	0.100
541.600	6.815	0.100
541.700	5.785	0.100
541.800	7.581	0.100
541.900	2.165	0.100
542.000	6.580	0.100
542.100	6.850	0.100
542.200	5.535	0.100
542.300	3.418	0.100
542.400	-2.595	0.100
542.500	2.487	0.100
542.600	0.194	0.100
542.700	4.055	0.100
542.800	-1.985	0.100
542.900	-10.055	0.100
543.000	-6.211	0.100
543.100	3.388	0.100
543.200	-10.883	0.100
543.300	3.078	0.100
543.400	1.493	0.100
543.500	1.927	0.100
543.600	0.958	0.100
543.700	-0.031	0.100
543.800	-1.929	0.100
543.900	-2.607	0.100
544.000	-6.725	0.100
544.100	-0.421	0.100
544.200	1.591	0.100
544.300	-5.065	0.100
544.400	2.285	0.100
544.500	-1.072	0.100
544.600	1.002	0.100
544.700	-3.812	0.100
544.800	-11.566	0.100
544.900	-4.000	0.100
545.000	-2.069	0.100
545.100	-0.560	0.100
545.200	-7.168	0.100
545.300	-8.135	0.100
545.400	-0.050	0.100
545.500	-3.109	0.100
545.600	-4.865	0.100
545.700	0.072	0.100
545.800	-5.328	0.100
545.900	-6.484	0.100
546.000	-9.261	0.100
546.100	-4.420	0.100
546.200	-5.035	0.100
546.300	-2.965	0.100
546.400	1.788	0.100
546.500	-12.110	0.100
546.600	-1.135	0.100
546.700	-5.375	0.100
546.800	0.769	0.100
546.900	-4.479	0.100
547.000	-2.190	0.100
547.100	-5.193	0.100
547.200	-5.382	0.100
547.300	-4.365	0.100
547.400	1.269	0.100
547.500	-6.768	0.100
547.600	-2.662	0.100
547.700	-5.229	0.100
547.800	0.031	0.100
547.900	-5.716	0.100
548.000	-17.778	0.100
548.100	-1.658	0.100
548.200	-0.725	0.100
548.300	-11.038	0.100
548.400	-14.356	0.100
548.500	-3.819	0.100
548.600	-9.007	0.100
548.700	1.070	0.100
548.800	1.405	0.100
548.900	-2.342	0.100
549.000	-6.290	0.100
549.100	-3.752	0.100
549.200	-3.565	0.100
549.300	6.076	0.100
549.400	-1.697	0.100
549.500	-1.356	0.100
549.600	-12.747	0.100
549.700	-8.457	0.100
549.800	-5.696	0.100
549.900	-9.859	0.100
550.000	-6.006	0.100
550.100	-1.567	0.100
550.200	-3.869	0.100
550.300	-0.989	0.100
550.400	-6.198	0.100
550.500	0.418	0.100
550.600	-6.017	0.100
550.700	-8.903	0.100
550.800	-5.960	0.100
550.900	-0.778	0.100
551.000	-3.134	0.100
551.100	0.300	0.100
551.200	-2.498	0.100
551.300	-6.603	0.100
551.400	-9.064	0.100
551.500	-6.045	0.100
551.600	-10.063	0.100
551.700	-5.675	0.100
551.800	-14.479	0.100
551.900	-7.520	0.100
552.000	0.690	0.100
552.100	-2.799	0.100
552.200	-9.049	0.100
552.300	-10.263	0.100
552.400	-11.197	0.100
552.500	-2.337	0.100
552.600	2.236	0.100
552.700	0.579	0.100
552.800	-10.653	0.100
552.900	-5.931	0.100
553.000	1.279	0.100
553.100	-7.082	0.100
553.200	-10.349	0.100
553.300	8.390	0.100
553.400	-5.644	0.100
553.500	-5.795	0.100
553.600	-8.352	0.100
553.700	-6.038	0.100
553.800	1.935	0.100
553.900	-13.346	0.100
554.000	-0.915	0.100
554.100	-10.270	0.100
554.200	-11.759	0.100
554.300	-6.129	0.100
554.400	-10.836	0.100
554.500	-13.694	0.100
554.600	-8.231	0.100
554.700	-9.993	0.100
554.800	-8.087	0.100
554.900	-0.910	0.100
555.000	-12.166	0.100
555.100	-10.322	0.100
555.200	-8.726	0.100
555.300	-1.123	0.100
555.400	-1.785	0.100
555.500	-0.850	0.100
555.600	-12.285	0.100
555.700	-10.886	0.100
555.800	-6.869	0.100
555.900	-12.710	0.100
556.000	-4.869	0.100
556.100	3.444	0.100
556.200	-9.099	0.100
556.300	-12.049	0.100
556.400	1.079	0.100
556.500	-13.872	0.100
556.600	-9.483	0.100
556.700	-16.161	0.100
556.800	-18.423	0.100
556.900	-10.539	0.100
557.000	-9.544	0.100
557.100	-5.451	0.100
557.200	-2.319	0.100
557.300	-19.862	0.100
557.400	-4.488	0.100
557.500	-10.850	0.100
557.600	-10.078	0.100
557.700	-5.542	0.100
557.800	-7.471	0.100
557.900	-9.995	0.100
558.000	-4.612	0.100
558.100	-10.024	0.100
558.200	-9.311	0.100
558.300	-14.403	0.100
558.400	-9.190	0.100
558.500	-8.471	0.100
558.600	-7.760	0.100
558.700	-17.306	0.100
558.800	-10.129	0.100
558.900	-8.796	0.100
559.000	-15.070	0.100
559.100	-12.477	0.100
559.200	-11.940	0.100
559.300	1.905	0.100
559.400	-12.078	0.100
559.500	-7.504	0.100
559.600	-10.588	0.100
559.700	-17.389	0.100
559.800	-12.691	0.100
559.900	-9.270	0.100
560.000	-18.812	0.100
560.100	-0.538	0.100
560.200	-9.749	0.100
560.300	-6.651	0.100
560.400	-14.463	0.100
560.500	-16.383	0.100
560.600	-14.004	0.100
560.700	-7.055	0.100
560.800	-9.231	0.100
560.900	-11.038	0.100
561.000	-20.390	0.100
561.100	-12.110	0.100
561.200	0.369	0.100
561.300	-19.929	0.100
561.400	-5.156	0.100
561.500	-9.413	0.100
561.600	-19.187	0.100
561.700	-5.585	0.100
561.800	-15.038	0.100
561.900	-8.876	0.100
562.000	-14.161	0.100
562.100	-10.487	0.100
562.200	-17.596	0.100
562.300	-2.513	0.100
562.400	-5.554	0.100
562.500	-13.369	0.100
562.600	-10.985	0.100
562.700	-16.838	0.100
562.800	-13.605	0.100
562.900	-13.637	0.100
563.000	-18.025	0.100
563.100	-16.299	0.100
563.200	-9.730	0.100
563.300	-12.403	0.100
563.400	-17.062	0.100
563.500	-6.722	0.100
563.600	-9.130	0.100
563.700	-9.586	0.100
563.800	-14.263	0.100
563.900	-17.610	0.100
564.000	-13.992	0.100
564.100	-11.887	0.100
564.200	-20.857	0.100
564.300	-11.338	0.100
564.400	-6.077	0.100
564.500	-19.412	0.100
564.600	-13.151	0.100
564.700	-10.741	0.100
564.800	-16.980	0.100
564.900	-16.052	0.100
565.000	-17.977	0.100
565.100	-10.399	0.100
565.200	-10.650	0.100
565.300	-14.625	0.100
565.400	-14.744	0.100
565.500	-9.714	0.100
565.600	-27.019	0.100
565.700	-13.429	0.100
565.800	-9.189	0.100
565.900	-20.848	0.100
566.000	-16.853	0.100
566.100	-13.156	0.100
566.200	-7.575	0.100
566.300	-10.598	0.100
566.400	-12.545	0.100
566.500	-10.601	0.100
566.600	-16.062	0.100
566.700	-8.910	0.100
566.800	-22.880	0.100
566.900	-21.068	0.100
567.000	-12.251	0.100
567.100	-14.247	0.100
567.200	-9.184	0.100
567.300	-12.892	0.100
567.400	-15.904	0.100
567.500	-7.737	0.100
567.600	-19.724	0.100
567.700	-7.354	0.100
567.800	-11.624	0.100
567.900	-8.659	0.100
568.000	-17.227	0.100
568.100	-20.215	0.100
568.200	-13.047	0.100
568.300	-19.745	0.100
568.400	-7.287	0.100
568.500	-15.015	0.100
568.600	-10.981	0.100
568.700	-18.801	0.100
568.800	-13.664	0.100
568.900	-13.726	0.100
569.000	-12.276	0.100
569.100	-7.215	0.100
569.200	-20.549	0.100
569.300	-21.378	0.100
569.400	-15.006	0.100
569.500	-16.409	0.100
569.600	-19.867	0.100
569.700	-16.367	0.100
569.800	-9.195	0.100
569.900	-16.485	0.100
570.000	-9.527	0.100
570.100	-22.987	0.100
570.200	-16.027	0.100
570.300	-14.584	0.100
570.400	-16.596	0.100
570.500	-18.708	0.100
570.600	-8.894	0.100
570.700	-23.033	0.100
570.800	-20.553	0.100
570.900	-17.703	0.100
571.000	-13.341	0.100
571.100	-9.161	0.100
571.200	-9.142	0.100
571.300	-17.831	0.100
571.400	-16.343	0.100
571.500	-16.643	0.100
571.600	-24.436	0.100
571.700	-13.215	0.100
571.800	-22.248	0.100
571.900	-12.324	0.100
572.000	-11.711	0.100
572.100	-19.124	0.100
572.200	-18.998	0.100
572.300	-20.272	0.100
572.400	-18.651	0.100
572.500	-10.438	0.100
572.600	-22.832	0.100
572.700	-12.109	0.100
572.800	-21.419	0.100
572.900	-23.818	0.100
573.000	-10.153	0.100
573.100	-13.767	0.100
573.200	-13.984	0.100
573.300	-22.237	0.100
573.400	-13.342	0.100
573.500	-21.626	0.100
573.600	-15.590	0.100
573.700	-19.782	0.100
573.800	-14.187	0.100
573.900	-17.792	0.100
574.000	-22.922	0.100
574.100	-9.337	0.100
574.200	-29.599	0.100
574.300	-8.007	0.100
574.400	-12.704	0.100
574.500	-16.107	0.100
574.600	-14.039	0.100
574.700	-17.456	0.100
574.800	-17.101	0.100
574.900	-11.224	0.100
575.000	-15.759	0.100
575.100	-25.243	0.100
575.200	-22.236	0.100
575.300	-21.937	0.100
575.400	-7.534	0.100
575.500	-16.187	0.100
575.600	-20.582	0.100
575.700	-17.126	0.100
575.800	-13.045	0.100
575.900	-17.969	0.100
576.000	-10.927	0.100
576.100	-17.352	0.100
576.200	-15.739	0.100
576.300	-19.437	0.100
576.400	-19.865	0.100
576.500	-17.693	0.100
576.600	-24.502	0.100
576.700	-16.542	0.100
576.800	-18.127	0.100
576.900	-15.060	0.100
577.000	-23.386	0.100
577.100	-23.541	0.100
577.200	-18.882	0.100
577.300	-15.014	0.100
577.400	-17.581	0.100
577.500	-15.994	0.100
577.600	-17.775	0.100
577.700	-20.233	0.100
577.800	-22.402	0.100
577.900	-26.340	0.100
578.000	-14.789	0.100
578.100	-20.369	0.100
578.200	-19.250	0.100
578.300	-29.962	0.100
578.400	-11.432	0.100
578.500	-14.340	0.100
578.600	-18.842	0.100
578.700	-24.555	0.100
578.800	-21.638	0.100
578.900	-15.281	0.100
579.000	-18.145	0.100
579.100	-19.460	0.100
579.200	-19.827	0.100
579.300	-10.216	0.100
579.400	-10.096	0.100
579.500	-17.022	0.100
579.600	-22.618	0.100
579.700	-30.732	0.100
579.800	-26.077	0.100
579.900	-17.073	0.100
580.000	-18.200	0.100
580.100	-22.360	0.100
580.200	-14.857	0.100
580.300	-17.698	0.100
580.400	-23.292	0.100
580.500	-19.251	0.100
580.600	-19.667	0.100
580.700	-38.332	0.100
580.800	-20.343	0.100
580.900	-19.012	0.100
581.000	-18.991	0.100
581.100	-18.745	0.100
581.200	-19.919	0.100
581.300	-22.563	0.100
581.400	-25.145	0.100
581.500	-14.956	0.100
581.600	-26.488	0.100
581.700	-9.682	0.100
581.800	-22.041	0.100
581.900	-19.982	0.100
582.000	-24.242	0.100
582.100	-22.777	0.100
582.200	-13.586	0.100
582.300	-17.801	0.100
582.400	-16.988	0.100
582.500	-21.900	0.100
582.600	-20.842	0.100
582.700	-21.751	0.100
582.800	-16.236	0.100
582.900	-19.504	0.100
583.000	-17.523	0.100
583.100	-24.153	0.100
583.200	-25.831	0.100
583.300	-21.376	0.100
583.400	-20.724	0.100
583.500	-17.846	0.100
583.600	-12.709	0.100
583.700	-18.761	0.100
583.800	-13.486	0.100
583.900	-19.090	0.100
584.000	-23.705	0.100
584.100	-15.622	0.100
584.200	-19.657	0.100
584.300	-13.716	0.100
584.400	-19.042	0.100
584.500	-16.962	0.100
584.600	-17.821	0.100
584.700	-15.955	0.100
584.800	-14.604	0.100
584.900	-19.754	0.100
585.000	-24.399	0.100
585.100	-20.481	0.100
585.200	-16.038	0.100
585.300	-30.982	0.100
585.400	-13.974	0.100
585.500	-17.618	0.100
585.600	-13.604	0.100
585.700	-16.119	0.100
585.800	-19.361	0.100
585.900	-15.570	0.100
586.000	-16.210	0.100
586.100	-16.633	0.100
586.200	-20.671	0.100
586.300	-18.267	0.100
586.400	-18.304	0.100
586.500	-23.694	0.100
586.600	-14.819	0.100
586.700	-15.384	0.100
586.800	-21.488	0.100
586.900	-27.303	0.100
587.000	-15.424	0.100
587.100	-18.242	0.100
587.200	-19.117	0.100
587.300	-16.901	0.100
587.400	-15.768	0.100
587.500	-17.235	0.100
587.600	-28.811	0.100
587.700	-22.396	0.100
587.800	-17.247	0.100
587.900	-20.817	0.100
588.000	-22.790	0.100
588.100	-21.210	0.100
588.200	-21.264	0.100
588.300	-14.105	0.100
588.400	-28.070	0.100
588.500	-20.212	0.100
588.600	-13.396	0.100
588.700	-20.243	0.100
588.800	-19.656	0.100
588.900	-17.970	0.100
589.000	-17.780	0.100
589.100	-20.116	0.100
589.200	-14.973	0.100
589.300	-22.187	0.100
589.400	-18.358	0.100
589.500	-7.365	0.100
589.600	-23.914	0.100
589.700	-15.164	0.100
589.800	-33.652	0.100
589.900	-15.917	0.100
590.000	-17.273	0.100
590.100	-14.214	0.100
590.200	-17.717	0.100
590.300	-17.624	0.100
590.400	-20.717	0.100
590.500	-14.256	0.100
590.600	-21.894	0.100
590.700	-12.169	0.100
590.800	-21.859	0.100
590.900	-27.495	0.100
591.000	-21.657	0.100
591.100	-11.181	0.100
591.200	-17.602	0.100
591.300	-18.349	0.100
591.400	-24.405	0.100
591.500	-20.852	0.100
591.600	-14.942	0.100
591.700	-17.530	0.100
591.800	-19.834	0.100
591.900	-16.331	0.100
592.000	-19.300	0.100
592.100	-22.725	0.100
592.200	-18.328	0.100
592.300	-18.832	0.100
592.400	-22.471	0.100
592.500	-14.257	0.100
592.600	-17.588	0.100
592.700	-17.152	0.100
592.800	-23.529	0.100
592.900	-17.173	0.100
593.000	-18.323	0.100
593.100	-20.903	0.100
593.200	-15.487	0.100
593.300	-11.686	0.100
593.400	-22.014	0.100
593.500	-16.711	0.100
593.600	-14.491	0.100
593.700	-15.491	0.100
593.800	-20.340	0.100
593.900	-24.123	0.100
594.000	-21.022	0.100
594.100	-13.300	0.100
594.200	-20.565	0.100
594.300	-16.906	0.100
594.400	-24.063	0.100
594.500	-9.620	0.100
594.600	-14.836	0.100
594.700	-24.093	0.100
594.800	-16.916	0.100
594.900	-22.583	0.100
595.000	-21.104	0.100
595.100	-20.241	0.100
595.200	-8.882	0.100
595.300	-14.886	0.100
595.400	-13.277	0.100
595.500	-17.430	0.100
595.600	-15.116	0.100
595.700	-25.193	0.100
595.800	-16.994	0.100
595.900	-17.035	0.100
596.000	-17.351	0.100
596.100	-15.000	0.100
596.200	-17.839	0.100
596.300	-13.933	0.100
596.400	-24.514	0.100
596.500	-18.640	0.100
596.600	-25.869	0.100
596.700	-10.645	0.100
596.800	-17.459	0.100
596.900	-15.936	0.100
597.000	-15.170	0.100
597.100	-20.128	0.100
597.200	-14.346	0.100
597.300	-11.527	0.100
597.400	-17.935	0.100
597.500	-27.928	0.100
597.600	-19.310	0.100
597.700	-20.768	0.100
597.800	-17.539	0.100
597.900	-18.603	0.100
598.000	-19.116	0.100
598.100	-23.969	0.100
598.200	-13.188	0.100
598.300	-4.713	0.100
598.400	-22.467	0.100
598.500	-23.011	0.100
598.600	-16.444	0.100
598.700	-11.265	0.100
598.800	-15.479	0.100
598.900	-15.789	0.100
599.000	-15.950	0.100
599.100	-15.477	0.100
599.200	-16.319	0.100
599.300	-15.428	0.100
599.400	-17.306	0.100
599.500	-21.036	0.100
599.600	-18.134	0.100
599.700	-16.675	0.100
599.800	-26.174	0.100
599.900	-17.134	0.100
600.000	-14.479	0.100
600.100	-18.853	0.100
600.200	-25.435	0.100
600.300	-17.341	0.100
600.400	-13.702	0.100
600.500	-16.731	0.100
600.600	-16.706	0.100
600.700	-11.678	0.100
600.800	-17.382	0.100
600.900	-26.779	0.100
601.000	-12.429	0.100
601.100	-20.071	0.100
601.200	-15.547	0.100
601.300	-11.487	0.100
601.400	-13.731	0.100
601.500	-19.771	0.100
601.600	-18.167	0.100
601.700	-14.883	0.100
601.800	-20.407	0.100
601.900	-15.091	0.100
602.000	-21.005	0.100
602.100	-13.677	0.100
602.200	-11.437	0.100
602.300	-23.166	0.100
602.400	-13.549	0.100
602.500	-16.632	0.100
602.600	-17.306	0.100
602.700	-17.032	0.100
602.800	-16.605	0.100
602.900	-18.831	0.100
603.000	-17.274	0.100
603.100	-14.274	0.100
603.200	-20.926	0.100
603.300	-13.827	0.100
603.400	-14.269	0.100
603.500	-23.321	0.100
603.600	-19.354	0.100
603.700	-14.145	0.100
603.800	-22.260	0.100
603.900	-14.261	0.100
604.000	-11.583	0.100
604.100	-18.117	0.100
604.200	-18.456	0.100
604.300	-14.435	0.100
604.400	-22.465	0.100
604.500	-16.880	0.100
604.600	-12.605	0.100
604.700	-22.779	0.100
604.800	-27.011	0.100
604.900	-21.892	0.100
605.000	-16.783	0.100
605.100	-22.291	0.100
605.200	-16.354	0.100
605.300	-17.828	0.100
605.400	-10.778	0.100
605.500	-16.692	0.100
605.600	-19.608	0.100
605.700	-18.472	0.100
605.800	-13.299	0.100
605.900	-20.737	0.100
606.000	-17.443	0.100
606.100	-22.505	0.100
606.200	-12.603	0.100
606.300	-16.161	0.100
606.400	-18.482	0.100
606.500	-12.304	0.100
606.600	-12.449	0.100
606.700	-16.567	0.100
606.800	-16.717	0.100
606.900	-11.497	0.100
607.000	-8.144	0.100
607.100	-21.503	0.100
607.200	-19.842	0.100
607.300	-14.740	0.100
607.400	-22.500	0.100
607.500	-22.844	0.100
607.600	-6.603	0.100
607.700	-26.426	0.100
607.800	-16.423	0.100
607.900	-10.730	0.100
608.000	-17.270	0.100
608.100	-19.252	0.100
608.200	-9.689	0.100
608.300	-21.690	0.100
608.400	-22.446	0.100
608.500	-7.540	0.100
608.600	-12.881	0.100
608.700	-19.778	0.100
608.800	-24.245	0.100
608.900	-21.662	0.100
609.000	-16.086	0.100
609.100	-23.055	0.100
609.200	-15.556	0.100
609.300	-13.521	0.100
609.400	-16.843	0.100
609.500	-21.925	0.100
609.600	-24.591	0.100
609.700	-22.199	0.100
609.800	-14.599	0.100
609.900	-15.766	0.100
610.000	-14.074	0.100
610.100	-14.634	0.100
610.200	-14.776	0.100
610.300	-22.633	0.100
610.400	-19.019	0.100
610.500	-18.771	0.100
610.600	-13.226	0.100
610.700	-20.167	0.100
610.800	-9.408	0.100
610.900	-21.281	0.100
611.000	-16.644	0.100
611.100	-14.010	0.100
611.200	-19.751	0.100
611.300	-21.735	0.100
611.400	-21.708	0.100
611.500	-15.618	0.100
611.600	6.940	0.100
611.700	-8.597	0.100
611.800	-15.695	0.100
611.900	-9.757	0.100
612.000	-14.174	0.100
612.100	-15.445	0.100
612.200	-12.069	0.100
612.300	-20.922	0.100
612.400	-17.501	0.100
612.500	-12.222	0.100
612.600	-14.964	0.100
612.700	-22.858	0.100
612.800	-13.750	0.100
612.900	-18.038	0.100
613.000	-29.374	0.100
613.100	-15.216	0.100
613.200	-18.668	0.100
613.300	-13.624	0.100
613.400	-17.365	0.100
613.500	-18.658	0.100
613.600	-16.063	0.100
613.700	-9.592	0.100
613.800	-15.482	0.100
613.900	-15.092	0.100
614.000	-11.131	0.100
614.100	-16.681	0.100
614.200	-18.662	0.100
614.300	-17.394	0.100
614.400	-16.896	0.100
614.500	-15.737	0.100
614.600	-19.174	0.100
614.700	-16.537	0.100
614.800	-12.195	0.100
614.900	-14.278	0.100
615.000	-15.639	0.100
615.100	-18.138	0.100
615.200	-18.010	0.100
615.300	-15.706	0.100
615.400	-13.686	0.100
615.500	-9.954	0.100
615.600	-11.320	0.100
615.700	-12.725	0.100
615.800	-18.963	0.100
615.900	-14.609	0.100
616.000	-11.774	0.100
616.100	-12.620	0.100
616.200	-10.949	0.100
616.300	-22.616	0.100
616.400	-15.249	0.100
616.500	-18.783	0.100
616.600	-16.825	0.100
616.700	-16.037	0.100
616.800	-18.532	0.100
616.900	-16.206	0.100
617.000	-16.129	0.100
617.100	-17.151	0.100
617.200	-18.333	0.100
617.300	-11.443	0.100
617.400	-13.258	0.100
617.500	-13.263	0.100
617.600	-16.570	0.100
617.700	-13.569	0.100
617.800	-15.989	0.100
617.900	-25.614	0.100
618.000	-25.751	0.100
618.100	-0.513	0.100
618.200	-9.174	0.100
618.300	-16.461	0.100
618.400	-21.206	0.100
618.500	-23.381	0.100
618.600	-4.964	0.100
618.700	-10.189	0.100
618.800	-14.841	0.100
618.900	-18.697	0.100
619.000	-19.542	0.100
619.100	-18.940	0.100
619.200	-15.085	0.100
619.300	-13.698	0.100
619.400	-15.839	0.100
619.500	-13.588	0.100
619.600	-4.072	0.100
619.700	-19.951	0.100
619.800	-14.307	0.100
619.900	-16.978	0.100
620.000	-25.501	0.100
620.100	-6.444	0.100
620.200	-12.553	0.100
620.300	-14.182	0.100
620.400	-12.775	0.100
620.500	-16.386	0.100
620.600	-16.981	0.100
620.700	-22.785	0.100
620.800	-15.277	0.100
620.900	-14.942	0.100
621.000	-12.226	0.100
621.100	-14.319	0.100
621.200	-14.537	0.100
621.300	-17.902	0.100
621.400	-20.415	0.100
621.500	-14.128	0.100
621.600	-17.270	0.100
621.700	-15.959	0.100
621.800	-14.979	0.100
621.900	-18.865	0.100
622.000	-16.334	0.100
622.100	-17.237	0.100
622.200	-4.480	0.100
622.300	-12.682	0.100
622.400	-21.301	0.100
622.500	-14.573	0.100
622.600	-11.874	0.100
622.700	-25.982	0.100
622.800	-16.167	0.100
622.900	-11.242	0.100
623.000	-9.886	0.100
623.100	-12.788	0.100
623.200	-21.926	0.100
623.300	-16.558	0.100
623.400	-18.270	0.100
623.500	-14.281	0.100
623.600	-26.239	0.100
623.700	-13.682	0.100
623.800	-14.360	0.100
623.900	-9.038	0.100
624.000	-13.513	0.100
624.100	-19.148	0.100
624.200	-16.534	0.100
624.300	-17.817	0.100
624.400	-15.886	0.100
624.500	-11.446	0.100
624.600	-6.792	0.100
624.700	-16.930	0.100
624.800	-11.285	0.100
624.900	-20.884	0.100
625.000	-16.673	0.100
625.100	-13.210	0.100
625.200	-13.006	0.100
625.300	-3.687	0.100
625.400	-15.413	0.100
625.500	-15.857	0.100
625.600	-17.560	0.100
625.700	-15.588	0.100
625.800	-13.410	0.100
625.900	-16.473	0.100
626.000	-11.884	0.100
626.100	-13.425	0.100
626.200	-25.547	0.100
626.300	-14.797	0.100
626.400	-17.553	0.100
626.500	-9.846	0.100
626.600	-6.339	0.100
626.700	-18.507	0.100
626.800	-22.316	0.100
626.900	-18.423	0.100
627.000	-17.157	0.100
627.100	-14.677	0.100
627.200	-17.606	0.100
627.300	-21.522	0.100
627.400	-14.882	0.100
627.500	-14.616	0.100
627.600	-20.906	0.100
627.700	-11.670	0.100
627.800	-14.750	0.100
627.900	-10.487	0.100
628.000	-21.419	0.100
628.100	-14.245	0.100
628.200	-3.639	0.100
628.300	-14.666	0.100
628.400	-13.374	0.100
628.500	-18.062	0.100
628.600	-16.364	0.100
628.700	-12.295	0.100
628.800	-21.859	0.100
628.900	-6.277	0.100
629.000	-12.391	0.100
629.100	-18.121	0.100
629.200	-11.936	0.100
629.300	-14.662	0.100
629.400	-4.052	0.100
629.500	-16.561	0.100
629.600	-19.882	0.100
629.700	-21.211	0.100
629.800	-18.554	0.100
629.900	-11.050	0.100
630.000	-18.563	0.100
630.100	-19.249	0.100
630.200	-14.220	0.100
630.300	-3.078	0.100
630.400	-7.420	0.100
630.500	-15.626	0.100
630.600	-12.757	0.100
630.700	-11.119	0.100
630.800	-13.947	0.100
630.900	-12.107	0.100
631.000	-5.332	0.100
631.100	-5.242	0.100
631.200	7.983	0.100
631.300	-1.904	0.100
631.400	2.961	0.100
631.500	7.615	0.100
631.600	12.132	0.100
631.700	3.648	0.100
631.800	0.863	0.100
631.900	11.189	0.100
632.000	12.174	0.100
632.100	10.080	0.100
632.200	18.392	0.100
632.300	9.983	0.100
632.400	13.411	0.100
632.500	14.506	0.100
632.600	14.719	0.100
632.700	10.354	0.100
632.800	13.742	0.100
632.900	18.576	0.100
633.000	19.909	0.100
633.100	14.355	0.100
633.200	8.764	0.100
633.300	10.504	0.100
633.400	14.956	0.100
633.500	20.168	0.100
633.600	16.902	0.100
633.700	17.991	0.100
633.800	14.826	0.100
633.900	13.098	0.100
634.000	18.697	0.100
634.100	10.659	0.100
634.200	18.197	0.100
634.300	7.372	0.100
634.400	18.393	0.100
634.500	7.798	0.100
634.600	17.011	0.100
634.700	14.914	0.100
634.800	20.140	0.100
634.900	13.391	0.100
635.000	14.605	0.100
635.100	13.616	0.100
635.200	4.605	0.100
635.300	4.965	0.100
635.400	18.029	0.100
635.500	19.012	0.100
635.600	10.450	0.100
635.700	12.254	0.100
635.800	14.538	0.100
635.900	11.057	0.100
636.000	10.580	0.100
636.100	10.477	0.100
636.200	10.501	0.100
636.300	16.048	0.100
636.400	12.007	0.100
636.500	8.467	0.100
636.600	6.168	0.100
636.700	13.733	0.100
636.800	13.283	0.100
636.900	16.492	0.100
637.000	6.330	0.100
637.100	10.652	0.100
637.200	7.160	0.100
637.300	10.840	0.100
637.400	4.588	0.100
637.500	11.393	0.100
637.600	-0.568	0.100
637.700	13.792	0.100
637.800	8.247	0.100
637.900	14.568	0.100
638.000	13.613	0.100
638.100	12.826	0.100
638.200	1.299	0.100
638.300	10.732	0.100
638.400	-4.243	0.100
638.500	8.811	0.100
638.600	9.248	0.100
638.700	13.760	0.100
638.800	13.824	0.100
638.900	9.345	0.100
639.000	12.926	0.100
639.100	6.726	0.100
639.200	14.314	0.100
639.300	12.194	0.100
639.400	10.611	0.100
639.500	9.762	0.100
639.600	5.856	0.100
639.700	14.972	0.100
639.800	11.037	0.100
639.900	12.224	0.100
640.000	17.373	0.100
640.100	9.458	0.100
640.200	8.530	0.100
640.300	12.220	0.100
640.400	3.135	0.100
640.500	6.596	0.100
640.600	13.205	0.100
640.700	15.803	0.100
640.800	17.148	0.100
640.900	7.870	0.100
641.000	4.805	0.100
641.100	15.754	0.100
641.200	6.473	0.100
641.300	10.343	0.100
641.400	23.993	0.100
641.500	11.407	0.100
641.600	9.576	0.100
641.700	9.169	0.100
641.800	27.523	0.100
641.900	3.461	0.100
642.000	8.885	0.100
642.100	12.606	0.100
642.200	14.142	0.100
642.300	15.088	0.100
642.400	10.543	0.100
642.500	18.737	0.100
642.600	13.147	0.100
642.700	8.594	0.100
642.800	14.918	0.100
642.900	15.730	0.100
643.000	20.332	0.100
643.100	20.240	0.100
643.200	8.431	0.100
643.300	10.684	0.100
643.400	18.389	0.100
643.500	13.635	0.100
643.600	4.315	0.100
643.700	4.319	0.100
643.800	14.244	0.100
643.900	23.546	0.100
644.000	20.323	0.100
644.100	19.145	0.100
644.200	21.160	0.100
644.300	8.452	0.100
644.400	22.124	0.100
644.500	26.293	0.100
644.600	14.150	0.100
644.700	10.950	0.100
644.800	22.590	0.100
644.900	9.366	0.100
645.000	12.166	0.100
645.100	24.805	0.100
645.200	15.679	0.100
645.300	11.343	0.100
645.400	17.759	0.100
645.500	5.951	0.100
645.600	16.064	0.100
645.700	21.872	0.100
645.800	20.529	0.100
645.900	16.108	0.100
646.000	16.740	0.100
646.100	24.717	0.100
646.200	28.004	0.100
646.300	17.578	0.100
646.400	24.249	0.100
646.500	17.366	0.100
646.600	25.134	0.100
646.700	12.603	0.100
646.800	19.927	0.100
646.900	19.351	0.100
647.000	24.161	0.100
647.100	14.929	0.100
647.200	14.899	0.100
647.300	13.260	0.100
647.400	23.503	0.100
647.500	24.574	0.100
647.600	16.778	0.100
647.700	38.025	0.100
647.800	24.154	0.100
647.900	22.025	0.100
648.000	18.337	0.100
648.100	24.121	0.100
648.200	23.145	0.100
648.300	21.300	0.100
648.400	26.085	0.100
648.500	22.278	0.100
648.600	18.062	0.100
648.700	21.036	0.100
648.800	24.968	0.100
648.900	22.774	0.100
649.000	18.573	0.100
649.100	27.203	0.100
649.200	18.546	0.100
649.300	21.688	0.100
649.400	26.131	0.100
649.500	25.166	0.100
649.600	23.268	0.100
649.700	18.507	0.100
649.800	23.112	0.100
649.900	25.964	0.100
650.000	21.842	0.100
650.100	29.888	0.100
650.200	21.838	0.100
650.300	21.906	0.100
650.400	21.846	0.100
650.500	34.732	0.100
650.600	33.137	0.100
650.700	32.763	0.100
650.800	22.032	0.100
650.900	30.952	0.100
651.000	27.155	0.100
651.100	28.114	0.100
651.200	20.487	0.100
651.300	23.410	0.100
651.400	18.595	0.100
651.500	19.528	0.100
651.600	28.501	0.100
651.700	30.770	0.100
651.800	26.786	0.100
651.900	22.772	0.100
652.000	16.651	0.100
652.100	28.470	0.100
652.200	31.493	0.100
652.300	34.431	0.100
652.400	29.428	0.100
652.500	27.706	0.100
652.600	34.972	0.100
652.700	26.155	0.100
652.800	18.509	0.100
652.900	29.051	0.100
653.000	17.108	0.100
653.100	39.912	0.100
653.200	35.198	0.100
653.300	34.376	0.100
653.400	27.670	0.100
653.500	22.043	0.100
653.600	28.463	0.100
653.700	31.674	0.100
653.800	32.780	0.100
653.900	25.149	0.100
654.000	32.403	0.100
654.100	30.902	0.100
654.200	36.011	0.100
654.300	30.098	0.100
654.400	26.849	0.100
654.500	23.885	0.100
654.600	33.139	0.100
654.700	27.926	0.100
654.800	36.992	0.100
654.900	36.047	0.100
655.000	33.143	0.100
655.100	33.289	0.100
655.200	30.207	0.100
655.300	34.017	0.100
655.400	28.868	0.100
655.500	31.376	0.100
655.600	40.195	0.100
655.700	29.097	0.100
655.800	21.026	0.100
655.900	41.066	0.100
656.000	38.973	0.100
656.100	24.661	0.100
656.200	31.634	0.100
656.300	32.217	0.100
656.400	32.785	0.100
656.500	37.181	0.100
656.600	39.108	0.100
656.700	29.649	0.100
656.800	29.043	0.100
656.900	30.479	0.100
657.000	30.745	0.100
657.100	44.603	0.100
657.200	37.966	0.100
657.300	30.289	0.100
657.400	41.775	0.100
657.500	23.335	0.100
657.600	29.186	0.100
657.700	29.607	0.100
657.800	32.703	0.100
657.900	28.151	0.100
658.000	34.627	0.100
658.100	39.300	0.100
658.200	36.280	0.100
658.300	34.046	0.100
658.400	28.858	0.100
658.500	19.376	0.100
658.600	30.028	0.100
658.700	37.796	0.100
658.800	37.134	0.100
658.900	34.437	0.100
659.000	36.057	0.100
659.100	41.016	0.100
659.200	34.825	0.100
659.300	33.371	0.100
659.400	30.610	0.100
659.500	33.002	0.100
659.600	39.007	0.100
659.700	37.289	0.100
659.800	37.215	0.100
659.900	40.784	0.100
660.000	31.780	0.100
660.100	31.234	0.100
660.200	31.580	0.100
660.300	41.105	0.100
660.400	34.030	0.100
660.500	33.581	0.100
660.600	33.645	0.100
660.700	29.125	0.100
660.800	26.860	0.100
660.900	32.292	0.100
661.000	41.471	0.100
661.100	39.326	0.100
661.200	38.641	0.100
661.300	38.799	0.100
661.400	27.517	0.100
661.500	35.631	0.100
661.600	41.222	0.100
661.700	35.468	0.100
661.800	34.572	0.100
661.900	33.555	0.100
662.000	31.477	0.100
662.100	36.281	0.100
662.200	27.171	0.100
662.300	30.750	0.100
662.400	41.806	0.100
662.500	35.088	0.100
662.600	39.374	0.100
662.700	27.266	0.100
662.800	38.726	0.100
662.900	33.735	0.100
663.000	29.878	0.100
663.100	36.009	0.100
663.200	36.557	0.100
663.300	33.860	0.100
663.400	28.823	0.100
663.500	34.763	0.100
663.600	40.435	0.100
663.700	41.894	0.100
663.800	36.524	0.100
663.900	32.931	0.100
664.000	28.201	0.100
664.100	35.098	0.100
664.200	37.510	0.100
664.300	35.543	0.100
664.400	36.753	0.100
664.500	34.683	0.100
664.600	35.301	0.100
664.700	34.361	0.100
664.800	30.326	0.100
664.900	34.505	0.100
665.000	31.120	0.100
665.100	36.792	0.100
665.200	38.948	0.100
665.300	37.650	0.100
665.400	32.541	0.100
665.500	33.001	0.100
665.600	32.349	0.100
665.700	37.031	0.100
665.800	35.434	0.100
665.900	39.051	0.100
666.000	31.899	0.100
666.100	33.447	0.100
666.200	23.233	0.100
666.300	31.530	0.100
666.400	44.308	0.100
666.500	36.510	0.100
666.600	34.941	0.100
666.700	34.691	0.100
666.800	29.261	0.100
666.900	29.071	0.100
667.000	37.378	0.100
667.100	36.714	0.100
667.200	34.928	0.100
667.300	35.559	0.100
667.400	42.890	0.100
667.500	34.130	0.100
667.600	37.627	0.100
667.700	41.153	0.100
667.800	34.724	0.100
667.900	33.645	0.100
668.000	32.962	0.100
668.100	33.475	0.100
668.200	33.143	0.100
668.300	27.193	0.100
668.400	32.861	0.100
668.500	27.533	0.100
668.600	36.548	0.100
668.700	32.081	0.100
668.800	40.948	0.100
668.900	37.826	0.100
669.000	35.506	0.100
669.100	28.213	0.100
669.200	40.114	0.100
669.300	34.966	0.100
669.400	40.087	0.100
669.500	28.524	0.100
669.600	33.122	0.100
669.700	38.468	0.100
669.800	33.927	0.100
669.900	33.248	0.100
670.000	35.668	0.100
670.100	33.232	0.100
670.200	35.138	0.100
670.300	32.604	0.100
670.400	30.747	0.100
670.500	38.707	0.100
670.600	27.566	0.100
670.700	41.790	0.100
670.800	30.000	0.100
670.900	29.328	0.100
671.000	37.941	0.100
671.100	40.738	0.100
671.200	31.255	0.100
671.300	38.059	0.099
671.400	34.842	0.100
671.500	36.532	0.100
671.600	32.254	0.100
671.700	32.207	0.100
671.800	31.093	0.099
671.900	33.691	0.100
672.000	44.567	0.100
672.100	37.004	0.100
672.200	37.734	0.100
672.300	32.027	0.100
672.400	32.441	0.100
672.500	31.844	0.100
672.600	30.187	0.100
672.700	32.673	0.100
672.800	37.635	0.099
672.900	29.370	0.100
673.000	35.974	0.100
673.100	43.990	0.100
673.200	35.285	0.100
673.300	27.367	0.099
673.400	33.590	0.100
673.500	38.518	0.100
673.600	25.127	0.100
673.700	37.067	0.100
673.800	41.938	0.100
673.900	41.499	0.100
674.000	36.784	0.100
674.100	34.518	0.099
674.200	34.432	0.100
674.300	32.535	0.100
674.400	31.864	0.100
674.500	36.257	0.100
674.600	30.975	0.100
674.700	28.667	0.099
674.800	32.163	0.100
674.900	35.811	0.100
675.000	30.046	0.100
675.100	34.133	0.100
675.200	36.568	0.100
675.300	28.707	0.100
675.400	32.249	0.100
675.500	35.799	0.100
675.600	34.616	0.100
675.700	30.132	0.100
675.800	37.627	0.100
675.900	29.733	0.100
676.000	35.780	0.100
676.100	35.090	0.100
676.200	35.692	0.100
676.300	36.463	0.100
676.400	31.994	0.100
676.500	43.095	0.100
676.600	27.812	0.100
676.700	43.234	0.099
676.800	26.939	0.100
676.900	32.959	0.100
677.000	37.876	0.100
677.100	29.286	0.100
677.200	40.767	0.100
677.300	30.581	0.100
677.400	30.536	0.099
677.500	40.220	0.100
677.600	41.103	0.100
677.700	28.516	0.100
677.800	34.125	0.100
677.900	33.176	0.100
678.000	32.105	0.099
678.100	36.051	0.099
678.200	32.625	0.100
678.300	39.141	0.099
678.400	42.448	0.100
678.500	30.824	0.100
678.600	38.077	0.100
678.700	39.010	0.100
678.800	26.364	0.100
678.900	36.644	0.100
679.000	34.115	0.100
679.100	33.378	0.100
679.200	35.215	0.100
679.300	38.075	0.100
679.400	33.844	0.100
679.500	24.271	0.100
679.600	28.980	0.100
679.700	42.405	0.100
679.800	41.366	0.100
679.900	35.493	0.099
680.000	35.834	0.100
680.100	36.382	0.099
680.200	35.478	0.099
680.300	22.275	0.100
680.400	38.392	0.100
680.500	32.859	0.099
680.600	33.483	0.099
680.700	31.870	0.100
680.800	29.849	0.099
680.900	33.739	0.100
681.000	34.248	0.100
681.100	30.865	0.100
681.200	32.309	0.099
681.300	36.030	0.100
681.400	37.561	0.099
681.500	32.312	0.100
681.600	32.028	0.099
681.700	25.546	0.099
681.800	31.069	0.099
681.900	34.136	0.099
682.000	32.068	0.100
682.100	27.334	0.099
682.200	23.752	0.099
682.300	32.626	0.099
682.400	34.698	0.099
682.500	34.561	0.099
682.600	34.235	0.099
682.700	38.350	0.099
682.800	40.817	0.099
682.900	35.771	0.099
683.000	41.021	0.099
683.100	34.330	0.099
683.200	25.542	0.099
683.300	31.236	0.099
683.400	34.630	0.099
683.500	35.158	0.099
683.600	35.519	0.099
683.700	23.968	0.099
683.800	35.467	0.099
683.900	34.192	0.099
684.000	35.126	0.099
684.100	20.539	0.099
684.200	39.619	0.099
684.300	35.325	0.099
684.400	33.533	0.099
684.500	39.336	0.099
684.600	34.474	0.099
684.700	32.048	0.099
684.800	29.906	0.099
684.900	42.762	0.099
685.000	27.497	0.099
685.100	37.272	0.099
685.200	34.427	0.099
685.300	29.724	0.099
685.400	21.448	0.099
685.500	39.980	0.099
685.600	32.977	0.099
685.700	24.734	0.099
685.800	34.559	0.099
685.900	37.876	0.099
686.000	32.802	0.099
686.100	42.398	0.099
686.200	34.269	0.099
686.300	27.998	0.099
686.400	22.809	0.099
686.500	29.632	0.099
686.600	31.426	0.099
686.700	39.710	0.099
686.800	38.062	0.099
686.900	39.295	0.099
687.000	35.036	0.099
687.100	37.704	0.099
687.200	34.697	0.099
687.300	29.525	0.099
687.400	38.709	0.099
687.500	32.449	0.099
687.600	29.359	0.099
687.700	30.613	0.099
687.800	34.155	0.099
687.900	33.654	0.099
688.000	28.033	0.099
688.100	34.280	0.099
688.200	38.500	0.099
688.300	27.229	0.099
688.400	26.791	0.099
688.500	33.664	0.099
688.600	37.192	0.099
688.700	31.177	0.099
688.800	36.956	0.099
688.900	33.292	0.099
689.000	33.165	0.099
689.100	26.538	0.099
689.200	26.371	0.099
689.300	29.252	0.099
689.400	52.840	0.099
689.500	38.247	0.099
689.600	35.023	0.099
689.700	30.802	0.099
689.800	27.114	0.099
689.900	24.184	0.099
690.000	34.320	0.099
690.100	38.279	0.099
690.200	34.960	0.099
690.300	28.145	0.099
690.400	37.418	0.099
690.500	29.929	0.099
690.600	35.807	0.099
690.700	34.491	0.099
690.800	17.709	0.099
690.900	22.774	0.099
691.000	26.308	0.099
691.100	15.672	0.099
691.200	17.130	0.099
691.300	19.025	0.099
691.400	21.497	0.099
691.500	10.214	0.099
691.600	2.230	0.099
691.700	7.446	0.099
691.800	11.226	0.099
691.900	5.661	0.099
692.000	-2.520	0.099
692.100	1.244	0.099
692.200	4.800	0.099
692.300	3.527	0.099
692.400	0.152	0.099
692.500	-3.452	0.099
692.600	-3.186	0.099
692.700	-2.158	0.099
692.800	-4.568	0.099
692.900	-5.281	0.099
693.000	0.108	0.099
693.100	0.233	0.099
693.200	-12.871	0.099
693.300	-18.568	0.099
693.400	-1.965	0.099
693.500	-3.303	0.099
693.600	-3.427	0.099
693.700	-3.316	0.099
693.800	-10.947	0.099
693.900	-3.048	0.099
694.000	-23.054	0.099
694.100	2.407	0.099
694.200	-15.011	0.099
694.300	-5.221	0.099
694.400	-1.202	0.099
694.500	-1.048	0.099
694.600	-9.242	0.099
694.700	-7.313	0.099
694.800	-9.265	0.099
694.900	-6.714	0.099
695.000	3.303	0.099
695.100	-4.882	0.099
695.200	-4.266	0.099
695.300	-1.614	0.099
695.400	-7.631	0.099
695.500	-2.190	0.099
695.600	-9.486	0.099
695.700	-7.656	0.099
695.800	-9.629	0.099
695.900	-9.144	0.099
696.000	-5.606	0.099
696.100	-1.889	0.099
696.200	-2.704	0.099
696.300	-7.244	0.099
696.400	-1.623	0.099
696.500	0.425	0.099
696.600	-1.207	0.099
696.700	-16.231	0.099
696.800	-4.362	0.099
696.900	-4.440	0.099
697.000	5.899	0.099
697.100	-9.914	0.099
697.200	-2.058	0.099
697.300	0.039	0.099
697.400	-1.239	0.099
697.500	2.966	0.099
697.600	-7.552	0.099
697.700	-5.141	0.099
697.800	0.613	0.099
697.900	-12.509	0.099
698.000	-4.288	0.099
698.100	-1.247	0.099
698.200	-5.570	0.099
698.300	-12.650	0.099
698.400	7.575	0.099
698.500	-8.392	0.099
698.600	-0.338	0.099
698.700	-4.487	0.099
698.800	-11.038	0.099
698.900	-6.246	0.099
699.000	-9.161	0.099
699.100	-2.156	0.099
699.200	0.700	0.099
699.300	-4.694	0.099
699.400	-8.756	0.099
699.500	-10.892	0.099
699.600	-4.546	0.099
699.700	-5.615	0.099
699.800	0.033	0.099
699.900	1.789	0.099
700.000	0.900	0.099
700.100	-5.024	0.099
700.200	-10.477	0.099
700.300	1.052	0.099
700.400	-6.346	0.099
700.500	-8.329	0.099
700.600	-0.243	0.099
700.700	-4.027	0.099
700.800	-7.279	0.099
700.900	-5.595	0.099
701.000	-7.853	0.099
701.100	-2.793	0.099
701.200	-4.511	0.099
701.300	-3.335	0.099
701.400	-19.053	0.099
701.500	3.510	0.099
701.600	-13.328	0.099
701.700	0.112	0.099
701.800	-13.738	0.099
701.900	-2.576	0.099
702.000	-6.511	0.099
702.100	-2.594	0.099
702.200	2.735	0.099
702.300	-10.818	0.099
702.400	-9.088	0.099
702.500	-5.644	0.099
702.600	-10.805	0.099
702.700	-8.171	0.099
702.800	-4.724	0.099
702.900	-4.918	0.099
703.000	-13.805	0.099
703.100	-8.219	0.099
703.200	-2.669	0.099
703.300	-17.318	0.099
703.400	-5.837	0.099
703.500	-8.292	0.099
703.600	-0.904	0.099
703.700	-10.495	0.099
703.800	-3.443	0.099
703.900	-3.954	0.099
704.000	-5.207	0.099
704.100	-17.802	0.099
704.200	-10.748	0.099
704.300	-10.059	0.099
704.400	-9.436	0.099
704.500	-3.637	0.099
704.600	-4.342	0.099
704.700	-10.523	0.099
704.800	-13.314	0.099
704.900	-4.164	0.099
705.000	-10.126	0.099
705.100	-11.259	0.099
705.200	-16.335	0.099
705.300	-3.587	0.099
705.400	-10.375	0.099
705.500	-14.186	0.099
705.600	0.640	0.099
705.700	-10.363	0.099
705.800	-7.258	0.099
705.900	-1.423	0.099
706.000	-18.953	0.099
706.100	-17.866	0.099
706.200	-7.297	0.099
706.300	-9.149	0.099
706.400	-8.355	0.099
706.500	-15.390	0.099
706.600	-9.171	0.099
706.700	-9.479	0.099
706.800	-9.153	0.099
706.900	-7.219	0.099
707.000	-16.192	0.099
707.100	-9.496	0.099
707.200	-8.798	0.099
707.300	-7.980	0.099
707.400	-13.695	0.099
707.500	-8.477	0.099
707.600	-6.861	0.099
707.700	-10.655	0.099
707.800	-12.048	0.099
707.900	-3.218	0.099
708.000	-19.145	0.099
708.100	-12.472	0.099
708.200	-11.434	0.099
708.300	-9.975	0.099
708.400	-12.540	0.099
708.500	-9.948	0.099
708.600	-14.205	0.099
708.700	-7.249	0.099
708.800	-9.748	0.099
708.900	-11.076	0.099
709.000	-14.910	0.099
709.100	-19.288	0.099
709.200	-10.797	0.099
709.300	-4.496	0.099
709.400	-10.430	0.099
709.500	-13.761	0.099
709.600	-5.084	0.099
709.700	-2.556	0.099
709.800	-10.859	0.099
709.900	-15.724	0.099
710.000	-14.665	0.099
710.100	-16.546	0.099
710.200	-8.585	0.099
710.300	-16.989	0.099
710.400	-1.483	0.099
710.500	-7.805	0.099
710.600	-8.706	0.099
710.700	-17.577	0.099
710.800	-13.468	0.099
710.900	-9.064	0.099
711.000	-12.821	0.099
711.100	-11.181	0.099
711.200	-6.324	0.099
711.300	-15.468	0.099
711.400	-11.147	0.099
711.500	-17.660	0.099
711.600	-16.043	0.099
711.700	-10.459	0.099
711.800	-10.743	0.099
711.900	-9.508	0.099
712.000	-9.474	0.099
712.100	-22.202	0.099
712.200	-12.405	0.099
712.300	-18.090	0.099
712.400	-12.848	0.099
712.500	-11.624	0.099
712.600	-17.386	0.099
712.700	-10.029	0.099
712.800	-9.166	0.099
712.900	-22.920	0.099
713.000	-9.622	0.099
713.100	-9.306	0.099
713.200	-13.705	0.099
713.300	-14.482	0.099
713.400	-11.168	0.099
713.500	-5.416	0.099
713.600	-10.799	0.099
713.700	-19.878	0.099
713.800	-16.983	0.099
713.900	-9.936	0.099
714.000	-14.681	0.099
714.100	-9.230	0.099
714.200	-15.299	0.099
714.300	-17.910	0.099
714.400	-5.481	0.099
714.500	-9.454	0.099
714.600	-16.013	0.099
714.700	-18.386	0.099
714.800	-16.181	0.099
714.900	-19.946	0.099
715.000	-6.177	0.099
715.100	-15.803	0.099
715.200	-21.655	0.099
715.300	-10.332	0.099
715.400	-11.245	0.099
715.500	-13.533	0.099
715.600	-14.670	0.099
715.700	-8.859	0.099
715.800	-10.830	0.099
715.900	-19.441	0.099
716.000	-10.016	0.099
716.100	-19.644	0.099
716.200	-12.935	0.099
716.300	-16.738	0.099
716.400	-13.075	0.099
716.500	-18.432	0.099
716.600	-18.393	0.099
716.700	-12.623	0.099
716.800	-21.180	0.099
716.900	-20.329	0.099
717.000	-17.745	0.099
717.100	-14.520	0.099
717.200	-20.249	0.099
717.300	-21.290	0.099
717.400	-9.552	0.099
717.500	-19.134	0.099
717.600	-23.467	0.099
717.700	-11.909	0.099
717.800	-16.613	0.099
717.900	-7.162	0.099
718.000	-14.971	0.099
718.100	-21.514	0.099
718.200	-13.653	0.099
718.300	-17.536	0.099
718.400	-17.924	0.099
718.500	-12.286	0.099
718.600	-23.579	0.099
718.700	-7.757	0.099
718.800	-14.384	0.099
718.900	-14.503	0.099
719.000	-17.172	0.099
719.100	-18.565	0.099
719.200	-12.080	0.099
719.300	-22.159	0.099
719.400	-17.855	0.099
719.500	-14.653	0.099
719.600	-13.976	0.099
719.700	-20.436	0.099
719.800	-20.173	0.099
719.900	-21.085	0.099
720.000	-18.399	0.099
720.100	-15.812	0.099
720.200	-14.886	0.099
720.300	-25.241	0.099
720.400	-16.037	0.099
720.500	-17.831	0.099
720.600	-14.737	0.099
720.700	-15.887	0.099
720.800	-12.239	0.099
720.900	-16.090	0.099
721.000	-16.932	0.099
721.100	-16.053	0.099
721.200	-20.526	0.099
721.300	-25.700	0.099
721.400	-13.756	0.099
721.500	-13.463	0.099
721.600	-16.041	0.099
721.700	-16.686	0.099
721.800	-16.843	0.099
721.900	-14.431	0.099
722.000	-24.716	0.099
722.100	-10.671	0.099
722.200	-19.030	0.099
722.300	-22.851	0.099
722.400	-16.574	0.099
722.500	-17.510	0.099
722.600	-19.673	0.099
722.700	-15.975	0.099
722.800	-19.438	0.099
722.900	-16.961	0.099
723.000	-15.802	0.099
723.100	-18.382	0.099
723.200	-10.331	0.099
723.300	-15.144	0.099
723.400	-26.878	0.099
723.500	-22.775	0.099
723.600	-15.574	0.099
723.700	-11.249	0.099
723.800	-20.992	0.099
723.900	-15.350	0.099
724.000	-22.003	0.099
724.100	-16.211	0.099
724.200	-15.426	0.099
724.300	-13.136	0.099
724.400	-18.163	0.099
724.500	-20.204	0.099
724.600	-19.351	0.099
724.700	-21.920	0.099
724.800	-26.746	0.099
724.900	-21.280	0.099
725.000	-12.598	0.099
725.100	-14.440	0.099
725.200	-18.540	0.099
725.300	-18.891	0.099
725.400	-9.888	0.099
725.500	-17.798	0.099
725.600	-17.476	0.099
725.700	-19.819	0.099
725.800	-28.055	0.099
725.900	-28.464	0.099
726.000	-22.472	0.099
726.100	-21.047	0.099
726.200	-12.501	0.099
726.300	-9.663	0.099
726.400	-20.499	0.099
726.500	-21.663	0.099
726.600	-19.661	0.099
726.700	-23.387	0.099
726.800	-12.175	0.099
726.900	-18.438	0.099
727.000	-18.790	0.099
727.100	-23.114	0.099
727.200	-11.365	0.099
727.300	-23.476	0.099
727.400	-22.231	0.099
727.500	-19.924	0.099
727.600	-27.340	0.099
727.700	-11.171	0.099
727.800	-22.698	0.099
727.900	-20.629	0.099
728.000	-15.157	0.099
728.100	-16.540	0.099
728.200	-17.234	0.099
728.300	-18.557	0.099
728.400	-24.556	0.099
728.500	-27.470	0.099
728.600	-20.085	0.099
728.700	-10.111	0.099
728.800	-16.498	0.099
728.900	-23.082	0.099
729.000	-13.804	0.099
729.100	-15.926	0.099
729.200	-15.565	0.099
729.300	-26.361	0.099
729.400	-19.755	0.099
729.500	-18.494	0.099
729.600	-22.499	0.099
729.700	-21.024	0.099
729.800	-19.069	0.099
729.900	-21.078	0.099
730.000	-21.821	0.099
730.100	-21.868	0.099
730.200	-17.275	0.099
730.300	-21.141	0.099
730.400	-25.432	0.099
730.500	-18.209	0.099
730.600	-19.841	0.099
730.700	-17.771	0.099
730.800	-23.672	0.099
730.900	-21.754	0.099
731.000	-13.728	0.099
731.100	-12.869	0.099
731.200	-22.448	0.099
731.300	-15.279	0.099
731.400	-21.383	0.099
731.500	-23.543	0.099
731.600	-17.406	0.099
731.700	-26.243	0.099
731.800	-18.091	0.099
731.900	-25.143	0.099
732.000	-22.738	0.099
732.100	-17.566	0.099
732.200	-30.732	0.099
732.300	-14.039	0.099
732.400	-20.642	0.099
732.500	-23.896	0.099
732.600	-22.461	0.099
732.700	-17.843	0.099
732.800	-20.613	0.099
732.900	-28.403	0.099
733.000	-16.369	0.099
733.100	-19.078	0.099
733.200	-17.415	0.099
733.300	-25.291	0.099
733.400	-17.032	0.099
733.500	-18.253	0.099
733.600	-21.300	0.099
733.700	-31.047	0.099
733.800	-24.218	0.099
733.900	-17.201	0.099
734.000	-25.169	0.099
734.100	-16.694	0.099
734.200	-18.344	0.099
734.300	-28.782	0.099
734.400	-26.303	0.099
734.500	-21.408	0.099
734.600	-16.083	0.099
734.700	-21.671	0.099
734.800	-18.053	0.099
734.900	-22.307	0.099
735.000	-22.421	0.099
735.100	-19.694	0.099
735.200	-25.937	0.099
735.300	-29.839	0.099
735.400	-18.278	0.099
735.500	-19.614	0.099
735.600	-18.532	0.099
735.700	-14.381	0.099
735.800	-18.981	0.099
735.900	-22.774	0.099
736.000	-12.704	0.099
736.100	-15.740	0.099
736.200	-24.013	0.099
736.300	-19.349	0.099
736.400	-22.137	0.099
736.500	-25.052	0.099
736.600	-18.319	0.099
736.700	-21.648	0.099
736.800	-22.575	0.099
736.900	-24.294	0.099
737.000	-23.727	0.099
737.100	-16.617	0.099
737.200	-20.881	0.099
737.300	-16.375	0.099
737.400	-16.374	0.099
737.500	-21.117	0.099
737.600	-21.969	0.099
737.700	-17.995	0.099
737.800	-16.275	0.099
737.900	-25.412	0.099
738.000	-20.790	0.099
738.100	-19.041	0.099
738.200	-13.988	0.099
738.300	-18.999	0.099
738.400	-19.578	0.099
738.500	-15.831	0.099
738.600	-20.363	0.099
738.700	-25.737	0.099
738.800	-23.298	0.100
738.900	-25.307	0.100
739.000	-12.352	0.100
739.100	-28.809	0.100
739.200	-28.789	0.100
739.300	-15.330	0.100
739.400	-23.225	0.100
739.500	-16.132	0.100
739.600	-29.959	0.100
739.700	-21.929	0.100
739.800	-22.033	0.100
739.900	-15.877	0.100
740.000	-22.934	0.100
740.100	-12.886	0.100
740.200	-20.918	0.100
740.300	-17.043	0.100
740.400	-17.536	0.100
740.500	-18.239	0.100
740.600	-16.936	0.100
740.700	-17.439	0.100
740.800	-23.422	0.100
740.900	-18.996	0.100
741.000	-21.683	0.100
741.100	-25.535	0.100
741.200	-24.967	0.100
741.300	-5.981	0.100
741.400	-21.658	0.100
741.500	-22.262	0.100
741.600	-18.152	0.100
741.700	-21.937	0.100
741.800	-24.194	0.100
741.900	-16.635	0.100
742.000	-10.929	0.100
742.100	-11.280	0.100
742.200	-17.695	0.100
742.300	-20.651	0.100
742.400	-15.117	0.100
742.500	-24.840	0.100
742.600	-19.406	0.100
742.700	-16.176	0.100
742.800	-14.563	0.100
742.900	-19.210	0.100
743.000	-19.429	0.100
743.100	-17.660	0.100
743.200	-20.223	0.100
743.300	-23.480	0.100
743.400	-18.447	0.100
743.500	-15.913	0.100
743.600	-24.042	0.100
743.700	-20.019	0.100
743.800	-21.068	0.100
743.900	-14.846	0.100
744.000	-28.195	0.100
744.100	-18.468	0.100
744.200	-10.995	0.100
744.300	-17.735	0.100
744.400	-24.711	0.100
744.500	-18.495	0.100
744.600	-18.233	0.100
744.700	-14.300	0.100
744.800	-16.430	0.100
744.900	-19.833	0.100
745.000	-30.199	0.100
745.100	-23.598	0.100
745.200	-8.291	0.100
745.300	-26.226	0.100
745.400	-21.623	0.100
745.500	-12.876	0.100
745.600	-19.618	0.100
745.700	-19.834	0.100
745.800	-17.571	0.100
745.900	-18.043	0.100
746.000	-19.006	0.100
746.100	-18.394	0.100
746.200	-15.849	0.100
746.300	-22.470	0.100
746.400	-20.624	0.100
746.500	-18.819	0.100
746.600	-20.186	0.100
746.700	-19.696	0.100
746.800	-9.410	0.100
746.900	-14.409	0.100
747.000	-23.813	0.100
747.100	-18.103	0.100
747.200	-11.614	0.100
747.300	-16.207	0.100
747.400	-21.856	0.100
747.500	-25.226	0.100
747.600	-20.413	0.100
747.700	-21.390	0.100
747.800	-18.902	0.100
747.900	-20.011	0.100
748.000	-20.037	0.100
748.100	-16.281	0.100
748.200	-17.490	0.100
748.300	-4.925	0.100
748.400	-19.199	0.100
748.500	-18.762	0.100
748.600	-22.360	0.100
748.700	-22.300	0.100
748.800	-17.083	0.100
748.900	-18.460	0.100
749.000	-15.386	0.100
749.100	-18.652	0.100
749.200	-15.652	0.100
749.300	-18.276	0.100
749.400	-19.012	0.100
749.500	-18.817	0.100
749.600	-20.540	0.100
749.700	-19.777	0.100
749.800	-17.166	0.100
749.900	-17.540	0.100
750.000	-24.341	0.100
750.100	-5.571	0.100
750.200	-12.480	0.100
750.300	-19.380	0.100
750.400	-17.482	0.100
750.500	-23.509	0.100
750.600	-25.745	0.100
750.700	-14.298	0.100
750.800	-15.352	0.100
750.900	-17.086	0.100
751.000	-15.540	0.100
751.100	-13.754	0.100
751.200	-19.063	0.100
751.300	-17.013	0.100
751.400	-17.964	0.100
751.500	-24.197	0.100
751.600	-22.108	0.100
751.700	-19.637	0.100
751.800	-12.414	0.100
751.900	-22.858	0.100
752.000	-24.230	0.100
752.100	-18.396	0.100
752.200	-15.985	0.100
752.300	-14.606	0.100
752.400	-11.123	0.100
752.500	-12.340	0.100
752.600	-15.742	0.100
752.700	-23.975	0.100
752.800	-10.681	0.100
752.900	-14.446	0.100
753.000	-20.185	0.100
753.100	-14.948	0.100
753.200	-17.432	0.100
753.300	-21.688	0.100
753.400	-17.382	0.100
753.500	-15.717	0.100
753.600	-17.265	0.100
753.700	-22.165	0.100
753.800	-22.394	0.100
753.900	-15.271	0.100
754.000	-16.046	0.100
754.100	-21.037	0.100
754.200	-19.149	0.100
754.300	-19.359	0.100
754.400	-21.155	0.100
754.500	-21.433	0.100
754.600	-13.825	0.100
754.700	-16.824	0.100
754.800	-19.651	0.100
754.900	-15.417	0.100
755.000	-19.270	0.100
755.100	-13.637	0.100
755.200	-10.500	0.100
755.300	-21.640	0.100
755.400	-17.122	0.100
755.500	-16.614	0.100
755.600	-12.954	0.100
755.700	-18.897	0.100
755.800	-26.385	0.100
755.900	-17.062	0.100
756.000	-2.532	0.100
756.100	-15.211	0.100
756.200	-17.906	0.100
756.300	-22.995	0.100
756.400	-16.838	0.100
756.500	-18.354	0.100
756.600	-15.189	0.100
756.700	-19.245	0.100
756.800	-20.016	0.100
756.900	-13.555	0.100
757.000	-22.865	0.100
757.100	-9.671	0.100
757.200	-15.375	0.100
757.300	-19.681	0.100
757.400	-23.797	0.100
757.500	-23.275	0.100
757.600	-16.949	0.100
757.700	-15.178	0.100
757.800	-8.940	0.100
757.900	-17.719	0.100
758.000	-17.354	0.100
758.100	-8.568	0.100
758.200	-21.775	0.100
758.300	-25.216	0.100
758.400	-12.836	0.100
758.500	-10.166	0.100
758.600	-23.046	0.100
758.700	-11.939	0.100
758.800	-18.246	0.100
758.900	-14.122	0.100
759.000	-17.552	0.100
759.100	-16.007	0.100
759.200	-20.613	0.100
759.300	-12.047	0.100
759.400	-15.758	0.100
759.500	-19.373	0.100
759.600	-20.807	0.100
759.700	-22.499	0.100
759.800	-16.298	0.100
759.900	-15.125	0.100
760.000	-16.003	0.100
760.100	-14.824	0.100
760.200	-9.790	0.100
760.300	-15.873	0.100
760.400	-25.462	0.100
760.500	-21.869	0.100
760.600	-18.516	0.100
760.700	-20.357	0.100
760.800	-5.433	0.100
760.900	-19.433	0.100
761.000	-13.995	0.100
761.100	-16.660	0.100
761.200	-26.910	0.100
761.300	-19.805	0.100
761.400	-22.349	0.100
761.500	-17.951	0.100
761.600	-11.169	0.100
761.700	-24.614	0.100
761.800	-15.442	0.100
761.900	-14.629	0.100
762.000	-14.544	0.100
762.100	-20.172	0.100
762.200	-24.141	0.100
762.300	-17.649	0.100
762.400	-19.626	0.100
762.500	-21.591	0.100
762.600	-12.277	0.100
762.700	-16.581	0.100
762.800	-16.559	0.100
762.900	-11.062	0.100
763.000	-17.780	0.100
763.100	-15.272	0.100
763.200	-10.658	0.100
763.300	-17.152	0.100
763.400	-20.036	0.100
763.500	-10.850	0.100
763.600	-11.136	0.100
763.700	-16.988	0.100
763.800	-26.550	0.100
763.900	-16.765	0.100
764.000	-11.460	0.100
764.100	-11.418	0.100
764.200	-18.399	0.100
764.300	-22.599	0.100
764.400	-20.898	0.100
764.500	-17.219	0.100
764.600	-15.357	0.100
764.700	-30.422	0.100
764.800	-15.885	0.100
764.900	-16.394	0.100
765.000	-18.145	0.100
765.100	-4.356	0.100
765.200	-27.114	0.100
765.300	-23.033	0.100
765.400	-22.501	0.100
765.500	-12.942	0.100
765.600	-17.019	0.100
765.700	-20.913	0.100
765.800	-16.869	0.100
765.900	-21.210	0.100
766.000	-24.827	0.100
766.100	-6.329	0.100
766.200	-15.001	0.100
766.300	-24.970	0.100
766.400	-5.684	0.100
766.500	-10.183	0.100
766.600	-18.742	0.100
766.700	-22.855	0.100
766.800	-18.755	0.100
766.900	-19.975	0.100
767.000	-9.043	0.100
767.100	-11.420	0.100
767.200	-21.933	0.100
767.300	-19.390	0.100
767.400	-20.498	0.100
767.500	-19.260	0.100
767.600	-6.714	0.100
767.700	-23.184	0.100
767.800	-10.060	0.100
767.900	-14.015	0.100
768.000	-16.816	0.100
768.100	-16.016	0.100
768.200	-12.511	0.100
768.300	-8.976	0.100
768.400	-17.448	0.100
768.500	-19.885	0.100
768.600	-16.817	0.100
768.700	-15.999	0.100
768.800	-18.954	0.100
768.900	-19.474	0.100
769.000	-13.892	0.100
769.100	-16.505	0.100
769.200	-14.108	0.100
769.300	-13.661	0.100
769.400	-16.572	0.100
769.500	-18.927	0.100
769.600	-24.584	0.100
769.700	-13.287	0.100
769.800	-15.994	0.100
769.900	-9.544	0.100
770.000	-15.423	0.100
770.100	-24.266	0.100
770.200	-14.426	0.100
770.300	-16.775	0.100
770.400	-21.558	0.100
770.500	-16.329	0.100
770.600	-12.407	0.100
770.700	-18.963	0.100
770.800	-16.908	0.100
770.900	-18.547	0.100
771.000	-12.989	0.100
771.100	-15.785	0.100
771.200	-18.648	0.100
771.300	-15.603	0.100
771.400	-14.304	0.100
771.500	-13.100	0.100
771.600	-24.927	0.100
771.700	-16.012	0.100
771.800	-18.210	0.100
771.900	-17.054	0.100
772.000	-14.660	0.100
772.100	-17.369	0.100
772.200	-11.593	0.100
772.300	-27.151	0.100
772.400	-9.701	0.100
772.500	-6.061	0.100
772.600	-10.446	0.100
772.700	-12.476	0.100
772.800	-22.019	0.100
772.900	-23.574	0.100
773.000	-18.471	0.100
773.100	-13.116	0.100
773.200	-11.465	0.100
773.300	-16.155	0.100
773.400	-13.960	0.100
773.500	-19.439	0.100
773.600	-17.077	0.100
773.700	-21.387	0.100
773.800	-12.180	0.100
773.900	-11.443	0.100
774.000	-13.336	0.100
774.100	-18.901	0.100
774.200	-14.894	0.100
774.300	-17.319	0.100
774.400	-20.092	0.100
774.500	-13.085	0.100
774.600	-14.520	0.100
774.700	-22.562	0.100
774.800	-9.442	0.100
774.900	-12.578	0.100
775.000	-23.916	0.100
775.100	-14.192	0.100
775.200	-12.854	0.100
775.300	-18.867	0.100
775.400	-15.001	0.100
775.500	-16.096	0.100
775.600	-12.944	0.100
775.700	-16.834	0.100
775.800	-18.513	0.100
775.900	-13.077	0.100
776.000	-21.047	0.100
776.100	-7.982	0.100
776.200	-19.451	0.100
776.300	-22.062	0.100
776.400	-11.558	0.100
776.500	-10.958	0.100
776.600	-10.927	0.100
776.700	-24.304	0.100
776.800	-13.242	0.100
776.900	-10.770	0.100
777.000	-17.873	0.100
777.100	-8.811	0.100
777.200	-14.038	0.100
777.300	-23.595	0.100
777.400	-15.708	0.100
777.500	-4.914	0.100
777.600	-13.206	0.100
777.700	-17.999	0.100
777.800	-17.034	0.100
777.900	-14.855	0.100
778.000	-18.755	0.100
778.100	-9.623	0.100
778.200	-17.217	0.100
778.300	-9.876	0.100
778.400	-17.944	0.100
778.500	-24.876	0.100
778.600	-16.791	0.100
778.700	-11.730	0.100
778.800	-19.772	0.100
778.900	-12.784	0.100
779.000	-17.600	0.100
779.100	-10.745	0.100
779.200	-16.372	0.100
779.300	-15.018	0.100
779.400	-17.015	0.100
779.500	-11.191	0.100
779.600	-22.566	0.100
779.700	-8.687	0.100
779.800	-8.703	0.100
779.900	-22.180	0.100
780.000	-20.609	0.100
780.100	-15.977	0.100
780.200	-8.235	0.100
780.300	-17.876	0.100
780.400	-17.217	0.100
780.500	-9.149	0.100
780.600	-15.511	0.100
780.700	-17.475	0.100
780.800	-13.612	0.100
780.900	-7.273	0.100
781.000	-9.930	0.100
781.100	-5.173	0.100
781.200	-7.274	0.100
781.300	-0.346	0.100
781.400	8.445	0.100
781.500	3.642	0.100
781.600	-1.729	0.100
781.700	11.017	0.100
781.800	9.876	0.100
781.900	8.452	0.100
782.000	2.974	0.100
782.100	18.867	0.100
782.200	16.861	0.100
782.300	14.080	0.100
782.400	14.611	0.100
782.500	10.112	0.100
782.600	14.941	0.100
782.700	16.775	0.100
782.800	18.379	0.100
782.900	14.942	0.100
783.000	22.664	0.100
783.100	17.693	0.100
783.200	19.599	0.100
783.300	10.035	0.100
783.400	11.728	0.100
783.500	10.911	0.100
783.600	16.796	0.100
783.700	16.291	0.100
783.800	9.557	0.100
783.900	4.419	0.100
784.000	5.604	0.100
784.100	11.376	0.100
784.200	13.725	0.100
784.300	21.477	0.100
784.400	9.299	0.100
784.500	7.088	0.100
784.600	11.692	0.100
784.700	18.533	0.100
784.800	13.760	0.100
784.900	13.912	0.100
785.000	8.656	0.100
785.100	14.697	0.100
785.200	15.457	0.100
785.300	8.952	0.100
785.400	12.534	0.100
785.500	12.723	0.100
785.600	7.071	0.100
785.700	25.007	0.100
785.800	16.027	0.100
785.900	18.109	0.100
786.000	9.006	0.100
786.100	9.513	0.100
786.200	11.570	0.100
786.300	10.213	0.100
786.400	12.920	0.100
786.500	5.866	0.100
786.600	9.160	0.100
786.700	10.533	0.100
786.800	11.470	0.100
786.900	8.802	0.100
787.000	6.817	0.100
787.100	9.785	0.100
787.200	6.683	0.100
787.300	18.802	0.100
787.400	8.186	0.100
787.500	-3.713	0.100
787.600	3.474	0.100
787.700	6.685	0.100
787.800	10.945	0.100
787.900	16.905	0.100
788.000	4.365	0.100
788.100	10.478	0.100
788.200	6.321	0.100
788.300	5.861	0.100
788.400	12.999	0.100
788.500	0.148	0.100
788.600	1.760	0.100
788.700	19.487	0.100
788.800	10.871	0.100
788.900	11.213	0.100
789.000	15.840	0.100
789.100	13.236	0.100
789.200	9.782	0.100
789.300	3.785	0.100
789.400	14.187	0.100
789.500	7.821	0.100
789.600	0.885	0.100
789.700	10.220	0.100
789.800	12.947	0.100
789.900	13.311	0.100
790.000	8.945	0.100
790.100	4.286	0.100
790.200	12.727	0.100
790.300	7.286	0.100
790.400	10.260	0.100
790.500	23.047	0.100
790.600	15.526	0.100
790.700	16.914	0.100
790.800	6.956	0.100
790.900	14.231	0.100
791.000	16.267	0.100
791.100	12.360	0.100
791.200	17.299	0.100
791.300	14.484	0.100
791.400	13.208	0.100
791.500	7.018	0.100
791.600	10.914	0.100
791.700	19.721	0.100
791.800	12.340	0.100
791.900	17.315	0.100
792.000	8.228	0.100
792.100	9.344	0.100
792.200	10.573	0.100
792.300	12.955	0.100
792.400	16.974	0.100
792.500	19.744	0.100
792.600	8.625	0.100
792.700	21.093	0.100
792.800	4.040	0.100
792.900	17.070	0.100
793.000	15.939	0.100
793.100	13.481	0.100
793.200	15.291	0.100
793.300	12.715	0.100
793.400	16.989	0.100
793.500	16.015	0.100
793.600	10.977	0.100
793.700	7.472	0.100
793.800	15.659	0.100
793.900	9.671	0.100
794.000	14.022	0.100
794.100	21.934	0.100
794.200	12.326	0.100
794.300	19.351	0.100
794.400	12.480	0.100
794.500	21.040	0.100
794.600	11.035	0.100
794.700	9.253	0.100
794.800	11.527	0.100
794.900	16.925	0.100
795.000	15.423	0.100
795.100	24.615	0.100
795.200	17.813	0.100
795.300	22.533	0.100
795.400	10.025	0.100
795.500	15.639	0.100
795.600	19.148	0.100
795.700	16.810	0.100
795.800	23.774	0.100
795.900	13.827	0.100
796.000	19.711	0.100
796.100	21.051	0.100
796.200	22.614	0.100
796.300	18.262	0.100
796.400	22.558	0.100
796.500	15.118	0.100
796.600	13.825	0.100
796.700	10.306	0.100
796.800	21.597	0.100
796.900	16.620	0.100
797.000	20.425	0.100
797.100	14.068	0.100
797.200	27.506	0.100
797.300	22.039	0.100
797.400	18.897	0.100
797.500	22.115	0.100
797.600	27.819	0.100
797.700	22.447	0.100
797.800	21.581	0.100
797.900	20.716	0.100
798.000	23.025	0.100
798.100	20.399	0.100
798.200	21.286	0.100
798.300	21.359	0.100
798.400	24.159	0.100
798.500	25.654	0.100
798.600	26.142	0.100
798.700	18.350	0.100
798.800	22.320	0.100
798.900	13.858	0.100
799.000	18.173	0.100
799.100	24.797	0.100
799.200	23.223	0.100
799.300	26.514	0.100
799.400	29.200	0.100
799.500	19.511	0.100
799.600	20.128	0.100
799.700	25.172	0.100
799.800	24.333	0.100
799.900	24.666	0.100
800.000	22.153	0.100
