time /s	I /nA	E /V
0.100	-12.853	0.100
0.200	9.341	0.100
0.300	-4.763	0.100
0.400	-7.292	0.100
0.500	-3.059	0.100
0.600	-3.623	0.100
0.700	-13.559	0.100
0.800	-31.188	0.100
0.900	17.973	0.100
1.000	-3.662	0.100
1.100	6.855	0.100
1.200	-8.355	0.100
1.300	-11.504	0.100
1.400	-3.104	0.100
1.500	5.017	0.100
1.600	-3.259	0.100
1.700	3.593	0.100
1.800	8.106	0.100
1.900	9.307	0.100
2.000	4.680	0.100
2.100	-4.135	0.100
2.200	3.280	0.100
2.300	-6.791	0.100
2.400	0.084	0.100
2.500	6.887	0.100
2.600	2.215	0.100
2.700	-11.270	0.100
2.800	5.814	0.100
2.900	-1.808	0.100
3.000	-9.328	0.100
3.100	-1.676	0.100
3.200	3.603	0.100
3.300	-1.601	0.100
3.400	2.729	0.100
3.500	2.936	0.100
3.600	-3.227	0.100
3.700	0.563	0.100
3.800	-10.337	0.100
3.900	-8.364	0.100
4.000	5.956	0.100
4.100	-7.936	0.100
4.200	-1.741	0.100
4.300	-5.199	0.100
4.400	2.198	0.100
4.500	-5.839	0.100
4.600	1.448	0.100
4.700	6.632	0.100
4.800	-5.822	0.100
4.900	1.689	0.100
5.000	-3.340	0.100
5.100	4.444	0.100
5.200	-3.542	0.100
5.300	14.624	0.100
5.400	-6.683	0.100
5.500	-10.548	0.100
5.600	-3.409	0.100
5.700	-4.176	0.100
5.800	-15.942	0.100
5.900	8.426	0.100
6.000	-1.448	0.100
6.100	4.584	0.100
6.200	16.767	0.100
6.300	5.478	0.100
6.400	-2.103	0.100
6.500	0.567	0.100
6.600	3.077	0.100
6.700	-3.400	0.100
6.800	3.779	0.100
6.900	-3.238	0.100
7.000	-6.415	0.100
7.100	0.210	0.100
7.200	1.631	0.100
7.300	-9.902	0.100
7.400	-9.448	0.100
7.500	14.474	0.100
7.600	5.147	0.100
7.700	2.930	0.100
7.800	-1.491	0.100
7.900	2.743	0.100
8.000	-16.526	0.100
8.100	7.628	0.100
8.200	-3.994	0.100
8.300	4.188	0.100
8.400	14.257	0.100
8.500	-13.002	0.100
8.600	-3.325	0.100
8.700	-4.400	0.100
8.800	2.034	0.100
8.900	0.937	0.100
9.000	8.214	0.100
9.100	-7.973	0.100
9.200	1.167	0.100
9.300	0.422	0.100
9.400	-7.612	0.100
9.500	-2.296	0.100
9.600	4.357	0.100
9.700	2.167	0.100
9.800	5.132	0.100
9.900	-3.706	0.100
10.000	3.926	0.100
10.100	3.101	0.100
10.200	-5.816	0.100
10.300	-7.204	0.100
10.400	2.281	0.100
10.500	7.793	0.100
10.600	4.737	0.100
10.700	7.928	0.100
10.800	-15.095	0.100
10.900	3.320	0.100
11.000	-8.666	0.100
11.100	2.882	0.100
11.200	3.780	0.100
11.300	5.015	0.100
11.400	-3.168	0.100
11.500	-5.165	0.100
11.600	-0.996	0.100
11.700	-1.353	0.100
11.800	6.660	0.100
11.900	-3.221	0.100
12.000	-0.721	0.100
12.100	-6.595	0.100
12.200	11.887	0.100
12.300	5.534	0.100
12.400	4.641	0.100
12.500	-12.282	0.100
12.600	-5.433	0.100
12.700	11.854	0.100
12.800	27.920	0.100
12.900	1.606	0.100
13.000	-5.347	0.100
13.100	-2.290	0.100
13.200	-2.319	0.100
13.300	3.250	0.100
13.400	-1.586	0.100
13.500	4.947	0.100
13.600	0.615	0.100
13.700	-13.194	0.100
13.800	-9.297	0.100
13.900	1.057	0.100
14.000	-1.348	0.100
14.100	-2.236	0.100
14.200	-11.128	0.100
14.300	3.134	0.100
14.400	1.320	0.100
14.500	8.783	0.100
14.600	-2.157	0.100
14.700	-4.274	0.100
14.800	2.944	0.100
14.900	11.366	0.100
15.000	-4.225	0.100
15.100	-13.780	0.100
15.200	7.308	0.100
15.300	-4.979	0.100
15.400	1.801	0.100
15.500	-1.331	0.100
15.600	-1.859	0.100
15.700	-11.720	0.100
15.800	-5.465	0.100
15.900	3.814	0.100
16.000	-4.511	0.100
16.100	-4.503	0.100
16.200	7.175	0.100
16.300	1.523	0.100
16.400	-5.452	0.100
16.500	4.398	0.100
16.600	10.002	0.100
16.700	-9.158	0.100
16.800	2.533	0.100
16.900	1.571	0.100
17.000	0.074	0.100
17.100	8.396	0.100
17.200	-7.075	0.100
17.300	-11.744	0.100
17.400	10.226	0.100
17.500	-0.391	0.100
17.600	-14.848	0.100
17.700	4.080	0.100
17.800	-8.071	0.100
17.900	1.786	0.100
18.000	0.773	0.100
18.100	7.503	0.100
18.200	-6.582	0.100
18.300	-7.368	0.100
18.400	0.787	0.100
18.500	-0.316	0.100
18.600	-6.060	0.100
18.700	3.951	0.100
18.800	3.137	0.100
18.900	4.817	0.100
19.000	2.400	0.100
19.100	0.844	0.100
19.200	-9.018	0.100
19.300	-11.659	0.100
19.400	10.447	0.100
19.500	2.575	0.100
19.600	12.087	0.100
19.700	13.134	0.100
19.800	-0.861	0.100
19.900	-6.268	0.100
20.000	-2.963	0.100
20.100	-8.642	0.100
20.200	-2.570	0.100
20.300	7.691	0.100
20.400	-3.509	0.100
20.500	-10.026	0.100
20.600	-1.602	0.100
20.700	-3.459	0.100
20.800	3.302	0.100
20.900	-9.343	0.100
21.000	8.057	0.100
21.100	-1.264	0.100
21.200	1.726	0.100
21.300	-7.694	0.100
21.400	-3.338	0.100
21.500	-2.385	0.100
21.600	1.168	0.100
21.700	10.481	0.100
21.800	2.789	0.100
21.900	2.096	0.100
22.000	1.314	0.100
22.100	-1.870	0.100
22.200	-3.581	0.100
22.300	12.925	0.100
22.400	-6.140	0.100
22.500	4.270	0.100
22.600	2.278	0.100
22.700	-7.505	0.100
22.800	-16.249	0.100
22.900	8.022	0.100
23.000	0.385	0.100
23.100	-0.578	0.100
23.200	-2.590	0.100
23.300	-10.395	0.100
23.400	5.014	0.100
23.500	17.307	0.100
23.600	-2.682	0.100
23.700	-12.615	0.100
23.800	-7.830	0.100
23.900	9.861	0.100
24.000	5.705	0.100
24.100	4.849	0.100
24.200	-6.373	0.100
24.300	4.057	0.100
24.400	6.372	0.100
24.500	3.393	0.100
24.600	-5.000	0.100
24.700	1.973	0.100
24.800	1.098	0.100
24.900	10.163	0.100
25.000	-0.651	0.100
25.100	-8.014	0.100
25.200	-2.912	0.100
25.300	3.032	0.100
25.400	10.674	0.100
25.500	6.014	0.100
25.600	-7.907	0.100
25.700	-0.196	0.100
25.800	-0.432	0.100
25.900	5.998	0.100
26.000	-4.896	0.100
26.100	-7.979	0.100
26.200	9.017	0.100
26.300	-5.120	0.100
26.400	-8.720	0.100
26.500	-4.010	0.100
26.600	-4.469	0.100
26.700	4.028	0.100
26.800	-8.928	0.100
26.900	1.849	0.100
27.000	-0.079	0.100
27.100	-1.706	0.100
27.200	-3.939	0.100
27.300	0.032	0.100
27.400	3.954	0.100
27.500	-4.433	0.100
27.600	-5.056	0.100
27.700	-9.648	0.100
27.800	-2.999	0.100
27.900	-12.242	0.100
28.000	-0.353	0.100
28.100	3.190	0.100
28.200	-8.731	0.100
28.300	4.871	0.100
28.400	9.886	0.100
28.500	7.392	0.100
28.600	0.346	0.100
28.700	2.112	0.100
28.800	5.103	0.100
28.900	3.651	0.100
29.000	7.930	0.100
29.100	4.859	0.100
29.200	-3.821	0.100
29.300	4.510	0.100
29.400	-3.285	0.100
29.500	-0.157	0.100
29.600	-12.452	0.100
29.700	7.980	0.100
29.800	-0.442	0.100
29.900	10.469	0.100
30.000	14.111	0.100
30.100	0.475	0.100
30.200	10.391	0.100
30.300	5.939	0.100
30.400	15.912	0.100
30.500	19.528	0.100
30.600	23.460	0.100
30.700	34.308	0.100
30.800	22.038	0.100
30.900	26.737	0.100
31.000	13.191	0.100
31.100	24.106	0.100
31.200	21.393	0.100
31.300	20.564	0.100
31.400	17.966	0.100
31.500	20.645	0.100
31.600	23.242	0.100
31.700	12.614	0.100
31.800	28.443	0.100
31.900	29.944	0.100
32.000	33.535	0.100
32.100	22.902	0.100
32.200	25.064	0.100
32.300	23.357	0.100
32.400	25.996	0.100
32.500	14.082	0.100
32.600	16.204	0.100
32.700	34.488	0.100
32.800	26.568	0.100
32.900	18.864	0.100
33.000	17.009	0.100
33.100	25.937	0.100
33.200	31.093	0.100
33.300	23.708	0.100
33.400	22.076	0.100
33.500	20.942	0.100
33.600	32.245	0.100
33.700	19.301	0.100
33.800	16.323	0.100
33.900	17.447	0.100
34.000	26.974	0.100
34.100	13.560	0.100
34.200	12.595	0.100
34.300	18.634	0.100
34.400	26.048	0.100
34.500	19.332	0.100
34.600	23.439	0.100
34.700	14.821	0.100
34.800	26.417	0.100
34.900	13.290	0.100
35.000	5.935	0.100
35.100	18.199	0.100
35.200	28.800	0.100
35.300	14.936	0.100
35.400	19.075	0.100
35.500	14.747	0.100
35.600	16.280	0.100
35.700	13.179	0.100
35.800	11.305	0.100
35.900	6.854	0.100
36.000	10.761	0.100
36.100	14.389	0.100
36.200	28.279	0.100
36.300	19.331	0.100
36.400	10.362	0.100
36.500	20.244	0.100
36.600	17.261	0.100
36.700	24.328	0.100
36.800	19.241	0.100
36.900	20.213	0.100
37.000	12.298	0.100
37.100	7.684	0.100
37.200	33.378	0.100
37.300	26.091	0.100
37.400	19.099	0.100
37.500	23.100	0.100
37.600	33.698	0.100
37.700	20.160	0.100
37.800	25.481	0.100
37.900	13.369	0.100
38.000	8.072	0.100
38.100	12.556	0.100
38.200	31.789	0.100
38.300	5.416	0.100
38.400	3.460	0.100
38.500	22.024	0.100
38.600	18.656	0.100
38.700	20.370	0.100
38.800	21.407	0.100
38.900	15.354	0.100
39.000	17.745	0.100
39.100	18.524	0.100
39.200	15.474	0.100
39.300	14.854	0.100
39.400	15.462	0.100
39.500	12.416	0.100
39.600	16.540	0.100
39.700	28.434	0.100
39.800	25.707	0.100
39.900	14.076	0.100
40.000	24.674	0.100
40.100	15.203	0.100
40.200	12.107	0.100
40.300	20.472	0.100
40.400	20.426	0.100
40.500	12.909	0.100
40.600	-1.242	0.100
40.700	8.639	0.100
40.800	28.761	0.100
40.900	28.113	0.100
41.000	19.955	0.100
41.100	23.272	0.100
41.200	20.505	0.100
41.300	11.080	0.100
41.400	26.085	0.100
41.500	22.314	0.100
41.600	22.562	0.100
41.700	4.319	0.100
41.800	10.019	0.100
41.900	9.435	0.100
42.000	12.446	0.100
42.100	25.839	0.100
42.200	20.892	0.100
42.300	27.133	0.100
42.400	7.771	0.100
42.500	24.283	0.100
42.600	20.907	0.100
42.700	20.553	0.100
42.800	19.626	0.100
42.900	11.102	0.100
43.000	15.829	0.100
43.100	17.936	0.100
43.200	8.024	0.100
43.300	24.135	0.100
43.400	18.743	0.100
43.500	9.747	0.100
43.600	25.172	0.100
43.700	18.755	0.100
43.800	22.691	0.100
43.900	17.969	0.100
44.000	15.152	0.100
44.100	28.622	0.100
44.200	11.251	0.100
44.300	33.763	0.100
44.400	24.496	0.100
44.500	25.607	0.100
44.600	25.268	0.100
44.700	22.730	0.100
44.800	22.256	0.100
44.900	25.159	0.100
45.000	9.417	0.100
45.100	21.187	0.100
45.200	13.650	0.100
45.300	20.106	0.100
45.400	12.337	0.100
45.500	9.411	0.100
45.600	25.596	0.100
45.700	17.498	0.100
45.800	23.433	0.100
45.900	12.063	0.100
46.000	8.077	0.100
46.100	10.039	0.100
46.200	19.083	0.100
46.300	27.637	0.100
46.400	23.602	0.100
46.500	5.117	0.100
46.600	19.290	0.100
46.700	7.899	0.100
46.800	26.589	0.100
46.900	28.042	0.100
47.000	5.210	0.100
47.100	22.338	0.100
47.200	22.851	0.100
47.300	11.191	0.100
47.400	3.598	0.100
47.500	25.677	0.100
47.600	23.512	0.100
47.700	30.590	0.100
47.800	23.707	0.100
47.900	20.195	0.100
48.000	5.185	0.100
48.100	21.852	0.100
48.200	22.165	0.100
48.300	18.974	0.100
48.400	20.936	0.100
48.500	19.212	0.100
48.600	0.501	0.100
48.700	15.589	0.100
48.800	21.917	0.100
48.900	25.263	0.100
49.000	17.998	0.100
49.100	7.756	0.100
49.200	0.121	0.100
49.300	8.527	0.100
49.400	20.748	0.100
49.500	37.078	0.100
49.600	22.893	0.100
49.700	17.654	0.100
49.800	17.636	0.100
49.900	12.134	0.100
50.000	6.109	0.100
50.100	26.747	0.100
50.200	24.161	0.100
50.300	19.765	0.100
50.400	13.628	0.100
50.500	11.708	0.100
50.600	25.001	0.100
50.700	22.632	0.100
50.800	3.274	0.100
50.900	21.279	0.100
51.000	13.471	0.100
51.100	12.961	0.100
51.200	20.250	0.100
51.300	19.014	0.100
51.400	28.911	0.100
51.500	19.646	0.100
51.600	11.420	0.100
51.700	15.376	0.100
51.800	20.091	0.100
51.900	20.847	0.100
52.000	18.497	0.100
52.100	25.238	0.100
52.200	20.769	0.100
52.300	34.220	0.100
52.400	16.239	0.100
52.500	8.090	0.100
52.600	26.218	0.100
52.700	23.484	0.100
52.800	1.876	0.100
52.900	18.572	0.100
53.000	13.192	0.100
53.100	14.201	0.100
53.200	13.922	0.100
53.300	25.669	0.100
53.400	28.179	0.100
53.500	23.017	0.100
53.600	12.006	0.100
53.700	19.960	0.100
53.800	27.182	0.100
53.900	21.667	0.100
54.000	23.654	0.100
54.100	15.663	0.100
54.200	16.887	0.100
54.300	17.726	0.100
54.400	17.626	0.100
54.500	27.317	0.100
54.600	10.986	0.100
54.700	16.673	0.100
54.800	13.399	0.100
54.900	24.791	0.100
55.000	23.789	0.100
55.100	18.872	0.100
55.200	20.597	0.100
55.300	23.269	0.100
55.400	35.093	0.100
55.500	18.680	0.100
55.600	25.354	0.100
55.700	19.144	0.100
55.800	19.575	0.100
55.900	24.659	0.100
56.000	1.605	0.100
56.100	26.948	0.100
56.200	16.237	0.100
56.300	13.251	0.100
56.400	28.490	0.100
56.500	35.383	0.100
56.600	22.036	0.100
56.700	18.431	0.100
56.800	21.744	0.100
56.900	24.656	0.100
57.000	32.645	0.100
57.100	26.106	0.100
57.200	22.957	0.100
57.300	12.215	0.100
57.400	16.856	0.100
57.500	17.782	0.100
57.600	19.958	0.100
57.700	18.637	0.100
57.800	24.779	0.100
57.900	19.591	0.100
58.000	22.336	0.100
58.100	20.149	0.100
58.200	20.150	0.100
58.300	18.552	0.100
58.400	14.353	0.100
58.500	8.904	0.100
58.600	22.988	0.100
58.700	22.638	0.100
58.800	18.444	0.100
58.900	16.344	0.100
59.000	27.855	0.100
59.100	29.833	0.100
59.200	24.438	0.100
59.300	34.951	0.100
59.400	17.710	0.100
59.500	20.558	0.100
59.600	13.290	0.100
59.700	20.422	0.100
59.800	20.562	0.100
59.900	30.692	0.100
60.000	11.946	0.100
60.100	10.267	0.100
60.200	18.502	0.100
60.300	13.002	0.100
60.400	8.163	0.100
60.500	22.921	0.100
60.600	30.435	0.100
60.700	27.409	0.100
60.800	20.537	0.100
60.900	19.908	0.100
61.000	23.465	0.100
61.100	22.278	0.100
61.200	13.432	0.100
61.300	16.774	0.100
61.400	26.919	0.100
61.500	24.961	0.100
61.600	19.738	0.100
61.700	22.641	0.100
61.800	11.726	0.100
61.900	14.613	0.100
62.000	21.417	0.100
62.100	23.554	0.100
62.200	19.577	0.100
62.300	19.317	0.100
62.400	15.102	0.100
62.500	18.812	0.100
62.600	11.122	0.100
62.700	3.105	0.100
62.800	26.222	0.100
62.900	29.297	0.100
63.000	30.964	0.100
63.100	27.158	0.100
63.200	28.461	0.100
63.300	26.791	0.100
63.400	19.798	0.100
63.500	20.365	0.100
63.600	32.242	0.100
63.700	21.341	0.100
63.800	18.963	0.100
63.900	14.598	0.100
64.000	22.504	0.100
64.100	17.396	0.100
64.200	29.922	0.100
64.300	27.099	0.100
64.400	25.651	0.100
64.500	12.144	0.100
64.600	25.341	0.100
64.700	23.541	0.100
64.800	21.911	0.100
64.900	15.056	0.100
65.000	22.756	0.100
65.100	16.767	0.100
65.200	23.201	0.100
65.300	-3.396	0.100
65.400	14.281	0.100
65.500	37.436	0.100
65.600	19.226	0.100
65.700	16.354	0.100
65.800	16.601	0.100
65.900	24.643	0.100
66.000	15.748	0.100
66.100	18.344	0.100
66.200	23.454	0.100
66.300	26.199	0.100
66.400	19.048	0.100
66.500	3.618	0.100
66.600	18.744	0.100
66.700	20.340	0.100
66.800	19.329	0.100
66.900	29.091	0.100
67.000	18.423	0.100
67.100	22.608	0.100
67.200	25.271	0.100
67.300	25.507	0.100
67.400	19.589	0.100
67.500	22.069	0.100
67.600	16.378	0.100
67.700	22.919	0.100
67.800	21.154	0.100
67.900	18.460	0.100
68.000	26.689	0.100
68.100	3.616	0.100
68.200	22.622	0.100
68.300	23.520	0.100
68.400	17.061	0.100
68.500	32.781	0.100
68.600	37.457	0.100
68.700	21.755	0.100
68.800	26.087	0.100
68.900	17.053	0.100
69.000	14.585	0.100
69.100	24.299	0.100
69.200	23.183	0.100
69.300	19.323	0.100
69.400	11.743	0.100
69.500	29.840	0.100
69.600	24.326	0.100
69.700	22.124	0.100
69.800	23.187	0.100
69.900	28.809	0.100
70.000	33.342	0.100
70.100	16.650	0.100
70.200	13.283	0.100
70.300	19.668	0.100
70.400	16.533	0.100
70.500	18.383	0.100
70.600	12.751	0.100
70.700	23.232	0.100
70.800	26.358	0.100
70.900	16.656	0.100
71.000	19.476	0.100
71.100	13.363	0.100
71.200	16.244	0.100
71.300	19.747	0.100
71.400	31.572	0.100
71.500	2.641	0.100
71.600	16.088	0.100
71.700	24.586	0.100
71.800	23.088	0.100
71.900	17.933	0.100
72.000	31.668	0.100
72.100	23.861	0.100
72.200	27.286	0.100
72.300	26.477	0.100
72.400	12.002	0.100
72.500	20.547	0.100
72.600	9.485	0.100
72.700	14.499	0.100
72.800	42.199	0.100
72.900	14.570	0.100
73.000	17.324	0.100
73.100	20.492	0.100
73.200	19.285	0.100
73.300	22.699	0.100
73.400	27.646	0.100
73.500	30.536	0.100
73.600	17.844	0.100
73.700	17.040	0.100
73.800	15.036	0.100
73.900	16.654	0.100
74.000	28.154	0.100
74.100	27.943	0.100
74.200	17.441	0.100
74.300	15.069	0.100
74.400	32.956	0.100
74.500	17.710	0.100
74.600	14.528	0.100
74.700	21.098	0.100
74.800	17.061	0.100
74.900	1.078	0.100
75.000	32.614	0.100
75.100	25.411	0.100
75.200	11.625	0.100
75.300	18.027	0.100
75.400	21.407	0.100
75.500	20.853	0.100
75.600	32.681	0.100
75.700	27.957	0.100
75.800	24.331	0.100
75.900	25.638	0.100
76.000	18.024	0.100
76.100	16.017	0.100
76.200	20.778	0.100
76.300	19.847	0.100
76.400	9.918	0.100
76.500	15.129	0.100
76.600	23.302	0.100
76.700	10.406	0.100
76.800	13.623	0.100
76.900	21.125	0.100
77.000	27.010	0.100
77.100	27.767	0.100
77.200	32.687	0.100
77.300	26.807	0.100
77.400	18.372	0.100
77.500	19.313	0.100
77.600	25.028	0.100
77.700	26.681	0.100
77.800	13.566	0.100
77.900	15.457	0.100
78.000	26.053	0.100
78.100	14.131	0.100
78.200	24.196	0.100
78.300	33.702	0.100
78.400	23.134	0.100
78.500	4.915	0.100
78.600	23.159	0.100
78.700	16.450	0.100
78.800	24.865	0.100
78.900	22.925	0.100
79.000	40.129	0.100
79.100	37.510	0.100
79.200	32.025	0.100
79.300	19.014	0.100
79.400	6.549	0.100
79.500	19.327	0.100
79.600	22.958	0.100
79.700	8.474	0.100
79.800	23.111	0.100
79.900	33.406	0.100
80.000	21.842	0.100
80.100	19.547	0.100
80.200	19.771	0.100
80.300	27.780	0.100
80.400	18.910	0.100
80.500	23.756	0.100
80.600	24.741	0.100
80.700	14.570	0.100
80.800	10.984	0.100
80.900	17.896	0.100
81.000	25.966	0.100
81.100	26.727	0.100
81.200	22.172	0.100
81.300	18.163	0.100
81.400	15.731	0.100
81.500	23.913	0.100
81.600	31.224	0.100
81.700	18.492	0.100
81.800	25.933	0.100
81.900	17.884	0.100
82.000	18.331	0.100
82.100	-3.421	0.100
82.200	18.756	0.100
82.300	29.625	0.100
82.400	19.996	0.100
82.500	9.963	0.100
82.600	21.784	0.100
82.700	22.783	0.100
82.800	20.310	0.100
82.900	19.049	0.100
83.000	14.098	0.100
83.100	30.515	0.100
83.200	30.169	0.100
83.300	24.481	0.100
83.400	29.223	0.100
83.500	24.692	0.100
83.600	23.024	0.100
83.700	15.610	0.100
83.800	27.142	0.100
83.900	21.120	0.100
84.000	23.722	0.100
84.100	21.206	0.100
84.200	25.081	0.100
84.300	8.594	0.100
84.400	24.031	0.100
84.500	29.094	0.100
84.600	13.747	0.100
84.700	19.565	0.100
84.800	18.012	0.100
84.900	18.644	0.100
85.000	19.908	0.100
85.100	16.784	0.100
85.200	19.522	0.100
85.300	18.065	0.100
85.400	13.361	0.100
85.500	9.880	0.100
85.600	21.116	0.100
85.700	22.948	0.100
85.800	23.617	0.100
85.900	40.276	0.100
86.000	25.695	0.100
86.100	26.397	0.100
86.200	19.812	0.100
86.300	23.519	0.100
86.400	17.944	0.100
86.500	10.133	0.100
86.600	22.601	0.100
86.700	22.456	0.100
86.800	31.341	0.100
86.900	28.141	0.100
87.000	30.920	0.100
87.100	23.081	0.100
87.200	13.190	0.100
87.300	13.482	0.100
87.400	32.071	0.100
87.500	29.247	0.100
87.600	30.586	0.100
87.700	18.171	0.100
87.800	14.308	0.100
87.900	17.886	0.100
88.000	11.343	0.100
88.100	36.530	0.100
88.200	22.035	0.100
88.300	21.584	0.100
88.400	17.693	0.100
88.500	24.762	0.100
88.600	28.892	0.100
88.700	23.914	0.100
88.800	14.448	0.100
88.900	10.652	0.100
89.000	22.008	0.100
89.100	25.536	0.100
89.200	24.451	0.100
89.300	16.229	0.100
89.400	7.293	0.100
89.500	26.716	0.100
89.600	25.383	0.100
89.700	28.753	0.100
89.800	8.177	0.100
89.900	20.084	0.100
90.000	16.849	0.100
90.100	17.928	0.100
90.200	8.473	0.100
90.300	16.263	0.100
90.400	1.696	0.100
90.500	9.847	0.100
90.600	7.428	0.100
90.700	10.676	0.100
90.800	1.308	0.100
90.900	-4.621	0.100
91.000	2.955	0.100
91.100	16.598	0.100
91.200	2.504	0.100
91.300	-11.315	0.100
91.400	-9.240	0.100
91.500	2.238	0.100
91.600	-5.970	0.100
91.700	2.703	0.100
91.800	-7.533	0.100
91.900	-9.751	0.100
92.000	-4.024	0.100
92.100	-5.567	0.100
92.200	0.317	0.100
92.300	-3.408	0.100
92.400	-5.716	0.100
92.500	0.790	0.100
92.600	-14.227	0.100
92.700	-11.351	0.100
92.800	-7.770	0.100
92.900	-11.035	0.100
93.000	2.042	0.100
93.100	-3.575	0.100
93.200	3.211	0.100
93.300	-12.047	0.100
93.400	-0.235	0.100
93.500	-12.940	0.100
93.600	0.715	0.100
93.700	-5.866	0.100
93.800	-3.176	0.100
93.900	-11.211	0.100
94.000	-4.747	0.100
94.100	-6.605	0.100
94.200	-5.595	0.100
94.300	-5.544	0.100
94.400	-16.733	0.100
94.500	-14.195	0.100
94.600	-9.814	0.100
94.700	-8.033	0.100
94.800	-12.063	0.100
94.900	-5.441	0.100
95.000	-17.426	0.100
95.100	3.099	0.100
95.200	-3.838	0.100
95.300	-7.977	0.100
95.400	-16.475	0.100
95.500	-16.739	0.100
95.600	-20.528	0.100
95.700	3.397	0.100
95.800	0.898	0.100
95.900	-8.589	0.100
96.000	-8.856	0.100
96.100	-5.418	0.100
96.200	-7.997	0.100
96.300	-8.151	0.100
96.400	-2.904	0.100
96.500	-14.046	0.100
96.600	-4.991	0.100
96.700	-2.950	0.100
96.800	-11.059	0.100
96.900	-16.131	0.100
97.000	1.600	0.100
97.100	3.211	0.100
97.200	-3.968	0.100
97.300	-5.779	0.100
97.400	-11.326	0.100
97.500	-6.935	0.100
97.600	-15.285	0.100
97.700	-8.104	0.100
97.800	6.508	0.100
97.900	3.148	0.100
98.000	4.908	0.100
98.100	-15.874	0.100
98.200	-16.855	0.100
98.300	-5.871	0.100
98.400	-11.423	0.100
98.500	9.089	0.100
98.600	4.141	0.100
98.700	6.567	0.100
98.800	6.041	0.100
98.900	-8.887	0.100
99.000	-0.261	0.100
99.100	-5.229	0.100
99.200	2.527	0.100
99.300	-8.470	0.100
99.400	3.493	0.100
99.500	-10.971	0.100
99.600	-4.417	0.100
99.700	1.862	0.100
99.800	-10.012	0.100
99.900	-10.830	0.100
100.000	-19.234	0.100
100.100	-6.950	0.100
100.200	-5.858	0.100
100.300	-6.878	0.100
100.400	-0.388	0.100
100.500	6.751	0.100
100.600	-6.803	0.100
100.700	-1.756	0.100
100.800	-8.681	0.100
100.900	4.988	0.100
101.000	2.903	0.100
101.100	0.072	0.100
101.200	-1.740	0.100
101.300	-8.155	0.100
101.400	3.603	0.100
101.500	-10.143	0.100
101.600	-5.070	0.100
101.700	-1.841	0.100
101.800	-4.136	0.100
101.900	-2.757	0.100
102.000	-7.703	0.100
102.100	-18.538	0.100
102.200	-0.110	0.100
102.300	1.010	0.100
102.400	-8.465	0.100
102.500	-22.996	0.100
102.600	-0.388	0.100
102.700	-20.292	0.100
102.800	-12.487	0.100
102.900	17.041	0.100
103.000	3.853	0.100
103.100	-10.207	0.100
103.200	-2.138	0.100
103.300	-4.970	0.100
103.400	-2.866	0.100
103.500	0.884	0.100
103.600	-0.389	0.100
103.700	-18.210	0.100
103.800	-15.168	0.100
103.900	-5.022	0.100
104.000	6.140	0.100
104.100	5.489	0.100
104.200	2.707	0.100
104.300	-4.893	0.100
104.400	-12.513	0.100
104.500	-4.289	0.100
104.600	-2.095	0.100
104.700	3.331	0.100
104.800	-15.303	0.100
104.900	-3.831	0.100
105.000	0.531	0.100
105.100	-4.460	0.100
105.200	3.386	0.100
105.300	-5.724	0.100
105.400	-5.998	0.100
105.500	-2.651	0.100
105.600	-5.497	0.100
105.700	-10.517	0.100
105.800	-4.777	0.100
105.900	-19.754	0.100
106.000	-11.929	0.100
106.100	6.544	0.100
106.200	4.716	0.100
106.300	-2.246	0.100
106.400	-8.396	0.100
106.500	-14.675	0.100
106.600	-8.314	0.100
106.700	-6.199	0.100
106.800	-10.370	0.100
106.900	-5.134	0.100
107.000	1.878	0.100
107.100	-12.394	0.100
107.200	-11.699	0.100
107.300	0.989	0.100
107.400	1.608	0.100
107.500	-17.907	0.100
107.600	-18.644	0.100
107.700	-3.901	0.100
107.800	1.045	0.100
107.900	3.540	0.100
108.000	8.430	0.100
108.100	0.104	0.100
108.200	-3.612	0.100
108.300	-8.936	0.100
108.400	-6.440	0.100
108.500	-13.330	0.100
108.600	-3.093	0.100
108.700	-6.127	0.100
108.800	2.513	0.100
108.900	-13.109	0.100
109.000	-1.201	0.100
109.100	-12.260	0.100
109.200	1.935	0.100
109.300	-17.174	0.100
109.400	-5.077	0.100
109.500	-13.195	0.100
109.600	2.522	0.100
109.700	-3.822	0.100
109.800	-6.948	0.100
109.900	4.623	0.100
110.000	-6.109	0.100
110.100	5.759	0.100
110.200	-1.633	0.100
110.300	-0.963	0.100
110.400	-9.697	0.100
110.500	0.556	0.100
110.600	-20.369	0.100
110.700	-18.789	0.100
110.800	-12.620	0.100
110.900	0.321	0.100
111.000	-1.212	0.100
111.100	-4.187	0.100
111.200	-3.520	0.100
111.300	-3.854	0.100
111.400	-3.035	0.100
111.500	-10.468	0.100
111.600	-0.471	0.100
111.700	3.807	0.100
111.800	-4.051	0.100
111.900	-11.151	0.100
112.000	3.827	0.100
112.100	-6.416	0.100
112.200	-12.969	0.100
112.300	-4.478	0.100
112.400	2.304	0.100
112.500	-3.519	0.100
112.600	-15.524	0.100
112.700	-21.805	0.100
112.800	-21.941	0.100
112.900	-9.424	0.100
113.000	4.893	0.100
113.100	-6.587	0.100
113.200	4.593	0.100
113.300	-11.724	0.100
113.400	-10.239	0.100
113.500	-15.815	0.100
113.600	0.111	0.100
113.700	-6.957	0.100
113.800	-1.536	0.100
113.900	-4.322	0.100
114.000	3.506	0.100
114.100	1.337	0.100
114.200	-6.590	0.100
114.300	-19.304	0.100
114.400	4.607	0.100
114.500	-4.780	0.100
114.600	5.704	0.100
114.700	-0.104	0.100
114.800	0.616	0.100
114.900	0.411	0.100
115.000	-0.078	0.100
115.100	-9.475	0.100
115.200	-6.969	0.100
115.300	-9.395	0.100
115.400	-18.477	0.100
115.500	-22.316	0.100
115.600	-9.566	0.100
115.700	1.261	0.100
115.800	-14.508	0.100
115.900	6.420	0.100
116.000	-2.264	0.100
116.100	-0.353	0.100
116.200	4.045	0.100
116.300	-3.712	0.100
116.400	-17.005	0.100
116.500	-2.137	0.100
116.600	-13.131	0.100
116.700	-7.747	0.100
116.800	-1.752	0.100
116.900	-16.478	0.100
117.000	6.996	0.100
117.100	-4.764	0.100
117.200	-16.420	0.100
117.300	-18.721	0.100
117.400	5.825	0.100
117.500	-17.486	0.100
117.600	-7.065	0.100
117.700	-2.186	0.100
117.800	-1.011	0.100
117.900	2.875	0.100
118.000	-12.650	0.100
118.100	-5.079	0.100
118.200	-0.659	0.100
118.300	7.759	0.100
118.400	8.965	0.100
118.500	-2.063	0.100
118.600	-23.261	0.100
118.700	-21.033	0.100
118.800	-4.180	0.100
118.900	-8.799	0.100
119.000	-0.993	0.100
119.100	-11.874	0.100
119.200	5.011	0.100
119.300	-3.607	0.100
119.400	-18.917	0.100
119.500	-11.259	0.100
119.600	-18.716	0.100
119.700	-13.367	0.100
119.800	-6.428	0.100
119.900	-17.457	0.100
120.000	-15.318	0.100
120.100	0.577	0.100
120.200	-13.394	0.100
120.300	-9.681	0.100
120.400	0.737	0.100
120.500	-4.626	0.100
120.600	-6.635	0.100
120.700	-13.292	0.100
120.800	-4.500	0.100
120.900	-4.779	0.100
121.000	-14.410	0.100
121.100	-2.983	0.100
121.200	-14.041	0.100
121.300	-10.791	0.100
121.400	3.857	0.100
121.500	-0.379	0.100
121.600	-4.150	0.100
121.700	-7.490	0.100
121.800	3.084	0.100
121.900	-16.486	0.100
122.000	-13.600	0.100
122.100	-1.216	0.100
122.200	-3.056	0.100
122.300	-5.786	0.100
122.400	-15.210	0.100
122.500	-15.439	0.100
122.600	-5.951	0.100
122.700	-4.158	0.100
122.800	-3.700	0.100
122.900	1.919	0.100
123.000	-19.243	0.100
123.100	-11.165	0.100
123.200	-2.792	0.100
123.300	-4.946	0.100
123.400	1.553	0.100
123.500	-5.706	0.100
123.600	-10.708	0.100
123.700	-10.102	0.100
123.800	0.729	0.100
123.900	-3.019	0.100
124.000	-8.240	0.100
124.100	-3.482	0.100
124.200	-11.962	0.100
124.300	1.604	0.100
124.400	-0.408	0.100
124.500	-15.903	0.100
124.600	-12.038	0.100
124.700	-5.178	0.100
124.800	-9.164	0.100
124.900	-5.465	0.100
125.000	-8.919	0.100
125.100	-10.255	0.100
125.200	-17.912	0.100
125.300	3.753	0.100
125.400	-19.029	0.100
125.500	-0.513	0.100
125.600	-5.618	0.100
125.700	-9.226	0.100
125.800	3.025	0.100
125.900	-9.908	0.100
126.000	-2.248	0.100
126.100	-15.995	0.100
126.200	-2.233	0.100
126.300	-6.444	0.100
126.400	-10.874	0.100
126.500	-9.367	0.100
126.600	-10.203	0.100
126.700	-12.486	0.100
126.800	-12.036	0.100
126.900	-10.257	0.100
127.000	-9.112	0.100
127.100	-6.235	0.100
127.200	-16.648	0.100
127.300	-6.250	0.100
127.400	-9.981	0.100
127.500	1.047	0.100
127.600	-11.545	0.100
127.700	-4.885	0.100
127.800	8.950	0.100
127.900	-20.990	0.100
128.000	4.070	0.100
128.100	-8.044	0.100
128.200	-15.018	0.100
128.300	-1.325	0.100
128.400	0.981	0.100
128.500	-4.311	0.100
128.600	-17.565	0.100
128.700	-26.350	0.100
128.800	-7.926	0.100
128.900	-0.257	0.100
129.000	-17.649	0.100
129.100	-5.624	0.100
129.200	-3.964	0.100
129.300	14.373	0.100
129.400	8.470	0.100
129.500	-14.273	0.100
129.600	-19.904	0.100
129.700	-11.010	0.100
129.800	-9.545	0.100
129.900	-17.371	0.100
130.000	-10.557	0.100
130.100	-3.176	0.100
130.200	-9.163	0.100
130.300	-8.829	0.100
130.400	-11.529	0.100
130.500	-1.011	0.100
130.600	2.723	0.100
130.700	-6.418	0.100
130.800	-2.526	0.100
130.900	-3.187	0.100
131.000	-34.266	0.100
131.100	-19.864	0.100
131.200	-6.951	0.100
131.300	-10.903	0.100
131.400	-10.623	0.100
131.500	-10.510	0.100
131.600	-2.264	0.100
131.700	8.902	0.100
131.800	-2.092	0.100
131.900	-9.126	0.100
132.000	-3.465	0.100
132.100	-15.387	0.100
132.200	-1.517	0.100
132.300	-3.731	0.100
132.400	-17.111	0.100
132.500	-6.837	0.100
132.600	-7.526	0.100
132.700	-8.938	0.100
132.800	-4.860	0.100
132.900	-11.253	0.099
133.000	-5.183	0.100
133.100	3.862	0.100
133.200	-3.651	0.100
133.300	-15.281	0.099
133.400	-3.382	0.100
133.500	-12.474	0.100
133.600	-19.999	0.100
133.700	3.242	0.100
133.800	-8.700	0.100
133.900	-13.456	0.100
134.000	0.863	0.100
134.100	-6.652	0.100
134.200	7.520	0.099
134.300	1.987	0.100
134.400	-5.230	0.100
134.500	-17.586	0.099
134.600	-10.598	0.100
134.700	-7.303	0.100
134.800	-15.125	0.099
134.900	-3.627	0.099
135.000	0.632	0.100
135.100	-12.378	0.099
135.200	-24.968	0.100
135.300	-4.039	0.099
135.400	-5.039	0.099
135.500	-5.629	0.100
135.600	-11.176	0.099
135.700	-25.773	0.099
135.800	1.627	0.099
135.900	-7.693	0.099
136.000	-5.994	0.099
136.100	-9.557	0.099
136.200	-5.266	0.099
136.300	-11.052	0.099
136.400	-1.828	0.099
136.500	2.313	0.100
136.600	-2.758	0.099
136.700	-2.417	0.099
136.800	-4.962	0.100
136.900	-8.806	0.099
137.000	-14.150	0.099
137.100	7.335	0.099
137.200	-1.020	0.099
137.300	-13.852	0.099
137.400	-10.521	0.100
137.500	-12.447	0.099
137.600	-21.025	0.099
137.700	-18.106	0.099
137.800	-0.520	0.099
137.900	3.670	0.099
138.000	-12.983	0.099
138.100	-4.868	0.099
138.200	-11.497	0.099
138.300	-8.040	0.099
138.400	-16.459	0.099
138.500	-13.567	0.099
138.600	-8.283	0.099
138.700	-4.625	0.099
138.800	5.443	0.099
138.900	-6.283	0.099
139.000	-11.217	0.099
139.100	-16.238	0.099
139.200	-11.123	0.099
139.300	-14.110	0.099
139.400	1.998	0.099
139.500	-14.864	0.099
139.600	-11.217	0.099
139.700	-13.987	0.099
139.800	-14.057	0.099
139.900	-2.999	0.099
140.000	6.880	0.099
140.100	-7.308	0.099
140.200	1.859	0.100
140.300	-7.128	0.099
140.400	-9.325	0.099
140.500	-5.806	0.099
140.600	-15.211	0.099
140.700	-9.219	0.099
140.800	-14.593	0.099
140.900	-24.186	0.099
141.000	-14.261	0.099
141.100	-4.320	0.099
141.200	-4.532	0.099
141.300	-9.110	0.099
141.400	3.171	0.099
141.500	-6.031	0.099
141.600	-11.974	0.099
141.700	-9.952	0.099
141.800	-18.011	0.099
141.900	-14.015	0.099
142.000	-5.554	0.099
142.100	5.375	0.099
142.200	-3.296	0.099
142.300	-12.081	0.099
142.400	-23.200	0.099
142.500	-2.845	0.099
142.600	-8.519	0.099
142.700	-1.756	0.099
142.800	0.398	0.099
142.900	-2.179	0.099
143.000	-4.721	0.099
143.100	-12.821	0.099
143.200	-4.588	0.099
143.300	4.738	0.099
143.400	-3.134	0.099
143.500	-6.576	0.099
143.600	-10.109	0.099
143.700	-1.720	0.099
143.800	-6.493	0.099
143.900	-8.027	0.099
144.000	-11.015	0.099
144.100	-3.384	0.099
144.200	-0.054	0.099
144.300	-6.053	0.099
144.400	0.556	0.099
144.500	-11.303	0.099
144.600	-4.472	0.099
144.700	1.431	0.099
144.800	-0.039	0.099
144.900	-14.811	0.099
145.000	-1.393	0.099
145.100	6.973	0.099
145.200	-9.573	0.099
145.300	-8.273	0.099
145.400	-19.394	0.099
145.500	-5.637	0.099
145.600	-26.382	0.099
145.700	-3.191	0.099
145.800	-8.714	0.099
145.900	-12.206	0.099
146.000	-5.488	0.099
146.100	-5.665	0.099
146.200	-12.785	0.099
146.300	-13.591	0.099
146.400	-8.394	0.099
146.500	-9.253	0.099
146.600	-17.812	0.099
146.700	-9.588	0.099
146.800	1.126	0.099
146.900	-13.232	0.099
147.000	-4.133	0.099
147.100	-4.041	0.099
147.200	-6.242	0.099
147.300	-4.555	0.099
147.400	-23.090	0.099
147.500	-7.644	0.099
147.600	-9.330	0.099
147.700	0.734	0.099
147.800	-13.058	0.099
147.900	-26.628	0.099
148.000	-5.828	0.099
148.100	0.751	0.099
148.200	-1.195	0.099
148.300	8.685	0.099
148.400	-10.458	0.099
148.500	-6.640	0.099
148.600	-19.092	0.099
148.700	3.366	0.099
148.800	4.423	0.099
148.900	6.535	0.099
149.000	-6.151	0.099
149.100	-16.230	0.099
149.200	-11.117	0.099
149.300	-2.496	0.099
149.400	-0.587	0.099
149.500	-16.143	0.099
149.600	-4.275	0.099
149.700	-10.788	0.099
149.800	5.147	0.099
149.900	-15.390	0.099
150.000	-12.440	0.099
150.100	10.841	0.099
150.200	-4.410	0.099
150.300	4.400	0.099
150.400	5.760	0.099
150.500	-10.276	0.099
150.600	11.992	0.099
150.700	-12.664	0.099
150.800	-13.704	0.099
150.900	-11.529	0.099
151.000	-9.487	0.099
151.100	0.612	0.099
151.200	-2.755	0.099
151.300	-4.210	0.099
151.400	-17.954	0.099
151.500	-13.348	0.099
151.600	-6.202	0.099
151.700	-22.736	0.099
151.800	-5.521	0.099
151.900	-9.030	0.099
152.000	-22.344	0.099
152.100	-0.592	0.099
152.200	4.139	0.099
152.300	-2.410	0.099
152.400	-4.311	0.099
152.500	-4.638	0.099
152.600	-5.544	0.099
152.700	-1.838	0.099
152.800	-8.784	0.099
152.900	-4.082	0.099
153.000	-12.838	0.099
153.100	-17.338	0.099
153.200	7.337	0.099
153.300	-9.285	0.099
153.400	-10.087	0.099
153.500	-2.053	0.099
153.600	-20.808	0.099
153.700	1.869	0.099
153.800	0.944	0.099
153.900	-6.553	0.099
154.000	-7.643	0.099
154.100	-5.877	0.099
154.200	-2.054	0.099
154.300	-2.436	0.099
154.400	-22.225	0.099
154.500	-11.441	0.099
154.600	-2.239	0.099
154.700	1.043	0.099
154.800	3.116	0.099
154.900	-4.154	0.099
155.000	-17.783	0.099
155.100	-19.706	0.099
155.200	-18.824	0.099
155.300	-0.786	0.099
155.400	-6.983	0.099
155.500	-7.230	0.099
155.600	-3.204	0.099
155.700	-12.868	0.099
155.800	-10.990	0.099
155.900	-12.078	0.099
156.000	-17.405	0.099
156.100	1.379	0.099
156.200	7.531	0.099
156.300	-2.409	0.099
156.400	-20.109	0.099
156.500	-10.505	0.099
156.600	1.274	0.099
156.700	-10.320	0.099
156.800	-4.933	0.099
156.900	5.814	0.099
157.000	-22.815	0.099
157.100	-3.826	0.099
157.200	-11.124	0.099
157.300	-15.010	0.099
157.400	-3.824	0.099
157.500	-0.370	0.099
157.600	-9.174	0.099
157.700	0.913	0.099
157.800	0.951	0.099
157.900	-1.540	0.099
158.000	-6.778	0.099
158.100	1.899	0.099
158.200	-6.955	0.099
158.300	-15.302	0.099
158.400	-21.354	0.099
158.500	-0.385	0.099
158.600	-8.733	0.099
158.700	-8.733	0.099
158.800	-6.024	0.099
158.900	-10.987	0.099
159.000	-5.054	0.099
159.100	-16.380	0.099
159.200	-3.791	0.099
159.300	1.954	0.099
159.400	-0.497	0.099
159.500	-3.193	0.099
159.600	-4.443	0.099
159.700	-10.650	0.099
159.800	-7.207	0.099
159.900	-3.974	0.099
160.000	-8.501	0.099
160.100	6.353	0.099
160.200	-16.901	0.099
160.300	-4.705	0.099
160.400	-3.944	0.099
160.500	2.436	0.099
160.600	-12.143	0.099
160.700	-3.218	0.099
160.800	-4.840	0.099
160.900	-8.860	0.099
161.000	-2.264	0.099
161.100	9.816	0.099
161.200	0.939	0.099
161.300	-11.235	0.099
161.400	-8.076	0.099
161.500	-2.690	0.099
161.600	-8.932	0.099
161.700	-6.357	0.099
161.800	-9.552	0.099
161.900	-10.170	0.099
162.000	-2.583	0.099
162.100	5.660	0.099
162.200	3.548	0.099
162.300	-6.308	0.099
162.400	-11.864	0.099
162.500	-5.953	0.099
162.600	-2.791	0.099
162.700	5.381	0.099
162.800	-15.617	0.099
162.900	-11.066	0.099
163.000	-16.196	0.099
163.100	10.318	0.099
163.200	-15.042	0.099
163.300	-11.882	0.099
163.400	-6.642	0.099
163.500	-12.827	0.099
163.600	5.137	0.099
163.700	-4.600	0.099
163.800	0.378	0.099
163.900	0.100	0.099
164.000	-3.193	0.099
164.100	-5.468	0.099
164.200	-11.474	0.099
164.300	-7.947	0.099
164.400	0.936	0.099
164.500	-11.699	0.099
164.600	-14.511	0.099
164.700	-2.794	0.099
164.800	0.369	0.099
164.900	2.648	0.099
165.000	-13.718	0.099
165.100	-4.966	0.099
165.200	-11.208	0.099
165.300	-16.382	0.099
165.400	-2.297	0.099
165.500	0.646	0.099
165.600	-4.034	0.099
165.700	5.522	0.099
165.800	-7.798	0.099
165.900	-5.467	0.099
166.000	-3.040	0.099
166.100	-0.091	0.099
166.200	-12.537	0.099
166.300	-3.999	0.099
166.400	-13.436	0.099
166.500	-19.424	0.099
166.600	3.967	0.099
166.700	-9.548	0.099
166.800	-3.079	0.099
166.900	5.222	0.099
167.000	-8.847	0.099
167.100	-6.723	0.099
167.200	-3.401	0.099
167.300	3.981	0.099
167.400	2.390	0.099
167.500	-14.390	0.099
167.600	-12.245	0.099
167.700	-6.854	0.099
167.800	-16.319	0.099
167.900	-8.735	0.099
168.000	-19.320	0.099
168.100	0.011	0.099
168.200	-5.086	0.099
168.300	8.367	0.099
168.400	-8.966	0.099
168.500	-10.481	0.099
168.600	6.568	0.099
168.700	-0.988	0.099
168.800	-6.983	0.099
168.900	0.451	0.099
169.000	7.772	0.099
169.100	-10.228	0.099
169.200	-6.599	0.099
169.300	-5.223	0.099
169.400	-7.883	0.099
169.500	-8.638	0.099
169.600	-5.028	0.099
169.700	-4.604	0.099
169.800	-6.143	0.099
169.900	-0.673	0.099
170.000	-6.762	0.099
170.100	-2.335	0.099
170.200	-16.085	0.099
170.300	-0.295	0.099
170.400	-1.422	0.099
170.500	6.722	0.099
170.600	-13.531	0.099
170.700	-11.706	0.099
170.800	-0.504	0.099
170.900	0.677	0.099
171.000	-11.939	0.099
171.100	-1.903	0.099
171.200	4.765	0.099
171.300	1.821	0.099
171.400	11.006	0.099
171.500	-0.740	0.099
171.600	-12.969	0.099
171.700	0.099	0.099
171.800	7.788	0.099
171.900	-5.553	0.099
172.000	-1.047	0.099
172.100	4.350	0.099
172.200	-7.226	0.099
172.300	-5.254	0.099
172.400	-2.165	0.099
172.500	-11.249	0.099
172.600	-3.583	0.099
172.700	-8.995	0.099
172.800	-11.137	0.099
172.900	5.891	0.099
173.000	-3.213	0.099
173.100	-6.097	0.099
173.200	-2.242	0.099
173.300	-4.145	0.099
173.400	-7.364	0.099
173.500	-10.286	0.099
173.600	-2.403	0.099
173.700	0.765	0.099
173.800	-1.104	0.099
173.900	5.838	0.099
174.000	-11.394	0.099
174.100	-10.208	0.099
174.200	-3.408	0.099
174.300	-7.722	0.099
174.400	-10.541	0.099
174.500	-2.119	0.099
174.600	1.318	0.099
174.700	-11.140	0.099
174.800	-4.119	0.099
174.900	2.507	0.099
175.000	4.288	0.099
175.100	-8.709	0.099
175.200	-11.560	0.099
175.300	-5.601	0.099
175.400	-13.106	0.099
175.500	9.908	0.099
175.600	2.633	0.099
175.700	-19.134	0.099
175.800	-1.278	0.099
175.900	-5.297	0.099
176.000	-7.785	0.099
176.100	-4.039	0.099
176.200	1.798	0.099
176.300	2.136	0.099
176.400	-4.270	0.099
176.500	-3.402	0.099
176.600	-5.040	0.099
176.700	-6.674	0.099
176.800	-3.970	0.099
176.900	-21.283	0.099
177.000	4.465	0.099
177.100	-11.153	0.099
177.200	-2.409	0.099
177.300	-6.340	0.099
177.400	8.163	0.099
177.500	-2.502	0.099
177.600	-2.117	0.099
177.700	-6.978	0.099
177.800	-31.583	0.099
177.900	-2.584	0.099
178.000	-0.297	0.099
178.100	-17.476	0.099
178.200	-6.234	0.099
178.300	-9.765	0.099
178.400	-1.527	0.099
178.500	1.870	0.099
178.600	3.948	0.099
178.700	-15.220	0.099
178.800	-7.123	0.099
178.900	-0.474	0.099
179.000	-7.783	0.099
179.100	-15.007	0.099
179.200	10.342	0.099
179.300	-6.549	0.099
179.400	-18.642	0.099
179.500	-0.757	0.099
179.600	6.530	0.099
179.700	-5.463	0.099
179.800	-6.062	0.099
179.900	-4.470	0.099
180.000	14.610	0.099
180.100	10.251	0.099
180.200	16.498	0.099
180.300	13.413	0.099
180.400	6.492	0.099
180.500	9.540	0.099
180.600	16.123	0.099
180.700	23.491	0.099
180.800	16.684	0.099
180.900	25.090	0.099
181.000	12.164	0.099
181.100	26.749	0.099
181.200	23.365	0.099
181.300	23.971	0.099
181.400	8.794	0.099
181.500	19.465	0.099
181.600	32.031	0.099
181.700	26.137	0.099
181.800	39.061	0.099
181.900	32.005	0.099
182.000	31.566	0.099
182.100	37.265	0.099
182.200	23.342	0.099
182.300	32.899	0.099
182.400	14.767	0.099
182.500	22.536	0.099
182.600	32.129	0.099
182.700	35.943	0.099
182.800	24.641	0.099
182.900	20.440	0.099
183.000	30.390	0.099
183.100	15.677	0.099
183.200	47.808	0.099
183.300	35.614	0.099
183.400	31.788	0.099
183.500	31.480	0.099
183.600	29.998	0.099
183.700	28.773	0.099
183.800	23.738	0.099
183.900	21.445	0.099
184.000	21.416	0.099
184.100	16.795	0.099
184.200	24.723	0.099
184.300	25.700	0.099
184.400	23.017	0.099
184.500	26.989	0.099
184.600	16.931	0.099
184.700	32.054	0.099
184.800	14.945	0.099
184.900	14.848	0.099
185.000	34.356	0.099
185.100	28.178	0.099
185.200	34.857	0.099
185.300	25.074	0.099
185.400	19.743	0.099
185.500	10.688	0.099
185.600	17.290	0.099
185.700	25.991	0.099
185.800	19.220	0.099
185.900	8.168	0.099
186.000	17.776	0.099
186.100	22.659	0.099
186.200	23.672	0.099
186.300	17.742	0.099
186.400	21.815	0.099
186.500	20.517	0.099
186.600	20.430	0.099
186.700	19.318	0.099
186.800	18.203	0.099
186.900	10.744	0.099
187.000	19.325	0.099
187.100	11.323	0.099
187.200	13.956	0.099
187.300	30.535	0.099
187.400	15.239	0.099
187.500	31.248	0.099
187.600	21.265	0.099
187.700	17.683	0.099
187.800	9.344	0.099
187.900	21.377	0.099
188.000	18.856	0.099
188.100	10.183	0.099
188.200	32.673	0.099
188.300	31.297	0.099
188.400	32.715	0.100
188.500	17.735	0.100
188.600	21.279	0.100
188.700	22.694	0.100
188.800	4.588	0.100
188.900	6.305	0.100
189.000	8.560	0.100
189.100	12.323	0.100
189.200	7.085	0.100
189.300	15.979	0.100
189.400	19.221	0.100
189.500	17.912	0.100
189.600	29.238	0.100
189.700	33.543	0.100
189.800	14.453	0.100
189.900	18.076	0.100
190.000	23.824	0.100
190.100	21.804	0.100
190.200	32.274	0.100
190.300	19.127	0.100
190.400	14.956	0.100
190.500	10.015	0.100
190.600	11.857	0.100
190.700	17.012	0.100
190.800	19.010	0.100
190.900	21.353	0.100
191.000	13.024	0.100
191.100	9.875	0.100
191.200	19.257	0.100
191.300	13.770	0.100
191.400	16.445	0.100
191.500	21.499	0.100
191.600	20.906	0.100
191.700	11.442	0.100
191.800	33.395	0.100
191.900	25.375	0.100
192.000	19.601	0.100
192.100	18.758	0.100
192.200	17.645	0.100
192.300	13.425	0.100
192.400	23.601	0.100
192.500	17.411	0.100
192.600	14.352	0.100
192.700	19.027	0.100
192.800	13.825	0.100
192.900	19.350	0.100
193.000	20.797	0.100
193.100	34.941	0.100
193.200	25.801	0.100
193.300	39.366	0.100
193.400	36.119	0.100
193.500	30.351	0.100
193.600	22.123	0.100
193.700	5.167	0.100
193.800	20.334	0.100
193.900	19.802	0.100
194.000	20.367	0.100
194.100	20.581	0.100
194.200	24.130	0.100
194.300	32.598	0.100
194.400	15.292	0.100
194.500	5.174	0.100
194.600	12.915	0.100
194.700	22.090	0.100
194.800	21.481	0.100
194.900	19.494	0.100
195.000	27.175	0.100
195.100	26.671	0.100
195.200	25.830	0.100
195.300	13.497	0.100
195.400	24.924	0.100
195.500	24.834	0.100
195.600	29.522	0.100
195.700	16.481	0.100
195.800	22.653	0.100
195.900	13.198	0.100
196.000	17.556	0.100
196.100	21.245	0.100
196.200	24.995	0.100
196.300	18.004	0.100
196.400	14.984	0.100
196.500	30.042	0.100
196.600	25.164	0.100
196.700	30.924	0.100
196.800	21.976	0.100
196.900	13.225	0.100
197.000	9.917	0.100
197.100	29.801	0.100
197.200	31.694	0.100
197.300	27.223	0.100
197.400	9.478	0.100
197.500	24.605	0.100
197.600	19.063	0.100
197.700	19.774	0.100
197.800	26.270	0.100
197.900	29.016	0.100
198.000	18.810	0.100
198.100	25.235	0.100
198.200	18.670	0.100
198.300	28.517	0.100
198.400	23.751	0.100
198.500	7.805	0.100
198.600	19.764	0.100
198.700	19.599	0.100
198.800	14.914	0.100
198.900	28.900	0.100
199.000	33.692	0.100
199.100	35.421	0.100
199.200	28.827	0.100
199.300	19.762	0.100
199.400	23.475	0.100
199.500	14.748	0.100
199.600	14.011	0.100
199.700	27.614	0.100
199.800	29.345	0.100
199.900	16.263	0.100
200.000	18.708	0.100
200.100	37.010	0.100
200.200	31.442	0.100
200.300	31.521	0.100
200.400	7.382	0.100
200.500	18.276	0.100
200.600	33.412	0.100
200.700	26.680	0.100
200.800	24.042	0.100
200.900	21.196	0.100
201.000	24.554	0.100
201.100	22.017	0.100
201.200	15.973	0.100
201.300	31.642	0.100
201.400	28.245	0.100
201.500	22.430	0.100
201.600	24.725	0.100
201.700	25.075	0.100
201.800	21.294	0.100
201.900	10.963	0.100
202.000	38.468	0.100
202.100	29.565	0.100
202.200	19.434	0.100
202.300	24.741	0.100
202.400	27.761	0.100
202.500	23.125	0.100
202.600	21.695	0.100
202.700	21.761	0.100
202.800	36.916	0.100
202.900	31.051	0.100
203.000	28.380	0.100
203.100	24.231	0.100
203.200	4.843	0.100
203.300	26.720	0.100
203.400	27.560	0.100
203.500	34.546	0.100
203.600	36.217	0.100
203.700	29.032	0.100
203.800	6.819	0.100
203.900	36.453	0.100
204.000	36.332	0.100
204.100	30.799	0.100
204.200	23.823	0.100
204.300	12.630	0.100
204.400	6.616	0.100
204.500	25.572	0.100
204.600	21.701	0.100
204.700	20.163	0.100
204.800	32.656	0.100
204.900	33.577	0.100
205.000	31.941	0.100
205.100	13.731	0.100
205.200	22.390	0.100
205.300	30.011	0.100
205.400	20.072	0.100
205.500	31.147	0.100
205.600	24.478	0.100
205.700	13.668	0.100
205.800	21.361	0.100
205.900	30.468	0.100
206.000	25.829	0.100
206.100	28.143	0.100
206.200	19.714	0.100
206.300	31.059	0.100
206.400	22.146	0.100
206.500	29.439	0.100
206.600	25.748	0.100
206.700	27.888	0.100
206.800	31.858	0.100
206.900	30.675	0.100
207.000	28.191	0.100
207.100	10.609	0.100
207.200	18.167	0.100
207.300	22.361	0.100
207.400	11.264	0.100
207.500	17.375	0.100
207.600	30.016	0.100
207.700	35.447	0.100
207.800	27.192	0.100
207.900	29.624	0.100
208.000	22.833	0.100
208.100	27.255	0.100
208.200	13.030	0.100
208.300	29.159	0.100
208.400	32.000	0.100
208.500	30.118	0.100
208.600	20.082	0.100
208.700	29.377	0.100
208.800	44.523	0.100
208.900	22.709	0.100
209.000	20.004	0.100
209.100	34.486	0.100
209.200	25.051	0.100
209.300	16.652	0.100
209.400	12.352	0.100
209.500	17.071	0.100
209.600	21.603	0.100
209.700	21.232	0.100
209.800	16.569	0.100
209.900	33.845	0.100
210.000	23.560	0.100
210.100	16.049	0.100
210.200	27.751	0.100
210.300	13.038	0.100
210.400	29.751	0.100
210.500	22.436	0.100
210.600	30.753	0.100
210.700	27.452	0.100
210.800	29.799	0.100
210.900	27.855	0.100
211.000	15.379	0.100
211.100	8.214	0.100
211.200	26.325	0.100
211.300	24.650	0.100
211.400	26.253	0.100
211.500	23.245	0.100
211.600	20.272	0.100
211.700	27.651	0.100
211.800	35.506	0.100
211.900	22.550	0.100
212.000	14.662	0.100
212.100	14.016	0.100
212.200	28.811	0.100
212.300	13.526	0.100
212.400	34.617	0.100
212.500	17.831	0.100
212.600	29.059	0.100
212.700	29.538	0.100
212.800	44.118	0.100
212.900	21.460	0.100
213.000	12.435	0.100
213.100	34.357	0.100
213.200	37.891	0.100
213.300	22.835	0.100
213.400	27.345	0.100
213.500	32.195	0.100
213.600	28.895	0.100
213.700	23.891	0.100
213.800	16.566	0.100
213.900	15.640	0.100
214.000	31.229	0.100
214.100	33.082	0.100
214.200	14.056	0.100
214.300	25.240	0.100
214.400	31.881	0.100
214.500	28.038	0.100
214.600	32.138	0.100
214.700	23.648	0.100
214.800	17.391	0.100
214.900	14.795	0.100
215.000	11.634	0.100
215.100	16.526	0.100
215.200	17.067	0.100
215.300	14.945	0.100
215.400	9.889	0.100
215.500	27.474	0.100
215.600	25.976	0.100
215.700	19.302	0.100
215.800	14.324	0.100
215.900	26.890	0.100
216.000	17.786	0.100
216.100	31.001	0.100
216.200	30.382	0.100
216.300	27.223	0.100
216.400	23.342	0.100
216.500	11.283	0.100
216.600	35.629	0.100
216.700	14.711	0.100
216.800	36.859	0.100
216.900	27.726	0.100
217.000	17.789	0.100
217.100	20.687	0.100
217.200	25.308	0.100
217.300	29.624	0.100
217.400	30.073	0.100
217.500	25.296	0.100
217.600	12.274	0.100
217.700	19.607	0.100
217.800	20.848	0.100
217.900	34.634	0.100
218.000	27.856	0.100
218.100	22.391	0.100
218.200	21.034	0.100
218.300	29.236	0.100
218.400	18.607	0.100
218.500	17.047	0.100
218.600	28.303	0.100
218.700	23.861	0.100
218.800	11.825	0.100
218.900	32.412	0.100
219.000	32.050	0.100
219.100	26.583	0.100
219.200	6.951	0.100
219.300	11.141	0.100
219.400	18.416	0.100
219.500	26.815	0.100
219.600	20.810	0.100
219.700	32.037	0.100
219.800	27.526	0.100
219.900	14.186	0.100
220.000	25.134	0.100
220.100	27.944	0.100
220.200	17.440	0.100
220.300	19.867	0.100
220.400	19.440	0.100
220.500	22.839	0.100
220.600	23.383	0.100
220.700	23.759	0.100
220.800	13.977	0.100
220.900	27.925	0.100
221.000	17.876	0.100
221.100	29.319	0.100
221.200	28.621	0.100
221.300	26.744	0.100
221.400	26.053	0.100
221.500	17.542	0.100
221.600	25.875	0.100
221.700	29.786	0.100
221.800	43.430	0.100
221.900	17.940	0.100
222.000	16.264	0.100
222.100	23.816	0.100
222.200	15.989	0.100
222.300	27.649	0.100
222.400	21.988	0.100
222.500	24.088	0.100
222.600	21.848	0.100
222.700	28.959	0.100
222.800	25.627	0.100
222.900	30.268	0.100
223.000	10.876	0.100
223.100	17.564	0.100
223.200	13.006	0.100
223.300	31.031	0.100
223.400	20.484	0.100
223.500	13.781	0.100
223.600	17.733	0.100
223.700	23.570	0.100
223.800	26.505	0.100
223.900	23.226	0.100
224.000	13.950	0.100
224.100	16.030	0.100
224.200	17.783	0.100
224.300	16.606	0.100
224.400	8.873	0.100
224.500	22.135	0.100
224.600	36.300	0.100
224.700	14.049	0.100
224.800	19.888	0.100
224.900	5.486	0.100
225.000	24.361	0.100
225.100	19.810	0.100
225.200	25.073	0.100
225.300	24.446	0.100
225.400	23.162	0.100
225.500	22.435	0.100
225.600	20.761	0.100
225.700	23.808	0.100
225.800	15.138	0.100
225.900	21.189	0.100
226.000	15.392	0.100
226.100	17.828	0.100
226.200	24.432	0.100
226.300	28.271	0.100
226.400	21.412	0.100
226.500	26.857	0.100
226.600	13.780	0.100
226.700	35.711	0.100
226.800	34.335	0.100
226.900	19.648	0.100
227.000	19.286	0.100
227.100	8.472	0.100
227.200	24.961	0.100
227.300	5.392	0.100
227.400	19.214	0.100
227.500	27.888	0.100
227.600	20.569	0.100
227.700	16.606	0.100
227.800	34.014	0.100
227.900	25.731	0.100
228.000	16.339	0.100
228.100	27.143	0.100
228.200	27.608	0.100
228.300	29.729	0.100
228.400	36.231	0.100
228.500	25.250	0.100
228.600	17.091	0.100
228.700	10.471	0.100
228.800	23.499	0.100
228.900	20.066	0.100
229.000	14.463	0.100
229.100	27.792	0.100
229.200	25.887	0.100
229.300	23.930	0.100
229.400	27.631	0.100
229.500	21.677	0.100
229.600	30.199	0.100
229.700	27.175	0.100
229.800	20.928	0.100
229.900	11.668	0.100
230.000	34.805	0.100
230.100	26.789	0.100
230.200	10.061	0.100
230.300	26.317	0.100
230.400	28.953	0.100
230.500	25.673	0.100
230.600	22.512	0.100
230.700	34.463	0.100
230.800	30.652	0.100
230.900	22.361	0.100
231.000	5.162	0.100
231.100	21.991	0.100
231.200	2.598	0.100
231.300	24.423	0.100
231.400	22.032	0.100
231.500	15.659	0.100
231.600	26.998	0.100
231.700	22.331	0.100
231.800	24.492	0.100
231.900	26.274	0.100
232.000	24.862	0.100
232.100	26.500	0.100
232.200	22.370	0.100
232.300	20.083	0.100
232.400	25.590	0.100
232.500	18.643	0.100
232.600	38.414	0.100
232.700	26.115	0.100
232.800	22.746	0.100
232.900	30.948	0.100
233.000	15.506	0.100
233.100	16.737	0.100
233.200	25.249	0.100
233.300	11.743	0.100
233.400	19.615	0.100
233.500	31.315	0.100
233.600	29.378	0.100
233.700	21.500	0.100
233.800	23.818	0.100
233.900	18.134	0.100
234.000	17.215	0.100
234.100	27.917	0.100
234.200	19.854	0.100
234.300	32.648	0.100
234.400	17.245	0.100
234.500	28.781	0.100
234.600	15.675	0.100
234.700	34.379	0.100
234.800	20.212	0.100
234.900	23.073	0.100
235.000	14.696	0.100
235.100	16.518	0.100
235.200	19.458	0.100
235.300	12.358	0.100
235.400	20.799	0.100
235.500	8.459	0.100
235.600	29.264	0.100
235.700	21.423	0.100
235.800	20.666	0.100
235.900	29.793	0.100
236.000	28.670	0.100
236.100	5.563	0.100
236.200	14.860	0.100
236.300	15.726	0.100
236.400	28.694	0.100
236.500	34.096	0.100
236.600	29.775	0.100
236.700	24.527	0.100
236.800	20.319	0.100
236.900	22.307	0.100
237.000	12.379	0.100
237.100	15.008	0.100
237.200	22.061	0.100
237.300	20.150	0.100
237.400	19.680	0.100
237.500	27.164	0.100
237.600	30.813	0.100
237.700	34.031	0.100
237.800	21.634	0.100
237.900	24.050	0.100
238.000	13.723	0.100
238.100	25.225	0.100
238.200	25.013	0.100
238.300	21.448	0.100
238.400	26.456	0.100
238.500	30.914	0.100
238.600	24.857	0.100
238.700	19.929	0.100
238.800	25.524	0.100
238.900	13.105	0.100
239.000	15.616	0.100
239.100	31.306	0.100
239.200	18.789	0.100
239.300	19.978	0.100
239.400	6.848	0.100
239.500	10.132	0.100
239.600	7.014	0.100
239.700	3.139	0.100
239.800	9.592	0.100
239.900	26.409	0.100
240.000	29.361	0.100
240.100	16.692	0.100
240.200	14.873	0.100
240.300	13.028	0.100
240.400	25.376	0.100
240.500	4.258	0.100
240.600	5.786	0.100
240.700	3.436	0.100
240.800	7.101	0.100
240.900	5.293	0.100
241.000	3.727	0.100
241.100	-8.950	0.100
241.200	-1.278	0.100
241.300	2.071	0.100
241.400	-4.674	0.100
241.500	-2.094	0.100
241.600	-19.787	0.100
241.700	-8.463	0.100
241.800	-3.234	0.100
241.900	-14.323	0.100
242.000	-13.266	0.100
242.100	-6.506	0.100
242.200	-6.980	0.100
242.300	-17.305	0.100
242.400	-9.808	0.100
242.500	-9.131	0.100
242.600	-4.779	0.100
242.700	-4.170	0.100
242.800	-13.785	0.100
242.900	-11.228	0.100
243.000	-14.149	0.100
243.100	-23.864	0.100
243.200	-10.028	0.100
243.300	3.478	0.100
243.400	-2.287	0.100
243.500	-18.701	0.100
243.600	-10.074	0.100
243.700	-5.915	0.100
243.800	-10.661	0.100
243.900	-9.788	0.100
244.000	-2.483	0.100
244.100	-6.808	0.100
244.200	-20.126	0.100
244.300	-20.472	0.100
244.400	-13.746	0.100
244.500	-4.432	0.100
244.600	-7.610	0.100
244.700	-3.521	0.100
244.800	-10.169	0.100
244.900	-30.495	0.100
245.000	0.320	0.100
245.100	5.156	0.100
245.200	-2.997	0.100
245.300	-5.557	0.100
245.400	-13.287	0.100
245.500	-20.032	0.100
245.600	-24.714	0.100
245.700	-3.165	0.100
245.800	5.358	0.100
245.900	-19.033	0.100
246.000	-13.372	0.100
246.100	-10.225	0.100
246.200	-13.159	0.100
246.300	-6.766	0.100
246.400	-9.788	0.100
246.500	-16.008	0.100
246.600	-11.027	0.100
246.700	-9.277	0.100
246.800	4.477	0.100
246.900	-4.689	0.100
247.000	-9.910	0.100
247.100	-19.504	0.100
247.200	-6.319	0.100
247.300	5.217	0.100
247.400	-16.273	0.100
247.500	-5.084	0.100
247.600	-3.801	0.100
247.700	5.252	0.100
247.800	-24.655	0.100
247.900	-2.136	0.100
248.000	-19.308	0.100
248.100	-1.082	0.100
248.200	-19.717	0.100
248.300	-10.584	0.100
248.400	-12.454	0.100
248.500	-10.130	0.100
248.600	-0.880	0.100
248.700	-23.719	0.100
248.800	-11.327	0.100
248.900	-8.686	0.100
249.000	-4.691	0.100
249.100	-9.753	0.100
249.200	-11.893	0.100
249.300	-12.946	0.100
249.400	-3.381	0.100
249.500	-8.574	0.100
249.600	-13.479	0.100
249.700	0.461	0.100
249.800	-0.772	0.100
249.900	-0.604	0.100
250.000	-0.623	0.100
250.100	-4.718	0.100
250.200	-24.588	0.100
250.300	-12.044	0.100
250.400	-6.638	0.100
250.500	-6.540	0.100
250.600	-13.462	0.100
250.700	-0.098	0.100
250.800	-21.163	0.100
250.900	1.305	0.100
251.000	-19.710	0.100
251.100	4.062	0.100
251.200	-21.380	0.100
251.300	-12.218	0.100
251.400	-10.132	0.100
251.500	-7.286	0.100
251.600	-15.521	0.100
251.700	7.561	0.100
251.800	-7.371	0.100
251.900	-12.673	0.100
252.000	-9.304	0.100
252.100	-10.019	0.100
252.200	-7.515	0.100
252.300	-5.717	0.100
252.400	-8.822	0.100
252.500	-7.494	0.100
252.600	-6.287	0.100
252.700	-7.886	0.100
252.800	-10.127	0.100
252.900	-2.211	0.100
253.000	-28.826	0.100
253.100	-18.602	0.100
253.200	-12.613	0.100
253.300	-5.493	0.100
253.400	5.786	0.100
253.500	-19.143	0.100
253.600	-8.456	0.100
253.700	-20.489	0.100
253.800	0.228	0.100
253.900	-6.439	0.100
254.000	-10.131	0.100
254.100	-6.723	0.100
254.200	-9.464	0.100
254.300	-9.140	0.100
254.400	-7.294	0.100
254.500	-13.054	0.100
254.600	-13.935	0.100
254.700	-19.463	0.100
254.800	-9.117	0.100
254.900	-15.683	0.100
255.000	-3.104	0.100
255.100	-12.462	0.100
255.200	8.291	0.100
255.300	2.354	0.100
255.400	-23.671	0.100
255.500	-20.790	0.100
255.600	-15.435	0.100
255.700	-5.874	0.100
255.800	-1.435	0.100
255.900	-17.790	0.100
256.000	-9.628	0.100
256.100	-14.116	0.100
256.200	-14.681	0.100
256.300	-0.170	0.100
256.400	-13.660	0.100
256.500	-10.216	0.100
256.600	-6.064	0.100
256.700	-12.682	0.100
256.800	-15.817	0.100
256.900	-1.842	0.100
257.000	-1.988	0.100
257.100	-13.194	0.100
257.200	-10.553	0.100
257.300	-8.913	0.100
257.400	-3.617	0.100
257.500	-16.024	0.100
257.600	-11.808	0.100
257.700	-5.135	0.100
257.800	-8.966	0.100
257.900	-23.667	0.100
258.000	-22.966	0.100
258.100	-6.775	0.100
258.200	-12.610	0.100
258.300	-4.391	0.100
258.400	-13.385	0.100
258.500	-5.123	0.100
258.600	-12.514	0.100
258.700	-7.128	0.100
258.800	-7.346	0.100
258.900	-2.882	0.100
259.000	-20.037	0.100
259.100	-8.126	0.100
259.200	-8.827	0.100
259.300	-1.628	0.100
259.400	-17.186	0.100
259.500	-5.123	0.100
259.600	-16.157	0.100
259.700	-18.840	0.100
259.800	-8.077	0.100
259.900	-20.575	0.100
260.000	-6.441	0.100
260.100	-17.191	0.100
260.200	-5.396	0.100
260.300	1.439	0.100
260.400	-9.351	0.100
260.500	-4.416	0.100
260.600	-5.142	0.100
260.700	-3.581	0.100
260.800	-0.687	0.100
260.900	-9.755	0.100
261.000	-18.161	0.100
261.100	-11.474	0.100
261.200	-11.351	0.100
261.300	-9.109	0.100
261.400	-16.249	0.100
261.500	-11.425	0.100
261.600	-14.097	0.100
261.700	-12.998	0.100
261.800	-11.613	0.100
261.900	-9.954	0.100
262.000	1.503	0.100
262.100	-3.307	0.100
262.200	-5.506	0.100
262.300	-9.294	0.100
262.400	-2.253	0.100
262.500	-12.066	0.100
262.600	-17.342	0.100
262.700	-5.514	0.100
262.800	-21.679	0.100
262.900	-6.177	0.100
263.000	-7.933	0.100
263.100	-20.863	0.100
263.200	-15.300	0.100
263.300	-3.137	0.100
263.400	-18.828	0.100
263.500	-14.729	0.100
263.600	-28.372	0.100
263.700	-16.412	0.100
263.800	-10.549	0.100
263.900	-19.275	0.100
264.000	-7.309	0.100
264.100	-9.245	0.100
264.200	-23.376	0.100
264.300	-22.886	0.100
264.400	-5.338	0.100
264.500	-14.116	0.100
264.600	-0.644	0.100
264.700	-12.141	0.100
264.800	-7.358	0.100
264.900	-7.344	0.100
265.000	-7.418	0.100
265.100	-6.218	0.100
265.200	-7.850	0.100
265.300	-25.318	0.100
265.400	-2.063	0.100
265.500	-13.956	0.100
265.600	-17.911	0.100
265.700	-3.166	0.100
265.800	4.716	0.100
265.900	-1.451	0.100
266.000	-9.056	0.100
266.100	-16.951	0.100
266.200	-9.818	0.100
266.300	-10.952	0.100
266.400	-6.479	0.100
266.500	-12.079	0.100
266.600	-28.696	0.100
266.700	-19.705	0.100
266.800	-11.708	0.100
266.900	-16.262	0.100
267.000	0.690	0.100
267.100	-5.833	0.100
267.200	-17.102	0.100
267.300	-18.068	0.100
267.400	-17.586	0.100
267.500	-17.343	0.100
267.600	-13.660	0.100
267.700	-14.564	0.100
267.800	-9.332	0.100
267.900	7.550	0.100
268.000	2.454	0.100
268.100	-7.957	0.100
268.200	-11.334	0.100
268.300	-14.220	0.100
268.400	-17.557	0.100
268.500	-6.691	0.100
268.600	-7.890	0.100
268.700	-14.686	0.100
268.800	-21.324	0.100
268.900	-19.632	0.100
269.000	2.323	0.100
269.100	-3.722	0.100
269.200	-22.526	0.100
269.300	-16.009	0.100
269.400	-12.839	0.100
269.500	1.619	0.100
269.600	-10.058	0.100
269.700	-11.316	0.100
269.800	-19.745	0.100
269.900	-13.319	0.100
270.000	-3.645	0.100
270.100	-17.285	0.100
270.200	-9.560	0.100
270.300	-8.813	0.100
270.400	-14.386	0.100
270.500	-22.688	0.100
270.600	-20.076	0.100
270.700	-9.553	0.100
270.800	-18.535	0.100
270.900	-6.171	0.100
271.000	-8.139	0.100
271.100	-20.297	0.100
271.200	-10.101	0.100
271.300	-4.759	0.100
271.400	-19.222	0.100
271.500	-20.469	0.100
271.600	-7.620	0.100
271.700	-12.257	0.100
271.800	-9.227	0.100
271.900	-18.982	0.100
272.000	3.068	0.100
272.100	-14.522	0.100
272.200	-10.376	0.100
272.300	-9.636	0.100
272.400	3.637	0.100
272.500	-6.125	0.100
272.600	-9.672	0.100
272.700	-23.382	0.100
272.800	-16.352	0.100
272.900	-5.089	0.100
273.000	-7.203	0.100
273.100	-27.791	0.100
273.200	-21.591	0.100
273.300	-13.072	0.100
273.400	-12.453	0.100
273.500	-7.820	0.100
273.600	-8.160	0.100
273.700	6.182	0.100
273.800	-11.991	0.100
273.900	-5.951	0.100
274.000	-17.982	0.100
274.100	-7.804	0.100
274.200	-14.760	0.100
274.300	-10.591	0.100
274.400	-14.190	0.100
274.500	-8.351	0.100
274.600	-12.804	0.100
274.700	-20.731	0.100
274.800	-13.599	0.100
274.900	-10.588	0.100
275.000	-26.177	0.100
275.100	-4.841	0.100
275.200	7.682	0.100
275.300	-17.182	0.100
275.400	3.368	0.100
275.500	-12.737	0.100
275.600	-5.465	0.100
275.700	-9.329	0.100
275.800	-25.675	0.100
275.900	-10.537	0.100
276.000	-33.653	0.100
276.100	-12.378	0.100
276.200	-1.212	0.100
276.300	-15.920	0.100
276.400	-17.497	0.100
276.500	-25.668	0.100
276.600	-8.099	0.100
276.700	-6.072	0.100
276.800	-18.534	0.100
276.900	-16.139	0.100
277.000	-7.263	0.100
277.100	-0.461	0.100
277.200	-14.458	0.100
277.300	-22.223	0.100
277.400	-1.617	0.100
277.500	-12.370	0.100
277.600	-5.314	0.100
277.700	-8.068	0.100
277.800	-1.807	0.100
277.900	-18.984	0.100
278.000	-4.502	0.100
278.100	-10.591	0.100
278.200	0.946	0.100
278.300	-16.446	0.100
278.400	-8.422	0.100
278.500	-10.810	0.100
278.600	-15.319	0.100
278.700	-13.534	0.100
278.800	-8.384	0.100
278.900	-21.366	0.100
279.000	-2.866	0.100
279.100	-16.493	0.100
279.200	-20.294	0.100
279.300	-4.734	0.100
279.400	-6.855	0.100
279.500	-11.021	0.100
279.600	-14.955	0.100
279.700	-17.953	0.100
279.800	-20.760	0.100
279.900	-15.248	0.100
280.000	-10.961	0.100
280.100	-14.644	0.100
280.200	-6.612	0.100
280.300	-10.297	0.100
280.400	-23.132	0.100
280.500	-27.977	0.100
280.600	2.232	0.100
280.700	-4.808	0.100
280.800	-1.370	0.100
280.900	-14.679	0.100
281.000	-10.195	0.100
281.100	-2.941	0.100
281.200	-15.738	0.100
281.300	-10.270	0.100
281.400	-13.239	0.100
281.500	-6.493	0.100
281.600	-17.050	0.100
281.700	-3.040	0.100
281.800	-24.920	0.100
281.900	-25.687	0.100
282.000	-1.842	0.100
282.100	-4.342	0.100
282.200	-21.754	0.100
282.300	-8.793	0.100
282.400	-14.215	0.100
282.500	-12.793	0.100
282.600	-8.138	0.100
282.700	-17.350	0.100
282.800	-10.136	0.100
282.900	-14.254	0.100
283.000	-15.493	0.100
283.100	-9.160	0.100
283.200	-10.305	0.100
283.300	-18.101	0.100
283.400	-20.975	0.100
283.500	-3.157	0.100
283.600	-9.012	0.100
283.700	-8.534	0.100
283.800	-10.208	0.100
283.900	-11.302	0.100
284.000	-9.906	0.100
284.100	-9.582	0.100
284.200	-7.844	0.100
284.300	-19.439	0.100
284.400	-16.742	0.100
284.500	-12.906	0.100
284.600	-6.773	0.100
284.700	-9.723	0.100
284.800	-15.655	0.100
284.900	-22.024	0.100
285.000	-12.993	0.100
285.100	-7.894	0.100
285.200	-9.838	0.100
285.300	-3.421	0.100
285.400	-9.266	0.100
285.500	-5.280	0.100
285.600	-8.512	0.100
285.700	-3.965	0.100
285.800	-2.549	0.100
285.900	-24.256	0.100
286.000	-20.375	0.100
286.100	-10.752	0.100
286.200	-6.229	0.100
286.300	-5.512	0.100
286.400	-8.520	0.100
286.500	-10.399	0.100
286.600	-22.163	0.100
286.700	-34.643	0.100
286.800	-15.140	0.100
286.900	-9.321	0.100
287.000	1.779	0.100
287.100	-16.317	0.100
287.200	-20.601	0.100
287.300	-13.212	0.100
287.400	-6.422	0.100
287.500	-8.264	0.100
287.600	-12.737	0.100
287.700	1.336	0.100
287.800	-6.286	0.100
287.900	-14.962	0.100
288.000	-23.075	0.100
288.100	-26.836	0.100
288.200	-7.174	0.100
288.300	-4.024	0.100
288.400	-7.867	0.100
288.500	-8.603	0.100
288.600	-18.953	0.100
288.700	-9.229	0.100
288.800	-3.878	0.100
288.900	-18.956	0.100
289.000	-19.541	0.100
289.100	3.183	0.100
289.200	-17.937	0.100
289.300	-2.757	0.100
289.400	-14.056	0.100
289.500	-9.770	0.100
289.600	-3.376	0.100
289.700	1.392	0.100
289.800	-11.471	0.100
289.900	-13.571	0.100
290.000	-8.930	0.100
290.100	-13.297	0.100
290.200	-20.663	0.100
290.300	-7.105	0.100
290.400	-8.304	0.100
290.500	-15.305	0.100
290.600	-20.407	0.100
290.700	-8.113	0.100
290.800	-10.986	0.100
290.900	-17.132	0.100
291.000	-9.287	0.100
291.100	-9.760	0.100
291.200	-14.694	0.100
291.300	-14.502	0.100
291.400	-13.256	0.100
291.500	-8.946	0.100
291.600	-0.145	0.100
291.700	-18.577	0.100
291.800	-15.460	0.100
291.900	-9.805	0.100
292.000	-8.574	0.100
292.100	-18.709	0.100
292.200	-6.168	0.100
292.300	-5.208	0.100
292.400	5.061	0.100
292.500	-15.388	0.100
292.600	-25.082	0.100
292.700	-16.522	0.100
292.800	-11.561	0.100
292.900	-9.290	0.100
293.000	-18.144	0.100
293.100	-7.623	0.100
293.200	-12.178	0.100
293.300	-11.380	0.100
293.400	-17.476	0.100
293.500	-9.841	0.100
293.600	0.380	0.100
293.700	3.808	0.100
293.800	-5.625	0.100
293.900	-11.869	0.100
294.000	-15.926	0.100
294.100	-28.404	0.100
294.200	-11.422	0.100
294.300	-3.258	0.100
294.400	-4.868	0.100
294.500	-23.204	0.100
294.600	-16.893	0.100
294.700	-12.622	0.100
294.800	-2.950	0.100
294.900	1.062	0.100
295.000	6.295	0.100
295.100	-12.839	0.100
295.200	-1.911	0.100
295.300	-19.445	0.100
295.400	-17.775	0.100
295.500	-3.391	0.100
295.600	-9.930	0.100
295.700	-10.221	0.100
295.800	-5.139	0.100
295.900	-1.033	0.100
296.000	-13.742	0.100
296.100	-1.230	0.100
296.200	-9.823	0.100
296.300	-15.156	0.100
296.400	-13.512	0.100
296.500	-10.342	0.100
296.600	-13.311	0.100
296.700	-19.853	0.100
296.800	-11.904	0.100
296.900	-9.250	0.100
297.000	-14.410	0.100
297.100	-15.041	0.100
297.200	2.944	0.100
297.300	-8.294	0.100
297.400	-15.729	0.100
297.500	-14.160	0.100
297.600	-20.828	0.100
297.700	-12.512	0.100
297.800	-12.643	0.100
297.900	3.893	0.100
298.000	-0.404	0.100
298.100	-16.691	0.100
298.200	-25.167	0.100
298.300	-26.082	0.100
298.400	-6.844	0.100
298.500	-10.215	0.100
298.600	-7.737	0.100
298.700	-13.466	0.100
298.800	-4.386	0.100
298.900	-6.612	0.100
299.000	-10.731	0.100
299.100	-4.377	0.100
299.200	-23.544	0.100
299.300	-1.793	0.100
299.400	-19.193	0.100
299.500	-12.819	0.100
299.600	-4.984	0.100
299.700	-9.048	0.100
299.800	-19.763	0.100
299.900	-3.131	0.100
300.000	-9.611	0.100
300.100	-3.550	0.100
300.200	-5.703	0.100
300.300	-8.478	0.100
300.400	-8.246	0.100
300.500	-17.453	0.100
300.600	-3.970	0.100
300.700	-9.112	0.100
300.800	-12.100	0.100
300.900	-9.789	0.100
301.000	-15.809	0.100
301.100	-5.940	0.100
301.200	-11.379	0.100
301.300	-9.496	0.100
301.400	-4.446	0.100
301.500	-3.234	0.100
301.600	-17.298	0.100
301.700	-10.774	0.100
301.800	-14.719	0.100
301.900	-2.224	0.100
302.000	-18.804	0.100
302.100	-3.925	0.100
302.200	-10.602	0.100
302.300	-15.467	0.100
302.400	-24.622	0.100
302.500	-13.607	0.100
302.600	-10.203	0.100
302.700	2.399	0.100
302.800	5.180	0.100
302.900	-18.089	0.100
303.000	-28.479	0.100
303.100	-4.438	0.100
303.200	-6.131	0.100
303.300	6.000	0.100
303.400	-3.145	0.100
303.500	-8.637	0.100
303.600	-4.451	0.100
303.700	-5.622	0.100
303.800	-22.184	0.100
303.900	-8.707	0.100
304.000	-9.948	0.100
304.100	4.275	0.100
304.200	-13.946	0.100
304.300	-2.746	0.100
304.400	-3.998	0.100
304.500	-25.391	0.100
304.600	-8.235	0.100
304.700	-12.076	0.100
304.800	-3.729	0.100
304.900	-6.183	0.100
305.000	-11.565	0.100
305.100	-22.439	0.100
305.200	-11.217	0.100
305.300	-2.789	0.100
305.400	-6.215	0.100
305.500	-7.552	0.100
305.600	1.813	0.100
305.700	-10.938	0.100
305.800	-10.437	0.100
305.900	-2.223	0.100
306.000	-11.901	0.100
306.100	-14.482	0.100
306.200	-2.034	0.100
306.300	-9.438	0.100
306.400	-15.015	0.100
306.500	-21.128	0.100
306.600	-10.878	0.100
306.700	-9.868	0.100
306.800	-4.352	0.100
306.900	-1.973	0.100
307.000	-22.298	0.100
307.100	-11.383	0.100
307.200	-15.016	0.100
307.300	-9.516	0.100
307.400	-3.374	0.100
307.500	0.684	0.100
307.600	-5.192	0.100
307.700	-8.166	0.100
307.800	-12.143	0.100
307.900	-5.850	0.100
308.000	-10.862	0.100
308.100	-12.595	0.100
308.200	-12.569	0.100
308.300	-5.669	0.100
308.400	-0.847	0.100
308.500	-11.060	0.100
308.600	-13.461	0.100
308.700	1.400	0.100
308.800	-10.797	0.100
308.900	-11.205	0.100
309.000	-10.079	0.100
309.100	-5.284	0.100
309.200	-6.886	0.100
309.300	-9.483	0.100
309.400	-14.407	0.100
309.500	-14.307	0.100
309.600	-7.537	0.100
309.700	-8.908	0.100
309.800	-5.040	0.100
309.900	-9.297	0.100
310.000	-7.733	0.100
310.100	-5.760	0.100
310.200	-4.250	0.100
310.300	-3.762	0.100
310.400	-5.116	0.100
310.500	-3.728	0.100
310.600	-1.476	0.100
310.700	-10.856	0.100
310.800	-18.695	0.100
310.900	-22.562	0.100
311.000	-1.395	0.100
311.100	5.787	0.100
311.200	-3.050	0.100
311.300	-10.683	0.100
311.400	-14.303	0.100
311.500	-4.165	0.100
311.600	-0.061	0.100
311.700	-5.819	0.100
311.800	-23.009	0.100
311.900	-14.579	0.100
312.000	0.363	0.100
312.100	-3.727	0.100
312.200	-11.741	0.100
312.300	-8.110	0.100
312.400	-22.767	0.100
312.500	-6.166	0.100
312.600	6.040	0.100
312.700	-16.112	0.100
312.800	-9.587	0.100
312.900	-9.305	0.100
313.000	-4.067	0.100
313.100	-2.287	0.100
313.200	-9.271	0.100
313.300	-21.389	0.100
313.400	-9.794	0.100
313.500	-3.798	0.100
313.600	-21.652	0.100
313.700	-2.769	0.100
313.800	3.499	0.100
313.900	2.905	0.100
314.000	4.261	0.100
314.100	-8.375	0.100
314.200	-13.434	0.100
314.300	-6.640	0.100
314.400	0.579	0.100
314.500	-2.263	0.100
314.600	-9.824	0.100
314.700	-13.946	0.100
314.800	-3.513	0.100
314.900	-7.777	0.100
315.000	-1.844	0.100
315.100	-11.282	0.100
315.200	-2.907	0.100
315.300	-8.559	0.100
315.400	-3.661	0.100
315.500	-8.348	0.100
315.600	-4.688	0.100
315.700	-2.659	0.100
315.800	-14.350	0.100
315.900	-21.329	0.100
316.000	-1.747	0.100
316.100	-9.413	0.100
316.200	-7.380	0.100
316.300	-14.069	0.100
316.400	-9.417	0.100
316.500	-15.863	0.100
316.600	6.144	0.100
316.700	-15.072	0.100
316.800	-7.204	0.100
316.900	-12.816	0.100
317.000	-18.624	0.100
317.100	-15.089	0.100
317.200	-6.390	0.100
317.300	13.239	0.100
317.400	12.633	0.100
317.500	0.595	0.100
317.600	-15.527	0.100
317.700	-18.741	0.100
317.800	-7.392	0.100
317.900	-5.400	0.100
318.000	-5.469	0.100
318.100	-16.528	0.100
318.200	-26.652	0.100
318.300	-4.076	0.100
318.400	-4.567	0.100
318.500	-6.114	0.100
318.600	-17.377	0.100
318.700	-4.399	0.100
318.800	-26.447	0.100
318.900	-2.952	0.100
319.000	-13.427	0.100
319.100	-16.960	0.100
319.200	4.647	0.100
319.300	-16.083	0.100
319.400	-7.110	0.100
319.500	-4.531	0.100
319.600	-17.004	0.100
319.700	-3.426	0.100
319.800	-8.108	0.100
319.900	-13.299	0.100
320.000	9.760	0.100
320.100	-10.863	0.100
320.200	-14.554	0.100
320.300	-14.217	0.100
320.400	-8.600	0.100
320.500	-10.943	0.100
320.600	7.552	0.100
320.700	-4.332	0.100
320.800	-4.774	0.100
320.900	-20.599	0.100
321.000	-15.388	0.100
321.100	-8.502	0.100
321.200	2.115	0.100
321.300	-3.132	0.100
321.400	-15.832	0.100
321.500	-16.981	0.100
321.600	-8.882	0.100
321.700	-3.564	0.100
321.800	-8.137	0.100
321.900	-4.140	0.100
322.000	-3.850	0.100
322.100	-10.141	0.100
322.200	-7.089	0.100
322.300	-4.415	0.100
322.400	-4.556	0.100
322.500	-13.853	0.100
322.600	-16.413	0.100
322.700	-9.074	0.100
322.800	3.878	0.100
322.900	-10.865	0.100
323.000	-13.754	0.100
323.100	-5.351	0.100
323.200	-13.804	0.100
323.300	-16.312	0.100
323.400	1.866	0.100
323.500	7.183	0.100
323.600	-1.521	0.100
323.700	-16.579	0.100
323.800	-13.385	0.100
323.900	-5.733	0.100
324.000	-2.090	0.100
324.100	-21.827	0.100
324.200	3.060	0.100
324.300	2.435	0.100
324.400	-6.336	0.100
324.500	-12.740	0.100
324.600	-17.471	0.100
324.700	-8.433	0.100
324.800	-8.507	0.100
324.900	-9.358	0.100
325.000	-13.753	0.100
325.100	-7.518	0.100
325.200	1.525	0.100
325.300	-4.907	0.100
325.400	-9.304	0.100
325.500	0.891	0.100
325.600	-11.274	0.100
325.700	-6.963	0.100
325.800	-10.556	0.100
325.900	-13.366	0.100
326.000	4.963	0.100
326.100	-10.182	0.100
326.200	-7.508	0.100
326.300	-4.774	0.100
326.400	-2.467	0.100
326.500	0.411	0.100
326.600	-12.412	0.100
326.700	-12.158	0.100
326.800	-7.234	0.100
326.900	-9.029	0.100
327.000	-30.214	0.100
327.100	-3.234	0.100
327.200	7.044	0.100
327.300	5.404	0.100
327.400	-14.383	0.100
327.500	-12.521	0.100
327.600	-11.534	0.100
327.700	-5.313	0.100
327.800	2.715	0.100
327.900	8.762	0.100
328.000	-7.511	0.100
328.100	-10.253	0.100
328.200	-9.779	0.100
328.300	-10.862	0.100
328.400	-3.663	0.100
328.500	6.839	0.100
328.600	-6.533	0.100
328.700	-8.742	0.100
328.800	-23.362	0.100
328.900	-10.313	0.100
329.000	-3.940	0.100
329.100	-4.625	0.100
329.200	-6.582	0.100
329.300	-6.631	0.100
329.400	-13.507	0.100
329.500	-12.151	0.100
329.600	-8.071	0.100
329.700	-3.550	0.100
329.800	-14.691	0.100
329.900	13.594	0.100
330.000	3.113	0.100
330.100	-1.747	0.100
330.200	10.059	0.100
330.300	7.518	0.100
330.400	2.466	0.100
330.500	13.793	0.100
330.600	19.210	0.100
330.700	22.738	0.100
330.800	18.479	0.100
330.900	20.896	0.100
331.000	12.019	0.100
331.100	24.854	0.100
331.200	37.697	0.100
331.300	24.177	0.100
331.400	25.823	0.100
331.500	29.049	0.100
331.600	35.469	0.100
331.700	31.804	0.100
331.800	24.226	0.100
331.900	29.580	0.100
332.000	7.749	0.100
332.100	25.180	0.100
332.200	38.212	0.100
332.300	34.911	0.100
332.400	28.832	0.100
332.500	38.807	0.100
332.600	30.234	0.100
332.700	22.962	0.100
332.800	16.648	0.100
332.900	24.752	0.100
333.000	35.064	0.100
333.100	28.840	0.100
333.200	15.756	0.100
333.300	19.630	0.100
333.400	16.685	0.100
333.500	31.741	0.100
333.600	19.388	0.100
333.700	24.641	0.100
333.800	24.457	0.100
333.900	29.492	0.100
334.000	27.611	0.100
334.100	35.912	0.100
334.200	32.407	0.100
334.300	26.592	0.100
334.400	16.535	0.100
334.500	14.571	0.100
334.600	25.042	0.100
334.700	14.008	0.100
334.800	13.731	0.100
334.900	21.055	0.100
335.000	23.284	0.100
335.100	17.324	0.100
335.200	39.349	0.100
335.300	17.112	0.100
335.400	11.952	0.100
335.500	18.956	0.100
335.600	7.487	0.100
335.700	18.371	0.100
335.800	0.619	0.100
335.900	10.198	0.100
336.000	26.832	0.100
336.100	27.076	0.100
336.200	18.933	0.100
336.300	20.971	0.100
336.400	32.734	0.100
336.500	22.027	0.100
336.600	24.262	0.100
336.700	6.862	0.100
336.800	8.319	0.100
336.900	22.193	0.100
337.000	31.063	0.100
337.100	22.230	0.100
337.200	22.946	0.100
337.300	18.445	0.100
337.400	22.555	0.100
337.500	12.142	0.100
337.600	28.698	0.100
337.700	27.363	0.100
337.800	29.202	0.100
337.900	14.775	0.100
338.000	10.952	0.100
338.100	13.262	0.100
338.200	9.178	0.100
338.300	10.852	0.100
338.400	21.853	0.100
338.500	17.904	0.100
338.600	18.233	0.100
338.700	13.068	0.100
338.800	17.259	0.100
338.900	25.372	0.100
339.000	15.236	0.100
339.100	10.886	0.100
339.200	11.554	0.100
339.300	8.711	0.100
339.400	17.983	0.100
339.500	15.648	0.100
339.600	16.972	0.100
339.700	19.064	0.100
339.800	16.392	0.100
339.900	24.125	0.100
340.000	8.794	0.100
340.100	18.185	0.100
340.200	13.968	0.100
340.300	15.931	0.100
340.400	9.421	0.100
340.500	19.448	0.100
340.600	17.270	0.100
340.700	17.153	0.100
340.800	14.068	0.100
340.900	13.706	0.100
341.000	16.703	0.100
341.100	11.798	0.100
341.200	16.349	0.100
341.300	0.988	0.100
341.400	18.232	0.100
341.500	18.790	0.100
341.600	21.376	0.100
341.700	16.221	0.100
341.800	23.740	0.100
341.900	25.872	0.100
342.000	3.788	0.100
342.100	15.850	0.100
342.200	19.790	0.100
342.300	21.900	0.100
342.400	15.573	0.100
342.500	9.936	0.100
342.600	11.415	0.100
342.700	12.189	0.100
342.800	17.563	0.100
342.900	25.443	0.100
343.000	19.741	0.100
343.100	7.097	0.100
343.200	13.355	0.100
343.300	12.257	0.100
343.400	24.821	0.100
343.500	9.686	0.100
343.600	9.663	0.100
343.700	18.608	0.100
343.800	21.203	0.100
343.900	8.910	0.100
344.000	13.238	0.100
344.100	22.716	0.100
344.200	19.764	0.100
344.300	-1.300	0.100
344.400	18.494	0.100
344.500	18.318	0.100
344.600	21.736	0.100
344.700	29.147	0.100
344.800	19.956	0.100
344.900	17.040	0.100
345.000	27.195	0.100
345.100	13.308	0.100
345.200	19.629	0.100
345.300	16.549	0.100
345.400	27.831	0.100
345.500	9.374	0.100
345.600	14.029	0.100
345.700	14.093	0.100
345.800	6.477	0.100
345.900	21.196	0.100
346.000	25.987	0.100
346.100	22.088	0.100
346.200	17.718	0.100
346.300	23.201	0.100
346.400	17.726	0.100
346.500	13.867	0.100
346.600	14.926	0.100
346.700	6.496	0.100
346.800	6.754	0.100
346.900	31.199	0.100
347.000	22.875	0.100
347.100	25.182	0.100
347.200	21.179	0.100
347.300	18.815	0.100
347.400	18.457	0.100
347.500	21.894	0.100
347.600	20.092	0.100
347.700	13.461	0.100
347.800	18.469	0.100
347.900	23.988	0.100
348.000	27.105	0.100
348.100	18.242	0.100
348.200	21.175	0.100
348.300	25.977	0.100
348.400	24.551	0.100
348.500	5.738	0.100
348.600	17.264	0.100
348.700	28.779	0.100
348.800	9.843	0.100
348.900	19.012	0.100
349.000	20.133	0.100
349.100	11.495	0.100
349.200	17.548	0.100
349.300	27.493	0.100
349.400	36.789	0.100
349.500	21.683	0.100
349.600	29.939	0.100
349.700	20.513	0.100
349.800	25.094	0.100
349.900	24.179	0.100
350.000	35.522	0.100
350.100	11.499	0.100
350.200	19.091	0.100
350.300	19.493	0.100
350.400	25.369	0.100
350.500	20.149	0.100
350.600	24.532	0.100
350.700	37.154	0.100
350.800	31.510	0.100
350.900	11.718	0.100
351.000	24.453	0.100
351.100	24.650	0.100
351.200	20.701	0.100
351.300	25.329	0.100
351.400	13.566	0.100
351.500	28.031	0.100
351.600	39.290	0.100
351.700	21.062	0.100
351.800	23.772	0.100
351.900	20.711	0.100
352.000	25.382	0.100
352.100	24.331	0.100
352.200	25.923	0.100
352.300	14.469	0.100
352.400	17.751	0.100
352.500	17.143	0.100
352.600	29.414	0.100
352.700	14.393	0.100
352.800	30.315	0.100
352.900	13.609	0.100
353.000	29.430	0.100
353.100	23.674	0.100
353.200	33.846	0.100
353.300	37.254	0.100
353.400	35.413	0.100
353.500	26.581	0.100
353.600	22.810	0.100
353.700	39.658	0.100
353.800	35.684	0.100
353.900	18.278	0.100
354.000	33.295	0.100
354.100	12.079	0.100
354.200	31.716	0.100
354.300	21.262	0.100
354.400	31.797	0.100
354.500	30.498	0.100
354.600	16.952	0.100
354.700	16.508	0.100
354.800	28.671	0.100
354.900	31.483	0.100
355.000	41.849	0.100
355.100	19.158	0.100
355.200	25.694	0.100
355.300	49.604	0.100
355.400	30.488	0.100
355.500	14.262	0.100
355.600	25.186	0.100
355.700	27.469	0.100
355.800	25.864	0.100
355.900	18.423	0.100
356.000	17.723	0.100
356.100	17.198	0.100
356.200	20.735	0.100
356.300	32.025	0.100
356.400	33.934	0.100
356.500	30.500	0.100
356.600	34.253	0.100
356.700	19.263	0.100
356.800	19.981	0.100
356.900	18.997	0.100
357.000	15.180	0.100
357.100	29.782	0.100
357.200	33.286	0.100
357.300	20.368	0.100
357.400	17.620	0.100
357.500	27.393	0.100
357.600	27.352	0.100
357.700	17.486	0.100
357.800	14.256	0.100
357.900	18.294	0.100
358.000	23.352	0.100
358.100	29.313	0.100
358.200	29.185	0.100
358.300	25.400	0.100
358.400	23.174	0.100
358.500	27.931	0.100
358.600	14.366	0.100
358.700	27.538	0.100
358.800	29.071	0.100
358.900	21.289	0.100
359.000	22.277	0.100
359.100	29.472	0.100
359.200	23.113	0.100
359.300	44.468	0.100
359.400	28.324	0.100
359.500	34.830	0.100
359.600	30.248	0.100
359.700	17.273	0.100
359.800	18.691	0.100
359.900	34.904	0.100
360.000	10.286	0.100
360.100	27.166	0.100
360.200	29.801	0.100
360.300	29.156	0.100
360.400	20.052	0.100
360.500	30.868	0.100
360.600	26.713	0.100
360.700	30.115	0.100
360.800	33.001	0.100
360.900	34.478	0.100
361.000	12.983	0.100
361.100	10.421	0.100
361.200	18.208	0.100
361.300	32.693	0.100
361.400	29.859	0.100
361.500	30.907	0.100
361.600	22.334	0.100
361.700	16.120	0.100
361.800	22.721	0.100
361.900	15.436	0.100
362.000	28.153	0.100
362.100	22.190	0.100
362.200	21.091	0.100
362.300	33.994	0.100
362.400	27.210	0.100
362.500	18.054	0.100
362.600	23.812	0.100
362.700	25.113	0.100
362.800	25.089	0.100
362.900	25.502	0.100
363.000	22.567	0.100
363.100	28.215	0.100
363.200	19.468	0.100
363.300	12.572	0.100
363.400	35.099	0.100
363.500	40.180	0.100
363.600	32.923	0.100
363.700	25.160	0.100
363.800	30.352	0.100
363.900	21.976	0.100
364.000	12.394	0.100
364.100	20.310	0.100
364.200	24.457	0.100
364.300	19.142	0.100
364.400	30.579	0.100
364.500	24.062	0.100
364.600	17.554	0.100
364.700	35.189	0.100
364.800	25.859	0.100
364.900	26.065	0.100
365.000	13.190	0.100
365.100	30.075	0.100
365.200	24.717	0.100
365.300	24.139	0.100
365.400	37.173	0.100
365.500	24.644	0.100
365.600	23.878	0.100
365.700	19.793	0.100
365.800	23.805	0.100
365.900	27.765	0.100
366.000	8.336	0.100
366.100	27.497	0.100
366.200	25.136	0.100
366.300	23.911	0.100
366.400	23.381	0.100
366.500	26.449	0.100
366.600	18.824	0.100
366.700	23.101	0.100
366.800	25.536	0.100
366.900	16.807	0.100
367.000	20.678	0.100
367.100	16.665	0.100
367.200	22.515	0.100
367.300	19.737	0.100
367.400	32.520	0.100
367.500	24.450	0.100
367.600	16.479	0.100
367.700	24.918	0.100
367.800	16.827	0.100
367.900	15.638	0.100
368.000	26.060	0.100
368.100	34.206	0.100
368.200	28.052	0.100
368.300	26.771	0.100
368.400	25.548	0.100
368.500	28.496	0.100
368.600	19.635	0.100
368.700	21.260	0.100
368.800	24.086	0.100
368.900	22.998	0.100
369.000	26.628	0.100
369.100	25.805	0.100
369.200	30.718	0.100
369.300	23.124	0.100
369.400	26.389	0.100
369.500	28.017	0.100
369.600	27.002	0.100
369.700	22.285	0.100
369.800	13.329	0.100
369.900	19.580	0.100
370.000	22.780	0.100
370.100	15.572	0.100
370.200	27.007	0.100
370.300	17.517	0.100
370.400	21.893	0.100
370.500	19.057	0.100
370.600	24.207	0.100
370.700	24.709	0.100
370.800	15.300	0.100
370.900	24.895	0.100
371.000	22.167	0.100
371.100	27.178	0.100
371.200	30.040	0.100
371.300	30.925	0.100
371.400	17.122	0.100
371.500	25.337	0.100
371.600	23.577	0.100
371.700	18.962	0.100
371.800	24.916	0.100
371.900	15.894	0.100
372.000	29.367	0.100
372.100	23.151	0.100
372.200	7.446	0.100
372.300	7.372	0.100
372.400	19.423	0.100
372.500	17.264	0.100
372.600	34.120	0.100
372.700	17.462	0.100
372.800	29.959	0.100
372.900	12.935	0.100
373.000	13.411	0.100
373.100	21.917	0.100
373.200	26.872	0.100
373.300	26.041	0.100
373.400	37.216	0.100
373.500	11.921	0.100
373.600	23.593	0.100
373.700	22.583	0.100
373.800	28.081	0.100
373.900	22.071	0.100
374.000	21.270	0.100
374.100	25.620	0.100
374.200	28.431	0.100
374.300	4.987	0.100
374.400	33.187	0.100
374.500	4.998	0.100
374.600	24.161	0.100
374.700	18.817	0.100
374.800	24.267	0.100
374.900	21.089	0.100
375.000	11.580	0.100
375.100	21.770	0.100
375.200	24.877	0.100
375.300	18.977	0.100
375.400	17.334	0.100
375.500	18.402	0.100
375.600	41.368	0.100
375.700	21.025	0.100
375.800	34.984	0.100
375.900	22.288	0.100
376.000	17.958	0.100
376.100	19.055	0.100
376.200	31.802	0.100
376.300	19.705	0.100
376.400	25.582	0.100
376.500	25.027	0.100
376.600	21.746	0.100
376.700	26.405	0.100
376.800	15.714	0.100
376.900	32.061	0.100
377.000	23.426	0.100
377.100	11.879	0.100
377.200	9.150	0.100
377.300	29.707	0.100
377.400	26.038	0.100
377.500	20.903	0.100
377.600	21.180	0.100
377.700	38.974	0.100
377.800	12.917	0.100
377.900	15.234	0.100
378.000	14.567	0.100
378.100	7.949	0.100
378.200	18.836	0.100
378.300	28.545	0.100
378.400	28.221	0.100
378.500	36.053	0.100
378.600	23.050	0.100
378.700	26.242	0.100
378.800	20.330	0.100
378.900	25.721	0.100
379.000	20.184	0.100
379.100	25.834	0.100
379.200	16.617	0.100
379.300	26.600	0.100
379.400	19.460	0.100
379.500	28.750	0.100
379.600	19.222	0.100
379.700	19.194	0.100
379.800	28.235	0.100
379.900	24.716	0.100
380.000	14.388	0.100
380.100	18.805	0.100
380.200	18.756	0.100
380.300	24.259	0.100
380.400	26.386	0.100
380.500	15.494	0.100
380.600	13.969	0.100
380.700	12.378	0.100
380.800	31.842	0.100
380.900	22.762	0.100
381.000	24.361	0.100
381.100	18.837	0.100
381.200	22.612	0.100
381.300	25.706	0.100
381.400	11.763	0.100
381.500	29.744	0.100
381.600	29.590	0.100
381.700	24.525	0.100
381.800	28.432	0.100
381.900	23.347	0.100
382.000	17.924	0.100
382.100	23.898	0.100
382.200	26.873	0.100
382.300	17.348	0.100
382.400	29.244	0.100
382.500	19.067	0.100
382.600	24.451	0.100
382.700	19.558	0.100
382.800	16.659	0.100
382.900	30.790	0.100
383.000	18.769	0.100
383.100	23.498	0.100
383.200	24.241	0.100
383.300	28.862	0.100
383.400	21.433	0.100
383.500	16.551	0.100
383.600	21.899	0.100
383.700	16.927	0.100
383.800	31.055	0.100
383.900	10.956	0.100
384.000	9.646	0.100
384.100	25.018	0.100
384.200	21.968	0.100
384.300	26.060	0.100
384.400	27.064	0.100
384.500	24.297	0.100
384.600	32.208	0.100
384.700	24.650	0.100
384.800	13.345	0.100
384.900	10.730	0.100
385.000	26.134	0.100
385.100	26.509	0.100
385.200	25.645	0.100
385.300	14.703	0.100
385.400	14.574	0.100
385.500	33.740	0.100
385.600	17.332	0.100
385.700	23.210	0.100
385.800	15.507	0.100
385.900	46.551	0.100
386.000	21.957	0.100
386.100	18.802	0.100
386.200	13.375	0.100
386.300	26.623	0.100
386.400	33.454	0.100
386.500	17.626	0.100
386.600	6.933	0.100
386.700	33.288	0.100
386.800	31.276	0.100
386.900	24.768	0.100
387.000	12.915	0.100
387.100	15.634	0.100
387.200	25.037	0.100
387.300	16.295	0.100
387.400	26.967	0.100
387.500	27.845	0.100
387.600	18.236	0.100
387.700	9.216	0.100
387.800	15.975	0.100
387.900	28.388	0.100
388.000	5.151	0.100
388.100	27.777	0.100
388.200	15.190	0.100
388.300	22.705	0.100
388.400	18.226	0.100
388.500	17.927	0.100
388.600	21.114	0.100
388.700	27.386	0.100
388.800	18.793	0.100
388.900	24.257	0.100
389.000	26.302	0.100
389.100	26.474	0.100
389.200	21.183	0.100
389.300	15.783	0.100
389.400	25.761	0.100
389.500	27.288	0.100
389.600	23.106	0.100
389.700	14.695	0.100
389.800	15.641	0.100
389.900	5.003	0.100
390.000	17.766	0.100
390.100	16.482	0.100
390.200	19.348	0.100
390.300	8.642	0.100
390.400	5.809	0.100
390.500	8.822	0.100
390.600	2.935	0.100
390.700	16.011	0.100
390.800	6.762	0.100
390.900	-0.303	0.100
391.000	-8.891	0.100
391.100	7.857	0.100
391.200	-7.266	0.100
391.300	-7.577	0.100
391.400	-12.831	0.100
391.500	-6.854	0.100
391.600	-8.106	0.100
391.700	-13.725	0.100
391.800	-4.905	0.100
391.900	-10.231	0.100
392.000	-13.937	0.100
392.100	-25.481	0.100
392.200	-9.404	0.100
392.300	-7.797	0.100
392.400	-27.723	0.100
392.500	-1.735	0.100
392.600	-16.852	0.100
392.700	-14.598	0.100
392.800	-13.595	0.100
392.900	-18.976	0.100
393.000	-15.067	0.100
393.100	-26.100	0.100
393.200	-9.587	0.100
393.300	-21.260	0.100
393.400	-12.995	0.100
393.500	-16.521	0.100
393.600	-9.067	0.100
393.700	-17.410	0.100
393.800	-21.222	0.100
393.900	-14.932	0.100
394.000	-15.084	0.100
394.100	-13.628	0.100
394.200	-19.259	0.100
394.300	-19.328	0.100
394.400	-14.573	0.100
394.500	-22.362	0.100
394.600	-8.568	0.100
394.700	-5.812	0.100
394.800	-10.761	0.100
394.900	-30.837	0.100
395.000	-10.854	0.100
395.100	-3.467	0.100
395.200	-23.556	0.100
395.300	-16.245	0.100
395.400	-18.430	0.100
395.500	-10.872	0.100
395.600	-14.709	0.100
395.700	-1.436	0.100
395.800	-0.671	0.100
395.900	-12.413	0.100
396.000	-12.827	0.100
396.100	-16.054	0.100
396.200	-8.993	0.100
396.300	-4.174	0.100
396.400	-4.988	0.100
396.500	-15.287	0.100
396.600	-2.421	0.100
396.700	-26.707	0.100
396.800	-17.490	0.100
396.900	-9.085	0.100
397.000	-8.202	0.100
397.100	-14.564	0.100
397.200	-9.963	0.100
397.300	1.466	0.100
397.400	-1.653	0.100
397.500	-14.018	0.100
397.600	-27.375	0.100
397.700	-3.506	0.100
397.800	-19.826	0.100
397.900	-11.354	0.100
398.000	1.305	0.100
398.100	-9.740	0.100
398.200	-9.033	0.100
398.300	-0.853	0.100
398.400	-4.994	0.100
398.500	-1.854	0.100
398.600	-12.781	0.100
398.700	-11.009	0.100
398.800	6.079	0.100
398.900	5.652	0.100
399.000	-13.458	0.100
399.100	-19.706	0.100
399.200	-9.687	0.100
399.300	-10.519	0.100
399.400	-7.666	0.100
399.500	-12.049	0.100
399.600	-16.428	0.100
399.700	-13.661	0.100
399.800	-18.407	0.100
399.900	-23.095	0.100
400.000	-4.836	0.100
400.100	-2.170	0.100
400.200	-6.398	0.100
400.300	-0.863	0.100
400.400	-22.340	0.100
400.500	-17.209	0.100
400.600	-19.194	0.100
400.700	-15.756	0.100
400.800	-14.861	0.100
400.900	-19.756	0.100
401.000	-12.634	0.100
401.100	-8.964	0.100
401.200	2.336	0.100
401.300	-6.195	0.100
401.400	-9.882	0.100
401.500	-6.178	0.100
401.600	-1.595	0.100
401.700	-8.700	0.100
401.800	-20.882	0.100
401.900	-6.551	0.100
402.000	-12.405	0.100
402.100	-5.537	0.100
402.200	-27.547	0.100
402.300	-22.947	0.100
402.400	-1.876	0.100
402.500	-5.627	0.100
402.600	-11.461	0.100
402.700	-9.952	0.100
402.800	-19.721	0.100
402.900	-29.512	0.100
403.000	-15.353	0.100
403.100	-17.161	0.100
403.200	-0.772	0.100
403.300	-2.492	0.100
403.400	-12.490	0.100
403.500	-11.396	0.100
403.600	-18.069	0.100
403.700	-10.644	0.100
403.800	-11.172	0.100
403.900	-16.103	0.100
404.000	-11.313	0.100
404.100	-10.297	0.100
404.200	-15.225	0.100
404.300	-23.955	0.100
404.400	-7.669	0.100
404.500	-3.546	0.100
404.600	-3.407	0.100
404.700	-5.722	0.100
404.800	-24.374	0.100
404.900	-13.037	0.100
405.000	-6.413	0.100
405.100	-14.988	0.100
405.200	-2.910	0.100
405.300	-10.785	0.100
405.400	-14.956	0.100
405.500	-19.676	0.100
405.600	-8.323	0.100
405.700	-14.196	0.100
405.800	-20.671	0.100
405.900	-10.791	0.100
406.000	-19.534	0.100
406.100	1.674	0.100
406.200	-10.012	0.100
406.300	-4.404	0.100
406.400	-18.303	0.100
406.500	-18.864	0.100
406.600	-19.054	0.100
406.700	-1.483	0.100
406.800	0.492	0.100
406.900	-14.482	0.100
407.000	-7.494	0.100
407.100	-18.995	0.100
407.200	-7.868	0.100
407.300	-16.941	0.100
407.400	-0.953	0.100
407.500	-10.011	0.100
407.600	-14.654	0.100
407.700	-6.547	0.100
407.800	-19.020	0.100
407.900	-11.490	0.100
408.000	-10.154	0.100
408.100	-13.270	0.100
408.200	-17.062	0.100
408.300	-13.191	0.100
408.400	-19.892	0.100
408.500	-6.795	0.100
408.600	-1.169	0.100
408.700	-6.292	0.100
408.800	-1.897	0.100
408.900	-9.835	0.100
409.000	-27.912	0.100
409.100	-11.186	0.100
409.200	-19.168	0.100
409.300	-19.406	0.100
409.400	-13.644	0.100
409.500	-15.298	0.100
409.600	0.955	0.100
409.700	1.315	0.100
409.800	-2.746	0.100
409.900	-6.208	0.100
410.000	-7.612	0.100
410.100	-24.859	0.100
410.200	-12.218	0.100
410.300	-0.747	0.100
410.400	-9.695	0.100
410.500	-10.721	0.100
410.600	-18.853	0.100
410.700	-11.109	0.100
410.800	-18.563	0.100
410.900	-6.650	0.100
411.000	-10.199	0.100
411.100	-17.930	0.100
411.200	-26.979	0.100
411.300	-16.543	0.100
411.400	-11.312	0.100
411.500	-3.765	0.100
411.600	-13.680	0.100
411.700	-8.314	0.100
411.800	-4.465	0.100
411.900	-19.803	0.100
412.000	0.513	0.100
412.100	-13.156	0.100
412.200	-11.863	0.100
412.300	-7.979	0.100
412.400	-6.112	0.100
412.500	-24.379	0.100
412.600	-17.366	0.100
412.700	-4.410	0.100
412.800	-9.310	0.100
412.900	-9.198	0.100
413.000	-11.139	0.100
413.100	-22.129	0.100
413.200	-19.159	0.100
413.300	-11.993	0.100
413.400	-3.540	0.100
413.500	-7.926	0.100
413.600	-5.975	0.100
413.700	2.945	0.100
413.800	-7.042	0.100
413.900	-14.061	0.100
414.000	-20.677	0.100
414.100	-37.786	0.100
414.200	-27.479	0.100
414.300	-17.534	0.100
414.400	-14.660	0.100
414.500	-9.198	0.100
414.600	-13.249	0.100
414.700	-23.142	0.100
414.800	-30.609	0.100
414.900	-10.683	0.100
415.000	-5.605	0.100
415.100	-7.739	0.100
415.200	-9.523	0.100
415.300	-20.427	0.100
415.400	3.114	0.100
415.500	1.951	0.100
415.600	-5.828	0.100
415.700	-33.629	0.100
415.800	-13.236	0.100
415.900	-24.704	0.100
416.000	-27.737	0.100
416.100	-11.113	0.100
416.200	-14.517	0.100
416.300	-16.461	0.100
416.400	-23.006	0.100
416.500	-6.774	0.100
416.600	-13.203	0.100
416.700	4.641	0.100
416.800	-5.317	0.100
416.900	-14.756	0.100
417.000	-1.417	0.100
417.100	-23.938	0.100
417.200	-30.447	0.100
417.300	-20.686	0.100
417.400	-8.069	0.100
417.500	-4.817	0.100
417.600	-16.523	0.100
417.700	-7.319	0.100
417.800	-20.560	0.100
417.900	-16.002	0.100
418.000	-7.403	0.100
418.100	-16.040	0.100
418.200	-16.318	0.100
418.300	-19.207	0.100
418.400	-10.575	0.100
418.500	-16.795	0.100
418.600	-2.770	0.100
418.700	-1.051	0.100
418.800	-9.192	0.100
418.900	-20.426	0.100
419.000	-15.556	0.100
419.100	-5.922	0.100
419.200	-7.677	0.100
419.300	-14.926	0.100
419.400	-13.617	0.100
419.500	-23.915	0.100
419.600	-8.159	0.100
419.700	-9.080	0.100
419.800	-16.250	0.100
419.900	-14.678	0.100
420.000	-4.134	0.100
420.100	-17.708	0.100
420.200	-23.212	0.100
420.300	-9.265	0.100
420.400	-14.563	0.100
420.500	-11.285	0.100
420.600	1.575	0.100
420.700	-20.130	0.100
420.800	-2.585	0.100
420.900	-13.529	0.100
421.000	-15.133	0.100
421.100	-20.660	0.100
421.200	-16.816	0.100
421.300	-12.897	0.100
421.400	-7.437	0.100
421.500	-7.162	0.100
421.600	-9.373	0.100
421.700	-9.797	0.100
421.800	-12.219	0.100
421.900	-6.634	0.100
422.000	-18.574	0.100
422.100	-21.429	0.100
422.200	-17.278	0.100
422.300	9.663	0.100
422.400	-12.720	0.100
422.500	-19.204	0.100
422.600	-17.284	0.100
422.700	-6.823	0.100
422.800	-12.553	0.100
422.900	-12.372	0.100
423.000	-19.611	0.100
423.100	-20.076	0.100
423.200	-26.256	0.100
423.300	-8.307	0.100
423.400	-2.005	0.100
423.500	-12.979	0.100
423.600	-24.446	0.100
423.700	-17.644	0.100
423.800	-27.048	0.100
423.900	-12.682	0.100
424.000	-23.563	0.100
424.100	-18.035	0.100
424.200	-5.075	0.100
424.300	-8.130	0.100
424.400	-3.922	0.100
424.500	-11.139	0.100
424.600	-23.346	0.100
424.700	-17.317	0.100
424.800	-2.785	0.100
424.900	-17.429	0.100
425.000	-15.726	0.100
425.100	-14.059	0.100
425.200	-12.849	0.100
425.300	-14.211	0.100
425.400	-6.912	0.100
425.500	-15.016	0.100
425.600	-2.990	0.100
425.700	-5.370	0.100
425.800	-16.552	0.100
425.900	-16.440	0.100
426.000	-13.815	0.100
426.100	-18.946	0.100
426.200	-0.612	0.100
426.300	-4.721	0.100
426.400	-7.066	0.100
426.500	-26.921	0.100
426.600	-25.774	0.100
426.700	-3.101	0.100
426.800	-17.029	0.100
426.900	-10.826	0.100
427.000	-10.600	0.100
427.100	-14.331	0.100
427.200	-12.069	0.100
427.300	-16.972	0.100
427.400	-26.317	0.100
427.500	-19.437	0.100
427.600	-2.357	0.100
427.700	0.013	0.100
427.800	-18.517	0.100
427.900	-3.734	0.100
428.000	-8.669	0.100
428.100	-21.246	0.100
428.200	-6.461	0.100
428.300	-15.360	0.100
428.400	-5.603	0.100
428.500	-19.565	0.100
428.600	0.238	0.100
428.700	-9.429	0.100
428.800	-26.057	0.100
428.900	-17.487	0.100
429.000	-20.168	0.100
429.100	-16.105	0.100
429.200	-15.810	0.100
429.300	-6.724	0.100
429.400	-10.244	0.100
429.500	-17.773	0.100
429.600	-17.893	0.100
429.700	-9.121	0.100
429.800	-8.775	0.100
429.900	-12.651	0.100
430.000	-8.860	0.100
430.100	-19.497	0.100
430.200	-8.783	0.100
430.300	-21.776	0.100
430.400	-8.754	0.100
430.500	-9.037	0.100
430.600	-12.442	0.100
430.700	-21.122	0.100
430.800	-8.100	0.100
430.900	-5.339	0.100
431.000	-29.706	0.100
431.100	0.845	0.100
431.200	-16.006	0.100
431.300	-9.039	0.100
431.400	-12.851	0.100
431.500	-11.946	0.100
431.600	-8.403	0.100
431.700	-19.614	0.100
431.800	-22.989	0.100
431.900	-14.049	0.100
432.000	-25.132	0.100
432.100	-16.380	0.100
432.200	-18.655	0.100
432.300	-12.115	0.100
432.400	-12.822	0.100
432.500	-11.859	0.100
432.600	-18.185	0.100
432.700	-21.894	0.100
432.800	-17.851	0.100
432.900	-3.849	0.100
433.000	-12.764	0.100
433.100	-17.327	0.100
433.200	-7.915	0.100
433.300	-30.271	0.100
433.400	-7.493	0.100
433.500	3.697	0.100
433.600	-0.290	0.100
433.700	-8.941	0.100
433.800	-25.651	0.100
433.900	-18.967	0.100
434.000	-14.893	0.100
434.100	1.004	0.100
434.200	-13.345	0.100
434.300	-19.901	0.100
434.400	-14.800	0.100
434.500	-17.267	0.100
434.600	-4.845	0.100
434.700	-0.604	0.100
434.800	-6.539	0.100
434.900	-19.169	0.100
435.000	-6.985	0.100
435.100	-3.195	0.100
435.200	-21.532	0.100
435.300	-19.042	0.100
435.400	-24.950	0.100
435.500	-10.671	0.100
435.600	-7.887	0.100
435.700	-11.092	0.100
435.800	-2.881	0.100
435.900	-8.351	0.100
436.000	-25.285	0.100
436.100	-10.242	0.100
436.200	-13.145	0.100
436.300	-16.353	0.100
436.400	-21.484	0.100
436.500	-14.292	0.100
436.600	-11.790	0.100
436.700	-10.159	0.100
436.800	-5.534	0.100
436.900	-2.914	0.100
437.000	-9.035	0.100
437.100	-13.814	0.100
437.200	-7.598	0.100
437.300	-0.109	0.100
437.400	-12.046	0.100
437.500	-13.580	0.100
437.600	-8.555	0.100
437.700	-8.987	0.100
437.800	-14.651	0.100
437.900	-22.535	0.100
438.000	-14.480	0.100
438.100	-8.601	0.100
438.200	-6.316	0.100
438.300	-18.679	0.100
438.400	-15.487	0.100
438.500	-12.360	0.100
438.600	-10.806	0.100
438.700	-25.137	0.100
438.800	-10.239	0.100
438.900	-3.537	0.100
439.000	-5.070	0.100
439.100	-4.561	0.100
439.200	-17.863	0.100
439.300	-2.999	0.100
439.400	-15.337	0.100
439.500	-7.907	0.100
439.600	-16.743	0.100
439.700	-18.421	0.100
439.800	-17.844	0.100
439.900	-12.094	0.100
440.000	-12.568	0.100
440.100	-13.924	0.100
440.200	-9.125	0.100
440.300	-8.559	0.100
440.400	-6.701	0.100
440.500	-18.376	0.100
440.600	-23.401	0.100
440.700	0.051	0.100
440.800	-28.417	0.100
440.900	-25.232	0.100
441.000	-2.113	0.100
441.100	-11.299	0.100
441.200	-4.912	0.100
441.300	-17.508	0.100
441.400	-19.645	0.100
441.500	6.285	0.100
441.600	-7.652	0.100
441.700	-15.389	0.100
441.800	-14.816	0.100
441.900	-21.281	0.100
442.000	-12.028	0.100
442.100	-3.774	0.100
442.200	-11.148	0.100
442.300	0.713	0.100
442.400	-25.442	0.100
442.500	-13.799	0.100
442.600	-22.423	0.100
442.700	-5.325	0.100
442.800	5.468	0.100
442.900	-21.972	0.100
443.000	-8.689	0.100
443.100	-9.138	0.100
443.200	-5.528	0.100
443.300	-20.040	0.100
443.400	-9.840	0.100
443.500	-13.737	0.100
443.600	-15.629	0.100
443.700	-8.236	0.100
443.800	-13.232	0.100
443.900	-4.853	0.100
444.000	-12.521	0.100
444.100	0.210	0.100
444.200	-7.976	0.100
444.300	-15.552	0.100
444.400	-29.943	0.100
444.500	-8.776	0.100
444.600	-17.399	0.100
444.700	4.282	0.100
444.800	-2.160	0.100
444.900	-9.337	0.100
445.000	-18.978	0.100
445.100	-10.775	0.100
445.200	-12.083	0.100
445.300	-8.275	0.100
445.400	-14.190	0.100
445.500	-15.329	0.100
445.600	-23.352	0.100
445.700	-24.267	0.100
445.800	7.403	0.100
445.900	-9.481	0.100
446.000	-14.099	0.100
446.100	-13.229	0.100
446.200	-17.075	0.100
446.300	-8.265	0.100
446.400	-9.830	0.100
446.500	-4.376	0.100
446.600	-17.975	0.100
446.700	-20.582	0.100
446.800	-18.135	0.100
446.900	-2.481	0.100
447.000	-7.709	0.100
447.100	0.398	0.100
447.200	-16.971	0.100
447.300	-14.683	0.100
447.400	-22.888	0.100
447.500	6.131	0.100
447.600	-8.796	0.100
447.700	-8.388	0.100
447.800	-6.849	0.100
447.900	3.072	0.100
448.000	-4.201	0.100
448.100	-10.682	0.100
448.200	-9.671	0.100
448.300	-26.719	0.100
448.400	-24.751	0.100
448.500	-7.563	0.100
448.600	-11.112	0.100
448.700	-14.729	0.100
448.800	-16.764	0.100
448.900	-15.714	0.100
449.000	5.458	0.100
449.100	-18.881	0.100
449.200	-5.802	0.100
449.300	-7.557	0.100
449.400	12.148	0.100
449.500	10.037	0.100
449.600	-5.555	0.100
449.700	-8.527	0.100
449.800	-21.380	0.100
449.900	-33.224	0.100
450.000	-19.314	0.100
450.100	-11.780	0.100
450.200	-8.599	0.100
450.300	-27.970	0.100
450.400	-4.181	0.100
450.500	-5.106	0.100
450.600	-5.581	0.100
450.700	-8.471	0.100
450.800	-26.789	0.100
450.900	8.450	0.100
451.000	-9.191	0.100
451.100	-9.137	0.100
451.200	-30.289	0.100
451.300	-13.450	0.100
451.400	-22.415	0.100
451.500	-9.260	0.100
451.600	-3.725	0.100
451.700	-12.345	0.100
451.800	-4.984	0.100
451.900	-13.443	0.100
452.000	-4.932	0.100
452.100	-12.125	0.100
452.200	-11.288	0.100
452.300	-11.104	0.100
452.400	-12.281	0.100
452.500	-21.497	0.100
452.600	-19.090	0.100
452.700	-3.026	0.100
452.800	-16.910	0.100
452.900	-20.162	0.100
453.000	-25.623	0.100
453.100	-16.290	0.100
453.200	0.706	0.100
453.300	-0.003	0.100
453.400	-2.834	0.100
453.500	-10.963	0.100
453.600	14.989	0.100
453.700	0.111	0.100
453.800	-7.774	0.100
453.900	-11.228	0.100
454.000	-27.831	0.100
454.100	5.072	0.100
454.200	1.495	0.100
454.300	-12.860	0.100
454.400	5.060	0.100
454.500	-16.903	0.100
454.600	-27.545	0.100
454.700	-14.409	0.100
454.800	-11.440	0.100
454.900	-14.315	0.100
455.000	-30.756	0.100
455.100	-15.879	0.100
455.200	-5.370	0.100
455.300	-1.437	0.100
455.400	-7.496	0.100
455.500	-4.686	0.100
455.600	-1.799	0.100
455.700	-7.135	0.100
455.800	-7.614	0.100
455.900	-3.883	0.100
456.000	-7.693	0.100
456.100	-2.824	0.100
456.200	-27.614	0.100
456.300	0.157	0.100
456.400	-4.442	0.100
456.500	2.678	0.100
456.600	-3.439	0.100
456.700	-7.039	0.100
456.800	-14.060	0.100
456.900	-24.480	0.100
457.000	-7.630	0.100
457.100	-21.215	0.100
457.200	-6.330	0.100
457.300	-15.198	0.100
457.400	-3.389	0.100
457.500	-6.962	0.100
457.600	-5.712	0.100
457.700	-16.203	0.100
457.800	-13.092	0.100
457.900	-7.159	0.100
458.000	-5.754	0.100
458.100	-4.508	0.100
458.200	-12.724	0.100
458.300	-12.971	0.100
458.400	-6.731	0.100
458.500	-6.779	0.100
458.600	-6.418	0.100
458.700	-13.551	0.100
458.800	-24.744	0.100
458.900	-26.133	0.100
459.000	1.687	0.100
459.100	2.485	0.100
459.200	1.087	0.100
459.300	0.407	0.100
459.400	-7.008	0.100
459.500	-9.758	0.100
459.600	-21.339	0.100
459.700	-10.844	0.100
459.800	-8.167	0.100
459.900	-11.494	0.100
460.000	-6.735	0.100
460.100	-7.257	0.100
460.200	-2.455	0.100
460.300	-2.448	0.100
460.400	-13.429	0.100
460.500	-6.390	0.100
460.600	-8.750	0.100
460.700	-20.518	0.100
460.800	-10.873	0.100
460.900	-11.591	0.100
461.000	-16.955	0.100
461.100	-13.660	0.100
461.200	-16.943	0.100
461.300	2.919	0.100
461.400	3.377	0.100
461.500	1.458	0.100
461.600	-5.362	0.100
461.700	-8.593	0.100
461.800	-8.079	0.100
461.900	-15.144	0.100
462.000	-4.431	0.100
462.100	-4.775	0.100
462.200	-17.525	0.100
462.300	-13.280	0.100
462.400	-5.729	0.100
462.500	-4.956	0.100
462.600	-22.114	0.100
462.700	-27.932	0.100
462.800	-3.538	0.100
462.900	-1.340	0.100
463.000	-1.752	0.100
463.100	-9.151	0.100
463.200	-14.137	0.100
463.300	6.203	0.100
463.400	-2.538	0.100
463.500	-9.499	0.100
463.600	-23.006	0.100
463.700	-12.177	0.100
463.800	-4.491	0.100
463.900	-13.738	0.100
464.000	-8.160	0.100
464.100	-4.929	0.100
464.200	-24.727	0.100
464.300	-9.516	0.100
464.400	-0.851	0.100
464.500	-14.505	0.100
464.600	-9.995	0.100
464.700	-4.332	0.100
464.800	2.271	0.100
464.900	5.579	0.100
465.000	-1.260	0.100
465.100	-6.705	0.100
465.200	-15.646	0.100
465.300	-24.935	0.100
465.400	-9.766	0.100
465.500	-10.756	0.100
465.600	-9.258	0.100
465.700	-8.139	0.100
465.800	5.868	0.100
465.900	-8.203	0.100
466.000	-15.536	0.100
466.100	-10.756	0.100
466.200	2.036	0.100
466.300	-17.741	0.100
466.400	-4.304	0.100
466.500	-10.164	0.100
466.600	-5.056	0.100
466.700	-8.960	0.100
466.800	-12.345	0.100
466.900	-27.989	0.100
467.000	2.381	0.100
467.100	-3.759	0.100
467.200	-7.873	0.100
467.300	-4.969	0.100
467.400	-8.937	0.100
467.500	-5.940	0.100
467.600	-6.193	0.100
467.700	-4.735	0.100
467.800	-10.407	0.100
467.900	-17.046	0.100
468.000	-7.088	0.100
468.100	-16.290	0.100
468.200	-10.916	0.100
468.300	-2.477	0.100
468.400	0.188	0.100
468.500	-2.847	0.100
468.600	-9.218	0.100
468.700	-13.028	0.100
468.800	-6.332	0.100
468.900	-22.678	0.100
469.000	-1.297	0.100
469.100	-3.579	0.100
469.200	-7.981	0.100
469.300	-3.105	0.100
469.400	-5.179	0.100
469.500	-9.819	0.100
469.600	-3.281	0.100
469.700	-4.136	0.100
469.800	-13.554	0.100
469.900	-18.967	0.100
470.000	-9.724	0.100
470.100	-2.296	0.100
470.200	-8.867	0.100
470.300	4.168	0.100
470.400	-12.693	0.100
470.500	-15.451	0.100
470.600	-9.150	0.100
470.700	-1.535	0.100
470.800	-13.162	0.100
470.900	-21.020	0.100
471.000	-4.971	0.100
471.100	-6.044	0.100
471.200	-18.157	0.100
471.300	5.959	0.100
471.400	-14.896	0.100
471.500	-12.334	0.100
471.600	-3.967	0.100
471.700	-4.244	0.100
471.800	-17.767	0.100
471.900	-4.484	0.100
472.000	2.390	0.100
472.100	-7.702	0.100
472.200	-6.578	0.100
472.300	-3.196	0.100
472.400	-15.411	0.100
472.500	-3.111	0.100
472.600	-7.156	0.100
472.700	-7.247	0.100
472.800	-23.797	0.100
472.900	-11.527	0.100
473.000	-18.162	0.100
473.100	-20.467	0.100
473.200	-13.084	0.100
473.300	-11.589	0.100
473.400	-7.945	0.100
473.500	-14.518	0.100
473.600	-14.461	0.100
473.700	-13.611	0.100
473.800	-9.082	0.100
473.900	10.344	0.100
474.000	5.470	0.100
474.100	-11.407	0.100
474.200	-8.733	0.100
474.300	-7.314	0.100
474.400	-18.065	0.100
474.500	-4.556	0.100
474.600	-1.221	0.100
474.700	-1.295	0.100
474.800	-6.854	0.100
474.900	-21.585	0.100
475.000	-17.450	0.100
475.100	-5.414	0.100
475.200	-4.840	0.100
475.300	-20.418	0.100
475.400	-18.226	0.100
475.500	-12.389	0.100
475.600	-5.176	0.100
475.700	-17.455	0.100
475.800	-7.668	0.100
475.900	-1.225	0.100
476.000	-20.335	0.100
476.100	12.964	0.100
476.200	-0.597	0.100
476.300	-3.107	0.100
476.400	-6.173	0.100
476.500	-8.528	0.100
476.600	-21.815	0.100
476.700	-21.881	0.100
476.800	-20.226	0.100
476.900	-10.807	0.100
477.000	-7.471	0.100
477.100	-8.706	0.100
477.200	11.018	0.100
477.300	2.106	0.100
477.400	-8.710	0.100
477.500	-5.639	0.100
477.600	-9.830	0.100
477.700	-3.326	0.100
477.800	-2.513	0.100
477.900	-12.850	0.100
478.000	-8.804	0.100
478.100	-7.564	0.100
478.200	0.529	0.100
478.300	-10.462	0.100
478.400	-21.671	0.100
478.500	-5.121	0.100
478.600	-7.919	0.100
478.700	-8.866	0.100
478.800	-3.508	0.100
478.900	-6.904	0.100
479.000	-10.912	0.100
479.100	-15.920	0.100
479.200	-13.082	0.100
479.300	-13.632	0.100
479.400	-5.559	0.100
479.500	-11.439	0.100
479.600	1.983	0.100
479.700	-16.355	0.100
479.800	-15.572	0.100
479.900	-1.602	0.100
480.000	0.061	0.100
480.100	8.550	0.100
480.200	8.690	0.100
480.300	11.263	0.100
480.400	8.102	0.100
480.500	13.008	0.100
480.600	14.169	0.100
480.700	19.278	0.100
480.800	18.398	0.100
480.900	31.410	0.100
481.000	14.307	0.100
481.100	19.450	0.100
481.200	24.967	0.100
481.300	34.105	0.100
481.400	27.031	0.100
481.500	33.218	0.100
481.600	19.074	0.100
481.700	24.395	0.100
481.800	34.391	0.100
481.900	30.526	0.100
482.000	24.089	0.100
482.100	39.518	0.100
482.200	32.381	0.100
482.300	31.481	0.100
482.400	25.846	0.100
482.500	25.195	0.100
482.600	33.029	0.100
482.700	31.054	0.100
482.800	32.711	0.100
482.900	31.820	0.100
483.000	20.948	0.100
483.100	21.436	0.100
483.200	29.746	0.100
483.300	25.633	0.100
483.400	27.858	0.100
483.500	19.055	0.100
483.600	23.703	0.100
483.700	27.001	0.100
483.800	27.531	0.100
483.900	31.205	0.100
484.000	31.507	0.100
484.100	29.897	0.100
484.200	23.854	0.100
484.300	33.484	0.100
484.400	21.912	0.100
484.500	27.204	0.100
484.600	23.312	0.100
484.700	28.047	0.100
484.800	28.439	0.100
484.900	13.246	0.100
485.000	14.948	0.100
485.100	24.334	0.100
485.200	29.344	0.100
485.300	20.452	0.100
485.400	6.317	0.100
485.500	14.530	0.100
485.600	14.725	0.100
485.700	21.601	0.100
485.800	16.655	0.100
485.900	24.562	0.100
486.000	16.731	0.100
486.100	23.415	0.100
486.200	24.052	0.100
486.300	20.518	0.100
486.400	19.442	0.100
486.500	7.815	0.100
486.600	13.160	0.100
486.700	14.612	0.100
486.800	9.045	0.100
486.900	13.382	0.100
487.000	16.280	0.100
487.100	20.221	0.100
487.200	27.279	0.100
487.300	15.303	0.100
487.400	18.653	0.100
487.500	16.657	0.100
487.600	9.571	0.100
487.700	11.852	0.100
487.800	7.127	0.100
487.900	20.344	0.100
488.000	21.171	0.100
488.100	23.399	0.100
488.200	22.221	0.100
488.300	12.245	0.100
488.400	20.084	0.100
488.500	13.983	0.100
488.600	6.045	0.100
488.700	25.768	0.100
488.800	23.540	0.100
488.900	5.249	0.100
489.000	6.605	0.100
489.100	6.493	0.100
489.200	18.899	0.100
489.300	15.848	0.100
489.400	16.998	0.100
489.500	29.396	0.100
489.600	26.663	0.100
489.700	14.606	0.100
489.800	11.796	0.100
489.900	4.484	0.100
490.000	21.970	0.100
490.100	17.060	0.100
490.200	25.091	0.100
490.300	5.353	0.100
490.400	18.719	0.100
490.500	27.252	0.100
490.600	11.398	0.100
490.700	19.586	0.100
490.800	19.701	0.100
490.900	10.839	0.100
491.000	20.442	0.100
491.100	11.812	0.100
491.200	6.997	0.100
491.300	9.242	0.100
491.400	12.983	0.100
491.500	18.795	0.100
491.600	7.737	0.100
491.700	19.995	0.100
491.800	7.997	0.100
491.900	16.779	0.100
492.000	18.972	0.100
492.100	25.735	0.100
492.200	10.083	0.100
492.300	12.577	0.100
492.400	8.326	0.100
492.500	21.613	0.100
492.600	23.069	0.100
492.700	24.930	0.100
492.800	26.604	0.100
492.900	9.628	0.100
493.000	7.794	0.100
493.100	15.242	0.100
493.200	29.878	0.100
493.300	13.934	0.100
493.400	2.772	0.100
493.500	8.079	0.100
493.600	13.078	0.100
493.700	15.942	0.100
493.800	20.361	0.100
493.900	11.102	0.100
494.000	10.308	0.100
494.100	26.912	0.100
494.200	9.959	0.100
494.300	25.186	0.100
494.400	18.283	0.100
494.500	6.880	0.100
494.600	22.472	0.100
494.700	21.116	0.100
494.800	15.910	0.100
494.900	14.725	0.100
495.000	12.182	0.100
495.100	19.137	0.100
495.200	14.492	0.100
495.300	22.185	0.100
495.400	4.196	0.100
495.500	21.147	0.100
495.600	19.307	0.100
495.700	22.110	0.100
495.800	15.545	0.100
495.900	9.816	0.100
496.000	13.098	0.100
496.100	16.656	0.100
496.200	13.769	0.100
496.300	21.982	0.100
496.400	18.804	0.100
496.500	19.601	0.100
496.600	23.764	0.100
496.700	13.734	0.100
496.800	6.509	0.100
496.900	2.647	0.100
497.000	22.335	0.100
497.100	22.744	0.100
497.200	26.740	0.100
497.300	29.751	0.100
497.400	16.192	0.100
497.500	23.689	0.100
497.600	9.892	0.100
497.700	15.385	0.100
497.800	19.333	0.100
497.900	31.306	0.100
498.000	32.538	0.100
498.100	35.951	0.100
498.200	16.935	0.100
498.300	15.159	0.100
498.400	15.229	0.100
498.500	22.272	0.100
498.600	26.088	0.100
498.700	19.089	0.100
498.800	28.311	0.100
498.900	5.270	0.100
499.000	34.405	0.100
499.100	30.816	0.100
499.200	30.654	0.100
499.300	37.805	0.100
499.400	21.279	0.100
499.500	18.474	0.100
499.600	23.437	0.100
499.700	13.621	0.100
499.800	11.488	0.100
499.900	24.158	0.100
500.000	31.218	0.100
500.100	25.947	0.100
500.200	23.901	0.100
500.300	27.830	0.100
500.400	23.246	0.100
500.500	6.327	0.100
500.600	29.951	0.100
500.700	24.937	0.100
500.800	18.220	0.100
500.900	29.439	0.100
501.000	23.380	0.100
501.100	26.861	0.100
501.200	21.560	0.100
501.300	32.057	0.100
501.400	13.512	0.100
501.500	28.573	0.100
501.600	22.349	0.100
501.700	26.859	0.100
501.800	29.356	0.100
501.900	20.433	0.100
502.000	26.604	0.100
502.100	30.528	0.100
502.200	17.535	0.100
502.300	12.455	0.100
502.400	22.998	0.100
502.500	15.072	0.100
502.600	30.080	0.100
502.700	30.362	0.100
502.800	19.001	0.100
502.900	15.964	0.100
503.000	29.296	0.100
503.100	34.801	0.100
503.200	23.371	0.100
503.300	27.296	0.100
503.400	15.710	0.100
503.500	21.257	0.100
503.600	31.300	0.100
503.700	27.353	0.100
503.800	25.106	0.100
503.900	27.589	0.100
504.000	18.649	0.100
504.100	27.485	0.100
504.200	32.992	0.100
504.300	30.039	0.100
504.400	25.288	0.100
504.500	18.846	0.100
504.600	29.820	0.100
504.700	18.981	0.100
504.800	26.675	0.100
504.900	18.483	0.100
505.000	24.955	0.100
505.100	36.156	0.100
505.200	22.671	0.100
505.300	24.210	0.100
505.400	30.784	0.100
505.500	31.785	0.100
505.600	31.069	0.100
505.700	12.026	0.100
505.800	12.451	0.100
505.900	27.747	0.100
506.000	43.882	0.100
506.100	28.905	0.100
506.200	15.875	0.100
506.300	35.413	0.100
506.400	27.524	0.100
506.500	20.493	0.100
506.600	30.477	0.100
506.700	20.501	0.100
506.800	32.285	0.100
506.900	20.501	0.100
507.000	26.127	0.100
507.100	18.524	0.100
507.200	26.516	0.100
507.300	30.594	0.100
507.400	19.488	0.100
507.500	20.521	0.100
507.600	15.212	0.100
507.700	26.026	0.100
507.800	17.653	0.100
507.900	32.634	0.100
508.000	27.276	0.100
508.100	22.854	0.100
508.200	31.608	0.100
508.300	31.097	0.100
508.400	10.205	0.100
508.500	23.824	0.100
508.600	18.273	0.100
508.700	33.543	0.100
508.800	26.623	0.100
508.900	21.811	0.100
509.000	19.638	0.100
509.100	26.285	0.100
509.200	22.756	0.100
509.300	27.299	0.100
509.400	23.450	0.100
509.500	25.295	0.100
509.600	24.600	0.100
509.700	20.216	0.100
509.800	29.201	0.100
509.900	31.045	0.100
510.000	27.498	0.100
510.100	12.267	0.100
510.200	27.013	0.100
510.300	11.371	0.100
510.400	20.087	0.100
510.500	23.183	0.100
510.600	33.342	0.100
510.700	26.315	0.100
510.800	21.105	0.100
510.900	26.617	0.100
511.000	23.115	0.100
511.100	20.354	0.100
511.200	33.556	0.100
511.300	34.296	0.100
511.400	20.150	0.100
511.500	16.382	0.100
511.600	38.150	0.100
511.700	30.243	0.100
511.800	23.752	0.100
511.900	25.509	0.100
512.000	22.586	0.100
512.100	33.093	0.100
512.200	30.723	0.100
512.300	26.543	0.100
512.400	27.483	0.100
512.500	27.508	0.100
512.600	15.137	0.100
512.700	6.840	0.100
512.800	30.530	0.100
512.900	19.383	0.100
513.000	35.480	0.100
513.100	28.466	0.100
513.200	34.315	0.100
513.300	27.372	0.100
513.400	28.632	0.100
513.500	33.722	0.100
513.600	16.270	0.100
513.700	27.906	0.100
513.800	24.370	0.100
513.900	25.995	0.100
514.000	31.559	0.100
514.100	22.069	0.100
514.200	11.218	0.100
514.300	20.249	0.100
514.400	28.959	0.100
514.500	32.469	0.100
514.600	30.332	0.100
514.700	20.727	0.100
514.800	19.746	0.100
514.900	30.710	0.100
515.000	11.451	0.100
515.100	20.316	0.100
515.200	32.225	0.100
515.300	15.505	0.100
515.400	29.911	0.100
515.500	34.815	0.100
515.600	25.431	0.100
515.700	-0.393	0.100
515.800	17.427	0.100
515.900	18.845	0.100
516.000	29.636	0.100
516.100	33.641	0.100
516.200	27.348	0.100
516.300	29.771	0.100
516.400	18.232	0.100
516.500	23.379	0.100
516.600	30.154	0.100
516.700	32.627	0.100
516.800	25.364	0.100
516.900	30.352	0.100
517.000	26.077	0.100
517.100	16.656	0.100
517.200	18.610	0.100
517.300	26.828	0.100
517.400	23.531	0.100
517.500	18.632	0.100
517.600	25.741	0.100
517.700	22.878	0.100
517.800	8.573	0.100
517.900	33.983	0.100
518.000	26.320	0.100
518.100	23.613	0.100
518.200	30.618	0.100
518.300	30.125	0.100
518.400	7.368	0.100
518.500	16.005	0.100
518.600	38.580	0.100
518.700	27.398	0.100
518.800	26.678	0.100
518.900	12.733	0.100
519.000	25.759	0.100
519.100	10.836	0.100
519.200	11.526	0.100
519.300	26.077	0.100
519.400	34.154	0.100
519.500	24.220	0.100
519.600	23.534	0.100
519.700	24.461	0.100
519.800	31.952	0.100
519.900	22.266	0.100
520.000	9.282	0.100
520.100	17.567	0.100
520.200	34.520	0.100
520.300	36.190	0.100
520.400	22.770	0.100
520.500	24.452	0.100
520.600	25.678	0.100
520.700	11.083	0.100
520.800	28.055	0.100
520.900	22.404	0.100
521.000	31.732	0.100
521.100	22.923	0.100
521.200	38.088	0.100
521.300	19.588	0.100
521.400	13.563	0.100
521.500	19.199	0.100
521.600	29.394	0.100
521.700	30.976	0.100
521.800	24.338	0.100
521.900	27.014	0.100
522.000	22.430	0.100
522.100	27.076	0.100
522.200	23.924	0.100
522.300	13.789	0.100
522.400	23.599	0.100
522.500	20.770	0.100
522.600	16.974	0.100
522.700	22.668	0.100
522.800	35.088	0.100
522.900	10.249	0.100
523.000	16.862	0.100
523.100	26.869	0.100
523.200	31.806	0.100
523.300	29.439	0.100
523.400	33.515	0.100
523.500	13.392	0.100
523.600	13.962	0.100
523.700	14.483	0.100
523.800	15.685	0.100
523.900	33.514	0.100
524.000	21.581	0.100
524.100	31.549	0.100
524.200	14.746	0.100
524.300	21.196	0.100
524.400	33.743	0.100
524.500	12.533	0.100
524.600	21.807	0.100
524.700	49.427	0.100
524.800	28.896	0.100
524.900	19.541	0.100
525.000	19.510	0.100
525.100	16.247	0.100
525.200	4.141	0.100
525.300	26.467	0.100
525.400	39.734	0.100
525.500	14.631	0.100
525.600	28.462	0.100
525.700	20.857	0.100
525.800	11.135	0.100
525.900	20.440	0.100
526.000	14.216	0.100
526.100	23.294	0.100
526.200	21.337	0.100
526.300	17.331	0.100
526.400	11.418	0.100
526.500	21.311	0.100
526.600	19.084	0.100
526.700	19.211	0.100
526.800	26.204	0.100
526.900	19.150	0.100
527.000	22.193	0.100
527.100	27.734	0.100
527.200	47.707	0.100
527.300	27.083	0.100
527.400	7.023	0.100
527.500	18.465	0.100
527.600	23.453	0.100
527.700	29.663	0.100
527.800	22.011	0.100
527.900	31.575	0.100
528.000	25.306	0.100
528.100	12.985	0.100
528.200	8.890	0.100
528.300	18.308	0.100
528.400	26.703	0.100
528.500	31.298	0.100
528.600	19.565	0.100
528.700	26.412	0.100
528.800	28.715	0.100
528.900	19.233	0.100
529.000	18.830	0.100
529.100	36.596	0.100
529.200	30.449	0.100
529.300	17.458	0.100
529.400	27.732	0.100
529.500	33.655	0.100
529.600	23.053	0.100
529.700	9.413	0.100
529.800	23.130	0.100
529.900	34.427	0.100
530.000	29.030	0.100
530.100	6.564	0.100
530.200	26.785	0.100
530.300	26.906	0.100
530.400	26.785	0.100
530.500	24.008	0.100
530.600	19.535	0.100
530.700	13.471	0.100
530.800	25.348	0.100
530.900	19.189	0.100
531.000	24.701	0.100
531.100	18.233	0.100
531.200	31.086	0.100
531.300	24.610	0.100
531.400	19.369	0.100
531.500	22.890	0.100
531.600	14.495	0.100
531.700	34.628	0.100
531.800	35.094	0.100
531.900	32.570	0.100
532.000	23.127	0.100
532.100	26.836	0.100
532.200	19.189	0.100
532.300	17.075	0.100
532.400	12.393	0.100
532.500	41.082	0.100
532.600	30.776	0.100
532.700	21.031	0.100
532.800	12.421	0.100
532.900	16.579	0.100
533.000	15.629	0.100
533.100	18.623	0.100
533.200	28.849	0.100
533.300	26.503	0.100
533.400	23.733	0.100
533.500	8.944	0.100
533.600	20.942	0.100
533.700	24.760	0.100
533.800	28.277	0.100
533.900	22.585	0.100
534.000	22.213	0.100
534.100	26.066	0.100
534.200	25.812	0.100
534.300	10.012	0.100
534.400	21.224	0.100
534.500	31.543	0.100
534.600	37.564	0.100
534.700	16.102	0.100
534.800	22.842	0.100
534.900	19.772	0.100
535.000	15.111	0.100
535.100	20.474	0.100
535.200	23.439	0.100
535.300	42.737	0.100
535.400	21.875	0.100
535.500	29.516	0.100
535.600	32.155	0.100
535.700	15.460	0.100
535.800	26.247	0.100
535.900	23.060	0.100
536.000	18.247	0.100
536.100	31.347	0.100
536.200	10.980	0.100
536.300	31.519	0.100
536.400	30.545	0.100
536.500	34.500	0.100
536.600	15.747	0.100
536.700	21.336	0.100
536.800	20.902	0.100
536.900	23.255	0.100
537.000	10.201	0.100
537.100	23.125	0.100
537.200	25.304	0.100
537.300	18.721	0.100
537.400	20.124	0.100
537.500	33.510	0.100
537.600	36.881	0.100
537.700	18.653	0.100
537.800	19.504	0.100
537.900	14.922	0.100
538.000	25.980	0.100
538.100	12.643	0.100
538.200	26.019	0.100
538.300	18.721	0.100
538.400	38.681	0.100
538.500	21.328	0.100
538.600	26.748	0.100
538.700	20.097	0.100
538.800	6.469	0.100
538.900	25.796	0.100
539.000	33.038	0.100
539.100	22.000	0.100
539.200	27.939	0.100
539.300	20.841	0.100
539.400	7.148	0.100
539.500	37.303	0.100
539.600	28.340	0.100
539.700	15.902	0.100
539.800	9.461	0.100
539.900	24.415	0.100
540.000	23.014	0.100
540.100	22.714	0.100
540.200	12.742	0.100
540.300	21.645	0.100
540.400	15.943	0.100
540.500	6.415	0.100
540.600	-0.455	0.100
540.700	-9.947	0.100
540.800	-10.032	0.100
540.900	-3.012	0.100
541.000	-4.323	0.100
541.100	-4.093	0.100
541.200	-4.437	0.100
541.300	4.476	0.100
541.400	-12.441	0.100
541.500	-5.910	0.100
541.600	-11.343	0.100
541.700	-10.000	0.100
541.800	-8.468	0.100
541.900	-4.000	0.100
542.000	-10.755	0.100
542.100	-20.548	0.100
542.200	-18.952	0.100
542.300	-9.585	0.100
542.400	0.590	0.100
542.500	-21.661	0.100
542.600	-24.974	0.100
542.700	-26.875	0.100
542.800	-24.452	0.100
542.900	-15.405	0.100
543.000	-24.537	0.100
543.100	-14.011	0.100
543.200	-9.266	0.100
543.300	-10.352	0.100
543.400	-16.855	0.100
543.500	-27.163	0.100
543.600	-20.333	0.100
543.700	-19.832	0.100
543.800	-15.201	0.100
543.900	-16.535	0.100
544.000	-16.360	0.100
544.100	-8.915	0.100
544.200	-11.549	0.100
544.300	-10.427	0.100
544.400	-11.521	0.100
544.500	-6.442	0.100
544.600	-25.881	0.100
544.700	-18.386	0.100
544.800	-21.646	0.100
544.900	-4.312	0.100
545.000	-1.198	0.100
545.100	-25.245	0.100
545.200	-26.984	0.100
545.300	-28.789	0.100
545.400	-30.601	0.100
545.500	-8.330	0.100
545.600	-13.368	0.100
545.700	4.339	0.100
545.800	0.750	0.100
545.900	-8.124	0.100
546.000	-13.877	0.100
546.100	-2.872	0.100
546.200	-7.030	0.100
546.300	-9.194	0.100
546.400	-12.467	0.100
546.500	-10.123	0.100
546.600	-2.226	0.100
546.700	-5.961	0.100
546.800	-18.618	0.100
546.900	-17.132	0.100
547.000	-20.049	0.100
547.100	-6.659	0.100
547.200	-12.637	0.100
547.300	-10.639	0.100
547.400	-4.318	0.100
547.500	-10.562	0.100
547.600	-17.146	0.100
547.700	-9.809	0.100
547.800	-5.158	0.100
547.900	-20.583	0.100
548.000	-2.966	0.100
548.100	-1.052	0.100
548.200	-29.640	0.100
548.300	-6.153	0.100
548.400	-4.931	0.100
548.500	-9.420	0.100
548.600	-5.445	0.100
548.700	-9.988	0.100
548.800	3.906	0.100
548.900	0.520	0.100
549.000	-8.033	0.100
549.100	-23.895	0.100
549.200	-19.592	0.100
549.300	-12.010	0.100
549.400	-11.680	0.100
549.500	4.883	0.100
549.600	-15.057	0.100
549.700	-7.764	0.100
549.800	-10.462	0.100
549.900	-0.516	0.100
550.000	-2.907	0.100
550.100	-8.796	0.100
550.200	-14.793	0.100
550.300	7.080	0.100
550.400	-13.939	0.100
550.500	-10.267	0.100
550.600	-14.318	0.100
550.700	-4.340	0.100
550.800	-10.506	0.100
550.900	-9.681	0.100
551.000	-7.082	0.100
551.100	-34.587	0.100
551.200	-3.343	0.100
551.300	-13.129	0.100
551.400	-10.390	0.100
551.500	-12.195	0.100
551.600	-6.966	0.100
551.700	-6.793	0.100
551.800	-15.077	0.100
551.900	-6.903	0.100
552.000	-15.512	0.100
552.100	-28.652	0.100
552.200	-4.081	0.100
552.300	-15.522	0.100
552.400	0.971	0.100
552.500	-15.962	0.100
552.600	-16.280	0.100
552.700	-15.302	0.100
552.800	-11.421	0.100
552.900	-9.550	0.100
553.000	-14.707	0.100
553.100	-6.853	0.100
553.200	-4.654	0.100
553.300	-2.881	0.100
553.400	-4.960	0.100
553.500	-27.230	0.100
553.600	-18.759	0.100
553.700	-4.909	0.100
553.800	-5.659	0.100
553.900	-9.453	0.100
554.000	-9.500	0.100
554.100	-20.821	0.100
554.200	-18.663	0.100
554.300	-7.289	0.100
554.400	-11.441	0.100
554.500	-0.287	0.100
554.600	-11.518	0.100
554.700	-20.755	0.100
554.800	-16.755	0.100
554.900	-9.354	0.100
555.000	-13.456	0.100
555.100	-9.603	0.100
555.200	-13.334	0.100
555.300	-18.063	0.100
555.400	-16.459	0.100
555.500	-23.338	0.100
555.600	-6.903	0.100
555.700	-10.586	0.100
555.800	-2.900	0.100
555.900	-9.700	0.100
556.000	-21.565	0.100
556.100	-14.045	0.100
556.200	-26.690	0.100
556.300	-17.098	0.100
556.400	-1.615	0.100
556.500	-6.372	0.100
556.600	-10.588	0.100
556.700	-9.402	0.100
556.800	-25.736	0.100
556.900	2.559	0.100
557.000	-10.715	0.100
557.100	-14.913	0.100
557.200	-15.581	0.100
557.300	-12.359	0.100
557.400	-16.898	0.100
557.500	-19.051	0.100
557.600	-8.960	0.100
557.700	-10.464	0.100
557.800	-14.089	0.100
557.900	-14.706	0.100
558.000	-1.554	0.100
558.100	-4.504	0.100
558.200	-20.440	0.100
558.300	-7.186	0.100
558.400	-17.164	0.100
558.500	-2.815	0.100
558.600	-12.754	0.100
558.700	-22.406	0.100
558.800	-18.277	0.100
558.900	-13.065	0.100
559.000	-21.986	0.100
559.100	-12.657	0.100
559.200	-12.020	0.100
559.300	-12.476	0.100
559.400	-24.215	0.100
559.500	-12.251	0.100
559.600	-8.928	0.100
559.700	-9.721	0.100
559.800	-12.161	0.100
559.900	-18.451	0.100
560.000	-8.663	0.100
560.100	-12.558	0.100
560.200	-11.516	0.100
560.300	-3.000	0.100
560.400	-17.101	0.100
560.500	-17.708	0.100
560.600	-13.587	0.100
560.700	-16.209	0.100
560.800	-11.407	0.100
560.900	5.546	0.100
561.000	-11.449	0.100
561.100	-19.474	0.100
561.200	-12.268	0.100
561.300	-8.248	0.100
561.400	-28.626	0.100
561.500	-8.750	0.100
561.600	-8.651	0.100
561.700	-21.128	0.100
561.800	-15.711	0.100
561.900	-12.183	0.100
562.000	-8.326	0.100
562.100	-21.422	0.100
562.200	-19.322	0.100
562.300	1.997	0.100
562.400	-14.803	0.100
562.500	-3.851	0.100
562.600	-13.997	0.100
562.700	-8.741	0.100
562.800	-13.642	0.100
562.900	-11.084	0.100
563.000	-25.991	0.100
563.100	-9.039	0.100
563.200	-12.724	0.100
563.300	-15.580	0.100
563.400	-15.031	0.100
563.500	-12.677	0.100
563.600	-9.111	0.100
563.700	-9.698	0.100
563.800	-2.342	0.100
563.900	-8.796	0.100
564.000	-14.729	0.100
564.100	-10.274	0.100
564.200	-10.362	0.100
564.300	-25.117	0.100
564.400	-20.048	0.100
564.500	-8.580	0.100
564.600	-9.650	0.100
564.700	-10.891	0.100
564.800	-17.368	0.100
564.900	-16.416	0.100
565.000	-22.320	0.100
565.100	-10.739	0.100
565.200	-12.529	0.100
565.300	-10.266	0.100
565.400	-1.352	0.100
565.500	-14.022	0.100
565.600	-6.850	0.100
565.700	-13.661	0.100
565.800	-21.730	0.100
565.900	-15.333	0.100
566.000	-9.562	0.100
566.100	-7.662	0.100
566.200	-9.625	0.100
566.300	-14.736	0.100
566.400	-10.501	0.100
566.500	-6.762	0.100
566.600	-15.680	0.100
566.700	-13.472	0.100
566.800	-4.332	0.100
566.900	-16.407	0.100
567.000	-21.760	0.100
567.100	-30.310	0.100
567.200	-12.666	0.100
567.300	-7.044	0.100
567.400	-5.881	0.100
567.500	-9.456	0.100
567.600	-15.578	0.100
567.700	-19.616	0.100
567.800	-11.499	0.100
567.900	-5.214	0.100
568.000	-28.144	0.100
568.100	-14.281	0.100
568.200	-7.811	0.100
568.300	-24.537	0.100
568.400	-19.223	0.100
568.500	-5.959	0.100
568.600	-9.132	0.100
568.700	-36.924	0.100
568.800	-16.178	0.100
568.900	-9.505	0.100
569.000	-22.547	0.100
569.100	-20.815	0.100
569.200	-17.545	0.100
569.300	-19.091	0.100
569.400	-12.848	0.100
569.500	-8.729	0.100
569.600	-17.212	0.100
569.700	-6.601	0.100
569.800	-12.372	0.100
569.900	-9.909	0.100
570.000	-18.001	0.100
570.100	-11.949	0.100
570.200	-12.712	0.100
570.300	-13.064	0.100
570.400	-8.957	0.100
570.500	-21.680	0.100
570.600	-10.111	0.100
570.700	-13.636	0.100
570.800	-21.769	0.100
570.900	-6.786	0.100
571.000	0.061	0.100
571.100	-4.987	0.100
571.200	-22.929	0.100
571.300	-18.334	0.100
571.400	-13.867	0.100
571.500	-16.956	0.100
571.600	-21.822	0.100
571.700	-15.687	0.100
571.800	-13.588	0.100
571.900	-11.176	0.100
572.000	-14.188	0.100
572.100	-13.904	0.100
572.200	-24.753	0.100
572.300	-15.004	0.100
572.400	-0.739	0.100
572.500	-15.621	0.100
572.600	-9.373	0.100
572.700	-1.022	0.100
572.800	-17.973	0.100
572.900	-10.236	0.100
573.000	-17.819	0.100
573.100	-12.938	0.100
573.200	-18.668	0.100
573.300	-12.686	0.100
573.400	-13.518	0.100
573.500	-30.215	0.100
573.600	-19.809	0.100
573.700	-12.939	0.100
573.800	-9.526	0.100
573.900	-2.746	0.100
574.000	-5.810	0.100
574.100	-27.594	0.100
574.200	-14.250	0.100
574.300	-20.982	0.100
574.400	-6.684	0.100
574.500	-14.199	0.100
574.600	-14.499	0.100
574.700	-16.574	0.100
574.800	-22.529	0.100
574.900	-3.005	0.100
575.000	-17.042	0.100
575.100	-19.057	0.100
575.200	-10.451	0.100
575.300	-7.956	0.100
575.400	-19.622	0.100
575.500	-9.231	0.100
575.600	-13.439	0.100
575.700	-8.776	0.100
575.800	-17.699	0.100
575.900	-19.914	0.100
576.000	-22.768	0.100
576.100	2.176	0.100
576.200	-14.967	0.100
576.300	-15.237	0.100
576.400	-16.519	0.100
576.500	-21.803	0.100
576.600	-21.216	0.100
576.700	-9.079	0.100
576.800	-0.777	0.100
576.900	-6.378	0.100
577.000	-19.480	0.100
577.100	-16.123	0.100
577.200	-10.083	0.100
577.300	-24.264	0.100
577.400	-28.893	0.100
577.500	-13.991	0.100
577.600	-9.223	0.100
577.700	-8.675	0.100
577.800	-9.466	0.100
577.900	-12.075	0.100
578.000	-24.856	0.100
578.100	-15.451	0.100
578.200	-12.996	0.100
578.300	-12.723	0.100
578.400	-17.121	0.100
578.500	-12.422	0.100
578.600	-9.317	0.100
578.700	-3.324	0.100
578.800	-14.370	0.100
578.900	-8.391	0.100
579.000	-14.894	0.100
579.100	-17.327	0.100
579.200	-16.463	0.100
579.300	-11.261	0.100
579.400	-15.597	0.100
579.500	-16.837	0.100
579.600	-9.184	0.100
579.700	-8.733	0.100
579.800	-17.615	0.100
579.900	-8.512	0.100
580.000	-4.504	0.100
580.100	-12.609	0.100
580.200	-21.227	0.100
580.300	0.471	0.100
580.400	-19.258	0.100
580.500	-15.336	0.100
580.600	-21.020	0.100
580.700	-16.149	0.100
580.800	-9.472	0.100
580.900	-6.204	0.100
581.000	-8.583	0.100
581.100	-7.917	0.100
581.200	-18.913	0.100
581.300	-17.268	0.100
581.400	-12.581	0.100
581.500	-20.099	0.100
581.600	-18.934	0.100
581.700	-11.434	0.100
581.800	-15.658	0.100
581.900	-12.943	0.100
582.000	-19.394	0.100
582.100	-12.754	0.100
582.200	-1.786	0.100
582.300	-3.524	0.100
582.400	-12.272	0.100
582.500	2.701	0.100
582.600	-7.177	0.100
582.700	-14.337	0.100
582.800	-17.765	0.100
582.900	-23.054	0.100
583.000	-25.958	0.100
583.100	-6.620	0.100
583.200	-13.028	0.100
583.300	-19.667	0.100
583.400	-21.405	0.100
583.500	-14.878	0.100
583.600	-15.034	0.100
583.700	-22.715	0.100
583.800	-13.981	0.100
583.900	-14.800	0.100
584.000	-10.710	0.100
584.100	-23.943	0.100
584.200	-11.815	0.100
584.300	-8.968	0.100
584.400	-13.713	0.100
584.500	-10.529	0.100
584.600	-17.267	0.100
584.700	-13.273	0.100
584.800	0.859	0.100
584.900	-5.396	0.100
585.000	-10.819	0.100
585.100	-16.625	0.100
585.200	-12.119	0.100
585.300	-9.056	0.100
585.400	-16.827	0.100
585.500	-23.928	0.100
585.600	-11.427	0.100
585.700	-0.915	0.100
585.800	-13.444	0.100
585.900	-18.294	0.100
586.000	-24.259	0.100
586.100	-10.826	0.100
586.200	-11.670	0.100
586.300	-5.675	0.100
586.400	-13.918	0.100
586.500	-3.287	0.100
586.600	-9.777	0.100
586.700	-15.983	0.100
586.800	-8.449	0.100
586.900	-22.256	0.100
587.000	3.774	0.100
587.100	3.887	0.100
587.200	-9.140	0.100
587.300	-15.615	0.100
587.400	-19.398	0.100
587.500	-8.600	0.100
587.600	-14.046	0.100
587.700	-17.264	0.100
587.800	-22.493	0.100
587.900	-21.141	0.100
588.000	-4.245	0.100
588.100	-6.795	0.100
588.200	-17.787	0.100
588.300	-8.681	0.100
588.400	-16.799	0.100
588.500	-17.066	0.100
588.600	-28.233	0.100
588.700	-9.931	0.100
588.800	-10.212	0.100
588.900	-5.222	0.100
589.000	-10.697	0.100
589.100	-12.640	0.100
589.200	-20.882	0.100
589.300	-12.667	0.100
589.400	-18.363	0.100
589.500	1.088	0.100
589.600	-11.526	0.100
589.700	-24.875	0.100
589.800	-12.248	0.100
589.900	-5.795	0.100
590.000	-8.029	0.100
590.100	-14.111	0.100
590.200	-6.211	0.100
590.300	-18.975	0.100
590.400	-19.772	0.100
590.500	-16.292	0.100
590.600	-14.545	0.100
590.700	0.314	0.100
590.800	-10.745	0.100
590.900	-12.141	0.100
591.000	-24.077	0.100
591.100	-7.790	0.100
591.200	-18.091	0.100
591.300	-8.378	0.100
591.400	-10.571	0.100
591.500	-17.395	0.100
591.600	-22.108	0.100
591.700	-24.817	0.100
591.800	-12.541	0.100
591.900	0.426	0.100
592.000	-6.291	0.100
592.100	-9.444	0.100
592.200	-14.431	0.100
592.300	-21.774	0.100
592.400	-10.707	0.100
592.500	-22.348	0.100
592.600	-16.677	0.100
592.700	-8.914	0.100
592.800	-3.091	0.100
592.900	4.950	0.100
593.000	-4.418	0.100
593.100	-21.012	0.100
593.200	-7.884	0.100
593.300	-18.738	0.100
593.400	-16.073	0.100
593.500	-7.869	0.100
593.600	-8.823	0.100
593.700	-28.983	0.100
593.800	-16.901	0.100
593.900	-0.380	0.100
594.000	-24.093	0.100
594.100	-3.035	0.100
594.200	-6.720	0.100
594.300	3.877	0.100
594.400	-13.044	0.100
594.500	-6.248	0.100
594.600	-23.547	0.100
594.700	-5.917	0.100
594.800	-12.477	0.100
594.900	-25.737	0.100
595.000	-9.850	0.100
595.100	-20.230	0.100
595.200	-12.099	0.100
595.300	-17.633	0.100
595.400	0.202	0.100
595.500	-7.354	0.100
595.600	-10.673	0.100
595.700	-13.702	0.100
595.800	-8.787	0.100
595.900	1.987	0.100
596.000	-5.291	0.100
596.100	-23.725	0.100
596.200	-15.238	0.100
596.300	-4.590	0.100
596.400	-10.526	0.100
596.500	-15.301	0.100
596.600	-20.851	0.100
596.700	-16.876	0.100
596.800	0.867	0.100
596.900	-23.594	0.100
597.000	-9.074	0.100
597.100	-24.197	0.100
597.200	-8.937	0.100
597.300	-9.103	0.100
597.400	-11.673	0.100
597.500	-6.358	0.100
597.600	-14.837	0.100
597.700	-17.707	0.100
597.800	-14.354	0.100
597.900	-9.704	0.100
598.000	-14.146	0.100
598.100	-11.539	0.100
598.200	-5.834	0.100
598.300	-14.456	0.100
598.400	-16.569	0.100
598.500	-22.707	0.100
598.600	-12.017	0.100
598.700	-4.023	0.100
598.800	-5.833	0.100
598.900	-12.332	0.100
599.000	-2.799	0.100
599.100	-5.246	0.100
599.200	4.951	0.100
599.300	-21.323	0.100
599.400	1.992	0.100
599.500	-14.112	0.100
599.600	-19.457	0.100
599.700	-5.645	0.100
599.800	-19.557	0.100
599.900	-4.995	0.100
600.000	-11.118	0.100
600.100	-14.982	0.100
600.200	-24.110	0.100
600.300	-21.412	0.100
600.400	-3.431	0.100
600.500	-13.760	0.100
600.600	-9.717	0.100
600.700	-10.574	0.100
600.800	-14.208	0.100
600.900	-24.246	0.100
601.000	-11.589	0.100
601.100	-16.523	0.100
601.200	-10.149	0.100
601.300	-11.620	0.100
601.400	-5.637	0.100
601.500	-4.439	0.100
601.600	-11.394	0.100
601.700	-17.358	0.100
601.800	-9.465	0.100
601.900	-6.440	0.100
602.000	-17.630	0.100
602.100	-20.534	0.100
602.200	-17.592	0.100
602.300	-13.160	0.100
602.400	-5.895	0.100
602.500	-8.159	0.100
602.600	-10.198	0.100
602.700	2.086	0.100
602.800	-3.903	0.100
602.900	-21.154	0.100
603.000	-11.515	0.100
603.100	-12.383	0.100
603.200	-19.303	0.100
603.300	-25.174	0.100
603.400	-11.441	0.100
603.500	-5.877	0.100
603.600	-11.174	0.100
603.700	-13.059	0.100
603.800	-15.586	0.100
603.900	-22.300	0.100
604.000	-20.807	0.100
604.100	-5.284	0.100
604.200	-14.644	0.100
604.300	-16.515	0.100
604.400	-12.644	0.100
604.500	-9.125	0.100
604.600	-4.758	0.100
604.700	-8.368	0.100
604.800	-8.838	0.100
604.900	-10.685	0.100
605.000	-11.835	0.100
605.100	-15.794	0.100
605.200	-16.629	0.100
605.300	0.441	0.100
605.400	-4.167	0.100
605.500	-16.284	0.100
605.600	4.646	0.100
605.700	-11.983	0.100
605.800	-15.963	0.100
605.900	-2.569	0.100
606.000	-12.604	0.100
606.100	-23.702	0.100
606.200	-19.062	0.100
606.300	-18.320	0.100
606.400	-9.048	0.100
606.500	-18.405	0.100
606.600	-0.535	0.100
606.700	-2.135	0.100
606.800	-10.285	0.100
606.900	-14.498	0.100
607.000	-10.655	0.100
607.100	-14.386	0.100
607.200	-8.722	0.100
607.300	-9.515	0.100
607.400	-3.573	0.100
607.500	3.935	0.100
607.600	0.876	0.100
607.700	-12.751	0.100
607.800	-17.913	0.100
607.900	-7.178	0.100
608.000	-9.504	0.100
608.100	-4.560	0.100
608.200	-0.050	0.100
608.300	-10.272	0.100
608.400	-21.001	0.100
608.500	-14.090	0.100
608.600	-14.059	0.100
608.700	-26.538	0.100
608.800	-11.059	0.100
608.900	-10.123	0.100
609.000	3.002	0.100
609.100	-24.144	0.100
609.200	-19.628	0.100
609.300	-7.045	0.100
609.400	-6.492	0.100
609.500	-18.200	0.100
609.600	-16.877	0.100
609.700	4.830	0.100
609.800	-6.286	0.100
609.900	-16.762	0.100
610.000	-1.216	0.100
610.100	-7.993	0.100
610.200	-15.097	0.100
610.300	1.615	0.100
610.400	-12.475	0.100
610.500	8.273	0.100
610.600	-19.241	0.100
610.700	-14.080	0.100
610.800	-23.753	0.100
610.900	-20.122	0.100
611.000	-13.852	0.100
611.100	-12.367	0.100
611.200	-7.564	0.100
611.300	2.596	0.100
611.400	-6.544	0.100
611.500	-11.777	0.100
611.600	-14.357	0.100
611.700	-5.126	0.100
611.800	-6.871	0.100
611.900	-3.848	0.100
612.000	-17.891	0.100
612.100	-4.189	0.100
612.200	-14.338	0.100
612.300	-12.105	0.100
612.400	-16.719	0.100
612.500	0.385	0.100
612.600	-8.755	0.100
612.700	-11.505	0.100
612.800	1.936	0.100
612.900	-15.004	0.100
613.000	-6.218	0.100
613.100	-10.058	0.100
613.200	-3.868	0.100
613.300	-7.966	0.100
613.400	-10.213	0.100
613.500	-9.667	0.100
613.600	-2.502	0.100
613.700	-16.330	0.100
613.800	-13.265	0.100
613.900	-11.962	0.100
614.000	-10.321	0.100
614.100	-4.795	0.100
614.200	-7.202	0.100
614.300	-6.360	0.100
614.400	-21.953	0.100
614.500	-8.929	0.100
614.600	-13.932	0.100
614.700	-12.503	0.100
614.800	-18.242	0.100
614.900	-14.697	0.100
615.000	-15.183	0.100
615.100	-9.488	0.100
615.200	-22.482	0.100
615.300	-10.188	0.100
615.400	-9.682	0.100
615.500	-2.980	0.100
615.600	3.240	0.100
615.700	-1.891	0.100
615.800	-2.510	0.100
615.900	-1.499	0.100
616.000	-4.635	0.100
616.100	-16.251	0.100
616.200	-7.585	0.100
616.300	-9.495	0.100
616.400	-13.175	0.100
616.500	-4.667	0.100
616.600	-7.072	0.100
616.700	-6.255	0.100
616.800	-9.996	0.100
616.900	-8.919	0.100
617.000	-12.192	0.100
617.100	-20.775	0.100
617.200	-1.926	0.100
617.300	-8.270	0.100
617.400	-0.252	0.100
617.500	-3.647	0.100
617.600	-1.970	0.100
617.700	-14.317	0.100
617.800	-13.970	0.100
617.900	-5.796	0.100
618.000	-13.653	0.100
618.100	-4.669	0.100
618.200	-10.352	0.100
618.300	-17.691	0.100
618.400	-8.969	0.100
618.500	-13.358	0.100
618.600	-17.434	0.100
618.700	-16.332	0.100
618.800	-19.110	0.100
618.900	-16.170	0.100
619.000	-4.281	0.100
619.100	-15.685	0.100
619.200	-13.654	0.100
619.300	-2.815	0.100
619.400	-10.476	0.100
619.500	-11.466	0.100
619.600	-4.844	0.100
619.700	-8.633	0.100
619.800	-15.558	0.100
619.900	-23.394	0.100
620.000	-15.843	0.100
620.100	-14.858	0.100
620.200	-10.935	0.100
620.300	-14.961	0.100
620.400	-3.438	0.100
620.500	5.553	0.100
620.600	-6.611	0.100
620.700	-9.561	0.100
620.800	-15.674	0.100
620.900	-19.516	0.100
621.000	-6.777	0.100
621.100	-7.928	0.100
621.200	-17.191	0.100
621.300	-3.507	0.100
621.400	1.813	0.100
621.500	-16.174	0.100
621.600	-7.770	0.100
621.700	-5.684	0.100
621.800	-9.424	0.100
621.900	-7.075	0.100
622.000	-7.182	0.100
622.100	-5.136	0.100
622.200	-14.881	0.100
622.300	-8.311	0.100
622.400	6.081	0.100
622.500	-1.619	0.100
622.600	-10.769	0.100
622.700	-11.236	0.100
622.800	-14.959	0.100
622.900	-11.751	0.100
623.000	-8.736	0.100
623.100	-8.389	0.100
623.200	-10.835	0.100
623.300	-9.258	0.100
623.400	1.861	0.100
623.500	-0.719	0.100
623.600	-13.147	0.100
623.700	-8.153	0.100
623.800	-11.207	0.100
623.900	-15.063	0.100
624.000	-1.102	0.100
624.100	-9.897	0.100
624.200	-1.485	0.100
624.300	0.588	0.100
624.400	-12.754	0.100
624.500	-1.730	0.100
624.600	0.683	0.100
624.700	-8.173	0.100
624.800	-3.336	0.100
624.900	-9.911	0.100
625.000	-12.654	0.100
625.100	-17.448	0.100
625.200	-20.162	0.100
625.300	-1.317	0.100
625.400	-2.689	0.100
625.500	-15.290	0.100
625.600	-16.636	0.100
625.700	-8.983	0.100
625.800	-0.522	0.100
625.900	3.278	0.100
626.000	-3.191	0.100
626.100	-18.660	0.100
626.200	-23.206	0.100
626.300	6.303	0.100
626.400	-17.738	0.100
626.500	-11.374	0.100
626.600	-17.625	0.100
626.700	-1.621	0.100
626.800	3.363	0.100
626.900	-2.773	0.100
627.000	-14.273	0.100
627.100	2.161	0.100
627.200	-4.432	0.100
627.300	-19.672	0.100
627.400	-7.431	0.100
627.500	-9.667	0.100
627.600	-4.165	0.100
627.700	-20.016	0.100
627.800	2.712	0.100
627.900	-2.983	0.100
628.000	-19.445	0.100
628.100	-13.849	0.100
628.200	-7.267	0.100
628.300	-10.366	0.100
628.400	0.789	0.100
628.500	-3.666	0.100
628.600	-7.899	0.100
628.700	-4.433	0.100
628.800	-5.245	0.100
628.900	3.677	0.100
629.000	11.991	0.100
629.100	-13.791	0.100
629.200	-17.991	0.100
629.300	-13.208	0.100
629.400	-5.476	0.100
629.500	-12.164	0.100
629.600	3.640	0.100
629.700	-6.009	0.100
629.800	-15.508	0.100
629.900	-4.013	0.100
630.000	-2.570	0.100
630.100	0.893	0.100
630.200	-8.125	0.100
630.300	3.210	0.100
630.400	7.932	0.100
630.500	-0.108	0.100
630.600	22.183	0.100
630.700	17.254	0.100
630.800	28.192	0.100
630.900	27.274	0.100
631.000	23.081	0.100
631.100	24.321	0.100
631.200	22.907	0.100
631.300	38.465	0.100
631.400	26.217	0.100
631.500	29.119	0.100
631.600	18.316	0.100
631.700	28.935	0.100
631.800	24.912	0.100
631.900	18.365	0.100
632.000	32.931	0.100
632.100	25.613	0.100
632.200	30.221	0.100
632.300	27.872	0.100
632.400	31.078	0.100
632.500	32.099	0.100
632.600	33.348	0.100
632.700	20.464	0.100
632.800	29.524	0.100
632.900	25.607	0.100
633.000	28.907	0.100
633.100	32.100	0.100
633.200	30.404	0.100
633.300	29.119	0.100
633.400	25.816	0.100
633.500	26.658	0.100
633.600	26.216	0.100
633.700	27.091	0.100
633.800	38.647	0.100
633.900	34.385	0.100
634.000	25.140	0.100
634.100	21.350	0.100
634.200	41.939	0.100
634.300	11.026	0.100
634.400	26.474	0.100
634.500	10.652	0.100
634.600	32.661	0.100
634.700	29.549	0.100
634.800	23.805	0.100
634.900	31.160	0.100
635.000	9.249	0.100
635.100	5.104	0.100
635.200	23.615	0.100
635.300	18.589	0.100
635.400	18.585	0.100
635.500	25.171	0.100
635.600	33.476	0.100
635.700	18.960	0.100
635.800	14.721	0.100
635.900	25.810	0.100
636.000	16.916	0.100
636.100	12.878	0.100
636.200	8.640	0.100
636.300	23.513	0.100
636.400	20.967	0.100
636.500	19.652	0.100
636.600	31.890	0.100
636.700	12.280	0.100
636.800	16.270	0.100
636.900	23.924	0.100
637.000	8.729	0.100
637.100	19.531	0.100
637.200	37.324	0.100
637.300	25.148	0.100
637.400	29.816	0.100
637.500	10.801	0.100
637.600	25.554	0.100
637.700	10.326	0.100
637.800	23.758	0.100
637.900	11.227	0.100
638.000	12.384	0.100
638.100	17.592	0.100
638.200	21.553	0.100
638.300	18.243	0.100
638.400	24.066	0.100
638.500	8.306	0.100
638.600	25.042	0.100
638.700	25.837	0.100
638.800	16.170	0.100
638.900	8.869	0.100
639.000	10.251	0.100
639.100	11.306	0.100
639.200	14.270	0.100
639.300	16.186	0.100
639.400	27.922	0.100
639.500	14.978	0.100
639.600	12.598	0.100
639.700	18.907	0.100
639.800	21.201	0.100
639.900	8.048	0.100
640.000	7.739	0.100
640.100	14.758	0.100
640.200	23.000	0.100
640.300	14.197	0.100
640.400	12.525	0.100
640.500	14.487	0.100
640.600	22.020	0.100
640.700	15.434	0.100
640.800	16.563	0.100
640.900	20.535	0.100
641.000	21.963	0.100
641.100	13.006	0.100
641.200	14.096	0.100
641.300	17.278	0.100
641.400	2.704	0.100
641.500	24.022	0.100
641.600	19.871	0.100
641.700	19.752	0.100
641.800	9.340	0.100
641.900	8.755	0.100
642.000	17.447	0.100
642.100	17.059	0.100
642.200	10.387	0.100
642.300	13.639	0.100
642.400	15.118	0.100
642.500	12.913	0.100
642.600	19.380	0.100
642.700	16.744	0.100
642.800	-4.197	0.100
642.900	14.862	0.100
643.000	18.259	0.100
643.100	12.523	0.100
643.200	28.701	0.100
643.300	16.741	0.100
643.400	18.061	0.100
643.500	12.673	0.100
643.600	14.724	0.100
643.700	15.526	0.100
643.800	25.974	0.100
643.900	18.508	0.100
644.000	12.368	0.100
644.100	15.558	0.100
644.200	16.326	0.100
644.300	17.484	0.100
644.400	20.314	0.100
644.500	15.273	0.100
644.600	7.882	0.100
644.700	16.928	0.100
644.800	-0.931	0.100
644.900	11.460	0.100
645.000	-1.978	0.100
645.100	22.105	0.100
645.200	24.801	0.100
645.300	16.021	0.100
645.400	24.315	0.100
645.500	18.466	0.100
645.600	10.560	0.100
645.700	18.593	0.100
645.800	10.218	0.100
645.900	5.623	0.100
646.000	21.985	0.100
646.100	33.562	0.100
646.200	15.659	0.100
646.300	16.603	0.100
646.400	14.371	0.100
646.500	28.111	0.100
646.600	12.161	0.100
646.700	29.976	0.100
646.800	13.530	0.100
646.900	20.892	0.100
647.000	22.340	0.100
647.100	0.943	0.100
647.200	19.935	0.100
647.300	21.384	0.100
647.400	16.614	0.100
647.500	20.457	0.100
647.600	14.226	0.100
647.700	14.610	0.100
647.800	20.348	0.100
647.900	5.948	0.100
648.000	17.473	0.100
648.100	26.803	0.100
648.200	25.615	0.100
648.300	14.616	0.100
648.400	26.329	0.100
648.500	10.044	0.100
648.600	23.874	0.100
648.700	25.787	0.100
648.800	9.302	0.100
648.900	27.792	0.100
649.000	29.921	0.100
649.100	27.059	0.100
649.200	25.412	0.100
649.300	15.106	0.100
649.400	25.102	0.100
649.500	28.350	0.100
649.600	26.944	0.100
649.700	14.025	0.100
649.800	21.683	0.100
649.900	11.761	0.100
650.000	10.456	0.100
650.100	19.671	0.100
650.200	31.298	0.100
650.300	34.351	0.100
650.400	20.050	0.100
650.500	24.069	0.100
650.600	21.473	0.100
650.700	21.499	0.100
650.800	29.189	0.100
650.900	13.666	0.100
651.000	23.644	0.100
651.100	28.153	0.100
651.200	17.395	0.100
651.300	23.712	0.100
651.400	33.517	0.100
651.500	18.257	0.100
651.600	29.077	0.100
651.700	24.930	0.100
651.800	19.820	0.100
651.900	27.002	0.100
652.000	17.570	0.100
652.100	30.449	0.100
652.200	29.465	0.100
652.300	36.711	0.100
652.400	26.811	0.100
652.500	25.273	0.100
652.600	21.998	0.100
652.700	26.167	0.100
652.800	15.605	0.100
652.900	20.280	0.100
653.000	29.503	0.100
653.100	36.670	0.100
653.200	32.738	0.100
653.300	29.060	0.100
653.400	20.838	0.100
653.500	22.703	0.100
653.600	27.797	0.100
653.700	18.880	0.100
653.800	33.686	0.100
653.900	13.464	0.100
654.000	24.529	0.100
654.100	22.106	0.100
654.200	21.683	0.100
654.300	23.535	0.100
654.400	42.070	0.100
654.500	26.450	0.100
654.600	6.396	0.100
654.700	18.182	0.100
654.800	23.066	0.100
654.900	33.590	0.100
655.000	33.151	0.100
655.100	30.044	0.100
655.200	25.700	0.100
655.300	22.362	0.100
655.400	15.799	0.100
655.500	22.193	0.100
655.600	29.328	0.100
655.700	40.990	0.100
655.800	37.252	0.100
655.900	27.170	0.100
656.000	15.520	0.100
656.100	24.292	0.100
656.200	33.181	0.100
656.300	24.863	0.100
656.400	17.397	0.100
656.500	20.386	0.100
656.600	26.069	0.100
656.700	28.453	0.100
656.800	21.128	0.100
656.900	25.687	0.100
657.000	32.255	0.100
657.100	19.976	0.100
657.200	21.379	0.100
657.300	28.891	0.100
657.400	28.127	0.100
657.500	25.828	0.100
657.600	23.045	0.100
657.700	23.828	0.100
657.800	32.848	0.100
657.900	23.010	0.100
658.000	19.652	0.100
658.100	23.429	0.100
658.200	25.928	0.100
658.300	15.597	0.100
658.400	19.854	0.100
658.500	30.949	0.100
658.600	37.180	0.100
658.700	33.650	0.100
658.800	28.486	0.100
658.900	21.248	0.100
659.000	27.483	0.100
659.100	14.990	0.100
659.200	12.576	0.100
659.300	26.750	0.100
659.400	27.592	0.100
659.500	38.342	0.100
659.600	21.097	0.100
659.700	22.141	0.100
659.800	31.376	0.100
659.900	24.445	0.100
660.000	13.689	0.100
660.100	21.679	0.100
660.200	34.771	0.100
660.300	23.641	0.100
660.400	15.478	0.100
660.500	33.625	0.100
660.600	27.765	0.100
660.700	23.031	0.100
660.800	15.739	0.100
660.900	25.782	0.100
661.000	26.374	0.100
661.100	15.705	0.100
661.200	39.255	0.100
661.300	30.611	0.100
661.400	33.395	0.100
661.500	24.026	0.100
661.600	24.846	0.100
661.700	16.037	0.100
661.800	27.744	0.100
661.900	19.394	0.100
662.000	19.065	0.100
662.100	27.643	0.100
662.200	25.125	0.100
662.300	33.073	0.100
662.400	20.111	0.100
662.500	23.295	0.100
662.600	21.150	0.100
662.700	19.842	0.100
662.800	28.916	0.100
662.900	37.246	0.100
663.000	29.368	0.100
663.100	14.390	0.100
663.200	26.281	0.100
663.300	31.280	0.100
663.400	13.274	0.100
663.500	26.603	0.100
663.600	19.875	0.100
663.700	22.883	0.100
663.800	17.374	0.100
663.900	40.172	0.100
664.000	37.611	0.100
664.100	32.353	0.100
664.200	3.048	0.100
664.300	25.344	0.100
664.400	24.739	0.100
664.500	31.052	0.100
664.600	26.352	0.100
664.700	31.815	0.100
664.800	20.424	0.100
664.900	23.834	0.100
665.000	12.452	0.100
665.100	20.574	0.100
665.200	31.711	0.100
665.300	5.669	0.100
665.400	29.947	0.100
665.500	33.510	0.100
665.600	27.796	0.100
665.700	13.057	0.100
665.800	20.820	0.100
665.900	10.782	0.100
666.000	22.820	0.100
666.100	38.403	0.100
666.200	30.453	0.100
666.300	32.113	0.100
666.400	17.318	0.100
666.500	15.103	0.100
666.600	38.130	0.100
666.700	22.083	0.100
666.800	12.480	0.100
666.900	16.566	0.100
667.000	20.172	0.100
667.100	41.819	0.100
667.200	33.030	0.100
667.300	24.469	0.100
667.400	19.609	0.100
667.500	21.069	0.100
667.600	13.560	0.100
667.700	25.264	0.100
667.800	18.661	0.100
667.900	21.091	0.100
668.000	16.175	0.100
668.100	27.443	0.100
668.200	26.085	0.100
668.300	22.495	0.100
668.400	17.687	0.100
668.500	17.182	0.100
668.600	23.010	0.100
668.700	34.846	0.100
668.800	23.927	0.100
668.900	27.591	0.100
669.000	33.518	0.100
669.100	15.986	0.100
669.200	23.946	0.100
669.300	41.270	0.100
669.400	30.136	0.100
669.500	28.306	0.100
669.600	33.635	0.100
669.700	16.030	0.100
669.800	29.878	0.100
669.900	23.323	0.100
670.000	27.683	0.100
670.100	24.475	0.100
670.200	18.867	0.100
670.300	29.031	0.100
670.400	18.164	0.100
670.500	11.662	0.100
670.600	23.653	0.100
670.700	41.193	0.100
670.800	36.274	0.100
670.900	3.197	0.100
671.000	28.910	0.100
671.100	30.267	0.100
671.200	34.103	0.100
671.300	21.930	0.100
671.400	24.655	0.100
671.500	7.273	0.100
671.600	20.507	0.100
671.700	26.158	0.100
671.800	24.369	0.100
671.900	21.926	0.100
672.000	18.153	0.100
672.100	28.696	0.100
672.200	22.567	0.100
672.300	26.395	0.100
672.400	11.944	0.100
672.500	34.247	0.100
672.600	18.524	0.100
672.700	25.831	0.100
672.800	21.418	0.100
672.900	18.994	0.100
673.000	18.901	0.100
673.100	28.051	0.100
673.200	30.580	0.100
673.300	28.334	0.100
673.400	19.720	0.100
673.500	22.204	0.100
673.600	25.442	0.100
673.700	16.144	0.100
673.800	23.425	0.100
673.900	26.474	0.100
674.000	24.106	0.100
674.100	29.836	0.100
674.200	24.978	0.100
674.300	18.103	0.100
674.400	24.838	0.100
674.500	19.307	0.100
674.600	20.894	0.100
674.700	23.852	0.100
674.800	26.786	0.100
674.900	23.337	0.100
675.000	24.671	0.100
675.100	28.580	0.100
675.200	21.531	0.100
675.300	24.641	0.100
675.400	27.406	0.100
675.500	22.132	0.100
675.600	28.138	0.100
675.700	15.778	0.100
675.800	13.036	0.100
675.900	15.871	0.100
676.000	26.376	0.100
676.100	31.083	0.100
676.200	38.803	0.100
676.300	16.728	0.100
676.400	23.353	0.100
676.500	20.583	0.100
676.600	20.539	0.100
676.700	36.736	0.100
676.800	22.150	0.100
676.900	19.876	0.100
677.000	25.530	0.100
677.100	24.557	0.100
677.200	24.406	0.100
677.300	17.740	0.100
677.400	22.642	0.100
677.500	28.647	0.100
677.600	23.401	0.100
677.700	22.924	0.100
677.800	24.739	0.100
677.900	25.561	0.100
678.000	17.680	0.100
678.100	24.159	0.100
678.200	35.522	0.100
678.300	24.573	0.100
678.400	19.059	0.100
678.500	20.853	0.100
678.600	11.425	0.100
678.700	20.400	0.100
678.800	26.143	0.100
678.900	22.409	0.100
679.000	32.467	0.100
679.100	23.888	0.100
679.200	17.807	0.100
679.300	14.267	0.100
679.400	21.607	0.100
679.500	19.268	0.100
679.600	25.367	0.100
679.700	29.283	0.100
679.800	21.175	0.100
679.900	26.345	0.100
680.000	20.238	0.100
680.100	27.528	0.100
680.200	25.471	0.100
680.300	20.313	0.100
680.400	26.412	0.100
680.500	19.355	0.100
680.600	14.947	0.100
680.700	28.734	0.100
680.800	24.968	0.100
680.900	28.367	0.100
681.000	25.578	0.100
681.100	29.606	0.100
681.200	21.358	0.100
681.300	29.881	0.100
681.400	30.088	0.100
681.500	23.982	0.100
681.600	23.351	0.100
681.700	19.644	0.100
681.800	14.863	0.100
681.900	24.435	0.100
682.000	20.198	0.100
682.100	34.158	0.100
682.200	28.192	0.100
682.300	22.297	0.100
682.400	26.602	0.100
682.500	24.363	0.100
682.600	18.669	0.100
682.700	24.260	0.100
682.800	22.212	0.100
682.900	10.998	0.100
683.000	15.130	0.100
683.100	13.173	0.100
683.200	17.970	0.100
683.300	22.070	0.100
683.400	19.411	0.100
683.500	22.770	0.100
683.600	24.453	0.100
683.700	20.263	0.100
683.800	42.210	0.100
683.900	24.739	0.100
684.000	35.445	0.100
684.100	10.984	0.100
684.200	15.672	0.100
684.300	14.605	0.100
684.400	16.193	0.100
684.500	33.366	0.100
684.600	15.950	0.100
684.700	28.916	0.100
684.800	25.613	0.100
684.900	20.049	0.100
685.000	32.999	0.100
685.100	24.791	0.100
685.200	16.925	0.100
685.300	34.555	0.100
685.400	29.217	0.100
685.500	21.211	0.100
685.600	23.526	0.100
685.700	32.879	0.100
685.800	22.960	0.100
685.900	22.744	0.100
686.000	23.968	0.100
686.100	23.675	0.100
686.200	12.818	0.100
686.300	30.092	0.100
686.400	29.277	0.100
686.500	15.300	0.100
686.600	16.359	0.100
686.700	20.284	0.100
686.800	19.781	0.100
686.900	32.990	0.100
687.000	16.835	0.100
687.100	23.352	0.100
687.200	22.260	0.100
687.300	18.028	0.100
687.400	20.496	0.100
687.500	16.851	0.100
687.600	30.234	0.100
687.700	23.993	0.100
687.800	20.927	0.100
687.900	19.743	0.100
688.000	19.499	0.100
688.100	32.539	0.100
688.200	24.493	0.100
688.300	25.255	0.100
688.400	27.218	0.100
688.500	24.439	0.100
688.600	22.355	0.100
688.700	26.676	0.100
688.800	17.934	0.100
688.900	27.155	0.100
689.000	32.849	0.100
689.100	16.534	0.100
689.200	9.993	0.100
689.300	18.834	0.100
689.400	29.053	0.100
689.500	36.577	0.100
689.600	18.249	0.100
689.700	26.505	0.100
689.800	19.710	0.100
689.900	27.143	0.100
690.000	12.392	0.100
690.100	24.915	0.100
690.200	8.986	0.100
690.300	14.105	0.100
690.400	-4.400	0.100
690.500	12.634	0.100
690.600	28.907	0.100
690.700	-8.997	0.100
690.800	-10.216	0.100
690.900	2.120	0.100
691.000	-0.313	0.100
691.100	-1.415	0.100
691.200	-15.694	0.100
691.300	-0.091	0.100
691.400	-5.125	0.100
691.500	-3.101	0.100
691.600	-18.317	0.100
691.700	-5.551	0.100
691.800	-10.867	0.100
691.900	-17.294	0.100
692.000	-18.798	0.100
692.100	-11.751	0.100
692.200	-14.238	0.100
692.300	-14.016	0.100
692.400	-11.815	0.100
692.500	-24.910	0.100
692.600	-21.374	0.100
692.700	-26.360	0.100
692.800	-16.152	0.100
692.900	-29.085	0.100
693.000	-31.880	0.100
693.100	-12.985	0.100
693.200	-18.793	0.100
693.300	-34.377	0.100
693.400	-9.467	0.100
693.500	-22.088	0.100
693.600	-14.688	0.100
693.700	-22.467	0.100
693.800	-18.401	0.100
693.900	-22.570	0.100
694.000	-2.399	0.100
694.100	-19.152	0.100
694.200	-5.087	0.100
694.300	-27.453	0.100
694.400	-10.728	0.100
694.500	-13.953	0.100
694.600	-10.644	0.100
694.700	-17.656	0.100
694.800	-15.071	0.100
694.900	-9.087	0.100
695.000	-6.550	0.100
695.100	-8.077	0.100
695.200	-15.350	0.100
695.300	-20.251	0.100
695.400	-24.171	0.100
695.500	-26.126	0.100
695.600	-20.907	0.100
695.700	-5.120	0.100
695.800	1.179	0.100
695.900	-11.866	0.100
696.000	-18.163	0.100
696.100	-8.936	0.100
696.200	-15.945	0.100
696.300	-9.570	0.100
696.400	0.206	0.100
696.500	-8.594	0.100
696.600	-15.850	0.100
696.700	-4.274	0.100
696.800	-14.388	0.100
696.900	-9.885	0.100
697.000	-10.292	0.100
697.100	-17.081	0.100
697.200	-14.750	0.100
697.300	-7.661	0.100
697.400	0.198	0.100
697.500	-7.734	0.100
697.600	-15.513	0.100
697.700	-12.856	0.100
697.800	-12.972	0.100
697.900	-15.447	0.100
698.000	-12.805	0.100
698.100	-5.274	0.100
698.200	-13.029	0.100
698.300	-15.122	0.100
698.400	-5.375	0.100
698.500	-16.808	0.100
698.600	-19.213	0.100
698.700	-3.359	0.100
698.800	-10.166	0.100
698.900	-18.499	0.100
699.000	-23.186	0.100
699.100	-4.290	0.100
699.200	-10.509	0.100
699.300	-12.354	0.100
699.400	-0.420	0.100
699.500	-5.975	0.100
699.600	-11.778	0.100
699.700	-11.572	0.100
699.800	0.139	0.100
699.900	-4.950	0.100
700.000	-12.922	0.100
700.100	-7.003	0.100
700.200	-18.898	0.100
700.300	-9.262	0.100
700.400	-12.791	0.100
700.500	-14.907	0.100
700.600	-6.894	0.100
700.700	-15.990	0.100
700.800	-11.900	0.100
700.900	-5.937	0.100
701.000	-8.959	0.100
701.100	-20.726	0.100
701.200	-15.543	0.100
701.300	-2.829	0.100
701.400	-7.491	0.100
701.500	-18.788	0.100
701.600	-18.850	0.100
701.700	-2.717	0.100
701.800	-15.578	0.100
701.900	-18.161	0.100
702.000	-5.499	0.100
702.100	-11.956	0.100
702.200	-8.018	0.100
702.300	-12.884	0.100
702.400	-4.606	0.100
702.500	-13.968	0.100
702.600	-21.719	0.100
702.700	-11.049	0.100
702.800	-11.269	0.100
702.900	-14.028	0.100
703.000	-19.495	0.100
703.100	-7.003	0.100
703.200	0.888	0.100
703.300	-13.287	0.100
703.400	-10.033	0.100
703.500	-9.874	0.100
703.600	-11.090	0.100
703.700	-19.276	0.100
703.800	-11.661	0.100
703.900	-12.621	0.100
704.000	-7.535	0.100
704.100	-22.993	0.100
704.200	-1.573	0.100
704.300	-13.219	0.100
704.400	-14.594	0.100
704.500	-18.815	0.100
704.600	-3.165	0.100
704.700	-10.065	0.100
704.800	-14.996	0.100
704.900	-24.454	0.100
705.000	-23.362	0.100
705.100	-10.138	0.100
705.200	-11.279	0.100
705.300	-16.261	0.100
705.400	-17.300	0.100
705.500	-3.172	0.100
705.600	-15.499	0.100
705.700	-11.657	0.100
705.800	-8.394	0.100
705.900	-15.998	0.100
706.000	-8.581	0.100
706.100	-13.527	0.100
706.200	-7.321	0.100
706.300	-8.265	0.100
706.400	-12.994	0.100
706.500	-7.195	0.100
706.600	-12.449	0.100
706.700	-14.219	0.100
706.800	-26.039	0.100
706.900	-16.529	0.100
707.000	-13.874	0.100
707.100	-18.163	0.100
707.200	-9.749	0.100
707.300	-6.352	0.100
707.400	-18.142	0.100
707.500	-18.099	0.100
707.600	-14.262	0.100
707.700	-21.952	0.100
707.800	-11.687	0.100
707.900	-8.260	0.100
708.000	-3.631	0.100
708.100	-11.102	0.100
708.200	-23.054	0.100
708.300	-12.688	0.100
708.400	-22.539	0.100
708.500	-19.959	0.100
708.600	-15.200	0.100
708.700	-10.194	0.100
708.800	-10.011	0.100
708.900	6.052	0.100
709.000	-2.065	0.100
709.100	-24.662	0.100
709.200	-26.257	0.100
709.300	-12.681	0.100
709.400	-13.001	0.100
709.500	-0.467	0.100
709.600	-23.024	0.100
709.700	-14.197	0.100
709.800	-9.653	0.100
709.900	-20.224	0.100
710.000	-23.634	0.100
710.100	-19.419	0.100
710.200	-22.890	0.100
710.300	-11.705	0.100
710.400	-13.444	0.100
710.500	-3.611	0.100
710.600	-10.199	0.100
710.700	-21.956	0.100
710.800	-4.530	0.100
710.900	-1.036	0.100
711.000	-17.487	0.100
711.100	-19.051	0.100
711.200	-16.938	0.100
711.300	-24.926	0.100
711.400	-9.646	0.100
711.500	-14.290	0.100
711.600	-7.807	0.100
711.700	-26.060	0.100
711.800	-2.217	0.100
711.900	-4.796	0.100
712.000	-5.197	0.100
712.100	-14.180	0.100
712.200	-5.930	0.100
712.300	-19.019	0.100
712.400	-18.436	0.100
712.500	-27.353	0.100
712.600	-14.201	0.100
712.700	-18.684	0.100
712.800	-8.158	0.100
712.900	-17.791	0.100
713.000	-17.378	0.100
713.100	-11.555	0.100
713.200	-14.529	0.100
713.300	-9.180	0.100
713.400	-3.195	0.100
713.500	-22.376	0.100
713.600	-14.412	0.100
713.700	-1.826	0.100
713.800	-9.567	0.100
713.900	-26.578	0.100
714.000	-20.347	0.100
714.100	-30.269	0.100
714.200	-25.732	0.100
714.300	6.273	0.100
714.400	-7.380	0.100
714.500	-22.092	0.100
714.600	-3.305	0.100
714.700	-10.013	0.100
714.800	-21.573	0.100
714.900	-22.615	0.100
715.000	-21.850	0.100
715.100	-5.911	0.100
715.200	-16.368	0.100
715.300	-20.890	0.100
715.400	-8.926	0.100
715.500	-23.537	0.100
715.600	-4.544	0.100
715.700	-13.631	0.100
715.800	-20.297	0.100
715.900	-9.280	0.100
716.000	-15.031	0.100
716.100	-21.789	0.100
716.200	-6.456	0.100
716.300	-24.669	0.100
716.400	-15.260	0.100
716.500	0.493	0.100
716.600	-12.181	0.100
716.700	-12.803	0.100
716.800	-15.642	0.100
716.900	-18.445	0.100
717.000	-10.338	0.100
717.100	-29.946	0.100
717.200	-14.516	0.100
717.300	-13.689	0.100
717.400	-7.707	0.100
717.500	-14.232	0.100
717.600	-9.934	0.100
717.700	-13.942	0.100
717.800	-11.190	0.100
717.900	-6.435	0.100
718.000	-14.021	0.100
718.100	-27.615	0.100
718.200	-27.283	0.100
718.300	-13.894	0.100
718.400	-9.911	0.100
718.500	-9.504	0.100
718.600	-20.865	0.100
718.700	1.325	0.100
718.800	-10.880	0.100
718.900	-15.667	0.100
719.000	-34.095	0.100
719.100	-21.990	0.100
719.200	-16.315	0.100
719.300	-11.908	0.100
719.400	-1.945	0.100
719.500	-1.383	0.100
719.600	-23.668	0.100
719.700	-20.100	0.100
719.800	-12.699	0.100
719.900	-14.853	0.100
720.000	-21.306	0.100
720.100	-11.449	0.100
720.200	-10.672	0.100
720.300	-14.763	0.100
720.400	-13.291	0.100
720.500	-20.650	0.100
720.600	-13.983	0.100
720.700	-15.111	0.100
720.800	-13.466	0.100
720.900	-10.733	0.100
721.000	-24.100	0.100
721.100	-12.180	0.100
721.200	-1.534	0.100
721.300	-11.036	0.100
721.400	-17.807	0.100
721.500	-16.703	0.100
721.600	-7.375	0.100
721.700	-13.828	0.100
721.800	-17.228	0.100
721.900	-22.482	0.100
722.000	-23.171	0.100
722.100	-10.853	0.100
722.200	-14.919	0.100
722.300	-1.105	0.100
722.400	-11.113	0.100
722.500	-18.065	0.100
722.600	-20.113	0.100
722.700	-21.153	0.100
722.800	-8.999	0.100
722.900	-12.842	0.100
723.000	-17.753	0.100
723.100	-18.543	0.100
723.200	-9.585	0.100
723.300	-10.302	0.100
723.400	-10.856	0.100
723.500	-21.592	0.100
723.600	-12.312	0.100
723.700	-11.329	0.100
723.800	-11.276	0.100
723.900	-5.224	0.100
724.000	-7.814	0.100
724.100	-11.739	0.100
724.200	2.004	0.100
724.300	-22.202	0.100
724.400	-14.440	0.100
724.500	-28.152	0.100
724.600	-17.741	0.100
724.700	-19.269	0.100
724.800	-12.892	0.100
724.900	9.292	0.100
725.000	-12.376	0.100
725.100	-30.821	0.100
725.200	-7.044	0.100
725.300	-12.007	0.100
725.400	-5.628	0.100
725.500	-9.064	0.100
725.600	-16.937	0.100
725.700	-27.690	0.100
725.800	-15.089	0.100
725.900	-14.570	0.100
726.000	-17.903	0.100
726.100	-11.681	0.100
726.200	-13.600	0.100
726.300	-28.394	0.100
726.400	-14.871	0.100
726.500	-13.395	0.100
726.600	-9.851	0.100
726.700	-19.023	0.100
726.800	-6.507	0.100
726.900	-27.982	0.100
727.000	-23.298	0.100
727.100	-16.370	0.100
727.200	-7.590	0.100
727.300	-32.854	0.100
727.400	-16.255	0.100
727.500	-3.159	0.100
727.600	-20.690	0.100
727.700	-22.174	0.100
727.800	-7.948	0.100
727.900	-8.961	0.100
728.000	-16.338	0.100
728.100	-27.683	0.100
728.200	-14.986	0.100
728.300	-16.228	0.100
728.400	-7.159	0.100
728.500	-5.229	0.100
728.600	-7.077	0.100
728.700	-23.358	0.100
728.800	-22.280	0.100
728.900	-19.896	0.100
729.000	-8.591	0.100
729.100	-22.129	0.100
729.200	-17.108	0.100
729.300	-10.925	0.100
729.400	-8.309	0.100
729.500	-18.996	0.100
729.600	-17.681	0.100
729.700	-16.342	0.100
729.800	-22.262	0.100
729.900	6.219	0.100
730.000	-9.661	0.100
730.100	-23.591	0.100
730.200	-4.250	0.100
730.300	-15.079	0.100
730.400	-15.816	0.100
730.500	-18.967	0.100
730.600	-13.486	0.100
730.700	-14.117	0.100
730.800	-17.365	0.100
730.900	-8.643	0.100
731.000	-7.512	0.100
731.100	-17.152	0.100
731.200	-22.627	0.100
731.300	-5.744	0.100
731.400	-4.446	0.100
731.500	-5.732	0.100
731.600	-5.843	0.100
731.700	-19.273	0.100
731.800	-28.411	0.100
731.900	-17.513	0.100
732.000	-2.066	0.100
732.100	-15.808	0.100
732.200	-8.821	0.100
732.300	-5.171	0.100
732.400	-18.213	0.100
732.500	-18.321	0.100
732.600	-13.026	0.100
732.700	-11.298	0.100
732.800	-28.830	0.100
732.900	-14.767	0.100
733.000	-7.942	0.100
733.100	-6.840	0.100
733.200	-10.118	0.100
733.300	-12.678	0.100
733.400	-9.302	0.100
733.500	-16.276	0.100
733.600	-4.736	0.100
733.700	-23.529	0.100
733.800	-0.987	0.100
733.900	-9.231	0.100
734.000	-24.132	0.100
734.100	-19.907	0.100
734.200	-15.925	0.100
734.300	-6.622	0.100
734.400	-16.986	0.100
734.500	-15.765	0.100
734.600	-2.829	0.100
734.700	-14.035	0.100
734.800	-26.333	0.100
734.900	-20.436	0.100
735.000	-6.472	0.100
735.100	-16.220	0.100
735.200	-16.237	0.100
735.300	-1.271	0.100
735.400	-14.529	0.100
735.500	-4.653	0.100
735.600	-14.195	0.100
735.700	-25.984	0.100
735.800	-5.303	0.100
735.900	-7.500	0.100
736.000	-8.468	0.100
736.100	-11.564	0.100
736.200	-14.001	0.100
736.300	-10.639	0.100
736.400	-21.136	0.100
736.500	-8.688	0.100
736.600	-17.385	0.100
736.700	-10.468	0.100
736.800	-5.693	0.100
736.900	-19.516	0.100
737.000	-20.102	0.100
737.100	-10.184	0.100
737.200	-16.109	0.100
737.300	-27.727	0.100
737.400	-6.303	0.100
737.500	-12.060	0.100
737.600	-16.016	0.100
737.700	-2.904	0.100
737.800	-7.044	0.100
737.900	-6.447	0.100
738.000	-33.436	0.100
738.100	-16.660	0.100
738.200	-23.646	0.100
738.300	-10.238	0.100
738.400	-5.944	0.100
738.500	-16.718	0.100
738.600	-11.626	0.100
738.700	-4.645	0.100
738.800	-10.391	0.100
738.900	-11.026	0.100
739.000	-15.231	0.100
739.100	-0.748	0.100
739.200	-25.216	0.100
739.300	-18.054	0.100
739.400	-13.774	0.100
739.500	-22.338	0.100
739.600	-14.769	0.100
739.700	-7.704	0.100
739.800	-12.305	0.100
739.900	-11.246	0.100
740.000	-16.179	0.100
740.100	-28.901	0.100
740.200	-8.066	0.100
740.300	-10.226	0.100
740.400	-7.352	0.100
740.500	-19.969	0.100
740.600	-16.328	0.100
740.700	-22.041	0.100
740.800	-13.719	0.100
740.900	-19.085	0.100
741.000	-11.700	0.100
741.100	3.058	0.100
741.200	-3.703	0.100
741.300	-30.407	0.100
741.400	-16.464	0.100
741.500	-7.341	0.100
741.600	-18.125	0.100
741.700	-27.763	0.100
741.800	-15.283	0.100
741.900	-5.415	0.100
742.000	-15.113	0.100
742.100	-19.058	0.100
742.200	-12.365	0.100
742.300	-16.532	0.100
742.400	-10.490	0.100
742.500	-3.225	0.100
742.600	-12.678	0.100
742.700	-14.090	0.100
742.800	-1.174	0.100
742.900	-13.981	0.100
743.000	-12.719	0.100
743.100	-13.376	0.100
743.200	-8.520	0.100
743.300	-12.878	0.100
743.400	-23.814	0.100
743.500	-7.549	0.100
743.600	-20.955	0.100
743.700	-3.970	0.100
743.800	-5.301	0.100
743.900	-4.354	0.100
744.000	-13.786	0.100
744.100	-16.066	0.100
744.200	-8.977	0.100
744.300	-4.021	0.100
744.400	-8.650	0.100
744.500	-19.553	0.100
744.600	-11.461	0.100
744.700	1.329	0.100
744.800	-15.206	0.100
744.900	-7.240	0.100
745.000	-17.798	0.100
745.100	-14.904	0.100
745.200	-15.419	0.100
745.300	-15.837	0.100
745.400	-0.918	0.100
745.500	-14.798	0.100
745.600	-22.308	0.100
745.700	-16.676	0.100
745.800	-14.622	0.100
745.900	-15.288	0.100
746.000	-18.870	0.100
746.100	-6.380	0.100
746.200	-25.181	0.100
746.300	-11.052	0.100
746.400	-14.351	0.100
746.500	-8.447	0.100
746.600	-16.205	0.100
746.700	-16.177	0.100
746.800	-5.549	0.100
746.900	0.395	0.100
747.000	-15.923	0.100
747.100	-10.605	0.100
747.200	-9.816	0.100
747.300	-16.786	0.100
747.400	-21.253	0.100
747.500	-11.390	0.100
747.600	-2.950	0.100
747.700	-10.678	0.100
747.800	-10.733	0.100
747.900	-23.431	0.100
748.000	-5.277	0.100
748.100	-7.920	0.100
748.200	-14.800	0.100
748.300	-19.831	0.100
748.400	-17.449	0.100
748.500	-23.458	0.100
748.600	-22.853	0.100
748.700	3.884	0.100
748.800	0.379	0.100
748.900	-6.055	0.100
749.000	-15.782	0.100
749.100	-29.008	0.100
749.200	-4.546	0.100
749.300	-7.754	0.100
749.400	-21.129	0.100
749.500	-21.519	0.100
749.600	-12.076	0.100
749.700	-17.705	0.100
749.800	-16.430	0.100
749.900	-13.008	0.100
750.000	-3.969	0.100
750.100	-10.358	0.100
750.200	-18.215	0.100
750.300	-4.469	0.100
750.400	-15.495	0.100
750.500	-6.579	0.100
750.600	4.932	0.100
750.700	-6.287	0.100
750.800	-7.418	0.100
750.900	-9.282	0.100
751.000	-7.190	0.100
751.100	-28.477	0.100
751.200	-21.017	0.100
751.300	-9.936	0.100
751.400	2.724	0.100
751.500	5.882	0.100
751.600	-5.330	0.100
751.700	-5.787	0.100
751.800	-14.815	0.100
751.900	-11.767	0.100
752.000	-15.256	0.100
752.100	-8.529	0.100
752.200	-5.283	0.100
752.300	-8.505	0.100
752.400	-13.375	0.100
752.500	-15.882	0.100
752.600	-13.271	0.100
752.700	-19.817	0.100
752.800	-19.583	0.100
752.900	-8.654	0.100
753.000	-19.936	0.100
753.100	-26.363	0.100
753.200	-11.935	0.100
753.300	-8.543	0.100
753.400	4.990	0.100
753.500	0.943	0.100
753.600	-5.611	0.100
753.700	-20.876	0.100
753.800	-8.108	0.100
753.900	-25.483	0.100
754.000	-0.992	0.100
754.100	-3.181	0.100
754.200	-15.351	0.100
754.300	-19.479	0.100
754.400	-1.751	0.100
754.500	-0.450	0.100
754.600	-4.752	0.100
754.700	-15.048	0.100
754.800	-19.131	0.100
754.900	-8.177	0.100
755.000	-19.927	0.100
755.100	-11.945	0.100
755.200	-17.106	0.100
755.300	-3.751	0.100
755.400	-12.682	0.100
755.500	-8.226	0.100
755.600	-7.233	0.100
755.700	-11.948	0.100
755.800	-14.324	0.100
755.900	-13.030	0.100
756.000	-15.144	0.100
756.100	-21.016	0.100
756.200	-14.151	0.100
756.300	-7.547	0.100
756.400	-5.958	0.100
756.500	-6.813	0.100
756.600	-2.552	0.100
756.700	-10.895	0.100
756.800	-19.320	0.100
756.900	-26.539	0.100
757.000	-7.631	0.100
757.100	-12.477	0.100
757.200	-7.796	0.100
757.300	-0.901	0.100
757.400	-9.240	0.100
757.500	-12.840	0.100
757.600	-3.500	0.100
757.700	-2.186	0.100
757.800	-10.326	0.100
757.900	-5.500	0.100
758.000	-9.362	0.100
758.100	-22.446	0.100
758.200	-14.039	0.100
758.300	-15.628	0.100
758.400	5.238	0.100
758.500	-18.620	0.100
758.600	-12.801	0.100
758.700	4.563	0.100
758.800	-4.687	0.100
758.900	-1.302	0.100
759.000	-12.368	0.100
759.100	-14.258	0.100
759.200	-14.791	0.100
759.300	-25.765	0.100
759.400	-8.239	0.100
759.500	-14.929	0.100
759.600	-6.607	0.100
759.700	-6.916	0.100
759.800	-17.071	0.100
759.900	-10.274	0.100
760.000	-14.513	0.100
760.100	-8.379	0.100
760.200	-8.336	0.100
760.300	-8.330	0.100
760.400	-9.437	0.100
760.500	-6.086	0.100
760.600	-5.614	0.100
760.700	-12.470	0.100
760.800	-14.564	0.100
760.900	-1.978	0.100
761.000	-5.802	0.100
761.100	-11.753	0.100
761.200	-3.424	0.100
761.300	-7.517	0.100
761.400	-0.819	0.100
761.500	-17.663	0.100
761.600	-13.923	0.100
761.700	3.566	0.100
761.800	-9.333	0.100
761.900	-9.712	0.100
762.000	-19.654	0.100
762.100	-9.253	0.100
762.200	1.788	0.100
762.300	0.451	0.100
762.400	-8.549	0.100
762.500	-23.854	0.100
762.600	-9.388	0.100
762.700	-3.261	0.100
762.800	-14.541	0.100
762.900	-18.723	0.100
763.000	-7.602	0.100
763.100	-10.043	0.100
763.200	-13.673	0.100
763.300	-4.602	0.100
763.400	-3.360	0.100
763.500	-12.723	0.100
763.600	-5.783	0.100
763.700	-8.402	0.100
763.800	-11.087	0.100
763.900	-6.972	0.100
764.000	-1.968	0.100
764.100	-3.232	0.100
764.200	-29.656	0.100
764.300	-13.796	0.100
764.400	-9.948	0.100
764.500	-2.907	0.100
764.600	-9.981	0.100
764.700	-7.538	0.100
764.800	-5.142	0.100
764.900	0.381	0.100
765.000	-28.319	0.100
765.100	-2.936	0.100
765.200	-7.823	0.100
765.300	-9.306	0.100
765.400	-9.113	0.100
765.500	-4.822	0.100
765.600	-7.807	0.100
765.700	-11.687	0.100
765.800	-14.805	0.100
765.900	0.590	0.100
766.000	-5.128	0.100
766.100	-3.033	0.100
766.200	0.122	0.100
766.300	-14.889	0.100
766.400	-3.638	0.100
766.500	-16.998	0.100
766.600	-22.641	0.100
766.700	-1.424	0.100
766.800	3.457	0.100
766.900	-2.090	0.100
767.000	-7.230	0.100
767.100	-10.321	0.100
767.200	-2.137	0.100
767.300	-3.380	0.100
767.400	-24.016	0.100
767.500	-23.819	0.100
767.600	-2.199	0.100
767.700	-3.860	0.100
767.800	-8.372	0.100
767.900	-9.480	0.100
768.000	-18.551	0.100
768.100	-6.487	0.100
768.200	-10.988	0.100
768.300	-16.800	0.100
768.400	-9.238	0.100
768.500	-18.314	0.100
768.600	-11.689	0.100
768.700	-5.811	0.100
768.800	-10.967	0.100
768.900	-15.983	0.100
769.000	-9.406	0.100
769.100	-12.468	0.100
769.200	-11.471	0.100
769.300	-20.333	0.100
769.400	-6.643	0.100
769.500	-1.488	0.100
769.600	-2.853	0.100
769.700	-7.352	0.100
769.800	-16.155	0.100
769.900	-11.209	0.100
770.000	-6.410	0.100
770.100	-12.659	0.100
770.200	-12.585	0.100
770.300	0.342	0.100
770.400	-15.754	0.100
770.500	-16.826	0.100
770.600	-9.784	0.100
770.700	-15.469	0.100
770.800	10.181	0.100
770.900	-2.319	0.100
771.000	5.126	0.100
771.100	-0.137	0.100
771.200	-4.916	0.100
771.300	-22.427	0.100
771.400	-15.051	0.100
771.500	4.202	0.100
771.600	0.437	0.100
771.700	-14.751	0.100
771.800	-13.640	0.100
771.900	0.971	0.100
772.000	5.450	0.100
772.100	-4.781	0.100
772.200	-15.994	0.100
772.300	-22.448	0.100
772.400	-21.757	0.100
772.500	-5.881	0.100
772.600	-0.239	0.100
772.700	-23.385	0.100
772.800	-15.763	0.100
772.900	2.938	0.100
773.000	-11.056	0.100
773.100	-0.161	0.100
773.200	-6.612	0.100
773.300	-1.475	0.100
773.400	-31.262	0.100
773.500	-31.517	0.100
773.600	8.905	0.100
773.700	4.369	0.100
773.800	-3.655	0.100
773.900	0.205	0.100
774.000	-5.703	0.100
774.100	-24.382	0.100
774.200	-13.704	0.100
774.300	-5.765	0.100
774.400	-29.158	0.100
774.500	-15.224	0.100
774.600	2.676	0.100
774.700	-12.768	0.100
774.800	-11.420	0.100
774.900	2.972	0.100
775.000	-3.284	0.100
775.100	-10.664	0.100
775.200	-10.048	0.100
775.300	-0.008	0.100
775.400	-4.562	0.100
775.500	-24.706	0.100
775.600	-15.445	0.100
775.700	1.684	0.100
775.800	-6.632	0.100
775.900	-12.098	0.100
776.000	-1.252	0.100
776.100	-23.265	0.100
776.200	2.587	0.100
776.300	-11.561	0.100
776.400	1.816	0.100
776.500	1.513	0.100
776.600	-10.909	0.100
776.700	-2.302	0.100
776.800	-19.040	0.100
776.900	-16.444	0.100
777.000	-0.746	0.100
777.100	-0.997	0.100
777.200	-5.880	0.100
777.300	-8.186	0.100
777.400	-6.813	0.100
777.500	-7.767	0.100
777.600	-9.486	0.100
777.700	1.711	0.100
777.800	-1.805	0.100
777.900	-2.744	0.100
778.000	-5.133	0.100
778.100	-11.558	0.100
778.200	-11.637	0.100
778.300	-14.148	0.100
778.400	2.300	0.100
778.500	-8.142	0.100
778.600	-9.546	0.100
778.700	-15.304	0.100
778.800	-14.760	0.100
778.900	-7.217	0.100
779.000	-2.738	0.100
779.100	-7.714	0.100
779.200	-2.796	0.100
779.300	-18.689	0.100
779.400	-11.758	0.100
779.500	-9.798	0.100
779.600	-1.009	0.100
779.700	-8.642	0.100
779.800	-4.574	0.100
779.900	-5.254	0.100
780.000	-4.473	0.100
780.100	-16.039	0.100
780.200	9.513	0.100
780.300	1.799	0.100
780.400	15.953	0.100
780.500	10.508	0.100
780.600	4.343	0.100
780.700	34.847	0.100
780.800	21.378	0.100
780.900	27.596	0.100
781.000	15.259	0.100
781.100	10.722	0.100
781.200	16.098	0.100
781.300	38.818	0.100
781.400	34.602	0.100
781.500	22.943	0.100
781.600	32.434	0.100
781.700	32.921	0.100
781.800	26.585	0.100
781.900	32.115	0.100
782.000	28.426	0.100
782.100	28.623	0.100
782.200	25.770	0.100
782.300	15.782	0.100
782.400	39.948	0.100
782.500	39.263	0.100
782.600	23.727	0.100
782.700	33.167	0.100
782.800	40.936	0.100
782.900	31.844	0.100
783.000	28.160	0.100
783.100	25.619	0.100
783.200	31.740	0.100
783.300	35.833	0.100
783.400	27.486	0.100
783.500	30.667	0.100
783.600	36.614	0.100
783.700	30.608	0.100
783.800	34.857	0.100
783.900	21.233	0.100
784.000	25.069	0.100
784.100	19.444	0.100
784.200	15.929	0.100
784.300	23.148	0.100
784.400	24.441	0.100
784.500	31.414	0.100
784.600	12.399	0.100
784.700	31.934	0.100
784.800	22.575	0.100
784.900	25.380	0.100
785.000	17.989	0.100
785.100	12.147	0.100
785.200	20.311	0.100
785.300	21.836	0.100
785.400	11.536	0.100
785.500	14.984	0.100
785.600	9.145	0.100
785.700	8.314	0.100
785.800	5.343	0.100
785.900	40.704	0.100
786.000	19.707	0.100
786.100	9.773	0.100
786.200	18.475	0.100
786.300	18.131	0.100
786.400	22.629	0.100
786.500	37.996	0.100
786.600	18.420	0.100
786.700	11.064	0.100
786.800	13.044	0.100
786.900	17.285	0.100
787.000	8.050	0.100
787.100	11.587	0.100
787.200	10.049	0.100
787.300	22.586	0.100
787.400	27.456	0.100
787.500	23.880	0.100
787.600	19.637	0.100
787.700	9.891	0.100
787.800	29.061	0.100
787.900	7.860	0.100
788.000	21.795	0.100
788.100	14.386	0.100
788.200	18.854	0.100
788.300	13.670	0.100
788.400	4.973	0.100
788.500	13.586	0.100
788.600	2.769	0.100
788.700	21.287	0.100
788.800	24.293	0.100
788.900	14.050	0.100
789.000	14.289	0.100
789.100	16.187	0.100
789.200	13.746	0.100
789.300	11.168	0.100
789.400	13.367	0.100
789.500	10.990	0.100
789.600	19.214	0.100
789.700	22.153	0.100
789.800	17.563	0.100
789.900	19.908	0.100
790.000	17.032	0.100
790.100	14.011	0.100
790.200	12.280	0.100
790.300	12.767	0.100
790.400	14.365	0.100
790.500	10.031	0.100
790.600	3.495	0.100
790.700	22.192	0.100
790.800	21.170	0.100
790.900	5.134	0.100
791.000	8.402	0.100
791.100	18.145	0.100
791.200	19.710	0.100
791.300	10.047	0.100
791.400	8.696	0.100
791.500	14.005	0.100
791.600	27.392	0.100
791.700	10.795	0.100
791.800	19.490	0.100
791.900	23.302	0.100
792.000	10.431	0.100
792.100	19.380	0.100
792.200	13.163	0.100
792.300	16.638	0.100
792.400	14.275	0.100
792.500	-1.215	0.100
792.600	18.466	0.100
792.700	16.379	0.100
792.800	8.032	0.100
792.900	16.175	0.100
793.000	23.940	0.100
793.100	23.773	0.100
793.200	24.899	0.100
793.300	6.587	0.100
793.400	10.185	0.100
793.500	15.081	0.100
793.600	12.298	0.100
793.700	16.414	0.100
793.800	6.721	0.100
793.900	-3.725	0.100
794.000	5.839	0.100
794.100	27.949	0.100
794.200	24.935	0.100
794.300	12.809	0.100
794.400	7.074	0.100
794.500	19.698	0.100
794.600	7.547	0.100
794.700	9.283	0.100
794.800	27.142	0.100
794.900	19.652	0.100
795.000	0.824	0.100
795.100	30.650	0.100
795.200	9.300	0.100
795.300	7.977	0.100
795.400	-1.351	0.100
795.500	23.308	0.100
795.600	23.404	0.100
795.700	23.014	0.100
795.800	17.356	0.100
795.900	7.509	0.100
796.000	8.274	0.100
796.100	25.738	0.100
796.200	13.173	0.100
796.300	25.030	0.100
796.400	20.564	0.100
796.500	13.060	0.100
796.600	11.631	0.100
796.700	20.894	0.100
796.800	21.985	0.100
796.900	22.099	0.100
797.000	13.367	0.100
797.100	19.574	0.100
797.200	12.509	0.100
797.300	15.539	0.100
797.400	23.471	0.100
797.500	3.558	0.100
797.600	19.905	0.100
797.700	20.427	0.100
797.800	25.247	0.100
797.900	17.974	0.100
798.000	16.992	0.100
798.100	27.138	0.100
798.200	23.907	0.100
798.300	10.772	0.100
798.400	14.281	0.100
798.500	18.110	0.100
798.600	22.410	0.100
798.700	30.626	0.100
798.800	24.989	0.100
798.900	15.776	0.100
799.000	16.482	0.100
799.100	24.127	0.100
799.200	30.958	0.100
799.300	13.231	0.100
799.400	22.193	0.100
799.500	14.285	0.100
799.600	27.092	0.100
799.700	8.282	0.100
799.800	18.425	0.100
799.900	14.048	0.100
800.000	20.407	0.100
