time /s	I /nA	E /V
0.100	-25.045	0.099
0.200	-32.881	0.099
0.300	-38.302	0.099
0.400	-30.702	0.099
0.500	-35.045	0.099
0.600	-34.451	0.099
0.700	-30.664	0.099
0.800	-42.167	0.099
0.900	-43.313	0.099
1.000	-32.478	0.099
1.100	-39.992	0.099
1.200	-44.140	0.099
1.300	-23.015	0.099
1.400	-29.934	0.099
1.500	-45.006	0.099
1.600	-48.168	0.099
1.700	-34.853	0.099
1.800	-25.664	0.099
1.900	-43.059	0.099
2.000	-44.086	0.099
2.100	-35.197	0.099
2.200	-54.004	0.099
2.300	-46.940	0.099
2.400	-35.990	0.099
2.500	-30.029	0.099
2.600	-34.315	0.099
2.700	-37.865	0.099
2.800	-30.282	0.099
2.900	-41.850	0.099
3.000	-33.436	0.099
3.100	-35.448	0.099
3.200	-29.446	0.099
3.300	-21.578	0.099
3.400	-41.730	0.099
3.500	-37.704	0.099
3.600	-42.761	0.099
3.700	-45.418	0.099
3.800	-44.818	0.099
3.900	-46.387	0.099
4.000	-34.750	0.099
4.100	-25.921	0.099
4.200	-35.721	0.099
4.300	-35.861	0.099
4.400	-40.339	0.099
4.500	-26.715	0.099
4.600	-35.067	0.099
4.700	-26.421	0.099
4.800	-31.690	0.099
4.900	-38.425	0.099
5.000	-42.023	0.099
5.100	-34.567	0.099
5.200	-23.695	0.099
5.300	-44.095	0.099
5.400	-36.055	0.099
5.500	-45.492	0.099
5.600	-46.097	0.099
5.700	-35.831	0.099
5.800	-35.270	0.099
5.900	-40.102	0.099
6.000	-40.225	0.099
6.100	-28.919	0.099
6.200	-36.953	0.099
6.300	-32.775	0.099
6.400	-43.942	0.099
6.500	-34.102	0.099
6.600	-42.322	0.099
6.700	-48.886	0.099
6.800	-36.240	0.099
6.900	-27.676	0.099
7.000	-20.672	0.099
7.100	-40.607	0.099
7.200	-38.765	0.099
7.300	-29.853	0.099
7.400	-35.078	0.099
7.500	-47.724	0.099
7.600	-31.329	0.099
7.700	-29.313	0.099
7.800	-42.055	0.099
7.900	-23.674	0.099
8.000	-26.573	0.099
8.100	-31.263	0.099
8.200	-33.181	0.099
8.300	-39.390	0.099
8.400	-32.598	0.099
8.500	-26.610	0.099
8.600	-25.672	0.099
8.700	-22.684	0.099
8.800	-42.004	0.099
8.900	-32.815	0.099
9.000	-34.159	0.099
9.100	-38.643	0.099
9.200	-48.162	0.099
9.300	-40.684	0.099
9.400	-26.761	0.099
9.500	-27.254	0.099
9.600	-40.411	0.099
9.700	-40.848	0.099
9.800	-25.260	0.099
9.900	-43.171	0.099
10.000	-33.979	0.099
10.100	-30.406	0.099
10.200	-39.990	0.099
10.300	-25.457	0.099
10.400	-28.704	0.099
10.500	-30.752	0.099
10.600	-27.869	0.099
10.700	-24.760	0.099
10.800	-38.010	0.099
10.900	-40.601	0.099
11.000	-40.334	0.099
11.100	-27.405	0.099
11.200	-20.627	0.099
11.300	-30.343	0.099
11.400	-42.877	0.099
11.500	-32.639	0.099
11.600	-21.607	0.099
11.700	-36.522	0.099
11.800	-39.690	0.099
11.900	-51.359	0.099
12.000	-31.115	0.099
12.100	-34.130	0.099
12.200	-29.781	0.099
12.300	-41.452	0.099
12.400	-30.975	0.099
12.500	-33.731	0.099
12.600	-27.254	0.099
12.700	-28.595	0.099
12.800	-37.529	0.099
12.900	-30.076	0.099
13.000	-26.412	0.099
13.100	-30.400	0.099
13.200	-30.913	0.099
13.300	-26.433	0.099
13.400	-29.842	0.099
13.500	-37.313	0.099
13.600	-34.323	0.099
13.700	-25.639	0.099
13.800	-47.139	0.099
13.900	-33.274	0.099
14.000	-31.145	0.099
14.100	-36.482	0.099
14.200	-40.687	0.099
14.300	-27.494	0.099
14.400	-40.330	0.099
14.500	-42.819	0.099
14.600	-33.379	0.099
14.700	-38.516	0.099
14.800	-28.469	0.099
14.900	-28.627	0.099
15.000	-19.592	0.099
15.100	-30.853	0.099
15.200	-40.389	0.099
15.300	-34.429	0.099
15.400	-31.561	0.099
15.500	-26.266	0.099
15.600	-25.568	0.099
15.700	-37.834	0.099
15.800	-26.235	0.099
15.900	-33.538	0.099
16.000	-43.452	0.099
16.100	-32.532	0.100
16.200	-37.390	0.100
16.300	-36.023	0.100
16.400	-36.166	0.100
16.500	-28.839	0.100
16.600	-25.140	0.100
16.700	-34.174	0.100
16.800	-40.163	0.100
16.900	-26.599	0.100
17.000	-28.074	0.100
17.100	-22.091	0.100
17.200	-35.584	0.100
17.300	-28.336	0.100
17.400	-34.522	0.100
17.500	-28.886	0.100
17.600	-28.545	0.100
17.700	-28.616	0.100
17.800	-33.379	0.100
17.900	-52.836	0.100
18.000	-39.026	0.100
18.100	-31.615	0.100
18.200	-21.294	0.100
18.300	-29.631	0.100
18.400	-41.594	0.100
18.500	-27.727	0.100
18.600	-23.820	0.100
18.700	-27.439	0.100
18.800	-36.945	0.100
18.900	-22.798	0.100
19.000	-32.129	0.100
19.100	-50.624	0.100
19.200	-20.745	0.100
19.300	-27.234	0.100
19.400	-25.033	0.100
19.500	-25.229	0.100
19.600	-21.797	0.100
19.700	-41.074	0.100
19.800	-44.174	0.100
19.900	-41.996	0.100
20.000	-31.012	0.100
20.100	-42.235	0.100
20.200	-30.128	0.100
20.300	-23.544	0.100
20.400	-23.389	0.100
20.500	-22.206	0.100
20.600	-40.904	0.100
20.700	-25.794	0.100
20.800	-31.875	0.100
20.900	-36.585	0.100
21.000	-29.336	0.100
21.100	-39.501	0.100
21.200	-37.585	0.100
21.300	-32.566	0.100
21.400	-25.473	0.100
21.500	-28.761	0.100
21.600	-26.032	0.100
21.700	-28.190	0.100
21.800	-32.047	0.100
21.900	-43.501	0.100
22.000	-36.330	0.100
22.100	-25.791	0.100
22.200	-37.196	0.100
22.300	-33.440	0.100
22.400	-28.708	0.100
22.500	-26.232	0.100
22.600	-30.322	0.100
22.700	-37.058	0.100
22.800	-33.807	0.100
22.900	-29.803	0.100
23.000	-27.712	0.100
23.100	-27.009	0.100
23.200	-27.086	0.100
23.300	-33.585	0.100
23.400	-36.568	0.100
23.500	-38.111	0.100
23.600	-25.051	0.100
23.700	-37.706	0.100
23.800	-34.385	0.100
23.900	-27.068	0.100
24.000	-28.556	0.100
24.100	-21.713	0.100
24.200	-38.052	0.100
24.300	-34.299	0.100
24.400	-34.157	0.100
24.500	-39.894	0.100
24.600	-26.870	0.100
24.700	-22.064	0.100
24.800	-14.543	0.100
24.900	-28.337	0.100
25.000	-45.216	0.100
25.100	-27.319	0.100
25.200	-22.298	0.100
25.300	-22.811	0.100
25.400	-32.182	0.100
25.500	-40.544	0.100
25.600	-50.624	0.100
25.700	-22.413	0.100
25.800	-45.875	0.100
25.900	-11.847	0.100
26.000	-23.282	0.100
26.100	-33.934	0.100
26.200	-26.109	0.100
26.300	-37.826	0.100
26.400	-38.085	0.100
26.500	-36.608	0.100
26.600	-33.163	0.100
26.700	-32.552	0.100
26.800	-31.889	0.100
26.900	-29.407	0.100
27.000	-27.048	0.100
27.100	-51.154	0.100
27.200	-35.420	0.100
27.300	-6.727	0.100
27.400	-23.235	0.100
27.500	-17.211	0.100
27.600	-29.005	0.100
27.700	-33.279	0.100
27.800	-29.729	0.100
27.900	-31.243	0.100
28.000	-31.084	0.100
28.100	-32.513	0.100
28.200	-45.689	0.100
28.300	-22.081	0.100
28.400	-30.868	0.100
28.500	-23.552	0.100
28.600	-19.535	0.100
28.700	-30.016	0.100
28.800	-34.707	0.100
28.900	-32.573	0.100
29.000	-37.880	0.100
29.100	-33.822	0.100
29.200	-28.843	0.100
29.300	-26.347	0.100
29.400	-27.373	0.100
29.500	-21.514	0.100
29.600	-41.725	0.100
29.700	-27.870	0.100
29.800	-29.497	0.100
29.900	-26.230	0.100
30.000	-33.401	0.100
30.100	-29.957	0.100
30.200	-29.996	0.100
30.300	-34.542	0.100
30.400	-21.028	0.100
30.500	-27.081	0.100
30.600	-30.665	0.100
30.700	-34.685	0.100
30.800	-29.267	0.100
30.900	-23.334	0.100
31.000	-37.329	0.100
31.100	-19.511	0.100
31.200	-6.577	0.100
31.300	-24.432	0.100
31.400	-39.695	0.100
31.500	-31.583	0.100
31.600	-30.395	0.100
31.700	-9.345	0.100
31.800	-0.393	0.100
31.900	-27.387	0.100
32.000	-26.367	0.100
32.100	-19.551	0.100
32.200	-26.518	0.100
32.300	-24.670	0.100
32.400	-12.099	0.100
32.500	-19.901	0.100
32.600	-2.066	0.100
32.700	-29.870	0.100
32.800	-28.051	0.100
32.900	-15.671	0.100
33.000	-16.182	0.100
33.100	-12.084	0.100
33.200	-13.794	0.100
33.300	-12.854	0.100
33.400	-21.738	0.100
33.500	-24.101	0.100
33.600	-9.337	0.100
33.700	-12.919	0.100
33.800	-16.304	0.100
33.900	-23.358	0.100
34.000	-14.356	0.100
34.100	-15.784	0.100
34.200	-18.973	0.100
34.300	-1.863	0.100
34.400	-10.092	0.100
34.500	-22.561	0.100
34.600	-27.894	0.100
34.700	-11.754	0.100
34.800	-19.713	0.100
34.900	-18.856	0.100
35.000	-18.491	0.100
35.100	-4.007	0.100
35.200	-20.090	0.100
35.300	-11.765	0.100
35.400	-18.455	0.100
35.500	-7.456	0.100
35.600	-11.236	0.100
35.700	-13.327	0.100
35.800	-16.717	0.100
35.900	-21.199	0.100
36.000	-5.746	0.100
36.100	-10.345	0.100
36.200	-6.711	0.100
36.300	-3.354	0.100
36.400	-15.114	0.100
36.500	-14.555	0.100
36.600	-11.485	0.100
36.700	-15.010	0.100
36.800	-16.111	0.100
36.900	-8.696	0.100
37.000	-11.191	0.100
37.100	-16.018	0.100
37.200	-13.260	0.100
37.300	-19.657	0.100
37.400	-23.836	0.100
37.500	-4.683	0.100
37.600	-15.772	0.100
37.700	-10.763	0.100
37.800	-6.298	0.100
37.900	-25.147	0.100
38.000	-8.866	0.100
38.100	0.177	0.100
38.200	-25.859	0.100
38.300	-7.649	0.100
38.400	-6.341	0.100
38.500	-2.776	0.100
38.600	2.941	0.100
38.700	-3.765	0.100
38.800	-11.033	0.100
38.900	-19.748	0.100
39.000	-14.068	0.100
39.100	-8.101	0.100
39.200	-11.351	0.100
39.300	-13.367	0.100
39.400	-6.266	0.100
39.500	-7.302	0.100
39.600	5.758	0.100
39.700	-9.974	0.100
39.800	-10.646	0.100
39.900	-6.875	0.100
40.000	-4.759	0.100
40.100	-8.805	0.100
40.200	-20.665	0.100
40.300	-2.935	0.100
40.400	-5.414	0.100
40.500	-2.977	0.100
40.600	-12.074	0.100
40.700	-11.264	0.100
40.800	-6.561	0.100
40.900	-11.440	0.100
41.000	-12.949	0.100
41.100	-1.506	0.100
41.200	-0.664	0.100
41.300	1.199	0.100
41.400	-7.558	0.100
41.500	-12.343	0.100
41.600	-9.625	0.100
41.700	-0.395	0.100
41.800	-14.559	0.100
41.900	-11.042	0.100
42.000	6.663	0.100
42.100	1.941	0.100
42.200	-5.752	0.100
42.300	-3.710	0.100
42.400	-5.641	0.100
42.500	-8.459	0.100
42.600	-21.262	0.100
42.700	3.052	0.100
42.800	-6.033	0.100
42.900	1.362	0.100
43.000	-5.736	0.100
43.100	-1.475	0.100
43.200	-7.800	0.100
43.300	-12.954	0.100
43.400	-6.738	0.100
43.500	-2.815	0.100
43.600	-0.570	0.100
43.700	-16.682	0.100
43.800	-10.153	0.100
43.900	4.521	0.100
44.000	1.383	0.100
44.100	2.639	0.100
44.200	4.766	0.100
44.300	-0.032	0.100
44.400	-8.583	0.100
44.500	-11.342	0.100
44.600	-8.935	0.100
44.700	-4.329	0.100
44.800	-11.080	0.100
44.900	12.466	0.100
45.000	-3.413	0.100
45.100	-1.178	0.100
45.200	6.210	0.100
45.300	12.737	0.100
45.400	-11.916	0.100
45.500	2.257	0.100
45.600	-21.754	0.100
45.700	7.755	0.100
45.800	6.948	0.100
45.900	10.231	0.100
46.000	-11.883	0.100
46.100	-2.321	0.100
46.200	-10.057	0.100
46.300	-14.941	0.100
46.400	-20.536	0.100
46.500	3.238	0.100
46.600	1.413	0.100
46.700	0.429	0.100
46.800	-0.049	0.100
46.900	6.145	0.100
47.000	-14.112	0.100
47.100	-3.949	0.100
47.200	3.916	0.100
47.300	-4.964	0.100
47.400	-5.653	0.100
47.500	0.287	0.100
47.600	6.782	0.100
47.700	3.077	0.099
47.800	-2.415	0.100
47.900	-4.310	0.100
48.000	3.159	0.100
48.100	0.904	0.100
48.200	2.043	0.100
48.300	3.612	0.100
48.400	-1.725	0.100
48.500	-20.292	0.100
48.600	-5.626	0.100
48.700	6.697	0.100
48.800	-7.382	0.100
48.900	-2.327	0.100
49.000	2.573	0.100
49.100	0.317	0.100
49.200	-3.335	0.100
49.300	8.139	0.100
49.400	1.326	0.100
49.500	14.604	0.099
49.600	-1.904	0.100
49.700	6.916	0.100
49.800	0.032	0.100
49.900	-0.989	0.100
50.000	-9.801	0.100
50.100	-2.353	0.100
50.200	5.374	0.100
50.300	7.802	0.100
50.400	-4.688	0.100
50.500	2.576	0.100
50.600	-5.068	0.100
50.700	-2.759	0.100
50.800	11.444	0.100
50.900	-3.906	0.100
51.000	12.367	0.100
51.100	-12.043	0.100
51.200	12.652	0.100
51.300	8.051	0.100
51.400	11.548	0.100
51.500	4.335	0.100
51.600	-6.924	0.100
51.700	0.573	0.100
51.800	0.386	0.100
51.900	-6.573	0.100
52.000	4.291	0.100
52.100	2.770	0.100
52.200	-8.568	0.100
52.300	3.446	0.100
52.400	11.828	0.100
52.500	7.523	0.100
52.600	4.403	0.100
52.700	-2.702	0.100
52.800	-1.610	0.100
52.900	12.010	0.100
53.000	16.567	0.100
53.100	3.260	0.100
53.200	-2.099	0.100
53.300	4.914	0.100
53.400	16.563	0.100
53.500	7.765	0.100
53.600	-4.687	0.100
53.700	10.593	0.100
53.800	-0.686	0.100
53.900	-4.018	0.100
54.000	5.746	0.100
54.100	4.613	0.100
54.200	5.793	0.100
54.300	0.183	0.100
54.400	2.519	0.100
54.500	-2.386	0.100
54.600	0.698	0.100
54.700	6.927	0.100
54.800	12.045	0.100
54.900	-0.147	0.100
55.000	9.931	0.100
55.100	17.116	0.100
55.200	-4.241	0.100
55.300	0.793	0.100
55.400	0.583	0.100
55.500	15.286	0.100
55.600	-1.934	0.100
55.700	1.753	0.100
55.800	12.346	0.100
55.900	7.575	0.100
56.000	-9.569	0.100
56.100	6.625	0.100
56.200	12.068	0.100
56.300	3.563	0.100
56.400	11.863	0.100
56.500	7.236	0.100
56.600	-11.324	0.100
56.700	13.988	0.100
56.800	18.831	0.100
56.900	-0.787	0.100
57.000	-4.290	0.100
57.100	10.671	0.100
57.200	16.626	0.100
57.300	9.305	0.100
57.400	8.544	0.100
57.500	5.574	0.100
57.600	13.626	0.100
57.700	8.688	0.100
57.800	5.451	0.100
57.900	0.272	0.100
58.000	18.285	0.100
58.100	-8.550	0.100
58.200	12.970	0.100
58.300	11.768	0.100
58.400	0.623	0.100
58.500	13.128	0.100
58.600	8.100	0.100
58.700	5.190	0.100
58.800	5.060	0.100
58.900	3.569	0.100
59.000	9.321	0.100
59.100	25.474	0.100
59.200	22.187	0.100
59.300	17.579	0.100
59.400	17.525	0.100
59.500	-1.699	0.100
59.600	3.194	0.100
59.700	11.662	0.100
59.800	12.175	0.100
59.900	25.143	0.100
60.000	12.055	0.100
60.100	-11.528	0.100
60.200	-10.120	0.100
60.300	13.596	0.100
60.400	10.032	0.100
60.500	12.381	0.100
60.600	11.509	0.100
60.700	29.575	0.100
60.800	9.195	0.100
60.900	13.293	0.100
61.000	13.706	0.100
61.100	7.073	0.100
61.200	-0.371	0.100
61.300	17.795	0.100
61.400	9.903	0.100
61.500	28.705	0.100
61.600	26.255	0.100
61.700	13.853	0.100
61.800	7.676	0.100
61.900	17.346	0.100
62.000	24.789	0.100
62.100	20.321	0.100
62.200	18.744	0.100
62.300	13.327	0.100
62.400	13.220	0.100
62.500	6.759	0.100
62.600	14.482	0.100
62.700	9.470	0.100
62.800	16.352	0.100
62.900	8.933	0.100
63.000	8.194	0.100
63.100	14.265	0.100
63.200	-9.609	0.100
63.300	18.289	0.100
63.400	33.239	0.100
63.500	14.730	0.100
63.600	17.180	0.100
63.700	15.124	0.100
63.800	15.881	0.100
63.900	2.652	0.100
64.000	16.581	0.100
64.100	3.556	0.100
64.200	18.294	0.100
64.300	21.112	0.100
64.400	8.888	0.100
64.500	6.458	0.100
64.600	15.400	0.100
64.700	13.039	0.100
64.800	13.821	0.100
64.900	10.709	0.100
65.000	20.294	0.100
65.100	7.880	0.100
65.200	20.216	0.100
65.300	13.061	0.100
65.400	24.812	0.100
65.500	9.303	0.100
65.600	9.460	0.100
65.700	19.911	0.100
65.800	22.562	0.100
65.900	19.342	0.100
66.000	10.792	0.100
66.100	13.997	0.100
66.200	20.736	0.100
66.300	11.838	0.100
66.400	17.299	0.099
66.500	17.485	0.099
66.600	23.228	0.099
66.700	23.046	0.099
66.800	23.983	0.099
66.900	9.227	0.099
67.000	23.264	0.099
67.100	13.962	0.099
67.200	25.010	0.099
67.300	-2.290	0.099
67.400	21.392	0.099
67.500	33.568	0.099
67.600	10.971	0.099
67.700	-0.463	0.099
67.800	25.842	0.099
67.900	20.614	0.099
68.000	18.145	0.099
68.100	18.955	0.099
68.200	9.424	0.099
68.300	27.830	0.099
68.400	15.987	0.099
68.500	6.953	0.099
68.600	19.847	0.099
68.700	14.987	0.099
68.800	18.987	0.099
68.900	24.369	0.099
69.000	7.578	0.099
69.100	8.925	0.099
69.200	23.335	0.099
69.300	33.979	0.099
69.400	11.135	0.099
69.500	18.746	0.099
69.600	31.685	0.099
69.700	20.550	0.099
69.800	26.702	0.099
69.900	20.067	0.099
70.000	19.531	0.099
70.100	24.567	0.099
70.200	23.609	0.099
70.300	10.883	0.099
70.400	27.100	0.099
70.500	10.301	0.099
70.600	18.267	0.099
70.700	12.925	0.099
70.800	30.835	0.099
70.900	11.467	0.099
71.000	10.957	0.099
71.100	29.853	0.099
71.200	7.881	0.099
71.300	22.422	0.099
71.400	13.264	0.099
71.500	19.403	0.099
71.600	24.048	0.099
71.700	18.553	0.099
71.800	17.946	0.099
71.900	23.362	0.099
72.000	17.261	0.099
72.100	28.742	0.099
72.200	15.789	0.099
72.300	14.234	0.099
72.400	27.064	0.099
72.500	29.460	0.099
72.600	25.318	0.099
72.700	23.471	0.099
72.800	17.636	0.099
72.900	15.960	0.099
73.000	11.080	0.099
73.100	22.983	0.099
73.200	17.837	0.099
73.300	20.977	0.099
73.400	25.680	0.099
73.500	27.635	0.099
73.600	29.081	0.099
73.700	13.315	0.099
73.800	31.506	0.099
73.900	23.463	0.099
74.000	24.031	0.099
74.100	25.219	0.099
74.200	25.441	0.099
74.300	18.189	0.099
74.400	22.855	0.099
74.500	26.970	0.099
74.600	21.131	0.099
74.700	27.237	0.099
74.800	37.846	0.099
74.900	23.777	0.099
75.000	13.463	0.099
75.100	18.013	0.099
75.200	31.042	0.099
75.300	26.247	0.099
75.400	25.897	0.099
75.500	31.448	0.099
75.600	26.176	0.099
75.700	30.175	0.099
75.800	23.718	0.099
75.900	23.508	0.099
76.000	21.936	0.099
76.100	24.121	0.099
76.200	22.168	0.099
76.300	25.421	0.099
76.400	29.848	0.099
76.500	25.621	0.099
76.600	25.723	0.099
76.700	34.900	0.099
76.800	32.304	0.099
76.900	14.884	0.099
77.000	22.567	0.099
77.100	27.775	0.099
77.200	32.829	0.099
77.300	20.735	0.099
77.400	18.265	0.099
77.500	22.792	0.099
77.600	19.604	0.099
77.700	24.338	0.100
77.800	23.863	0.100
77.900	29.034	0.100
78.000	16.415	0.100
78.100	19.000	0.100
78.200	22.566	0.100
78.300	31.474	0.099
78.400	25.932	0.100
78.500	25.840	0.100
78.600	8.785	0.100
78.700	34.681	0.099
78.800	36.553	0.100
78.900	31.153	0.100
79.000	35.430	0.100
79.100	37.422	0.100
79.200	37.057	0.100
79.300	28.773	0.100
79.400	35.329	0.100
79.500	28.818	0.100
79.600	25.653	0.100
79.700	34.339	0.100
79.800	23.007	0.100
79.900	27.755	0.100
80.000	32.728	0.099
80.100	21.224	0.100
80.200	28.822	0.100
80.300	24.499	0.100
80.400	12.867	0.100
80.500	27.318	0.100
80.600	27.522	0.100
80.700	25.220	0.100
80.800	36.066	0.099
80.900	44.318	0.100
81.000	10.423	0.100
81.100	20.684	0.100
81.200	17.530	0.100
81.300	34.281	0.099
81.400	27.694	0.100
81.500	35.183	0.099
81.600	34.048	0.100
81.700	22.592	0.100
81.800	37.309	0.100
81.900	24.902	0.100
82.000	12.353	0.100
82.100	41.002	0.099
82.200	27.476	0.100
82.300	23.507	0.099
82.400	37.678	0.099
82.500	27.170	0.100
82.600	27.834	0.100
82.700	27.012	0.100
82.800	33.825	0.100
82.900	28.369	0.100
83.000	17.710	0.100
83.100	28.168	0.100
83.200	29.468	0.100
83.300	14.612	0.100
83.400	25.055	0.100
83.500	25.693	0.100
83.600	34.136	0.100
83.700	26.254	0.100
83.800	32.995	0.100
83.900	29.615	0.100
84.000	28.208	0.100
84.100	43.544	0.100
84.200	28.699	0.100
84.300	21.409	0.100
84.400	33.371	0.100
84.500	38.767	0.100
84.600	23.164	0.100
84.700	29.029	0.100
84.800	32.978	0.100
84.900	30.672	0.100
85.000	51.700	0.100
85.100	35.318	0.100
85.200	33.749	0.100
85.300	25.273	0.100
85.400	32.506	0.100
85.500	25.441	0.100
85.600	30.311	0.100
85.700	47.081	0.100
85.800	41.756	0.100
85.900	33.031	0.100
86.000	30.850	0.100
86.100	35.212	0.100
86.200	22.646	0.100
86.300	42.442	0.100
86.400	23.264	0.100
86.500	25.171	0.100
86.600	23.244	0.100
86.700	34.918	0.100
86.800	22.687	0.100
86.900	44.129	0.100
87.000	28.443	0.100
87.100	38.411	0.100
87.200	39.385	0.100
87.300	35.162	0.100
87.400	32.746	0.100
87.500	29.428	0.100
87.600	31.143	0.100
87.700	35.175	0.100
87.800	23.979	0.100
87.900	34.595	0.100
88.000	24.494	0.100
88.100	30.196	0.100
88.200	34.648	0.100
88.300	25.810	0.100
88.400	38.416	0.100
88.500	39.406	0.100
88.600	37.594	0.100
88.700	35.284	0.100
88.800	38.003	0.099
88.900	36.779	0.099
89.000	39.125	0.100
89.100	20.740	0.100
89.200	31.127	0.100
89.300	56.028	0.100
89.400	36.221	0.099
89.500	32.000	0.100
89.600	27.813	0.099
89.700	34.039	0.100
89.800	26.370	0.100
89.900	34.261	0.100
90.000	44.073	0.099
90.100	32.225	0.100
90.200	40.443	0.099
90.300	27.851	0.100
90.400	36.179	0.099
90.500	21.405	0.100
90.600	20.458	0.100
90.700	18.925	0.100
90.800	40.129	0.099
90.900	39.070	0.099
91.000	42.273	0.099
91.100	33.555	0.099
91.200	25.931	0.100
91.300	32.769	0.100
91.400	22.324	0.100
91.500	41.034	0.099
91.600	22.938	0.100
91.700	30.511	0.100
91.800	21.035	0.100
91.900	30.361	0.100
92.000	31.851	0.100
92.100	27.831	0.099
92.200	28.911	0.100
92.300	26.258	0.100
92.400	18.323	0.100
92.500	30.154	0.099
92.600	25.356	0.100
92.700	21.574	0.100
92.800	29.024	0.100
92.900	25.335	0.100
93.000	30.879	0.100
93.100	35.310	0.099
93.200	15.018	0.100
93.300	20.488	0.100
93.400	17.116	0.100
93.500	21.596	0.100
93.600	29.969	0.100
93.700	21.464	0.100
93.800	35.467	0.099
93.900	25.485	0.100
94.000	37.812	0.099
94.100	15.184	0.100
94.200	27.632	0.099
94.300	31.920	0.100
94.400	14.652	0.099
94.500	23.788	0.099
94.600	23.129	0.099
94.700	24.464	0.099
94.800	2.698	0.099
94.900	15.217	0.099
95.000	20.957	0.099
95.100	26.005	0.099
95.200	30.698	0.099
95.300	22.575	0.099
95.400	18.599	0.099
95.500	12.220	0.099
95.600	26.993	0.099
95.700	21.017	0.099
95.800	23.077	0.099
95.900	17.631	0.099
96.000	20.198	0.099
96.100	19.950	0.099
96.200	7.660	0.099
96.300	18.703	0.099
96.400	17.114	0.099
96.500	20.246	0.099
96.600	27.197	0.099
96.700	23.622	0.099
96.800	19.327	0.099
96.900	26.235	0.099
97.000	23.410	0.099
97.100	9.087	0.099
97.200	16.931	0.099
97.300	22.161	0.099
97.400	17.382	0.099
97.500	5.267	0.099
97.600	3.033	0.099
97.700	16.032	0.099
97.800	23.821	0.099
97.900	19.997	0.099
98.000	25.446	0.099
98.100	20.041	0.099
98.200	21.595	0.099
98.300	26.268	0.099
98.400	17.992	0.099
98.500	17.422	0.099
98.600	24.053	0.099
98.700	22.583	0.099
98.800	8.845	0.099
98.900	26.871	0.099
99.000	8.205	0.099
99.100	13.200	0.099
99.200	2.508	0.099
99.300	16.744	0.099
99.400	16.514	0.099
99.500	13.678	0.099
99.600	11.431	0.099
99.700	12.498	0.099
99.800	12.574	0.099
99.900	13.112	0.099
100.000	15.790	0.099
100.100	20.540	0.099
100.200	26.607	0.099
100.300	15.636	0.099
100.400	19.359	0.099
100.500	12.469	0.099
100.600	18.097	0.099
100.700	16.069	0.099
100.800	19.379	0.099
100.900	13.321	0.099
101.000	8.154	0.099
101.100	21.197	0.099
101.200	32.276	0.099
101.300	9.399	0.099
101.400	16.948	0.099
101.500	15.034	0.099
101.600	27.244	0.099
101.700	8.857	0.099
101.800	12.314	0.099
101.900	13.592	0.099
102.000	-9.480	0.099
102.100	20.731	0.099
102.200	14.310	0.099
102.300	7.022	0.099
102.400	15.770	0.099
102.500	20.228	0.099
102.600	13.553	0.099
102.700	9.863	0.099
102.800	27.858	0.099
102.900	14.595	0.099
103.000	12.334	0.099
103.100	10.768	0.099
103.200	12.650	0.099
103.300	21.306	0.099
103.400	4.768	0.099
103.500	17.932	0.099
103.600	13.958	0.099
103.700	18.757	0.099
103.800	1.682	0.099
103.900	6.894	0.099
104.000	4.344	0.099
104.100	18.654	0.099
104.200	15.769	0.099
104.300	11.118	0.099
104.400	9.121	0.099
104.500	12.284	0.099
104.600	4.748	0.099
104.700	17.159	0.099
104.800	6.322	0.099
104.900	14.727	0.099
105.000	2.989	0.099
105.100	-5.717	0.099
105.200	17.921	0.099
105.300	15.379	0.099
105.400	6.240	0.099
105.500	7.075	0.099
105.600	15.807	0.100
105.700	6.095	0.100
105.800	12.827	0.100
105.900	13.297	0.100
106.000	15.791	0.100
106.100	9.237	0.100
106.200	16.974	0.100
106.300	9.806	0.100
106.400	10.835	0.100
106.500	13.113	0.100
106.600	12.685	0.100
106.700	7.074	0.100
106.800	15.305	0.100
106.900	8.980	0.100
107.000	6.787	0.100
107.100	17.664	0.100
107.200	19.654	0.100
107.300	16.362	0.100
107.400	12.986	0.100
107.500	7.439	0.100
107.600	2.477	0.100
107.700	10.034	0.100
107.800	11.373	0.100
107.900	11.781	0.100
108.000	12.642	0.100
108.100	8.015	0.100
108.200	-7.742	0.100
108.300	9.834	0.100
108.400	1.572	0.100
108.500	1.868	0.100
108.600	12.127	0.100
108.700	11.174	0.100
108.800	5.905	0.100
108.900	14.134	0.100
109.000	30.380	0.100
109.100	3.204	0.100
109.200	9.313	0.100
109.300	11.342	0.100
109.400	10.764	0.100
109.500	-5.400	0.100
109.600	13.473	0.100
109.700	7.845	0.100
109.800	7.315	0.100
109.900	-10.561	0.100
110.000	7.785	0.100
110.100	15.734	0.100
110.200	-0.335	0.100
110.300	20.151	0.100
110.400	16.147	0.100
110.500	1.171	0.100
110.600	2.885	0.100
110.700	18.783	0.100
110.800	5.985	0.100
110.900	1.194	0.100
111.000	11.995	0.100
111.100	12.570	0.100
111.200	4.582	0.100
111.300	7.937	0.100
111.400	0.216	0.100
111.500	-4.636	0.100
111.600	8.583	0.100
111.700	0.917	0.100
111.800	1.253	0.100
111.900	15.796	0.100
112.000	0.350	0.100
112.100	10.332	0.100
112.200	6.124	0.100
112.300	-0.041	0.100
112.400	5.547	0.100
112.500	4.651	0.100
112.600	3.904	0.100
112.700	2.061	0.100
112.800	6.260	0.100
112.900	13.124	0.100
113.000	7.679	0.100
113.100	8.423	0.100
113.200	15.531	0.100
113.300	13.754	0.100
113.400	-0.181	0.100
113.500	5.199	0.100
113.600	-8.640	0.100
113.700	15.430	0.100
113.800	5.141	0.100
113.900	-4.609	0.100
114.000	-1.100	0.100
114.100	13.830	0.100
114.200	2.008	0.100
114.300	5.162	0.100
114.400	4.680	0.100
114.500	5.679	0.100
114.600	7.695	0.100
114.700	3.193	0.100
114.800	5.587	0.100
114.900	2.206	0.100
115.000	2.439	0.100
115.100	-2.002	0.100
115.200	10.617	0.100
115.300	-2.709	0.100
115.400	-1.475	0.100
115.500	8.228	0.100
115.600	9.749	0.100
115.700	0.519	0.100
115.800	-5.369	0.100
115.900	-2.128	0.100
116.000	5.028	0.100
116.100	1.341	0.100
116.200	1.096	0.100
116.300	-5.611	0.100
116.400	10.882	0.100
116.500	14.439	0.100
116.600	6.492	0.100
116.700	-4.986	0.100
116.800	7.247	0.099
116.900	-4.146	0.099
117.000	-3.647	0.099
117.100	0.537	0.099
117.200	10.890	0.099
117.300	1.441	0.099
117.400	-0.643	0.099
117.500	1.898	0.099
117.600	-0.612	0.099
117.700	-9.397	0.099
117.800	10.282	0.099
117.900	10.830	0.099
118.000	4.186	0.099
118.100	8.206	0.099
118.200	3.868	0.099
118.300	3.966	0.099
118.400	-13.582	0.099
118.500	1.415	0.099
118.600	-0.838	0.099
118.700	-5.144	0.099
118.800	-0.611	0.099
118.900	4.736	0.099
119.000	-0.549	0.099
119.100	-8.084	0.099
119.200	-0.248	0.099
119.300	-7.679	0.099
119.400	-8.010	0.099
119.500	-5.562	0.099
119.600	-0.476	0.099
119.700	4.480	0.099
119.800	7.494	0.099
119.900	7.307	0.099
120.000	-8.371	0.099
120.100	-0.028	0.099
120.200	-12.801	0.099
120.300	10.892	0.099
120.400	9.600	0.099
120.500	11.262	0.099
120.600	0.651	0.099
120.700	3.273	0.099
120.800	-7.731	0.099
120.900	7.948	0.099
121.000	8.473	0.099
121.100	-6.189	0.099
121.200	5.956	0.099
121.300	-8.005	0.099
121.400	-7.678	0.099
121.500	6.735	0.099
121.600	-1.352	0.099
121.700	-5.100	0.099
121.800	2.288	0.099
121.900	-3.194	0.099
122.000	2.369	0.099
122.100	-1.418	0.099
122.200	-4.168	0.099
122.300	-2.303	0.099
122.400	1.620	0.099
122.500	3.460	0.099
122.600	-2.271	0.099
122.700	-4.823	0.099
122.800	12.303	0.099
122.900	-3.580	0.099
123.000	6.266	0.099
123.100	10.486	0.099
123.200	6.278	0.099
123.300	5.048	0.099
123.400	-10.058	0.099
123.500	15.795	0.099
123.600	1.503	0.099
123.700	-12.997	0.099
123.800	-0.687	0.099
123.900	-8.420	0.099
124.000	2.596	0.099
124.100	-3.200	0.099
124.200	-8.706	0.099
124.300	-8.296	0.099
124.400	-12.306	0.099
124.500	4.679	0.099
124.600	-1.671	0.099
124.700	-4.664	0.099
124.800	-14.305	0.099
124.900	3.299	0.099
125.000	2.615	0.099
125.100	1.084	0.099
125.200	-3.380	0.099
125.300	-5.035	0.099
125.400	-0.046	0.099
125.500	-8.350	0.099
125.600	-2.935	0.099
125.700	-3.197	0.099
125.800	-11.648	0.099
125.900	-5.207	0.099
126.000	4.602	0.099
126.100	-0.838	0.099
126.200	0.318	0.099
126.300	-1.371	0.099
126.400	-0.865	0.099
126.500	-7.901	0.099
126.600	-2.964	0.099
126.700	-9.303	0.099
126.800	-5.295	0.099
126.900	-3.487	0.099
127.000	-8.484	0.099
127.100	-10.816	0.099
127.200	-6.838	0.099
127.300	-16.878	0.099
127.400	4.434	0.099
127.500	1.753	0.099
127.600	1.936	0.099
127.700	-5.821	0.099
127.800	-1.037	0.099
127.900	-10.210	0.099
128.000	-9.292	0.099
128.100	-2.498	0.099
128.200	-8.922	0.099
128.300	7.360	0.099
128.400	-7.417	0.099
128.500	-0.599	0.099
128.600	-13.974	0.099
128.700	-8.322	0.099
128.800	-6.374	0.099
128.900	-16.517	0.099
129.000	-3.528	0.099
129.100	0.324	0.099
129.200	-0.245	0.099
129.300	-10.496	0.099
129.400	-14.121	0.099
129.500	2.132	0.099
129.600	-21.226	0.099
129.700	-3.642	0.099
129.800	6.101	0.099
129.900	-6.991	0.099
130.000	-5.012	0.099
130.100	-16.384	0.099
130.200	-15.948	0.099
130.300	-0.528	0.099
130.400	-6.071	0.099
130.500	-6.111	0.099
130.600	-6.131	0.099
130.700	-12.746	0.099
130.800	0.660	0.099
130.900	-10.225	0.099
131.000	-7.902	0.099
131.100	-8.715	0.099
131.200	-10.330	0.099
131.300	-1.949	0.099
131.400	-0.276	0.099
131.500	-3.116	0.099
131.600	-3.776	0.099
131.700	-8.584	0.099
131.800	-5.467	0.099
131.900	-12.578	0.099
132.000	-5.458	0.099
132.100	-16.749	0.099
132.200	-4.655	0.099
132.300	-6.082	0.099
132.400	-23.880	0.099
132.500	2.131	0.100
132.600	0.030	0.099
132.700	-6.667	0.100
132.800	-18.941	0.099
132.900	-4.640	0.099
133.000	-10.435	0.099
133.100	-7.592	0.099
133.200	-2.206	0.099
133.300	-4.363	0.099
133.400	-10.610	0.099
133.500	-21.419	0.099
133.600	-1.694	0.100
133.700	-11.726	0.100
133.800	-8.096	0.100
133.900	-6.015	0.100
134.000	-4.725	0.100
134.100	-10.012	0.100
134.200	6.357	0.100
134.300	-6.101	0.100
134.400	-13.181	0.100
134.500	-16.825	0.100
134.600	-5.350	0.100
134.700	-3.457	0.100
134.800	-3.267	0.100
134.900	-0.229	0.100
135.000	-4.907	0.100
135.100	-9.319	0.100
135.200	-8.894	0.100
135.300	-2.681	0.100
135.400	-12.200	0.100
135.500	-2.679	0.100
135.600	-10.591	0.100
135.700	-0.529	0.100
135.800	-2.996	0.100
135.900	-16.794	0.100
136.000	0.295	0.100
136.100	-22.073	0.100
136.200	-12.325	0.100
136.300	-8.081	0.100
136.400	-3.483	0.100
136.500	-11.278	0.100
136.600	-9.238	0.100
136.700	-11.435	0.100
136.800	-8.154	0.100
136.900	-7.796	0.100
137.000	-1.549	0.100
137.100	-14.716	0.100
137.200	-9.374	0.100
137.300	-15.269	0.100
137.400	-1.933	0.100
137.500	-13.701	0.100
137.600	-14.232	0.100
137.700	-12.397	0.100
137.800	-4.061	0.100
137.900	0.148	0.100
138.000	-11.696	0.100
138.100	-18.599	0.100
138.200	-13.482	0.100
138.300	-11.301	0.100
138.400	-9.265	0.100
138.500	-17.838	0.100
138.600	-14.538	0.100
138.700	-9.269	0.100
138.800	-14.473	0.100
138.900	-10.860	0.100
139.000	-13.350	0.100
139.100	-12.298	0.100
139.200	-19.882	0.100
139.300	1.225	0.100
139.400	-6.944	0.100
139.500	-11.792	0.100
139.600	-4.509	0.100
139.700	-14.342	0.100
139.800	-16.109	0.100
139.900	-19.023	0.100
140.000	-8.417	0.100
140.100	-11.574	0.100
140.200	-14.247	0.100
140.300	-0.287	0.100
140.400	-1.403	0.100
140.500	-13.721	0.100
140.600	-12.750	0.100
140.700	-11.455	0.100
140.800	-2.663	0.100
140.900	-9.344	0.100
141.000	-20.945	0.100
141.100	-12.118	0.100
141.200	-4.509	0.100
141.300	1.089	0.100
141.400	-3.010	0.100
141.500	-16.467	0.100
141.600	-1.635	0.100
141.700	-2.387	0.100
141.800	-8.676	0.100
141.900	-11.910	0.100
142.000	-12.551	0.100
142.100	-17.566	0.100
142.200	-24.968	0.100
142.300	2.278	0.100
142.400	-14.687	0.100
142.500	-12.257	0.100
142.600	-12.966	0.100
142.700	-2.573	0.100
142.800	-4.024	0.100
142.900	-6.208	0.100
143.000	-18.317	0.100
143.100	-24.069	0.100
143.200	-2.534	0.100
143.300	-7.277	0.100
143.400	-8.095	0.100
143.500	-12.901	0.100
143.600	-17.644	0.100
143.700	-17.288	0.100
143.800	-12.601	0.100
143.900	-18.687	0.100
144.000	-6.384	0.100
144.100	-10.559	0.100
144.200	-27.111	0.100
144.300	-11.086	0.100
144.400	-6.914	0.100
144.500	-2.523	0.100
144.600	-8.629	0.100
144.700	-21.235	0.100
144.800	-20.739	0.100
144.900	-14.128	0.100
145.000	-11.086	0.100
145.100	-15.538	0.100
145.200	-16.235	0.100
145.300	-9.734	0.100
145.400	-17.041	0.100
145.500	-6.503	0.100
145.600	-16.207	0.100
145.700	-8.138	0.100
145.800	-1.775	0.100
145.900	-5.122	0.100
146.000	-13.801	0.100
146.100	-13.171	0.100
146.200	-14.697	0.100
146.300	-9.466	0.100
146.400	-22.327	0.100
146.500	-9.681	0.100
146.600	-15.608	0.100
146.700	-18.791	0.100
146.800	-3.392	0.100
146.900	-14.196	0.100
147.000	-12.326	0.100
147.100	-5.186	0.100
147.200	-6.274	0.100
147.300	-4.684	0.100
147.400	-4.236	0.100
147.500	-12.068	0.100
147.600	-13.268	0.100
147.700	-2.263	0.100
147.800	-17.430	0.100
147.900	-21.742	0.100
148.000	-18.017	0.100
148.100	-22.895	0.100
148.200	-6.984	0.100
148.300	-12.926	0.100
148.400	-7.299	0.100
148.500	-16.861	0.100
148.600	-5.490	0.100
148.700	-22.146	0.100
148.800	-6.673	0.100
148.900	-13.062	0.100
149.000	-18.534	0.100
149.100	-18.483	0.100
149.200	0.742	0.100
149.300	-17.209	0.100
149.400	-20.133	0.100
149.500	-13.325	0.100
149.600	-7.296	0.100
149.700	-13.130	0.100
149.800	-16.081	0.100
149.900	-8.456	0.100
150.000	-8.862	0.100
150.100	-6.662	0.100
150.200	3.881	0.100
150.300	-22.583	0.100
150.400	-18.862	0.100
150.500	-8.932	0.100
150.600	-9.933	0.100
150.700	-10.864	0.100
150.800	-8.279	0.100
150.900	-24.425	0.100
151.000	-6.999	0.100
151.100	-10.528	0.100
151.200	-9.994	0.100
151.300	-16.552	0.100
151.400	-24.441	0.100
151.500	1.922	0.100
151.600	-11.410	0.100
151.700	-10.981	0.100
151.800	-0.236	0.100
151.900	-11.667	0.100
152.000	-17.867	0.100
152.100	-20.305	0.100
152.200	-17.168	0.100
152.300	-17.196	0.100
152.400	-6.554	0.100
152.500	-13.386	0.100
152.600	-26.036	0.100
152.700	-20.277	0.100
152.800	-12.568	0.100
152.900	-1.417	0.100
153.000	-6.317	0.100
153.100	-14.132	0.100
153.200	-8.891	0.100
153.300	-19.929	0.100
153.400	-18.557	0.100
153.500	-23.354	0.100
153.600	-20.556	0.100
153.700	-10.666	0.100
153.800	-14.256	0.100
153.900	-9.366	0.100
154.000	-15.188	0.100
154.100	-18.146	0.100
154.200	-28.701	0.100
154.300	-9.212	0.100
154.400	-9.608	0.100
154.500	-17.645	0.100
154.600	-18.582	0.100
154.700	-17.337	0.100
154.800	-2.221	0.100
154.900	-20.804	0.100
155.000	-12.605	0.100
155.100	-20.053	0.100
155.200	-9.508	0.100
155.300	-11.924	0.100
155.400	-16.939	0.100
155.500	-6.669	0.100
155.600	-11.762	0.100
155.700	-16.290	0.100
155.800	-18.363	0.100
155.900	-16.795	0.100
156.000	-22.709	0.100
156.100	-12.824	0.100
156.200	-18.716	0.100
156.300	-17.341	0.100
156.400	-14.843	0.100
156.500	-20.497	0.100
156.600	-15.767	0.100
156.700	-19.984	0.100
156.800	-12.570	0.100
156.900	-16.531	0.100
157.000	-12.720	0.100
157.100	-3.913	0.100
157.200	-11.656	0.100
157.300	-3.499	0.100
157.400	-15.527	0.100
157.500	-19.365	0.100
157.600	-20.451	0.100
157.700	-12.751	0.100
157.800	-26.164	0.100
157.900	-22.423	0.100
158.000	-15.263	0.100
158.100	-12.762	0.100
158.200	-20.860	0.100
158.300	-2.406	0.100
158.400	-24.137	0.100
158.500	-19.145	0.100
158.600	-5.126	0.100
158.700	-19.051	0.100
158.800	-19.292	0.100
158.900	-17.937	0.100
159.000	-6.895	0.100
159.100	-12.484	0.100
159.200	-17.960	0.100
159.300	-13.654	0.100
159.400	-7.324	0.100
159.500	-19.546	0.100
159.600	-12.308	0.100
159.700	-24.884	0.100
159.800	1.176	0.100
159.900	-4.144	0.100
160.000	-20.968	0.100
160.100	-18.604	0.100
160.200	-21.916	0.100
160.300	-17.901	0.100
160.400	-20.418	0.100
160.500	-26.793	0.100
160.600	-17.331	0.100
160.700	-19.325	0.100
160.800	-20.065	0.100
160.900	-15.809	0.100
161.000	-21.787	0.100
161.100	-6.385	0.100
161.200	-21.361	0.100
161.300	-16.995	0.100
161.400	-18.575	0.100
161.500	-13.411	0.100
161.600	-4.195	0.100
161.700	0.990	0.100
161.800	-5.858	0.100
161.900	-15.152	0.100
162.000	-12.019	0.100
162.100	-7.399	0.100
162.200	-29.954	0.100
162.300	-20.985	0.100
162.400	-20.233	0.100
162.500	-5.688	0.100
162.600	-12.128	0.100
162.700	-16.332	0.100
162.800	-24.538	0.100
162.900	-22.693	0.100
163.000	-21.564	0.100
163.100	-16.720	0.100
163.200	-8.606	0.100
163.300	-22.472	0.100
163.400	-20.790	0.100
163.500	-13.354	0.100
163.600	-10.747	0.100
163.700	-13.062	0.100
163.800	-15.293	0.100
163.900	-23.970	0.100
164.000	-20.804	0.100
164.100	-17.612	0.100
164.200	-14.567	0.100
164.300	-21.761	0.100
164.400	-21.920	0.100
164.500	-21.097	0.100
164.600	-17.455	0.100
164.700	-18.585	0.100
164.800	-17.331	0.100
164.900	-21.799	0.100
165.000	-20.072	0.100
165.100	-15.364	0.100
165.200	-9.524	0.100
165.300	-17.195	0.100
165.400	-12.205	0.100
165.500	-4.583	0.100
165.600	-13.828	0.100
165.700	-15.792	0.100
165.800	-15.389	0.100
165.900	-15.430	0.100
166.000	-15.283	0.100
166.100	-21.183	0.100
166.200	-17.785	0.100
166.300	-19.507	0.100
166.400	-33.124	0.100
166.500	-22.024	0.100
166.600	-20.192	0.100
166.700	-5.781	0.100
166.800	-11.332	0.100
166.900	-6.212	0.100
167.000	-12.455	0.100
167.100	-20.264	0.100
167.200	-8.126	0.100
167.300	-23.554	0.100
167.400	-15.177	0.100
167.500	-19.609	0.100
167.600	-25.110	0.100
167.700	-22.229	0.100
167.800	-13.943	0.100
167.900	-13.311	0.100
168.000	-8.836	0.100
168.100	-9.662	0.100
168.200	-18.411	0.100
168.300	-31.027	0.100
168.400	-25.810	0.100
168.500	-15.532	0.100
168.600	-13.227	0.100
168.700	-15.095	0.100
168.800	-27.462	0.100
168.900	-13.915	0.100
169.000	-16.166	0.100
169.100	-7.942	0.100
169.200	-16.160	0.100
169.300	-16.311	0.100
169.400	-24.083	0.100
169.500	-14.575	0.100
169.600	-31.867	0.100
169.700	-16.813	0.100
169.800	-3.203	0.100
169.900	-9.445	0.100
170.000	-21.018	0.100
170.100	-42.147	0.100
170.200	-8.883	0.100
170.300	-30.869	0.100
170.400	-15.861	0.100
170.500	-14.076	0.100
170.600	-17.749	0.100
170.700	-16.855	0.100
170.800	-22.324	0.100
170.900	-18.222	0.100
171.000	-17.911	0.100
171.100	-22.465	0.100
171.200	-8.348	0.100
171.300	-16.284	0.100
171.400	-25.203	0.100
171.500	-18.200	0.100
171.600	-15.477	0.100
171.700	-17.409	0.100
171.800	-21.249	0.100
171.900	-5.315	0.100
172.000	-13.185	0.100
172.100	-20.830	0.100
172.200	-15.676	0.100
172.300	-8.494	0.100
172.400	-16.538	0.100
172.500	-29.369	0.100
172.600	-14.903	0.100
172.700	-19.826	0.100
172.800	-3.910	0.100
172.900	-10.235	0.100
173.000	-21.334	0.100
173.100	-33.945	0.100
173.200	-32.758	0.100
173.300	-12.859	0.100
173.400	-23.639	0.100
173.500	-17.400	0.100
173.600	-21.574	0.100
173.700	-11.295	0.100
173.800	-17.000	0.100
173.900	-16.077	0.100
174.000	-15.329	0.100
174.100	-23.982	0.100
174.200	-20.596	0.100
174.300	-12.535	0.100
174.400	-10.594	0.100
174.500	-19.143	0.100
174.600	-21.050	0.100
174.700	-22.123	0.100
174.800	-29.707	0.100
174.900	-10.041	0.100
175.000	-10.678	0.100
175.100	-18.630	0.100
175.200	-23.475	0.100
175.300	-15.915	0.100
175.400	-25.609	0.100
175.500	-15.056	0.100
175.600	-20.775	0.100
175.700	-25.046	0.100
175.800	-20.995	0.100
175.900	-21.373	0.100
176.000	-16.947	0.100
176.100	-18.558	0.100
176.200	-11.852	0.100
176.300	-23.219	0.100
176.400	-18.018	0.100
176.500	-8.926	0.100
176.600	-17.132	0.100
176.700	-22.840	0.100
176.800	-12.541	0.100
176.900	-20.733	0.100
177.000	-8.597	0.100
177.100	-26.601	0.100
177.200	-18.793	0.100
177.300	-18.906	0.100
177.400	-10.658	0.100
177.500	-20.638	0.100
177.600	-12.842	0.100
177.700	-22.093	0.100
177.800	-29.590	0.100
177.900	-22.763	0.100
178.000	-24.479	0.100
178.100	-18.357	0.100
178.200	-11.656	0.100
178.300	-11.283	0.100
178.400	-16.623	0.100
178.500	-20.582	0.100
178.600	-29.322	0.100
178.700	-8.375	0.100
178.800	-21.695	0.100
178.900	-19.092	0.100
179.000	-21.098	0.100
179.100	-11.607	0.100
179.200	-14.780	0.100
179.300	-15.994	0.100
179.400	-19.207	0.100
179.500	-15.794	0.100
179.600	-16.097	0.100
179.700	-12.904	0.100
179.800	-22.562	0.100
179.900	-24.407	0.100
180.000	-14.207	0.100
180.100	-18.287	0.100
180.200	-6.418	0.100
180.300	-13.069	0.100
180.400	-21.345	0.100
180.500	-26.877	0.100
180.600	-17.564	0.100
180.700	-11.696	0.100
180.800	-8.464	0.100
180.900	4.574	0.100
181.000	-8.406	0.100
181.100	-8.011	0.100
181.200	-19.757	0.100
181.300	-24.399	0.100
181.400	-17.756	0.100
181.500	-10.440	0.100
181.600	-8.867	0.100
181.700	-7.079	0.100
181.800	-10.753	0.100
181.900	-11.175	0.100
182.000	-6.647	0.100
182.100	-22.344	0.100
182.200	-9.619	0.100
182.300	-6.921	0.100
182.400	-1.788	0.100
182.500	-5.637	0.100
182.600	-6.192	0.100
182.700	-7.495	0.100
182.800	-2.766	0.100
182.900	0.500	0.100
183.000	-8.754	0.100
183.100	-4.776	0.100
183.200	-2.157	0.100
183.300	-9.638	0.100
183.400	-1.259	0.100
183.500	-5.660	0.100
183.600	-6.889	0.100
183.700	-14.020	0.100
183.800	4.177	0.100
183.900	2.769	0.100
184.000	3.762	0.100
184.100	5.962	0.100
184.200	0.062	0.100
184.300	2.991	0.100
184.400	1.531	0.100
184.500	-9.193	0.100
184.600	-12.944	0.100
184.700	-0.381	0.100
184.800	7.439	0.100
184.900	-0.915	0.100
185.000	11.343	0.100
185.100	-2.207	0.100
185.200	11.503	0.100
185.300	-1.924	0.100
185.400	-4.186	0.100
185.500	-5.918	0.100
185.600	-16.873	0.100
185.700	0.643	0.100
185.800	5.475	0.100
185.900	10.527	0.100
186.000	3.196	0.100
186.100	-11.843	0.100
186.200	-1.550	0.100
186.300	-0.465	0.100
186.400	-2.474	0.100
186.500	5.678	0.100
186.600	2.932	0.100
186.700	-5.347	0.100
186.800	13.273	0.100
186.900	-12.667	0.100
187.000	-8.942	0.100
187.100	3.627	0.100
187.200	-0.601	0.100
187.300	-4.199	0.100
187.400	-0.055	0.100
187.500	17.067	0.100
187.600	-3.779	0.100
187.700	0.540	0.100
187.800	6.254	0.100
187.900	-1.683	0.100
188.000	2.759	0.100
188.100	13.667	0.100
188.200	-6.890	0.100
188.300	-14.133	0.100
188.400	-7.920	0.100
188.500	6.553	0.100
188.600	-5.443	0.100
188.700	5.482	0.100
188.800	15.362	0.100
188.900	0.130	0.100
189.000	3.255	0.100
189.100	1.723	0.100
189.200	7.258	0.100
189.300	4.217	0.100
189.400	-0.977	0.100
189.500	10.871	0.100
189.600	14.506	0.100
189.700	4.082	0.100
189.800	7.736	0.100
189.900	-1.454	0.100
190.000	8.025	0.100
190.100	5.558	0.100
190.200	10.076	0.100
190.300	6.377	0.100
190.400	5.136	0.100
190.500	9.090	0.100
190.600	0.942	0.100
190.700	5.540	0.100
190.800	9.282	0.100
190.900	-3.156	0.100
191.000	-0.769	0.100
191.100	0.119	0.100
191.200	11.514	0.100
191.300	8.186	0.100
191.400	10.746	0.100
191.500	7.341	0.100
191.600	2.503	0.100
191.700	1.985	0.100
191.800	-7.093	0.100
191.900	7.591	0.100
192.000	-2.096	0.100
192.100	-6.299	0.100
192.200	7.157	0.100
192.300	16.695	0.100
192.400	-0.389	0.100
192.500	0.816	0.100
192.600	9.879	0.100
192.700	15.884	0.100
192.800	9.433	0.100
192.900	7.059	0.100
193.000	-10.708	0.100
193.100	0.830	0.100
193.200	13.391	0.100
193.300	14.588	0.100
193.400	7.436	0.100
193.500	7.086	0.100
193.600	4.944	0.100
193.700	16.171	0.100
193.800	7.276	0.100
193.900	11.960	0.100
194.000	5.935	0.100
194.100	8.102	0.100
194.200	18.994	0.100
194.300	23.020	0.100
194.400	-1.431	0.100
194.500	4.434	0.100
194.600	2.451	0.100
194.700	15.311	0.100
194.800	9.660	0.100
194.900	0.624	0.100
195.000	18.562	0.100
195.100	6.097	0.100
195.200	6.662	0.100
195.300	17.724	0.100
195.400	13.778	0.100
195.500	3.098	0.100
195.600	13.112	0.100
195.700	15.934	0.100
195.800	3.939	0.100
195.900	2.605	0.100
196.000	12.918	0.100
196.100	15.778	0.100
196.200	12.788	0.100
196.300	13.916	0.100
196.400	17.919	0.100
196.500	2.145	0.100
196.600	1.243	0.100
196.700	1.717	0.100
196.800	13.750	0.100
196.900	14.411	0.100
197.000	-2.379	0.100
197.100	10.088	0.100
197.200	14.461	0.100
197.300	8.547	0.100
197.400	4.093	0.100
197.500	14.552	0.100
197.600	8.036	0.100
197.700	4.743	0.100
197.800	21.493	0.100
197.900	18.995	0.100
198.000	6.916	0.100
198.100	10.443	0.100
198.200	11.646	0.100
198.300	15.447	0.100
198.400	12.825	0.100
198.500	3.758	0.100
198.600	12.079	0.100
198.700	8.790	0.100
198.800	22.147	0.100
198.900	14.517	0.100
199.000	21.941	0.100
199.100	8.479	0.100
199.200	7.300	0.100
199.300	8.000	0.100
199.400	1.113	0.100
199.500	-0.476	0.100
199.600	21.745	0.100
199.700	22.125	0.100
199.800	3.388	0.100
199.900	3.779	0.100
200.000	18.932	0.100
200.100	12.069	0.100
200.200	23.119	0.100
200.300	19.311	0.100
200.400	18.105	0.100
200.500	16.172	0.100
200.600	5.808	0.100
200.700	20.547	0.100
200.800	12.860	0.100
200.900	10.345	0.100
201.000	4.041	0.100
201.100	26.053	0.100
201.200	13.821	0.100
201.300	20.116	0.100
201.400	17.380	0.100
201.500	15.285	0.100
201.600	13.283	0.100
201.700	25.713	0.100
201.800	12.875	0.100
201.900	21.212	0.100
202.000	23.142	0.100
202.100	13.159	0.100
202.200	11.855	0.100
202.300	7.675	0.100
202.400	27.925	0.100
202.500	16.911	0.100
202.600	18.606	0.100
202.700	6.762	0.100
202.800	3.441	0.100
202.900	10.135	0.100
203.000	14.698	0.100
203.100	27.259	0.100
203.200	19.359	0.100
203.300	11.500	0.100
203.400	4.333	0.100
203.500	0.123	0.100
203.600	10.917	0.100
203.700	13.895	0.100
203.800	28.239	0.100
203.900	9.684	0.100
204.000	21.123	0.100
204.100	22.956	0.100
204.200	27.669	0.100
204.300	16.114	0.100
204.400	21.458	0.100
204.500	2.573	0.100
204.600	0.189	0.100
204.700	15.418	0.100
204.800	15.618	0.100
204.900	11.331	0.100
205.000	3.040	0.100
205.100	25.399	0.100
205.200	22.370	0.100
205.300	17.110	0.100
205.400	12.301	0.100
205.500	11.241	0.100
205.600	15.859	0.100
205.700	7.337	0.100
205.800	23.115	0.100
205.900	18.490	0.100
206.000	13.718	0.100
206.100	22.656	0.100
206.200	17.746	0.100
206.300	19.926	0.100
206.400	16.289	0.100
206.500	28.514	0.100
206.600	13.147	0.100
206.700	11.252	0.100
206.800	29.259	0.100
206.900	14.055	0.100
207.000	11.682	0.100
207.100	15.672	0.100
207.200	27.086	0.100
207.300	46.040	0.100
207.400	39.044	0.100
207.500	26.686	0.100
207.600	18.922	0.100
207.700	15.603	0.100
207.800	17.128	0.100
207.900	25.784	0.100
208.000	8.449	0.100
208.100	14.613	0.100
208.200	24.028	0.100
208.300	27.671	0.100
208.400	19.502	0.100
208.500	19.510	0.100
208.600	17.858	0.100
208.700	16.246	0.100
208.800	29.233	0.100
208.900	20.115	0.100
209.000	15.284	0.100
209.100	12.470	0.100
209.200	11.335	0.100
209.300	20.785	0.100
209.400	18.367	0.100
209.500	20.488	0.100
209.600	20.164	0.100
209.700	15.882	0.100
209.800	24.644	0.100
209.900	14.909	0.100
210.000	17.928	0.100
210.100	22.639	0.100
210.200	39.760	0.100
210.300	23.542	0.100
210.400	25.099	0.100
210.500	14.515	0.100
210.600	22.060	0.100
210.700	22.620	0.100
210.800	19.794	0.100
210.900	26.157	0.100
211.000	23.761	0.100
211.100	25.323	0.100
211.200	22.751	0.100
211.300	10.350	0.100
211.400	18.187	0.100
211.500	29.818	0.100
211.600	27.165	0.100
211.700	23.159	0.100
211.800	9.094	0.100
211.900	11.548	0.100
212.000	15.200	0.100
212.100	32.337	0.100
212.200	23.150	0.100
212.300	34.441	0.100
212.400	27.840	0.100
212.500	12.820	0.100
212.600	32.094	0.100
212.700	28.624	0.100
212.800	26.575	0.100
212.900	24.827	0.100
213.000	32.952	0.100
213.100	26.578	0.100
213.200	24.512	0.100
213.300	21.904	0.100
213.400	17.259	0.100
213.500	18.521	0.100
213.600	11.689	0.100
213.700	16.950	0.100
213.800	20.195	0.100
213.900	23.024	0.100
214.000	27.324	0.100
214.100	25.622	0.100
214.200	28.032	0.100
214.300	26.456	0.100
214.400	25.100	0.100
214.500	21.166	0.100
214.600	22.362	0.100
214.700	10.920	0.100
214.800	14.583	0.099
214.900	18.215	0.099
215.000	39.852	0.099
215.100	40.520	0.099
215.200	32.620	0.099
215.300	24.279	0.099
215.400	15.772	0.099
215.500	31.651	0.099
215.600	22.848	0.099
215.700	32.657	0.099
215.800	33.735	0.099
215.900	32.154	0.099
216.000	26.248	0.099
216.100	27.226	0.099
216.200	33.933	0.099
216.300	15.161	0.099
216.400	22.792	0.099
216.500	19.560	0.099
216.600	27.102	0.099
216.700	21.615	0.099
216.800	16.104	0.099
216.900	30.866	0.099
217.000	25.248	0.099
217.100	17.922	0.099
217.200	29.702	0.099
217.300	34.926	0.099
217.400	29.108	0.099
217.500	27.466	0.099
217.600	22.719	0.099
217.700	20.929	0.099
217.800	17.408	0.099
217.900	25.264	0.099
218.000	37.192	0.099
218.100	37.746	0.099
218.200	22.949	0.099
218.300	18.248	0.099
218.400	29.067	0.099
218.500	32.878	0.099
218.600	32.493	0.099
218.700	23.697	0.099
218.800	21.451	0.099
218.900	20.356	0.099
219.000	31.031	0.099
219.100	29.868	0.099
219.200	32.248	0.099
219.300	27.796	0.099
219.400	14.026	0.099
219.500	24.659	0.099
219.600	34.422	0.099
219.700	39.353	0.099
219.800	44.707	0.099
219.900	43.507	0.099
220.000	30.930	0.099
220.100	20.910	0.099
220.200	25.347	0.099
220.300	35.759	0.099
220.400	20.800	0.099
220.500	5.619	0.099
220.600	24.144	0.099
220.700	36.508	0.099
220.800	34.312	0.099
220.900	37.252	0.099
221.000	28.137	0.099
221.100	34.036	0.099
221.200	27.390	0.099
221.300	16.742	0.099
221.400	30.708	0.099
221.500	29.588	0.099
221.600	18.064	0.099
221.700	21.664	0.099
221.800	21.333	0.099
221.900	38.583	0.099
222.000	37.598	0.099
222.100	34.217	0.099
222.200	36.086	0.099
222.300	17.359	0.099
222.400	34.861	0.099
222.500	40.012	0.099
222.600	31.802	0.099
222.700	35.296	0.099
222.800	32.671	0.099
222.900	31.737	0.099
223.000	33.795	0.099
223.100	19.259	0.099
223.200	27.626	0.099
223.300	37.006	0.099
223.400	24.797	0.099
223.500	38.567	0.099
223.600	24.735	0.099
223.700	26.324	0.099
223.800	43.473	0.099
223.900	26.883	0.099
224.000	21.117	0.099
224.100	51.752	0.099
224.200	33.455	0.099
224.300	29.341	0.099
224.400	33.471	0.099
224.500	22.372	0.099
224.600	30.276	0.099
224.700	37.632	0.099
224.800	34.853	0.099
224.900	36.596	0.099
225.000	30.490	0.099
225.100	39.393	0.099
225.200	36.874	0.099
225.300	39.469	0.099
225.400	24.260	0.099
225.500	39.743	0.099
225.600	33.370	0.099
225.700	35.088	0.099
225.800	35.301	0.099
225.900	29.282	0.099
226.000	27.317	0.099
226.100	23.631	0.099
226.200	34.783	0.099
226.300	38.298	0.099
226.400	32.291	0.099
226.500	34.578	0.099
226.600	38.385	0.099
226.700	38.725	0.099
226.800	37.685	0.099
226.900	34.545	0.099
227.000	22.281	0.099
227.100	44.311	0.099
227.200	44.467	0.099
227.300	29.248	0.099
227.400	29.749	0.099
227.500	33.234	0.099
227.600	40.436	0.099
227.700	37.009	0.099
227.800	40.493	0.099
227.900	22.841	0.099
228.000	30.951	0.099
228.100	40.153	0.099
228.200	44.280	0.099
228.300	38.961	0.099
228.400	30.928	0.099
228.500	38.944	0.099
228.600	37.742	0.099
228.700	37.370	0.099
228.800	32.153	0.099
228.900	34.181	0.099
229.000	35.764	0.099
229.100	30.661	0.099
229.200	24.924	0.099
229.300	27.023	0.099
229.400	44.659	0.099
229.500	39.399	0.099
229.600	33.934	0.099
229.700	36.686	0.099
229.800	34.409	0.099
229.900	40.218	0.099
230.000	24.115	0.099
230.100	31.587	0.099
230.200	36.963	0.099
230.300	32.283	0.099
230.400	36.856	0.099
230.500	35.572	0.099
230.600	38.620	0.099
230.700	42.036	0.099
230.800	37.113	0.099
230.900	19.518	0.099
231.000	40.904	0.099
231.100	44.997	0.099
231.200	36.611	0.099
231.300	39.661	0.099
231.400	38.175	0.099
231.500	38.052	0.100
231.600	34.901	0.100
231.700	42.189	0.100
231.800	31.116	0.100
231.900	34.499	0.100
232.000	39.897	0.100
232.100	45.418	0.100
232.200	36.410	0.100
232.300	42.053	0.100
232.400	37.094	0.100
232.500	39.346	0.100
232.600	36.514	0.100
232.700	45.853	0.100
232.800	32.537	0.100
232.900	29.505	0.100
233.000	34.501	0.100
233.100	40.172	0.100
233.200	37.747	0.100
233.300	45.759	0.100
233.400	50.304	0.100
233.500	35.122	0.100
233.600	21.694	0.100
233.700	45.909	0.100
233.800	45.364	0.100
233.900	31.667	0.100
234.000	33.088	0.100
234.100	39.619	0.100
234.200	44.358	0.100
234.300	45.646	0.100
234.400	39.677	0.100
234.500	39.253	0.100
234.600	46.369	0.100
234.700	37.697	0.100
234.800	44.882	0.100
234.900	39.206	0.100
235.000	37.833	0.100
235.100	45.572	0.100
235.200	37.076	0.100
235.300	42.682	0.100
235.400	52.367	0.100
235.500	44.749	0.100
235.600	38.490	0.100
235.700	42.719	0.100
235.800	30.563	0.100
235.900	37.347	0.100
236.000	36.856	0.100
236.100	42.243	0.100
236.200	43.315	0.100
236.300	40.226	0.100
236.400	39.178	0.100
236.500	33.899	0.100
236.600	42.003	0.100
236.700	42.242	0.100
236.800	44.626	0.100
236.900	39.168	0.100
237.000	40.250	0.100
237.100	29.797	0.100
237.200	41.061	0.100
237.300	48.558	0.100
237.400	37.774	0.100
237.500	35.791	0.100
237.600	44.784	0.100
237.700	48.320	0.100
237.800	39.724	0.100
237.900	34.578	0.100
238.000	47.565	0.100
238.100	45.390	0.100
238.200	31.188	0.100
238.300	48.667	0.100
238.400	47.697	0.100
238.500	41.284	0.100
238.600	38.467	0.100
238.700	33.665	0.100
238.800	28.919	0.100
238.900	32.904	0.100
239.000	48.134	0.100
239.100	42.731	0.100
239.200	47.519	0.100
239.300	42.778	0.100
239.400	36.320	0.100
239.500	32.877	0.100
239.600	38.442	0.100
239.700	42.051	0.100
239.800	36.527	0.100
239.900	36.917	0.100
240.000	41.694	0.100
240.100	50.333	0.100
240.200	34.304	0.100
240.300	37.720	0.100
240.400	46.169	0.100
240.500	38.387	0.100
240.600	44.157	0.100
240.700	46.748	0.100
240.800	39.959	0.100
240.900	30.870	0.100
241.000	39.198	0.100
241.100	49.349	0.100
241.200	37.077	0.100
241.300	46.924	0.100
241.400	32.063	0.100
241.500	30.143	0.100
241.600	35.075	0.100
241.700	26.567	0.100
241.800	41.714	0.100
241.900	37.177	0.100
242.000	45.249	0.100
242.100	23.405	0.100
242.200	31.146	0.100
242.300	28.018	0.100
242.400	27.376	0.100
242.500	36.915	0.100
242.600	45.635	0.100
242.700	32.519	0.100
242.800	24.022	0.100
242.900	36.702	0.100
243.000	31.537	0.100
243.100	25.705	0.100
243.200	38.510	0.100
243.300	26.210	0.100
243.400	25.926	0.100
243.500	31.911	0.100
243.600	37.949	0.100
243.700	36.868	0.100
243.800	22.206	0.100
243.900	30.339	0.100
244.000	31.535	0.100
244.100	36.613	0.100
244.200	25.832	0.100
244.300	33.085	0.100
244.400	14.955	0.100
244.500	26.444	0.100
244.600	26.168	0.100
244.700	30.034	0.100
244.800	28.412	0.100
244.900	31.399	0.100
245.000	29.979	0.100
245.100	20.000	0.100
245.200	27.917	0.100
245.300	30.437	0.100
245.400	15.315	0.100
245.500	41.457	0.100
245.600	32.056	0.100
245.700	14.417	0.100
245.800	27.132	0.100
245.900	22.939	0.100
246.000	26.950	0.100
246.100	23.346	0.100
246.200	15.897	0.100
246.300	15.072	0.100
246.400	29.516	0.100
246.500	39.198	0.100
246.600	22.939	0.100
246.700	31.952	0.100
246.800	22.794	0.100
246.900	40.146	0.100
247.000	27.716	0.100
247.100	19.812	0.100
247.200	16.165	0.100
247.300	21.928	0.100
247.400	25.096	0.100
247.500	27.549	0.100
247.600	29.001	0.100
247.700	12.992	0.100
247.800	22.335	0.100
247.900	26.266	0.100
248.000	33.306	0.100
248.100	17.315	0.100
248.200	34.455	0.100
248.300	21.010	0.100
248.400	11.545	0.100
248.500	23.779	0.100
248.600	23.137	0.100
248.700	19.484	0.100
248.800	18.285	0.100
248.900	25.706	0.100
249.000	27.848	0.100
249.100	25.970	0.100
249.200	24.709	0.100
249.300	16.639	0.100
249.400	29.955	0.100
249.500	22.525	0.100
249.600	20.112	0.100
249.700	23.734	0.100
249.800	30.749	0.100
249.900	18.020	0.100
250.000	28.582	0.100
250.100	35.048	0.100
250.200	32.539	0.100
250.300	13.925	0.100
250.400	22.592	0.100
250.500	13.564	0.100
250.600	31.735	0.100
250.700	30.137	0.100
250.800	22.481	0.100
250.900	24.998	0.100
251.000	26.143	0.100
251.100	10.367	0.100
251.200	14.733	0.100
251.300	25.743	0.100
251.400	27.897	0.100
251.500	27.508	0.100
251.600	20.756	0.100
251.700	20.794	0.100
251.800	26.907	0.100
251.900	20.191	0.100
252.000	18.611	0.100
252.100	20.336	0.100
252.200	22.502	0.100
252.300	30.460	0.100
252.400	12.211	0.100
252.500	18.422	0.100
252.600	13.503	0.100
252.700	22.489	0.100
252.800	12.225	0.100
252.900	25.838	0.100
253.000	18.030	0.100
253.100	19.892	0.100
253.200	21.069	0.100
253.300	14.569	0.100
253.400	9.782	0.100
253.500	15.024	0.100
253.600	14.737	0.100
253.700	23.784	0.100
253.800	18.262	0.100
253.900	15.440	0.100
254.000	20.407	0.100
254.100	20.844	0.100
254.200	21.447	0.100
254.300	23.483	0.100
254.400	20.940	0.100
254.500	17.809	0.100
254.600	14.307	0.100
254.700	18.808	0.100
254.800	14.905	0.100
254.900	18.564	0.100
255.000	13.955	0.100
255.100	10.939	0.100
255.200	11.064	0.100
255.300	16.801	0.100
255.400	18.816	0.100
255.500	24.635	0.100
255.600	23.191	0.100
255.700	15.516	0.100
255.800	24.296	0.100
255.900	27.347	0.100
256.000	5.399	0.100
256.100	9.297	0.100
256.200	23.126	0.100
256.300	18.298	0.100
256.400	24.419	0.100
256.500	18.739	0.100
256.600	9.235	0.100
256.700	24.391	0.100
256.800	22.477	0.100
256.900	30.267	0.100
257.000	3.441	0.100
257.100	17.218	0.100
257.200	17.242	0.100
257.300	2.139	0.100
257.400	4.560	0.100
257.500	15.102	0.100
257.600	18.544	0.100
257.700	16.438	0.100
257.800	17.340	0.100
257.900	13.853	0.100
258.000	19.974	0.100
258.100	0.656	0.100
258.200	16.243	0.100
258.300	10.037	0.100
258.400	3.560	0.100
258.500	18.975	0.100
258.600	16.854	0.100
258.700	26.250	0.100
258.800	21.975	0.100
258.900	8.132	0.100
259.000	0.789	0.100
259.100	4.638	0.100
259.200	9.299	0.100
259.300	9.960	0.100
259.400	16.964	0.100
259.500	18.819	0.100
259.600	9.937	0.100
259.700	8.371	0.100
259.800	2.617	0.100
259.900	10.544	0.100
260.000	11.818	0.100
260.100	7.054	0.100
260.200	28.179	0.100
260.300	31.255	0.100
260.400	0.097	0.100
260.500	15.066	0.100
260.600	18.594	0.100
260.700	16.721	0.100
260.800	16.033	0.100
260.900	3.404	0.100
261.000	6.238	0.100
261.100	8.218	0.100
261.200	14.087	0.100
261.300	22.984	0.100
261.400	16.143	0.100
261.500	16.260	0.100
261.600	-1.989	0.100
261.700	6.442	0.100
261.800	10.483	0.100
261.900	-2.511	0.100
262.000	14.427	0.100
262.100	6.892	0.100
262.200	10.307	0.100
262.300	22.575	0.100
262.400	12.096	0.100
262.500	10.791	0.100
262.600	-1.951	0.100
262.700	28.066	0.100
262.800	7.234	0.100
262.900	2.621	0.100
263.000	12.882	0.100
263.100	7.922	0.100
263.200	11.939	0.100
263.300	8.449	0.100
263.400	16.053	0.100
263.500	-0.423	0.100
263.600	7.273	0.100
263.700	21.879	0.100
263.800	12.135	0.100
263.900	2.086	0.100
264.000	-3.620	0.100
264.100	10.862	0.100
264.200	6.557	0.100
264.300	17.762	0.100
264.400	0.215	0.100
264.500	3.907	0.100
264.600	1.943	0.100
264.700	6.158	0.100
264.800	12.030	0.100
264.900	23.282	0.100
265.000	18.762	0.100
265.100	7.490	0.100
265.200	10.699	0.100
265.300	16.270	0.100
265.400	18.036	0.100
265.500	8.835	0.100
265.600	2.661	0.100
265.700	6.114	0.100
265.800	10.933	0.100
265.900	-8.476	0.100
266.000	-14.345	0.100
266.100	-2.494	0.100
266.200	19.898	0.100
266.300	14.762	0.100
266.400	17.678	0.100
266.500	17.430	0.100
266.600	12.382	0.100
266.700	10.498	0.100
266.800	7.611	0.100
266.900	11.371	0.100
267.000	4.262	0.100
267.100	6.009	0.100
267.200	14.646	0.100
267.300	13.653	0.100
267.400	2.102	0.100
267.500	-4.339	0.100
267.600	15.708	0.100
267.700	2.526	0.100
267.800	10.289	0.100
267.900	-0.061	0.100
268.000	11.809	0.100
268.100	8.908	0.100
268.200	-2.034	0.100
268.300	11.535	0.100
268.400	13.087	0.100
268.500	3.504	0.100
268.600	0.305	0.100
268.700	4.885	0.100
268.800	-0.008	0.100
268.900	14.721	0.100
269.000	9.948	0.100
269.100	7.259	0.100
269.200	1.560	0.100
269.300	9.974	0.100
269.400	4.657	0.100
269.500	-5.862	0.100
269.600	-1.729	0.100
269.700	9.965	0.100
269.800	6.775	0.100
269.900	3.657	0.100
270.000	1.186	0.100
270.100	4.481	0.100
270.200	-3.382	0.100
270.300	6.917	0.100
270.400	10.400	0.100
270.500	13.603	0.100
270.600	3.351	0.100
270.700	0.340	0.100
270.800	-8.750	0.099
270.900	9.168	0.099
271.000	3.856	0.099
271.100	-0.364	0.099
271.200	0.614	0.099
271.300	-0.899	0.099
271.400	5.212	0.099
271.500	4.584	0.099
271.600	6.017	0.099
271.700	3.720	0.099
271.800	10.446	0.099
271.900	9.409	0.099
272.000	6.862	0.099
272.100	2.520	0.099
272.200	-5.485	0.099
272.300	1.463	0.099
272.400	-9.478	0.099
272.500	-4.062	0.099
272.600	17.596	0.099
272.700	6.423	0.099
272.800	1.543	0.099
272.900	-0.488	0.099
273.000	-1.365	0.099
273.100	-1.577	0.099
273.200	-7.064	0.099
273.300	4.354	0.099
273.400	-4.175	0.099
273.500	15.376	0.099
273.600	0.292	0.099
273.700	-1.227	0.099
273.800	-15.675	0.099
273.900	9.028	0.099
274.000	9.767	0.099
274.100	8.709	0.099
274.200	11.466	0.099
274.300	-1.367	0.099
274.400	-6.407	0.099
274.500	-4.120	0.099
274.600	7.817	0.099
274.700	3.966	0.099
274.800	-5.639	0.099
274.900	0.337	0.099
275.000	2.970	0.099
275.100	-0.078	0.099
275.200	-12.707	0.099
275.300	-15.860	0.099
275.400	-1.884	0.099
275.500	-5.684	0.099
275.600	-5.407	0.099
275.700	2.814	0.099
275.800	11.258	0.099
275.900	0.945	0.099
276.000	3.177	0.099
276.100	-5.634	0.099
276.200	-6.355	0.099
276.300	4.859	0.099
276.400	7.004	0.099
276.500	1.975	0.099
276.600	1.590	0.099
276.700	1.020	0.099
276.800	7.784	0.099
276.900	-0.753	0.099
277.000	-6.848	0.099
277.100	-4.436	0.099
277.200	7.102	0.099
277.300	-1.086	0.099
277.400	-1.198	0.099
277.500	-2.094	0.099
277.600	-9.267	0.099
277.700	-12.508	0.099
277.800	11.831	0.099
277.900	-7.237	0.099
278.000	2.446	0.099
278.100	-7.472	0.099
278.200	0.925	0.099
278.300	-8.006	0.099
278.400	-0.952	0.099
278.500	-8.698	0.099
278.600	-8.462	0.099
278.700	-5.255	0.099
278.800	9.042	0.099
278.900	1.009	0.099
279.000	-6.369	0.099
279.100	5.075	0.099
279.200	-1.450	0.099
279.300	-4.116	0.099
279.400	-3.316	0.099
279.500	-9.624	0.099
279.600	-8.201	0.099
279.700	-11.350	0.099
279.800	-7.432	0.099
279.900	10.686	0.099
280.000	-5.789	0.099
280.100	-2.444	0.099
280.200	1.712	0.099
280.300	0.647	0.099
280.400	-6.128	0.099
280.500	-4.915	0.099
280.600	-2.529	0.099
280.700	-8.799	0.099
280.800	-5.254	0.099
280.900	2.163	0.099
281.000	-0.941	0.099
281.100	3.800	0.099
281.200	-4.486	0.099
281.300	-9.702	0.099
281.400	-2.282	0.099
281.500	-15.020	0.099
281.600	-8.569	0.099
281.700	-3.607	0.099
281.800	6.556	0.099
281.900	4.764	0.099
282.000	-3.447	0.099
282.100	1.047	0.099
282.200	-3.575	0.099
282.300	-12.392	0.099
282.400	-1.348	0.099
282.500	-10.020	0.099
282.600	-8.963	0.099
282.700	-15.512	0.099
282.800	-5.065	0.099
282.900	-11.562	0.099
283.000	-0.013	0.099
283.100	0.842	0.099
283.200	-5.736	0.099
283.300	-6.009	0.099
283.400	-3.618	0.099
283.500	-11.773	0.099
283.600	1.161	0.099
283.700	-3.624	0.099
283.800	0.926	0.099
283.900	-9.128	0.099
284.000	-3.309	0.099
284.100	-15.151	0.099
284.200	-11.369	0.099
284.300	-5.502	0.099
284.400	2.322	0.099
284.500	0.943	0.099
284.600	-14.961	0.099
284.700	-15.731	0.099
284.800	-2.850	0.099
284.900	-7.730	0.099
285.000	3.155	0.099
285.100	-16.511	0.099
285.200	-11.945	0.099
285.300	-4.958	0.099
285.400	-6.907	0.099
285.500	-2.699	0.099
285.600	6.114	0.099
285.700	3.379	0.099
285.800	-16.929	0.099
285.900	-4.681	0.099
286.000	-9.987	0.099
286.100	-1.798	0.099
286.200	-8.458	0.099
286.300	-3.723	0.099
286.400	-7.180	0.099
286.500	2.351	0.099
286.600	-6.424	0.099
286.700	-5.032	0.099
286.800	-9.157	0.099
286.900	-16.123	0.099
287.000	-12.213	0.099
287.100	-7.238	0.099
287.200	6.244	0.099
287.300	-5.285	0.099
287.400	-6.070	0.099
287.500	-4.849	0.099
287.600	-2.083	0.099
287.700	-6.481	0.099
287.800	0.578	0.099
287.900	-3.263	0.100
288.000	-10.803	0.100
288.100	-19.352	0.100
288.200	-6.569	0.100
288.300	-1.087	0.100
288.400	-2.406	0.100
288.500	-5.304	0.100
288.600	-2.833	0.100
288.700	-12.990	0.100
288.800	-13.134	0.100
288.900	-8.390	0.100
289.000	-14.667	0.100
289.100	-16.554	0.100
289.200	-7.148	0.100
289.300	-17.471	0.100
289.400	-12.466	0.100
289.500	-7.971	0.100
289.600	2.614	0.100
289.700	3.930	0.100
289.800	-3.775	0.100
289.900	8.207	0.100
290.000	-7.817	0.100
290.100	-15.596	0.100
290.200	-11.007	0.100
290.300	-10.438	0.100
290.400	-8.771	0.100
290.500	-4.915	0.100
290.600	-12.580	0.100
290.700	2.493	0.100
290.800	-7.663	0.100
290.900	-21.126	0.100
291.000	-13.127	0.100
291.100	-15.081	0.100
291.200	-11.284	0.100
291.300	-14.647	0.100
291.400	-2.899	0.100
291.500	1.304	0.100
291.600	-8.995	0.100
291.700	-9.424	0.100
291.800	-11.107	0.100
291.900	-4.368	0.100
292.000	-27.100	0.100
292.100	-18.561	0.100
292.200	-11.021	0.100
292.300	-5.739	0.100
292.400	-6.669	0.100
292.500	-4.701	0.100
292.600	-6.896	0.100
292.700	-2.757	0.100
292.800	-12.457	0.100
292.900	-13.927	0.100
293.000	-20.533	0.100
293.100	0.328	0.100
293.200	-9.317	0.100
293.300	-19.428	0.100
293.400	-14.333	0.100
293.500	-9.265	0.100
293.600	-3.492	0.100
293.700	0.600	0.100
293.800	1.604	0.100
293.900	-9.887	0.100
294.000	-10.922	0.100
294.100	-12.160	0.100
294.200	-22.956	0.100
294.300	-12.709	0.100
294.400	-17.002	0.100
294.500	-5.478	0.100
294.600	-7.392	0.100
294.700	-15.943	0.100
294.800	-10.051	0.100
294.900	-11.610	0.100
295.000	-14.676	0.100
295.100	-4.877	0.100
295.200	-6.335	0.100
295.300	-12.733	0.100
295.400	-13.318	0.100
295.500	-9.235	0.100
295.600	-12.954	0.100
295.700	-21.448	0.100
295.800	-9.626	0.100
295.900	-8.108	0.100
296.000	-8.175	0.100
296.100	-10.189	0.100
296.200	-19.930	0.100
296.300	-3.446	0.100
296.400	-7.642	0.100
296.500	-20.164	0.100
296.600	-19.964	0.100
296.700	-21.690	0.100
296.800	-9.791	0.100
296.900	-5.809	0.100
297.000	-7.450	0.100
297.100	-11.991	0.100
297.200	-6.876	0.100
297.300	-14.185	0.100
297.400	-14.498	0.100
297.500	-14.718	0.100
297.600	-13.421	0.100
297.700	-6.561	0.100
297.800	8.493	0.100
297.900	-10.742	0.100
298.000	-9.430	0.100
298.100	-7.896	0.100
298.200	-15.981	0.100
298.300	-18.667	0.100
298.400	-13.006	0.100
298.500	-7.316	0.100
298.600	-10.946	0.100
298.700	-5.691	0.100
298.800	-13.639	0.100
298.900	-11.254	0.100
299.000	-16.085	0.100
299.100	-0.658	0.100
299.200	-3.828	0.100
299.300	-11.430	0.100
299.400	-8.053	0.100
299.500	-10.359	0.100
299.600	-20.792	0.100
299.700	-13.662	0.100
299.800	-12.625	0.100
299.900	-19.932	0.100
300.000	-12.670	0.100
300.100	-10.199	0.100
300.200	-2.730	0.100
300.300	-8.562	0.100
300.400	-1.970	0.100
300.500	-16.731	0.100
300.600	-11.951	0.100
300.700	-16.224	0.100
300.800	-21.943	0.100
300.900	-8.419	0.100
301.000	-14.681	0.100
301.100	-9.864	0.100
301.200	-12.912	0.100
301.300	-10.632	0.100
301.400	-18.492	0.100
301.500	-0.918	0.100
301.600	-5.477	0.100
301.700	-19.976	0.100
301.800	-8.876	0.100
301.900	-17.715	0.100
302.000	-19.976	0.100
302.100	-15.494	0.100
302.200	-6.919	0.100
302.300	-10.729	0.100
302.400	-6.435	0.100
302.500	-8.281	0.100
302.600	-20.290	0.100
302.700	-0.731	0.100
302.800	-8.183	0.100
302.900	-14.491	0.100
303.000	-19.032	0.100
303.100	-13.523	0.100
303.200	-14.198	0.100
303.300	-9.750	0.100
303.400	-1.218	0.100
303.500	-15.941	0.100
303.600	-15.158	0.100
303.700	-8.784	0.100
303.800	-14.159	0.100
303.900	-4.038	0.100
304.000	-10.462	0.100
304.100	-14.949	0.100
304.200	-9.273	0.100
304.300	-19.871	0.100
304.400	-13.279	0.100
304.500	-14.736	0.100
304.600	-10.427	0.100
304.700	-11.175	0.100
304.800	-11.317	0.100
304.900	-20.177	0.100
305.000	-18.720	0.100
305.100	-4.159	0.100
305.200	-10.872	0.100
305.300	-15.060	0.100
305.400	-19.425	0.100
305.500	-11.288	0.100
305.600	-11.287	0.100
305.700	-12.709	0.100
305.800	-9.681	0.100
305.900	-21.949	0.100
306.000	-14.627	0.100
306.100	-7.652	0.100
306.200	-21.543	0.100
306.300	-10.627	0.100
306.400	-12.125	0.100
306.500	-14.273	0.100
306.600	-7.189	0.100
306.700	-18.417	0.100
306.800	-8.722	0.100
306.900	-14.975	0.100
307.000	-22.027	0.100
307.100	-12.218	0.100
307.200	-15.568	0.100
307.300	-8.525	0.100
307.400	-26.408	0.100
307.500	-2.930	0.100
307.600	-7.185	0.100
307.700	-8.633	0.100
307.800	-9.306	0.100
307.900	-11.837	0.100
308.000	-12.823	0.100
308.100	-25.734	0.100
308.200	-12.092	0.100
308.300	-6.822	0.100
308.400	-10.101	0.100
308.500	-10.930	0.100
308.600	-11.916	0.100
308.700	-19.731	0.100
308.800	-12.319	0.100
308.900	-13.877	0.100
309.000	-3.081	0.100
309.100	-10.573	0.100
309.200	-25.780	0.100
309.300	-12.753	0.100
309.400	-13.137	0.100
309.500	-17.597	0.100
309.600	-11.247	0.100
309.700	-22.055	0.100
309.800	-16.191	0.100
309.900	-25.001	0.100
310.000	-15.758	0.100
310.100	-33.273	0.100
310.200	-11.966	0.100
310.300	-27.413	0.100
310.400	-10.853	0.100
310.500	-11.786	0.100
310.600	-2.573	0.100
310.700	-7.038	0.100
310.800	-14.790	0.100
310.900	-23.105	0.100
311.000	-14.599	0.100
311.100	-11.415	0.100
311.200	-12.911	0.100
311.300	-22.826	0.100
311.400	-14.029	0.100
311.500	-11.038	0.100
311.600	0.709	0.100
311.700	-13.073	0.100
311.800	-28.500	0.100
311.900	-16.623	0.100
312.000	-25.425	0.100
312.100	-15.382	0.100
312.200	-13.081	0.100
312.300	-20.000	0.100
312.400	-9.827	0.100
312.500	-10.438	0.100
312.600	-2.875	0.100
312.700	-21.291	0.100
312.800	-5.950	0.100
312.900	-18.604	0.100
313.000	-19.885	0.100
313.100	-14.673	0.100
313.200	-10.740	0.100
313.300	-13.773	0.100
313.400	-8.355	0.100
313.500	-12.603	0.100
313.600	-9.830	0.100
313.700	-21.480	0.100
313.800	-7.208	0.100
313.900	-13.864	0.100
314.000	-21.029	0.100
314.100	-23.049	0.100
314.200	-16.697	0.100
314.300	-15.770	0.100
314.400	-13.013	0.100
314.500	-16.637	0.100
314.600	-19.618	0.100
314.700	-23.191	0.100
314.800	-8.538	0.100
314.900	-10.852	0.100
315.000	-11.837	0.100
315.100	-7.068	0.100
315.200	-23.764	0.100
315.300	-15.664	0.100
315.400	-19.175	0.100
315.500	-21.154	0.100
315.600	-11.481	0.100
315.700	-6.600	0.100
315.800	-10.684	0.100
315.900	-12.359	0.100
316.000	-13.628	0.100
316.100	-13.694	0.100
316.200	-18.392	0.100
316.300	-30.498	0.100
316.400	-36.565	0.100
316.500	-22.907	0.100
316.600	4.078	0.100
316.700	-7.241	0.100
316.800	-24.076	0.100
316.900	-14.619	0.100
317.000	-25.393	0.100
317.100	-23.603	0.100
317.200	-6.795	0.100
317.300	-5.368	0.100
317.400	-21.105	0.100
317.500	-14.906	0.100
317.600	-18.625	0.100
317.700	-0.670	0.100
317.800	-15.746	0.100
317.900	-13.326	0.100
318.000	-17.648	0.100
318.100	-27.491	0.100
318.200	-17.799	0.100
318.300	-13.724	0.100
318.400	-16.821	0.100
318.500	-7.681	0.100
318.600	-20.781	0.100
318.700	-16.552	0.100
318.800	-21.122	0.100
318.900	-11.615	0.100
319.000	-25.097	0.100
319.100	-14.612	0.100
319.200	-16.300	0.100
319.300	-11.164	0.100
319.400	-15.133	0.100
319.500	-21.422	0.100
319.600	-16.861	0.100
319.700	-26.357	0.100
319.800	-7.744	0.100
319.900	-9.819	0.100
320.000	-7.167	0.100
320.100	-14.442	0.100
320.200	-23.739	0.100
320.300	-7.776	0.100
320.400	-5.802	0.100
320.500	-17.870	0.100
320.600	-14.880	0.100
320.700	-7.209	0.100
320.800	-17.164	0.100
320.900	-15.732	0.100
321.000	-22.621	0.100
321.100	-29.655	0.100
321.200	-14.559	0.100
321.300	-18.464	0.100
321.400	-9.608	0.100
321.500	-6.749	0.100
321.600	-17.812	0.100
321.700	-2.816	0.100
321.800	-24.778	0.100
321.900	-8.980	0.100
322.000	-18.702	0.100
322.100	-24.038	0.100
322.200	-34.508	0.100
322.300	-21.407	0.100
322.400	-7.283	0.100
322.500	-11.775	0.100
322.600	-15.940	0.100
322.700	-14.814	0.100
322.800	-10.537	0.100
322.900	-15.496	0.100
323.000	-16.946	0.100
323.100	-28.903	0.100
323.200	-23.571	0.100
323.300	-12.978	0.100
323.400	-24.481	0.100
323.500	-24.999	0.100
323.600	-19.249	0.100
323.700	-11.637	0.100
323.800	-5.466	0.100
323.900	-15.556	0.100
324.000	-24.952	0.100
324.100	-18.281	0.100
324.200	-17.505	0.100
324.300	-8.027	0.100
324.400	-15.377	0.100
324.500	-19.348	0.100
324.600	-22.405	0.100
324.700	-24.483	0.100
324.800	-7.669	0.100
324.900	-14.398	0.100
325.000	-17.951	0.100
325.100	-13.714	0.100
325.200	-8.265	0.100
325.300	-22.884	0.100
325.400	-12.900	0.100
325.500	-19.980	0.100
325.600	-10.320	0.100
325.700	-14.900	0.100
325.800	-22.864	0.100
325.900	-10.801	0.100
326.000	-19.574	0.100
326.100	-23.530	0.100
326.200	-18.561	0.100
326.300	-18.439	0.100
326.400	-10.667	0.100
326.500	-13.267	0.100
326.600	-15.200	0.100
326.700	-27.257	0.100
326.800	-5.547	0.100
326.900	-8.639	0.100
327.000	-15.854	0.100
327.100	-25.410	0.100
327.200	-21.073	0.100
327.300	-20.323	0.100
327.400	-14.902	0.100
327.500	-19.415	0.100
327.600	-13.606	0.100
327.700	-23.824	0.100
327.800	-18.112	0.100
327.900	-27.038	0.100
328.000	-27.291	0.100
328.100	-14.725	0.100
328.200	-6.305	0.100
328.300	-11.365	0.100
328.400	-6.053	0.100
328.500	-10.802	0.100
328.600	-27.596	0.100
328.700	-15.623	0.100
328.800	-10.143	0.100
328.900	-14.435	0.100
329.000	-13.543	0.100
329.100	-23.466	0.100
329.200	-18.262	0.100
329.300	-22.696	0.100
329.400	-19.851	0.100
329.500	-24.430	0.100
329.600	-21.138	0.100
329.700	-17.508	0.100
329.800	-10.487	0.100
329.900	-6.415	0.100
330.000	-18.236	0.100
330.100	-20.821	0.100
330.200	-9.484	0.100
330.300	-16.510	0.100
330.400	-11.492	0.100
330.500	-11.208	0.100
330.600	-21.287	0.100
330.700	-19.325	0.100
330.800	-10.991	0.100
330.900	-19.458	0.100
331.000	-6.836	0.100
331.100	-8.134	0.100
331.200	-6.057	0.100
331.300	-10.700	0.100
331.400	-6.655	0.100
331.500	-15.278	0.100
331.600	-12.856	0.100
331.700	-9.902	0.100
331.800	-9.419	0.100
331.900	-8.825	0.100
332.000	-6.930	0.100
332.100	-4.751	0.100
332.200	-3.188	0.100
332.300	-12.046	0.100
332.400	-15.623	0.100
332.500	14.433	0.100
332.600	-2.319	0.100
332.700	-6.526	0.100
332.800	-4.735	0.100
332.900	13.351	0.100
333.000	5.411	0.100
333.100	-1.274	0.100
333.200	0.860	0.100
333.300	-10.387	0.100
333.400	-6.234	0.100
333.500	-2.616	0.100
333.600	-14.756	0.100
333.700	-6.434	0.100
333.800	1.443	0.100
333.900	6.515	0.100
334.000	3.493	0.100
334.100	-1.361	0.100
334.200	-1.061	0.100
334.300	-3.598	0.100
334.400	3.713	0.100
334.500	-0.391	0.100
334.600	2.048	0.100
334.700	1.607	0.100
334.800	0.826	0.100
334.900	-1.857	0.100
335.000	-11.409	0.100
335.100	5.546	0.100
335.200	12.910	0.100
335.300	10.073	0.100
335.400	0.215	0.100
335.500	7.217	0.100
335.600	-0.788	0.100
335.700	7.322	0.100
335.800	5.240	0.100
335.900	9.687	0.100
336.000	6.488	0.100
336.100	-14.326	0.100
336.200	4.755	0.100
336.300	2.390	0.100
336.400	8.138	0.100
336.500	3.577	0.100
336.600	-0.981	0.100
336.700	0.602	0.100
336.800	6.179	0.100
336.900	9.192	0.100
337.000	8.039	0.100
337.100	-0.985	0.100
337.200	-2.324	0.100
337.300	-3.026	0.100
337.400	-8.939	0.100
337.500	19.810	0.100
337.600	8.649	0.100
337.700	-0.334	0.100
337.800	5.309	0.100
337.900	1.296	0.100
338.000	4.176	0.100
338.100	1.012	0.100
338.200	8.849	0.100
338.300	6.382	0.100
338.400	-4.739	0.100
338.500	5.180	0.100
338.600	13.476	0.100
338.700	18.937	0.100
338.800	13.058	0.100
338.900	7.362	0.100
339.000	-2.110	0.100
339.100	4.406	0.100
339.200	-6.364	0.100
339.300	7.176	0.100
339.400	18.091	0.100
339.500	2.451	0.100
339.600	1.530	0.100
339.700	16.362	0.100
339.800	13.106	0.100
339.900	3.208	0.100
340.000	-4.261	0.100
340.100	-5.128	0.100
340.200	13.606	0.100
340.300	7.172	0.100
340.400	-0.599	0.100
340.500	8.580	0.100
340.600	2.761	0.100
340.700	3.676	0.100
340.800	5.932	0.100
340.900	7.733	0.100
341.000	3.938	0.100
341.100	8.016	0.100
341.200	13.685	0.100
341.300	1.311	0.100
341.400	13.349	0.100
341.500	18.006	0.100
341.600	9.875	0.100
341.700	3.413	0.100
341.800	4.165	0.100
341.900	1.902	0.100
342.000	4.618	0.100
342.100	-9.288	0.100
342.200	-2.751	0.100
342.300	11.348	0.100
342.400	5.163	0.100
342.500	25.580	0.100
342.600	7.417	0.100
342.700	7.986	0.100
342.800	13.527	0.100
342.900	1.478	0.100
343.000	9.622	0.100
343.100	12.234	0.100
343.200	7.603	0.100
343.300	9.316	0.100
343.400	10.576	0.100
343.500	6.030	0.100
343.600	0.625	0.100
343.700	0.493	0.100
343.800	19.109	0.100
343.900	15.679	0.100
344.000	16.700	0.100
344.100	6.123	0.100
344.200	7.190	0.100
344.300	8.217	0.100
344.400	25.559	0.100
344.500	14.279	0.100
344.600	9.301	0.100
344.700	0.835	0.100
344.800	4.742	0.100
344.900	1.772	0.100
345.000	5.127	0.100
345.100	19.766	0.100
345.200	0.734	0.100
345.300	19.746	0.100
345.400	13.737	0.100
345.500	9.105	0.100
345.600	7.723	0.100
345.700	9.494	0.100
345.800	13.867	0.100
345.900	17.916	0.100
346.000	10.870	0.100
346.100	13.044	0.100
346.200	27.278	0.100
346.300	23.774	0.100
346.400	12.482	0.100
346.500	8.345	0.100
346.600	4.055	0.100
346.700	9.010	0.100
346.800	11.277	0.100
346.900	15.845	0.100
347.000	14.170	0.100
347.100	21.314	0.100
347.200	12.444	0.100
347.300	14.121	0.100
347.400	-5.152	0.100
347.500	19.279	0.100
347.600	22.498	0.100
347.700	16.303	0.100
347.800	26.354	0.100
347.900	10.271	0.100
348.000	11.766	0.100
348.100	15.508	0.100
348.200	11.416	0.100
348.300	19.058	0.100
348.400	1.101	0.100
348.500	8.945	0.100
348.600	11.747	0.100
348.700	27.055	0.100
348.800	11.333	0.100
348.900	10.249	0.100
349.000	-2.499	0.100
349.100	5.863	0.100
349.200	10.792	0.100
349.300	26.172	0.100
349.400	17.596	0.100
349.500	16.705	0.100
349.600	20.473	0.100
349.700	13.958	0.100
349.800	16.746	0.100
349.900	12.755	0.100
350.000	6.174	0.100
350.100	19.168	0.100
350.200	22.399	0.100
350.300	6.081	0.100
350.400	10.586	0.100
350.500	-1.879	0.100
350.600	24.650	0.100
350.700	20.964	0.100
350.800	19.340	0.100
350.900	7.146	0.100
351.000	7.881	0.100
351.100	21.590	0.100
351.200	22.160	0.100
351.300	22.767	0.100
351.400	16.711	0.100
351.500	25.055	0.100
351.600	9.661	0.100
351.700	11.646	0.100
351.800	15.587	0.100
351.900	26.720	0.100
352.000	9.734	0.100
352.100	16.479	0.100
352.200	18.191	0.100
352.300	16.735	0.100
352.400	5.208	0.100
352.500	25.544	0.100
352.600	20.635	0.100
352.700	16.831	0.100
352.800	7.854	0.100
352.900	11.893	0.100
353.000	18.599	0.100
353.100	12.270	0.100
353.200	23.470	0.100
353.300	18.543	0.100
353.400	17.285	0.100
353.500	16.873	0.100
353.600	16.976	0.100
353.700	15.027	0.100
353.800	23.479	0.100
353.900	18.911	0.100
354.000	21.905	0.100
354.100	20.345	0.100
354.200	25.627	0.100
354.300	21.882	0.100
354.400	8.483	0.100
354.500	12.191	0.100
354.600	4.113	0.100
354.700	19.070	0.100
354.800	27.865	0.100
354.900	20.252	0.100
355.000	21.462	0.100
355.100	13.861	0.100
355.200	12.033	0.100
355.300	28.100	0.100
355.400	14.829	0.100
355.500	19.911	0.100
355.600	20.750	0.100
355.700	24.869	0.100
355.800	16.091	0.100
355.900	21.830	0.100
356.000	23.995	0.100
356.100	26.212	0.100
356.200	13.678	0.100
356.300	21.295	0.100
356.400	29.866	0.100
356.500	31.670	0.100
356.600	17.103	0.100
356.700	27.659	0.100
356.800	13.310	0.100
356.900	19.438	0.100
357.000	15.750	0.100
357.100	15.749	0.100
357.200	19.771	0.100
357.300	24.740	0.100
357.400	19.632	0.100
357.500	22.081	0.100
357.600	22.939	0.100
357.700	25.612	0.100
357.800	26.078	0.100
357.900	22.814	0.100
358.000	20.482	0.100
358.100	17.571	0.100
358.200	18.721	0.100
358.300	16.347	0.100
358.400	28.405	0.100
358.500	23.722	0.100
358.600	20.745	0.100
358.700	31.608	0.100
358.800	32.088	0.100
358.900	20.737	0.100
359.000	21.637	0.100
359.100	22.110	0.100
359.200	16.521	0.100
359.300	23.690	0.100
359.400	38.335	0.100
359.500	28.364	0.100
359.600	29.700	0.100
359.700	15.443	0.100
359.800	24.466	0.100
359.900	16.441	0.100
360.000	26.600	0.100
360.100	17.173	0.100
360.200	19.022	0.100
360.300	25.600	0.100
360.400	22.639	0.100
360.500	13.982	0.100
360.600	25.734	0.100
360.700	30.777	0.100
360.800	19.221	0.100
360.900	33.240	0.100
361.000	20.212	0.100
361.100	29.970	0.100
361.200	27.646	0.100
361.300	10.583	0.100
361.400	30.213	0.100
361.500	31.396	0.100
361.600	26.099	0.100
361.700	25.392	0.100
361.800	18.740	0.100
361.900	32.731	0.100
362.000	22.378	0.100
362.100	26.519	0.100
362.200	38.008	0.100
362.300	19.441	0.100
362.400	28.248	0.100
362.500	36.376	0.100
362.600	30.392	0.100
362.700	22.505	0.100
362.800	16.362	0.100
362.900	9.758	0.100
363.000	29.189	0.100
363.100	32.510	0.100
363.200	30.718	0.100
363.300	31.239	0.100
363.400	21.301	0.100
363.500	21.108	0.100
363.600	23.566	0.100
363.700	30.000	0.100
363.800	28.699	0.100
363.900	27.525	0.100
364.000	27.352	0.100
364.100	29.256	0.100
364.200	21.693	0.100
364.300	25.666	0.100
364.400	33.810	0.100
364.500	16.520	0.100
364.600	21.492	0.100
364.700	29.983	0.100
364.800	44.413	0.100
364.900	37.018	0.100
365.000	38.021	0.100
365.100	38.110	0.100
365.200	32.053	0.100
365.300	28.272	0.100
365.400	26.808	0.100
365.500	38.112	0.100
365.600	29.921	0.100
365.700	17.898	0.100
365.800	30.296	0.100
365.900	21.621	0.100
366.000	28.374	0.100
366.100	34.536	0.100
366.200	31.714	0.100
366.300	29.428	0.100
366.400	27.876	0.100
366.500	30.527	0.100
366.600	27.473	0.100
366.700	23.588	0.100
366.800	24.128	0.100
366.900	29.525	0.100
367.000	29.531	0.100
367.100	24.607	0.100
367.200	19.338	0.100
367.300	27.660	0.100
367.400	26.956	0.100
367.500	42.079	0.100
367.600	36.599	0.100
367.700	40.746	0.100
367.800	34.794	0.100
367.900	26.536	0.100
368.000	23.977	0.100
368.100	24.349	0.100
368.200	36.961	0.100
368.300	28.848	0.100
368.400	35.987	0.100
368.500	24.070	0.100
368.600	28.290	0.100
368.700	15.871	0.100
368.800	39.580	0.100
368.900	45.091	0.100
369.000	36.618	0.100
369.100	28.254	0.100
369.200	36.808	0.100
369.300	27.101	0.100
369.400	33.752	0.100
369.500	23.783	0.100
369.600	32.364	0.100
369.700	38.246	0.100
369.800	44.031	0.100
369.900	34.847	0.100
370.000	26.955	0.100
370.100	30.578	0.100
370.200	22.280	0.100
370.300	23.890	0.100
370.400	33.867	0.100
370.500	35.874	0.100
370.600	39.919	0.100
370.700	36.872	0.100
370.800	28.606	0.100
370.900	28.791	0.100
371.000	33.927	0.100
371.100	37.080	0.100
371.200	34.602	0.100
371.300	26.387	0.100
371.400	31.605	0.100
371.500	28.223	0.100
371.600	39.863	0.100
371.700	29.077	0.100
371.800	28.284	0.100
371.900	44.163	0.100
372.000	34.409	0.100
372.100	34.551	0.100
372.200	39.475	0.100
372.300	30.432	0.100
372.400	36.110	0.100
372.500	30.499	0.100
372.600	41.975	0.100
372.700	42.579	0.100
372.800	24.676	0.100
372.900	19.764	0.100
373.000	29.528	0.100
373.100	41.291	0.100
373.200	35.003	0.100
373.300	27.819	0.100
373.400	42.344	0.100
373.500	52.893	0.100
373.600	30.262	0.100
373.700	30.578	0.100
373.800	42.247	0.100
373.900	44.448	0.100
374.000	36.655	0.100
374.100	40.308	0.100
374.200	34.349	0.100
374.300	29.645	0.100
374.400	29.745	0.100
374.500	37.829	0.100
374.600	31.311	0.100
374.700	32.729	0.100
374.800	33.097	0.100
374.900	34.471	0.100
375.000	40.809	0.100
375.100	41.453	0.100
375.200	47.748	0.100
375.300	49.091	0.100
375.400	27.600	0.100
375.500	29.613	0.100
375.600	49.515	0.100
375.700	36.412	0.100
375.800	35.171	0.100
375.900	42.392	0.100
376.000	32.424	0.100
376.100	39.863	0.100
376.200	35.999	0.100
376.300	39.999	0.100
376.400	34.061	0.100
376.500	37.676	0.100
376.600	33.161	0.100
376.700	37.647	0.100
376.800	38.532	0.100
376.900	36.059	0.100
377.000	29.233	0.100
377.100	30.850	0.100
377.200	33.570	0.100
377.300	43.290	0.100
377.400	40.491	0.100
377.500	30.217	0.100
377.600	28.849	0.100
377.700	35.652	0.100
377.800	41.642	0.100
377.900	39.723	0.100
378.000	49.693	0.100
378.100	30.129	0.100
378.200	33.640	0.100
378.300	36.755	0.100
378.400	35.254	0.100
378.500	41.988	0.100
378.600	44.524	0.100
378.700	42.028	0.100
378.800	44.210	0.100
378.900	44.521	0.100
379.000	34.102	0.100
379.100	37.500	0.100
379.200	38.448	0.100
379.300	38.865	0.100
379.400	24.787	0.100
379.500	38.156	0.100
379.600	50.425	0.100
379.700	46.035	0.100
379.800	36.038	0.100
379.900	40.392	0.100
380.000	40.944	0.100
380.100	43.493	0.100
380.200	38.222	0.100
380.300	46.273	0.100
380.400	41.435	0.100
380.500	47.090	0.100
380.600	40.280	0.100
380.700	46.382	0.100
380.800	42.997	0.100
380.900	34.348	0.100
381.000	34.314	0.100
381.100	41.234	0.100
381.200	38.875	0.100
381.300	38.815	0.100
381.400	37.174	0.100
381.500	31.794	0.100
381.600	40.859	0.100
381.700	42.611	0.100
381.800	44.467	0.100
381.900	40.359	0.100
382.000	45.804	0.100
382.100	46.161	0.100
382.200	42.474	0.100
382.300	35.738	0.100
382.400	39.729	0.100
382.500	24.971	0.100
382.600	34.152	0.100
382.700	43.369	0.100
382.800	48.638	0.100
382.900	44.224	0.100
383.000	45.098	0.100
383.100	47.364	0.100
383.200	40.890	0.100
383.300	47.138	0.100
383.400	38.942	0.100
383.500	42.660	0.100
383.600	41.899	0.100
383.700	46.507	0.100
383.800	43.714	0.100
383.900	36.887	0.100
384.000	42.168	0.100
384.100	45.164	0.100
384.200	41.003	0.100
384.300	50.158	0.100
384.400	36.226	0.100
384.500	45.154	0.100
384.600	52.370	0.100
384.700	43.738	0.100
384.800	44.125	0.100
384.900	33.984	0.100
385.000	53.370	0.100
385.100	44.889	0.100
385.200	31.210	0.100
385.300	37.062	0.100
385.400	29.603	0.100
385.500	40.214	0.100
385.600	47.147	0.100
385.700	40.088	0.100
385.800	51.051	0.100
385.900	38.616	0.100
386.000	45.559	0.100
386.100	43.162	0.100
386.200	29.542	0.100
386.300	49.098	0.100
386.400	39.825	0.100
386.500	38.888	0.100
386.600	48.799	0.100
386.700	49.198	0.100
386.800	39.480	0.100
386.900	39.180	0.100
387.000	31.803	0.100
387.100	39.167	0.100
387.200	47.130	0.100
387.300	51.778	0.100
387.400	44.218	0.100
387.500	41.033	0.100
387.600	42.577	0.100
387.700	56.975	0.100
387.800	48.734	0.100
387.900	28.069	0.100
388.000	38.341	0.100
388.100	52.144	0.100
388.200	48.799	0.100
388.300	50.999	0.100
388.400	45.159	0.100
388.500	45.544	0.100
388.600	36.688	0.100
388.700	59.823	0.100
388.800	48.679	0.100
388.900	35.765	0.100
389.000	48.537	0.100
389.100	49.471	0.100
389.200	56.404	0.100
389.300	48.703	0.100
389.400	52.121	0.100
389.500	47.949	0.100
389.600	42.190	0.100
389.700	44.390	0.100
389.800	48.724	0.100
389.900	50.214	0.100
390.000	44.808	0.100
390.100	41.374	0.100
390.200	43.304	0.100
390.300	42.838	0.100
390.400	36.814	0.100
390.500	35.997	0.100
390.600	51.557	0.100
390.700	45.994	0.100
390.800	36.987	0.100
390.900	44.887	0.100
391.000	45.542	0.100
391.100	43.609	0.100
391.200	39.199	0.100
391.300	38.166	0.100
391.400	45.969	0.100
391.500	42.859	0.100
391.600	32.644	0.100
391.700	37.471	0.100
391.800	31.771	0.100
391.900	36.488	0.100
392.000	38.047	0.100
392.100	24.766	0.100
392.200	34.833	0.100
392.300	37.801	0.100
392.400	32.137	0.100
392.500	43.581	0.100
392.600	29.954	0.100
392.700	28.586	0.100
392.800	35.238	0.100
392.900	28.221	0.100
393.000	35.711	0.100
393.100	23.672	0.100
393.200	24.926	0.100
393.300	29.540	0.100
393.400	47.501	0.100
393.500	49.674	0.100
393.600	30.133	0.100
393.700	30.277	0.100
393.800	23.196	0.100
393.900	42.067	0.100
394.000	25.384	0.100
394.100	27.815	0.100
394.200	34.333	0.100
394.300	46.300	0.100
394.400	21.324	0.100
394.500	19.218	0.100
394.600	27.362	0.100
394.700	10.876	0.100
394.800	36.017	0.100
394.900	27.586	0.100
395.000	30.798	0.100
395.100	20.023	0.100
395.200	20.271	0.100
395.300	28.850	0.100
395.400	35.085	0.100
395.500	34.159	0.100
395.600	26.120	0.100
395.700	25.489	0.100
395.800	28.536	0.100
395.900	27.950	0.100
396.000	26.517	0.100
396.100	15.114	0.100
396.200	31.463	0.100
396.300	29.079	0.100
396.400	33.790	0.100
396.500	21.828	0.100
396.600	28.092	0.100
396.700	18.522	0.100
396.800	21.263	0.100
396.900	23.459	0.100
397.000	24.606	0.100
397.100	25.079	0.100
397.200	21.003	0.100
397.300	38.468	0.100
397.400	19.870	0.100
397.500	18.957	0.100
397.600	36.499	0.100
397.700	37.964	0.100
397.800	17.763	0.100
397.900	14.146	0.100
398.000	12.703	0.100
398.100	23.427	0.100
398.200	21.470	0.100
398.300	29.269	0.100
398.400	23.220	0.100
398.500	34.550	0.100
398.600	31.843	0.100
398.700	23.892	0.100
398.800	31.956	0.100
398.900	26.513	0.100
399.000	22.680	0.100
399.100	17.205	0.100
399.200	33.354	0.100
399.300	16.219	0.100
399.400	15.356	0.100
399.500	14.248	0.100
399.600	35.390	0.100
399.700	20.713	0.100
399.800	28.338	0.100
399.900	21.890	0.100
400.000	20.805	0.100
400.100	27.477	0.100
400.200	30.476	0.100
400.300	24.792	0.100
400.400	22.256	0.100
400.500	25.973	0.100
400.600	29.229	0.100
400.700	22.768	0.100
400.800	23.199	0.100
400.900	25.295	0.100
401.000	19.784	0.100
401.100	27.556	0.100
401.200	21.852	0.100
401.300	20.206	0.100
401.400	34.406	0.100
401.500	20.390	0.100
401.600	20.431	0.100
401.700	30.233	0.100
401.800	25.543	0.100
401.900	20.024	0.100
402.000	7.455	0.100
402.100	18.157	0.100
402.200	22.040	0.100
402.300	16.141	0.100
402.400	29.516	0.100
402.500	28.446	0.100
402.600	18.347	0.100
402.700	20.574	0.100
402.800	24.514	0.100
402.900	23.261	0.100
403.000	14.378	0.100
403.100	13.486	0.100
403.200	27.180	0.100
403.300	20.923	0.100
403.400	14.283	0.100
403.500	23.032	0.100
403.600	27.976	0.100
403.700	14.912	0.100
403.800	18.688	0.100
403.900	13.307	0.100
404.000	26.001	0.100
404.100	28.078	0.100
404.200	16.108	0.100
404.300	16.552	0.100
404.400	20.633	0.100
404.500	8.729	0.100
404.600	15.015	0.100
404.700	26.742	0.100
404.800	16.745	0.100
404.900	13.109	0.100
405.000	14.657	0.100
405.100	16.788	0.100
405.200	24.483	0.100
405.300	14.423	0.100
405.400	9.559	0.100
405.500	23.638	0.100
405.600	21.447	0.100
405.700	13.330	0.100
405.800	27.506	0.100
405.900	10.803	0.100
406.000	19.550	0.100
406.100	12.637	0.100
406.200	15.845	0.100
406.300	16.945	0.100
406.400	9.908	0.100
406.500	18.016	0.100
406.600	14.669	0.100
406.700	18.750	0.100
406.800	23.571	0.100
406.900	7.615	0.100
407.000	12.932	0.100
407.100	13.548	0.100
407.200	23.237	0.100
407.300	21.256	0.100
407.400	19.087	0.100
407.500	15.285	0.100
407.600	22.490	0.100
407.700	24.525	0.100
407.800	17.324	0.100
407.900	8.158	0.100
408.000	11.133	0.100
408.100	13.957	0.100
408.200	10.354	0.100
408.300	17.679	0.100
408.400	17.863	0.100
408.500	11.804	0.100
408.600	19.285	0.100
408.700	19.275	0.100
408.800	15.177	0.100
408.900	13.388	0.100
409.000	20.148	0.100
409.100	8.957	0.100
409.200	19.900	0.100
409.300	22.863	0.100
409.400	2.221	0.100
409.500	12.002	0.100
409.600	1.769	0.100
409.700	20.466	0.100
409.800	23.488	0.100
409.900	3.691	0.100
410.000	11.516	0.100
410.100	13.352	0.100
410.200	4.000	0.100
410.300	11.502	0.100
410.400	8.429	0.100
410.500	10.230	0.100
410.600	-5.301	0.100
410.700	12.412	0.100
410.800	17.132	0.100
410.900	15.516	0.100
411.000	11.794	0.100
411.100	30.072	0.100
411.200	14.618	0.100
411.300	7.555	0.100
411.400	15.112	0.100
411.500	12.892	0.100
411.600	24.060	0.100
411.700	9.674	0.100
411.800	14.642	0.100
411.900	6.481	0.100
412.000	9.926	0.100
412.100	9.585	0.100
412.200	9.043	0.100
412.300	2.969	0.100
412.400	20.890	0.100
412.500	11.410	0.100
412.600	11.730	0.100
412.700	7.140	0.100
412.800	10.845	0.100
412.900	14.568	0.100
413.000	19.414	0.100
413.100	21.645	0.100
413.200	17.146	0.100
413.300	9.029	0.100
413.400	0.175	0.100
413.500	18.213	0.100
413.600	9.950	0.100
413.700	0.219	0.100
413.800	6.826	0.100
413.900	8.383	0.100
414.000	21.411	0.100
414.100	9.029	0.100
414.200	3.904	0.100
414.300	2.809	0.100
414.400	10.870	0.100
414.500	6.938	0.100
414.600	10.383	0.100
414.700	3.152	0.100
414.800	10.065	0.100
414.900	10.965	0.100
415.000	10.016	0.100
415.100	5.720	0.100
415.200	9.428	0.100
415.300	5.838	0.100
415.400	-2.418	0.100
415.500	7.920	0.100
415.600	4.641	0.100
415.700	12.181	0.100
415.800	4.192	0.100
415.900	10.404	0.100
416.000	16.055	0.100
416.100	12.331	0.100
416.200	21.129	0.100
416.300	23.990	0.100
416.400	17.187	0.100
416.500	16.229	0.100
416.600	8.257	0.100
416.700	18.402	0.100
416.800	4.532	0.100
416.900	10.337	0.100
417.000	-1.917	0.100
417.100	17.407	0.100
417.200	6.394	0.100
417.300	7.185	0.100
417.400	1.113	0.100
417.500	12.152	0.100
417.600	2.564	0.100
417.700	8.076	0.100
417.800	4.444	0.100
417.900	5.996	0.100
418.000	6.720	0.100
418.100	2.950	0.100
418.200	12.720	0.100
418.300	1.402	0.100
418.400	18.609	0.100
418.500	3.915	0.100
418.600	-10.111	0.100
418.700	15.024	0.100
418.800	16.932	0.100
418.900	7.636	0.100
419.000	0.764	0.100
419.100	2.011	0.100
419.200	8.096	0.100
419.300	15.017	0.100
419.400	3.983	0.100
419.500	0.561	0.100
419.600	1.860	0.100
419.700	-6.748	0.100
419.800	2.309	0.100
419.900	14.782	0.100
420.000	-4.735	0.100
420.100	7.851	0.100
420.200	20.494	0.100
420.300	9.436	0.100
420.400	-0.212	0.100
420.500	-1.156	0.100
420.600	6.597	0.100
420.700	-1.417	0.100
420.800	-2.250	0.100
420.900	11.611	0.100
421.000	-1.912	0.100
421.100	-3.592	0.100
421.200	5.696	0.100
421.300	5.131	0.100
421.400	3.016	0.100
421.500	5.871	0.100
421.600	8.736	0.100
421.700	1.057	0.100
421.800	0.205	0.100
421.900	1.667	0.100
422.000	-4.942	0.100
422.100	8.762	0.100
422.200	3.097	0.100
422.300	-7.185	0.100
422.400	8.853	0.100
422.500	-0.099	0.100
422.600	4.458	0.100
422.700	8.047	0.100
422.800	-0.920	0.100
422.900	3.192	0.100
423.000	-4.754	0.100
423.100	7.882	0.100
423.200	9.083	0.100
423.300	0.727	0.100
423.400	0.241	0.100
423.500	18.527	0.100
423.600	-7.370	0.100
423.700	6.622	0.100
423.800	14.108	0.100
423.900	-1.537	0.100
424.000	8.188	0.100
424.100	-0.045	0.100
424.200	5.947	0.100
424.300	3.899	0.100
424.400	2.385	0.100
424.500	5.223	0.100
424.600	10.559	0.100
424.700	-5.440	0.100
424.800	3.943	0.100
424.900	-4.358	0.100
425.000	-8.852	0.100
425.100	-10.010	0.100
425.200	15.340	0.100
425.300	0.999	0.100
425.400	7.199	0.100
425.500	7.426	0.100
425.600	-6.353	0.100
425.700	0.796	0.100
425.800	-4.584	0.100
425.900	-1.460	0.100
426.000	-4.706	0.100
426.100	-5.866	0.100
426.200	-3.724	0.100
426.300	-2.185	0.100
426.400	-5.300	0.100
426.500	1.013	0.100
426.600	-3.398	0.100
426.700	4.744	0.100
426.800	-2.650	0.100
426.900	-0.154	0.100
427.000	0.197	0.100
427.100	6.015	0.100
427.200	-4.798	0.100
427.300	3.368	0.100
427.400	0.236	0.100
427.500	6.538	0.100
427.600	-3.710	0.100
427.700	-2.397	0.100
427.800	8.913	0.100
427.900	-8.304	0.100
428.000	-4.954	0.100
428.100	-13.586	0.100
428.200	-8.939	0.100
428.300	6.459	0.100
428.400	-5.257	0.100
428.500	10.865	0.100
428.600	-0.901	0.100
428.700	-9.142	0.100
428.800	3.448	0.100
428.900	-4.292	0.100
429.000	5.558	0.100
429.100	-4.814	0.100
429.200	-8.342	0.100
429.300	4.417	0.100
429.400	1.868	0.100
429.500	-2.165	0.100
429.600	-13.427	0.100
429.700	1.293	0.100
429.800	15.005	0.100
429.900	3.307	0.100
430.000	-6.793	0.100
430.100	-4.329	0.100
430.200	7.088	0.100
430.300	-5.817	0.100
430.400	-13.771	0.100
430.500	-3.896	0.100
430.600	3.965	0.100
430.700	-1.889	0.100
430.800	2.048	0.100
430.900	2.251	0.100
431.000	1.419	0.100
431.100	-12.754	0.100
431.200	-5.054	0.100
431.300	-6.148	0.100
431.400	-5.792	0.100
431.500	-0.750	0.100
431.600	-1.062	0.100
431.700	-12.733	0.100
431.800	-1.840	0.100
431.900	2.588	0.100
432.000	-1.623	0.100
432.100	-14.104	0.100
432.200	-6.570	0.100
432.300	-1.086	0.100
432.400	2.543	0.100
432.500	3.291	0.100
432.600	-13.148	0.100
432.700	-11.381	0.100
432.800	-1.150	0.100
432.900	6.701	0.100
433.000	4.364	0.100
433.100	-7.576	0.100
433.200	-22.310	0.100
433.300	-6.084	0.100
433.400	-3.266	0.100
433.500	-1.568	0.100
433.600	-1.882	0.100
433.700	-1.778	0.100
433.800	0.479	0.100
433.900	-4.076	0.100
434.000	-4.941	0.100
434.100	-10.439	0.100
434.200	-6.706	0.100
434.300	-10.806	0.100
434.400	-2.117	0.100
434.500	-2.608	0.100
434.600	-5.997	0.100
434.700	-8.975	0.100
434.800	-13.228	0.100
434.900	-6.187	0.100
435.000	-5.865	0.100
435.100	-2.660	0.100
435.200	8.783	0.100
435.300	-7.879	0.100
435.400	-9.231	0.100
435.500	-12.007	0.100
435.600	4.506	0.100
435.700	-5.135	0.100
435.800	5.390	0.100
435.900	1.278	0.100
436.000	-6.579	0.100
436.100	-21.855	0.100
436.200	-3.622	0.100
436.300	-14.215	0.100
436.400	1.086	0.100
436.500	-16.258	0.100
436.600	3.336	0.100
436.700	-9.096	0.100
436.800	-7.242	0.100
436.900	-13.162	0.100
437.000	1.109	0.100
437.100	-6.638	0.100
437.200	-12.379	0.100
437.300	-7.217	0.100
437.400	-0.247	0.100
437.500	-6.408	0.100
437.600	-13.781	0.100
437.700	-12.342	0.100
437.800	-10.710	0.100
437.900	1.998	0.100
438.000	7.156	0.100
438.100	-11.529	0.100
438.200	-12.419	0.100
438.300	-2.233	0.100
438.400	-14.068	0.100
438.500	-17.188	0.100
438.600	-15.850	0.100
438.700	-5.809	0.100
438.800	-5.222	0.100
438.900	-7.033	0.100
439.000	-16.909	0.100
439.100	-11.941	0.100
439.200	-10.209	0.100
439.300	7.002	0.100
439.400	-5.779	0.100
439.500	-5.897	0.100
439.600	-12.445	0.100
439.700	-2.644	0.100
439.800	-7.264	0.100
439.900	-18.641	0.100
440.000	-0.340	0.100
440.100	-20.736	0.100
440.200	-18.855	0.100
440.300	-1.687	0.100
440.400	-16.644	0.100
440.500	-1.132	0.100
440.600	-13.027	0.100
440.700	-6.039	0.100
440.800	-3.796	0.100
440.900	-17.019	0.100
441.000	-14.793	0.100
441.100	-5.368	0.100
441.200	-17.386	0.100
441.300	-7.631	0.100
441.400	-11.480	0.100
441.500	-9.982	0.100
441.600	-8.117	0.100
441.700	-2.251	0.100
441.800	-13.225	0.100
441.900	-9.627	0.100
442.000	-13.832	0.100
442.100	6.721	0.100
442.200	-7.225	0.100
442.300	-4.221	0.100
442.400	3.908	0.100
442.500	-17.215	0.100
442.600	-17.075	0.100
442.700	-12.209	0.100
442.800	-14.901	0.100
442.900	-6.266	0.100
443.000	-10.992	0.100
443.100	-11.858	0.100
443.200	-9.410	0.100
443.300	-2.570	0.100
443.400	-10.987	0.100
443.500	0.605	0.100
443.600	-6.268	0.100
443.700	-9.862	0.100
443.800	0.225	0.100
443.900	-4.377	0.100
444.000	-12.328	0.100
444.100	-4.434	0.100
444.200	-12.915	0.100
444.300	-16.538	0.100
444.400	-15.926	0.100
444.500	-8.857	0.100
444.600	-0.869	0.100
444.700	-6.085	0.100
444.800	-17.081	0.100
444.900	-11.763	0.100
445.000	-5.091	0.100
445.100	1.518	0.100
445.200	-19.065	0.100
445.300	-12.453	0.100
445.400	-18.772	0.100
445.500	-11.888	0.100
445.600	0.716	0.100
445.700	-18.935	0.100
445.800	-6.853	0.100
445.900	-11.768	0.100
446.000	-3.528	0.100
446.100	-4.132	0.100
446.200	-12.831	0.100
446.300	-23.680	0.100
446.400	-18.906	0.100
446.500	-18.269	0.100
446.600	-0.315	0.100
446.700	-7.724	0.100
446.800	-0.565	0.100
446.900	-2.706	0.100
447.000	-8.385	0.100
447.100	0.455	0.100
447.200	-22.497	0.100
447.300	-9.458	0.100
447.400	-9.241	0.100
447.500	-15.771	0.100
447.600	-18.265	0.100
447.700	5.485	0.100
447.800	-2.588	0.100
447.900	-9.248	0.100
448.000	-10.740	0.100
448.100	-13.097	0.100
448.200	-10.459	0.100
448.300	-4.074	0.100
448.400	-14.802	0.100
448.500	-14.383	0.100
448.600	-17.039	0.100
448.700	-4.344	0.100
448.800	-12.997	0.100
448.900	-7.038	0.100
449.000	-8.712	0.100
449.100	-23.162	0.100
449.200	-11.738	0.100
449.300	-7.168	0.100
449.400	-6.306	0.100
449.500	-13.021	0.100
449.600	-12.733	0.100
449.700	-10.763	0.100
449.800	-17.925	0.100
449.900	-24.240	0.100
450.000	-6.378	0.100
450.100	-12.463	0.100
450.200	-9.591	0.100
450.300	-5.392	0.100
450.400	-7.948	0.100
450.500	-15.903	0.100
450.600	-23.761	0.100
450.700	-17.036	0.100
450.800	-2.091	0.100
450.900	-4.529	0.100
451.000	-13.268	0.100
451.100	-19.445	0.100
451.200	-1.978	0.100
451.300	-22.137	0.100
451.400	-17.328	0.100
451.500	-7.857	0.100
451.600	-2.702	0.100
451.700	-18.106	0.100
451.800	-14.509	0.100
451.900	-6.262	0.100
452.000	-14.050	0.100
452.100	-16.818	0.100
452.200	-18.866	0.100
452.300	-15.134	0.100
452.400	-16.258	0.100
452.500	-15.088	0.100
452.600	-5.358	0.100
452.700	-10.725	0.100
452.800	-8.851	0.100
452.900	-6.811	0.100
453.000	-9.232	0.100
453.100	-11.679	0.100
453.200	-17.031	0.100
453.300	0.543	0.100
453.400	-3.241	0.100
453.500	-11.679	0.100
453.600	-24.921	0.100
453.700	-7.636	0.100
453.800	-12.166	0.100
453.900	-24.503	0.100
454.000	-7.716	0.100
454.100	-11.653	0.100
454.200	-19.458	0.100
454.300	-18.830	0.100
454.400	-12.804	0.100
454.500	-9.435	0.100
454.600	-15.365	0.100
454.700	-13.422	0.100
454.800	-8.759	0.100
454.900	-10.460	0.100
455.000	4.086	0.100
455.100	-16.076	0.100
455.200	-20.631	0.100
455.300	-18.840	0.100
455.400	-9.412	0.100
455.500	-14.681	0.100
455.600	-19.090	0.100
455.700	-16.326	0.100
455.800	-5.586	0.100
455.900	-11.042	0.100
456.000	-16.688	0.100
456.100	-11.764	0.100
456.200	-15.270	0.100
456.300	-22.710	0.100
456.400	-14.401	0.100
456.500	-7.001	0.100
456.600	-27.264	0.100
456.700	-8.076	0.100
456.800	-14.748	0.100
456.900	-24.484	0.100
457.000	-10.152	0.100
457.100	-12.961	0.100
457.200	-19.765	0.100
457.300	-23.320	0.100
457.400	-16.225	0.100
457.500	6.067	0.100
457.600	-8.948	0.100
457.700	-8.511	0.100
457.800	-15.890	0.100
457.900	-7.959	0.100
458.000	-15.613	0.100
458.100	-0.013	0.100
458.200	-18.134	0.100
458.300	-25.379	0.100
458.400	-14.243	0.100
458.500	-18.560	0.100
458.600	-15.681	0.100
458.700	-17.168	0.100
458.800	-13.277	0.100
458.900	-5.825	0.100
459.000	-9.912	0.100
459.100	-13.180	0.100
459.200	-10.440	0.100
459.300	-15.751	0.100
459.400	-18.831	0.100
459.500	-17.232	0.100
459.600	-13.102	0.100
459.700	-12.328	0.100
459.800	-14.335	0.100
459.900	-14.946	0.100
460.000	-12.944	0.100
460.100	-14.786	0.100
460.200	-6.471	0.100
460.300	-14.838	0.100
460.400	-15.482	0.100
460.500	-13.139	0.100
460.600	-13.998	0.100
460.700	-30.531	0.100
460.800	-21.036	0.100
460.900	-6.878	0.100
461.000	-2.780	0.100
461.100	-3.700	0.100
461.200	-22.594	0.100
461.300	-17.617	0.100
461.400	-14.045	0.100
461.500	-12.288	0.100
461.600	-20.376	0.100
461.700	-8.386	0.100
461.800	-9.320	0.100
461.900	-21.423	0.100
462.000	-28.508	0.100
462.100	0.736	0.100
462.200	-7.212	0.100
462.300	-7.645	0.100
462.400	-19.092	0.100
462.500	-24.243	0.100
462.600	-16.849	0.100
462.700	-11.990	0.100
462.800	-21.276	0.100
462.900	-18.296	0.100
463.000	-15.765	0.100
463.100	-10.452	0.100
463.200	-17.779	0.100
463.300	-13.870	0.100
463.400	-10.823	0.100
463.500	-6.923	0.100
463.600	-24.707	0.100
463.700	-22.202	0.100
463.800	-17.774	0.100
463.900	-5.051	0.100
464.000	-23.603	0.100
464.100	-18.735	0.100
464.200	-19.551	0.100
464.300	-16.769	0.100
464.400	-16.487	0.100
464.500	-11.882	0.100
464.600	-12.855	0.100
464.700	-13.469	0.100
464.800	-6.647	0.100
464.900	-10.342	0.100
465.000	-12.152	0.100
465.100	-19.007	0.100
465.200	-7.956	0.100
465.300	-20.488	0.100
465.400	-10.150	0.100
465.500	-13.320	0.100
465.600	-8.150	0.100
465.700	-11.631	0.100
465.800	-20.845	0.100
465.900	-9.453	0.100
466.000	-10.736	0.100
466.100	-17.842	0.100
466.200	-11.246	0.100
466.300	-11.249	0.100
466.400	-11.247	0.100
466.500	-18.022	0.100
466.600	-21.347	0.100
466.700	-19.112	0.100
466.800	-8.282	0.100
466.900	-3.447	0.100
467.000	-24.806	0.100
467.100	-19.451	0.100
467.200	-16.060	0.100
467.300	-11.713	0.100
467.400	-14.217	0.100
467.500	-5.252	0.100
467.600	-16.558	0.100
467.700	-11.368	0.100
467.800	-29.647	0.100
467.900	-27.476	0.100
468.000	-15.190	0.100
468.100	-23.362	0.100
468.200	-20.294	0.100
468.300	0.298	0.100
468.400	-5.808	0.100
468.500	-14.760	0.100
468.600	-14.399	0.100
468.700	-30.481	0.100
468.800	-31.483	0.100
468.900	-21.167	0.100
469.000	-6.103	0.100
469.100	-16.070	0.100
469.200	-15.767	0.100
469.300	-8.562	0.100
469.400	-14.586	0.100
469.500	-23.921	0.100
469.600	-28.989	0.100
469.700	-11.938	0.100
469.800	-19.285	0.100
469.900	-7.632	0.100
470.000	-8.652	0.100
470.100	-12.104	0.100
470.200	-13.281	0.100
470.300	-26.183	0.100
470.400	-10.163	0.100
470.500	-23.588	0.100
470.600	-20.170	0.100
470.700	-8.728	0.100
470.800	-20.202	0.100
470.900	-19.540	0.100
471.000	-22.544	0.100
471.100	-9.134	0.100
471.200	-12.824	0.100
471.300	-20.146	0.100
471.400	-16.041	0.100
471.500	-7.765	0.100
471.600	-12.347	0.100
471.700	-21.330	0.100
471.800	-14.795	0.100
471.900	-15.425	0.100
472.000	-16.736	0.100
472.100	-8.610	0.100
472.200	-20.432	0.100
472.300	-18.693	0.100
472.400	-15.684	0.100
472.500	-20.966	0.100
472.600	-7.484	0.100
472.700	-10.894	0.100
472.800	-11.530	0.100
472.900	-20.312	0.100
473.000	-34.392	0.100
473.100	-13.545	0.100
473.200	-9.860	0.100
473.300	-16.278	0.100
473.400	-18.063	0.100
473.500	-18.809	0.100
473.600	-14.449	0.100
473.700	-16.317	0.100
473.800	-21.054	0.100
473.900	-18.202	0.100
474.000	-13.835	0.100
474.100	-20.908	0.100
474.200	-4.462	0.100
474.300	-14.570	0.100
474.400	-24.941	0.100
474.500	-23.666	0.100
474.600	-4.275	0.100
474.700	-13.733	0.100
474.800	-14.495	0.100
474.900	-11.269	0.100
475.000	-20.859	0.100
475.100	-20.938	0.100
475.200	-18.379	0.100
475.300	-13.301	0.100
475.400	-23.233	0.100
475.500	-12.014	0.100
475.600	-37.017	0.100
475.700	-18.834	0.100
475.800	-6.946	0.100
475.900	-19.047	0.100
476.000	-10.735	0.100
476.100	-11.905	0.100
476.200	-15.609	0.100
476.300	-8.803	0.100
476.400	-15.396	0.100
476.500	-16.954	0.100
476.600	-19.149	0.100
476.700	-12.887	0.100
476.800	-19.234	0.100
476.900	-17.189	0.100
477.000	-14.597	0.100
477.100	-13.886	0.100
477.200	-20.640	0.100
477.300	-18.347	0.100
477.400	-24.694	0.100
477.500	-18.779	0.100
477.600	-16.165	0.100
477.700	-10.328	0.100
477.800	-11.783	0.100
477.900	-22.770	0.100
478.000	-13.367	0.100
478.100	-8.724	0.100
478.200	-25.598	0.100
478.300	-20.233	0.100
478.400	-18.715	0.100
478.500	-12.620	0.100
478.600	-20.392	0.100
478.700	-10.293	0.100
478.800	-10.373	0.100
478.900	-18.669	0.100
479.000	-22.336	0.100
479.100	-10.980	0.100
479.200	-10.082	0.100
479.300	-21.676	0.100
479.400	-13.711	0.100
479.500	-29.287	0.100
479.600	-18.314	0.100
479.700	-30.144	0.100
479.800	-13.419	0.100
479.900	-25.526	0.100
480.000	-16.938	0.100
480.100	-27.387	0.100
480.200	-11.519	0.100
480.300	-10.875	0.100
480.400	-11.306	0.100
480.500	-15.871	0.100
480.600	-16.719	0.100
480.700	-15.326	0.100
480.800	-12.889	0.100
480.900	-6.668	0.100
481.000	-7.825	0.100
481.100	-9.678	0.100
481.200	-14.309	0.100
481.300	-11.265	0.100
481.400	-13.131	0.100
481.500	-4.602	0.100
481.600	-0.766	0.100
481.700	-10.161	0.100
481.800	-4.891	0.100
481.900	-9.175	0.100
482.000	-3.431	0.100
482.100	-1.179	0.100
482.200	-8.111	0.100
482.300	-12.266	0.100
482.400	2.966	0.100
482.500	-2.809	0.100
482.600	-2.543	0.100
482.700	-12.017	0.100
482.800	-0.094	0.100
482.900	0.158	0.100
483.000	1.795	0.100
483.100	-11.331	0.100
483.200	5.086	0.100
483.300	-8.400	0.100
483.400	-21.814	0.100
483.500	2.020	0.100
483.600	1.258	0.100
483.700	7.206	0.100
483.800	0.829	0.100
483.900	-12.199	0.100
484.000	4.161	0.100
484.100	-1.944	0.100
484.200	1.039	0.100
484.300	7.723	0.100
484.400	5.014	0.100
484.500	0.324	0.100
484.600	-9.996	0.100
484.700	0.281	0.100
484.800	2.039	0.100
484.900	0.692	0.100
485.000	9.345	0.100
485.100	4.302	0.100
485.200	5.236	0.100
485.300	1.932	0.100
485.400	-7.287	0.100
485.500	-4.284	0.100
485.600	18.810	0.100
485.700	9.196	0.100
485.800	-6.624	0.100
485.900	5.641	0.100
486.000	6.847	0.100
486.100	-0.521	0.100
486.200	-0.953	0.100
486.300	-6.819	0.100
486.400	5.706	0.100
486.500	0.806	0.100
486.600	2.007	0.100
486.700	5.139	0.100
486.800	5.986	0.100
486.900	-4.708	0.100
487.000	12.407	0.100
487.100	8.599	0.100
487.200	3.730	0.100
487.300	-0.258	0.100
487.400	-8.490	0.100
487.500	4.185	0.100
487.600	8.969	0.100
487.700	3.368	0.100
487.800	-11.059	0.100
487.900	6.903	0.100
488.000	5.073	0.100
488.100	8.927	0.100
488.200	-1.113	0.100
488.300	-2.314	0.100
488.400	7.940	0.100
488.500	3.991	0.100
488.600	5.555	0.100
488.700	9.450	0.100
488.800	-1.586	0.100
488.900	0.356	0.100
489.000	11.420	0.100
489.100	8.018	0.100
489.200	11.797	0.100
489.300	9.996	0.100
489.400	2.748	0.100
489.500	3.721	0.100
489.600	-4.744	0.100
489.700	-1.350	0.100
489.800	7.882	0.100
489.900	12.594	0.100
490.000	2.144	0.100
490.100	12.841	0.100
490.200	14.157	0.100
490.300	-4.854	0.100
490.400	-4.163	0.100
490.500	2.458	0.100
490.600	15.177	0.100
490.700	0.842	0.100
490.800	4.600	0.100
490.900	7.311	0.100
491.000	23.688	0.100
491.100	18.479	0.100
491.200	12.109	0.100
491.300	9.306	0.100
491.400	4.208	0.100
491.500	4.423	0.100
491.600	11.137	0.100
491.700	5.754	0.100
491.800	8.439	0.100
491.900	-0.008	0.100
492.000	10.186	0.100
492.100	5.358	0.100
492.200	2.893	0.100
492.300	9.248	0.100
492.400	10.331	0.100
492.500	8.232	0.100
492.600	22.874	0.100
492.700	10.446	0.100
492.800	5.518	0.100
492.900	12.012	0.100
493.000	3.236	0.100
493.100	5.023	0.100
493.200	16.392	0.100
493.300	15.976	0.100
493.400	6.249	0.100
493.500	4.924	0.100
493.600	0.608	0.100
493.700	5.798	0.100
493.800	20.257	0.100
493.900	10.934	0.100
494.000	13.625	0.100
494.100	21.175	0.100
494.200	18.668	0.100
494.300	0.693	0.100
494.400	17.061	0.100
494.500	7.209	0.100
494.600	9.249	0.100
494.700	5.988	0.100
494.800	6.114	0.100
494.900	15.727	0.100
495.000	10.835	0.100
495.100	8.594	0.100
495.200	12.275	0.100
495.300	11.055	0.100
495.400	4.000	0.100
495.500	18.351	0.100
495.600	12.502	0.100
495.700	3.503	0.100
495.800	15.273	0.100
495.900	14.935	0.100
496.000	12.377	0.100
496.100	11.078	0.100
496.200	17.279	0.100
496.300	19.304	0.100
496.400	4.195	0.100
496.500	8.415	0.100
496.600	12.103	0.100
496.700	-11.458	0.100
496.800	13.800	0.100
496.900	20.706	0.100
497.000	8.225	0.100
497.100	23.232	0.100
497.200	18.493	0.100
497.300	14.258	0.100
497.400	11.710	0.100
497.500	14.423	0.100
497.600	14.861	0.100
497.700	-7.608	0.100
497.800	6.983	0.100
497.900	6.684	0.100
498.000	13.045	0.100
498.100	12.827	0.100
498.200	-0.915	0.100
498.300	8.275	0.100
498.400	13.232	0.100
498.500	18.310	0.100
498.600	26.022	0.100
498.700	18.912	0.100
498.800	16.684	0.100
498.900	17.776	0.100
499.000	5.469	0.100
499.100	23.282	0.100
499.200	11.586	0.100
499.300	13.630	0.100
499.400	7.910	0.100
499.500	15.115	0.100
499.600	10.640	0.100
499.700	8.715	0.100
499.800	7.879	0.100
499.900	10.813	0.100
500.000	14.770	0.100
500.100	15.572	0.100
500.200	3.763	0.100
500.300	23.322	0.100
500.400	20.735	0.100
500.500	19.633	0.100
500.600	9.204	0.100
500.700	7.158	0.100
500.800	18.250	0.100
500.900	24.842	0.100
501.000	20.430	0.100
501.100	18.971	0.100
501.200	9.541	0.100
501.300	5.151	0.100
501.400	12.048	0.100
501.500	14.197	0.100
501.600	13.999	0.100
501.700	20.779	0.100
501.800	13.609	0.100
501.900	16.259	0.100
502.000	15.928	0.100
502.100	23.773	0.100
502.200	22.592	0.100
502.300	22.685	0.100
502.400	14.426	0.100
502.500	12.587	0.100
502.600	9.176	0.100
502.700	21.849	0.100
502.800	26.230	0.100
502.900	27.156	0.100
503.000	10.218	0.100
503.100	8.205	0.100
503.200	13.121	0.100
503.300	18.154	0.100
503.400	6.037	0.100
503.500	14.399	0.100
503.600	17.786	0.100
503.700	18.886	0.100
503.800	13.650	0.100
503.900	17.122	0.100
504.000	18.870	0.100
504.100	12.357	0.100
504.200	23.490	0.100
504.300	32.700	0.100
504.400	19.082	0.100
504.500	17.830	0.100
504.600	22.376	0.100
504.700	13.366	0.100
504.800	29.910	0.100
504.900	15.943	0.100
505.000	20.615	0.100
505.100	19.131	0.100
505.200	10.040	0.100
505.300	20.449	0.100
505.400	25.066	0.100
505.500	18.159	0.100
505.600	14.914	0.100
505.700	10.927	0.100
505.800	16.982	0.100
505.900	23.937	0.100
506.000	21.368	0.100
506.100	7.932	0.100
506.200	12.214	0.100
506.300	16.513	0.100
506.400	15.885	0.100
506.500	15.452	0.100
506.600	18.207	0.100
506.700	28.355	0.100
506.800	29.629	0.100
506.900	23.935	0.100
507.000	11.644	0.100
507.100	24.458	0.100
507.200	16.458	0.100
507.300	24.383	0.100
507.400	20.672	0.100
507.500	7.411	0.100
507.600	11.187	0.100
507.700	24.300	0.100
507.800	17.592	0.100
507.900	19.465	0.100
508.000	17.957	0.100
508.100	22.286	0.100
508.200	25.765	0.100
508.300	8.561	0.100
508.400	24.042	0.100
508.500	22.679	0.100
508.600	9.760	0.100
508.700	30.203	0.100
508.800	11.778	0.100
508.900	25.189	0.100
509.000	29.631	0.100
509.100	27.581	0.100
509.200	14.136	0.100
509.300	28.904	0.100
509.400	30.190	0.100
509.500	20.614	0.100
509.600	30.726	0.100
509.700	24.023	0.100
509.800	21.225	0.100
509.900	30.446	0.100
510.000	27.445	0.100
510.100	30.172	0.100
510.200	14.715	0.100
510.300	32.168	0.100
510.400	15.318	0.100
510.500	30.085	0.100
510.600	27.557	0.100
510.700	29.600	0.100
510.800	26.953	0.100
510.900	26.657	0.100
511.000	18.589	0.100
511.100	28.188	0.100
511.200	21.217	0.100
511.300	32.744	0.100
511.400	29.646	0.100
511.500	33.387	0.100
511.600	29.860	0.100
511.700	24.085	0.100
511.800	20.851	0.100
511.900	20.404	0.100
512.000	28.527	0.100
512.100	35.075	0.100
512.200	27.976	0.100
512.300	21.104	0.100
512.400	16.759	0.100
512.500	23.409	0.100
512.600	18.961	0.100
512.700	21.440	0.100
512.800	28.795	0.100
512.900	27.862	0.100
513.000	30.352	0.100
513.100	31.808	0.100
513.200	15.762	0.100
513.300	25.229	0.100
513.400	37.569	0.100
513.500	23.165	0.100
513.600	33.235	0.100
513.700	38.737	0.100
513.800	28.826	0.100
513.900	30.209	0.100
514.000	33.457	0.100
514.100	24.835	0.100
514.200	36.415	0.100
514.300	13.629	0.100
514.400	7.426	0.100
514.500	27.322	0.100
514.600	35.269	0.100
514.700	28.670	0.100
514.800	30.745	0.100
514.900	25.461	0.100
515.000	30.361	0.100
515.100	30.839	0.100
515.200	21.750	0.100
515.300	15.016	0.100
515.400	34.195	0.100
515.500	44.834	0.100
515.600	36.141	0.100
515.700	23.406	0.100
515.800	29.405	0.100
515.900	30.954	0.100
516.000	27.535	0.100
516.100	40.618	0.100
516.200	22.427	0.100
516.300	18.653	0.100
516.400	20.175	0.100
516.500	25.232	0.100
516.600	40.986	0.100
516.700	27.918	0.100
516.800	27.396	0.100
516.900	31.643	0.100
517.000	20.343	0.100
517.100	30.001	0.100
517.200	34.776	0.100
517.300	42.043	0.100
517.400	22.953	0.100
517.500	39.542	0.100
517.600	19.749	0.100
517.700	34.130	0.100
517.800	34.281	0.100
517.900	28.495	0.100
518.000	29.013	0.100
518.100	23.133	0.100
518.200	35.800	0.100
518.300	38.347	0.100
518.400	39.000	0.100
518.500	41.484	0.100
518.600	32.892	0.100
518.700	28.855	0.100
518.800	31.143	0.100
518.900	28.240	0.100
519.000	36.865	0.100
519.100	34.711	0.100
519.200	31.496	0.100
519.300	31.726	0.100
519.400	36.365	0.100
519.500	27.631	0.100
519.600	35.027	0.100
519.700	23.456	0.100
519.800	40.963	0.100
519.900	41.254	0.100
520.000	34.837	0.100
520.100	35.836	0.100
520.200	33.951	0.100
520.300	24.648	0.100
520.400	31.821	0.100
520.500	38.177	0.100
520.600	29.265	0.100
520.700	34.916	0.100
520.800	41.362	0.100
520.900	32.401	0.100
521.000	39.753	0.100
521.100	33.177	0.100
521.200	39.616	0.100
521.300	29.512	0.100
521.400	25.426	0.100
521.500	41.738	0.100
521.600	44.430	0.100
521.700	36.473	0.100
521.800	35.635	0.100
521.900	35.301	0.100
522.000	35.311	0.100
522.100	27.847	0.100
522.200	29.630	0.100
522.300	34.146	0.100
522.400	34.792	0.100
522.500	43.105	0.100
522.600	20.304	0.100
522.700	31.520	0.100
522.800	42.649	0.100
522.900	41.729	0.100
523.000	30.272	0.100
523.100	36.751	0.100
523.200	36.368	0.100
523.300	36.806	0.100
523.400	36.343	0.100
523.500	47.487	0.100
523.600	38.038	0.100
523.700	31.984	0.100
523.800	31.574	0.100
523.900	31.085	0.100
524.000	31.348	0.100
524.100	34.876	0.100
524.200	34.440	0.100
524.300	33.237	0.100
524.400	41.256	0.100
524.500	30.839	0.100
524.600	34.931	0.100
524.700	33.333	0.100
524.800	46.029	0.100
524.900	33.531	0.100
525.000	31.419	0.100
525.100	43.839	0.100
525.200	30.641	0.100
525.300	44.634	0.100
525.400	47.070	0.100
525.500	38.445	0.100
525.600	35.245	0.100
525.700	45.144	0.100
525.800	37.874	0.100
525.900	29.231	0.100
526.000	34.354	0.100
526.100	28.472	0.100
526.200	43.476	0.100
526.300	45.720	0.100
526.400	33.655	0.100
526.500	37.675	0.100
526.600	35.470	0.100
526.700	37.004	0.100
526.800	48.262	0.100
526.900	36.073	0.100
527.000	28.806	0.100
527.100	41.263	0.100
527.200	41.566	0.100
527.300	34.576	0.100
527.400	22.162	0.100
527.500	32.194	0.100
527.600	55.597	0.100
527.700	35.685	0.100
527.800	50.155	0.100
527.900	37.340	0.100
528.000	39.957	0.100
528.100	37.427	0.100
528.200	41.065	0.100
528.300	39.199	0.100
528.400	41.197	0.100
528.500	51.274	0.100
528.600	46.484	0.100
528.700	35.110	0.100
528.800	40.330	0.100
528.900	27.342	0.100
529.000	39.872	0.100
529.100	35.735	0.100
529.200	45.960	0.100
529.300	34.501	0.100
529.400	36.251	0.100
529.500	38.855	0.100
529.600	42.424	0.100
529.700	35.140	0.100
529.800	37.945	0.100
529.900	42.999	0.100
530.000	37.815	0.100
530.100	44.049	0.100
530.200	32.235	0.100
530.300	21.954	0.100
530.400	49.167	0.100
530.500	50.859	0.100
530.600	50.855	0.100
530.700	41.352	0.100
530.800	42.575	0.100
530.900	32.126	0.100
531.000	43.767	0.100
531.100	43.477	0.100
531.200	48.625	0.100
531.300	47.396	0.100
531.400	42.970	0.100
531.500	45.493	0.100
531.600	44.141	0.100
531.700	37.607	0.100
531.800	39.080	0.100
531.900	35.681	0.100
532.000	39.568	0.100
532.100	31.997	0.100
532.200	37.779	0.100
532.300	44.184	0.100
532.400	47.574	0.100
532.500	43.392	0.100
532.600	47.256	0.100
532.700	49.041	0.100
532.800	35.131	0.100
532.900	32.724	0.100
533.000	30.565	0.100
533.100	45.275	0.100
533.200	54.134	0.100
533.300	54.925	0.100
533.400	30.785	0.100
533.500	34.952	0.100
533.600	32.180	0.100
533.700	62.011	0.100
533.800	36.987	0.100
533.900	44.956	0.100
534.000	39.519	0.100
534.100	51.942	0.100
534.200	35.908	0.100
534.300	47.591	0.100
534.400	43.241	0.100
534.500	39.785	0.100
534.600	31.142	0.100
534.700	29.128	0.100
534.800	45.439	0.100
534.900	29.985	0.100
535.000	38.876	0.100
535.100	47.402	0.100
535.200	36.434	0.100
535.300	48.614	0.100
535.400	49.793	0.100
535.500	46.048	0.100
535.600	37.700	0.100
535.700	50.971	0.100
535.800	41.832	0.100
535.900	36.784	0.100
536.000	39.549	0.100
536.100	40.804	0.100
536.200	42.074	0.100
536.300	47.906	0.100
536.400	52.892	0.100
536.500	36.351	0.100
536.600	43.133	0.100
536.700	43.858	0.100
536.800	46.714	0.100
536.900	44.699	0.100
537.000	38.998	0.100
537.100	46.628	0.100
537.200	51.427	0.100
537.300	31.844	0.100
537.400	57.234	0.100
537.500	41.177	0.100
537.600	51.333	0.100
537.700	47.017	0.100
537.800	44.837	0.100
537.900	41.734	0.100
538.000	35.700	0.100
538.100	40.199	0.100
538.200	47.828	0.100
538.300	41.981	0.100
538.400	49.093	0.100
538.500	39.587	0.100
538.600	50.395	0.100
538.700	37.598	0.100
538.800	38.303	0.100
538.900	49.415	0.100
539.000	64.794	0.100
539.100	59.428	0.100
539.200	46.812	0.100
539.300	41.240	0.100
539.400	42.385	0.100
539.500	46.067	0.100
539.600	40.491	0.100
539.700	46.205	0.100
539.800	54.644	0.100
539.900	52.516	0.100
540.000	47.250	0.100
540.100	40.844	0.100
540.200	40.006	0.100
540.300	48.597	0.100
540.400	45.595	0.100
540.500	42.186	0.100
540.600	40.081	0.100
540.700	33.846	0.100
540.800	43.901	0.100
540.900	37.646	0.100
541.000	42.456	0.100
541.100	33.909	0.100
541.200	36.921	0.100
541.300	41.844	0.100
541.400	34.964	0.100
541.500	23.251	0.100
541.600	25.041	0.100
541.700	29.334	0.100
541.800	28.307	0.100
541.900	30.690	0.100
542.000	28.209	0.100
542.100	42.005	0.100
542.200	47.065	0.100
542.300	28.117	0.100
542.400	36.728	0.100
542.500	26.788	0.100
542.600	34.121	0.100
542.700	32.962	0.100
542.800	27.751	0.100
542.900	43.980	0.100
543.000	25.107	0.100
543.100	32.890	0.100
543.200	43.031	0.100
543.300	25.438	0.100
543.400	26.794	0.100
543.500	18.851	0.100
543.600	30.868	0.100
543.700	17.418	0.100
543.800	34.283	0.100
543.900	34.994	0.100
544.000	30.129	0.100
544.100	37.261	0.100
544.200	22.593	0.100
544.300	22.804	0.100
544.400	23.896	0.100
544.500	27.807	0.100
544.600	31.772	0.100
544.700	32.114	0.100
544.800	24.153	0.100
544.900	25.164	0.100
545.000	24.955	0.100
545.100	21.683	0.100
545.200	30.788	0.100
545.300	24.399	0.100
545.400	15.554	0.100
545.500	20.132	0.100
545.600	29.694	0.100
545.700	27.987	0.100
545.800	33.288	0.100
545.900	22.745	0.100
546.000	34.785	0.100
546.100	30.788	0.100
546.200	32.484	0.100
546.300	9.646	0.100
546.400	27.247	0.100
546.500	33.543	0.100
546.600	14.113	0.100
546.700	35.534	0.100
546.800	33.253	0.100
546.900	25.559	0.100
547.000	25.077	0.100
547.100	24.296	0.100
547.200	22.085	0.100
547.300	15.297	0.100
547.400	27.203	0.100
547.500	20.470	0.100
547.600	2.183	0.100
547.700	17.568	0.100
547.800	17.937	0.100
547.900	12.564	0.100
548.000	39.810	0.100
548.100	37.954	0.100
548.200	30.222	0.100
548.300	26.170	0.100
548.400	30.255	0.100
548.500	29.464	0.100
548.600	16.349	0.100
548.700	14.050	0.100
548.800	21.706	0.100
548.900	27.584	0.100
549.000	14.482	0.100
549.100	17.772	0.100
549.200	31.013	0.100
549.300	28.859	0.100
549.400	29.121	0.100
549.500	25.182	0.100
549.600	31.879	0.100
549.700	23.666	0.100
549.800	24.206	0.100
549.900	19.748	0.100
550.000	18.356	0.100
550.100	20.929	0.100
550.200	23.960	0.100
550.300	14.838	0.100
550.400	15.865	0.100
550.500	12.968	0.100
550.600	22.321	0.100
550.700	37.027	0.100
550.800	24.783	0.100
550.900	19.227	0.100
551.000	28.997	0.100
551.100	20.534	0.100
551.200	27.782	0.100
551.300	15.786	0.100
551.400	23.630	0.100
551.500	29.344	0.100
551.600	17.852	0.100
551.700	25.746	0.100
551.800	7.594	0.100
551.900	18.487	0.100
552.000	22.790	0.100
552.100	18.869	0.100
552.200	16.284	0.100
552.300	15.034	0.100
552.400	25.266	0.100
552.500	19.874	0.100
552.600	27.342	0.100
552.700	10.886	0.100
552.800	12.817	0.100
552.900	22.212	0.100
553.000	25.143	0.100
553.100	12.852	0.100
553.200	10.222	0.100
553.300	19.603	0.100
553.400	8.765	0.100
553.500	12.787	0.100
553.600	22.388	0.100
553.700	12.826	0.100
553.800	18.859	0.100
553.900	7.211	0.100
554.000	25.844	0.100
554.100	14.695	0.100
554.200	26.575	0.100
554.300	26.438	0.100
554.400	24.032	0.100
554.500	19.733	0.100
554.600	23.414	0.100
554.700	13.665	0.100
554.800	12.477	0.100
554.900	19.511	0.100
555.000	23.615	0.100
555.100	21.645	0.100
555.200	15.892	0.100
555.300	8.618	0.100
555.400	15.569	0.100
555.500	24.401	0.100
555.600	9.306	0.100
555.700	12.957	0.100
555.800	9.682	0.100
555.900	4.960	0.100
556.000	11.352	0.100
556.100	21.461	0.100
556.200	32.293	0.100
556.300	15.608	0.100
556.400	16.047	0.100
556.500	6.704	0.100
556.600	20.013	0.100
556.700	23.524	0.100
556.800	17.746	0.100
556.900	22.796	0.100
557.000	10.061	0.100
557.100	13.712	0.100
557.200	29.887	0.100
557.300	23.182	0.100
557.400	11.102	0.100
557.500	20.334	0.100
557.600	5.886	0.100
557.700	8.171	0.100
557.800	20.876	0.100
557.900	2.599	0.100
558.000	-2.501	0.100
558.100	7.949	0.100
558.200	7.037	0.100
558.300	16.810	0.100
558.400	10.627	0.100
558.500	16.244	0.100
558.600	14.719	0.100
558.700	2.789	0.100
558.800	7.185	0.100
558.900	14.738	0.100
559.000	12.525	0.100
559.100	10.356	0.100
559.200	17.969	0.100
559.300	17.188	0.100
559.400	3.789	0.100
559.500	16.022	0.100
559.600	15.046	0.100
559.700	18.589	0.100
559.800	3.014	0.100
559.900	17.749	0.100
560.000	17.297	0.100
560.100	3.988	0.100
560.200	8.399	0.100
560.300	10.639	0.100
560.400	16.429	0.100
560.500	11.882	0.100
560.600	14.272	0.100
560.700	8.966	0.100
560.800	0.800	0.100
560.900	7.943	0.100
561.000	16.615	0.100
561.100	2.502	0.100
561.200	18.355	0.100
561.300	15.413	0.100
561.400	7.743	0.100
561.500	8.497	0.100
561.600	12.559	0.100
561.700	7.304	0.100
561.800	12.415	0.100
561.900	3.811	0.100
562.000	25.956	0.100
562.100	8.401	0.100
562.200	8.906	0.100
562.300	2.724	0.100
562.400	13.448	0.100
562.500	5.329	0.100
562.600	15.205	0.100
562.700	-1.993	0.100
562.800	-1.771	0.100
562.900	4.723	0.100
563.000	16.793	0.100
563.100	12.152	0.100
563.200	4.474	0.100
563.300	3.671	0.100
563.400	17.247	0.100
563.500	16.958	0.100
563.600	-3.793	0.100
563.700	10.252	0.100
563.800	4.346	0.100
563.900	3.657	0.100
564.000	2.947	0.100
564.100	19.086	0.100
564.200	12.703	0.100
564.300	-1.047	0.100
564.400	-2.029	0.100
564.500	13.972	0.100
564.600	6.251	0.100
564.700	2.843	0.100
564.800	5.403	0.100
564.900	12.823	0.100
565.000	16.014	0.100
565.100	4.739	0.100
565.200	18.459	0.100
565.300	2.831	0.100
565.400	4.021	0.100
565.500	12.316	0.100
565.600	10.153	0.100
565.700	8.646	0.100
565.800	-2.219	0.100
565.900	12.465	0.100
566.000	8.210	0.100
566.100	8.792	0.100
566.200	8.350	0.100
566.300	11.897	0.100
566.400	5.710	0.100
566.500	7.198	0.100
566.600	-1.346	0.100
566.700	14.558	0.100
566.800	2.144	0.100
566.900	10.208	0.100
567.000	4.524	0.100
567.100	2.857	0.100
567.200	-2.775	0.100
567.300	12.535	0.100
567.400	2.256	0.100
567.500	5.793	0.100
567.600	0.686	0.100
567.700	13.059	0.100
567.800	14.967	0.100
567.900	9.105	0.100
568.000	0.124	0.100
568.100	-1.928	0.100
568.200	6.966	0.100
568.300	4.644	0.100
568.400	-0.078	0.100
568.500	1.564	0.100
568.600	7.678	0.100
568.700	4.937	0.100
568.800	8.807	0.100
568.900	3.919	0.100
569.000	3.626	0.100
569.100	1.236	0.100
569.200	-9.547	0.100
569.300	10.392	0.100
569.400	6.152	0.100
569.500	-0.326	0.100
569.600	9.363	0.100
569.700	8.202	0.100
569.800	4.128	0.100
569.900	1.968	0.100
570.000	5.753	0.100
570.100	-1.322	0.100
570.200	1.689	0.100
570.300	-6.712	0.100
570.400	3.128	0.100
570.500	-2.041	0.100
570.600	-5.084	0.100
570.700	2.031	0.100
570.800	14.116	0.100
570.900	13.409	0.100
571.000	3.864	0.100
571.100	7.589	0.100
571.200	-1.376	0.100
571.300	10.541	0.100
571.400	5.118	0.100
571.500	-4.504	0.100
571.600	-0.800	0.100
571.700	-2.690	0.100
571.800	3.867	0.100
571.900	-3.010	0.100
572.000	-4.856	0.100
572.100	0.603	0.100
572.200	1.642	0.100
572.300	-2.926	0.100
572.400	10.576	0.100
572.500	3.661	0.100
572.600	-5.351	0.100
572.700	4.923	0.100
572.800	0.198	0.100
572.900	1.937	0.100
573.000	0.937	0.100
573.100	-5.301	0.100
573.200	-5.522	0.100
573.300	11.810	0.100
573.400	-3.659	0.100
573.500	-2.724	0.100
573.600	3.120	0.100
573.700	1.902	0.100
573.800	1.169	0.100
573.900	0.164	0.100
574.000	10.821	0.100
574.100	-11.495	0.100
574.200	4.506	0.100
574.300	-2.939	0.100
574.400	-1.370	0.100
574.500	-0.983	0.100
574.600	4.476	0.100
574.700	2.653	0.100
574.800	-0.552	0.100
574.900	0.863	0.100
575.000	-5.846	0.100
575.100	7.126	0.100
575.200	3.762	0.100
575.300	0.935	0.100
575.400	-10.265	0.100
575.500	-8.258	0.100
575.600	-6.482	0.100
575.700	9.779	0.100
575.800	-7.137	0.100
575.900	-0.955	0.100
576.000	4.494	0.100
576.100	-7.355	0.100
576.200	-5.462	0.100
576.300	3.711	0.100
576.400	6.027	0.100
576.500	9.178	0.100
576.600	0.982	0.100
576.700	3.623	0.100
576.800	-8.855	0.100
576.900	-0.062	0.100
577.000	-9.303	0.100
577.100	-0.398	0.100
577.200	3.538	0.100
577.300	2.207	0.100
577.400	-1.501	0.100
577.500	-5.117	0.100
577.600	-8.897	0.100
577.700	9.317	0.100
577.800	8.895	0.100
577.900	-6.767	0.100
578.000	3.284	0.100
578.100	1.938	0.100
578.200	-7.476	0.100
578.300	-12.237	0.100
578.400	-13.218	0.100
578.500	-12.315	0.100
578.600	7.067	0.100
578.700	8.334	0.100
578.800	-5.160	0.100
578.900	-6.676	0.100
579.000	0.520	0.100
579.100	7.875	0.100
579.200	3.391	0.100
579.300	-8.369	0.100
579.400	-6.123	0.100
579.500	0.561	0.100
579.600	-12.199	0.100
579.700	-19.467	0.100
579.800	-14.165	0.100
579.900	5.223	0.100
580.000	-13.417	0.100
580.100	1.993	0.100
580.200	4.207	0.100
580.300	5.315	0.100
580.400	-8.834	0.100
580.500	-7.371	0.100
580.600	-0.863	0.100
580.700	-3.786	0.100
580.800	0.903	0.100
580.900	-13.505	0.100
581.000	2.706	0.100
581.100	7.295	0.100
581.200	-1.460	0.100
581.300	-1.158	0.100
581.400	-11.778	0.100
581.500	-7.966	0.100
581.600	-6.823	0.100
581.700	-10.771	0.100
581.800	-15.997	0.100
581.900	4.145	0.100
582.000	2.608	0.100
582.100	-5.919	0.100
582.200	-6.262	0.100
582.300	-8.248	0.100
582.400	-13.159	0.100
582.500	-6.411	0.100
582.600	-4.530	0.100
582.700	-1.482	0.100
582.800	-1.587	0.100
582.900	-9.583	0.100
583.000	0.334	0.100
583.100	-4.190	0.100
583.200	-2.473	0.100
583.300	6.939	0.100
583.400	-1.322	0.100
583.500	-5.936	0.100
583.600	-4.013	0.100
583.700	-6.527	0.100
583.800	-9.817	0.100
583.900	-7.491	0.100
584.000	-16.714	0.100
584.100	-7.692	0.100
584.200	-14.750	0.100
584.300	-1.370	0.100
584.400	-2.881	0.100
584.500	-11.283	0.100
584.600	-10.575	0.100
584.700	-13.183	0.100
584.800	-11.213	0.100
584.900	-6.970	0.100
585.000	-11.143	0.100
585.100	-2.367	0.100
585.200	-10.816	0.100
585.300	3.034	0.100
585.400	-9.485	0.100
585.500	3.467	0.100
585.600	-18.629	0.100
585.700	-2.968	0.100
585.800	-6.524	0.100
585.900	-13.819	0.100
586.000	-2.850	0.100
586.100	1.990	0.100
586.200	-10.516	0.100
586.300	-3.560	0.100
586.400	-11.494	0.100
586.500	-4.744	0.100
586.600	-11.433	0.100
586.700	-14.963	0.100
586.800	-8.032	0.100
586.900	-11.333	0.100
587.000	-0.097	0.100
587.100	-5.390	0.100
587.200	1.643	0.100
587.300	-1.559	0.100
587.400	-3.528	0.100
587.500	-13.385	0.100
587.600	-14.757	0.100
587.700	-2.189	0.100
587.800	-4.166	0.100
587.900	-6.569	0.100
588.000	-6.498	0.100
588.100	-4.857	0.100
588.200	-7.876	0.100
588.300	-1.980	0.100
588.400	-7.291	0.100
588.500	-13.216	0.100
588.600	-3.034	0.100
588.700	-13.454	0.100
588.800	-5.684	0.100
588.900	6.828	0.100
589.000	2.759	0.100
589.100	-18.538	0.100
589.200	-13.929	0.100
589.300	-14.696	0.100
589.400	-10.142	0.100
589.500	-15.403	0.100
589.600	-8.171	0.100
589.700	-0.314	0.100
589.800	-9.834	0.100
589.900	-12.239	0.100
590.000	-10.099	0.100
590.100	-20.826	0.100
590.200	-12.155	0.100
590.300	-7.281	0.100
590.400	-11.418	0.100
590.500	-6.266	0.100
590.600	-6.219	0.100
590.700	-4.907	0.100
590.800	-7.430	0.100
590.900	-12.688	0.100
591.000	-10.513	0.100
591.100	-6.769	0.100
591.200	-7.738	0.100
591.300	-11.206	0.100
591.400	-7.017	0.100
591.500	-12.666	0.100
591.600	-18.148	0.100
591.700	-0.781	0.100
591.800	-13.613	0.100
591.900	-7.249	0.100
592.000	-1.064	0.100
592.100	-14.700	0.100
592.200	-12.737	0.100
592.300	-9.838	0.100
592.400	-1.854	0.100
592.500	-9.488	0.100
592.600	-20.112	0.100
592.700	-13.186	0.100
592.800	-10.056	0.100
592.900	-1.379	0.100
593.000	-12.693	0.100
593.100	-5.273	0.100
593.200	-3.292	0.100
593.300	-16.246	0.100
593.400	-17.141	0.100
593.500	-12.085	0.100
593.600	-11.277	0.100
593.700	-4.533	0.100
593.800	-15.138	0.100
593.900	-19.859	0.100
594.000	-4.983	0.100
594.100	-13.761	0.100
594.200	-7.888	0.100
594.300	-6.378	0.100
594.400	-5.701	0.100
594.500	-14.689	0.100
594.600	-22.516	0.100
594.700	-7.247	0.100
594.800	-13.092	0.100
594.900	-7.616	0.100
595.000	-14.537	0.100
595.100	-8.855	0.100
595.200	-12.662	0.100
595.300	-8.583	0.100
595.400	-10.351	0.100
595.500	-26.409	0.100
595.600	-22.194	0.100
595.700	-11.200	0.100
595.800	-5.576	0.100
595.900	-19.537	0.100
596.000	-17.076	0.100
596.100	-13.897	0.100
596.200	-10.781	0.100
596.300	-3.686	0.100
596.400	-10.928	0.100
596.500	-14.058	0.100
596.600	1.103	0.100
596.700	-7.601	0.100
596.800	-5.468	0.100
596.900	-8.803	0.100
597.000	-17.506	0.100
597.100	-6.887	0.100
597.200	-19.651	0.100
597.300	-15.273	0.100
597.400	-25.877	0.100
597.500	-23.801	0.100
597.600	-15.991	0.100
597.700	-8.378	0.100
597.800	-12.588	0.100
597.900	-16.462	0.100
598.000	-0.176	0.100
598.100	-4.283	0.100
598.200	-10.219	0.100
598.300	-14.595	0.100
598.400	-8.455	0.100
598.500	-11.902	0.100
598.600	-26.807	0.100
598.700	-6.159	0.100
598.800	-8.141	0.100
598.900	-22.343	0.100
599.000	-11.278	0.100
599.100	-12.848	0.100
599.200	-7.577	0.100
599.300	-12.946	0.100
599.400	-13.503	0.100
599.500	-10.666	0.100
599.600	-16.245	0.100
599.700	-14.118	0.100
599.800	-12.411	0.100
599.900	-19.220	0.100
600.000	-18.850	0.100
600.100	-8.475	0.100
600.200	-10.550	0.100
600.300	-15.027	0.100
600.400	-21.408	0.100
600.500	-12.766	0.100
600.600	-8.776	0.100
600.700	-14.089	0.100
600.800	-14.010	0.100
600.900	-15.627	0.100
601.000	3.705	0.100
601.100	-13.005	0.100
601.200	-9.921	0.100
601.300	-24.436	0.100
601.400	5.436	0.100
601.500	-13.162	0.100
601.600	-10.178	0.100
601.700	-9.365	0.100
601.800	-17.902	0.100
601.900	-8.884	0.100
602.000	-23.517	0.100
602.100	-13.039	0.100
602.200	-12.391	0.100
602.300	-22.796	0.100
602.400	-5.206	0.100
602.500	-17.777	0.100
602.600	-5.833	0.100
602.700	-15.111	0.100
602.800	-13.954	0.100
602.900	-17.034	0.100
603.000	-13.545	0.100
603.100	-20.751	0.100
603.200	-4.945	0.100
603.300	-15.119	0.100
603.400	-10.909	0.100
603.500	-10.702	0.100
603.600	-9.989	0.100
603.700	-17.231	0.100
603.800	-11.014	0.100
603.900	-13.444	0.100
604.000	-15.514	0.100
604.100	-15.668	0.100
604.200	-15.114	0.100
604.300	-10.118	0.100
604.400	-24.600	0.100
604.500	-19.474	0.100
604.600	-8.699	0.100
604.700	-11.789	0.100
604.800	-23.138	0.100
604.900	-7.338	0.100
605.000	4.116	0.100
605.100	-16.060	0.100
605.200	-16.647	0.100
605.300	-11.736	0.100
605.400	-16.842	0.100
605.500	-15.242	0.100
605.600	-8.757	0.100
605.700	-7.753	0.100
605.800	-13.707	0.100
605.900	-15.993	0.100
606.000	-29.367	0.100
606.100	-19.151	0.100
606.200	-20.446	0.100
606.300	-12.409	0.100
606.400	-15.927	0.100
606.500	-7.672	0.100
606.600	-5.449	0.100
606.700	-27.902	0.100
606.800	-20.608	0.100
606.900	-18.536	0.100
607.000	-13.662	0.100
607.100	-12.323	0.100
607.200	-14.822	0.100
607.300	-25.568	0.100
607.400	-22.434	0.100
607.500	-21.777	0.100
607.600	-24.286	0.100
607.700	-17.178	0.100
607.800	-8.549	0.100
607.900	-16.716	0.100
608.000	-13.601	0.100
608.100	-15.834	0.100
608.200	-8.761	0.100
608.300	-11.523	0.100
608.400	-8.462	0.100
608.500	-22.318	0.100
608.600	-28.054	0.100
608.700	-10.436	0.100
608.800	-15.813	0.100
608.900	-6.818	0.100
609.000	-7.968	0.100
609.100	-5.104	0.100
609.200	-13.186	0.100
609.300	-12.510	0.100
609.400	-17.141	0.100
609.500	-15.880	0.100
609.600	-9.127	0.100
609.700	-19.534	0.100
609.800	-31.677	0.100
609.900	-23.637	0.100
610.000	-7.453	0.100
610.100	-18.035	0.100
610.200	-10.674	0.100
610.300	-24.028	0.100
610.400	-18.498	0.100
610.500	-11.475	0.100
610.600	-20.066	0.100
610.700	-17.672	0.100
610.800	-21.287	0.100
610.900	-2.680	0.100
611.000	7.754	0.100
611.100	-11.406	0.100
611.200	-18.591	0.100
611.300	-19.183	0.100
611.400	-16.771	0.100
611.500	-17.137	0.100
611.600	-34.363	0.100
611.700	-5.661	0.100
611.800	-12.156	0.100
611.900	-19.636	0.100
612.000	-10.805	0.100
612.100	-10.801	0.100
612.200	-13.680	0.100
612.300	-14.478	0.100
612.400	-25.168	0.100
612.500	-26.240	0.100
612.600	0.335	0.100
612.700	-15.649	0.100
612.800	-20.786	0.100
612.900	-12.411	0.100
613.000	-10.913	0.100
613.100	-25.638	0.100
613.200	-29.710	0.100
613.300	-14.610	0.100
613.400	-13.771	0.100
613.500	-18.542	0.100
613.600	-21.432	0.100
613.700	-10.776	0.100
613.800	-9.619	0.100
613.900	-10.892	0.100
614.000	-23.121	0.100
614.100	-6.975	0.100
614.200	-14.907	0.100
614.300	-13.495	0.100
614.400	-14.405	0.100
614.500	-17.954	0.100
614.600	-29.486	0.100
614.700	-28.332	0.100
614.800	-5.624	0.100
614.900	-15.712	0.100
615.000	-26.305	0.100
615.100	-17.060	0.100
615.200	-16.307	0.100
615.300	-6.349	0.100
615.400	-23.004	0.100
615.500	-28.397	0.100
615.600	-10.451	0.100
615.700	-5.598	0.100
615.800	-14.853	0.100
615.900	-20.959	0.100
616.000	-19.959	0.100
616.100	-28.525	0.100
616.200	-19.139	0.100
616.300	-16.741	0.100
616.400	-19.957	0.100
616.500	-15.493	0.100
616.600	-13.358	0.100
616.700	-27.738	0.100
616.800	-19.335	0.100
616.900	-7.651	0.100
617.000	-10.829	0.100
617.100	-11.622	0.100
617.200	-22.280	0.100
617.300	-15.169	0.100
617.400	-14.965	0.100
617.500	-17.386	0.100
617.600	-10.938	0.100
617.700	-7.412	0.100
617.800	-9.937	0.100
617.900	-13.343	0.100
618.000	-23.473	0.100
618.100	-22.109	0.100
618.200	-15.638	0.100
618.300	-11.923	0.100
618.400	-30.832	0.100
618.500	-11.081	0.100
618.600	-13.878	0.100
618.700	-11.443	0.100
618.800	-9.738	0.100
618.900	-29.853	0.100
619.000	-29.898	0.100
619.100	-11.678	0.100
619.200	-26.225	0.100
619.300	-21.915	0.100
619.400	-9.670	0.100
619.500	-13.991	0.100
619.600	-9.872	0.100
619.700	-14.138	0.100
619.800	-28.487	0.100
619.900	-6.639	0.100
620.000	-13.966	0.100
620.100	-18.364	0.100
620.200	-23.250	0.100
620.300	-11.675	0.100
620.400	-20.046	0.100
620.500	-15.610	0.100
620.600	-18.396	0.100
620.700	-12.595	0.100
620.800	-24.257	0.100
620.900	-13.999	0.100
621.000	-12.179	0.100
621.100	-19.680	0.100
621.200	-15.635	0.100
621.300	-8.052	0.100
621.400	-17.276	0.100
621.500	-5.683	0.100
621.600	-22.779	0.100
621.700	-20.171	0.100
621.800	-13.559	0.100
621.900	-24.729	0.100
622.000	-31.379	0.100
622.100	-28.246	0.100
622.200	-7.397	0.100
622.300	-19.184	0.100
622.400	-13.081	0.100
622.500	0.506	0.100
622.600	-16.531	0.100
622.700	-15.923	0.100
622.800	-11.667	0.100
622.900	-28.399	0.100
623.000	-29.295	0.100
623.100	-32.671	0.100
623.200	-18.551	0.100
623.300	-7.245	0.100
623.400	-9.917	0.100
623.500	-7.502	0.100
623.600	-18.117	0.100
623.700	-20.202	0.100
623.800	-14.077	0.100
623.900	-12.019	0.100
624.000	-14.662	0.100
624.100	-17.465	0.100
624.200	-21.095	0.100
624.300	-19.643	0.100
624.400	-16.229	0.100
624.500	-17.846	0.100
624.600	-14.977	0.100
624.700	-16.814	0.100
624.800	-20.059	0.100
624.900	-15.734	0.100
625.000	-21.866	0.100
625.100	-19.257	0.100
625.200	-15.470	0.100
625.300	-12.584	0.100
625.400	-13.333	0.100
625.500	-7.956	0.100
625.600	-16.121	0.100
625.700	-22.441	0.100
625.800	-17.177	0.100
625.900	-24.358	0.100
626.000	-18.097	0.100
626.100	-25.095	0.100
626.200	-32.220	0.100
626.300	-13.146	0.100
626.400	-26.300	0.100
626.500	-11.364	0.100
626.600	-14.516	0.100
626.700	-13.712	0.100
626.800	-10.196	0.100
626.900	-12.975	0.100
627.000	-14.278	0.100
627.100	-22.576	0.100
627.200	-16.548	0.100
627.300	-28.487	0.100
627.400	-21.744	0.100
627.500	-12.853	0.100
627.600	-17.840	0.100
627.700	-6.837	0.100
627.800	-17.412	0.100
627.900	-29.200	0.100
628.000	-8.855	0.100
628.100	-21.850	0.100
628.200	-11.987	0.100
628.300	-28.240	0.100
628.400	-13.985	0.100
628.500	-13.970	0.100
628.600	-20.796	0.100
628.700	-17.642	0.100
628.800	-18.872	0.100
628.900	-12.744	0.100
629.000	-22.371	0.100
629.100	-24.609	0.100
629.200	-16.330	0.100
629.300	-18.309	0.100
629.400	-18.278	0.100
629.500	-20.365	0.100
629.600	-15.441	0.100
629.700	-10.239	0.100
629.800	-20.224	0.100
629.900	-25.460	0.100
630.000	-28.692	0.100
630.100	-12.561	0.100
630.200	-25.485	0.100
630.300	-8.440	0.100
630.400	-13.948	0.100
630.500	-3.302	0.100
630.600	-22.138	0.100
630.700	-24.910	0.100
630.800	-19.370	0.100
630.900	-17.225	0.100
631.000	-9.422	0.100
631.100	-3.938	0.100
631.200	-15.442	0.100
631.300	-17.418	0.100
631.400	-20.162	0.100
631.500	-3.326	0.100
631.600	-6.410	0.100
631.700	-19.808	0.100
631.800	-5.572	0.100
631.900	-2.263	0.100
632.000	4.057	0.100
632.100	8.592	0.100
632.200	-11.281	0.100
632.300	-13.680	0.100
632.400	-1.205	0.100
632.500	-7.419	0.100
632.600	-3.834	0.100
632.700	-9.385	0.100
632.800	0.018	0.100
632.900	-8.056	0.100
633.000	-18.868	0.100
633.100	2.300	0.100
633.200	4.636	0.100
633.300	-5.773	0.100
633.400	3.767	0.100
633.500	0.404	0.100
633.600	-7.680	0.100
633.700	4.234	0.100
633.800	-7.005	0.100
633.900	-5.081	0.100
634.000	13.129	0.100
634.100	5.129	0.100
634.200	-7.525	0.100
634.300	9.649	0.100
634.400	0.945	0.100
634.500	2.351	0.100
634.600	-0.790	0.100
634.700	-0.383	0.100
634.800	4.731	0.100
634.900	2.520	0.100
635.000	2.843	0.100
635.100	-1.830	0.100
635.200	1.460	0.100
635.300	7.069	0.100
635.400	8.428	0.100
635.500	-3.206	0.100
635.600	5.121	0.100
635.700	-12.493	0.100
635.800	-7.400	0.100
635.900	5.730	0.100
636.000	-20.401	0.100
636.100	19.230	0.100
636.200	15.182	0.100
636.300	-4.669	0.100
636.400	-12.739	0.100
636.500	-9.247	0.100
636.600	2.631	0.100
636.700	10.743	0.100
636.800	2.637	0.100
636.900	-6.217	0.100
637.000	-7.271	0.100
637.100	-0.987	0.100
637.200	2.017	0.100
637.300	6.356	0.100
637.400	1.950	0.100
637.500	10.859	0.100
637.600	2.001	0.100
637.700	0.763	0.100
637.800	-2.334	0.100
637.900	7.444	0.100
638.000	4.080	0.100
638.100	-12.857	0.100
638.200	-9.985	0.100
638.300	1.045	0.100
638.400	0.834	0.100
638.500	2.321	0.100
638.600	8.348	0.100
638.700	12.728	0.100
638.800	5.894	0.100
638.900	7.828	0.100
639.000	10.736	0.100
639.100	9.748	0.100
639.200	8.695	0.100
639.300	-8.899	0.100
639.400	2.492	0.100
639.500	11.551	0.100
639.600	14.438	0.100
639.700	9.511	0.100
639.800	-0.606	0.100
639.900	2.233	0.100
640.000	4.539	0.100
640.100	8.216	0.100
640.200	10.682	0.100
640.300	11.473	0.100
640.400	7.926	0.100
640.500	0.705	0.100
640.600	7.451	0.100
640.700	4.974	0.100
640.800	2.874	0.100
640.900	7.058	0.100
641.000	7.783	0.100
641.100	8.582	0.100
641.200	-2.534	0.100
641.300	3.617	0.100
641.400	13.090	0.100
641.500	9.348	0.100
641.600	9.061	0.100
641.700	3.236	0.100
641.800	-1.675	0.100
641.900	7.018	0.100
642.000	17.073	0.100
642.100	7.072	0.100
642.200	1.508	0.100
642.300	16.353	0.100
642.400	-1.944	0.100
642.500	1.599	0.100
642.600	5.651	0.100
642.700	9.900	0.100
642.800	12.059	0.100
642.900	5.873	0.100
643.000	10.432	0.100
643.100	2.467	0.100
643.200	15.831	0.100
643.300	11.000	0.100
643.400	8.563	0.100
643.500	18.891	0.100
643.600	0.850	0.100
643.700	17.232	0.100
643.800	4.535	0.100
643.900	9.733	0.100
644.000	10.155	0.100
644.100	2.022	0.100
644.200	15.625	0.100
644.300	-8.706	0.100
644.400	14.534	0.100
644.500	12.326	0.100
644.600	-5.343	0.100
644.700	17.900	0.100
644.800	5.409	0.100
644.900	5.620	0.100
645.000	4.329	0.100
645.100	13.694	0.100
645.200	11.773	0.100
645.300	9.519	0.100
645.400	5.956	0.100
645.500	14.709	0.100
645.600	-5.523	0.100
645.700	7.369	0.100
645.800	12.234	0.100
645.900	3.551	0.100
646.000	14.199	0.100
646.100	8.043	0.100
646.200	8.845	0.100
646.300	24.312	0.100
646.400	14.403	0.100
646.500	8.914	0.100
646.600	3.399	0.100
646.700	12.628	0.100
646.800	12.113	0.100
646.900	4.698	0.100
647.000	4.608	0.100
647.100	14.878	0.100
647.200	9.986	0.100
647.300	-5.034	0.100
647.400	11.007	0.100
647.500	-1.087	0.100
647.600	25.299	0.100
647.700	15.986	0.100
647.800	25.531	0.100
647.900	7.637	0.100
648.000	10.086	0.100
648.100	8.996	0.100
648.200	13.347	0.100
648.300	18.348	0.100
648.400	17.942	0.100
648.500	15.760	0.100
648.600	5.949	0.100
648.700	5.074	0.100
648.800	15.003	0.100
648.900	1.943	0.100
649.000	5.878	0.100
649.100	20.813	0.100
649.200	15.095	0.100
649.300	15.025	0.100
649.400	20.007	0.100
649.500	10.962	0.100
649.600	12.415	0.100
649.700	5.961	0.100
649.800	15.046	0.100
649.900	8.040	0.100
650.000	11.313	0.100
650.100	19.162	0.100
650.200	13.660	0.100
650.300	13.387	0.100
650.400	9.613	0.100
650.500	13.010	0.100
650.600	6.259	0.100
650.700	15.056	0.100
650.800	9.946	0.100
650.900	19.526	0.100
651.000	20.250	0.100
651.100	14.888	0.100
651.200	10.687	0.100
651.300	21.554	0.100
651.400	6.359	0.100
651.500	27.142	0.100
651.600	11.139	0.100
651.700	14.366	0.100
651.800	9.273	0.100
651.900	17.870	0.100
652.000	-0.192	0.100
652.100	16.537	0.100
652.200	13.366	0.100
652.300	12.884	0.100
652.400	19.448	0.100
652.500	21.030	0.100
652.600	17.588	0.100
652.700	24.339	0.100
652.800	14.219	0.100
652.900	8.557	0.100
653.000	5.136	0.100
653.100	13.497	0.100
653.200	10.353	0.100
653.300	14.747	0.100
653.400	18.936	0.100
653.500	19.268	0.100
653.600	20.719	0.100
653.700	-1.494	0.100
653.800	22.057	0.100
653.900	25.247	0.100
654.000	10.498	0.100
654.100	7.816	0.100
654.200	11.997	0.100
654.300	21.271	0.100
654.400	32.876	0.100
654.500	20.559	0.100
654.600	15.181	0.100
654.700	24.260	0.100
654.800	10.833	0.100
654.900	18.956	0.100
655.000	22.196	0.100
655.100	10.671	0.100
655.200	26.827	0.100
655.300	28.706	0.100
655.400	28.274	0.100
655.500	16.440	0.100
655.600	18.410	0.100
655.700	23.384	0.100
655.800	24.164	0.100
655.900	12.898	0.100
656.000	24.416	0.100
656.100	15.273	0.100
656.200	13.648	0.100
656.300	13.167	0.100
656.400	24.910	0.100
656.500	31.583	0.100
656.600	9.584	0.100
656.700	29.991	0.100
656.800	7.668	0.100
656.900	19.613	0.100
657.000	17.110	0.100
657.100	30.450	0.100
657.200	23.951	0.100
657.300	18.129	0.100
657.400	13.113	0.100
657.500	17.421	0.100
657.600	29.443	0.100
657.700	26.880	0.100
657.800	18.581	0.100
657.900	20.125	0.100
658.000	21.228	0.100
658.100	33.223	0.100
658.200	11.578	0.100
658.300	16.075	0.100
658.400	24.928	0.100
658.500	28.754	0.100
658.600	17.530	0.100
658.700	15.395	0.100
658.800	14.009	0.100
658.900	29.621	0.100
659.000	31.764	0.100
659.100	30.512	0.100
659.200	33.187	0.100
659.300	29.794	0.100
659.400	25.910	0.100
659.500	37.492	0.100
659.600	27.862	0.100
659.700	17.386	0.100
659.800	15.246	0.100
659.900	24.684	0.100
660.000	10.064	0.100
660.100	16.466	0.100
660.200	22.203	0.100
660.300	21.899	0.100
660.400	14.520	0.100
660.500	26.037	0.100
660.600	25.779	0.100
660.700	17.918	0.100
660.800	29.701	0.100
660.900	23.067	0.100
661.000	25.411	0.100
661.100	19.359	0.100
661.200	20.703	0.100
661.300	29.537	0.100
661.400	25.605	0.100
661.500	23.576	0.100
661.600	32.391	0.100
661.700	25.935	0.100
661.800	21.930	0.100
661.900	23.174	0.100
662.000	24.005	0.100
662.100	27.884	0.100
662.200	29.588	0.100
662.300	34.352	0.100
662.400	25.190	0.100
662.500	20.369	0.100
662.600	25.056	0.100
662.700	21.609	0.100
662.800	19.129	0.100
662.900	30.545	0.100
663.000	30.516	0.100
663.100	16.531	0.100
663.200	22.510	0.100
663.300	23.785	0.100
663.400	13.821	0.100
663.500	12.904	0.100
663.600	36.793	0.100
663.700	21.864	0.100
663.800	22.272	0.100
663.900	26.771	0.100
664.000	22.864	0.100
664.100	23.833	0.100
664.200	25.304	0.100
664.300	30.110	0.100
664.400	26.907	0.100
664.500	26.436	0.100
664.600	22.532	0.100
664.700	18.316	0.100
664.800	19.593	0.100
664.900	27.183	0.100
665.000	30.068	0.100
665.100	31.236	0.100
665.200	36.359	0.100
665.300	35.990	0.100
665.400	29.555	0.100
665.500	24.330	0.100
665.600	33.922	0.100
665.700	32.104	0.100
665.800	32.021	0.100
665.900	34.252	0.100
666.000	32.344	0.100
666.100	23.413	0.100
666.200	21.867	0.100
666.300	34.903	0.100
666.400	11.551	0.100
666.500	39.306	0.100
666.600	30.569	0.100
666.700	27.037	0.100
666.800	30.395	0.100
666.900	24.032	0.100
667.000	31.212	0.100
667.100	27.208	0.100
667.200	26.307	0.100
667.300	35.464	0.100
667.400	32.839	0.100
667.500	33.008	0.100
667.600	32.192	0.100
667.700	21.237	0.100
667.800	33.557	0.100
667.900	25.690	0.100
668.000	30.307	0.100
668.100	32.595	0.100
668.200	31.454	0.100
668.300	27.626	0.100
668.400	31.160	0.100
668.500	26.325	0.100
668.600	23.012	0.100
668.700	22.950	0.100
668.800	48.126	0.100
668.900	35.969	0.100
669.000	29.862	0.100
669.100	23.248	0.100
669.200	25.448	0.100
669.300	29.058	0.100
669.400	23.115	0.100
669.500	29.715	0.100
669.600	30.405	0.100
669.700	34.785	0.100
669.800	29.362	0.100
669.900	42.359	0.100
670.000	40.970	0.100
670.100	37.079	0.100
670.200	24.686	0.100
670.300	31.956	0.100
670.400	29.175	0.100
670.500	33.662	0.100
670.600	33.396	0.100
670.700	25.989	0.100
670.800	31.758	0.100
670.900	30.204	0.100
671.000	37.783	0.100
671.100	33.023	0.100
671.200	35.715	0.100
671.300	41.389	0.100
671.400	41.210	0.100
671.500	37.874	0.100
671.600	34.397	0.100
671.700	33.381	0.100
671.800	36.558	0.100
671.900	18.834	0.100
672.000	24.641	0.100
672.100	25.504	0.100
672.200	48.039	0.100
672.300	32.695	0.100
672.400	32.565	0.100
672.500	37.319	0.100
672.600	44.711	0.100
672.700	37.921	0.100
672.800	39.019	0.100
672.900	30.607	0.100
673.000	29.826	0.100
673.100	34.956	0.100
673.200	32.566	0.100
673.300	39.835	0.100
673.400	34.705	0.100
673.500	46.261	0.100
673.600	30.807	0.100
673.700	31.341	0.100
673.800	25.063	0.100
673.900	31.647	0.100
674.000	27.461	0.100
674.100	47.897	0.100
674.200	35.901	0.100
674.300	36.189	0.100
674.400	28.727	0.100
674.500	37.055	0.100
674.600	35.486	0.100
674.700	40.962	0.100
674.800	44.066	0.100
674.900	35.550	0.100
675.000	32.689	0.100
675.100	25.758	0.100
675.200	37.061	0.100
675.300	47.044	0.100
675.400	43.633	0.100
675.500	35.921	0.100
675.600	25.992	0.100
675.700	44.073	0.100
675.800	36.531	0.100
675.900	30.435	0.100
676.000	31.212	0.100
676.100	39.216	0.100
676.200	40.098	0.100
676.300	44.265	0.100
676.400	41.806	0.100
676.500	38.576	0.100
676.600	27.178	0.100
676.700	36.220	0.100
676.800	29.246	0.100
676.900	44.469	0.100
677.000	35.020	0.100
677.100	41.223	0.100
677.200	44.861	0.100
677.300	27.664	0.100
677.400	28.150	0.100
677.500	30.608	0.100
677.600	25.520	0.100
677.700	46.378	0.100
677.800	40.840	0.100
677.900	26.346	0.100
678.000	29.798	0.100
678.100	43.511	0.100
678.200	59.376	0.100
678.300	35.404	0.100
678.400	35.849	0.100
678.500	35.385	0.100
678.600	39.334	0.100
678.700	43.133	0.100
678.800	33.462	0.100
678.900	24.073	0.100
679.000	27.686	0.100
679.100	49.135	0.100
679.200	43.887	0.100
679.300	31.209	0.100
679.400	40.196	0.100
679.500	37.651	0.100
679.600	48.033	0.100
679.700	35.517	0.100
679.800	40.472	0.100
679.900	39.359	0.100
680.000	37.229	0.100
680.100	37.843	0.100
680.200	38.275	0.100
680.300	29.421	0.100
680.400	46.118	0.100
680.500	44.184	0.100
680.600	32.904	0.100
680.700	39.272	0.100
680.800	41.187	0.100
680.900	41.531	0.100
681.000	36.440	0.100
681.100	35.428	0.100
681.200	42.195	0.100
681.300	29.778	0.100
681.400	38.228	0.100
681.500	44.200	0.100
681.600	42.140	0.100
681.700	42.862	0.100
681.800	33.134	0.100
681.900	33.712	0.100
682.000	45.724	0.100
682.100	34.549	0.100
682.200	47.786	0.100
682.300	43.391	0.100
682.400	34.186	0.100
682.500	39.739	0.100
682.600	41.431	0.100
682.700	59.303	0.100
682.800	48.888	0.100
682.900	39.750	0.100
683.000	46.095	0.100
683.100	46.097	0.100
683.200	27.538	0.100
683.300	30.724	0.100
683.400	38.305	0.100
683.500	40.819	0.100
683.600	46.437	0.100
683.700	44.958	0.100
683.800	40.330	0.100
683.900	28.213	0.100
684.000	24.709	0.100
684.100	41.373	0.100
684.200	47.785	0.100
684.300	46.014	0.100
684.400	48.392	0.100
684.500	46.016	0.100
684.600	43.443	0.100
684.700	35.019	0.100
684.800	34.854	0.100
684.900	45.639	0.100
685.000	46.000	0.100
685.100	31.243	0.100
685.200	42.465	0.100
685.300	29.916	0.100
685.400	38.571	0.100
685.500	48.788	0.100
685.600	41.379	0.100
685.700	40.471	0.100
685.800	52.098	0.100
685.900	37.435	0.100
686.000	46.816	0.100
686.100	40.637	0.100
686.200	47.769	0.100
686.300	43.726	0.100
686.400	40.904	0.100
686.500	36.250	0.100
686.600	35.424	0.100
686.700	43.226	0.100
686.800	51.464	0.100
686.900	38.624	0.100
687.000	39.385	0.100
687.100	41.676	0.100
687.200	38.746	0.100
687.300	43.729	0.100
687.400	28.379	0.100
687.500	47.698	0.100
687.600	46.587	0.100
687.700	41.421	0.100
687.800	42.985	0.100
687.900	36.697	0.100
688.000	38.287	0.100
688.100	38.153	0.100
688.200	43.445	0.100
688.300	42.274	0.100
688.400	39.606	0.100
688.500	39.911	0.100
688.600	50.621	0.100
688.700	46.798	0.100
688.800	29.219	0.100
688.900	48.281	0.100
689.000	45.034	0.100
689.100	39.452	0.100
689.200	48.178	0.100
689.300	49.579	0.100
689.400	47.691	0.100
689.500	36.100	0.100
689.600	38.985	0.100
689.700	42.824	0.100
689.800	37.366	0.100
689.900	49.608	0.100
690.000	56.399	0.100
690.100	41.032	0.100
690.200	44.365	0.100
690.300	27.782	0.100
690.400	44.296	0.100
690.500	49.651	0.100
690.600	47.530	0.100
690.700	50.815	0.100
690.800	35.069	0.100
690.900	47.022	0.100
691.000	35.009	0.100
691.100	32.375	0.100
691.200	31.940	0.100
691.300	47.453	0.100
691.400	38.887	0.100
691.500	43.191	0.100
691.600	35.972	0.100
691.700	23.502	0.100
691.800	36.038	0.100
691.900	33.043	0.100
692.000	34.790	0.100
692.100	25.875	0.100
692.200	35.945	0.100
692.300	30.923	0.100
692.400	31.653	0.100
692.500	46.955	0.100
692.600	36.995	0.100
692.700	28.018	0.100
692.800	14.705	0.100
692.900	33.113	0.100
693.000	33.865	0.100
693.100	22.044	0.100
693.200	30.940	0.100
693.300	29.475	0.100
693.400	43.313	0.100
693.500	30.192	0.100
693.600	25.918	0.100
693.700	12.482	0.100
693.800	19.289	0.100
693.900	24.441	0.100
694.000	16.454	0.100
694.100	25.628	0.100
694.200	31.797	0.100
694.300	33.353	0.100
694.400	27.232	0.100
694.500	25.454	0.100
694.600	15.343	0.100
694.700	25.096	0.100
694.800	33.399	0.100
694.900	30.607	0.100
695.000	28.153	0.100
695.100	18.980	0.100
695.200	30.707	0.100
695.300	34.161	0.100
695.400	15.504	0.100
695.500	18.811	0.100
695.600	33.069	0.100
695.700	23.061	0.100
695.800	22.019	0.100
695.900	20.707	0.100
696.000	38.373	0.100
696.100	20.824	0.100
696.200	21.833	0.100
696.300	14.837	0.100
696.400	28.326	0.100
696.500	34.608	0.100
696.600	27.493	0.100
696.700	20.915	0.100
696.800	17.777	0.100
696.900	17.184	0.100
697.000	28.588	0.100
697.100	37.391	0.100
697.200	26.372	0.100
697.300	26.758	0.100
697.400	22.036	0.100
697.500	23.966	0.100
697.600	13.090	0.100
697.700	26.153	0.100
697.800	10.092	0.100
697.900	19.426	0.100
698.000	19.802	0.100
698.100	20.782	0.100
698.200	15.158	0.100
698.300	30.733	0.100
698.400	32.996	0.100
698.500	30.848	0.100
698.600	17.295	0.100
698.700	23.567	0.100
698.800	13.832	0.100
698.900	15.118	0.100
699.000	37.960	0.100
699.100	21.102	0.100
699.200	25.077	0.100
699.300	22.756	0.100
699.400	27.645	0.100
699.500	12.520	0.100
699.600	27.155	0.100
699.700	23.551	0.100
699.800	12.165	0.100
699.900	11.469	0.100
700.000	21.490	0.100
700.100	19.640	0.100
700.200	21.226	0.100
700.300	15.708	0.100
700.400	29.433	0.100
700.500	20.463	0.100
700.600	9.000	0.100
700.700	16.454	0.100
700.800	31.906	0.100
700.900	42.254	0.100
701.000	20.297	0.100
701.100	5.967	0.100
701.200	19.973	0.100
701.300	18.844	0.100
701.400	7.250	0.100
701.500	20.979	0.100
701.600	11.509	0.100
701.700	19.574	0.100
701.800	18.421	0.100
701.900	17.783	0.100
702.000	19.207	0.100
702.100	17.553	0.100
702.200	16.141	0.100
702.300	28.648	0.100
702.400	21.028	0.100
702.500	15.394	0.100
702.600	18.156	0.100
702.700	9.945	0.100
702.800	13.819	0.100
702.900	20.658	0.100
703.000	25.154	0.100
703.100	20.356	0.100
703.200	12.740	0.100
703.300	16.277	0.100
703.400	13.811	0.100
703.500	12.952	0.100
703.600	14.433	0.100
703.700	20.163	0.100
703.800	23.869	0.100
703.900	15.999	0.100
704.000	12.061	0.100
704.100	19.345	0.100
704.200	10.236	0.100
704.300	16.870	0.100
704.400	23.863	0.100
704.500	23.363	0.100
704.600	23.104	0.100
704.700	10.331	0.100
704.800	16.117	0.100
704.900	12.721	0.100
705.000	11.875	0.100
705.100	16.303	0.100
705.200	20.184	0.100
705.300	6.983	0.100
705.400	14.318	0.100
705.500	5.535	0.100
705.600	17.626	0.100
705.700	18.861	0.100
705.800	12.371	0.100
705.900	23.658	0.100
706.000	16.281	0.100
706.100	18.756	0.100
706.200	14.355	0.100
706.300	15.779	0.100
706.400	12.041	0.100
706.500	17.313	0.100
706.600	14.478	0.100
706.700	5.593	0.100
706.800	12.755	0.100
706.900	17.703	0.100
707.000	11.534	0.100
707.100	13.620	0.100
707.200	17.341	0.100
707.300	6.537	0.100
707.400	-0.920	0.100
707.500	20.565	0.100
707.600	11.693	0.100
707.700	15.581	0.100
707.800	10.723	0.100
707.900	22.434	0.100
708.000	10.594	0.100
708.100	10.572	0.100
708.200	10.425	0.100
708.300	14.876	0.100
708.400	11.426	0.100
708.500	17.765	0.100
708.600	16.651	0.100
708.700	7.451	0.100
708.800	11.167	0.100
708.900	10.504	0.100
709.000	12.365	0.100
709.100	9.018	0.100
709.200	17.392	0.100
709.300	9.645	0.100
709.400	3.411	0.100
709.500	9.843	0.100
709.600	15.311	0.100
709.700	12.518	0.100
709.800	10.276	0.100
709.900	4.537	0.100
710.000	2.803	0.100
710.100	6.056	0.100
710.200	10.619	0.100
710.300	9.973	0.100
710.400	0.195	0.100
710.500	11.480	0.100
710.600	19.881	0.100
710.700	13.282	0.100
710.800	14.624	0.100
710.900	15.488	0.100
711.000	8.288	0.100
711.100	9.009	0.100
711.200	11.569	0.100
711.300	4.965	0.100
711.400	10.424	0.100
711.500	9.529	0.100
711.600	13.389	0.100
711.700	4.149	0.100
711.800	7.508	0.100
711.900	1.305	0.100
712.000	5.359	0.100
712.100	10.927	0.100
712.200	8.367	0.100
712.300	4.803	0.100
712.400	-1.005	0.100
712.500	8.726	0.100
712.600	0.241	0.100
712.700	11.276	0.100
712.800	9.258	0.100
712.900	12.543	0.100
713.000	5.547	0.100
713.100	9.443	0.100
713.200	-0.083	0.100
713.300	10.568	0.100
713.400	22.969	0.100
713.500	5.270	0.100
713.600	-0.724	0.100
713.700	5.749	0.100
713.800	5.412	0.100
713.900	2.521	0.100
714.000	10.864	0.100
714.100	0.369	0.100
714.200	5.339	0.100
714.300	9.970	0.100
714.400	7.946	0.100
714.500	-2.129	0.100
714.600	11.768	0.100
714.700	6.316	0.100
714.800	6.618	0.100
714.900	5.375	0.100
715.000	3.600	0.100
715.100	-0.790	0.100
715.200	-2.255	0.100
715.300	12.176	0.100
715.400	7.262	0.100
715.500	9.221	0.100
715.600	15.270	0.100
715.700	0.920	0.100
715.800	4.043	0.100
715.900	9.400	0.100
716.000	3.402	0.100
716.100	0.766	0.100
716.200	25.949	0.100
716.300	9.409	0.100
716.400	12.449	0.100
716.500	-0.470	0.100
716.600	7.108	0.100
716.700	1.873	0.100
716.800	4.480	0.100
716.900	0.209	0.100
717.000	10.513	0.100
717.100	11.552	0.100
717.200	-2.154	0.100
717.300	-6.919	0.100
717.400	4.336	0.100
717.500	0.779	0.100
717.600	-10.101	0.100
717.700	7.383	0.100
717.800	18.940	0.100
717.900	-2.288	0.100
718.000	1.392	0.100
718.100	1.299	0.100
718.200	5.079	0.100
718.300	5.921	0.100
718.400	3.149	0.100
718.500	6.573	0.100
718.600	8.120	0.100
718.700	-4.602	0.100
718.800	-4.295	0.100
718.900	8.436	0.100
719.000	4.555	0.100
719.100	-7.495	0.100
719.200	8.345	0.100
719.300	-13.719	0.100
719.400	2.488	0.100
719.500	11.907	0.100
719.600	2.823	0.100
719.700	0.623	0.100
719.800	6.928	0.100
719.900	4.882	0.100
720.000	1.500	0.100
720.100	-0.313	0.100
720.200	-2.929	0.100
720.300	-8.031	0.100
720.400	7.016	0.100
720.500	-6.379	0.100
720.600	9.379	0.100
720.700	2.045	0.100
720.800	3.206	0.100
720.900	8.946	0.100
721.000	-2.566	0.100
721.100	9.377	0.100
721.200	5.782	0.100
721.300	2.129	0.100
721.400	-3.968	0.100
721.500	-18.282	0.100
721.600	5.616	0.100
721.700	1.211	0.100
721.800	-4.435	0.100
721.900	-1.253	0.100
722.000	10.432	0.100
722.100	-9.174	0.100
722.200	-8.865	0.100
722.300	-1.890	0.100
722.400	3.331	0.100
722.500	1.316	0.100
722.600	8.838	0.100
722.700	-3.991	0.100
722.800	3.480	0.100
722.900	-10.511	0.100
723.000	1.978	0.100
723.100	1.768	0.100
723.200	-2.997	0.100
723.300	-7.338	0.100
723.400	-8.894	0.100
723.500	4.818	0.100
723.600	3.234	0.100
723.700	5.474	0.100
723.800	-3.006	0.100
723.900	2.744	0.100
724.000	-2.998	0.100
724.100	-0.993	0.100
724.200	-1.132	0.100
724.300	2.349	0.100
724.400	-11.744	0.100
724.500	-3.787	0.100
724.600	3.051	0.100
724.700	19.814	0.100
724.800	-9.711	0.100
724.900	-0.223	0.100
725.000	-24.181	0.100
725.100	-21.316	0.100
725.200	-13.694	0.100
725.300	11.178	0.100
725.400	-5.663	0.100
725.500	4.590	0.100
725.600	0.771	0.100
725.700	0.178	0.100
725.800	-2.210	0.100
725.900	4.765	0.100
726.000	2.557	0.100
726.100	-3.460	0.100
726.200	-6.511	0.100
726.300	0.093	0.100
726.400	-0.240	0.100
726.500	-2.746	0.100
726.600	6.583	0.100
726.700	-13.311	0.100
726.800	-5.372	0.100
726.900	0.492	0.100
727.000	-16.572	0.100
727.100	-17.461	0.100
727.200	-1.966	0.100
727.300	-3.243	0.100
727.400	5.800	0.100
727.500	0.414	0.100
727.600	-7.754	0.100
727.700	-7.367	0.100
727.800	-10.933	0.100
727.900	-1.410	0.100
728.000	4.875	0.100
728.100	4.592	0.100
728.200	-9.243	0.100
728.300	-16.653	0.100
728.400	0.526	0.100
728.500	8.157	0.100
728.600	-8.186	0.100
728.700	1.218	0.100
728.800	3.435	0.100
728.900	-7.101	0.100
729.000	-4.041	0.100
729.100	-15.984	0.100
729.200	-4.371	0.100
729.300	-12.565	0.100
729.400	-3.976	0.100
729.500	1.029	0.100
729.600	-1.360	0.100
729.700	-5.316	0.100
729.800	-2.232	0.100
729.900	-0.492	0.100
730.000	-12.804	0.100
730.100	-10.287	0.100
730.200	-0.966	0.100
730.300	-4.094	0.100
730.400	2.199	0.100
730.500	-1.721	0.100
730.600	-5.640	0.100
730.700	-18.021	0.100
730.800	-10.673	0.100
730.900	-5.552	0.100
731.000	-9.223	0.100
731.100	4.590	0.100
731.200	-2.331	0.100
731.300	-14.889	0.100
731.400	6.432	0.100
731.500	-4.215	0.100
731.600	-15.631	0.100
731.700	-12.390	0.100
731.800	0.811	0.100
731.900	3.020	0.100
732.000	-4.345	0.100
732.100	-0.728	0.100
732.200	-23.480	0.100
732.300	-12.693	0.100
732.400	8.369	0.100
732.500	1.405	0.100
732.600	-13.708	0.100
732.700	-12.310	0.100
732.800	-18.209	0.100
732.900	-11.425	0.100
733.000	-0.430	0.100
733.100	-6.798	0.100
733.200	-9.633	0.100
733.300	-1.394	0.100
733.400	-4.336	0.100
733.500	-14.111	0.100
733.600	-23.560	0.100
733.700	-17.653	0.100
733.800	-17.389	0.100
733.900	-13.865	0.100
734.000	0.380	0.100
734.100	-6.601	0.100
734.200	-4.757	0.100
734.300	-9.134	0.100
734.400	-8.738	0.100
734.500	-7.420	0.100
734.600	0.611	0.100
734.700	-19.644	0.100
734.800	-16.679	0.100
734.900	7.591	0.100
735.000	-20.141	0.100
735.100	-13.550	0.100
735.200	-1.860	0.100
735.300	6.244	0.100
735.400	-3.050	0.100
735.500	2.298	0.100
735.600	-13.093	0.100
735.700	-9.244	0.100
735.800	-16.101	0.100
735.900	-13.651	0.100
736.000	-19.180	0.100
736.100	-17.917	0.100
736.200	-20.561	0.100
736.300	10.940	0.100
736.400	-3.324	0.100
736.500	-12.173	0.100
736.600	-12.219	0.100
736.700	-10.567	0.100
736.800	-10.101	0.100
736.900	-11.741	0.100
737.000	-7.738	0.100
737.100	-22.520	0.100
737.200	-11.238	0.100
737.300	-9.939	0.100
737.400	-19.410	0.100
737.500	-19.379	0.100
737.600	-2.937	0.100
737.700	6.203	0.100
737.800	0.145	0.100
737.900	-4.425	0.100
738.000	1.068	0.100
738.100	-1.698	0.100
738.200	-7.855	0.100
738.300	-22.270	0.100
738.400	-6.826	0.100
738.500	1.857	0.100
738.600	-11.637	0.100
738.700	-13.538	0.100
738.800	-19.147	0.100
738.900	-17.413	0.100
739.000	-19.195	0.100
739.100	-20.900	0.100
739.200	-11.401	0.100
739.300	-9.634	0.100
739.400	-7.639	0.100
739.500	-4.776	0.100
739.600	-6.777	0.100
739.700	-23.229	0.100
739.800	-6.423	0.100
739.900	-9.895	0.100
740.000	-9.732	0.100
740.100	-12.400	0.100
740.200	-1.407	0.100
740.300	-8.918	0.100
740.400	-7.812	0.100
740.500	-12.342	0.100
740.600	-15.765	0.100
740.700	-8.486	0.100
740.800	-8.702	0.100
740.900	-10.892	0.100
741.000	-13.400	0.100
741.100	-10.818	0.100
741.200	-12.022	0.100
741.300	2.485	0.100
741.400	-19.644	0.100
741.500	-8.822	0.100
741.600	-11.297	0.100
741.700	-6.492	0.100
741.800	-21.406	0.100
741.900	-4.794	0.100
742.000	-8.340	0.100
742.100	-14.135	0.100
742.200	-5.711	0.100
742.300	-19.073	0.100
742.400	-6.587	0.100
742.500	-15.116	0.100
742.600	-8.435	0.100
742.700	-14.355	0.100
742.800	-14.823	0.100
742.900	-12.583	0.100
743.000	-13.118	0.100
743.100	-23.964	0.100
743.200	-12.803	0.100
743.300	-15.863	0.100
743.400	-28.620	0.100
743.500	-10.439	0.100
743.600	-1.528	0.100
743.700	-15.996	0.100
743.800	-18.706	0.100
743.900	-14.682	0.100
744.000	-1.834	0.100
744.100	-11.070	0.100
744.200	-9.146	0.100
744.300	-15.549	0.100
744.400	-5.320	0.100
744.500	-14.983	0.100
744.600	-18.671	0.100
744.700	-5.343	0.100
744.800	-20.442	0.100
744.900	-12.233	0.100
745.000	-10.395	0.100
745.100	-12.577	0.100
745.200	-11.301	0.100
745.300	-19.281	0.100
745.400	-12.981	0.100
745.500	-16.181	0.100
745.600	-23.873	0.100
745.700	-20.678	0.100
745.800	-14.854	0.100
745.900	-4.930	0.100
746.000	-22.764	0.100
746.100	-11.861	0.100
746.200	-12.332	0.100
746.300	-21.641	0.100
746.400	-0.419	0.100
746.500	-5.349	0.100
746.600	-15.448	0.100
746.700	-10.729	0.100
746.800	-16.838	0.100
746.900	-12.647	0.100
747.000	-8.539	0.100
747.100	-16.902	0.100
747.200	-23.060	0.100
747.300	-8.962	0.100
747.400	-1.640	0.100
747.500	-8.354	0.100
747.600	-12.589	0.100
747.700	-30.299	0.100
747.800	-13.753	0.100
747.900	-12.902	0.100
748.000	-11.837	0.100
748.100	-14.566	0.100
748.200	-5.199	0.100
748.300	-3.185	0.100
748.400	-18.629	0.100
748.500	-4.072	0.100
748.600	-7.784	0.100
748.700	-11.491	0.100
748.800	-11.302	0.100
748.900	-28.072	0.100
749.000	-19.707	0.100
749.100	-14.576	0.100
749.200	-26.710	0.100
749.300	-14.058	0.100
749.400	-11.104	0.100
749.500	-11.387	0.100
749.600	-17.315	0.100
749.700	-6.876	0.100
749.800	-19.257	0.100
749.900	-18.268	0.100
750.000	-14.045	0.100
750.100	-11.980	0.100
750.200	-18.760	0.100
750.300	-4.050	0.100
750.400	-29.257	0.100
750.500	-16.913	0.100
750.600	-7.308	0.100
750.700	-14.518	0.100
750.800	-12.045	0.100
750.900	-17.784	0.100
751.000	-18.761	0.100
751.100	-11.907	0.100
751.200	-12.084	0.100
751.300	-10.290	0.100
751.400	-24.587	0.100
751.500	1.329	0.100
751.600	-13.373	0.100
751.700	-11.243	0.100
751.800	-11.507	0.100
751.900	-17.239	0.100
752.000	-16.498	0.100
752.100	-18.117	0.100
752.200	-15.801	0.100
752.300	-18.993	0.100
752.400	-5.675	0.100
752.500	-12.949	0.100
752.600	-19.483	0.100
752.700	-16.818	0.100
752.800	-15.668	0.100
752.900	-3.034	0.100
753.000	-25.174	0.100
753.100	-25.547	0.100
753.200	-7.684	0.100
753.300	-18.043	0.100
753.400	-5.769	0.100
753.500	-10.949	0.100
753.600	-10.778	0.100
753.700	-2.718	0.100
753.800	-19.351	0.100
753.900	-27.620	0.100
754.000	-8.494	0.100
754.100	-18.068	0.100
754.200	-17.630	0.100
754.300	-7.096	0.100
754.400	-11.682	0.100
754.500	-18.859	0.100
754.600	-4.628	0.100
754.700	-16.963	0.100
754.800	-22.825	0.100
754.900	-12.733	0.100
755.000	-21.581	0.100
755.100	-23.173	0.100
755.200	-16.611	0.100
755.300	-15.567	0.100
755.400	-18.791	0.100
755.500	-10.607	0.100
755.600	-19.499	0.100
755.700	-8.191	0.100
755.800	-21.161	0.100
755.900	-14.434	0.100
756.000	-15.239	0.100
756.100	-27.293	0.100
756.200	-15.817	0.100
756.300	-24.561	0.100
756.400	-19.007	0.100
756.500	-6.019	0.100
756.600	-11.757	0.100
756.700	-13.324	0.100
756.800	-26.597	0.100
756.900	-10.471	0.100
757.000	-17.770	0.100
757.100	-17.454	0.100
757.200	-23.559	0.100
757.300	-13.230	0.100
757.400	-23.223	0.100
757.500	-13.407	0.100
757.600	-17.583	0.100
757.700	-25.497	0.100
757.800	-17.717	0.100
757.900	-18.932	0.100
758.000	-4.449	0.100
758.100	-15.079	0.100
758.200	-23.746	0.100
758.300	-8.110	0.100
758.400	-17.531	0.100
758.500	-17.268	0.100
758.600	-7.500	0.100
758.700	-22.911	0.100
758.800	-13.507	0.100
758.900	-9.518	0.100
759.000	-14.540	0.100
759.100	-21.153	0.100
759.200	-23.847	0.100
759.300	-5.932	0.100
759.400	-18.205	0.100
759.500	-15.565	0.100
759.600	-17.970	0.100
759.700	-16.741	0.100
759.800	-20.615	0.100
759.900	-10.208	0.100
760.000	-18.610	0.100
760.100	-14.398	0.100
760.200	-24.284	0.100
760.300	-9.865	0.100
760.400	-14.631	0.100
760.500	-15.902	0.100
760.600	-18.648	0.100
760.700	-11.661	0.100
760.800	-8.243	0.100
760.900	-23.265	0.100
761.000	-9.430	0.100
761.100	-17.530	0.100
761.200	-24.891	0.100
761.300	-12.095	0.100
761.400	-0.616	0.100
761.500	-20.532	0.100
761.600	-33.708	0.100
761.700	-14.649	0.100
761.800	-11.935	0.100
761.900	-32.185	0.100
762.000	-12.972	0.100
762.100	-7.922	0.100
762.200	-14.658	0.100
762.300	-18.967	0.100
762.400	-17.736	0.100
762.500	-8.601	0.100
762.600	-24.321	0.100
762.700	-19.966	0.100
762.800	-22.953	0.100
762.900	-28.351	0.100
763.000	-27.324	0.100
763.100	-18.051	0.100
763.200	-1.072	0.100
763.300	-10.524	0.100
763.400	-9.297	0.100
763.500	-13.120	0.100
763.600	-9.941	0.100
763.700	-29.539	0.100
763.800	-29.570	0.100
763.900	-6.940	0.100
764.000	-24.550	0.100
764.100	-17.247	0.100
764.200	-23.120	0.100
764.300	-3.861	0.100
764.400	-6.489	0.100
764.500	-13.766	0.100
764.600	-13.589	0.100
764.700	-19.229	0.100
764.800	-25.938	0.100
764.900	-10.381	0.100
765.000	-20.577	0.100
765.100	-28.632	0.100
765.200	-21.137	0.100
765.300	-22.009	0.100
765.400	-32.053	0.100
765.500	-17.400	0.100
765.600	-0.768	0.100
765.700	-11.003	0.100
765.800	-16.915	0.100
765.900	-13.137	0.100
766.000	-6.886	0.100
766.100	-17.632	0.100
766.200	-23.695	0.100
766.300	-9.126	0.100
766.400	-10.340	0.100
766.500	-12.796	0.100
766.600	-13.438	0.100
766.700	-29.277	0.100
766.800	-21.921	0.100
766.900	-16.751	0.100
767.000	-11.115	0.100
767.100	-17.479	0.100
767.200	-26.831	0.100
767.300	-21.404	0.100
767.400	-20.961	0.100
767.500	-15.141	0.100
767.600	-19.729	0.100
767.700	-22.498	0.100
767.800	-18.903	0.100
767.900	-17.814	0.100
768.000	-6.763	0.100
768.100	-21.626	0.100
768.200	-23.112	0.100
768.300	-28.821	0.100
768.400	-16.477	0.100
768.500	-15.956	0.100
768.600	-22.483	0.100
768.700	-17.278	0.100
768.800	-17.937	0.100
768.900	-19.938	0.100
769.000	-17.183	0.100
769.100	-31.443	0.100
769.200	-13.375	0.100
769.300	-24.245	0.100
769.400	-23.128	0.100
769.500	-13.668	0.100
769.600	-19.914	0.100
769.700	-7.694	0.100
769.800	-13.962	0.100
769.900	-17.309	0.100
770.000	-17.005	0.100
770.100	-19.608	0.100
770.200	-8.364	0.100
770.300	-23.767	0.100
770.400	-21.400	0.100
770.500	-24.345	0.100
770.600	-16.659	0.100
770.700	-19.488	0.100
770.800	-25.786	0.100
770.900	-27.226	0.100
771.000	-8.597	0.100
771.100	-7.269	0.100
771.200	-14.318	0.100
771.300	-10.063	0.100
771.400	-22.685	0.100
771.500	-25.606	0.100
771.600	-19.970	0.100
771.700	-15.634	0.100
771.800	-21.549	0.100
771.900	-13.762	0.100
772.000	-22.999	0.100
772.100	-23.862	0.100
772.200	-2.656	0.100
772.300	-21.869	0.100
772.400	-24.697	0.100
772.500	-18.733	0.100
772.600	-19.341	0.100
772.700	-32.652	0.100
772.800	-16.133	0.100
772.900	-17.812	0.100
773.000	-15.287	0.100
773.100	-25.284	0.100
773.200	-19.485	0.100
773.300	-16.551	0.100
773.400	-14.108	0.100
773.500	-19.564	0.100
773.600	-18.654	0.100
773.700	-31.649	0.100
773.800	-27.939	0.100
773.900	-10.992	0.100
774.000	-6.989	0.100
774.100	-8.640	0.100
774.200	-16.672	0.100
774.300	-12.085	0.100
774.400	-20.753	0.100
774.500	-15.810	0.100
774.600	-9.968	0.100
774.700	-12.273	0.100
774.800	-22.020	0.100
774.900	-29.035	0.100
775.000	-20.083	0.100
775.100	-24.166	0.100
775.200	-18.858	0.100
775.300	-22.594	0.100
775.400	-15.743	0.100
775.500	-19.066	0.100
775.600	-20.069	0.100
775.700	-17.649	0.100
775.800	-19.083	0.100
775.900	-15.729	0.100
776.000	-14.161	0.100
776.100	-15.018	0.100
776.200	-23.356	0.100
776.300	-19.282	0.100
776.400	-16.159	0.100
776.500	-19.981	0.100
776.600	-18.607	0.100
776.700	-17.532	0.100
776.800	-23.058	0.100
776.900	-22.660	0.100
777.000	-18.498	0.100
777.100	-9.028	0.100
777.200	-11.105	0.100
777.300	-16.125	0.100
777.400	-21.407	0.100
777.500	-20.339	0.100
777.600	-20.447	0.100
777.700	-13.965	0.100
777.800	-21.447	0.100
777.900	-20.985	0.100
778.000	-18.115	0.100
778.100	-20.151	0.100
778.200	-26.662	0.100
778.300	-35.333	0.100
778.400	-28.386	0.100
778.500	-14.974	0.100
778.600	-16.422	0.100
778.700	-15.612	0.100
778.800	-12.735	0.100
778.900	-15.994	0.100
779.000	-28.816	0.100
779.100	-7.896	0.100
779.200	-9.967	0.100
779.300	-29.586	0.100
779.400	-18.987	0.100
779.500	-12.102	0.100
779.600	-19.923	0.100
779.700	-21.212	0.100
779.800	-18.633	0.100
779.900	-26.784	0.100
780.000	-23.948	0.100
780.100	-28.813	0.100
780.200	-10.577	0.100
780.300	-26.827	0.100
780.400	-19.023	0.100
780.500	-9.510	0.100
780.600	-3.590	0.100
780.700	-12.901	0.100
780.800	-25.029	0.100
780.900	-23.533	0.100
781.000	-24.799	0.100
781.100	-18.866	0.100
781.200	-9.778	0.100
781.300	-15.699	0.100
781.400	-4.764	0.100
781.500	-23.875	0.100
781.600	-12.157	0.100
781.700	-28.091	0.100
781.800	-11.756	0.100
781.900	-7.905	0.100
782.000	-11.921	0.100
782.100	-6.973	0.100
782.200	-5.855	0.100
782.300	9.196	0.100
782.400	-10.359	0.100
782.500	-25.343	0.100
782.600	-11.751	0.100
782.700	0.847	0.100
782.800	-1.829	0.100
782.900	1.556	0.100
783.000	-8.755	0.100
783.100	-0.439	0.100
783.200	-11.618	0.100
783.300	-2.032	0.100
783.400	-6.568	0.100
783.500	2.877	0.100
783.600	3.122	0.100
783.700	-2.692	0.100
783.800	-5.790	0.100
783.900	-0.848	0.100
784.000	3.067	0.100
784.100	-1.529	0.100
784.200	-2.165	0.100
784.300	0.835	0.100
784.400	-12.892	0.100
784.500	-5.110	0.100
784.600	1.872	0.100
784.700	5.991	0.100
784.800	6.632	0.100
784.900	2.203	0.100
785.000	14.631	0.100
785.100	7.934	0.100
785.200	-9.175	0.100
785.300	-1.354	0.100
785.400	3.458	0.100
785.500	10.309	0.100
785.600	-4.502	0.100
785.700	-7.862	0.100
785.800	-11.153	0.100
785.900	-8.939	0.100
786.000	7.103	0.100
786.100	-2.750	0.100
786.200	3.445	0.100
786.300	0.286	0.100
786.400	-14.751	0.100
786.500	15.857	0.100
786.600	6.655	0.100
786.700	-7.074	0.100
786.800	-5.297	0.100
786.900	6.465	0.100
787.000	7.801	0.100
787.100	6.404	0.100
787.200	1.559	0.100
787.300	-5.592	0.100
787.400	2.384	0.100
787.500	-5.480	0.100
787.600	3.048	0.100
787.700	-2.971	0.100
787.800	1.103	0.100
787.900	-3.818	0.100
788.000	-1.707	0.100
788.100	13.508	0.100
788.200	-1.075	0.100
788.300	-0.218	0.100
788.400	-5.752	0.100
788.500	-11.082	0.100
788.600	1.763	0.100
788.700	1.416	0.100
788.800	-0.371	0.100
788.900	-2.726	0.100
789.000	2.072	0.100
789.100	10.801	0.100
789.200	7.682	0.100
789.300	4.870	0.100
789.400	0.852	0.100
789.500	3.039	0.100
789.600	10.927	0.099
789.700	-2.904	0.100
789.800	11.388	0.100
789.900	10.507	0.100
790.000	1.606	0.100
790.100	2.488	0.099
790.200	3.885	0.100
790.300	5.113	0.100
790.400	3.525	0.099
790.500	4.576	0.100
790.600	13.888	0.100
790.700	-10.290	0.100
790.800	1.502	0.100
790.900	4.093	0.100
791.000	10.720	0.100
791.100	4.981	0.100
791.200	4.373	0.100
791.300	8.211	0.100
791.400	11.592	0.100
791.500	7.302	0.100
791.600	1.855	0.100
791.700	-2.334	0.100
791.800	-1.764	0.100
791.900	6.256	0.100
792.000	6.858	0.100
792.100	-5.199	0.099
792.200	1.778	0.099
792.300	7.775	0.100
792.400	12.809	0.100
792.500	5.932	0.099
792.600	8.620	0.099
792.700	3.462	0.100
792.800	10.511	0.100
792.900	4.689	0.099
793.000	4.943	0.100
793.100	11.825	0.099
793.200	7.343	0.099
793.300	1.381	0.100
793.400	14.142	0.099
793.500	7.624	0.099
793.600	6.561	0.099
793.700	11.693	0.100
793.800	12.843	0.099
793.900	7.810	0.099
794.000	13.133	0.100
794.100	0.185	0.099
794.200	-0.169	0.099
794.300	4.221	0.100
794.400	4.583	0.099
794.500	9.115	0.099
794.600	8.579	0.099
794.700	7.668	0.099
794.800	6.167	0.100
794.900	2.854	0.099
795.000	8.626	0.099
795.100	4.055	0.099
795.200	14.586	0.099
795.300	9.361	0.099
795.400	19.965	0.099
795.500	15.415	0.099
795.600	14.579	0.099
795.700	3.223	0.099
795.800	2.475	0.099
795.900	2.357	0.099
796.000	13.668	0.099
796.100	10.270	0.099
796.200	10.048	0.099
796.300	7.049	0.099
796.400	3.818	0.099
796.500	6.945	0.099
796.600	11.247	0.099
796.700	1.654	0.099
796.800	2.336	0.099
796.900	23.102	0.099
797.000	9.100	0.099
797.100	-1.611	0.099
797.200	11.553	0.099
797.300	14.213	0.099
797.400	10.366	0.099
797.500	9.612	0.099
797.600	16.514	0.099
797.700	10.601	0.099
797.800	9.202	0.099
797.900	10.291	0.099
798.000	3.324	0.099
798.100	7.983	0.099
798.200	12.787	0.099
798.300	12.193	0.099
798.400	15.413	0.099
798.500	4.774	0.099
798.600	7.303	0.099
798.700	12.934	0.099
798.800	6.652	0.099
798.900	6.191	0.099
799.000	20.277	0.099
799.100	20.038	0.099
799.200	17.540	0.099
799.300	6.297	0.099
799.400	9.133	0.099
799.500	13.694	0.099
799.600	2.546	0.099
799.700	16.987	0.099
799.800	14.808	0.099
799.900	14.997	0.099
800.000	0.617	0.099
