time /s	I /nA	E /V
0.100	-4.343	0.100
0.200	-2.791	0.100
0.300	10.802	0.100
0.400	-10.345	0.100
0.500	6.598	0.100
0.600	-3.107	0.100
0.700	1.821	0.100
0.800	-18.359	0.100
0.900	-1.454	0.100
1.000	-11.255	0.100
1.100	7.515	0.100
1.200	-4.152	0.100
1.300	-4.873	0.100
1.400	-2.090	0.100
1.500	-6.043	0.100
1.600	-3.549	0.100
1.700	-3.660	0.100
1.800	6.841	0.100
1.900	5.369	0.100
2.000	-3.104	0.100
2.100	-11.816	0.100
2.200	7.323	0.100
2.300	1.082	0.100
2.400	5.464	0.100
2.500	-11.794	0.100
2.600	3.829	0.100
2.700	-4.027	0.100
2.800	2.446	0.100
2.900	-2.889	0.100
3.000	11.645	0.100
3.100	6.752	0.100
3.200	5.705	0.100
3.300	8.841	0.100
3.400	-13.335	0.100
3.500	-8.611	0.100
3.600	-2.376	0.100
3.700	1.254	0.100
3.800	4.282	0.100
3.900	-3.630	0.100
4.000	-3.079	0.100
4.100	1.177	0.100
4.200	-6.803	0.100
4.300	-5.435	0.100
4.400	-8.785	0.100
4.500	-7.136	0.100
4.600	0.630	0.100
4.700	7.659	0.100
4.800	3.623	0.100
4.900	-2.974	0.100
5.000	-7.956	0.100
5.100	-0.103	0.100
5.200	5.934	0.100
5.300	1.803	0.100
5.400	-3.699	0.100
5.500	3.232	0.100
5.600	-7.588	0.100
5.700	1.667	0.100
5.800	5.985	0.100
5.900	-3.012	0.100
6.000	3.785	0.100
6.100	5.365	0.100
6.200	-1.278	0.100
6.300	0.841	0.100
6.400	-3.680	0.100
6.500	4.353	0.100
6.600	-6.060	0.100
6.700	13.570	0.100
6.800	-9.695	0.100
6.900	-4.010	0.100
7.000	2.750	0.100
7.100	0.042	0.100
7.200	3.320	0.100
7.300	-13.285	0.100
7.400	-14.105	0.100
7.500	1.331	0.100
7.600	-9.296	0.100
7.700	-7.683	0.100
7.800	6.062	0.100
7.900	-6.028	0.100
8.000	-0.023	0.100
8.100	7.819	0.100
8.200	-2.771	0.100
8.300	-2.469	0.100
8.400	0.974	0.100
8.500	-9.481	0.100
8.600	-0.255	0.100
8.700	4.062	0.100
8.800	4.831	0.100
8.900	-2.628	0.100
9.000	4.876	0.100
9.100	6.262	0.100
9.200	-6.518	0.100
9.300	3.048	0.100
9.400	-1.347	0.100
9.500	-3.954	0.100
9.600	-7.669	0.100
9.700	-2.849	0.100
9.800	12.624	0.100
9.900	8.772	0.100
10.000	14.756	0.100
10.100	-6.781	0.100
10.200	-1.769	0.100
10.300	10.065	0.100
10.400	1.782	0.100
10.500	-5.578	0.100
10.600	-11.412	0.100
10.700	9.883	0.100
10.800	3.813	0.100
10.900	-0.497	0.100
11.000	5.416	0.100
11.100	-5.764	0.100
11.200	7.050	0.100
11.300	4.295	0.100
11.400	-3.477	0.100
11.500	3.083	0.100
11.600	4.635	0.100
11.700	-0.818	0.100
11.800	-27.523	0.100
11.900	5.056	0.100
12.000	4.149	0.100
12.100	-1.491	0.100
12.200	-4.475	0.100
12.300	0.476	0.100
12.400	-4.499	0.100
12.500	3.330	0.100
12.600	1.932	0.100
12.700	-1.184	0.100
12.800	-5.156	0.100
12.900	4.419	0.100
13.000	-11.199	0.100
13.100	-10.302	0.100
13.200	-3.946	0.100
13.300	1.662	0.100
13.400	4.112	0.100
13.500	12.176	0.100
13.600	-1.503	0.100
13.700	-6.440	0.100
13.800	-9.554	0.100
13.900	14.185	0.100
14.000	2.716	0.100
14.100	9.949	0.100
14.200	3.450	0.100
14.300	-0.838	0.100
14.400	-6.383	0.100
14.500	-3.153	0.100
14.600	-7.085	0.100
14.700	-0.915	0.100
14.800	7.147	0.100
14.900	10.842	0.100
15.000	-6.671	0.100
15.100	-1.556	0.100
15.200	-6.602	0.100
15.300	-1.627	0.100
15.400	7.115	0.100
15.500	7.118	0.100
15.600	4.241	0.100
15.700	3.611	0.100
15.800	-8.387	0.100
15.900	-2.698	0.100
16.000	4.046	0.100
16.100	-3.534	0.100
16.200	6.134	0.100
16.300	-1.854	0.100
16.400	-6.640	0.100
16.500	-2.595	0.100
16.600	-12.561	0.100
16.700	3.829	0.100
16.800	11.166	0.100
16.900	-6.811	0.100
17.000	-4.153	0.100
17.100	-4.316	0.100
17.200	-5.163	0.100
17.300	-6.119	0.100
17.400	1.523	0.100
17.500	14.859	0.100
17.600	-6.009	0.100
17.700	9.834	0.100
17.800	3.619	0.100
17.900	8.362	0.100
18.000	1.421	0.100
18.100	-5.462	0.100
18.200	-2.929	0.100
18.300	10.509	0.100
18.400	-2.008	0.100
18.500	-5.505	0.100
18.600	-6.114	0.100
18.700	-10.263	0.100
18.800	3.212	0.100
18.900	5.656	0.100
19.000	-2.131	0.100
19.100	-4.821	0.100
19.200	2.327	0.100
19.300	12.271	0.100
19.400	5.184	0.100
19.500	1.512	0.100
19.600	-0.742	0.100
19.700	4.990	0.100
19.800	-1.544	0.100
19.900	-1.745	0.100
20.000	0.245	0.100
20.100	-33.382	0.100
20.200	-28.946	0.100
20.300	-9.285	0.100
20.400	9.091	0.100
20.500	5.309	0.100
20.600	15.199	0.100
20.700	-4.187	0.100
20.800	2.306	0.100
20.900	-3.076	0.100
21.000	0.825	0.100
21.100	-2.501	0.100
21.200	4.194	0.100
21.300	-6.938	0.100
21.400	-2.573	0.100
21.500	-7.264	0.100
21.600	9.595	0.100
21.700	3.286	0.100
21.800	0.697	0.100
21.900	-1.044	0.100
22.000	4.126	0.100
22.100	-14.308	0.100
22.200	3.644	0.100
22.300	-4.153	0.100
22.400	6.878	0.100
22.500	3.140	0.100
22.600	2.785	0.100
22.700	2.525	0.100
22.800	7.716	0.100
22.900	-15.426	0.100
23.000	-0.817	0.100
23.100	3.969	0.100
23.200	12.348	0.100
23.300	-0.754	0.100
23.400	12.286	0.100
23.500	-1.245	0.100
23.600	-5.663	0.100
23.700	-6.736	0.100
23.800	-2.382	0.100
23.900	8.793	0.100
24.000	-9.169	0.100
24.100	2.157	0.100
24.200	-2.321	0.100
24.300	-7.904	0.100
24.400	3.668	0.100
24.500	13.029	0.100
24.600	4.313	0.100
24.700	-10.301	0.100
24.800	-9.636	0.100
24.900	-2.835	0.100
25.000	-3.257	0.100
25.100	4.108	0.100
25.200	-1.558	0.100
25.300	15.814	0.100
25.400	3.166	0.100
25.500	2.201	0.100
25.600	0.250	0.100
25.700	-4.229	0.100
25.800	-7.010	0.100
25.900	0.022	0.100
26.000	4.590	0.100
26.100	1.648	0.100
26.200	4.572	0.100
26.300	-5.343	0.100
26.400	1.828	0.100
26.500	0.300	0.100
26.600	-1.293	0.100
26.700	-4.793	0.100
26.800	-7.062	0.100
26.900	-5.013	0.100
27.000	8.662	0.100
27.100	-10.507	0.100
27.200	11.594	0.100
27.300	6.772	0.100
27.400	1.998	0.100
27.500	-8.061	0.100
27.600	6.309	0.100
27.700	1.780	0.100
27.800	-1.469	0.100
27.900	5.252	0.100
28.000	-4.322	0.100
28.100	4.624	0.100
28.200	-4.835	0.100
28.300	4.906	0.100
28.400	10.218	0.100
28.500	-0.043	0.100
28.600	-0.052	0.100
28.700	-7.165	0.100
28.800	-0.587	0.100
28.900	2.321	0.100
29.000	-8.091	0.100
29.100	5.829	0.100
29.200	3.600	0.100
29.300	-2.648	0.100
29.400	-8.937	0.100
29.500	2.057	0.100
29.600	3.001	0.100
29.700	-1.997	0.100
29.800	4.528	0.100
29.900	10.101	0.100
30.000	6.903	0.100
30.100	-0.042	0.100
30.200	-4.747	0.100
30.300	6.784	0.100
30.400	22.929	0.100
30.500	26.452	0.100
30.600	13.385	0.100
30.700	19.765	0.100
30.800	23.678	0.100
30.900	16.698	0.100
31.000	11.311	0.100
31.100	32.916	0.100
31.200	15.248	0.100
31.300	17.396	0.100
31.400	20.983	0.100
31.500	23.376	0.100
31.600	28.932	0.100
31.700	27.257	0.100
31.800	29.395	0.100
31.900	35.909	0.100
32.000	38.939	0.100
32.100	28.353	0.100
32.200	29.546	0.100
32.300	29.548	0.100
32.400	29.836	0.100
32.500	19.743	0.100
32.600	39.692	0.100
32.700	23.512	0.100
32.800	22.652	0.100
32.900	35.197	0.100
33.000	29.707	0.100
33.100	35.163	0.100
33.200	38.279	0.100
33.300	48.438	0.100
33.400	38.921	0.100
33.500	37.873	0.100
33.600	33.345	0.100
33.700	38.102	0.100
33.800	31.109	0.100
33.900	19.729	0.100
34.000	39.853	0.100
34.100	42.985	0.100
34.200	34.867	0.100
34.300	38.397	0.100
34.400	33.950	0.100
34.500	22.029	0.100
34.600	38.358	0.100
34.700	43.735	0.100
34.800	38.148	0.100
34.900	26.249	0.100
35.000	49.954	0.100
35.100	41.734	0.100
35.200	29.053	0.100
35.300	27.139	0.100
35.400	35.338	0.100
35.500	23.906	0.100
35.600	19.667	0.100
35.700	32.723	0.100
35.800	36.731	0.100
35.900	27.371	0.100
36.000	40.766	0.100
36.100	38.837	0.100
36.200	28.324	0.100
36.300	18.412	0.100
36.400	35.012	0.100
36.500	38.778	0.100
36.600	42.023	0.100
36.700	41.588	0.100
36.800	28.430	0.100
36.900	31.847	0.100
37.000	29.559	0.100
37.100	25.296	0.100
37.200	44.792	0.100
37.300	39.155	0.100
37.400	36.115	0.100
37.500	26.992	0.100
37.600	33.982	0.100
37.700	40.245	0.100
37.800	35.035	0.100
37.900	38.188	0.100
38.000	33.568	0.100
38.100	43.294	0.100
38.200	29.033	0.100
38.300	46.911	0.100
38.400	45.972	0.100
38.500	39.240	0.100
38.600	37.920	0.100
38.700	24.191	0.100
38.800	38.585	0.100
38.900	28.153	0.100
39.000	32.694	0.100
39.100	34.305	0.100
39.200	42.627	0.100
39.300	44.065	0.100
39.400	41.408	0.100
39.500	25.177	0.100
39.600	42.316	0.100
39.700	37.737	0.100
39.800	33.794	0.100
39.900	29.774	0.100
40.000	35.886	0.100
40.100	43.167	0.100
40.200	33.491	0.100
40.300	43.562	0.100
40.400	39.902	0.100
40.500	29.264	0.100
40.600	34.492	0.100
40.700	28.616	0.100
40.800	24.737	0.100
40.900	42.049	0.100
41.000	37.106	0.100
41.100	29.885	0.100
41.200	32.589	0.100
41.300	26.388	0.100
41.400	38.349	0.100
41.500	25.345	0.100
41.600	21.548	0.100
41.700	45.460	0.100
41.800	49.827	0.100
41.900	47.831	0.100
42.000	17.584	0.100
42.100	37.867	0.100
42.200	42.320	0.100
42.300	24.770	0.100
42.400	36.433	0.100
42.500	35.134	0.100
42.600	20.862	0.100
42.700	22.430	0.100
42.800	42.343	0.100
42.900	46.254	0.100
43.000	31.683	0.100
43.100	24.811	0.100
43.200	28.869	0.100
43.300	30.296	0.100
43.400	48.538	0.100
43.500	25.503	0.100
43.600	23.143	0.100
43.700	35.295	0.100
43.800	40.477	0.100
43.900	26.760	0.100
44.000	46.017	0.100
44.100	34.516	0.100
44.200	28.186	0.100
44.300	38.675	0.100
44.400	28.696	0.100
44.500	33.344	0.100
44.600	34.464	0.100
44.700	36.502	0.100
44.800	31.327	0.100
44.900	39.933	0.100
45.000	36.499	0.100
45.100	31.627	0.100
45.200	26.860	0.100
45.300	22.680	0.100
45.400	26.315	0.100
45.500	31.975	0.100
45.600	42.454	0.100
45.700	43.294	0.100
45.800	35.782	0.100
45.900	29.686	0.100
46.000	20.887	0.100
46.100	27.313	0.100
46.200	42.348	0.100
46.300	36.629	0.100
46.400	38.217	0.100
46.500	37.502	0.100
46.600	44.373	0.100
46.700	29.076	0.100
46.800	29.860	0.100
46.900	19.511	0.100
47.000	43.033	0.100
47.100	35.644	0.100
47.200	55.878	0.100
47.300	28.606	0.100
47.400	14.015	0.100
47.500	35.478	0.100
47.600	22.939	0.100
47.700	47.310	0.100
47.800	32.507	0.100
47.900	43.712	0.100
48.000	32.380	0.100
48.100	20.325	0.100
48.200	38.483	0.100
48.300	40.752	0.100
48.400	33.603	0.100
48.500	31.949	0.100
48.600	33.831	0.100
48.700	26.576	0.100
48.800	38.926	0.100
48.900	21.735	0.100
49.000	26.484	0.100
49.100	39.434	0.100
49.200	33.078	0.100
49.300	28.844	0.100
49.400	37.104	0.100
49.500	18.907	0.100
49.600	38.119	0.100
49.700	43.344	0.100
49.800	43.074	0.100
49.900	34.047	0.100
50.000	31.459	0.100
50.100	34.881	0.100
50.200	32.075	0.100
50.300	25.914	0.100
50.400	32.761	0.100
50.500	49.492	0.100
50.600	44.414	0.100
50.700	41.286	0.100
50.800	24.069	0.100
50.900	30.299	0.100
51.000	36.192	0.100
51.100	38.025	0.100
51.200	33.051	0.100
51.300	29.283	0.100
51.400	35.942	0.100
51.500	42.354	0.100
51.600	45.907	0.100
51.700	34.358	0.100
51.800	45.404	0.100
51.900	37.538	0.100
52.000	27.699	0.100
52.100	25.457	0.100
52.200	24.236	0.100
52.300	39.735	0.100
52.400	33.503	0.100
52.500	46.329	0.100
52.600	40.011	0.100
52.700	35.845	0.100
52.800	20.997	0.100
52.900	41.874	0.100
53.000	31.332	0.100
53.100	40.997	0.100
53.200	37.835	0.100
53.300	31.448	0.100
53.400	36.263	0.100
53.500	36.195	0.100
53.600	45.692	0.100
53.700	36.493	0.100
53.800	26.203	0.100
53.900	40.860	0.100
54.000	35.583	0.100
54.100	39.624	0.100
54.200	43.413	0.100
54.300	36.165	0.100
54.400	17.354	0.100
54.500	40.939	0.100
54.600	41.503	0.100
54.700	35.332	0.100
54.800	44.553	0.100
54.900	35.264	0.100
55.000	39.271	0.100
55.100	29.939	0.100
55.200	18.862	0.100
55.300	32.349	0.100
55.400	22.384	0.100
55.500	34.735	0.100
55.600	31.941	0.100
55.700	32.176	0.100
55.800	30.595	0.100
55.900	40.432	0.100
56.000	28.215	0.100
56.100	46.941	0.100
56.200	41.093	0.100
56.300	44.757	0.100
56.400	37.359	0.100
56.500	35.774	0.100
56.600	33.076	0.100
56.700	33.829	0.100
56.800	32.766	0.100
56.900	49.823	0.100
57.000	30.627	0.100
57.100	43.520	0.100
57.200	29.894	0.100
57.300	38.665	0.100
57.400	39.741	0.100
57.500	28.434	0.100
57.600	27.057	0.100
57.700	46.424	0.100
57.800	41.747	0.100
57.900	39.534	0.100
58.000	36.725	0.100
58.100	40.350	0.100
58.200	47.448	0.100
58.300	50.273	0.100
58.400	30.196	0.100
58.500	25.262	0.100
58.600	43.147	0.100
58.700	34.508	0.100
58.800	38.381	0.100
58.900	30.887	0.100
59.000	45.548	0.100
59.100	29.912	0.100
59.200	43.705	0.100
59.300	41.800	0.100
59.400	36.732	0.100
59.500	40.365	0.100
59.600	37.435	0.100
59.700	30.627	0.100
59.800	33.516	0.100
59.900	38.881	0.100
60.000	46.922	0.100
60.100	37.492	0.100
60.200	32.065	0.100
60.300	35.853	0.100
60.400	39.724	0.100
60.500	37.532	0.100
60.600	37.608	0.100
60.700	39.725	0.100
60.800	25.426	0.100
60.900	26.707	0.100
61.000	41.133	0.100
61.100	52.099	0.100
61.200	40.155	0.100
61.300	45.561	0.100
61.400	36.312	0.100
61.500	34.218	0.100
61.600	27.879	0.100
61.700	27.228	0.100
61.800	49.869	0.100
61.900	37.332	0.100
62.000	38.831	0.100
62.100	36.782	0.100
62.200	32.815	0.100
62.300	41.390	0.100
62.400	41.636	0.100
62.500	44.376	0.100
62.600	43.338	0.100
62.700	39.197	0.100
62.800	22.914	0.100
62.900	33.327	0.100
63.000	35.724	0.100
63.100	34.322	0.100
63.200	38.171	0.100
63.300	39.448	0.100
63.400	38.732	0.100
63.500	41.589	0.100
63.600	30.112	0.100
63.700	40.431	0.100
63.800	39.891	0.100
63.900	35.333	0.100
64.000	34.068	0.100
64.100	40.789	0.100
64.200	35.226	0.100
64.300	37.213	0.100
64.400	41.963	0.100
64.500	32.339	0.100
64.600	33.615	0.100
64.700	41.578	0.100
64.800	31.912	0.100
64.900	21.632	0.100
65.000	47.464	0.100
65.100	43.486	0.100
65.200	29.646	0.100
65.300	48.769	0.100
65.400	48.422	0.100
65.500	41.373	0.100
65.600	44.311	0.100
65.700	34.560	0.100
65.800	35.633	0.100
65.900	41.613	0.100
66.000	52.337	0.100
66.100	26.691	0.100
66.200	33.842	0.100
66.300	35.123	0.100
66.400	44.296	0.100
66.500	31.852	0.100
66.600	36.992	0.100
66.700	38.891	0.100
66.800	40.089	0.100
66.900	44.980	0.100
67.000	43.730	0.100
67.100	32.839	0.100
67.200	36.852	0.100
67.300	39.801	0.100
67.400	37.887	0.100
67.500	28.647	0.100
67.600	36.537	0.100
67.700	35.737	0.100
67.800	38.651	0.100
67.900	40.315	0.100
68.000	41.153	0.100
68.100	55.018	0.100
68.200	42.236	0.100
68.300	39.574	0.100
68.400	38.516	0.100
68.500	41.118	0.100
68.600	43.028	0.100
68.700	45.000	0.100
68.800	41.764	0.100
68.900	44.512	0.100
69.000	16.706	0.100
69.100	29.336	0.100
69.200	40.955	0.100
69.300	48.283	0.100
69.400	25.561	0.100
69.500	38.008	0.100
69.600	51.558	0.100
69.700	48.903	0.100
69.800	35.499	0.100
69.900	38.334	0.100
70.000	40.594	0.100
70.100	27.898	0.100
70.200	45.848	0.100
70.300	44.082	0.100
70.400	40.967	0.100
70.500	35.223	0.100
70.600	32.265	0.100
70.700	41.053	0.100
70.800	40.475	0.100
70.900	28.095	0.100
71.000	37.473	0.100
71.100	45.023	0.100
71.200	46.884	0.100
71.300	40.692	0.100
71.400	28.374	0.100
71.500	36.485	0.100
71.600	37.359	0.100
71.700	37.997	0.100
71.800	37.698	0.100
71.900	34.737	0.100
72.000	25.784	0.100
72.100	44.533	0.100
72.200	48.281	0.100
72.300	43.341	0.100
72.400	33.048	0.100
72.500	45.524	0.100
72.600	30.113	0.100
72.700	39.453	0.100
72.800	34.326	0.100
72.900	41.074	0.100
73.000	52.509	0.100
73.100	38.975	0.100
73.200	34.508	0.100
73.300	49.535	0.100
73.400	40.442	0.100
73.500	48.509	0.100
73.600	39.886	0.100
73.700	39.088	0.100
73.800	41.589	0.100
73.900	28.860	0.100
74.000	42.903	0.100
74.100	43.588	0.100
74.200	28.788	0.100
74.300	36.130	0.100
74.400	36.541	0.100
74.500	45.437	0.100
74.600	56.917	0.100
74.700	32.283	0.100
74.800	53.542	0.100
74.900	42.224	0.100
75.000	35.183	0.100
75.100	21.311	0.100
75.200	34.429	0.100
75.300	43.131	0.100
75.400	44.793	0.100
75.500	47.031	0.100
75.600	42.730	0.100
75.700	41.746	0.100
75.800	38.824	0.100
75.900	35.890	0.100
76.000	42.024	0.100
76.100	43.424	0.100
76.200	36.459	0.100
76.300	41.890	0.100
76.400	33.533	0.100
76.500	42.923	0.100
76.600	34.546	0.100
76.700	35.190	0.100
76.800	31.961	0.100
76.900	48.076	0.100
77.000	47.510	0.100
77.100	53.460	0.100
77.200	37.751	0.100
77.300	29.320	0.100
77.400	42.955	0.100
77.500	48.043	0.100
77.600	47.084	0.100
77.700	40.962	0.100
77.800	41.434	0.100
77.900	41.704	0.100
78.000	29.562	0.100
78.100	38.209	0.100
78.200	46.277	0.100
78.300	54.486	0.100
78.400	33.150	0.100
78.500	45.180	0.100
78.600	38.406	0.100
78.700	33.147	0.100
78.800	36.224	0.100
78.900	47.871	0.100
79.000	37.534	0.100
79.100	37.603	0.100
79.200	36.362	0.100
79.300	28.620	0.100
79.400	32.260	0.100
79.500	46.956	0.100
79.600	24.714	0.100
79.700	31.418	0.100
79.800	46.359	0.100
79.900	43.851	0.100
80.000	44.090	0.100
80.100	50.260	0.100
80.200	30.321	0.100
80.300	46.044	0.100
80.400	41.288	0.100
80.500	45.007	0.100
80.600	38.120	0.100
80.700	41.369	0.100
80.800	33.983	0.100
80.900	43.107	0.100
81.000	43.458	0.100
81.100	34.687	0.100
81.200	47.295	0.100
81.300	32.769	0.100
81.400	34.314	0.100
81.500	36.979	0.100
81.600	45.473	0.100
81.700	31.195	0.100
81.800	37.655	0.100
81.900	34.227	0.100
82.000	44.717	0.100
82.100	46.700	0.100
82.200	46.785	0.100
82.300	42.495	0.100
82.400	44.099	0.100
82.500	48.669	0.100
82.600	43.074	0.100
82.700	40.427	0.100
82.800	41.598	0.100
82.900	33.826	0.100
83.000	46.507	0.100
83.100	42.112	0.100
83.200	36.715	0.100
83.300	35.633	0.100
83.400	34.549	0.100
83.500	43.127	0.100
83.600	34.663	0.100
83.700	26.733	0.100
83.800	38.020	0.100
83.900	36.705	0.100
84.000	40.086	0.100
84.100	53.006	0.100
84.200	48.192	0.100
84.300	35.133	0.100
84.400	49.418	0.100
84.500	48.041	0.100
84.600	30.758	0.100
84.700	43.941	0.100
84.800	43.835	0.100
84.900	43.852	0.100
85.000	49.846	0.100
85.100	39.254	0.100
85.200	31.448	0.100
85.300	41.779	0.100
85.400	49.964	0.100
85.500	38.559	0.100
85.600	40.372	0.100
85.700	41.123	0.100
85.800	33.636	0.100
85.900	42.987	0.100
86.000	42.919	0.100
86.100	37.332	0.100
86.200	34.029	0.100
86.300	30.070	0.100
86.400	46.595	0.100
86.500	55.667	0.100
86.600	39.264	0.100
86.700	37.237	0.100
86.800	43.551	0.100
86.900	45.695	0.100
87.000	50.264	0.100
87.100	44.908	0.100
87.200	35.552	0.100
87.300	39.635	0.100
87.400	39.935	0.100
87.500	36.507	0.100
87.600	45.885	0.100
87.700	41.675	0.100
87.800	44.376	0.100
87.900	26.165	0.100
88.000	34.081	0.100
88.100	41.661	0.100
88.200	48.946	0.100
88.300	45.084	0.100
88.400	41.870	0.100
88.500	36.292	0.100
88.600	34.979	0.100
88.700	28.486	0.100
88.800	37.563	0.100
88.900	50.311	0.100
89.000	38.589	0.100
89.100	41.858	0.100
89.200	45.308	0.100
89.300	63.702	0.100
89.400	39.096	0.100
89.500	49.264	0.100
89.600	40.199	0.100
89.700	44.934	0.100
89.800	38.471	0.100
89.900	45.023	0.100
90.000	26.930	0.100
90.100	40.261	0.100
90.200	49.679	0.100
90.300	29.710	0.100
90.400	34.786	0.100
90.500	32.448	0.100
90.600	32.251	0.100
90.700	25.962	0.100
90.800	31.353	0.100
90.900	6.512	0.100
91.000	28.775	0.100
91.100	25.160	0.100
91.200	40.565	0.100
91.300	20.232	0.100
91.400	21.468	0.100
91.500	19.276	0.100
91.600	14.579	0.100
91.700	15.589	0.100
91.800	6.146	0.100
91.900	21.497	0.100
92.000	21.894	0.100
92.100	5.301	0.100
92.200	13.498	0.100
92.300	20.537	0.100
92.400	22.776	0.100
92.500	4.466	0.100
92.600	0.387	0.100
92.700	13.978	0.100
92.800	12.904	0.100
92.900	9.882	0.100
93.000	14.096	0.100
93.100	8.262	0.100
93.200	15.431	0.100
93.300	-1.949	0.100
93.400	10.657	0.100
93.500	9.230	0.100
93.600	-0.329	0.100
93.700	-2.417	0.100
93.800	-5.021	0.100
93.900	20.105	0.100
94.000	-2.462	0.100
94.100	6.987	0.100
94.200	-8.771	0.100
94.300	8.467	0.100
94.400	0.360	0.100
94.500	1.083	0.100
94.600	16.882	0.100
94.700	14.056	0.100
94.800	0.554	0.100
94.900	6.395	0.100
95.000	7.145	0.100
95.100	-7.431	0.100
95.200	-10.244	0.100
95.300	7.133	0.100
95.400	9.965	0.100
95.500	6.629	0.100
95.600	-10.664	0.100
95.700	6.844	0.100
95.800	-2.205	0.100
95.900	12.026	0.100
96.000	0.421	0.100
96.100	-0.973	0.100
96.200	8.728	0.100
96.300	6.475	0.100
96.400	3.504	0.100
96.500	-14.419	0.100
96.600	-3.025	0.100
96.700	6.187	0.100
96.800	9.602	0.100
96.900	-5.941	0.100
97.000	3.047	0.100
97.100	0.186	0.100
97.200	6.952	0.100
97.300	-3.435	0.100
97.400	-2.801	0.100
97.500	2.683	0.100
97.600	1.607	0.100
97.700	0.732	0.100
97.800	-5.222	0.100
97.900	-4.289	0.100
98.000	-7.148	0.100
98.100	3.897	0.100
98.200	15.996	0.100
98.300	-6.411	0.100
98.400	0.325	0.100
98.500	-4.092	0.100
98.600	1.722	0.100
98.700	1.711	0.100
98.800	-1.119	0.100
98.900	3.192	0.100
99.000	11.162	0.100
99.100	-8.378	0.100
99.200	-4.280	0.100
99.300	-5.756	0.100
99.400	3.549	0.100
99.500	8.472	0.100
99.600	13.517	0.100
99.700	3.062	0.100
99.800	-1.211	0.100
99.900	13.816	0.100
100.000	-3.853	0.100
100.100	4.256	0.100
100.200	9.441	0.100
100.300	0.040	0.100
100.400	-11.654	0.100
100.500	-11.415	0.100
100.600	15.495	0.100
100.700	6.320	0.100
100.800	8.420	0.100
100.900	-2.013	0.100
101.000	4.096	0.100
101.100	3.647	0.100
101.200	-0.079	0.100
101.300	7.123	0.100
101.400	-12.488	0.100
101.500	-5.252	0.100
101.600	-0.114	0.100
101.700	0.242	0.100
101.800	-2.260	0.100
101.900	16.497	0.100
102.000	0.416	0.100
102.100	6.088	0.100
102.200	-9.673	0.100
102.300	6.682	0.100
102.400	-0.677	0.100
102.500	-10.111	0.100
102.600	-3.945	0.100
102.700	5.925	0.100
102.800	-3.416	0.100
102.900	10.018	0.100
103.000	6.756	0.100
103.100	-9.542	0.100
103.200	7.196	0.100
103.300	2.399	0.100
103.400	7.959	0.100
103.500	17.409	0.100
103.600	1.010	0.100
103.700	-2.731	0.100
103.800	7.442	0.100
103.900	-9.496	0.100
104.000	-3.468	0.100
104.100	1.820	0.100
104.200	-2.519	0.100
104.300	6.977	0.100
104.400	4.422	0.100
104.500	-1.123	0.100
104.600	7.215	0.100
104.700	0.424	0.100
104.800	-2.647	0.100
104.900	-5.230	0.100
105.000	-0.689	0.100
105.100	5.486	0.100
105.200	2.036	0.100
105.300	6.720	0.100
105.400	4.250	0.100
105.500	3.519	0.100
105.600	-10.347	0.100
105.700	-7.694	0.100
105.800	1.021	0.100
105.900	-7.084	0.100
106.000	-4.745	0.100
106.100	2.940	0.100
106.200	1.427	0.100
106.300	4.164	0.100
106.400	7.423	0.100
106.500	6.695	0.100
106.600	-8.053	0.100
106.700	2.492	0.100
106.800	-0.744	0.100
106.900	1.382	0.100
107.000	7.730	0.100
107.100	4.292	0.100
107.200	3.093	0.100
107.300	-5.010	0.100
107.400	4.432	0.100
107.500	9.833	0.100
107.600	6.994	0.100
107.700	9.531	0.100
107.800	-3.216	0.100
107.900	1.186	0.100
108.000	1.091	0.100
108.100	1.359	0.100
108.200	-2.500	0.100
108.300	-5.919	0.100
108.400	3.726	0.100
108.500	3.842	0.100
108.600	1.953	0.100
108.700	3.686	0.100
108.800	1.206	0.100
108.900	-0.451	0.100
109.000	4.513	0.100
109.100	-10.674	0.100
109.200	6.657	0.100
109.300	-10.369	0.100
109.400	-4.034	0.100
109.500	-7.005	0.100
109.600	-3.926	0.100
109.700	-7.928	0.100
109.800	-2.375	0.100
109.900	4.965	0.100
110.000	0.292	0.100
110.100	-4.602	0.100
110.200	-0.478	0.100
110.300	-2.112	0.100
110.400	0.378	0.100
110.500	6.438	0.100
110.600	-7.048	0.100
110.700	0.165	0.100
110.800	-4.548	0.100
110.900	-4.996	0.100
111.000	2.073	0.100
111.100	-15.851	0.100
111.200	6.975	0.100
111.300	5.076	0.100
111.400	-2.356	0.100
111.500	3.036	0.100
111.600	-5.150	0.100
111.700	-4.555	0.100
111.800	5.725	0.100
111.900	8.135	0.100
112.000	-8.776	0.100
112.100	-4.931	0.100
112.200	6.128	0.100
112.300	-19.557	0.100
112.400	-8.858	0.100
112.500	8.893	0.100
112.600	-11.326	0.100
112.700	-8.476	0.100
112.800	-0.923	0.100
112.900	-2.694	0.100
113.000	7.444	0.100
113.100	-1.311	0.100
113.200	-7.438	0.100
113.300	11.180	0.100
113.400	-5.288	0.100
113.500	5.100	0.100
113.600	-6.918	0.100
113.700	-4.878	0.100
113.800	4.491	0.100
113.900	4.996	0.100
114.000	-1.846	0.100
114.100	-15.818	0.100
114.200	-8.189	0.100
114.300	1.114	0.100
114.400	-6.776	0.100
114.500	1.212	0.100
114.600	0.563	0.100
114.700	-5.488	0.100
114.800	-8.418	0.100
114.900	11.835	0.100
115.000	-1.932	0.100
115.100	2.909	0.100
115.200	-1.137	0.100
115.300	3.690	0.100
115.400	-9.865	0.100
115.500	6.030	0.100
115.600	-6.188	0.100
115.700	-12.574	0.100
115.800	-3.880	0.100
115.900	-1.807	0.100
116.000	3.088	0.100
116.100	-2.704	0.100
116.200	-3.914	0.100
116.300	5.247	0.100
116.400	-3.750	0.100
116.500	-4.866	0.100
116.600	-13.358	0.100
116.700	-2.483	0.100
116.800	-4.755	0.100
116.900	6.479	0.100
117.000	-0.342	0.100
117.100	-2.612	0.100
117.200	-11.412	0.100
117.300	-2.202	0.100
117.400	3.161	0.100
117.500	-2.720	0.100
117.600	1.276	0.100
117.700	-13.917	0.100
117.800	1.245	0.100
117.900	-0.351	0.100
118.000	-9.681	0.100
118.100	-1.551	0.100
118.200	-12.166	0.100
118.300	2.779	0.100
118.400	-14.947	0.100
118.500	-10.888	0.100
118.600	-6.050	0.100
118.700	4.307	0.100
118.800	-0.109	0.100
118.900	2.268	0.100
119.000	-2.305	0.100
119.100	4.403	0.100
119.200	-1.851	0.100
119.300	10.155	0.100
119.400	-4.041	0.100
119.500	-8.980	0.100
119.600	-5.938	0.100
119.700	-3.511	0.100
119.800	-15.386	0.100
119.900	-2.690	0.100
120.000	-10.181	0.100
120.100	-1.621	0.100
120.200	-12.112	0.100
120.300	0.366	0.100
120.400	-6.505	0.100
120.500	-17.845	0.100
120.600	-2.587	0.100
120.700	7.306	0.100
120.800	-6.369	0.100
120.900	-0.075	0.100
121.000	-7.527	0.100
121.100	2.612	0.100
121.200	-9.380	0.100
121.300	-5.706	0.100
121.400	1.633	0.100
121.500	-9.024	0.100
121.600	-13.124	0.100
121.700	3.192	0.100
121.800	-17.658	0.100
121.900	-4.300	0.100
122.000	4.439	0.100
122.100	-14.483	0.100
122.200	1.167	0.100
122.300	-6.358	0.100
122.400	-4.634	0.100
122.500	-9.002	0.100
122.600	-6.139	0.100
122.700	-10.395	0.100
122.800	-22.681	0.100
122.900	1.605	0.100
123.000	0.790	0.100
123.100	-11.581	0.100
123.200	-0.986	0.100
123.300	-10.195	0.100
123.400	-13.400	0.100
123.500	-1.818	0.100
123.600	-11.044	0.100
123.700	-10.353	0.100
123.800	-6.723	0.100
123.900	1.686	0.100
124.000	-15.946	0.100
124.100	-1.353	0.100
124.200	3.552	0.100
124.300	-5.371	0.100
124.400	0.482	0.100
124.500	-11.297	0.100
124.600	-23.022	0.100
124.700	-18.135	0.100
124.800	-14.971	0.100
124.900	1.876	0.100
125.000	1.778	0.100
125.100	-9.957	0.100
125.200	-3.339	0.100
125.300	3.108	0.100
125.400	-0.591	0.100
125.500	2.010	0.100
125.600	-10.306	0.100
125.700	1.549	0.100
125.800	-9.681	0.100
125.900	3.345	0.100
126.000	-4.325	0.100
126.100	11.632	0.100
126.200	-12.009	0.100
126.300	-1.145	0.100
126.400	-21.615	0.100
126.500	-13.009	0.100
126.600	-2.343	0.100
126.700	-13.033	0.100
126.800	-11.916	0.100
126.900	0.046	0.100
127.000	-2.807	0.100
127.100	-8.200	0.100
127.200	-10.027	0.100
127.300	-5.595	0.100
127.400	-11.042	0.100
127.500	-2.561	0.100
127.600	-12.796	0.100
127.700	-14.726	0.100
127.800	-13.648	0.100
127.900	-16.703	0.100
128.000	-11.043	0.100
128.100	0.304	0.100
128.200	-0.442	0.100
128.300	-1.920	0.100
128.400	8.245	0.100
128.500	9.350	0.100
128.600	-7.824	0.100
128.700	0.302	0.100
128.800	-9.713	0.100
128.900	-3.598	0.100
129.000	-7.602	0.100
129.100	-5.656	0.100
129.200	-5.371	0.100
129.300	-9.678	0.100
129.400	-1.386	0.100
129.500	-2.755	0.100
129.600	-4.176	0.100
129.700	-11.838	0.100
129.800	1.246	0.100
129.900	4.466	0.100
130.000	-8.630	0.100
130.100	-14.763	0.100
130.200	-10.663	0.100
130.300	-13.480	0.100
130.400	-6.445	0.100
130.500	-19.173	0.100
130.600	-11.866	0.100
130.700	-13.647	0.100
130.800	-2.849	0.100
130.900	-19.873	0.100
131.000	-15.500	0.100
131.100	-4.594	0.100
131.200	5.066	0.100
131.300	-11.281	0.100
131.400	-3.700	0.100
131.500	0.458	0.100
131.600	-7.490	0.100
131.700	-3.314	0.100
131.800	-13.527	0.100
131.900	-5.501	0.100
132.000	-1.462	0.100
132.100	-10.303	0.100
132.200	-21.624	0.100
132.300	-10.624	0.100
132.400	-2.325	0.100
132.500	0.570	0.100
132.600	-11.128	0.100
132.700	-23.666	0.100
132.800	4.045	0.100
132.900	-8.077	0.100
133.000	-5.686	0.100
133.100	-9.966	0.100
133.200	-5.687	0.100
133.300	-6.814	0.100
133.400	-8.499	0.100
133.500	-4.947	0.100
133.600	-26.425	0.100
133.700	4.179	0.100
133.800	0.333	0.100
133.900	-6.194	0.100
134.000	-0.461	0.100
134.100	-6.238	0.100
134.200	-12.633	0.100
134.300	-10.938	0.100
134.400	-19.522	0.100
134.500	-7.843	0.100
134.600	-5.295	0.100
134.700	-14.432	0.100
134.800	-7.019	0.100
134.900	-6.824	0.100
135.000	-6.516	0.100
135.100	-15.787	0.100
135.200	-1.249	0.100
135.300	-16.882	0.100
135.400	-2.884	0.100
135.500	-7.903	0.100
135.600	-15.043	0.100
135.700	-6.598	0.100
135.800	0.123	0.100
135.900	-8.823	0.100
136.000	3.183	0.100
136.100	-0.179	0.100
136.200	-14.890	0.100
136.300	-25.453	0.100
136.400	-18.903	0.100
136.500	-5.061	0.100
136.600	9.581	0.100
136.700	2.302	0.100
136.800	3.830	0.100
136.900	-14.736	0.100
137.000	-12.433	0.100
137.100	-9.117	0.100
137.200	-17.236	0.100
137.300	-12.518	0.100
137.400	-3.186	0.100
137.500	-2.940	0.100
137.600	-12.030	0.100
137.700	-11.457	0.100
137.800	-7.760	0.100
137.900	-2.555	0.100
138.000	-16.654	0.100
138.100	-8.351	0.100
138.200	-7.762	0.100
138.300	3.864	0.100
138.400	-22.587	0.100
138.500	-6.919	0.100
138.600	-8.828	0.100
138.700	-15.307	0.100
138.800	6.660	0.100
138.900	-10.664	0.100
139.000	-4.636	0.100
139.100	4.543	0.100
139.200	-5.387	0.100
139.300	-12.037	0.100
139.400	-10.808	0.100
139.500	-6.923	0.100
139.600	-9.137	0.100
139.700	-2.155	0.100
139.800	-11.859	0.100
139.900	1.957	0.100
140.000	-12.167	0.100
140.100	-11.024	0.100
140.200	-5.206	0.100
140.300	-18.180	0.100
140.400	-0.221	0.100
140.500	-6.322	0.100
140.600	-9.540	0.100
140.700	-9.790	0.100
140.800	-21.940	0.100
140.900	-1.032	0.100
141.000	0.431	0.100
141.100	-15.462	0.100
141.200	-9.658	0.100
141.300	-10.269	0.100
141.400	-12.385	0.100
141.500	-10.741	0.100
141.600	-13.543	0.100
141.700	-12.438	0.100
141.800	-3.885	0.100
141.900	-10.932	0.100
142.000	-10.885	0.100
142.100	-5.914	0.100
142.200	-8.900	0.100
142.300	0.043	0.100
142.400	-12.896	0.100
142.500	-13.265	0.100
142.600	4.799	0.100
142.700	-0.458	0.100
142.800	-2.070	0.100
142.900	-6.733	0.100
143.000	-4.046	0.100
143.100	-8.679	0.100
143.200	-13.031	0.100
143.300	-5.210	0.100
143.400	-2.161	0.100
143.500	-7.524	0.100
143.600	-3.744	0.100
143.700	-7.924	0.100
143.800	-8.657	0.100
143.900	-7.202	0.100
144.000	-5.578	0.100
144.100	-16.163	0.100
144.200	-15.761	0.100
144.300	-14.145	0.100
144.400	-9.139	0.100
144.500	-10.592	0.100
144.600	-8.231	0.100
144.700	-13.797	0.100
144.800	-10.661	0.100
144.900	-2.950	0.100
145.000	-20.716	0.100
145.100	-1.464	0.100
145.200	-1.303	0.100
145.300	5.613	0.100
145.400	-12.267	0.100
145.500	-8.868	0.100
145.600	-9.643	0.100
145.700	-14.978	0.100
145.800	2.561	0.100
145.900	-14.423	0.100
146.000	-7.911	0.100
146.100	-12.916	0.100
146.200	-3.069	0.100
146.300	-3.700	0.100
146.400	-10.936	0.100
146.500	-10.121	0.100
146.600	8.098	0.100
146.700	-7.513	0.100
146.800	-0.390	0.100
146.900	-5.175	0.100
147.000	-5.302	0.100
147.100	4.331	0.100
147.200	-8.323	0.100
147.300	-14.551	0.100
147.400	-8.402	0.100
147.500	-4.758	0.100
147.600	-13.577	0.100
147.700	-5.649	0.100
147.800	-9.070	0.100
147.900	-9.114	0.100
148.000	-29.854	0.100
148.100	-11.983	0.100
148.200	-2.563	0.100
148.300	-7.239	0.100
148.400	-11.829	0.100
148.500	1.462	0.100
148.600	-2.760	0.100
148.700	-14.383	0.100
148.800	-2.137	0.100
148.900	-9.557	0.100
149.000	-8.653	0.100
149.100	-2.874	0.100
149.200	-6.452	0.100
149.300	-8.145	0.100
149.400	-11.740	0.100
149.500	-18.469	0.100
149.600	3.320	0.100
149.700	-14.201	0.100
149.800	-13.331	0.100
149.900	-15.061	0.100
150.000	0.392	0.100
150.100	-11.793	0.100
150.200	-23.090	0.100
150.300	-9.304	0.100
150.400	0.525	0.100
150.500	-10.181	0.100
150.600	-15.980	0.100
150.700	-17.105	0.100
150.800	-16.351	0.100
150.900	7.136	0.100
151.000	-1.489	0.100
151.100	-24.239	0.100
151.200	-5.579	0.100
151.300	10.084	0.100
151.400	0.738	0.100
151.500	-10.142	0.100
151.600	-8.556	0.100
151.700	0.596	0.100
151.800	-5.947	0.100
151.900	-8.215	0.100
152.000	-9.661	0.100
152.100	-3.094	0.100
152.200	-6.696	0.100
152.300	-10.164	0.100
152.400	-15.969	0.100
152.500	-3.716	0.100
152.600	-10.730	0.100
152.700	-2.722	0.100
152.800	-13.107	0.100
152.900	0.601	0.100
153.000	-4.261	0.100
153.100	1.626	0.100
153.200	-0.365	0.100
153.300	-7.466	0.100
153.400	-9.932	0.100
153.500	-7.057	0.100
153.600	-3.369	0.100
153.700	-2.157	0.100
153.800	-16.141	0.100
153.900	-3.231	0.100
154.000	-21.102	0.100
154.100	-8.086	0.100
154.200	-5.886	0.100
154.300	-6.807	0.100
154.400	-7.369	0.100
154.500	0.538	0.100
154.600	-2.612	0.100
154.700	-8.261	0.100
154.800	2.286	0.100
154.900	-18.016	0.100
155.000	-13.577	0.100
155.100	-13.980	0.100
155.200	-16.919	0.100
155.300	3.449	0.100
155.400	-0.290	0.100
155.500	-6.400	0.100
155.600	-3.366	0.100
155.700	-1.371	0.100
155.800	-2.508	0.100
155.900	-11.431	0.100
156.000	-5.411	0.100
156.100	-8.332	0.100
156.200	3.729	0.100
156.300	-12.298	0.100
156.400	-10.900	0.100
156.500	-7.801	0.100
156.600	0.284	0.100
156.700	-10.598	0.100
156.800	-18.475	0.100
156.900	-3.829	0.100
157.000	-9.357	0.100
157.100	-7.978	0.100
157.200	-10.027	0.100
157.300	-5.202	0.100
157.400	3.165	0.100
157.500	-5.838	0.100
157.600	-16.854	0.100
157.700	-4.615	0.100
157.800	-3.227	0.100
157.900	1.450	0.100
158.000	-1.619	0.100
158.100	1.805	0.100
158.200	-3.760	0.100
158.300	-4.022	0.100
158.400	-16.518	0.100
158.500	-0.684	0.100
158.600	-1.305	0.100
158.700	-11.310	0.100
158.800	-12.839	0.100
158.900	-2.406	0.100
159.000	-5.826	0.100
159.100	1.456	0.100
159.200	-0.921	0.100
159.300	-11.333	0.100
159.400	-12.551	0.100
159.500	-16.952	0.100
159.600	-16.225	0.100
159.700	-8.408	0.100
159.800	-0.481	0.100
159.900	-2.215	0.100
160.000	-14.232	0.100
160.100	11.129	0.100
160.200	-1.200	0.100
160.300	6.487	0.100
160.400	-3.849	0.100
160.500	1.905	0.100
160.600	-2.614	0.100
160.700	-13.255	0.100
160.800	-9.467	0.100
160.900	-1.268	0.100
161.000	-8.438	0.100
161.100	-16.543	0.100
161.200	0.558	0.100
161.300	-6.965	0.100
161.400	-7.701	0.100
161.500	-2.496	0.100
161.600	-15.825	0.100
161.700	-15.696	0.100
161.800	6.702	0.100
161.900	9.844	0.100
162.000	-15.346	0.100
162.100	-11.155	0.100
162.200	0.912	0.100
162.300	-13.615	0.100
162.400	-5.423	0.100
162.500	0.048	0.100
162.600	-1.293	0.100
162.700	-9.506	0.100
162.800	-8.906	0.100
162.900	-23.484	0.100
163.000	-8.758	0.100
163.100	2.664	0.100
163.200	-15.211	0.100
163.300	2.826	0.100
163.400	-8.991	0.100
163.500	1.740	0.100
163.600	-6.827	0.100
163.700	-5.420	0.100
163.800	-5.572	0.100
163.900	-13.165	0.100
164.000	-7.774	0.100
164.100	-4.207	0.100
164.200	-7.577	0.100
164.300	-4.669	0.100
164.400	-3.090	0.100
164.500	-8.638	0.100
164.600	-3.756	0.100
164.700	2.084	0.100
164.800	1.801	0.100
164.900	-4.667	0.100
165.000	0.533	0.100
165.100	-11.241	0.100
165.200	-3.556	0.100
165.300	-18.025	0.100
165.400	-12.587	0.100
165.500	-12.485	0.100
165.600	-9.141	0.100
165.700	-9.017	0.100
165.800	-19.204	0.100
165.900	-14.426	0.100
166.000	0.248	0.100
166.100	-9.056	0.100
166.200	3.364	0.100
166.300	4.818	0.100
166.400	7.978	0.100
166.500	-11.639	0.100
166.600	-10.994	0.100
166.700	-1.836	0.100
166.800	-13.922	0.100
166.900	4.492	0.100
167.000	-8.109	0.100
167.100	-9.373	0.100
167.200	-8.402	0.100
167.300	-9.411	0.100
167.400	-5.193	0.100
167.500	-12.218	0.100
167.600	0.202	0.100
167.700	-7.229	0.100
167.800	-8.122	0.100
167.900	0.752	0.100
168.000	-5.933	0.100
168.100	-11.605	0.100
168.200	2.803	0.100
168.300	-15.593	0.100
168.400	-6.101	0.100
168.500	-1.523	0.100
168.600	-0.403	0.100
168.700	2.061	0.100
168.800	-0.014	0.100
168.900	-0.609	0.100
169.000	-22.271	0.100
169.100	-18.513	0.100
169.200	-0.020	0.100
169.300	-2.819	0.100
169.400	2.218	0.100
169.500	4.538	0.100
169.600	-5.835	0.100
169.700	-8.564	0.100
169.800	0.047	0.100
169.900	1.627	0.100
170.000	1.119	0.100
170.100	-1.681	0.100
170.200	-6.296	0.100
170.300	-8.770	0.100
170.400	-1.457	0.100
170.500	-9.853	0.100
170.600	-10.900	0.100
170.700	-1.097	0.100
170.800	-7.819	0.100
170.900	-20.611	0.100
171.000	6.072	0.100
171.100	-3.305	0.100
171.200	-5.187	0.100
171.300	-10.984	0.100
171.400	-3.598	0.100
171.500	-6.942	0.100
171.600	3.458	0.100
171.700	-15.233	0.100
171.800	-19.407	0.100
171.900	-7.142	0.100
172.000	-3.344	0.100
172.100	-7.185	0.100
172.200	-4.134	0.100
172.300	-12.115	0.100
172.400	-19.123	0.100
172.500	7.854	0.100
172.600	2.276	0.100
172.700	-10.666	0.100
172.800	0.174	0.100
172.900	-11.662	0.100
173.000	6.107	0.100
173.100	-10.127	0.100
173.200	-8.974	0.100
173.300	-11.927	0.100
173.400	4.206	0.100
173.500	4.055	0.100
173.600	-9.046	0.100
173.700	-4.415	0.100
173.800	3.645	0.100
173.900	-6.478	0.100
174.000	-6.468	0.100
174.100	-8.622	0.100
174.200	-6.858	0.100
174.300	-4.467	0.100
174.400	-9.113	0.100
174.500	-6.766	0.100
174.600	7.723	0.100
174.700	-0.963	0.100
174.800	-9.262	0.100
174.900	-5.778	0.100
175.000	-1.858	0.100
175.100	-9.791	0.100
175.200	-3.167	0.100
175.300	-3.040	0.100
175.400	-18.188	0.100
175.500	-8.282	0.100
175.600	-10.332	0.100
175.700	-9.110	0.100
175.800	-18.866	0.100
175.900	4.206	0.100
176.000	3.983	0.100
176.100	-6.544	0.100
176.200	0.583	0.100
176.300	-0.158	0.100
176.400	-6.262	0.100
176.500	-18.906	0.100
176.600	-0.143	0.100
176.700	-7.123	0.100
176.800	-4.401	0.100
176.900	-8.489	0.100
177.000	-10.087	0.100
177.100	-3.430	0.100
177.200	-2.188	0.100
177.300	-3.220	0.100
177.400	-5.346	0.100
177.500	-3.282	0.100
177.600	1.882	0.100
177.700	-10.879	0.100
177.800	-6.193	0.100
177.900	-9.548	0.100
178.000	-15.502	0.100
178.100	12.727	0.100
178.200	-0.168	0.100
178.300	3.359	0.100
178.400	0.388	0.100
178.500	-7.173	0.100
178.600	-16.896	0.100
178.700	-3.565	0.100
178.800	-11.109	0.100
178.900	0.012	0.100
179.000	-7.667	0.100
179.100	-2.929	0.100
179.200	-1.655	0.100
179.300	7.041	0.100
179.400	5.355	0.100
179.500	-7.527	0.100
179.600	4.274	0.100
179.700	-10.344	0.100
179.800	-8.714	0.100
179.900	-7.486	0.100
180.000	12.438	0.100
180.100	3.413	0.100
180.200	9.865	0.100
180.300	4.682	0.100
180.400	10.313	0.100
180.500	19.278	0.100
180.600	15.132	0.100
180.700	25.756	0.100
180.800	26.440	0.100
180.900	27.511	0.100
181.000	28.852	0.100
181.100	30.859	0.100
181.200	26.604	0.100
181.300	35.231	0.100
181.400	33.598	0.100
181.500	34.796	0.100
181.600	38.261	0.100
181.700	36.900	0.100
181.800	38.004	0.100
181.900	40.497	0.100
182.000	45.602	0.100
182.100	46.391	0.100
182.200	46.011	0.100
182.300	45.473	0.100
182.400	49.658	0.100
182.500	51.977	0.100
182.600	29.873	0.100
182.700	50.855	0.100
182.800	50.777	0.100
182.900	45.826	0.100
183.000	51.557	0.100
183.100	27.471	0.100
183.200	43.352	0.100
183.300	47.273	0.100
183.400	55.759	0.100
183.500	56.445	0.100
183.600	47.609	0.100
183.700	43.270	0.100
183.800	47.954	0.100
183.900	49.298	0.100
184.000	42.012	0.100
184.100	49.890	0.100
184.200	44.902	0.100
184.300	51.162	0.100
184.400	50.308	0.100
184.500	48.005	0.100
184.600	38.392	0.100
184.700	47.321	0.100
184.800	45.138	0.100
184.900	41.859	0.100
185.000	38.229	0.100
185.100	40.655	0.100
185.200	47.047	0.100
185.300	38.729	0.100
185.400	31.102	0.100
185.500	36.929	0.100
185.600	41.608	0.100
185.700	54.854	0.100
185.800	40.390	0.100
185.900	44.041	0.100
186.000	44.897	0.100
186.100	39.787	0.100
186.200	41.618	0.100
186.300	35.183	0.100
186.400	28.985	0.100
186.500	45.605	0.100
186.600	36.456	0.100
186.700	29.238	0.100
186.800	28.767	0.100
186.900	33.258	0.100
187.000	38.752	0.100
187.100	25.642	0.100
187.200	42.012	0.100
187.300	44.133	0.100
187.400	39.562	0.100
187.500	26.110	0.100
187.600	34.189	0.100
187.700	47.756	0.100
187.800	42.761	0.100
187.900	37.789	0.100
188.000	36.928	0.100
188.100	30.359	0.100
188.200	55.277	0.100
188.300	46.872	0.100
188.400	30.266	0.100
188.500	27.448	0.100
188.600	39.227	0.100
188.700	43.610	0.100
188.800	39.223	0.100
188.900	38.390	0.100
189.000	34.666	0.100
189.100	32.324	0.100
189.200	34.955	0.100
189.300	40.703	0.100
189.400	32.428	0.100
189.500	32.904	0.100
189.600	34.423	0.100
189.700	35.533	0.100
189.800	37.062	0.100
189.900	41.633	0.100
190.000	39.562	0.100
190.100	30.150	0.100
190.200	46.537	0.100
190.300	48.938	0.100
190.400	37.168	0.100
190.500	26.342	0.100
190.600	29.246	0.100
190.700	36.518	0.100
190.800	40.298	0.100
190.900	27.097	0.100
191.000	39.821	0.100
191.100	42.742	0.100
191.200	38.480	0.100
191.300	47.547	0.100
191.400	42.098	0.100
191.500	35.283	0.100
191.600	37.433	0.100
191.700	45.740	0.100
191.800	30.814	0.100
191.900	45.086	0.100
192.000	34.528	0.100
192.100	37.316	0.100
192.200	29.264	0.100
192.300	32.622	0.100
192.400	30.970	0.100
192.500	40.884	0.100
192.600	36.561	0.100
192.700	46.417	0.100
192.800	40.041	0.100
192.900	41.080	0.100
193.000	46.053	0.100
193.100	43.732	0.100
193.200	32.026	0.100
193.300	41.775	0.100
193.400	37.766	0.100
193.500	39.332	0.100
193.600	42.635	0.100
193.700	42.024	0.100
193.800	46.316	0.100
193.900	38.693	0.100
194.000	43.677	0.100
194.100	46.492	0.100
194.200	51.060	0.100
194.300	46.698	0.100
194.400	44.644	0.100
194.500	34.452	0.100
194.600	26.394	0.100
194.700	49.044	0.100
194.800	34.608	0.100
194.900	34.934	0.100
195.000	41.298	0.100
195.100	44.951	0.100
195.200	49.586	0.100
195.300	38.089	0.100
195.400	35.319	0.100
195.500	27.848	0.100
195.600	41.317	0.100
195.700	39.597	0.100
195.800	48.774	0.100
195.900	38.793	0.100
196.000	33.128	0.100
196.100	56.808	0.100
196.200	44.445	0.100
196.300	46.647	0.100
196.400	38.045	0.100
196.500	39.551	0.100
196.600	71.880	0.100
196.700	49.888	0.100
196.800	51.236	0.100
196.900	40.502	0.100
197.000	33.329	0.100
197.100	28.712	0.100
197.200	31.396	0.100
197.300	46.657	0.100
197.400	42.891	0.100
197.500	46.471	0.100
197.600	27.833	0.100
197.700	51.517	0.100
197.800	32.039	0.100
197.900	39.221	0.100
198.000	47.065	0.100
198.100	44.106	0.100
198.200	54.387	0.100
198.300	47.941	0.100
198.400	44.528	0.100
198.500	42.795	0.100
198.600	41.438	0.100
198.700	37.878	0.100
198.800	50.814	0.100
198.900	40.816	0.100
199.000	45.909	0.100
199.100	42.909	0.100
199.200	42.907	0.100
199.300	34.758	0.100
199.400	56.229	0.100
199.500	32.592	0.100
199.600	29.908	0.100
199.700	66.608	0.100
199.800	51.162	0.100
199.900	43.191	0.100
200.000	51.038	0.100
200.100	47.367	0.100
200.200	39.944	0.100
200.300	35.107	0.100
200.400	53.192	0.100
200.500	40.828	0.100
200.600	42.240	0.100
200.700	44.326	0.100
200.800	43.606	0.100
200.900	38.123	0.100
201.000	42.840	0.100
201.100	39.723	0.100
201.200	39.063	0.100
201.300	57.262	0.100
201.400	46.650	0.100
201.500	41.790	0.100
201.600	51.727	0.100
201.700	43.435	0.100
201.800	44.015	0.100
201.900	36.666	0.100
202.000	44.395	0.100
202.100	53.508	0.100
202.200	33.206	0.100
202.300	46.631	0.100
202.400	59.274	0.100
202.500	48.454	0.100
202.600	50.591	0.100
202.700	41.011	0.100
202.800	37.992	0.100
202.900	55.196	0.100
203.000	45.190	0.100
203.100	42.003	0.100
203.200	45.432	0.100
203.300	49.330	0.100
203.400	41.587	0.100
203.500	48.039	0.100
203.600	57.850	0.100
203.700	52.437	0.100
203.800	49.891	0.100
203.900	44.123	0.100
204.000	36.654	0.100
204.100	31.943	0.100
204.200	52.973	0.100
204.300	51.547	0.100
204.400	55.929	0.100
204.500	47.177	0.100
204.600	50.652	0.100
204.700	46.781	0.100
204.800	45.438	0.100
204.900	30.376	0.100
205.000	49.057	0.100
205.100	59.389	0.100
205.200	52.240	0.100
205.300	42.427	0.100
205.400	37.316	0.100
205.500	45.261	0.100
205.600	44.388	0.100
205.700	38.582	0.100
205.800	57.401	0.100
205.900	56.716	0.100
206.000	37.192	0.100
206.100	48.218	0.100
206.200	45.582	0.100
206.300	42.122	0.100
206.400	46.257	0.100
206.500	52.163	0.100
206.600	49.611	0.100
206.700	39.733	0.100
206.800	42.195	0.100
206.900	40.511	0.100
207.000	43.115	0.100
207.100	45.655	0.100
207.200	47.663	0.100
207.300	43.269	0.100
207.400	50.929	0.100
207.500	38.432	0.100
207.600	46.122	0.100
207.700	46.015	0.100
207.800	53.579	0.100
207.900	52.537	0.100
208.000	56.445	0.100
208.100	53.664	0.100
208.200	39.073	0.100
208.300	39.349	0.100
208.400	48.140	0.100
208.500	33.593	0.100
208.600	63.018	0.100
208.700	51.844	0.100
208.800	42.593	0.100
208.900	56.238	0.100
209.000	48.291	0.100
209.100	56.317	0.100
209.200	50.090	0.100
209.300	43.678	0.100
209.400	60.649	0.100
209.500	28.024	0.100
209.600	41.678	0.100
209.700	50.039	0.100
209.800	49.866	0.100
209.900	34.674	0.100
210.000	44.454	0.100
210.100	46.841	0.100
210.200	44.189	0.100
210.300	28.314	0.100
210.400	58.001	0.100
210.500	42.287	0.100
210.600	46.479	0.100
210.700	61.700	0.100
210.800	60.235	0.100
210.900	56.684	0.100
211.000	57.108	0.100
211.100	54.520	0.100
211.200	53.929	0.100
211.300	33.538	0.100
211.400	51.281	0.100
211.500	48.930	0.100
211.600	60.891	0.100
211.700	45.837	0.100
211.800	49.833	0.100
211.900	33.227	0.100
212.000	53.987	0.100
212.100	62.619	0.100
212.200	49.758	0.100
212.300	49.638	0.100
212.400	43.235	0.100
212.500	44.856	0.100
212.600	39.326	0.100
212.700	55.918	0.100
212.800	48.107	0.100
212.900	51.327	0.100
213.000	44.105	0.100
213.100	49.892	0.100
213.200	60.762	0.100
213.300	42.231	0.100
213.400	46.226	0.100
213.500	51.711	0.100
213.600	47.930	0.100
213.700	48.377	0.100
213.800	47.742	0.100
213.900	34.361	0.100
214.000	54.516	0.100
214.100	48.651	0.100
214.200	50.121	0.100
214.300	49.225	0.100
214.400	48.568	0.100
214.500	35.404	0.100
214.600	36.854	0.100
214.700	55.814	0.100
214.800	50.449	0.100
214.900	50.178	0.100
215.000	50.562	0.100
215.100	37.750	0.100
215.200	53.919	0.100
215.300	37.792	0.100
215.400	49.968	0.100
215.500	49.268	0.100
215.600	48.482	0.100
215.700	55.536	0.100
215.800	45.520	0.100
215.900	44.079	0.100
216.000	47.313	0.100
216.100	53.782	0.100
216.200	56.899	0.100
216.300	46.755	0.100
216.400	45.344	0.100
216.500	38.894	0.100
216.600	50.111	0.100
216.700	47.361	0.100
216.800	49.001	0.100
216.900	51.996	0.100
217.000	53.774	0.100
217.100	43.838	0.100
217.200	43.940	0.100
217.300	44.634	0.100
217.400	56.098	0.100
217.500	60.525	0.100
217.600	47.297	0.100
217.700	56.967	0.100
217.800	45.463	0.100
217.900	44.160	0.100
218.000	48.446	0.100
218.100	62.278	0.100
218.200	41.452	0.100
218.300	41.931	0.100
218.400	48.919	0.100
218.500	54.930	0.100
218.600	51.036	0.100
218.700	43.419	0.100
218.800	40.557	0.100
218.900	44.221	0.100
219.000	46.894	0.100
219.100	42.321	0.100
219.200	57.297	0.100
219.300	56.734	0.100
219.400	38.312	0.100
219.500	53.554	0.100
219.600	50.761	0.100
219.700	47.489	0.100
219.800	30.989	0.100
219.900	45.885	0.100
220.000	31.106	0.100
220.100	44.341	0.100
220.200	61.492	0.100
220.300	58.356	0.100
220.400	54.706	0.100
220.500	44.607	0.100
220.600	58.963	0.100
220.700	55.268	0.100
220.800	38.404	0.100
220.900	43.483	0.100
221.000	55.297	0.100
221.100	46.328	0.100
221.200	46.137	0.100
221.300	47.215	0.100
221.400	26.842	0.100
221.500	43.252	0.100
221.600	44.777	0.100
221.700	49.480	0.100
221.800	49.934	0.100
221.900	48.864	0.100
222.000	52.249	0.100
222.100	47.607	0.100
222.200	34.122	0.100
222.300	46.581	0.100
222.400	51.064	0.100
222.500	54.039	0.100
222.600	46.531	0.100
222.700	61.295	0.100
222.800	34.431	0.100
222.900	52.205	0.100
223.000	59.834	0.100
223.100	45.203	0.100
223.200	45.836	0.100
223.300	38.469	0.100
223.400	46.190	0.100
223.500	48.407	0.100
223.600	44.671	0.100
223.700	52.974	0.100
223.800	61.275	0.100
223.900	45.641	0.100
224.000	50.839	0.100
224.100	44.408	0.100
224.200	44.277	0.100
224.300	39.065	0.100
224.400	54.147	0.100
224.500	56.200	0.100
224.600	39.167	0.100
224.700	59.694	0.100
224.800	40.511	0.100
224.900	55.310	0.100
225.000	43.061	0.100
225.100	45.756	0.100
225.200	40.219	0.100
225.300	41.101	0.100
225.400	63.601	0.100
225.500	43.844	0.100
225.600	42.571	0.100
225.700	53.679	0.100
225.800	50.746	0.100
225.900	40.113	0.100
226.000	47.704	0.100
226.100	54.745	0.100
226.200	49.572	0.100
226.300	47.964	0.100
226.400	45.249	0.100
226.500	40.971	0.100
226.600	46.612	0.100
226.700	41.043	0.100
226.800	59.336	0.100
226.900	53.086	0.100
227.000	38.859	0.100
227.100	52.942	0.100
227.200	49.298	0.100
227.300	49.374	0.100
227.400	50.426	0.100
227.500	46.049	0.100
227.600	43.965	0.100
227.700	41.910	0.100
227.800	39.295	0.100
227.900	48.468	0.100
228.000	50.529	0.100
228.100	46.939	0.100
228.200	48.958	0.100
228.300	55.949	0.100
228.400	51.604	0.100
228.500	49.234	0.100
228.600	59.010	0.100
228.700	44.331	0.100
228.800	51.664	0.100
228.900	42.128	0.100
229.000	42.429	0.100
229.100	49.215	0.100
229.200	44.946	0.100
229.300	50.792	0.100
229.400	58.698	0.100
229.500	43.062	0.100
229.600	50.207	0.100
229.700	48.205	0.100
229.800	52.728	0.100
229.900	55.061	0.100
230.000	28.361	0.100
230.100	43.955	0.100
230.200	38.406	0.100
230.300	40.931	0.100
230.400	53.096	0.100
230.500	64.261	0.100
230.600	50.421	0.100
230.700	49.637	0.100
230.800	52.077	0.100
230.900	50.192	0.100
231.000	41.249	0.100
231.100	62.522	0.100
231.200	41.947	0.100
231.300	34.346	0.100
231.400	54.457	0.100
231.500	51.316	0.100
231.600	40.832	0.100
231.700	50.266	0.100
231.800	53.451	0.100
231.900	42.199	0.100
232.000	47.121	0.100
232.100	45.106	0.100
232.200	44.667	0.100
232.300	47.936	0.100
232.400	55.203	0.100
232.500	48.466	0.100
232.600	48.178	0.100
232.700	41.610	0.100
232.800	44.351	0.100
232.900	46.413	0.100
233.000	38.359	0.100
233.100	57.218	0.100
233.200	57.188	0.100
233.300	49.988	0.100
233.400	36.909	0.100
233.500	47.929	0.100
233.600	48.279	0.100
233.700	44.694	0.100
233.800	44.109	0.100
233.900	49.901	0.100
234.000	42.085	0.100
234.100	39.341	0.100
234.200	41.452	0.100
234.300	44.192	0.100
234.400	42.222	0.100
234.500	40.340	0.100
234.600	22.290	0.100
234.700	50.170	0.100
234.800	58.766	0.100
234.900	45.810	0.100
235.000	53.978	0.100
235.100	45.166	0.100
235.200	53.329	0.100
235.300	40.583	0.100
235.400	35.165	0.100
235.500	60.065	0.100
235.600	54.955	0.100
235.700	49.435	0.100
235.800	43.063	0.100
235.900	30.770	0.100
236.000	54.961	0.100
236.100	43.417	0.100
236.200	53.816	0.100
236.300	46.055	0.100
236.400	41.554	0.100
236.500	53.795	0.100
236.600	51.360	0.100
236.700	59.987	0.100
236.800	42.759	0.100
236.900	35.484	0.100
237.000	45.723	0.100
237.100	47.055	0.100
237.200	48.673	0.100
237.300	33.450	0.100
237.400	57.646	0.100
237.500	43.722	0.100
237.600	43.470	0.100
237.700	56.774	0.100
237.800	42.219	0.100
237.900	31.619	0.100
238.000	55.334	0.100
238.100	39.933	0.100
238.200	50.851	0.100
238.300	45.398	0.100
238.400	48.574	0.100
238.500	39.468	0.100
238.600	54.396	0.100
238.700	47.710	0.100
238.800	33.538	0.100
238.900	54.101	0.100
239.000	48.918	0.100
239.100	62.078	0.100
239.200	40.856	0.100
239.300	51.882	0.100
239.400	47.191	0.100
239.500	49.129	0.100
239.600	44.337	0.100
239.700	53.652	0.100
239.800	40.577	0.100
239.900	51.328	0.100
240.000	33.700	0.100
240.100	37.079	0.100
240.200	51.615	0.100
240.300	39.286	0.100
240.400	43.299	0.100
240.500	28.432	0.100
240.600	47.012	0.100
240.700	37.859	0.100
240.800	23.454	0.100
240.900	11.136	0.100
241.000	16.211	0.100
241.100	34.047	0.100
241.200	21.480	0.100
241.300	18.397	0.100
241.400	11.241	0.100
241.500	19.121	0.100
241.600	12.647	0.100
241.700	11.358	0.100
241.800	-1.457	0.100
241.900	16.790	0.100
242.000	3.185	0.100
242.100	8.585	0.100
242.200	10.892	0.100
242.300	3.730	0.100
242.400	4.545	0.100
242.500	17.367	0.100
242.600	-8.089	0.100
242.700	10.872	0.100
242.800	2.587	0.100
242.900	6.817	0.100
243.000	0.018	0.100
243.100	9.899	0.100
243.200	-3.680	0.100
243.300	3.323	0.100
243.400	0.583	0.100
243.500	0.238	0.100
243.600	3.018	0.100
243.700	1.935	0.100
243.800	-0.609	0.100
243.900	-3.997	0.100
244.000	4.747	0.100
244.100	-3.419	0.100
244.200	-3.101	0.100
244.300	-0.484	0.100
244.400	0.669	0.100
244.500	-10.518	0.100
244.600	1.982	0.100
244.700	-0.735	0.100
244.800	-1.136	0.100
244.900	12.284	0.100
245.000	2.530	0.100
245.100	-0.670	0.100
245.200	-7.260	0.100
245.300	0.126	0.100
245.400	4.810	0.100
245.500	3.795	0.100
245.600	-1.340	0.100
245.700	-6.035	0.100
245.800	-8.330	0.100
245.900	-0.792	0.100
246.000	-10.892	0.100
246.100	-5.417	0.100
246.200	21.298	0.100
246.300	3.869	0.100
246.400	9.235	0.100
246.500	25.491	0.100
246.600	6.545	0.100
246.700	0.120	0.100
246.800	12.614	0.100
246.900	-6.078	0.100
247.000	-9.306	0.100
247.100	0.702	0.100
247.200	17.347	0.100
247.300	8.644	0.100
247.400	9.803	0.100
247.500	4.478	0.100
247.600	0.709	0.100
247.700	-14.344	0.100
247.800	5.377	0.100
247.900	-1.098	0.100
248.000	4.028	0.100
248.100	-3.739	0.100
248.200	7.522	0.100
248.300	-4.437	0.100
248.400	-3.664	0.100
248.500	12.898	0.100
248.600	1.817	0.100
248.700	1.846	0.100
248.800	-8.728	0.100
248.900	-0.360	0.100
249.000	-3.350	0.100
249.100	10.173	0.100
249.200	7.162	0.100
249.300	-1.154	0.100
249.400	-4.468	0.100
249.500	-10.857	0.100
249.600	-6.458	0.100
249.700	4.886	0.100
249.800	4.776	0.100
249.900	-1.930	0.100
250.000	-0.308	0.100
250.100	-8.527	0.100
250.200	5.518	0.100
250.300	3.209	0.100
250.400	1.219	0.100
250.500	-7.428	0.100
250.600	-1.672	0.100
250.700	-6.187	0.100
250.800	4.522	0.100
250.900	0.689	0.100
251.000	0.273	0.100
251.100	-7.170	0.100
251.200	-11.131	0.100
251.300	-6.452	0.100
251.400	-0.903	0.100
251.500	-0.622	0.100
251.600	-11.977	0.100
251.700	7.881	0.100
251.800	8.616	0.100
251.900	13.380	0.100
252.000	1.403	0.100
252.100	-0.806	0.100
252.200	1.471	0.100
252.300	7.960	0.100
252.400	-1.829	0.100
252.500	-2.468	0.100
252.600	-2.984	0.100
252.700	-12.994	0.100
252.800	-5.880	0.100
252.900	-14.219	0.100
253.000	-10.622	0.100
253.100	-8.449	0.100
253.200	11.800	0.100
253.300	4.990	0.100
253.400	3.803	0.100
253.500	-15.141	0.100
253.600	-5.354	0.100
253.700	0.771	0.100
253.800	-7.989	0.100
253.900	-17.008	0.100
254.000	-6.130	0.100
254.100	-5.523	0.100
254.200	-3.773	0.100
254.300	1.836	0.100
254.400	9.330	0.100
254.500	-7.847	0.100
254.600	-0.779	0.100
254.700	-12.306	0.100
254.800	8.915	0.100
254.900	-9.734	0.100
255.000	-8.863	0.100
255.100	-17.301	0.100
255.200	-2.818	0.100
255.300	12.820	0.100
255.400	-16.767	0.100
255.500	-3.749	0.100
255.600	9.647	0.100
255.700	-6.868	0.100
255.800	-8.262	0.100
255.900	0.627	0.100
256.000	-16.306	0.100
256.100	-12.599	0.100
256.200	1.193	0.100
256.300	-7.788	0.100
256.400	-6.457	0.100
256.500	-1.751	0.100
256.600	-5.286	0.100
256.700	-8.801	0.100
256.800	-11.814	0.100
256.900	-7.594	0.100
257.000	-0.744	0.100
257.100	-0.445	0.100
257.200	-7.423	0.100
257.300	-19.158	0.100
257.400	-0.253	0.100
257.500	-6.298	0.100
257.600	-3.373	0.100
257.700	-5.466	0.100
257.800	-6.176	0.100
257.900	-22.568	0.100
258.000	7.370	0.100
258.100	-6.895	0.100
258.200	-1.631	0.100
258.300	-13.584	0.100
258.400	6.779	0.100
258.500	-19.716	0.100
258.600	-12.216	0.100
258.700	-6.992	0.100
258.800	-5.052	0.100
258.900	-25.517	0.100
259.000	8.068	0.100
259.100	-5.949	0.100
259.200	-16.686	0.100
259.300	-18.629	0.100
259.400	-5.626	0.100
259.500	-12.749	0.100
259.600	-0.472	0.100
259.700	-0.531	0.100
259.800	-4.503	0.100
259.900	-8.591	0.100
260.000	-1.204	0.100
260.100	-23.767	0.100
260.200	4.099	0.100
260.300	-18.826	0.100
260.400	-21.162	0.100
260.500	3.663	0.100
260.600	-8.841	0.100
260.700	-8.055	0.100
260.800	-10.780	0.100
260.900	-0.868	0.100
261.000	-14.491	0.100
261.100	-13.392	0.100
261.200	-1.489	0.100
261.300	-9.632	0.100
261.400	-8.491	0.100
261.500	5.492	0.100
261.600	2.923	0.100
261.700	-0.892	0.100
261.800	-15.641	0.100
261.900	-21.628	0.100
262.000	-15.675	0.100
262.100	-5.103	0.100
262.200	-7.374	0.100
262.300	-7.784	0.100
262.400	-21.151	0.100
262.500	-16.051	0.100
262.600	-13.429	0.100
262.700	-12.367	0.100
262.800	-16.787	0.100
262.900	-7.119	0.100
263.000	-1.540	0.100
263.100	-8.964	0.100
263.200	-16.556	0.100
263.300	-8.599	0.100
263.400	-16.952	0.100
263.500	-16.700	0.100
263.600	-11.601	0.100
263.700	-3.393	0.100
263.800	-1.740	0.100
263.900	1.859	0.100
264.000	-9.190	0.100
264.100	-7.618	0.100
264.200	-16.379	0.100
264.300	-4.768	0.100
264.400	-10.144	0.100
264.500	-18.081	0.100
264.600	-14.843	0.100
264.700	-17.460	0.100
264.800	-16.302	0.100
264.900	-14.936	0.100
265.000	-19.514	0.100
265.100	-17.815	0.100
265.200	-0.213	0.100
265.300	-5.017	0.100
265.400	-14.507	0.100
265.500	-26.299	0.100
265.600	-9.517	0.100
265.700	-6.012	0.100
265.800	-20.775	0.100
265.900	-7.811	0.100
266.000	-7.232	0.100
266.100	-18.111	0.100
266.200	-23.948	0.100
266.300	-18.301	0.100
266.400	-12.808	0.100
266.500	-7.223	0.100
266.600	-14.934	0.100
266.700	-9.937	0.100
266.800	-16.740	0.100
266.900	-22.362	0.100
267.000	-15.721	0.100
267.100	-20.572	0.100
267.200	5.992	0.100
267.300	-6.706	0.100
267.400	-10.186	0.100
267.500	-11.889	0.100
267.600	-9.527	0.100
267.700	-23.645	0.100
267.800	-2.982	0.100
267.900	-4.473	0.100
268.000	-10.971	0.100
268.100	-20.632	0.100
268.200	-22.644	0.100
268.300	-4.731	0.100
268.400	-8.720	0.100
268.500	-19.661	0.100
268.600	0.602	0.100
268.700	-5.482	0.100
268.800	0.304	0.100
268.900	-12.179	0.100
269.000	-26.890	0.100
269.100	-19.908	0.100
269.200	-11.627	0.100
269.300	-17.574	0.100
269.400	-13.920	0.100
269.500	-2.208	0.100
269.600	-10.745	0.100
269.700	-20.931	0.100
269.800	-24.516	0.100
269.900	-14.070	0.100
270.000	-10.650	0.100
270.100	-6.545	0.100
270.200	-10.185	0.100
270.300	-16.615	0.100
270.400	-24.571	0.100
270.500	-18.245	0.100
270.600	-15.106	0.100
270.700	-7.682	0.100
270.800	-13.232	0.100
270.900	-5.199	0.100
271.000	-8.067	0.100
271.100	-16.901	0.100
271.200	-18.647	0.100
271.300	-14.994	0.100
271.400	-14.990	0.100
271.500	-8.202	0.100
271.600	-5.132	0.100
271.700	-7.279	0.100
271.800	-19.597	0.100
271.900	-10.270	0.100
272.000	-15.935	0.100
272.100	-18.984	0.100
272.200	-18.218	0.100
272.300	-15.646	0.100
272.400	-6.125	0.100
272.500	-19.963	0.100
272.600	-24.070	0.100
272.700	-16.794	0.100
272.800	-6.904	0.100
272.900	-6.838	0.100
273.000	-27.492	0.100
273.100	-24.060	0.100
273.200	-7.312	0.100
273.300	-5.459	0.100
273.400	-6.221	0.100
273.500	-18.050	0.100
273.600	-25.810	0.100
273.700	-20.041	0.100
273.800	-5.380	0.100
273.900	-13.610	0.100
274.000	-2.809	0.100
274.100	-14.806	0.100
274.200	-7.792	0.100
274.300	-14.020	0.100
274.400	-14.207	0.100
274.500	-19.684	0.100
274.600	-12.312	0.100
274.700	-13.333	0.100
274.800	-23.289	0.100
274.900	-9.452	0.100
275.000	-15.415	0.100
275.100	-6.763	0.100
275.200	-13.241	0.100
275.300	-7.769	0.100
275.400	-18.821	0.100
275.500	-28.133	0.100
275.600	-10.829	0.100
275.700	-10.863	0.100
275.800	-13.907	0.100
275.900	-13.542	0.100
276.000	-16.500	0.100
276.100	-16.693	0.100
276.200	-8.105	0.100
276.300	-10.538	0.100
276.400	-19.310	0.100
276.500	-25.745	0.100
276.600	-23.949	0.100
276.700	-15.430	0.100
276.800	-9.117	0.100
276.900	-14.960	0.100
277.000	-6.256	0.100
277.100	-16.334	0.100
277.200	-7.281	0.100
277.300	-21.158	0.100
277.400	-24.268	0.100
277.500	-29.887	0.100
277.600	-7.260	0.100
277.700	-1.651	0.100
277.800	-5.115	0.100
277.900	-11.373	0.100
278.000	-11.033	0.100
278.100	-19.443	0.100
278.200	-27.470	0.100
278.300	-29.568	0.100
278.400	-15.385	0.100
278.500	-20.778	0.100
278.600	-16.590	0.100
278.700	-13.895	0.100
278.800	-14.464	0.100
278.900	-15.670	0.100
279.000	-10.835	0.100
279.100	-18.858	0.100
279.200	-12.176	0.100
279.300	-16.616	0.100
279.400	-11.835	0.100
279.500	-14.204	0.100
279.600	-16.062	0.100
279.700	-30.559	0.100
279.800	-21.536	0.100
279.900	-9.138	0.100
280.000	-25.141	0.100
280.100	-5.524	0.100
280.200	-21.905	0.100
280.300	-21.042	0.100
280.400	-24.934	0.100
280.500	-12.131	0.100
280.600	-13.799	0.100
280.700	-11.257	0.100
280.800	-20.171	0.100
280.900	-17.735	0.100
281.000	-6.819	0.100
281.100	-9.867	0.100
281.200	-18.384	0.100
281.300	-21.288	0.100
281.400	-16.485	0.100
281.500	-18.993	0.100
281.600	-14.014	0.100
281.700	-17.728	0.100
281.800	-15.726	0.100
281.900	-16.768	0.100
282.000	-10.020	0.100
282.100	-17.062	0.100
282.200	-5.774	0.100
282.300	-9.202	0.100
282.400	-8.053	0.100
282.500	-11.488	0.100
282.600	-15.467	0.100
282.700	-20.092	0.100
282.800	-13.045	0.100
282.900	-2.756	0.100
283.000	-27.667	0.100
283.100	-10.211	0.100
283.200	-13.401	0.100
283.300	-20.623	0.100
283.400	-27.675	0.100
283.500	-11.910	0.100
283.600	-7.306	0.100
283.700	-32.936	0.100
283.800	-12.012	0.100
283.900	-7.002	0.100
284.000	-12.783	0.100
284.100	-19.028	0.100
284.200	-10.390	0.100
284.300	-12.822	0.100
284.400	-17.923	0.100
284.500	-11.646	0.100
284.600	-4.736	0.100
284.700	-20.079	0.100
284.800	-33.132	0.100
284.900	1.830	0.100
285.000	-18.700	0.100
285.100	-14.020	0.100
285.200	-23.676	0.100
285.300	-9.406	0.100
285.400	-10.269	0.100
285.500	-11.912	0.100
285.600	-17.046	0.100
285.700	-19.296	0.100
285.800	-15.842	0.100
285.900	-15.603	0.100
286.000	-27.480	0.100
286.100	-20.011	0.100
286.200	-6.605	0.100
286.300	-6.987	0.100
286.400	-18.336	0.100
286.500	-11.783	0.100
286.600	-15.942	0.100
286.700	-31.328	0.100
286.800	-23.537	0.100
286.900	-26.274	0.100
287.000	-3.525	0.100
287.100	-15.722	0.100
287.200	-32.502	0.100
287.300	-26.688	0.100
287.400	-26.076	0.100
287.500	-8.880	0.100
287.600	-3.633	0.100
287.700	-5.936	0.100
287.800	-4.155	0.100
287.900	-15.460	0.100
288.000	-10.628	0.100
288.100	-21.858	0.100
288.200	-15.275	0.100
288.300	-17.012	0.100
288.400	-15.760	0.100
288.500	-11.815	0.100
288.600	-8.853	0.100
288.700	-14.312	0.100
288.800	-18.190	0.100
288.900	-24.339	0.100
289.000	-23.924	0.100
289.100	-17.193	0.100
289.200	-11.047	0.100
289.300	-9.957	0.100
289.400	-19.760	0.100
289.500	-16.764	0.100
289.600	-7.390	0.100
289.700	-14.612	0.100
289.800	-29.053	0.100
289.900	-16.391	0.100
290.000	-21.453	0.100
290.100	-21.224	0.100
290.200	-11.293	0.100
290.300	-19.781	0.100
290.400	-14.563	0.100
290.500	-13.730	0.100
290.600	-12.627	0.100
290.700	-0.849	0.100
290.800	-6.660	0.100
290.900	-28.166	0.100
291.000	-23.465	0.100
291.100	6.111	0.100
291.200	-13.584	0.100
291.300	-14.407	0.100
291.400	-30.298	0.100
291.500	-14.078	0.100
291.600	-20.067	0.100
291.700	-7.009	0.100
291.800	-25.109	0.100
291.900	-4.598	0.100
292.000	-8.457	0.100
292.100	-29.424	0.100
292.200	-15.832	0.100
292.300	-5.294	0.100
292.400	-20.653	0.100
292.500	-10.507	0.100
292.600	-14.548	0.100
292.700	-8.939	0.100
292.800	-17.289	0.100
292.900	-11.616	0.100
293.000	-28.343	0.100
293.100	-13.349	0.100
293.200	-13.913	0.100
293.300	1.268	0.100
293.400	-10.957	0.100
293.500	-12.213	0.100
293.600	-10.281	0.100
293.700	-11.047	0.100
293.800	-16.496	0.100
293.900	-24.288	0.100
294.000	-17.474	0.100
294.100	-10.937	0.100
294.200	-22.348	0.100
294.300	-11.999	0.100
294.400	-2.807	0.100
294.500	-17.122	0.100
294.600	-11.230	0.100
294.700	-16.055	0.100
294.800	-21.884	0.100
294.900	-13.498	0.100
295.000	-6.587	0.100
295.100	-10.326	0.100
295.200	-17.170	0.100
295.300	-17.040	0.100
295.400	-13.411	0.100
295.500	-29.365	0.100
295.600	-16.288	0.100
295.700	-15.503	0.100
295.800	-20.759	0.100
295.900	-12.701	0.100
296.000	-10.804	0.100
296.100	-19.932	0.100
296.200	-11.011	0.100
296.300	-18.895	0.100
296.400	-20.353	0.100
296.500	-12.808	0.100
296.600	-11.253	0.100
296.700	-9.795	0.100
296.800	-12.364	0.100
296.900	-12.021	0.100
297.000	-12.234	0.100
297.100	-8.102	0.100
297.200	-12.172	0.100
297.300	-14.444	0.100
297.400	-19.483	0.100
297.500	-17.394	0.100
297.600	-14.375	0.100
297.700	-21.406	0.100
297.800	-7.812	0.100
297.900	-15.346	0.100
298.000	-22.844	0.100
298.100	-14.366	0.100
298.200	-12.404	0.100
298.300	-21.610	0.100
298.400	-14.126	0.100
298.500	-28.820	0.100
298.600	-18.188	0.100
298.700	-8.413	0.100
298.800	-9.020	0.100
298.900	-8.277	0.100
299.000	-16.558	0.100
299.100	-25.420	0.100
299.200	-20.277	0.100
299.300	-8.255	0.100
299.400	-12.099	0.100
299.500	-22.753	0.100
299.600	-0.930	0.100
299.700	-24.209	0.100
299.800	-13.665	0.100
299.900	-7.403	0.100
300.000	-15.987	0.100
300.100	-14.327	0.100
300.200	-18.644	0.100
300.300	-4.529	0.100
300.400	-9.382	0.100
300.500	-19.219	0.100
300.600	-12.661	0.100
300.700	-16.556	0.100
300.800	-8.148	0.100
300.900	-1.128	0.100
301.000	-10.132	0.100
301.100	-15.677	0.100
301.200	-11.157	0.100
301.300	-12.153	0.100
301.400	-16.432	0.100
301.500	-13.527	0.100
301.600	-23.437	0.100
301.700	-11.471	0.100
301.800	-19.510	0.100
301.900	-20.926	0.100
302.000	-8.712	0.100
302.100	-3.053	0.100
302.200	-15.030	0.100
302.300	-24.417	0.100
302.400	-7.690	0.100
302.500	-8.507	0.100
302.600	-19.970	0.100
302.700	-20.079	0.100
302.800	-19.856	0.100
302.900	-5.623	0.100
303.000	-17.266	0.100
303.100	-10.075	0.100
303.200	-21.205	0.100
303.300	-6.582	0.100
303.400	-13.289	0.100
303.500	-25.129	0.100
303.600	-13.805	0.100
303.700	-10.128	0.100
303.800	-11.872	0.100
303.900	-20.207	0.100
304.000	-21.622	0.100
304.100	-3.425	0.100
304.200	-17.126	0.100
304.300	-18.017	0.100
304.400	0.728	0.100
304.500	-13.151	0.100
304.600	-8.926	0.100
304.700	-9.102	0.100
304.800	-9.019	0.100
304.900	-4.251	0.100
305.000	-19.872	0.100
305.100	-9.905	0.100
305.200	-21.169	0.100
305.300	-19.133	0.100
305.400	-30.279	0.100
305.500	-6.697	0.100
305.600	-7.863	0.100
305.700	-3.513	0.100
305.800	-9.773	0.100
305.900	-14.686	0.100
306.000	-20.470	0.100
306.100	-20.814	0.100
306.200	-8.985	0.100
306.300	-1.409	0.100
306.400	-18.843	0.100
306.500	-17.182	0.100
306.600	-13.860	0.100
306.700	-16.758	0.100
306.800	-2.514	0.100
306.900	-20.087	0.100
307.000	-14.855	0.100
307.100	-20.628	0.100
307.200	-6.779	0.100
307.300	-7.572	0.100
307.400	-16.353	0.100
307.500	-9.701	0.100
307.600	-12.881	0.100
307.700	-9.076	0.100
307.800	-9.872	0.100
307.900	-15.453	0.100
308.000	2.690	0.100
308.100	-3.647	0.100
308.200	-15.493	0.100
308.300	-14.452	0.100
308.400	-7.785	0.100
308.500	-17.471	0.100
308.600	-14.227	0.100
308.700	-11.346	0.100
308.800	-18.684	0.100
308.900	-5.008	0.100
309.000	-7.137	0.100
309.100	-17.802	0.100
309.200	-11.946	0.100
309.300	-10.277	0.100
309.400	-10.772	0.100
309.500	-17.722	0.100
309.600	-19.524	0.100
309.700	-5.856	0.100
309.800	1.740	0.100
309.900	-15.461	0.100
310.000	-15.368	0.100
310.100	-14.676	0.100
310.200	0.850	0.100
310.300	-7.338	0.100
310.400	-10.278	0.100
310.500	-18.802	0.100
310.600	-6.471	0.100
310.700	-2.811	0.100
310.800	-9.502	0.100
310.900	-22.302	0.100
311.000	-20.783	0.100
311.100	-8.992	0.100
311.200	-4.185	0.100
311.300	-7.303	0.100
311.400	-8.920	0.100
311.500	-14.360	0.100
311.600	-20.711	0.100
311.700	-3.935	0.100
311.800	-7.956	0.100
311.900	-9.325	0.100
312.000	-35.070	0.100
312.100	-18.813	0.100
312.200	-7.072	0.100
312.300	-17.163	0.100
312.400	-15.991	0.100
312.500	9.899	0.100
312.600	-11.075	0.100
312.700	-3.294	0.100
312.800	-15.583	0.100
312.900	-14.588	0.100
313.000	-13.848	0.100
313.100	-10.381	0.100
313.200	-11.815	0.100
313.300	-11.416	0.100
313.400	-3.147	0.100
313.500	-8.796	0.100
313.600	-16.044	0.100
313.700	-19.039	0.100
313.800	-9.129	0.100
313.900	-8.701	0.100
314.000	-3.008	0.100
314.100	-19.724	0.100
314.200	-15.093	0.100
314.300	-8.849	0.100
314.400	-8.663	0.100
314.500	-11.473	0.100
314.600	-23.070	0.100
314.700	-0.707	0.100
314.800	5.844	0.100
314.900	-9.775	0.100
315.000	-20.258	0.100
315.100	-6.848	0.100
315.200	-0.578	0.100
315.300	-6.818	0.100
315.400	-6.716	0.100
315.500	-17.075	0.100
315.600	-7.318	0.100
315.700	-21.637	0.100
315.800	-17.642	0.100
315.900	-1.555	0.100
316.000	-17.033	0.100
316.100	-0.318	0.100
316.200	-16.543	0.100
316.300	-33.749	0.100
316.400	-11.114	0.100
316.500	0.800	0.100
316.600	2.907	0.100
316.700	-14.152	0.100
316.800	-2.477	0.100
316.900	-2.191	0.100
317.000	-10.713	0.100
317.100	-17.733	0.100
317.200	-11.079	0.100
317.300	-19.103	0.100
317.400	-9.404	0.100
317.500	-9.109	0.100
317.600	-15.679	0.100
317.700	-16.570	0.100
317.800	-3.050	0.100
317.900	-11.919	0.100
318.000	-7.595	0.100
318.100	-11.950	0.100
318.200	-4.447	0.100
318.300	-19.061	0.100
318.400	-10.555	0.100
318.500	-22.237	0.100
318.600	-11.212	0.100
318.700	-6.578	0.100
318.800	-4.581	0.100
318.900	-0.848	0.100
319.000	-12.628	0.100
319.100	-26.956	0.100
319.200	-0.232	0.100
319.300	-8.004	0.100
319.400	-13.844	0.100
319.500	-13.255	0.100
319.600	-22.141	0.100
319.700	-0.816	0.100
319.800	-15.194	0.100
319.900	-12.368	0.100
320.000	-11.898	0.100
320.100	-24.157	0.100
320.200	-18.027	0.100
320.300	-5.636	0.100
320.400	-0.294	0.100
320.500	-8.831	0.100
320.600	-12.080	0.100
320.700	-7.310	0.100
320.800	-11.539	0.100
320.900	-5.751	0.100
321.000	-6.642	0.100
321.100	-16.473	0.100
321.200	-1.732	0.100
321.300	-3.523	0.100
321.400	-24.121	0.100
321.500	-13.198	0.100
321.600	-9.729	0.100
321.700	-6.264	0.100
321.800	0.991	0.100
321.900	-13.508	0.100
322.000	-14.117	0.100
322.100	-20.127	0.100
322.200	-13.303	0.100
322.300	-10.284	0.100
322.400	-17.631	0.100
322.500	-15.465	0.100
322.600	-2.439	0.100
322.700	-15.141	0.100
322.800	-12.636	0.100
322.900	-14.854	0.100
323.000	2.689	0.100
323.100	-3.523	0.100
323.200	-10.602	0.100
323.300	-3.759	0.100
323.400	-26.629	0.100
323.500	-9.172	0.100
323.600	-8.765	0.100
323.700	-12.735	0.100
323.800	-7.026	0.100
323.900	-7.432	0.100
324.000	-2.612	0.100
324.100	-5.462	0.100
324.200	-10.372	0.100
324.300	-15.927	0.100
324.400	-8.394	0.100
324.500	1.894	0.100
324.600	-5.705	0.100
324.700	-19.776	0.100
324.800	-11.342	0.100
324.900	5.622	0.100
325.000	-14.292	0.100
325.100	-17.734	0.100
325.200	-1.925	0.100
325.300	-6.875	0.100
325.400	-12.509	0.100
325.500	-5.236	0.100
325.600	-7.468	0.100
325.700	-4.135	0.100
325.800	-23.357	0.100
325.900	-7.351	0.100
326.000	-12.682	0.100
326.100	-11.000	0.100
326.200	-11.623	0.100
326.300	-21.894	0.100
326.400	-23.782	0.100
326.500	2.035	0.100
326.600	-1.209	0.100
326.700	-10.032	0.100
326.800	-6.822	0.100
326.900	-4.632	0.100
327.000	-8.948	0.100
327.100	-14.086	0.100
327.200	-6.183	0.100
327.300	-15.711	0.100
327.400	-2.038	0.100
327.500	-11.637	0.100
327.600	2.391	0.100
327.700	-18.140	0.100
327.800	-3.893	0.100
327.900	-12.603	0.100
328.000	-2.693	0.100
328.100	-6.650	0.100
328.200	-12.073	0.100
328.300	-14.305	0.100
328.400	-8.654	0.100
328.500	-17.450	0.100
328.600	-21.562	0.100
328.700	-10.981	0.100
328.800	-23.237	0.100
328.900	-5.583	0.100
329.000	1.626	0.100
329.100	-15.300	0.100
329.200	-19.219	0.100
329.300	-22.836	0.100
329.400	5.630	0.100
329.500	-1.082	0.100
329.600	-8.187	0.100
329.700	-14.855	0.100
329.800	-4.739	0.100
329.900	0.737	0.100
330.000	5.848	0.100
330.100	-4.490	0.100
330.200	-8.265	0.100
330.300	-4.432	0.100
330.400	12.545	0.100
330.500	19.143	0.100
330.600	13.708	0.100
330.700	3.702	0.100
330.800	21.123	0.100
330.900	23.793	0.100
331.000	26.114	0.100
331.100	28.766	0.100
331.200	32.631	0.100
331.300	27.205	0.100
331.400	23.776	0.100
331.500	40.267	0.100
331.600	31.517	0.100
331.700	38.711	0.100
331.800	49.033	0.100
331.900	35.237	0.100
332.000	45.027	0.100
332.100	35.280	0.100
332.200	44.316	0.100
332.300	39.398	0.100
332.400	42.509	0.100
332.500	67.274	0.100
332.600	55.687	0.100
332.700	52.212	0.100
332.800	27.241	0.100
332.900	35.246	0.100
333.000	52.059	0.100
333.100	59.944	0.100
333.200	47.670	0.100
333.300	48.057	0.100
333.400	49.318	0.100
333.500	47.430	0.100
333.600	45.420	0.100
333.700	40.038	0.100
333.800	50.734	0.100
333.900	55.182	0.100
334.000	42.425	0.100
334.100	48.342	0.100
334.200	43.668	0.100
334.300	48.705	0.100
334.400	38.895	0.100
334.500	43.418	0.100
334.600	41.616	0.100
334.700	45.123	0.100
334.800	49.356	0.100
334.900	46.112	0.100
335.000	50.918	0.100
335.100	19.350	0.100
335.200	29.895	0.100
335.300	27.920	0.100
335.400	44.543	0.100
335.500	55.199	0.100
335.600	42.117	0.100
335.700	38.781	0.100
335.800	35.966	0.100
335.900	34.784	0.100
336.000	34.859	0.100
336.100	40.140	0.100
336.200	31.341	0.100
336.300	37.431	0.100
336.400	36.146	0.100
336.500	37.943	0.100
336.600	34.569	0.100
336.700	43.811	0.100
336.800	38.985	0.100
336.900	35.816	0.100
337.000	26.767	0.100
337.100	46.794	0.100
337.200	35.679	0.100
337.300	28.176	0.100
337.400	34.680	0.100
337.500	43.074	0.100
337.600	39.795	0.100
337.700	43.197	0.100
337.800	39.908	0.100
337.900	32.114	0.100
338.000	22.937	0.100
338.100	23.124	0.100
338.200	29.253	0.100
338.300	36.346	0.100
338.400	51.589	0.100
338.500	41.880	0.100
338.600	42.606	0.100
338.700	39.977	0.100
338.800	35.963	0.100
338.900	30.301	0.100
339.000	29.019	0.100
339.100	39.138	0.100
339.200	48.277	0.100
339.300	30.928	0.100
339.400	30.209	0.100
339.500	37.491	0.100
339.600	38.225	0.100
339.700	39.919	0.100
339.800	27.815	0.100
339.900	25.717	0.100
340.000	34.551	0.100
340.100	38.337	0.100
340.200	51.006	0.100
340.300	45.335	0.100
340.400	44.246	0.100
340.500	36.330	0.100
340.600	33.801	0.100
340.700	34.396	0.100
340.800	26.543	0.100
340.900	29.822	0.100
341.000	43.943	0.100
341.100	42.547	0.100
341.200	36.411	0.100
341.300	32.682	0.100
341.400	42.802	0.100
341.500	42.560	0.100
341.600	30.239	0.100
341.700	21.987	0.100
341.800	41.586	0.100
341.900	43.234	0.100
342.000	39.670	0.100
342.100	34.553	0.100
342.200	29.348	0.100
342.300	41.391	0.100
342.400	42.248	0.100
342.500	33.825	0.100
342.600	32.483	0.100
342.700	41.972	0.100
342.800	31.510	0.100
342.900	34.240	0.100
343.000	37.188	0.100
343.100	35.241	0.100
343.200	29.801	0.100
343.300	31.710	0.100
343.400	35.771	0.100
343.500	47.585	0.100
343.600	34.921	0.100
343.700	27.269	0.100
343.800	28.597	0.100
343.900	34.438	0.100
344.000	42.309	0.100
344.100	39.470	0.100
344.200	37.021	0.100
344.300	38.198	0.100
344.400	39.506	0.100
344.500	46.776	0.100
344.600	13.843	0.100
344.700	13.543	0.100
344.800	36.541	0.100
344.900	47.073	0.100
345.000	33.561	0.100
345.100	55.369	0.100
345.200	34.573	0.100
345.300	15.310	0.100
345.400	33.267	0.100
345.500	49.749	0.100
345.600	26.891	0.100
345.700	32.148	0.100
345.800	48.149	0.100
345.900	37.781	0.100
346.000	28.614	0.100
346.100	37.310	0.100
346.200	36.083	0.100
346.300	39.411	0.100
346.400	45.456	0.100
346.500	45.793	0.100
346.600	46.201	0.100
346.700	34.349	0.100
346.800	35.377	0.100
346.900	31.709	0.100
347.000	37.588	0.100
347.100	51.497	0.100
347.200	45.680	0.100
347.300	36.845	0.100
347.400	33.503	0.100
347.500	36.885	0.100
347.600	39.395	0.100
347.700	48.277	0.100
347.800	38.353	0.100
347.900	33.011	0.100
348.000	40.389	0.100
348.100	40.467	0.100
348.200	41.534	0.100
348.300	52.734	0.100
348.400	47.915	0.100
348.500	53.543	0.100
348.600	24.957	0.100
348.700	32.972	0.100
348.800	32.569	0.100
348.900	42.973	0.100
349.000	48.435	0.100
349.100	58.976	0.100
349.200	45.164	0.100
349.300	47.249	0.100
349.400	24.991	0.100
349.500	46.634	0.100
349.600	48.752	0.100
349.700	55.505	0.100
349.800	41.062	0.100
349.900	48.859	0.100
350.000	32.845	0.100
350.100	38.449	0.100
350.200	40.900	0.100
350.300	45.267	0.100
350.400	56.725	0.100
350.500	46.920	0.100
350.600	49.334	0.100
350.700	39.820	0.100
350.800	38.814	0.100
350.900	46.061	0.100
351.000	43.711	0.100
351.100	54.436	0.100
351.200	31.358	0.100
351.300	36.082	0.100
351.400	46.924	0.100
351.500	54.374	0.100
351.600	54.367	0.100
351.700	57.333	0.100
351.800	49.595	0.100
351.900	44.923	0.100
352.000	46.882	0.100
352.100	33.824	0.100
352.200	40.082	0.100
352.300	43.179	0.100
352.400	45.089	0.100
352.500	49.664	0.100
352.600	49.510	0.100
352.700	34.802	0.100
352.800	26.884	0.100
352.900	48.026	0.100
353.000	57.091	0.100
353.100	45.755	0.100
353.200	54.019	0.100
353.300	46.078	0.100
353.400	40.637	0.100
353.500	52.329	0.100
353.600	38.528	0.100
353.700	44.954	0.100
353.800	49.253	0.100
353.900	36.946	0.100
354.000	43.725	0.100
354.100	41.235	0.100
354.200	35.350	0.100
354.300	47.749	0.100
354.400	57.380	0.100
354.500	69.061	0.100
354.600	56.536	0.100
354.700	48.429	0.100
354.800	54.426	0.100
354.900	52.026	0.100
355.000	49.244	0.100
355.100	40.623	0.100
355.200	46.557	0.100
355.300	46.473	0.100
355.400	56.597	0.100
355.500	48.996	0.100
355.600	40.173	0.100
355.700	45.346	0.100
355.800	40.360	0.100
355.900	58.017	0.100
356.000	46.877	0.100
356.100	40.716	0.100
356.200	38.039	0.100
356.300	54.911	0.100
356.400	44.235	0.100
356.500	55.881	0.100
356.600	55.123	0.100
356.700	52.464	0.100
356.800	59.958	0.100
356.900	31.814	0.100
357.000	49.601	0.100
357.100	44.898	0.100
357.200	49.633	0.100
357.300	48.532	0.100
357.400	50.559	0.100
357.500	51.692	0.100
357.600	44.768	0.100
357.700	40.221	0.100
357.800	55.501	0.100
357.900	51.853	0.100
358.000	56.742	0.100
358.100	53.532	0.100
358.200	56.137	0.100
358.300	45.248	0.100
358.400	28.371	0.100
358.500	43.997	0.100
358.600	57.427	0.100
358.700	46.741	0.100
358.800	53.687	0.100
358.900	51.294	0.100
359.000	51.110	0.100
359.100	49.593	0.100
359.200	61.147	0.100
359.300	45.182	0.100
359.400	52.003	0.100
359.500	59.755	0.100
359.600	50.753	0.100
359.700	47.780	0.100
359.800	45.995	0.100
359.900	47.662	0.100
360.000	35.079	0.100
360.100	49.742	0.100
360.200	69.163	0.100
360.300	68.449	0.100
360.400	44.950	0.100
360.500	59.932	0.100
360.600	50.875	0.100
360.700	57.616	0.100
360.800	50.742	0.100
360.900	41.573	0.100
361.000	51.406	0.100
361.100	48.108	0.100
361.200	48.498	0.100
361.300	49.073	0.100
361.400	54.044	0.100
361.500	57.297	0.100
361.600	53.807	0.100
361.700	43.263	0.100
361.800	60.370	0.100
361.900	36.634	0.100
362.000	41.808	0.100
362.100	51.767	0.100
362.200	64.802	0.100
362.300	53.759	0.100
362.400	54.893	0.100
362.500	46.040	0.100
362.600	52.434	0.100
362.700	40.850	0.100
362.800	52.544	0.100
362.900	51.082	0.100
363.000	62.943	0.100
363.100	54.278	0.100
363.200	45.300	0.100
363.300	46.884	0.100
363.400	42.264	0.100
363.500	52.962	0.100
363.600	47.333	0.100
363.700	51.113	0.100
363.800	40.936	0.100
363.900	53.495	0.100
364.000	50.629	0.100
364.100	45.940	0.100
364.200	39.729	0.100
364.300	41.068	0.100
364.400	52.267	0.100
364.500	63.110	0.100
364.600	54.571	0.100
364.700	49.765	0.100
364.800	43.887	0.100
364.900	49.673	0.100
365.000	45.508	0.100
365.100	47.111	0.100
365.200	40.567	0.100
365.300	52.959	0.100
365.400	65.086	0.100
365.500	55.720	0.100
365.600	48.612	0.100
365.700	60.820	0.100
365.800	43.193	0.100
365.900	57.899	0.100
366.000	57.811	0.100
366.100	57.322	0.100
366.200	42.907	0.100
366.300	40.772	0.100
366.400	54.316	0.100
366.500	56.587	0.100
366.600	37.763	0.100
366.700	54.956	0.100
366.800	50.439	0.100
366.900	45.719	0.100
367.000	54.210	0.100
367.100	41.626	0.100
367.200	53.282	0.100
367.300	39.245	0.100
367.400	42.356	0.100
367.500	48.277	0.100
367.600	42.012	0.100
367.700	49.629	0.100
367.800	44.123	0.100
367.900	44.468	0.100
368.000	50.385	0.100
368.100	37.664	0.100
368.200	44.558	0.100
368.300	40.165	0.100
368.400	46.649	0.100
368.500	49.049	0.100
368.600	55.594	0.100
368.700	54.526	0.100
368.800	54.532	0.100
368.900	54.616	0.100
369.000	53.742	0.100
369.100	52.507	0.100
369.200	52.638	0.100
369.300	61.890	0.100
369.400	43.118	0.100
369.500	57.566	0.100
369.600	48.408	0.100
369.700	44.857	0.100
369.800	52.144	0.100
369.900	45.221	0.100
370.000	36.009	0.100
370.100	47.729	0.100
370.200	69.064	0.100
370.300	55.949	0.100
370.400	51.169	0.100
370.500	33.476	0.100
370.600	58.167	0.100
370.700	36.900	0.100
370.800	49.491	0.100
370.900	42.210	0.100
371.000	60.115	0.100
371.100	32.392	0.100
371.200	44.715	0.100
371.300	30.138	0.100
371.400	55.322	0.100
371.500	59.942	0.100
371.600	50.828	0.100
371.700	40.505	0.100
371.800	54.330	0.100
371.900	41.495	0.100
372.000	46.256	0.100
372.100	51.436	0.100
372.200	42.988	0.100
372.300	54.765	0.100
372.400	48.404	0.100
372.500	52.806	0.100
372.600	37.775	0.100
372.700	44.444	0.100
372.800	62.944	0.100
372.900	67.738	0.100
373.000	50.182	0.100
373.100	47.111	0.100
373.200	43.275	0.100
373.300	55.750	0.100
373.400	57.314	0.100
373.500	53.128	0.100
373.600	49.378	0.100
373.700	44.728	0.100
373.800	31.878	0.100
373.900	55.765	0.100
374.000	51.151	0.100
374.100	63.352	0.100
374.200	54.459	0.100
374.300	45.960	0.100
374.400	40.545	0.100
374.500	41.915	0.100
374.600	52.593	0.100
374.700	47.695	0.100
374.800	50.340	0.100
374.900	61.660	0.100
375.000	43.327	0.100
375.100	46.729	0.100
375.200	53.532	0.100
375.300	53.070	0.100
375.400	39.219	0.100
375.500	47.063	0.100
375.600	35.315	0.100
375.700	56.814	0.100
375.800	47.971	0.100
375.900	52.343	0.100
376.000	63.395	0.100
376.100	39.079	0.100
376.200	39.187	0.100
376.300	64.508	0.100
376.400	57.353	0.100
376.500	51.975	0.100
376.600	37.632	0.100
376.700	31.029	0.100
376.800	44.433	0.100
376.900	44.452	0.100
377.000	48.994	0.100
377.100	55.348	0.100
377.200	51.511	0.100
377.300	46.958	0.100
377.400	42.595	0.100
377.500	54.777	0.100
377.600	35.946	0.100
377.700	52.384	0.100
377.800	52.414	0.100
377.900	44.511	0.100
378.000	39.696	0.100
378.100	41.044	0.100
378.200	51.667	0.100
378.300	43.238	0.100
378.400	42.613	0.100
378.500	53.538	0.100
378.600	40.505	0.100
378.700	40.621	0.100
378.800	39.784	0.100
378.900	46.812	0.100
379.000	53.945	0.100
379.100	37.665	0.100
379.200	51.921	0.100
379.300	56.455	0.100
379.400	48.079	0.100
379.500	64.869	0.100
379.600	45.567	0.100
379.700	42.388	0.100
379.800	45.681	0.100
379.900	39.423	0.100
380.000	68.823	0.100
380.100	56.991	0.100
380.200	52.598	0.100
380.300	41.565	0.100
380.400	52.862	0.100
380.500	42.614	0.100
380.600	38.056	0.100
380.700	52.401	0.100
380.800	33.734	0.100
380.900	50.363	0.100
381.000	43.140	0.100
381.100	39.924	0.100
381.200	51.101	0.100
381.300	46.965	0.100
381.400	59.476	0.100
381.500	55.254	0.100
381.600	28.450	0.100
381.700	48.575	0.100
381.800	51.305	0.100
381.900	46.965	0.100
382.000	48.265	0.100
382.100	53.730	0.100
382.200	36.879	0.100
382.300	49.410	0.100
382.400	53.251	0.100
382.500	42.652	0.100
382.600	39.117	0.100
382.700	41.642	0.100
382.800	51.523	0.100
382.900	46.864	0.100
383.000	44.407	0.100
383.100	53.181	0.100
383.200	39.756	0.100
383.300	38.027	0.100
383.400	46.835	0.100
383.500	51.479	0.100
383.600	52.397	0.100
383.700	42.129	0.100
383.800	44.326	0.100
383.900	48.376	0.100
384.000	51.555	0.100
384.100	45.353	0.100
384.200	37.545	0.100
384.300	38.933	0.100
384.400	46.586	0.100
384.500	44.073	0.100
384.600	40.706	0.100
384.700	46.046	0.100
384.800	53.809	0.100
384.900	30.957	0.100
385.000	48.345	0.100
385.100	54.413	0.100
385.200	54.171	0.100
385.300	52.118	0.100
385.400	43.971	0.100
385.500	39.912	0.100
385.600	59.596	0.100
385.700	49.386	0.100
385.800	43.394	0.100
385.900	45.251	0.100
386.000	56.915	0.100
386.100	43.705	0.100
386.200	22.100	0.100
386.300	40.794	0.100
386.400	54.018	0.100
386.500	48.376	0.100
386.600	53.322	0.100
386.700	43.532	0.100
386.800	38.751	0.100
386.900	58.320	0.100
387.000	48.949	0.100
387.100	36.443	0.100
387.200	41.006	0.100
387.300	51.296	0.100
387.400	42.646	0.100
387.500	40.801	0.100
387.600	57.958	0.100
387.700	55.674	0.100
387.800	52.008	0.100
387.900	37.122	0.100
388.000	49.256	0.100
388.100	54.942	0.100
388.200	42.276	0.100
388.300	48.894	0.100
388.400	55.395	0.100
388.500	41.113	0.100
388.600	44.236	0.100
388.700	50.734	0.100
388.800	35.561	0.100
388.900	41.174	0.100
389.000	42.705	0.100
389.100	49.982	0.100
389.200	40.999	0.100
389.300	56.344	0.100
389.400	43.720	0.100
389.500	56.795	0.100
389.600	50.636	0.100
389.700	36.753	0.100
389.800	36.559	0.100
389.900	47.502	0.100
390.000	41.852	0.100
390.100	30.209	0.100
390.200	45.266	0.100
390.300	34.166	0.100
390.400	40.862	0.100
390.500	22.416	0.100
390.600	36.935	0.100
390.700	22.626	0.100
390.800	16.550	0.100
390.900	24.769	0.100
391.000	11.708	0.100
391.100	10.553	0.100
391.200	7.607	0.100
391.300	3.651	0.100
391.400	25.911	0.100
391.500	12.275	0.100
391.600	9.501	0.100
391.700	8.496	0.100
391.800	13.018	0.100
391.900	3.083	0.100
392.000	-7.752	0.100
392.100	-2.264	0.100
392.200	-2.018	0.100
392.300	0.701	0.100
392.400	2.883	0.100
392.500	0.989	0.100
392.600	2.749	0.100
392.700	3.911	0.100
392.800	-3.617	0.100
392.900	-10.519	0.100
393.000	-4.007	0.100
393.100	-5.792	0.100
393.200	-16.924	0.100
393.300	6.451	0.100
393.400	-2.377	0.100
393.500	-4.277	0.100
393.600	-10.773	0.100
393.700	-9.225	0.100
393.800	-13.470	0.100
393.900	-2.174	0.100
394.000	-11.707	0.100
394.100	-9.281	0.100
394.200	-14.752	0.100
394.300	-3.358	0.100
394.400	-1.748	0.100
394.500	-8.278	0.100
394.600	-6.533	0.100
394.700	-8.387	0.100
394.800	3.605	0.100
394.900	-7.012	0.100
395.000	-7.854	0.100
395.100	7.301	0.100
395.200	-7.684	0.100
395.300	-11.255	0.100
395.400	-9.987	0.100
395.500	-4.077	0.100
395.600	-1.835	0.100
395.700	-6.452	0.100
395.800	-9.195	0.100
395.900	-3.545	0.100
396.000	-11.757	0.100
396.100	0.739	0.100
396.200	2.540	0.100
396.300	-3.565	0.100
396.400	-9.216	0.100
396.500	-14.598	0.100
396.600	-6.669	0.100
396.700	-6.225	0.100
396.800	7.507	0.100
396.900	2.851	0.100
397.000	0.587	0.100
397.100	-19.003	0.100
397.200	-10.931	0.100
397.300	-3.015	0.100
397.400	2.556	0.100
397.500	-6.228	0.100
397.600	-15.061	0.100
397.700	-4.042	0.100
397.800	-6.981	0.100
397.900	-15.784	0.100
398.000	1.605	0.100
398.100	-9.315	0.100
398.200	-7.107	0.100
398.300	-2.825	0.100
398.400	-14.487	0.100
398.500	-8.337	0.100
398.600	-9.552	0.100
398.700	5.405	0.100
398.800	-1.802	0.100
398.900	-7.970	0.100
399.000	-7.875	0.100
399.100	-8.080	0.100
399.200	-6.650	0.100
399.300	-5.959	0.100
399.400	-11.994	0.100
399.500	7.353	0.100
399.600	-11.635	0.100
399.700	-2.134	0.100
399.800	2.773	0.100
399.900	-19.364	0.100
400.000	-3.930	0.100
400.100	-2.365	0.100
400.200	-2.170	0.100
400.300	-0.628	0.100
400.400	2.330	0.100
400.500	-12.346	0.100
400.600	-6.401	0.100
400.700	-1.934	0.100
400.800	-12.171	0.100
400.900	-3.307	0.100
401.000	-12.747	0.100
401.100	-13.269	0.100
401.200	-5.709	0.100
401.300	-9.381	0.100
401.400	-19.989	0.100
401.500	-9.248	0.100
401.600	7.973	0.100
401.700	-1.313	0.100
401.800	2.858	0.100
401.900	-3.334	0.100
402.000	-9.101	0.100
402.100	-2.199	0.100
402.200	-5.774	0.100
402.300	-5.479	0.100
402.400	-5.188	0.100
402.500	-3.487	0.100
402.600	-5.069	0.100
402.700	-1.272	0.100
402.800	12.211	0.100
402.900	-8.357	0.100
403.000	-14.319	0.100
403.100	-10.266	0.100
403.200	3.494	0.100
403.300	-1.441	0.100
403.400	-10.921	0.100
403.500	-13.505	0.100
403.600	-17.239	0.100
403.700	-12.094	0.100
403.800	3.071	0.100
403.900	0.171	0.100
404.000	-13.990	0.100
404.100	-6.379	0.100
404.200	-10.426	0.100
404.300	-9.233	0.100
404.400	-5.073	0.100
404.500	-9.461	0.100
404.600	-6.919	0.100
404.700	-11.409	0.100
404.800	-4.792	0.100
404.900	-18.385	0.100
405.000	-4.046	0.100
405.100	10.665	0.100
405.200	-1.718	0.100
405.300	-10.525	0.100
405.400	-20.070	0.100
405.500	-7.818	0.100
405.600	-2.308	0.100
405.700	-8.652	0.100
405.800	-12.709	0.100
405.900	-10.878	0.100
406.000	-8.871	0.100
406.100	-10.020	0.100
406.200	-15.503	0.100
406.300	-11.536	0.100
406.400	-5.023	0.100
406.500	-14.000	0.100
406.600	-11.577	0.100
406.700	-3.712	0.100
406.800	-6.237	0.100
406.900	-13.660	0.100
407.000	-11.393	0.100
407.100	-14.366	0.100
407.200	-6.070	0.100
407.300	-24.621	0.100
407.400	-12.026	0.100
407.500	-6.050	0.100
407.600	-16.993	0.100
407.700	0.059	0.100
407.800	-12.113	0.100
407.900	-7.363	0.100
408.000	-17.485	0.100
408.100	-5.348	0.100
408.200	-7.887	0.100
408.300	-6.716	0.100
408.400	-9.022	0.100
408.500	-7.121	0.100
408.600	-24.492	0.100
408.700	-2.834	0.100
408.800	-17.136	0.100
408.900	-14.040	0.100
409.000	-3.872	0.100
409.100	-14.118	0.100
409.200	-19.947	0.100
409.300	-22.228	0.100
409.400	-11.428	0.100
409.500	-19.828	0.100
409.600	-5.224	0.100
409.700	-10.996	0.100
409.800	-12.344	0.100
409.900	-14.512	0.100
410.000	-19.757	0.100
410.100	-22.101	0.100
410.200	-13.859	0.100
410.300	-3.015	0.100
410.400	-7.660	0.100
410.500	-8.005	0.100
410.600	-7.727	0.100
410.700	1.068	0.100
410.800	-1.603	0.100
410.900	-19.455	0.100
411.000	-15.935	0.100
411.100	-16.406	0.100
411.200	-11.144	0.100
411.300	-10.707	0.100
411.400	-15.755	0.100
411.500	-17.202	0.100
411.600	-15.044	0.100
411.700	-10.838	0.100
411.800	-12.184	0.100
411.900	-19.392	0.100
412.000	-31.066	0.100
412.100	-4.499	0.100
412.200	-7.712	0.100
412.300	-15.249	0.100
412.400	-9.096	0.100
412.500	-14.444	0.100
412.600	-23.896	0.100
412.700	-2.634	0.100
412.800	-22.449	0.100
412.900	-17.234	0.100
413.000	-1.893	0.100
413.100	-21.028	0.100
413.200	-12.194	0.100
413.300	-15.531	0.100
413.400	-15.794	0.100
413.500	-4.547	0.100
413.600	-26.612	0.100
413.700	-22.557	0.100
413.800	-16.582	0.100
413.900	-8.227	0.100
414.000	-1.503	0.100
414.100	-11.072	0.100
414.200	-8.944	0.100
414.300	-13.667	0.100
414.400	-14.657	0.100
414.500	-15.831	0.100
414.600	-21.418	0.100
414.700	-24.139	0.100
414.800	-24.478	0.100
414.900	-14.577	0.100
415.000	-11.007	0.100
415.100	-21.943	0.100
415.200	-9.527	0.100
415.300	-14.226	0.100
415.400	-30.144	0.100
415.500	-14.155	0.100
415.600	-13.054	0.100
415.700	-22.814	0.100
415.800	-17.964	0.100
415.900	-19.312	0.100
416.000	-27.529	0.100
416.100	-2.576	0.100
416.200	-4.634	0.100
416.300	-19.788	0.100
416.400	-23.997	0.100
416.500	-9.436	0.100
416.600	-18.654	0.100
416.700	-19.321	0.100
416.800	-6.272	0.100
416.900	-17.877	0.100
417.000	-10.517	0.100
417.100	-10.196	0.100
417.200	-20.105	0.100
417.300	-18.888	0.100
417.400	-18.869	0.100
417.500	-11.463	0.100
417.600	-19.752	0.100
417.700	-27.383	0.100
417.800	-31.952	0.100
417.900	-24.734	0.100
418.000	-22.654	0.100
418.100	-13.415	0.100
418.200	-13.204	0.100
418.300	-15.503	0.100
418.400	-5.321	0.100
418.500	-12.687	0.100
418.600	-12.095	0.100
418.700	-19.818	0.100
418.800	-22.906	0.100
418.900	-3.249	0.100
419.000	-11.977	0.100
419.100	-23.522	0.100
419.200	-11.832	0.100
419.300	-10.877	0.100
419.400	-20.862	0.100
419.500	-30.897	0.100
419.600	-12.778	0.100
419.700	-18.300	0.100
419.800	-12.349	0.100
419.900	-22.424	0.100
420.000	-13.101	0.100
420.100	-20.547	0.100
420.200	-18.105	0.100
420.300	-21.982	0.100
420.400	-24.987	0.100
420.500	-15.936	0.100
420.600	-17.596	0.100
420.700	-21.178	0.100
420.800	-18.270	0.100
420.900	-9.184	0.100
421.000	-16.056	0.100
421.100	-14.019	0.100
421.200	-18.374	0.100
421.300	-17.974	0.100
421.400	-23.864	0.100
421.500	-24.252	0.100
421.600	-17.990	0.100
421.700	-10.436	0.100
421.800	-22.724	0.100
421.900	-16.085	0.100
422.000	-8.716	0.100
422.100	-10.510	0.100
422.200	-17.091	0.100
422.300	-19.520	0.100
422.400	-10.316	0.100
422.500	-21.877	0.100
422.600	-11.183	0.100
422.700	-20.120	0.100
422.800	-15.091	0.100
422.900	-23.892	0.100
423.000	-17.866	0.100
423.100	-22.811	0.100
423.200	-17.265	0.100
423.300	-14.255	0.100
423.400	-11.944	0.100
423.500	-31.271	0.100
423.600	-17.941	0.100
423.700	-20.101	0.100
423.800	-26.304	0.100
423.900	-20.079	0.100
424.000	-8.045	0.100
424.100	-13.617	0.100
424.200	-11.915	0.100
424.300	-20.937	0.100
424.400	-9.718	0.100
424.500	-15.773	0.100
424.600	-15.160	0.100
424.700	-15.115	0.100
424.800	-11.073	0.100
424.900	-29.315	0.100
425.000	-18.441	0.100
425.100	-22.087	0.100
425.200	-5.007	0.100
425.300	-7.975	0.100
425.400	-23.067	0.100
425.500	-15.374	0.100
425.600	-25.826	0.100
425.700	-18.799	0.100
425.800	-16.339	0.100
425.900	-33.466	0.100
426.000	-12.607	0.100
426.100	-32.264	0.100
426.200	-11.027	0.100
426.300	-20.960	0.100
426.400	0.483	0.100
426.500	-19.678	0.100
426.600	-18.515	0.100
426.700	-29.693	0.100
426.800	-23.518	0.100
426.900	-21.875	0.100
427.000	-17.712	0.100
427.100	-28.409	0.100
427.200	-23.369	0.100
427.300	-8.201	0.100
427.400	-2.156	0.100
427.500	-16.556	0.100
427.600	-15.460	0.100
427.700	-18.162	0.100
427.800	-15.228	0.100
427.900	-15.629	0.100
428.000	-11.583	0.100
428.100	-10.244	0.100
428.200	-17.256	0.100
428.300	-29.014	0.100
428.400	-29.642	0.100
428.500	-33.929	0.100
428.600	-7.030	0.100
428.700	-9.773	0.100
428.800	-12.718	0.100
428.900	-12.184	0.100
429.000	-12.978	0.100
429.100	-23.632	0.100
429.200	-21.694	0.100
429.300	-8.991	0.100
429.400	-23.567	0.100
429.500	-19.422	0.100
429.600	-21.428	0.100
429.700	-15.607	0.100
429.800	-21.874	0.100
429.900	-13.463	0.100
430.000	-22.658	0.100
430.100	-16.941	0.100
430.200	-16.880	0.100
430.300	-31.768	0.100
430.400	-28.611	0.100
430.500	-14.406	0.100
430.600	-18.965	0.100
430.700	-19.802	0.100
430.800	-22.810	0.100
430.900	-23.445	0.100
431.000	-21.719	0.100
431.100	-11.319	0.100
431.200	-17.990	0.100
431.300	-24.734	0.100
431.400	-14.626	0.100
431.500	-25.356	0.100
431.600	-16.459	0.100
431.700	-15.895	0.100
431.800	-29.610	0.100
431.900	-28.935	0.100
432.000	-20.411	0.100
432.100	-21.486	0.100
432.200	-17.912	0.100
432.300	-17.057	0.100
432.400	-10.444	0.100
432.500	-26.330	0.100
432.600	-24.855	0.100
432.700	-30.060	0.100
432.800	-24.628	0.100
432.900	-15.850	0.100
433.000	-17.144	0.100
433.100	-28.706	0.100
433.200	-22.436	0.100
433.300	-13.251	0.100
433.400	-32.360	0.100
433.500	-19.448	0.100
433.600	-10.095	0.100
433.700	-7.386	0.100
433.800	-16.672	0.100
433.900	-41.401	0.100
434.000	-22.288	0.100
434.100	-33.644	0.100
434.200	-10.350	0.100
434.300	-18.851	0.100
434.400	-18.644	0.100
434.500	-23.669	0.100
434.600	-22.710	0.100
434.700	-18.793	0.100
434.800	-19.220	0.100
434.900	-14.417	0.100
435.000	-22.465	0.100
435.100	-11.413	0.100
435.200	-20.546	0.100
435.300	-9.696	0.100
435.400	-28.511	0.100
435.500	-19.075	0.100
435.600	-11.532	0.100
435.700	-13.321	0.100
435.800	-24.609	0.100
435.900	-34.704	0.100
436.000	-21.552	0.100
436.100	-14.538	0.100
436.200	-22.623	0.100
436.300	-22.073	0.100
436.400	-10.737	0.100
436.500	-26.504	0.100
436.600	-12.577	0.100
436.700	-15.658	0.100
436.800	-14.190	0.100
436.900	-23.080	0.100
437.000	-29.532	0.100
437.100	-17.666	0.100
437.200	-14.819	0.100
437.300	-10.131	0.100
437.400	-22.322	0.100
437.500	-14.380	0.100
437.600	-12.653	0.100
437.700	-18.416	0.100
437.800	-15.269	0.100
437.900	-22.946	0.100
438.000	-22.640	0.100
438.100	-35.236	0.100
438.200	-16.638	0.100
438.300	-26.258	0.100
438.400	-27.457	0.100
438.500	-18.500	0.100
438.600	-12.396	0.100
438.700	-13.610	0.100
438.800	-12.995	0.100
438.900	-19.171	0.100
439.000	-18.409	0.100
439.100	-15.052	0.100
439.200	-22.829	0.100
439.300	-17.292	0.100
439.400	-12.040	0.100
439.500	-19.806	0.100
439.600	-19.714	0.100
439.700	-35.786	0.100
439.800	-15.238	0.100
439.900	0.132	0.100
440.000	-7.428	0.100
440.100	-26.261	0.100
440.200	-28.963	0.100
440.300	-8.260	0.100
440.400	-8.870	0.100
440.500	-24.246	0.100
440.600	-21.245	0.100
440.700	-16.049	0.100
440.800	-18.787	0.100
440.900	1.625	0.100
441.000	-14.858	0.100
441.100	-23.745	0.100
441.200	-19.499	0.100
441.300	-21.998	0.100
441.400	-19.004	0.100
441.500	-18.551	0.100
441.600	-19.289	0.100
441.700	-9.908	0.100
441.800	-14.556	0.100
441.900	-20.727	0.100
442.000	-9.988	0.100
442.100	-25.606	0.100
442.200	-27.681	0.100
442.300	-18.732	0.100
442.400	-11.971	0.100
442.500	-9.349	0.100
442.600	-18.732	0.100
442.700	-13.013	0.100
442.800	-20.404	0.100
442.900	-21.901	0.100
443.000	-4.651	0.100
443.100	-24.640	0.100
443.200	-22.163	0.100
443.300	-17.954	0.100
443.400	-14.946	0.100
443.500	-34.123	0.100
443.600	-21.801	0.100
443.700	-21.361	0.100
443.800	-9.953	0.100
443.900	-18.582	0.100
444.000	-5.795	0.100
444.100	-19.590	0.100
444.200	-19.172	0.100
444.300	-20.652	0.100
444.400	-13.918	0.100
444.500	-26.181	0.100
444.600	-19.362	0.100
444.700	-18.988	0.100
444.800	-18.539	0.100
444.900	-20.949	0.100
445.000	-19.512	0.100
445.100	-20.158	0.100
445.200	-25.151	0.100
445.300	-12.035	0.100
445.400	-7.984	0.100
445.500	-7.504	0.100
445.600	-17.467	0.100
445.700	-12.175	0.100
445.800	-15.803	0.100
445.900	-27.352	0.100
446.000	-23.080	0.100
446.100	-13.442	0.100
446.200	-21.020	0.100
446.300	-15.879	0.100
446.400	-11.058	0.100
446.500	-7.749	0.100
446.600	-29.515	0.100
446.700	-18.103	0.100
446.800	-20.972	0.100
446.900	-8.873	0.100
447.000	-28.909	0.100
447.100	-20.507	0.100
447.200	-26.885	0.100
447.300	-6.273	0.100
447.400	-3.798	0.100
447.500	-13.646	0.100
447.600	-16.162	0.100
447.700	-20.494	0.100
447.800	-8.210	0.100
447.900	-14.603	0.100
448.000	-16.553	0.100
448.100	-21.549	0.100
448.200	-18.774	0.100
448.300	-11.496	0.100
448.400	-29.552	0.100
448.500	-25.627	0.100
448.600	-19.013	0.100
448.700	-21.838	0.100
448.800	-26.052	0.100
448.900	-16.456	0.100
449.000	-7.187	0.100
449.100	-14.887	0.100
449.200	-13.082	0.100
449.300	-21.233	0.100
449.400	-19.875	0.100
449.500	-10.365	0.100
449.600	-28.571	0.100
449.700	-7.905	0.100
449.800	-16.076	0.100
449.900	-15.919	0.100
450.000	-15.807	0.100
450.100	-30.715	0.100
450.200	-12.629	0.100
450.300	-3.849	0.100
450.400	-13.504	0.100
450.500	-15.621	0.100
450.600	-8.295	0.100
450.700	-20.440	0.100
450.800	-30.687	0.100
450.900	-17.234	0.100
451.000	-11.487	0.100
451.100	-7.460	0.100
451.200	-22.363	0.100
451.300	-27.762	0.100
451.400	-22.880	0.100
451.500	-8.703	0.100
451.600	-11.300	0.100
451.700	-21.826	0.100
451.800	-10.700	0.100
451.900	-15.209	0.100
452.000	-6.484	0.100
452.100	-13.831	0.100
452.200	-8.811	0.100
452.300	-17.502	0.100
452.400	-28.597	0.100
452.500	-24.640	0.100
452.600	-13.139	0.100
452.700	-11.679	0.100
452.800	-14.609	0.100
452.900	-19.253	0.100
453.000	-14.502	0.100
453.100	-10.167	0.100
453.200	-19.473	0.100
453.300	-21.523	0.100
453.400	-13.183	0.100
453.500	-18.927	0.100
453.600	-24.171	0.100
453.700	-15.777	0.100
453.800	-19.480	0.100
453.900	-7.754	0.100
454.000	0.503	0.100
454.100	-15.379	0.100
454.200	-21.115	0.100
454.300	-10.375	0.100
454.400	-17.425	0.100
454.500	-20.700	0.100
454.600	-20.722	0.100
454.700	-18.281	0.100
454.800	-16.056	0.100
454.900	-16.303	0.100
455.000	-26.446	0.100
455.100	-17.045	0.100
455.200	-23.634	0.100
455.300	-13.668	0.100
455.400	-14.995	0.100
455.500	-16.648	0.100
455.600	0.623	0.100
455.700	-13.969	0.100
455.800	-20.460	0.100
455.900	-28.679	0.100
456.000	-22.144	0.100
456.100	-20.749	0.100
456.200	-14.027	0.100
456.300	-13.477	0.100
456.400	-22.355	0.100
456.500	-11.542	0.100
456.600	-11.072	0.100
456.700	-1.471	0.100
456.800	-6.059	0.100
456.900	-22.381	0.100
457.000	-21.217	0.100
457.100	-2.265	0.100
457.200	-11.045	0.100
457.300	-9.009	0.100
457.400	-19.757	0.100
457.500	-1.967	0.100
457.600	-5.423	0.100
457.700	-18.547	0.100
457.800	-18.466	0.100
457.900	-2.877	0.100
458.000	-21.868	0.100
458.100	-4.182	0.100
458.200	-19.268	0.100
458.300	-12.416	0.100
458.400	-17.086	0.100
458.500	-13.445	0.100
458.600	-11.392	0.100
458.700	-17.227	0.100
458.800	-15.512	0.100
458.900	-18.195	0.100
459.000	-29.468	0.100
459.100	-25.014	0.100
459.200	-3.849	0.100
459.300	-4.485	0.100
459.400	-8.573	0.100
459.500	-13.152	0.100
459.600	-21.729	0.100
459.700	-23.343	0.100
459.800	3.509	0.100
459.900	-20.285	0.100
460.000	-2.877	0.100
460.100	-4.196	0.100
460.200	-16.665	0.100
460.300	-18.429	0.100
460.400	-7.256	0.100
460.500	-19.293	0.100
460.600	-13.979	0.100
460.700	-17.713	0.100
460.800	-8.455	0.100
460.900	-16.656	0.100
461.000	-25.299	0.100
461.100	-11.193	0.100
461.200	-5.209	0.100
461.300	-10.878	0.100
461.400	-14.964	0.100
461.500	-13.243	0.100
461.600	-7.865	0.100
461.700	-20.472	0.100
461.800	-14.589	0.100
461.900	-10.494	0.100
462.000	-13.662	0.100
462.100	-12.090	0.100
462.200	-14.426	0.100
462.300	-24.202	0.100
462.400	-23.728	0.100
462.500	-19.866	0.100
462.600	-10.098	0.100
462.700	-7.619	0.100
462.800	-1.244	0.100
462.900	-6.465	0.100
463.000	-12.671	0.100
463.100	-9.943	0.100
463.200	-16.061	0.100
463.300	-37.173	0.100
463.400	-3.087	0.100
463.500	-18.253	0.100
463.600	-14.910	0.100
463.700	-14.450	0.100
463.800	-10.817	0.100
463.900	-5.494	0.100
464.000	-11.609	0.100
464.100	-17.306	0.100
464.200	-5.690	0.100
464.300	-18.628	0.100
464.400	-16.297	0.100
464.500	-17.739	0.100
464.600	-17.134	0.100
464.700	-28.754	0.100
464.800	-10.931	0.100
464.900	-11.819	0.100
465.000	-10.376	0.100
465.100	-10.452	0.100
465.200	-7.359	0.100
465.300	-8.792	0.100
465.400	-1.705	0.100
465.500	-25.855	0.100
465.600	-18.563	0.100
465.700	-11.239	0.100
465.800	-15.026	0.100
465.900	-25.788	0.100
466.000	-0.455	0.100
466.100	-6.410	0.100
466.200	-17.594	0.100
466.300	-18.001	0.100
466.400	-11.598	0.100
466.500	-15.421	0.100
466.600	-17.627	0.100
466.700	-11.400	0.100
466.800	-13.203	0.100
466.900	-10.373	0.100
467.000	-4.349	0.100
467.100	-12.951	0.100
467.200	-14.164	0.100
467.300	-11.435	0.100
467.400	-8.163	0.100
467.500	-14.580	0.100
467.600	-12.911	0.100
467.700	-9.583	0.100
467.800	-5.877	0.100
467.900	-17.399	0.100
468.000	-14.780	0.100
468.100	-19.030	0.100
468.200	-16.883	0.100
468.300	-14.708	0.100
468.400	-7.266	0.100
468.500	-13.550	0.100
468.600	-8.565	0.100
468.700	-11.425	0.100
468.800	-17.877	0.100
468.900	-3.201	0.100
469.000	-8.923	0.100
469.100	-10.899	0.100
469.200	-8.578	0.100
469.300	-11.188	0.100
469.400	-15.826	0.100
469.500	-24.287	0.100
469.600	-16.101	0.100
469.700	-9.563	0.100
469.800	-19.678	0.100
469.900	-1.559	0.100
470.000	-4.632	0.100
470.100	-5.539	0.100
470.200	-16.457	0.100
470.300	-18.959	0.100
470.400	4.113	0.100
470.500	-4.154	0.100
470.600	-11.607	0.100
470.700	-16.481	0.100
470.800	-19.256	0.100
470.900	-16.726	0.100
471.000	-17.300	0.100
471.100	-18.438	0.100
471.200	-17.082	0.100
471.300	-13.084	0.100
471.400	-13.879	0.100
471.500	-0.253	0.100
471.600	-5.906	0.100
471.700	-21.367	0.100
471.800	-15.756	0.100
471.900	10.376	0.100
472.000	-15.596	0.100
472.100	-16.171	0.100
472.200	-14.661	0.100
472.300	-9.485	0.100
472.400	-14.459	0.100
472.500	-0.129	0.100
472.600	-16.420	0.100
472.700	-29.929	0.100
472.800	-7.722	0.100
472.900	-11.763	0.100
473.000	-9.274	0.100
473.100	-21.475	0.100
473.200	-14.103	0.100
473.300	-18.362	0.100
473.400	-3.189	0.100
473.500	-16.072	0.100
473.600	-33.214	0.100
473.700	3.453	0.100
473.800	-14.160	0.100
473.900	-10.504	0.100
474.000	-3.277	0.100
474.100	-10.549	0.100
474.200	-26.890	0.100
474.300	-23.210	0.100
474.400	-9.494	0.100
474.500	-9.426	0.100
474.600	-12.413	0.100
474.700	1.106	0.100
474.800	-6.321	0.100
474.900	-18.082	0.100
475.000	-13.166	0.100
475.100	-20.465	0.100
475.200	-5.855	0.100
475.300	-14.045	0.100
475.400	-12.630	0.100
475.500	-13.251	0.100
475.600	-3.385	0.100
475.700	-13.821	0.100
475.800	-18.423	0.100
475.900	-10.631	0.100
476.000	-17.119	0.100
476.100	-17.498	0.100
476.200	-6.808	0.100
476.300	-2.426	0.100
476.400	-21.005	0.100
476.500	-4.838	0.100
476.600	-0.806	0.100
476.700	3.515	0.100
476.800	-13.579	0.100
476.900	-18.077	0.100
477.000	-26.352	0.100
477.100	-18.174	0.100
477.200	-7.139	0.100
477.300	-0.019	0.100
477.400	-20.898	0.100
477.500	-13.156	0.100
477.600	-21.684	0.100
477.700	-10.668	0.100
477.800	1.856	0.100
477.900	0.675	0.100
478.000	-10.711	0.100
478.100	-16.954	0.100
478.200	-24.796	0.100
478.300	-16.126	0.100
478.400	-2.352	0.100
478.500	-10.041	0.100
478.600	-15.182	0.100
478.700	-25.882	0.100
478.800	-14.340	0.100
478.900	-15.411	0.100
479.000	-13.040	0.100
479.100	-12.545	0.100
479.200	-9.362	0.100
479.300	-0.870	0.100
479.400	-18.084	0.100
479.500	-9.214	0.100
479.600	-16.776	0.100
479.700	-18.394	0.100
479.800	-11.671	0.100
479.900	-6.097	0.100
480.000	-2.684	0.100
480.100	-4.402	0.100
480.200	-8.660	0.100
480.300	4.997	0.100
480.400	1.734	0.100
480.500	12.023	0.100
480.600	4.732	0.100
480.700	13.216	0.100
480.800	13.306	0.100
480.900	17.655	0.100
481.000	18.893	0.100
481.100	43.853	0.100
481.200	24.099	0.100
481.300	31.358	0.100
481.400	32.487	0.100
481.500	43.668	0.100
481.600	37.855	0.100
481.700	41.646	0.100
481.800	45.391	0.100
481.900	41.596	0.100
482.000	37.791	0.100
482.100	53.471	0.100
482.200	42.275	0.100
482.300	56.311	0.100
482.400	40.605	0.100
482.500	37.067	0.100
482.600	45.926	0.100
482.700	63.313	0.100
482.800	56.903	0.100
482.900	49.067	0.100
483.000	46.098	0.100
483.100	39.235	0.100
483.200	40.261	0.100
483.300	56.857	0.100
483.400	48.259	0.100
483.500	50.303	0.100
483.600	51.796	0.100
483.700	41.558	0.100
483.800	38.674	0.100
483.900	54.979	0.100
484.000	42.157	0.100
484.100	49.169	0.100
484.200	53.980	0.100
484.300	51.264	0.100
484.400	39.747	0.100
484.500	30.638	0.100
484.600	29.558	0.100
484.700	53.335	0.100
484.800	47.337	0.100
484.900	48.635	0.100
485.000	36.715	0.100
485.100	37.914	0.100
485.200	40.368	0.100
485.300	40.704	0.100
485.400	41.993	0.100
485.500	42.675	0.100
485.600	40.545	0.100
485.700	32.191	0.100
485.800	37.833	0.100
485.900	41.985	0.100
486.000	36.212	0.100
486.100	37.533	0.100
486.200	39.509	0.100
486.300	35.856	0.100
486.400	36.521	0.100
486.500	27.653	0.100
486.600	26.148	0.100
486.700	41.360	0.100
486.800	40.680	0.100
486.900	36.616	0.100
487.000	35.641	0.100
487.100	30.621	0.100
487.200	46.432	0.100
487.300	41.942	0.100
487.400	31.364	0.100
487.500	32.535	0.100
487.600	39.400	0.100
487.700	41.317	0.100
487.800	37.850	0.100
487.900	27.021	0.100
488.000	45.787	0.100
488.100	32.069	0.100
488.200	42.483	0.100
488.300	32.056	0.100
488.400	29.576	0.100
488.500	30.893	0.100
488.600	35.239	0.100
488.700	32.159	0.100
488.800	41.968	0.100
488.900	35.233	0.100
489.000	38.147	0.100
489.100	27.390	0.100
489.200	31.111	0.100
489.300	36.020	0.100
489.400	51.554	0.100
489.500	37.985	0.100
489.600	31.039	0.100
489.700	32.061	0.100
489.800	31.425	0.100
489.900	31.867	0.100
490.000	44.653	0.100
490.100	30.902	0.100
490.200	35.724	0.100
490.300	28.722	0.100
490.400	40.216	0.100
490.500	33.898	0.100
490.600	35.318	0.100
490.700	37.615	0.100
490.800	38.233	0.100
490.900	31.231	0.100
491.000	30.174	0.100
491.100	26.221	0.100
491.200	22.696	0.100
491.300	33.443	0.100
491.400	37.358	0.100
491.500	33.892	0.100
491.600	24.302	0.100
491.700	36.655	0.100
491.800	41.042	0.100
491.900	54.902	0.100
492.000	38.112	0.100
492.100	42.822	0.100
492.200	35.823	0.100
492.300	23.380	0.100
492.400	35.338	0.100
492.500	34.355	0.100
492.600	21.977	0.100
492.700	24.690	0.100
492.800	25.623	0.100
492.900	30.806	0.100
493.000	14.504	0.100
493.100	31.807	0.100
493.200	32.885	0.100
493.300	43.675	0.100
493.400	35.888	0.100
493.500	31.857	0.100
493.600	32.585	0.100
493.700	27.828	0.100
493.800	40.918	0.100
493.900	30.783	0.100
494.000	45.066	0.100
494.100	30.718	0.100
494.200	27.508	0.100
494.300	18.321	0.100
494.400	36.895	0.100
494.500	40.099	0.100
494.600	39.490	0.100
494.700	32.960	0.100
494.800	38.222	0.100
494.900	38.098	0.100
495.000	34.539	0.100
495.100	35.805	0.100
495.200	21.616	0.100
495.300	40.241	0.100
495.400	34.919	0.100
495.500	34.133	0.100
495.600	38.316	0.100
495.700	27.905	0.100
495.800	39.897	0.100
495.900	32.931	0.100
496.000	28.082	0.100
496.100	43.817	0.100
496.200	32.833	0.100
496.300	41.114	0.100
496.400	28.125	0.100
496.500	42.780	0.100
496.600	35.924	0.100
496.700	30.267	0.100
496.800	20.483	0.100
496.900	51.315	0.100
497.000	43.089	0.100
497.100	29.347	0.100
497.200	33.082	0.100
497.300	41.089	0.100
497.400	36.850	0.100
497.500	37.596	0.100
497.600	33.397	0.100
497.700	26.006	0.100
497.800	40.794	0.100
497.900	43.263	0.100
498.000	27.926	0.100
498.100	36.780	0.100
498.200	32.784	0.100
498.300	45.618	0.100
498.400	41.841	0.100
498.500	28.923	0.100
498.600	27.891	0.100
498.700	38.116	0.100
498.800	49.613	0.100
498.900	43.873	0.100
499.000	42.738	0.100
499.100	40.504	0.100
499.200	43.674	0.100
499.300	47.422	0.100
499.400	39.414	0.100
499.500	39.726	0.100
499.600	39.252	0.100
499.700	51.739	0.100
499.800	37.763	0.100
499.900	37.245	0.100
500.000	38.892	0.100
500.100	35.991	0.100
500.200	37.527	0.100
500.300	35.946	0.100
500.400	40.807	0.100
500.500	55.485	0.100
500.600	48.005	0.100
500.700	33.601	0.100
500.800	41.894	0.100
500.900	57.862	0.100
501.000	46.890	0.100
501.100	35.441	0.100
501.200	43.387	0.100
501.300	41.702	0.100
501.400	38.667	0.100
501.500	37.457	0.100
501.600	50.577	0.100
501.700	42.098	0.100
501.800	47.616	0.100
501.900	41.210	0.100
502.000	39.458	0.100
502.100	54.393	0.100
502.200	45.856	0.100
502.300	33.539	0.100
502.400	43.996	0.100
502.500	48.901	0.100
502.600	53.198	0.100
502.700	43.942	0.100
502.800	24.580	0.100
502.900	48.425	0.100
503.000	41.171	0.100
503.100	40.757	0.100
503.200	40.000	0.100
503.300	50.141	0.100
503.400	42.714	0.100
503.500	57.866	0.100
503.600	46.398	0.100
503.700	39.516	0.100
503.800	38.503	0.100
503.900	59.062	0.100
504.000	45.723	0.100
504.100	53.851	0.100
504.200	58.803	0.100
504.300	55.038	0.100
504.400	45.271	0.100
504.500	50.771	0.100
504.600	47.155	0.100
504.700	44.052	0.100
504.800	36.176	0.100
504.900	38.360	0.100
505.000	47.643	0.100
505.100	37.846	0.100
505.200	51.849	0.100
505.300	46.061	0.100
505.400	46.775	0.100
505.500	45.105	0.100
505.600	42.934	0.100
505.700	49.842	0.100
505.800	53.727	0.100
505.900	48.428	0.100
506.000	46.033	0.100
506.100	37.705	0.100
506.200	46.926	0.100
506.300	52.593	0.100
506.400	36.918	0.100
506.500	59.861	0.100
506.600	47.558	0.100
506.700	45.301	0.100
506.800	49.696	0.100
506.900	47.296	0.100
507.000	45.419	0.100
507.100	56.074	0.100
507.200	61.284	0.100
507.300	53.106	0.100
507.400	49.061	0.100
507.500	51.754	0.100
507.600	53.141	0.100
507.700	40.475	0.100
507.800	43.908	0.100
507.900	56.787	0.100
508.000	37.872	0.100
508.100	53.649	0.100
508.200	47.578	0.100
508.300	44.707	0.100
508.400	42.634	0.100
508.500	57.525	0.100
508.600	53.157	0.100
508.700	45.745	0.100
508.800	47.490	0.100
508.900	57.679	0.100
509.000	59.201	0.100
509.100	55.115	0.100
509.200	53.035	0.100
509.300	49.847	0.100
509.400	49.186	0.100
509.500	50.182	0.100
509.600	47.501	0.100
509.700	56.655	0.100
509.800	55.672	0.100
509.900	43.148	0.100
510.000	44.692	0.100
510.100	47.553	0.100
510.200	65.449	0.100
510.300	45.330	0.100
510.400	48.374	0.100
510.500	49.220	0.100
510.600	45.571	0.100
510.700	55.767	0.100
510.800	52.842	0.100
510.900	39.574	0.100
511.000	45.301	0.100
511.100	48.382	0.100
511.200	55.471	0.100
511.300	48.820	0.100
511.400	50.663	0.100
511.500	54.011	0.100
511.600	54.963	0.100
511.700	49.815	0.100
511.800	52.499	0.100
511.900	34.830	0.100
512.000	43.439	0.100
512.100	50.327	0.100
512.200	55.695	0.100
512.300	47.473	0.100
512.400	45.474	0.100
512.500	64.371	0.100
512.600	55.893	0.100
512.700	41.941	0.100
512.800	57.964	0.100
512.900	58.405	0.100
513.000	50.559	0.100
513.100	49.672	0.100
513.200	50.721	0.100
513.300	49.282	0.100
513.400	45.998	0.100
513.500	57.144	0.100
513.600	43.646	0.100
513.700	52.823	0.100
513.800	47.000	0.100
513.900	53.721	0.100
514.000	46.892	0.100
514.100	45.372	0.100
514.200	54.389	0.100
514.300	57.003	0.100
514.400	52.657	0.100
514.500	32.869	0.100
514.600	39.621	0.100
514.700	47.399	0.100
514.800	36.142	0.100
514.900	57.339	0.100
515.000	54.046	0.100
515.100	56.041	0.100
515.200	55.342	0.100
515.300	42.369	0.100
515.400	50.472	0.100
515.500	42.959	0.100
515.600	48.758	0.100
515.700	66.299	0.100
515.800	55.496	0.100
515.900	42.097	0.100
516.000	42.458	0.100
516.100	40.891	0.100
516.200	53.013	0.100
516.300	44.835	0.100
516.400	49.892	0.100
516.500	48.820	0.100
516.600	50.185	0.100
516.700	42.615	0.100
516.800	64.038	0.100
516.900	54.976	0.100
517.000	49.309	0.100
517.100	48.342	0.100
517.200	47.306	0.100
517.300	50.602	0.100
517.400	44.165	0.100
517.500	55.611	0.100
517.600	60.917	0.100
517.700	43.803	0.100
517.800	45.302	0.100
517.900	43.573	0.100
518.000	53.895	0.100
518.100	47.770	0.100
518.200	50.834	0.100
518.300	52.492	0.100
518.400	42.061	0.100
518.500	52.877	0.100
518.600	56.044	0.100
518.700	45.985	0.100
518.800	40.216	0.100
518.900	55.522	0.100
519.000	54.992	0.100
519.100	61.353	0.100
519.200	48.674	0.100
519.300	42.945	0.100
519.400	36.881	0.100
519.500	47.254	0.100
519.600	42.299	0.100
519.700	45.027	0.100
519.800	35.243	0.100
519.900	52.801	0.100
520.000	55.069	0.100
520.100	50.555	0.100
520.200	44.695	0.100
520.300	39.006	0.100
520.400	50.324	0.100
520.500	50.741	0.100
520.600	55.557	0.100
520.700	49.678	0.100
520.800	42.030	0.100
520.900	46.893	0.100
521.000	46.468	0.100
521.100	50.960	0.100
521.200	51.000	0.100
521.300	43.317	0.100
521.400	53.678	0.100
521.500	40.173	0.100
521.600	47.116	0.100
521.700	58.713	0.100
521.800	55.592	0.100
521.900	45.771	0.100
522.000	42.822	0.100
522.100	39.669	0.100
522.200	51.695	0.100
522.300	34.154	0.100
522.400	51.314	0.100
522.500	43.367	0.100
522.600	59.351	0.100
522.700	54.295	0.100
522.800	69.367	0.100
522.900	59.596	0.100
523.000	42.479	0.100
523.100	36.876	0.100
523.200	59.324	0.100
523.300	48.499	0.100
523.400	46.168	0.100
523.500	47.349	0.100
523.600	39.498	0.100
523.700	44.127	0.100
523.800	57.064	0.100
523.900	51.355	0.100
524.000	45.259	0.100
524.100	38.571	0.100
524.200	48.850	0.100
524.300	52.432	0.100
524.400	54.530	0.100
524.500	47.984	0.100
524.600	46.394	0.100
524.700	49.043	0.100
524.800	41.254	0.100
524.900	61.911	0.100
525.000	49.883	0.100
525.100	58.466	0.100
525.200	31.634	0.100
525.300	29.068	0.100
525.400	43.032	0.100
525.500	46.180	0.100
525.600	37.828	0.100
525.700	49.185	0.100
525.800	47.625	0.100
525.900	42.792	0.100
526.000	52.278	0.100
526.100	42.819	0.100
526.200	39.960	0.100
526.300	57.669	0.100
526.400	35.039	0.100
526.500	41.852	0.100
526.600	45.560	0.100
526.700	50.092	0.100
526.800	47.390	0.100
526.900	53.492	0.100
527.000	47.831	0.100
527.100	51.172	0.100
527.200	62.770	0.100
527.300	41.993	0.100
527.400	47.468	0.100
527.500	40.950	0.100
527.600	42.065	0.100
527.700	39.883	0.100
527.800	44.936	0.100
527.900	43.233	0.100
528.000	45.841	0.100
528.100	59.267	0.100
528.200	47.881	0.100
528.300	62.367	0.100
528.400	42.478	0.100
528.500	49.046	0.100
528.600	42.548	0.100
528.700	18.601	0.100
528.800	53.260	0.100
528.900	50.745	0.100
529.000	49.791	0.100
529.100	38.987	0.100
529.200	37.051	0.100
529.300	51.567	0.100
529.400	69.638	0.100
529.500	49.680	0.100
529.600	43.239	0.100
529.700	44.302	0.100
529.800	52.583	0.100
529.900	42.814	0.100
530.000	37.460	0.100
530.100	50.052	0.100
530.200	44.472	0.100
530.300	39.107	0.100
530.400	52.825	0.100
530.500	46.793	0.100
530.600	48.517	0.100
530.700	47.032	0.100
530.800	48.679	0.100
530.900	40.970	0.100
531.000	48.368	0.100
531.100	56.991	0.100
531.200	39.739	0.100
531.300	46.326	0.100
531.400	49.999	0.100
531.500	42.683	0.100
531.600	49.056	0.100
531.700	48.335	0.100
531.800	40.702	0.100
531.900	42.858	0.100
532.000	43.193	0.100
532.100	46.117	0.100
532.200	57.637	0.100
532.300	48.825	0.100
532.400	33.612	0.100
532.500	53.480	0.100
532.600	49.674	0.100
532.700	43.196	0.100
532.800	42.139	0.100
532.900	39.141	0.100
533.000	44.313	0.100
533.100	55.375	0.100
533.200	35.980	0.100
533.300	38.417	0.100
533.400	46.348	0.100
533.500	50.418	0.100
533.600	39.616	0.100
533.700	50.686	0.100
533.800	44.967	0.100
533.900	38.424	0.100
534.000	44.020	0.100
534.100	54.680	0.100
534.200	55.541	0.100
534.300	49.048	0.100
534.400	54.886	0.100
534.500	36.550	0.100
534.600	36.418	0.100
534.700	42.476	0.100
534.800	50.699	0.100
534.900	57.913	0.100
535.000	51.065	0.100
535.100	50.410	0.100
535.200	38.301	0.100
535.300	35.146	0.100
535.400	41.147	0.100
535.500	46.285	0.100
535.600	39.256	0.100
535.700	47.869	0.100
535.800	50.246	0.100
535.900	43.153	0.100
536.000	44.728	0.100
536.100	40.951	0.100
536.200	48.085	0.100
536.300	41.486	0.100
536.400	44.568	0.100
536.500	41.083	0.100
536.600	59.263	0.100
536.700	42.891	0.100
536.800	68.031	0.100
536.900	60.541	0.100
537.000	44.593	0.100
537.100	40.098	0.100
537.200	41.887	0.100
537.300	47.273	0.100
537.400	44.453	0.100
537.500	42.398	0.100
537.600	33.525	0.100
537.700	40.607	0.100
537.800	33.193	0.100
537.900	47.211	0.100
538.000	38.231	0.100
538.100	53.718	0.100
538.200	36.638	0.100
538.300	44.650	0.100
538.400	41.279	0.100
538.500	44.557	0.100
538.600	46.928	0.100
538.700	45.172	0.100
538.800	31.292	0.100
538.900	46.733	0.100
539.000	48.509	0.100
539.100	40.111	0.100
539.200	42.646	0.100
539.300	54.362	0.100
539.400	34.938	0.100
539.500	58.059	0.100
539.600	57.178	0.100
539.700	51.258	0.100
539.800	56.209	0.100
539.900	64.995	0.100
540.000	24.242	0.100
540.100	44.435	0.100
540.200	44.046	0.100
540.300	29.014	0.100
540.400	22.262	0.100
540.500	36.162	0.100
540.600	34.893	0.100
540.700	28.466	0.100
540.800	18.132	0.100
540.900	21.398	0.100
541.000	11.306	0.100
541.100	14.392	0.100
541.200	-4.184	0.100
541.300	6.120	0.100
541.400	3.087	0.100
541.500	4.508	0.100
541.600	0.803	0.100
541.700	-1.907	0.100
541.800	-5.285	0.100
541.900	5.417	0.100
542.000	12.425	0.100
542.100	2.654	0.100
542.200	-1.154	0.100
542.300	6.580	0.100
542.400	4.122	0.100
542.500	-16.132	0.100
542.600	-4.356	0.100
542.700	-7.260	0.100
542.800	-16.907	0.100
542.900	-8.899	0.100
543.000	-8.420	0.100
543.100	-23.242	0.100
543.200	-7.152	0.100
543.300	-12.952	0.100
543.400	-15.097	0.100
543.500	-8.547	0.100
543.600	-3.587	0.100
543.700	-6.007	0.100
543.800	-16.083	0.100
543.900	-5.770	0.100
544.000	-12.390	0.100
544.100	-4.162	0.100
544.200	-10.502	0.100
544.300	-14.699	0.100
544.400	-7.351	0.100
544.500	-18.017	0.100
544.600	-17.183	0.100
544.700	-13.246	0.100
544.800	-8.606	0.100
544.900	-12.078	0.100
545.000	10.978	0.100
545.100	0.888	0.100
545.200	-16.770	0.100
545.300	-5.828	0.100
545.400	-2.828	0.100
545.500	-4.262	0.100
545.600	-15.195	0.100
545.700	-21.319	0.100
545.800	-9.966	0.100
545.900	-6.729	0.100
546.000	-8.969	0.100
546.100	-8.394	0.100
546.200	-11.984	0.100
546.300	3.559	0.100
546.400	-7.687	0.100
546.500	-7.902	0.100
546.600	-7.400	0.100
546.700	-9.099	0.100
546.800	-12.597	0.100
546.900	-2.195	0.100
547.000	-2.629	0.100
547.100	0.581	0.100
547.200	-4.700	0.100
547.300	-13.163	0.100
547.400	-2.000	0.100
547.500	-11.761	0.100
547.600	-17.562	0.100
547.700	-0.614	0.100
547.800	-0.901	0.100
547.900	1.674	0.100
548.000	1.802	0.100
548.100	-16.672	0.100
548.200	-5.285	0.100
548.300	-13.426	0.100
548.400	-17.799	0.100
548.500	-3.324	0.100
548.600	-7.355	0.100
548.700	-9.337	0.100
548.800	6.268	0.100
548.900	-5.489	0.100
549.000	2.687	0.100
549.100	-33.163	0.100
549.200	-12.090	0.100
549.300	5.870	0.100
549.400	-2.189	0.100
549.500	-5.886	0.100
549.600	-6.771	0.100
549.700	-16.985	0.100
549.800	-0.774	0.100
549.900	-15.633	0.100
550.000	-6.530	0.100
550.100	-17.104	0.100
550.200	6.785	0.100
550.300	-2.294	0.100
550.400	2.537	0.100
550.500	-0.244	0.100
550.600	3.038	0.100
550.700	-17.297	0.100
550.800	-8.127	0.100
550.900	-14.224	0.100
551.000	-17.920	0.100
551.100	-9.335	0.100
551.200	-10.608	0.100
551.300	1.589	0.100
551.400	-16.317	0.100
551.500	-5.877	0.100
551.600	-19.191	0.100
551.700	4.778	0.100
551.800	4.385	0.100
551.900	3.720	0.100
552.000	-14.348	0.100
552.100	-12.671	0.100
552.200	-4.320	0.100
552.300	6.160	0.100
552.400	-15.958	0.100
552.500	-16.391	0.100
552.600	1.495	0.100
552.700	-13.485	0.100
552.800	-1.761	0.100
552.900	-20.235	0.100
553.000	-10.012	0.100
553.100	-17.567	0.100
553.200	-10.927	0.100
553.300	-12.711	0.100
553.400	-8.768	0.100
553.500	-16.505	0.100
553.600	-11.216	0.100
553.700	-10.459	0.100
553.800	-9.828	0.100
553.900	-9.089	0.100
554.000	-11.994	0.100
554.100	-13.496	0.100
554.200	-12.450	0.100
554.300	-20.786	0.100
554.400	-12.337	0.100
554.500	-12.993	0.100
554.600	-10.191	0.100
554.700	2.008	0.100
554.800	-6.363	0.100
554.900	-4.228	0.100
555.000	-15.424	0.100
555.100	-18.199	0.100
555.200	-12.938	0.100
555.300	-15.665	0.100
555.400	-20.313	0.100
555.500	-4.379	0.100
555.600	-14.422	0.100
555.700	-17.659	0.100
555.800	-10.837	0.100
555.900	-12.668	0.100
556.000	-14.599	0.100
556.100	-6.096	0.100
556.200	-3.836	0.100
556.300	-9.963	0.100
556.400	-6.056	0.100
556.500	-6.190	0.100
556.600	-12.207	0.100
556.700	-16.231	0.100
556.800	-24.994	0.100
556.900	-7.704	0.100
557.000	-11.925	0.100
557.100	-22.022	0.100
557.200	-15.200	0.100
557.300	-15.509	0.100
557.400	-17.096	0.100
557.500	-21.467	0.100
557.600	-22.478	0.100
557.700	-13.576	0.100
557.800	-10.829	0.100
557.900	-14.938	0.100
558.000	-17.022	0.100
558.100	-13.938	0.100
558.200	-10.145	0.100
558.300	-2.744	0.100
558.400	-25.870	0.100
558.500	-20.398	0.100
558.600	2.655	0.100
558.700	-7.005	0.100
558.800	-18.010	0.100
558.900	-16.065	0.100
559.000	-14.650	0.100
559.100	-27.019	0.100
559.200	-5.708	0.100
559.300	-7.153	0.100
559.400	-17.393	0.100
559.500	-10.060	0.100
559.600	-11.957	0.100
559.700	-14.668	0.100
559.800	-21.662	0.100
559.900	-9.717	0.100
560.000	-17.202	0.100
560.100	-16.823	0.100
560.200	-13.348	0.100
560.300	-13.882	0.100
560.400	-12.743	0.100
560.500	-6.635	0.100
560.600	-25.122	0.100
560.700	-13.193	0.100
560.800	-25.115	0.100
560.900	-19.507	0.100
561.000	-15.857	0.100
561.100	-13.268	0.100
561.200	-22.021	0.100
561.300	-6.701	0.100
561.400	-11.197	0.100
561.500	-11.866	0.100
561.600	-18.594	0.100
561.700	-12.166	0.100
561.800	-7.367	0.100
561.900	-14.589	0.100
562.000	-9.957	0.100
562.100	-12.859	0.100
562.200	-15.709	0.100
562.300	-18.213	0.100
562.400	-21.079	0.100
562.500	-12.817	0.100
562.600	-20.328	0.100
562.700	-14.322	0.100
562.800	-25.766	0.100
562.900	-25.022	0.100
563.000	-5.004	0.100
563.100	-16.144	0.100
563.200	-16.747	0.100
563.300	-10.813	0.100
563.400	-25.527	0.100
563.500	-15.133	0.100
563.600	-19.777	0.100
563.700	-17.363	0.100
563.800	-17.024	0.100
563.900	-32.155	0.100
564.000	-20.344	0.100
564.100	-12.255	0.100
564.200	-6.469	0.100
564.300	-13.660	0.100
564.400	-14.835	0.100
564.500	-15.323	0.100
564.600	-14.367	0.100
564.700	-21.183	0.100
564.800	-22.084	0.100
564.900	-17.841	0.100
565.000	-20.645	0.100
565.100	-15.508	0.100
565.200	-9.186	0.100
565.300	-33.695	0.100
565.400	-11.547	0.100
565.500	-15.431	0.100
565.600	-11.636	0.100
565.700	-20.127	0.100
565.800	-10.779	0.100
565.900	-15.660	0.100
566.000	-18.348	0.100
566.100	-21.490	0.100
566.200	-18.449	0.100
566.300	-7.808	0.100
566.400	-4.890	0.100
566.500	-24.496	0.100
566.600	-26.417	0.100
566.700	-13.392	0.100
566.800	-22.951	0.100
566.900	-25.880	0.100
567.000	-13.819	0.100
567.100	-27.356	0.100
567.200	-8.746	0.100
567.300	-28.838	0.100
567.400	-40.557	0.100
567.500	-22.186	0.100
567.600	-17.679	0.100
567.700	-11.901	0.100
567.800	-13.400	0.100
567.900	-11.378	0.100
568.000	-10.659	0.100
568.100	-8.230	0.100
568.200	-22.341	0.100
568.300	-21.802	0.100
568.400	-15.922	0.100
568.500	-16.310	0.100
568.600	-2.793	0.100
568.700	-16.606	0.100
568.800	-26.085	0.100
568.900	-35.961	0.100
569.000	-19.702	0.100
569.100	-32.345	0.100
569.200	-20.779	0.100
569.300	-19.270	0.100
569.400	-20.704	0.100
569.500	-13.314	0.100
569.600	-12.113	0.100
569.700	-11.292	0.100
569.800	-18.165	0.100
569.900	-17.490	0.100
570.000	-15.908	0.100
570.100	-15.700	0.100
570.200	-30.727	0.100
570.300	-9.373	0.100
570.400	-20.181	0.100
570.500	-24.497	0.100
570.600	-29.307	0.100
570.700	-3.838	0.100
570.800	-15.299	0.100
570.900	-16.114	0.100
571.000	-18.281	0.100
571.100	-21.586	0.100
571.200	-20.978	0.100
571.300	-20.300	0.100
571.400	-35.775	0.100
571.500	-30.829	0.100
571.600	-4.694	0.100
571.700	-18.567	0.100
571.800	-24.933	0.100
571.900	-20.162	0.100
572.000	-14.915	0.100
572.100	-14.103	0.100
572.200	-15.539	0.100
572.300	-18.214	0.100
572.400	-22.982	0.100
572.500	-25.806	0.100
572.600	-9.914	0.100
572.700	-23.471	0.100
572.800	-18.796	0.100
572.900	-22.759	0.100
573.000	-24.330	0.100
573.100	-14.247	0.100
573.200	-30.899	0.100
573.300	-25.937	0.100
573.400	-18.290	0.100
573.500	-16.812	0.100
573.600	-5.429	0.100
573.700	-18.097	0.100
573.800	-45.399	0.100
573.900	-40.212	0.100
574.000	-20.862	0.100
574.100	-20.953	0.100
574.200	-20.512	0.100
574.300	-11.619	0.100
574.400	-13.207	0.100
574.500	-13.138	0.100
574.600	-33.526	0.100
574.700	-12.292	0.100
574.800	-16.859	0.100
574.900	-22.367	0.100
575.000	-23.575	0.100
575.100	-31.149	0.100
575.200	-27.357	0.100
575.300	-27.928	0.100
575.400	-29.838	0.100
575.500	-31.483	0.100
575.600	-19.414	0.100
575.700	-12.176	0.100
575.800	-6.609	0.100
575.900	-8.007	0.100
576.000	-31.051	0.100
576.100	-16.238	0.100
576.200	-21.231	0.100
576.300	-9.701	0.100
576.400	-4.821	0.100
576.500	-21.070	0.100
576.600	-22.209	0.100
576.700	-19.472	0.100
576.800	-27.574	0.100
576.900	-12.672	0.100
577.000	-30.750	0.100
577.100	-15.752	0.100
577.200	-27.329	0.100
577.300	-34.096	0.100
577.400	-29.837	0.100
577.500	-19.402	0.100
577.600	-13.388	0.100
577.700	-14.854	0.100
577.800	-21.731	0.100
577.900	-33.644	0.100
578.000	-29.342	0.100
578.100	-29.559	0.100
578.200	-36.385	0.100
578.300	-47.043	0.100
578.400	-15.236	0.100
578.500	-8.057	0.100
578.600	-4.978	0.100
578.700	-33.396	0.100
578.800	-29.348	0.100
578.900	-29.038	0.100
579.000	-21.097	0.100
579.100	-15.590	0.100
579.200	-23.351	0.100
579.300	-4.432	0.100
579.400	-14.998	0.100
579.500	-27.052	0.100
579.600	-16.842	0.100
579.700	-23.506	0.100
579.800	-28.251	0.100
579.900	-25.014	0.100
580.000	-21.026	0.100
580.100	-26.005	0.100
580.200	-30.625	0.100
580.300	-26.043	0.100
580.400	-27.713	0.100
580.500	-29.117	0.100
580.600	-24.744	0.100
580.700	-17.997	0.100
580.800	-12.953	0.100
580.900	-15.247	0.100
581.000	-20.141	0.100
581.100	-20.117	0.100
581.200	-25.958	0.100
581.300	-26.108	0.100
581.400	-15.678	0.100
581.500	-14.478	0.100
581.600	-24.370	0.100
581.700	-27.190	0.100
581.800	-22.047	0.100
581.900	-7.148	0.100
582.000	-14.530	0.100
582.100	-22.180	0.100
582.200	-15.390	0.100
582.300	-14.214	0.100
582.400	-12.934	0.100
582.500	-27.123	0.100
582.600	-17.206	0.100
582.700	-24.552	0.100
582.800	-15.693	0.100
582.900	-38.937	0.100
583.000	-23.526	0.100
583.100	-4.901	0.100
583.200	-25.253	0.100
583.300	-15.064	0.100
583.400	-25.081	0.100
583.500	-24.421	0.100
583.600	-23.345	0.100
583.700	-26.345	0.100
583.800	-29.073	0.100
583.900	-21.375	0.100
584.000	-24.725	0.100
584.100	-20.578	0.100
584.200	-18.910	0.100
584.300	-20.119	0.100
584.400	-16.638	0.100
584.500	-19.927	0.100
584.600	-28.720	0.100
584.700	-15.650	0.100
584.800	-20.529	0.100
584.900	-39.599	0.100
585.000	-11.437	0.100
585.100	-12.151	0.100
585.200	-16.561	0.100
585.300	-28.145	0.100
585.400	-27.029	0.100
585.500	-11.498	0.100
585.600	-11.590	0.100
585.700	-20.073	0.100
585.800	-23.368	0.100
585.900	-14.738	0.100
586.000	-23.040	0.100
586.100	-27.953	0.100
586.200	-14.627	0.100
586.300	-12.396	0.100
586.400	-18.736	0.100
586.500	-13.920	0.100
586.600	-18.704	0.100
586.700	-30.882	0.100
586.800	-37.671	0.100
586.900	-20.999	0.100
587.000	-23.447	0.100
587.100	-17.427	0.100
587.200	-25.918	0.100
587.300	-27.064	0.100
587.400	-3.293	0.100
587.500	-17.593	0.100
587.600	-19.388	0.100
587.700	-19.385	0.100
587.800	-18.227	0.100
587.900	-13.451	0.100
588.000	-11.858	0.100
588.100	-24.824	0.100
588.200	-27.790	0.100
588.300	-20.944	0.100
588.400	-7.063	0.100
588.500	-21.506	0.100
588.600	-25.115	0.100
588.700	-16.902	0.100
588.800	-14.977	0.100
588.900	-25.853	0.100
589.000	-17.796	0.100
589.100	-19.976	0.100
589.200	-25.400	0.100
589.300	-22.191	0.100
589.400	-17.264	0.100
589.500	-29.855	0.100
589.600	-29.150	0.100
589.700	-18.645	0.100
589.800	-12.875	0.100
589.900	-22.795	0.100
590.000	-18.082	0.100
590.100	-15.374	0.100
590.200	-32.734	0.100
590.300	-23.355	0.100
590.400	-27.924	0.100
590.500	-21.503	0.100
590.600	-29.265	0.100
590.700	-27.352	0.100
590.800	-25.789	0.100
590.900	-15.002	0.100
591.000	-21.272	0.100
591.100	-10.791	0.100
591.200	-25.668	0.100
591.300	-24.857	0.100
591.400	-22.009	0.100
591.500	-23.702	0.100
591.600	-19.656	0.100
591.700	-18.998	0.100
591.800	-21.176	0.100
591.900	-20.053	0.100
592.000	-3.838	0.100
592.100	-18.344	0.100
592.200	-17.840	0.100
592.300	-18.751	0.100
592.400	-31.499	0.100
592.500	-21.050	0.100
592.600	-18.025	0.100
592.700	-18.967	0.100
592.800	-28.980	0.100
592.900	-29.998	0.100
593.000	-17.187	0.100
593.100	-18.029	0.100
593.200	-7.136	0.100
593.300	-23.608	0.100
593.400	-14.111	0.100
593.500	-37.447	0.100
593.600	-32.874	0.100
593.700	0.898	0.100
593.800	-22.231	0.100
593.900	-23.442	0.100
594.000	-9.622	0.100
594.100	-26.272	0.100
594.200	-28.589	0.100
594.300	-14.467	0.100
594.400	-15.343	0.100
594.500	-28.990	0.100
594.600	-16.277	0.100
594.700	-28.900	0.100
594.800	-17.956	0.100
594.900	-10.816	0.100
595.000	-29.546	0.100
595.100	-3.751	0.100
595.200	-11.515	0.100
595.300	-16.255	0.100
595.400	-9.860	0.100
595.500	-28.187	0.100
595.600	-26.841	0.100
595.700	-27.666	0.100
595.800	-12.560	0.100
595.900	-21.495	0.100
596.000	-24.406	0.100
596.100	-29.018	0.100
596.200	-32.942	0.100
596.300	-14.188	0.100
596.400	-19.892	0.100
596.500	-16.292	0.100
596.600	-14.808	0.100
596.700	-10.233	0.100
596.800	-27.253	0.100
596.900	-12.163	0.100
597.000	-21.101	0.100
597.100	-16.354	0.100
597.200	-19.036	0.100
597.300	-20.570	0.100
597.400	-22.259	0.100
597.500	-1.926	0.100
597.600	-19.703	0.100
597.700	-26.857	0.100
597.800	-10.193	0.100
597.900	-15.175	0.100
598.000	-25.254	0.100
598.100	-22.950	0.100
598.200	-35.602	0.100
598.300	-21.198	0.100
598.400	-12.414	0.100
598.500	-8.794	0.100
598.600	-15.443	0.100
598.700	-16.792	0.100
598.800	-17.217	0.100
598.900	-19.740	0.100
599.000	-12.192	0.100
599.100	-34.115	0.100
599.200	-17.637	0.100
599.300	-30.679	0.100
599.400	-13.217	0.100
599.500	-10.662	0.100
599.600	-22.279	0.100
599.700	-22.922	0.100
599.800	-11.697	0.100
599.900	-30.490	0.100
600.000	-24.371	0.100
600.100	-32.190	0.100
600.200	-11.010	0.100
600.300	-15.128	0.100
600.400	-20.650	0.100
600.500	-19.546	0.100
600.600	-15.311	0.100
600.700	-23.211	0.100
600.800	-18.877	0.100
600.900	-18.234	0.100
601.000	-18.404	0.100
601.100	-17.468	0.100
601.200	-14.265	0.100
601.300	-16.698	0.100
601.400	-26.249	0.100
601.500	-21.769	0.100
601.600	-22.971	0.100
601.700	-24.542	0.100
601.800	-24.081	0.100
601.900	-16.635	0.100
602.000	-22.496	0.100
602.100	-14.370	0.100
602.200	-10.495	0.100
602.300	-14.557	0.100
602.400	-10.562	0.100
602.500	-18.880	0.100
602.600	-12.453	0.100
602.700	-14.738	0.100
602.800	-6.933	0.100
602.900	-12.177	0.100
603.000	-13.902	0.100
603.100	-31.187	0.100
603.200	-24.479	0.100
603.300	3.967	0.100
603.400	-6.790	0.100
603.500	-11.793	0.100
603.600	-19.237	0.100
603.700	-13.826	0.100
603.800	-11.384	0.100
603.900	-15.097	0.100
604.000	-29.310	0.100
604.100	-14.131	0.100
604.200	-10.277	0.100
604.300	-16.326	0.100
604.400	-13.093	0.100
604.500	-16.161	0.100
604.600	-32.485	0.100
604.700	-32.528	0.100
604.800	-10.141	0.100
604.900	-6.890	0.100
605.000	-20.867	0.100
605.100	-28.322	0.100
605.200	3.151	0.100
605.300	-9.681	0.100
605.400	-25.165	0.100
605.500	-13.360	0.100
605.600	-27.715	0.100
605.700	-11.054	0.100
605.800	-12.511	0.100
605.900	-21.391	0.100
606.000	-11.353	0.100
606.100	-9.662	0.100
606.200	-10.650	0.100
606.300	-14.396	0.100
606.400	-19.973	0.100
606.500	-17.820	0.100
606.600	-18.116	0.100
606.700	-15.752	0.100
606.800	-13.392	0.100
606.900	-23.433	0.100
607.000	-7.936	0.100
607.100	-9.290	0.100
607.200	-20.139	0.100
607.300	-22.806	0.100
607.400	-33.856	0.100
607.500	-12.840	0.100
607.600	-12.464	0.100
607.700	-16.828	0.100
607.800	-19.161	0.100
607.900	-11.133	0.100
608.000	-17.718	0.100
608.100	-17.559	0.100
608.200	-19.996	0.100
608.300	-31.433	0.100
608.400	-0.562	0.100
608.500	-6.138	0.100
608.600	-8.875	0.100
608.700	-24.334	0.100
608.800	-32.559	0.100
608.900	-17.567	0.100
609.000	-3.845	0.100
609.100	-14.106	0.100
609.200	-24.692	0.100
609.300	-21.391	0.100
609.400	-21.281	0.100
609.500	-13.227	0.100
609.600	-23.960	0.100
609.700	-18.561	0.100
609.800	-13.222	0.100
609.900	-19.135	0.100
610.000	-16.998	0.100
610.100	-15.225	0.100
610.200	-14.627	0.100
610.300	-11.339	0.100
610.400	-13.838	0.100
610.500	-7.155	0.100
610.600	-16.970	0.100
610.700	-14.349	0.100
610.800	-11.726	0.100
610.900	-24.027	0.100
611.000	-11.268	0.100
611.100	-14.482	0.100
611.200	-14.422	0.100
611.300	-23.845	0.100
611.400	-12.359	0.100
611.500	-19.724	0.100
611.600	-25.781	0.100
611.700	-4.926	0.100
611.800	-3.599	0.100
611.900	-8.873	0.100
612.000	-17.267	0.100
612.100	-16.408	0.100
612.200	-19.962	0.100
612.300	-23.129	0.100
612.400	-27.759	0.100
612.500	-15.859	0.100
612.600	-9.933	0.100
612.700	-14.311	0.100
612.800	-11.347	0.100
612.900	-15.133	0.100
613.000	-16.282	0.100
613.100	-19.149	0.100
613.200	-18.232	0.100
613.300	-17.567	0.100
613.400	-19.258	0.100
613.500	-16.445	0.100
613.600	-13.728	0.100
613.700	-8.216	0.100
613.800	-6.086	0.100
613.900	-25.028	0.100
614.000	-25.061	0.100
614.100	-14.763	0.100
614.200	-20.134	0.100
614.300	-28.115	0.100
614.400	-25.408	0.100
614.500	-16.091	0.100
614.600	-12.056	0.100
614.700	-15.276	0.100
614.800	-1.184	0.100
614.900	-14.166	0.100
615.000	-11.787	0.100
615.100	-7.737	0.100
615.200	-7.042	0.100
615.300	-13.785	0.100
615.400	-18.721	0.100
615.500	-20.877	0.100
615.600	-21.957	0.100
615.700	-13.503	0.100
615.800	-18.141	0.100
615.900	-9.109	0.100
616.000	-7.940	0.100
616.100	-10.900	0.100
616.200	-25.432	0.100
616.300	-13.634	0.100
616.400	-15.781	0.100
616.500	-7.542	0.100
616.600	-18.260	0.100
616.700	-13.860	0.100
616.800	-13.607	0.100
616.900	-19.257	0.100
617.000	-17.090	0.100
617.100	-9.338	0.100
617.200	-13.672	0.100
617.300	-12.621	0.100
617.400	-28.221	0.100
617.500	-6.486	0.100
617.600	-10.268	0.100
617.700	-18.687	0.100
617.800	-4.695	0.100
617.900	-7.889	0.100
618.000	-15.865	0.100
618.100	-17.413	0.100
618.200	-17.007	0.100
618.300	-8.774	0.100
618.400	-18.410	0.100
618.500	-19.049	0.100
618.600	-3.921	0.100
618.700	-23.559	0.100
618.800	-14.539	0.100
618.900	-22.626	0.100
619.000	-13.557	0.100
619.100	-10.579	0.100
619.200	-14.147	0.100
619.300	-11.229	0.100
619.400	-17.351	0.100
619.500	-13.375	0.100
619.600	-24.108	0.100
619.700	-11.050	0.100
619.800	-11.719	0.100
619.900	3.892	0.100
620.000	-15.289	0.100
620.100	-18.553	0.100
620.200	-6.154	0.100
620.300	-8.261	0.100
620.400	-24.589	0.100
620.500	-12.998	0.100
620.600	-0.387	0.100
620.700	-6.656	0.100
620.800	-15.353	0.100
620.900	-15.207	0.100
621.000	-11.143	0.100
621.100	-13.137	0.100
621.200	-10.382	0.100
621.300	-15.943	0.100
621.400	-7.321	0.100
621.500	-1.958	0.100
621.600	-16.874	0.100
621.700	-25.447	0.100
621.800	-4.458	0.100
621.900	-13.015	0.100
622.000	-13.629	0.100
622.100	-14.948	0.100
622.200	-6.577	0.100
622.300	-3.233	0.100
622.400	-15.100	0.100
622.500	-14.138	0.100
622.600	-14.398	0.100
622.700	-18.080	0.100
622.800	-13.886	0.100
622.900	-10.029	0.100
623.000	-13.668	0.100
623.100	-5.770	0.100
623.200	-22.819	0.100
623.300	-20.527	0.100
623.400	-14.627	0.100
623.500	-5.795	0.100
623.600	-19.561	0.100
623.700	-13.024	0.100
623.800	-19.059	0.100
623.900	-18.968	0.100
624.000	-18.960	0.100
624.100	-7.470	0.100
624.200	-13.949	0.100
624.300	-9.825	0.100
624.400	1.487	0.100
624.500	-8.690	0.100
624.600	-15.796	0.100
624.700	-17.884	0.100
624.800	-20.973	0.100
624.900	-26.628	0.100
625.000	-17.994	0.100
625.100	-17.203	0.100
625.200	-8.403	0.100
625.300	-9.342	0.100
625.400	-12.350	0.100
625.500	-15.934	0.100
625.600	-9.807	0.100
625.700	-24.238	0.100
625.800	-29.808	0.100
625.900	-4.720	0.100
626.000	-5.961	0.100
626.100	-12.379	0.100
626.200	-21.061	0.100
626.300	-29.207	0.100
626.400	-5.768	0.100
626.500	-8.278	0.100
626.600	-1.169	0.100
626.700	-10.081	0.100
626.800	-8.078	0.100
626.900	-6.833	0.100
627.000	-13.565	0.100
627.100	-13.358	0.100
627.200	-21.481	0.100
627.300	-14.732	0.100
627.400	-14.519	0.100
627.500	-21.876	0.100
627.600	-18.266	0.100
627.700	-0.377	0.100
627.800	-5.732	0.100
627.900	-17.721	0.100
628.000	-17.828	0.100
628.100	-11.532	0.100
628.200	-15.757	0.100
628.300	-5.699	0.100
628.400	-14.708	0.100
628.500	1.308	0.100
628.600	-23.224	0.100
628.700	-11.508	0.100
628.800	-7.375	0.100
628.900	-21.697	0.100
629.000	-13.984	0.100
629.100	-10.175	0.100
629.200	-21.767	0.100
629.300	-7.837	0.100
629.400	-6.045	0.100
629.500	-19.210	0.100
629.600	-10.913	0.100
629.700	-16.322	0.100
629.800	-10.876	0.100
629.900	-14.217	0.100
630.000	-19.581	0.100
630.100	-5.634	0.100
630.200	-1.127	0.100
630.300	-11.023	0.100
630.400	11.557	0.100
630.500	14.598	0.100
630.600	-8.519	0.100
630.700	21.049	0.100
630.800	4.686	0.100
630.900	10.039	0.100
631.000	32.179	0.100
631.100	39.873	0.100
631.200	30.675	0.100
631.300	32.955	0.100
631.400	43.354	0.100
631.500	35.049	0.100
631.600	35.576	0.100
631.700	33.016	0.100
631.800	49.958	0.100
631.900	45.802	0.100
632.000	54.181	0.100
632.100	45.533	0.100
632.200	45.565	0.100
632.300	53.606	0.100
632.400	45.172	0.100
632.500	41.112	0.100
632.600	46.737	0.100
632.700	52.908	0.100
632.800	49.743	0.100
632.900	46.473	0.100
633.000	50.174	0.100
633.100	45.127	0.100
633.200	49.532	0.100
633.300	35.042	0.100
633.400	42.777	0.100
633.500	48.614	0.100
633.600	43.499	0.100
633.700	46.761	0.100
633.800	56.037	0.100
633.900	59.998	0.100
634.000	45.762	0.100
634.100	46.586	0.100
634.200	34.393	0.100
634.300	46.300	0.100
634.400	55.997	0.100
634.500	50.089	0.100
634.600	44.297	0.100
634.700	40.943	0.100
634.800	46.098	0.100
634.900	39.568	0.100
635.000	31.401	0.100
635.100	35.254	0.100
635.200	39.035	0.100
635.300	38.755	0.100
635.400	44.143	0.100
635.500	44.431	0.100
635.600	54.759	0.100
635.700	43.867	0.100
635.800	35.130	0.100
635.900	38.622	0.100
636.000	25.648	0.100
636.100	31.251	0.100
636.200	30.168	0.100
636.300	50.025	0.100
636.400	32.617	0.100
636.500	30.145	0.100
636.600	40.903	0.100
636.700	44.823	0.100
636.800	18.734	0.100
636.900	35.074	0.100
637.000	39.613	0.100
637.100	43.202	0.100
637.200	33.130	0.100
637.300	28.876	0.100
637.400	26.242	0.100
637.500	29.150	0.100
637.600	42.412	0.100
637.700	32.801	0.100
637.800	39.719	0.100
637.900	45.395	0.100
638.000	38.499	0.100
638.100	30.854	0.100
638.200	38.287	0.100
638.300	31.257	0.100
638.400	35.420	0.100
638.500	30.114	0.100
638.600	39.560	0.100
638.700	43.499	0.100
638.800	46.948	0.100
638.900	37.704	0.100
639.000	44.017	0.100
639.100	45.467	0.100
639.200	33.558	0.100
639.300	38.732	0.100
639.400	28.117	0.100
639.500	27.972	0.100
639.600	23.966	0.100
639.700	50.171	0.100
639.800	40.523	0.100
639.900	25.052	0.100
640.000	30.286	0.100
640.100	25.226	0.100
640.200	32.474	0.100
640.300	19.523	0.100
640.400	34.301	0.100
640.500	40.688	0.100
640.600	38.357	0.100
640.700	36.606	0.100
640.800	38.537	0.100
640.900	37.866	0.100
641.000	25.206	0.100
641.100	26.424	0.100
641.200	25.120	0.100
641.300	32.167	0.100
641.400	39.661	0.100
641.500	36.062	0.100
641.600	20.528	0.100
641.700	20.820	0.100
641.800	38.372	0.100
641.900	35.766	0.100
642.000	38.258	0.100
642.100	38.168	0.100
642.200	26.444	0.100
642.300	33.671	0.100
642.400	17.431	0.100
642.500	28.389	0.100
642.600	43.089	0.100
642.700	34.470	0.100
642.800	39.422	0.100
642.900	30.946	0.100
643.000	33.365	0.100
643.100	25.806	0.100
643.200	27.195	0.100
643.300	41.555	0.100
643.400	27.072	0.100
643.500	38.132	0.100
643.600	41.751	0.100
643.700	24.862	0.100
643.800	34.342	0.100
643.900	33.909	0.100
644.000	29.135	0.100
644.100	35.641	0.100
644.200	36.422	0.100
644.300	20.104	0.100
644.400	29.157	0.100
644.500	29.913	0.100
644.600	31.420	0.100
644.700	38.268	0.100
644.800	45.066	0.100
644.900	38.822	0.100
645.000	40.137	0.100
645.100	39.855	0.100
645.200	26.349	0.100
645.300	29.611	0.100
645.400	36.788	0.100
645.500	35.596	0.100
645.600	33.819	0.100
645.700	24.504	0.100
645.800	40.328	0.100
645.900	15.386	0.100
646.000	31.763	0.100
646.100	34.861	0.100
646.200	25.735	0.100
646.300	32.696	0.100
646.400	21.118	0.100
646.500	32.452	0.100
646.600	31.457	0.100
646.700	31.312	0.100
646.800	18.646	0.100
646.900	36.486	0.100
647.000	28.670	0.100
647.100	40.275	0.100
647.200	43.276	0.100
647.300	31.632	0.100
647.400	29.999	0.100
647.500	35.932	0.100
647.600	43.574	0.100
647.700	36.587	0.100
647.800	44.929	0.100
647.900	37.471	0.100
648.000	25.947	0.100
648.100	26.625	0.100
648.200	39.414	0.100
648.300	41.962	0.100
648.400	42.110	0.100
648.500	44.684	0.100
648.600	43.194	0.100
648.700	45.696	0.100
648.800	32.421	0.100
648.900	36.435	0.100
649.000	39.489	0.100
649.100	30.606	0.100
649.200	43.580	0.100
649.300	24.952	0.100
649.400	35.130	0.100
649.500	32.306	0.100
649.600	45.202	0.100
649.700	47.043	0.100
649.800	40.509	0.100
649.900	41.593	0.100
650.000	38.032	0.100
650.100	35.939	0.100
650.200	41.419	0.100
650.300	40.674	0.100
650.400	37.518	0.100
650.500	52.313	0.100
650.600	45.242	0.100
650.700	38.005	0.100
650.800	37.556	0.100
650.900	45.884	0.100
651.000	37.355	0.100
651.100	37.849	0.100
651.200	46.156	0.100
651.300	40.726	0.100
651.400	35.540	0.100
651.500	46.317	0.100
651.600	46.343	0.100
651.700	43.225	0.100
651.800	35.223	0.100
651.900	39.576	0.100
652.000	40.495	0.100
652.100	34.630	0.100
652.200	36.017	0.100
652.300	49.934	0.100
652.400	35.874	0.100
652.500	43.871	0.100
652.600	50.573	0.100
652.700	57.652	0.100
652.800	31.020	0.100
652.900	49.757	0.100
653.000	56.328	0.100
653.100	37.036	0.100
653.200	53.924	0.100
653.300	41.451	0.100
653.400	44.766	0.100
653.500	52.940	0.100
653.600	46.200	0.100
653.700	52.637	0.100
653.800	53.180	0.100
653.900	60.157	0.100
654.000	34.228	0.100
654.100	40.123	0.100
654.200	39.794	0.100
654.300	49.982	0.100
654.400	29.778	0.100
654.500	36.362	0.100
654.600	41.357	0.100
654.700	40.985	0.100
654.800	52.376	0.100
654.900	51.255	0.100
655.000	44.005	0.100
655.100	51.975	0.100
655.200	47.802	0.100
655.300	59.787	0.100
655.400	59.357	0.100
655.500	44.270	0.100
655.600	37.078	0.100
655.700	46.036	0.100
655.800	59.009	0.100
655.900	46.338	0.100
656.000	54.345	0.100
656.100	54.229	0.100
656.200	47.294	0.100
656.300	48.910	0.100
656.400	50.027	0.100
656.500	39.494	0.100
656.600	54.302	0.100
656.700	41.776	0.100
656.800	45.611	0.100
656.900	50.752	0.100
657.000	49.596	0.100
657.100	56.659	0.100
657.200	44.652	0.100
657.300	53.233	0.100
657.400	55.471	0.100
657.500	42.332	0.100
657.600	54.650	0.100
657.700	43.246	0.100
657.800	37.097	0.100
657.900	56.660	0.100
658.000	56.707	0.100
658.100	51.348	0.100
658.200	44.644	0.100
658.300	49.021	0.100
658.400	54.186	0.100
658.500	49.992	0.100
658.600	35.617	0.100
658.700	45.749	0.100
658.800	45.605	0.100
658.900	45.791	0.100
659.000	52.504	0.100
659.100	50.508	0.100
659.200	62.961	0.100
659.300	52.280	0.100
659.400	52.291	0.100
659.500	46.828	0.100
659.600	59.965	0.100
659.700	54.531	0.100
659.800	43.666	0.100
659.900	50.464	0.100
660.000	46.558	0.100
660.100	47.547	0.100
660.200	54.996	0.100
660.300	41.131	0.100
660.400	55.172	0.100
660.500	49.929	0.100
660.600	36.860	0.100
660.700	55.938	0.100
660.800	62.011	0.100
660.900	41.572	0.100
661.000	49.198	0.100
661.100	57.475	0.100
661.200	48.041	0.100
661.300	50.438	0.100
661.400	50.976	0.100
661.500	49.779	0.100
661.600	44.864	0.100
661.700	45.695	0.100
661.800	50.573	0.100
661.900	49.801	0.100
662.000	49.947	0.100
662.100	48.737	0.100
662.200	46.400	0.100
662.300	50.422	0.100
662.400	33.901	0.100
662.500	44.414	0.100
662.600	37.028	0.100
662.700	54.404	0.100
662.800	50.713	0.100
662.900	44.043	0.100
663.000	59.347	0.100
663.100	46.824	0.100
663.200	52.026	0.100
663.300	51.048	0.100
663.400	48.300	0.100
663.500	55.087	0.100
663.600	57.749	0.100
663.700	38.919	0.100
663.800	48.246	0.100
663.900	56.388	0.100
664.000	56.959	0.100
664.100	48.322	0.100
664.200	43.327	0.100
664.300	45.275	0.100
664.400	55.801	0.100
664.500	43.926	0.100
664.600	53.494	0.100
664.700	50.441	0.100
664.800	35.096	0.100
664.900	40.269	0.100
665.000	57.547	0.100
665.100	48.004	0.100
665.200	48.131	0.100
665.300	51.767	0.100
665.400	57.274	0.100
665.500	31.557	0.100
665.600	60.882	0.100
665.700	49.627	0.100
665.800	65.292	0.100
665.900	45.928	0.100
666.000	54.224	0.100
666.100	54.892	0.100
666.200	55.744	0.100
666.300	48.915	0.100
666.400	48.198	0.100
666.500	47.558	0.100
666.600	55.752	0.100
666.700	46.676	0.100
666.800	37.964	0.100
666.900	49.658	0.100
667.000	36.990	0.100
667.100	52.957	0.100
667.200	44.910	0.100
667.300	42.480	0.100
667.400	42.885	0.100
667.500	40.431	0.100
667.600	51.139	0.100
667.700	51.682	0.100
667.800	29.581	0.100
667.900	39.917	0.100
668.000	55.702	0.100
668.100	64.543	0.100
668.200	49.824	0.100
668.300	51.346	0.100
668.400	43.399	0.100
668.500	41.823	0.100
668.600	41.460	0.100
668.700	60.401	0.100
668.800	54.789	0.100
668.900	60.044	0.100
669.000	30.692	0.100
669.100	51.380	0.100
669.200	46.714	0.100
669.300	49.523	0.100
669.400	37.728	0.100
669.500	44.420	0.100
669.600	47.342	0.100
669.700	52.518	0.100
669.800	39.803	0.100
669.900	33.565	0.100
670.000	36.975	0.100
670.100	55.766	0.100
670.200	54.193	0.100
670.300	45.004	0.100
670.400	47.052	0.100
670.500	42.416	0.100
670.600	49.894	0.100
670.700	43.750	0.100
670.800	42.618	0.100
670.900	42.335	0.100
671.000	57.694	0.100
671.100	53.258	0.100
671.200	59.014	0.100
671.300	39.885	0.100
671.400	31.385	0.100
671.500	57.317	0.100
671.600	54.772	0.100
671.700	43.455	0.100
671.800	44.465	0.100
671.900	39.792	0.100
672.000	36.083	0.100
672.100	50.587	0.100
672.200	57.001	0.100
672.300	49.173	0.100
672.400	44.309	0.100
672.500	37.314	0.100
672.600	50.496	0.100
672.700	43.489	0.100
672.800	41.676	0.100
672.900	50.048	0.100
673.000	38.989	0.100
673.100	45.764	0.100
673.200	41.664	0.100
673.300	46.779	0.100
673.400	36.888	0.100
673.500	44.066	0.100
673.600	57.592	0.100
673.700	41.737	0.100
673.800	53.222	0.100
673.900	38.493	0.100
674.000	57.505	0.100
674.100	53.030	0.100
674.200	50.587	0.100
674.300	51.363	0.100
674.400	48.272	0.100
674.500	56.306	0.100
674.600	43.088	0.100
674.700	42.034	0.100
674.800	52.871	0.100
674.900	33.174	0.100
675.000	45.618	0.100
675.100	41.523	0.100
675.200	49.056	0.100
675.300	53.113	0.100
675.400	44.989	0.100
675.500	47.898	0.100
675.600	42.780	0.100
675.700	47.678	0.100
675.800	41.851	0.100
675.900	42.775	0.100
676.000	51.472	0.100
676.100	47.524	0.100
676.200	49.138	0.100
676.300	45.044	0.100
676.400	50.591	0.100
676.500	48.054	0.100
676.600	37.220	0.100
676.700	47.140	0.100
676.800	45.734	0.100
676.900	48.306	0.100
677.000	49.162	0.100
677.100	47.917	0.100
677.200	50.506	0.100
677.300	53.959	0.100
677.400	38.579	0.100
677.500	37.948	0.100
677.600	47.640	0.100
677.700	51.165	0.100
677.800	49.114	0.100
677.900	48.937	0.100
678.000	33.537	0.100
678.100	42.857	0.100
678.200	45.979	0.100
678.300	39.586	0.100
678.400	48.522	0.100
678.500	49.795	0.100
678.600	45.877	0.100
678.700	48.144	0.100
678.800	48.360	0.100
678.900	49.936	0.100
679.000	56.875	0.100
679.100	37.731	0.100
679.200	48.775	0.100
679.300	50.581	0.100
679.400	50.321	0.100
679.500	34.143	0.100
679.600	50.081	0.100
679.700	53.543	0.100
679.800	47.066	0.100
679.900	46.276	0.100
680.000	44.340	0.100
680.100	39.217	0.100
680.200	40.115	0.100
680.300	62.373	0.100
680.400	43.052	0.100
680.500	54.025	0.100
680.600	41.254	0.100
680.700	47.639	0.100
680.800	28.893	0.100
680.900	39.804	0.100
681.000	41.247	0.100
681.100	46.407	0.100
681.200	28.475	0.100
681.300	49.842	0.100
681.400	57.383	0.100
681.500	51.961	0.100
681.600	39.383	0.100
681.700	40.235	0.100
681.800	43.648	0.100
681.900	37.917	0.100
682.000	44.811	0.100
682.100	44.830	0.100
682.200	42.691	0.100
682.300	56.229	0.100
682.400	45.754	0.100
682.500	44.002	0.100
682.600	38.001	0.100
682.700	56.940	0.100
682.800	45.281	0.100
682.900	60.959	0.100
683.000	42.599	0.100
683.100	54.572	0.100
683.200	43.655	0.100
683.300	43.904	0.100
683.400	51.449	0.100
683.500	52.237	0.100
683.600	48.687	0.100
683.700	46.152	0.100
683.800	53.084	0.100
683.900	44.537	0.100
684.000	42.097	0.100
684.100	41.944	0.100
684.200	39.155	0.100
684.300	41.380	0.100
684.400	42.860	0.100
684.500	34.863	0.100
684.600	50.713	0.100
684.700	55.339	0.100
684.800	42.100	0.100
684.900	50.645	0.100
685.000	44.994	0.100
685.100	31.883	0.100
685.200	33.249	0.100
685.300	44.141	0.100
685.400	48.408	0.100
685.500	42.544	0.100
685.600	41.414	0.100
685.700	54.320	0.100
685.800	47.854	0.100
685.900	44.387	0.100
686.000	44.816	0.100
686.100	44.533	0.100
686.200	50.264	0.100
686.300	51.696	0.100
686.400	50.917	0.100
686.500	48.514	0.100
686.600	49.238	0.100
686.700	57.292	0.100
686.800	38.654	0.100
686.900	38.341	0.100
687.000	47.335	0.100
687.100	34.490	0.100
687.200	59.296	0.100
687.300	24.086	0.100
687.400	34.341	0.100
687.500	49.747	0.100
687.600	58.861	0.100
687.700	37.855	0.100
687.800	48.383	0.100
687.900	48.706	0.100
688.000	49.484	0.100
688.100	52.226	0.100
688.200	48.384	0.100
688.300	33.067	0.100
688.400	50.307	0.100
688.500	55.852	0.100
688.600	52.642	0.100
688.700	49.307	0.100
688.800	50.999	0.100
688.900	39.170	0.100
689.000	49.445	0.100
689.100	41.708	0.100
689.200	41.462	0.100
689.300	43.982	0.100
689.400	51.285	0.100
689.500	45.259	0.100
689.600	50.223	0.100
689.700	48.908	0.100
689.800	29.613	0.100
689.900	38.380	0.100
690.000	43.352	0.100
690.100	38.379	0.100
690.200	45.617	0.100
690.300	37.257	0.100
690.400	30.948	0.100
690.500	17.723	0.100
690.600	36.170	0.100
690.700	37.195	0.100
690.800	32.376	0.100
690.900	11.953	0.100
691.000	11.506	0.100
691.100	11.935	0.100
691.200	6.937	0.100
691.300	11.865	0.100
691.400	-5.277	0.100
691.500	-0.891	0.100
691.600	7.458	0.100
691.700	-12.126	0.100
691.800	-7.489	0.100
691.900	-5.989	0.100
692.000	-4.076	0.100
692.100	-3.219	0.100
692.200	-16.441	0.100
692.300	-5.640	0.100
692.400	-9.437	0.100
692.500	-7.100	0.100
692.600	0.545	0.100
692.700	-6.848	0.100
692.800	-9.682	0.100
692.900	-12.820	0.100
693.000	-12.390	0.100
693.100	-15.114	0.100
693.200	-15.930	0.100
693.300	-14.418	0.100
693.400	-12.163	0.100
693.500	-16.317	0.100
693.600	-7.119	0.100
693.700	-24.699	0.100
693.800	-10.630	0.100
693.900	2.599	0.100
694.000	-20.317	0.100
694.100	-3.434	0.100
694.200	-9.547	0.100
694.300	-18.605	0.100
694.400	-15.898	0.100
694.500	-11.698	0.100
694.600	-6.422	0.100
694.700	-19.050	0.100
694.800	-15.333	0.100
694.900	-10.552	0.100
695.000	-10.302	0.100
695.100	-11.289	0.100
695.200	0.298	0.100
695.300	-6.700	0.100
695.400	-16.752	0.100
695.500	-8.499	0.100
695.600	-10.385	0.100
695.700	-4.701	0.100
695.800	-6.050	0.100
695.900	-14.774	0.100
696.000	-11.639	0.100
696.100	-6.223	0.100
696.200	-6.509	0.100
696.300	-9.356	0.100
696.400	-20.830	0.100
696.500	-20.578	0.100
696.600	-13.050	0.100
696.700	-7.517	0.100
696.800	-8.960	0.100
696.900	-20.089	0.100
697.000	-3.003	0.100
697.100	-8.028	0.100
697.200	-5.783	0.100
697.300	-10.462	0.100
697.400	-12.697	0.100
697.500	-19.209	0.100
697.600	-5.066	0.100
697.700	-0.225	0.100
697.800	-15.445	0.100
697.900	-27.002	0.100
698.000	-13.207	0.100
698.100	-14.760	0.100
698.200	-0.440	0.100
698.300	4.019	0.100
698.400	-4.098	0.100
698.500	-8.668	0.100
698.600	-20.705	0.100
698.700	4.615	0.100
698.800	-8.823	0.100
698.900	-10.337	0.100
699.000	-17.903	0.100
699.100	-5.455	0.100
699.200	8.881	0.100
699.300	-0.589	0.100
699.400	-15.284	0.100
699.500	-14.587	0.100
699.600	-20.730	0.100
699.700	-3.538	0.100
699.800	-7.682	0.100
699.900	-22.909	0.100
700.000	-10.116	0.100
700.100	-7.685	0.100
700.200	-1.065	0.100
700.300	-0.276	0.100
700.400	-28.557	0.100
700.500	-10.928	0.100
700.600	-7.476	0.100
700.700	-14.387	0.100
700.800	-4.822	0.100
700.900	-9.773	0.100
701.000	-6.449	0.100
701.100	-13.258	0.100
701.200	-6.735	0.100
701.300	-20.485	0.100
701.400	-0.080	0.100
701.500	-7.153	0.100
701.600	-9.125	0.100
701.700	-10.112	0.100
701.800	-11.777	0.100
701.900	-3.139	0.100
702.000	-3.459	0.100
702.100	-19.015	0.100
702.200	-13.871	0.100
702.300	-7.950	0.100
702.400	-2.281	0.100
702.500	-12.835	0.100
702.600	-10.219	0.100
702.700	-18.015	0.100
702.800	-9.893	0.100
702.900	-8.967	0.100
703.000	-18.500	0.100
703.100	-15.487	0.100
703.200	-10.255	0.100
703.300	-19.538	0.100
703.400	-10.553	0.100
703.500	3.182	0.100
703.600	-15.408	0.100
703.700	-10.148	0.100
703.800	-15.014	0.100
703.900	-10.114	0.100
704.000	-15.659	0.100
704.100	-5.831	0.100
704.200	-8.408	0.100
704.300	-17.919	0.100
704.400	-16.324	0.100
704.500	-18.368	0.100
704.600	-27.336	0.100
704.700	-4.221	0.100
704.800	-7.651	0.100
704.900	-8.319	0.100
705.000	-15.841	0.100
705.100	-25.687	0.100
705.200	-8.745	0.100
705.300	-7.572	0.100
705.400	-4.239	0.100
705.500	-18.552	0.100
705.600	-23.712	0.100
705.700	-14.735	0.100
705.800	-11.759	0.100
705.900	1.819	0.100
706.000	-15.482	0.100
706.100	-16.736	0.100
706.200	-12.310	0.100
706.300	-13.925	0.100
706.400	-16.309	0.100
706.500	-19.874	0.100
706.600	-29.055	0.100
706.700	-25.646	0.100
706.800	-18.013	0.100
706.900	-13.620	0.100
707.000	-11.939	0.100
707.100	-9.069	0.100
707.200	-8.220	0.100
707.300	-11.584	0.100
707.400	-19.931	0.100
707.500	-15.488	0.100
707.600	-13.034	0.100
707.700	-20.028	0.100
707.800	-15.903	0.100
707.900	-25.038	0.100
708.000	-15.870	0.100
708.100	-23.466	0.100
708.200	-20.120	0.100
708.300	-14.870	0.100
708.400	-10.782	0.100
708.500	-20.063	0.100
708.600	-21.835	0.100
708.700	-24.662	0.100
708.800	-8.745	0.100
708.900	-7.222	0.100
709.000	-14.566	0.100
709.100	-15.924	0.100
709.200	-20.732	0.100
709.300	-14.809	0.100
709.400	-21.489	0.100
709.500	-28.443	0.100
709.600	-18.239	0.100
709.700	-5.483	0.100
709.800	-18.600	0.100
709.900	-18.057	0.100
710.000	-9.041	0.100
710.100	-15.564	0.100
710.200	-19.238	0.100
710.300	-19.551	0.100
710.400	-18.363	0.100
710.500	-22.326	0.100
710.600	-5.967	0.100
710.700	-13.448	0.100
710.800	-18.548	0.100
710.900	-37.574	0.100
711.000	-12.586	0.100
711.100	-20.794	0.100
711.200	-5.023	0.100
711.300	-10.337	0.100
711.400	0.156	0.100
711.500	-23.505	0.100
711.600	-29.186	0.100
711.700	-22.380	0.100
711.800	-16.142	0.100
711.900	-21.920	0.100
712.000	-20.082	0.100
712.100	-15.766	0.100
712.200	-18.753	0.100
712.300	-12.750	0.100
712.400	-13.786	0.100
712.500	-9.457	0.100
712.600	-14.518	0.100
712.700	-11.030	0.100
712.800	-20.652	0.100
712.900	-28.263	0.100
713.000	-16.322	0.100
713.100	-22.710	0.100
713.200	-24.040	0.100
713.300	-22.529	0.100
713.400	-21.643	0.100
713.500	-14.572	0.100
713.600	-8.677	0.100
713.700	-22.582	0.100
713.800	-17.058	0.100
713.900	-14.036	0.100
714.000	-17.988	0.100
714.100	-20.080	0.100
714.200	-10.512	0.100
714.300	-21.933	0.100
714.400	-14.309	0.100
714.500	-18.805	0.100
714.600	-20.641	0.100
714.700	-8.522	0.100
714.800	-10.579	0.100
714.900	-12.519	0.100
715.000	-16.979	0.100
715.100	-28.324	0.100
715.200	-16.477	0.100
715.300	-18.906	0.100
715.400	-22.905	0.100
715.500	-43.201	0.100
715.600	-30.290	0.100
715.700	-17.742	0.100
715.800	-19.306	0.100
715.900	-14.963	0.100
716.000	-16.583	0.100
716.100	-16.156	0.100
716.200	-15.237	0.100
716.300	-15.179	0.100
716.400	-26.247	0.100
716.500	-20.951	0.100
716.600	-20.467	0.100
716.700	-21.986	0.100
716.800	-16.764	0.100
716.900	-18.504	0.100
717.000	-30.985	0.100
717.100	-29.641	0.100
717.200	-18.000	0.100
717.300	-16.392	0.100
717.400	-12.674	0.100
717.500	-8.576	0.100
717.600	-18.121	0.100
717.700	-12.736	0.100
717.800	-17.583	0.100
717.900	-23.152	0.100
718.000	-11.831	0.100
718.100	-23.644	0.100
718.200	-37.712	0.100
718.300	-14.085	0.100
718.400	-16.704	0.100
718.500	-25.855	0.100
718.600	-33.211	0.100
718.700	-10.938	0.100
718.800	-9.826	0.100
718.900	-10.453	0.100
719.000	-30.880	0.100
719.100	-15.029	0.100
719.200	-17.673	0.100
719.300	-18.027	0.100
719.400	-34.141	0.100
719.500	-27.921	0.100
719.600	-17.810	0.100
719.700	-11.784	0.100
719.800	-25.135	0.100
719.900	-26.468	0.100
720.000	-17.335	0.100
720.100	-19.998	0.100
720.200	-24.409	0.100
720.300	-21.929	0.100
720.400	-17.898	0.100
720.500	-9.441	0.100
720.600	-13.665	0.100
720.700	-17.027	0.100
720.800	-18.273	0.100
720.900	-25.932	0.100
721.000	-32.675	0.100
721.100	-27.620	0.100
721.200	-23.107	0.100
721.300	-16.678	0.100
721.400	-28.786	0.100
721.500	-18.935	0.100
721.600	-18.571	0.100
721.700	-12.301	0.100
721.800	-25.188	0.100
721.900	-13.990	0.100
722.000	-31.511	0.100
722.100	-25.976	0.100
722.200	-14.598	0.100
722.300	-23.758	0.100
722.400	-25.830	0.100
722.500	-18.709	0.100
722.600	-12.746	0.100
722.700	-12.574	0.100
722.800	-24.978	0.100
722.900	-19.746	0.100
723.000	-30.018	0.100
723.100	-17.058	0.100
723.200	-13.294	0.100
723.300	-22.859	0.100
723.400	-18.083	0.100
723.500	-26.572	0.100
723.600	-19.332	0.100
723.700	-32.140	0.100
723.800	-19.166	0.100
723.900	-17.059	0.100
724.000	-15.426	0.100
724.100	-15.821	0.100
724.200	-25.411	0.100
724.300	-42.066	0.100
724.400	-28.867	0.100
724.500	-26.958	0.100
724.600	-14.089	0.100
724.700	-11.289	0.100
724.800	-24.864	0.100
724.900	-17.213	0.100
725.000	-17.879	0.100
725.100	-18.969	0.100
725.200	-13.760	0.100
725.300	-23.432	0.100
725.400	-32.519	0.100
725.500	-19.720	0.100
725.600	-23.621	0.100
725.700	-11.767	0.100
725.800	-38.501	0.100
725.900	-26.980	0.100
726.000	-18.696	0.100
726.100	-13.443	0.100
726.200	-15.628	0.100
726.300	-10.033	0.100
726.400	-28.121	0.100
726.500	-24.912	0.100
726.600	-21.199	0.100
726.700	-20.021	0.100
726.800	-13.566	0.100
726.900	-24.887	0.100
727.000	-17.613	0.100
727.100	-22.365	0.100
727.200	-24.042	0.100
727.300	-21.043	0.100
727.400	-13.798	0.100
727.500	-21.414	0.100
727.600	-33.695	0.100
727.700	-24.910	0.100
727.800	-31.740	0.100
727.900	-14.471	0.100
728.000	-16.156	0.100
728.100	-19.605	0.100
728.200	-23.351	0.100
728.300	-17.389	0.100
728.400	-26.052	0.100
728.500	-25.002	0.100
728.600	-36.602	0.100
728.700	-28.276	0.100
728.800	-13.952	0.100
728.900	-14.334	0.100
729.000	-35.659	0.100
729.100	-24.407	0.100
729.200	-25.644	0.100
729.300	-22.388	0.100
729.400	-8.846	0.100
729.500	-14.832	0.100
729.600	-21.160	0.100
729.700	-14.635	0.100
729.800	-14.589	0.100
729.900	-20.772	0.100
730.000	-22.359	0.100
730.100	-22.036	0.100
730.200	-17.978	0.100
730.300	-17.502	0.100
730.400	-34.913	0.100
730.500	-21.113	0.100
730.600	-13.956	0.100
730.700	-20.424	0.100
730.800	-15.625	0.100
730.900	-25.725	0.100
731.000	-12.417	0.100
731.100	-23.534	0.100
731.200	-23.820	0.100
731.300	-21.720	0.100
731.400	-20.208	0.100
731.500	-34.906	0.100
731.600	-39.077	0.100
731.700	-20.876	0.100
731.800	-22.369	0.100
731.900	-20.536	0.100
732.000	-24.748	0.100
732.100	-23.144	0.100
732.200	-27.433	0.100
732.300	-29.457	0.100
732.400	-26.036	0.100
732.500	-21.226	0.100
732.600	-20.569	0.100
732.700	-26.616	0.100
732.800	-21.213	0.100
732.900	-15.921	0.100
733.000	-21.045	0.100
733.100	-24.723	0.100
733.200	-14.617	0.100
733.300	-32.696	0.100
733.400	-24.097	0.100
733.500	-9.784	0.100
733.600	-18.875	0.100
733.700	-18.768	0.100
733.800	-20.096	0.100
733.900	-20.356	0.100
734.000	-30.731	0.100
734.100	-30.598	0.100
734.200	-22.651	0.100
734.300	-23.781	0.100
734.400	-25.152	0.100
734.500	-16.447	0.100
734.600	-29.442	0.100
734.700	-27.212	0.100
734.800	-14.240	0.100
734.900	-19.249	0.100
735.000	-13.764	0.100
735.100	-11.048	0.100
735.200	-16.857	0.100
735.300	-23.947	0.100
735.400	-28.220	0.100
735.500	-15.770	0.100
735.600	-19.575	0.100
735.700	-21.048	0.100
735.800	-16.774	0.100
735.900	-16.781	0.100
736.000	-30.697	0.100
736.100	-26.662	0.100
736.200	-19.746	0.100
736.300	-25.756	0.100
736.400	-17.300	0.100
736.500	-35.971	0.100
736.600	-14.513	0.100
736.700	-22.537	0.100
736.800	-24.841	0.100
736.900	-21.735	0.100
737.000	-22.827	0.100
737.100	-39.972	0.100
737.200	-25.331	0.100
737.300	-22.763	0.100
737.400	-17.211	0.100
737.500	-14.999	0.100
737.600	-14.553	0.100
737.700	-14.695	0.100
737.800	-14.435	0.100
737.900	-32.286	0.100
738.000	-23.678	0.100
738.100	-20.114	0.100
738.200	-35.860	0.100
738.300	-17.877	0.100
738.400	-9.054	0.100
738.500	-21.143	0.100
738.600	-24.664	0.100
738.700	-25.096	0.100
738.800	-13.101	0.100
738.900	-27.386	0.100
739.000	-27.581	0.100
739.100	-20.152	0.100
739.200	-19.466	0.100
739.300	-13.704	0.100
739.400	-29.098	0.100
739.500	-17.960	0.100
739.600	-16.932	0.100
739.700	-29.472	0.100
739.800	-30.659	0.100
739.900	-18.465	0.100
740.000	-8.418	0.100
740.100	-28.376	0.100
740.200	-22.274	0.100
740.300	-29.094	0.100
740.400	-27.800	0.100
740.500	-23.214	0.100
740.600	-12.915	0.100
740.700	-17.289	0.100
740.800	-12.872	0.100
740.900	-25.947	0.100
741.000	-20.079	0.100
741.100	-12.530	0.100
741.200	-19.639	0.100
741.300	-24.496	0.100
741.400	-16.134	0.100
741.500	-15.564	0.100
741.600	-23.626	0.100
741.700	-28.519	0.100
741.800	-13.385	0.100
741.900	-12.529	0.100
742.000	-31.697	0.100
742.100	-25.464	0.100
742.200	-21.717	0.100
742.300	-31.346	0.100
742.400	-13.977	0.100
742.500	-18.790	0.100
742.600	-20.085	0.100
742.700	-23.797	0.100
742.800	-17.717	0.100
742.900	-29.026	0.100
743.000	-26.558	0.100
743.100	-19.900	0.100
743.200	-22.955	0.100
743.300	-13.705	0.100
743.400	-17.685	0.100
743.500	-10.175	0.100
743.600	-15.078	0.100
743.700	-13.553	0.100
743.800	-29.587	0.100
743.900	-17.274	0.100
744.000	-14.577	0.100
744.100	-27.677	0.100
744.200	-15.797	0.100
744.300	-19.630	0.100
744.400	-23.101	0.100
744.500	-22.023	0.100
744.600	-19.379	0.100
744.700	-17.542	0.100
744.800	-21.287	0.100
744.900	-18.408	0.100
745.000	-17.408	0.100
745.100	-28.842	0.100
745.200	-31.603	0.100
745.300	-11.648	0.100
745.400	-20.417	0.100
745.500	-32.068	0.100
745.600	-26.735	0.100
745.700	-21.006	0.100
745.800	-7.492	0.100
745.900	-19.093	0.100
746.000	-25.339	0.100
746.100	-21.362	0.100
746.200	-6.292	0.100
746.300	-26.921	0.100
746.400	-8.851	0.100
746.500	-16.491	0.100
746.600	-20.909	0.100
746.700	-27.189	0.100
746.800	-26.975	0.100
746.900	-19.774	0.100
747.000	-21.635	0.100
747.100	-22.818	0.100
747.200	-24.469	0.100
747.300	-19.688	0.100
747.400	-12.280	0.100
747.500	-6.781	0.100
747.600	-26.601	0.100
747.700	-29.380	0.100
747.800	-10.896	0.100
747.900	-22.043	0.100
748.000	-17.233	0.100
748.100	-24.966	0.100
748.200	-28.964	0.100
748.300	-26.735	0.100
748.400	-16.419	0.100
748.500	-13.094	0.100
748.600	-21.871	0.100
748.700	-35.221	0.100
748.800	-30.337	0.100
748.900	-13.099	0.100
749.000	-22.563	0.100
749.100	-16.975	0.100
749.200	-9.922	0.100
749.300	-22.062	0.100
749.400	-7.438	0.100
749.500	-21.030	0.100
749.600	-20.443	0.100
749.700	-32.234	0.100
749.800	-16.415	0.100
749.900	-5.621	0.100
750.000	-16.750	0.100
750.100	-17.267	0.100
750.200	-17.209	0.100
750.300	-17.177	0.100
750.400	-28.371	0.100
750.500	-27.601	0.100
750.600	-5.888	0.100
750.700	-13.681	0.100
750.800	-16.487	0.100
750.900	-24.508	0.100
751.000	-24.503	0.100
751.100	-18.830	0.100
751.200	-25.065	0.100
751.300	-28.268	0.100
751.400	-16.648	0.100
751.500	-22.482	0.100
751.600	-28.640	0.100
751.700	-17.175	0.100
751.800	-11.512	0.100
751.900	-18.162	0.100
752.000	-10.418	0.100
752.100	-16.493	0.100
752.200	-23.566	0.100
752.300	-22.761	0.100
752.400	-11.584	0.100
752.500	-23.075	0.100
752.600	-19.777	0.100
752.700	-19.936	0.100
752.800	-26.852	0.100
752.900	-23.141	0.100
753.000	-16.579	0.100
753.100	-12.805	0.100
753.200	-17.016	0.100
753.300	-23.147	0.100
753.400	-23.964	0.100
753.500	-13.752	0.100
753.600	-29.520	0.100
753.700	-19.561	0.100
753.800	-10.484	0.100
753.900	-11.919	0.100
754.000	-22.439	0.100
754.100	-3.757	0.100
754.200	-12.297	0.100
754.300	-20.922	0.100
754.400	-16.153	0.100
754.500	-30.146	0.100
754.600	-25.389	0.100
754.700	-10.803	0.100
754.800	-10.571	0.100
754.900	-9.691	0.100
755.000	-13.174	0.100
755.100	-19.224	0.100
755.200	-18.979	0.100
755.300	-14.670	0.100
755.400	-3.965	0.100
755.500	-20.651	0.100
755.600	-11.234	0.100
755.700	-20.487	0.100
755.800	-30.513	0.100
755.900	-8.129	0.100
756.000	-12.239	0.100
756.100	-16.152	0.100
756.200	-7.354	0.100
756.300	-19.783	0.100
756.400	-26.536	0.100
756.500	-14.771	0.100
756.600	-9.691	0.100
756.700	-17.052	0.100
756.800	-17.625	0.100
756.900	-29.755	0.100
757.000	-8.379	0.100
757.100	-12.307	0.100
757.200	-14.509	0.100
757.300	-12.624	0.100
757.400	-30.420	0.100
757.500	-28.187	0.100
757.600	-27.905	0.100
757.700	-23.847	0.100
757.800	3.223	0.100
757.900	-9.233	0.100
758.000	-12.289	0.100
758.100	-15.775	0.100
758.200	-17.087	0.100
758.300	-22.422	0.100
758.400	-20.181	0.100
758.500	-11.963	0.100
758.600	-12.825	0.100
758.700	-11.514	0.100
758.800	-8.392	0.100
758.900	-22.098	0.100
759.000	-21.297	0.100
759.100	-19.720	0.100
759.200	-26.594	0.100
759.300	-26.665	0.100
759.400	-18.504	0.100
759.500	-17.840	0.100
759.600	-9.976	0.100
759.700	-18.650	0.100
759.800	-12.040	0.100
759.900	-12.777	0.100
760.000	-20.897	0.100
760.100	-12.821	0.100
760.200	-10.809	0.100
760.300	-19.326	0.100
760.400	-17.188	0.100
760.500	-14.311	0.100
760.600	-6.555	0.100
760.700	-10.535	0.100
760.800	-15.606	0.100
760.900	-21.591	0.100
761.000	-17.187	0.100
761.100	-10.114	0.100
761.200	-9.254	0.100
761.300	-24.629	0.100
761.400	-22.223	0.100
761.500	-21.456	0.100
761.600	-18.140	0.100
761.700	-13.842	0.100
761.800	-21.612	0.100
761.900	-26.802	0.100
762.000	-18.172	0.100
762.100	-11.900	0.100
762.200	-17.417	0.100
762.300	-29.351	0.100
762.400	-9.581	0.100
762.500	-19.191	0.100
762.600	-11.526	0.099
762.700	-27.891	0.099
762.800	-17.384	0.099
762.900	-9.341	0.099
763.000	-14.958	0.099
763.100	-3.211	0.099
763.200	-10.526	0.099
763.300	-16.287	0.099
763.400	-17.057	0.099
763.500	-20.942	0.099
763.600	-16.464	0.099
763.700	-17.616	0.099
763.800	-7.444	0.099
763.900	-20.111	0.099
764.000	-32.147	0.099
764.100	-23.847	0.099
764.200	-11.798	0.099
764.300	-25.954	0.099
764.400	-6.612	0.099
764.500	-9.206	0.099
764.600	-27.995	0.099
764.700	-19.587	0.099
764.800	-22.946	0.099
764.900	-18.182	0.099
765.000	-1.654	0.099
765.100	-17.530	0.099
765.200	-10.360	0.099
765.300	-15.382	0.099
765.400	-24.136	0.099
765.500	-8.765	0.099
765.600	-8.676	0.099
765.700	-12.799	0.099
765.800	-16.279	0.099
765.900	-38.873	0.099
766.000	-10.771	0.099
766.100	-7.738	0.099
766.200	-7.920	0.099
766.300	-9.897	0.099
766.400	-23.056	0.099
766.500	-4.683	0.099
766.600	-22.033	0.099
766.700	-17.295	0.099
766.800	-12.218	0.099
766.900	-12.953	0.099
767.000	-12.655	0.099
767.100	-26.505	0.099
767.200	-11.601	0.099
767.300	-19.422	0.099
767.400	-20.981	0.099
767.500	-23.929	0.099
767.600	-23.180	0.099
767.700	-8.645	0.099
767.800	-5.050	0.099
767.900	-3.741	0.099
768.000	-14.436	0.099
768.100	-17.698	0.099
768.200	-16.671	0.099
768.300	-7.620	0.099
768.400	-22.884	0.099
768.500	-17.665	0.099
768.600	-26.581	0.099
768.700	-19.792	0.099
768.800	-26.533	0.099
768.900	-21.914	0.099
769.000	-17.331	0.099
769.100	-17.044	0.099
769.200	-10.407	0.099
769.300	-19.994	0.099
769.400	-15.786	0.099
769.500	-14.209	0.099
769.600	-21.174	0.099
769.700	-5.584	0.099
769.800	-18.615	0.099
769.900	-28.854	0.099
770.000	-19.395	0.099
770.100	-17.417	0.099
770.200	-6.126	0.099
770.300	-13.553	0.099
770.400	-19.033	0.099
770.500	-13.366	0.099
770.600	-8.380	0.099
770.700	-14.428	0.099
770.800	-20.348	0.099
770.900	-13.119	0.099
771.000	-19.916	0.099
771.100	-9.705	0.099
771.200	-17.217	0.099
771.300	-25.184	0.099
771.400	-19.352	0.099
771.500	-10.966	0.099
771.600	-16.946	0.099
771.700	-16.222	0.099
771.800	-18.569	0.099
771.900	-14.681	0.099
772.000	-12.804	0.099
772.100	-10.574	0.099
772.200	-13.232	0.099
772.300	-17.187	0.099
772.400	-22.348	0.099
772.500	-12.312	0.099
772.600	-22.066	0.099
772.700	-8.369	0.099
772.800	-1.702	0.099
772.900	-3.165	0.099
773.000	-11.014	0.099
773.100	-16.396	0.099
773.200	-17.690	0.099
773.300	-14.237	0.099
773.400	-15.381	0.099
773.500	-9.391	0.099
773.600	-29.236	0.099
773.700	-23.017	0.099
773.800	-19.330	0.099
773.900	-29.760	0.099
774.000	-14.302	0.099
774.100	-7.146	0.099
774.200	-7.737	0.099
774.300	-14.024	0.099
774.400	-11.106	0.099
774.500	-12.216	0.099
774.600	-19.780	0.099
774.700	-18.872	0.099
774.800	-13.711	0.099
774.900	-13.999	0.099
775.000	-14.738	0.099
775.100	-6.122	0.099
775.200	-11.783	0.099
775.300	-19.517	0.099
775.400	-4.288	0.099
775.500	-7.911	0.099
775.600	-11.054	0.099
775.700	-25.449	0.099
775.800	-9.454	0.099
775.900	-28.854	0.099
776.000	-15.816	0.099
776.100	-21.620	0.099
776.200	-15.680	0.099
776.300	-25.242	0.099
776.400	-14.326	0.099
776.500	5.628	0.099
776.600	-11.005	0.099
776.700	-12.032	0.099
776.800	-8.628	0.099
776.900	-3.704	0.099
777.000	-22.292	0.099
777.100	-14.542	0.099
777.200	-21.061	0.099
777.300	-23.011	0.099
777.400	-16.530	0.099
777.500	-5.444	0.099
777.600	-22.936	0.099
777.700	-16.863	0.099
777.800	-8.462	0.099
777.900	-15.042	0.099
778.000	-13.322	0.099
778.100	-20.456	0.099
778.200	-27.245	0.099
778.300	-9.406	0.099
778.400	-12.521	0.099
778.500	-12.524	0.099
778.600	-1.013	0.099
778.700	-6.732	0.099
778.800	-15.143	0.099
778.900	-4.036	0.099
779.000	-8.041	0.099
779.100	-31.847	0.099
779.200	-26.994	0.099
779.300	-7.090	0.099
779.400	-18.948	0.099
779.500	-19.903	0.099
779.600	-16.320	0.099
779.700	-7.624	0.100
779.800	-2.063	0.100
779.900	-5.090	0.100
780.000	-20.622	0.100
780.100	-10.033	0.100
780.200	-13.041	0.100
780.300	-10.641	0.100
780.400	-10.084	0.100
780.500	6.308	0.100
780.600	19.261	0.100
780.700	2.981	0.100
780.800	9.165	0.100
780.900	25.640	0.100
781.000	20.880	0.100
781.100	38.461	0.100
781.200	29.387	0.100
781.300	32.898	0.100
781.400	31.871	0.100
781.500	39.320	0.100
781.600	39.362	0.100
781.700	45.715	0.100
781.800	43.562	0.100
781.900	49.893	0.100
782.000	29.905	0.100
782.100	43.451	0.100
782.200	48.152	0.100
782.300	49.412	0.100
782.400	52.750	0.100
782.500	42.308	0.100
782.600	58.281	0.100
782.700	46.180	0.100
782.800	48.775	0.100
782.900	41.675	0.100
783.000	47.791	0.100
783.100	47.821	0.100
783.200	55.796	0.100
783.300	49.487	0.100
783.400	47.603	0.100
783.500	45.359	0.100
783.600	48.734	0.100
783.700	51.239	0.100
783.800	53.778	0.100
783.900	51.073	0.100
784.000	40.501	0.100
784.100	53.781	0.100
784.200	31.683	0.100
784.300	47.456	0.100
784.400	52.736	0.100
784.500	47.510	0.100
784.600	55.973	0.100
784.700	57.308	0.100
784.800	40.631	0.100
784.900	34.976	0.100
785.000	29.298	0.100
785.100	40.714	0.100
785.200	57.089	0.100
785.300	54.867	0.100
785.400	50.127	0.100
785.500	37.348	0.100
785.600	41.139	0.100
785.700	41.017	0.100
785.800	39.389	0.100
785.900	41.475	0.100
786.000	42.195	0.100
786.100	25.884	0.100
786.200	35.485	0.100
786.300	35.553	0.100
786.400	27.211	0.100
786.500	30.772	0.100
786.600	37.573	0.100
786.700	35.680	0.100
786.800	25.189	0.100
786.900	24.825	0.100
787.000	40.907	0.100
787.100	41.549	0.100
787.200	27.006	0.100
787.300	34.464	0.100
787.400	39.916	0.100
787.500	39.820	0.100
787.600	22.027	0.100
787.700	31.393	0.100
787.800	37.831	0.100
787.900	37.199	0.100
788.000	35.344	0.100
788.100	23.391	0.100
788.200	28.295	0.100
788.300	24.824	0.100
788.400	45.952	0.100
788.500	28.030	0.100
788.600	25.770	0.100
788.700	29.728	0.100
788.800	45.336	0.100
788.900	32.221	0.100
789.000	25.097	0.100
789.100	36.764	0.100
789.200	42.000	0.100
789.300	40.900	0.100
789.400	26.583	0.100
789.500	36.952	0.100
789.600	39.509	0.100
789.700	31.060	0.100
789.800	23.830	0.100
789.900	25.659	0.100
790.000	35.308	0.100
790.100	48.988	0.100
790.200	46.813	0.100
790.300	42.890	0.100
790.400	35.218	0.100
790.500	18.646	0.100
790.600	43.590	0.100
790.700	26.667	0.100
790.800	33.392	0.100
790.900	22.254	0.100
791.000	27.152	0.100
791.100	23.407	0.100
791.200	30.198	0.100
791.300	34.985	0.100
791.400	24.026	0.100
791.500	29.779	0.100
791.600	40.558	0.100
791.700	45.582	0.100
791.800	38.500	0.100
791.900	31.989	0.100
792.000	31.173	0.100
792.100	31.791	0.100
792.200	14.322	0.100
792.300	25.956	0.100
792.400	14.443	0.100
792.500	22.453	0.100
792.600	38.841	0.100
792.700	33.014	0.100
792.800	43.991	0.100
792.900	39.310	0.100
793.000	35.025	0.100
793.100	40.139	0.100
793.200	26.070	0.100
793.300	32.842	0.100
793.400	25.842	0.100
793.500	26.373	0.100
793.600	29.616	0.100
793.700	33.365	0.100
793.800	38.848	0.100
793.900	30.999	0.100
794.000	24.122	0.100
794.100	43.589	0.100
794.200	33.070	0.100
794.300	36.118	0.100
794.400	35.618	0.100
794.500	38.661	0.100
794.600	33.834	0.100
794.700	16.091	0.100
794.800	26.105	0.100
794.900	43.327	0.100
795.000	31.621	0.100
795.100	37.339	0.100
795.200	35.051	0.100
795.300	24.329	0.100
795.400	26.112	0.100
795.500	42.468	0.100
795.600	27.851	0.100
795.700	33.232	0.100
795.800	38.870	0.100
795.900	35.229	0.100
796.000	29.196	0.100
796.100	18.029	0.100
796.200	18.899	0.100
796.300	29.167	0.100
796.400	44.661	0.100
796.500	31.826	0.100
796.600	34.952	0.100
796.700	40.978	0.100
796.800	38.103	0.100
796.900	30.255	0.100
797.000	34.304	0.100
797.100	20.197	0.100
797.200	38.478	0.100
797.300	38.305	0.100
797.400	34.099	0.100
797.500	46.730	0.100
797.600	25.490	0.100
797.700	30.516	0.100
797.800	30.270	0.100
797.900	31.730	0.100
798.000	31.611	0.100
798.100	36.543	0.100
798.200	35.722	0.100
798.300	31.147	0.100
798.400	29.815	0.100
798.500	36.687	0.100
798.600	31.854	0.100
798.700	35.702	0.100
798.800	33.916	0.100
798.900	36.998	0.100
799.000	38.743	0.100
799.100	45.904	0.100
799.200	48.574	0.100
799.300	29.911	0.100
799.400	42.827	0.100
799.500	37.916	0.100
799.600	37.173	0.100
799.700	30.671	0.100
799.800	30.333	0.100
799.900	34.293	0.100
800.000	50.320	0.100
