time /s	I /nA	E /V
0.100	-30.495	0.100
0.200	-40.579	0.100
0.300	-42.325	0.100
0.400	-23.702	0.100
0.500	-34.951	0.100
0.600	-33.855	0.100
0.700	-44.459	0.100
0.800	-32.316	0.100
0.900	-31.309	0.100
1.000	-34.654	0.100
1.100	-45.072	0.100
1.200	-35.654	0.100
1.300	-46.814	0.100
1.400	-44.938	0.100
1.500	-36.833	0.100
1.600	-33.336	0.100
1.700	-44.400	0.100
1.800	-49.939	0.100
1.900	-34.437	0.100
2.000	-34.520	0.100
2.100	-32.201	0.100
2.200	-35.605	0.100
2.300	-28.387	0.100
2.400	-51.583	0.100
2.500	-32.824	0.100
2.600	-46.832	0.100
2.700	-38.000	0.100
2.800	-32.215	0.100
2.900	-40.368	0.100
3.000	-55.932	0.100
3.100	-40.963	0.100
3.200	-52.044	0.100
3.300	-37.453	0.100
3.400	-30.033	0.100
3.500	-59.941	0.100
3.600	-35.991	0.100
3.700	-23.573	0.100
3.800	-43.096	0.100
3.900	-36.878	0.100
4.000	-23.849	0.100
4.100	-21.466	0.100
4.200	-34.342	0.100
4.300	-29.746	0.100
4.400	-33.399	0.100
4.500	-40.287	0.100
4.600	-48.670	0.100
4.700	-51.008	0.100
4.800	-40.081	0.100
4.900	-30.876	0.100
5.000	-18.809	0.100
5.100	-30.264	0.100
5.200	-34.557	0.100
5.300	-34.197	0.100
5.400	-34.565	0.100
5.500	-41.794	0.100
5.600	-33.780	0.100
5.700	-37.891	0.100
5.800	-35.672	0.100
5.900	-43.313	0.100
6.000	-49.212	0.100
6.100	-40.637	0.100
6.200	-30.557	0.100
6.300	-25.867	0.100
6.400	-35.438	0.100
6.500	-32.255	0.100
6.600	-43.029	0.100
6.700	-31.667	0.100
6.800	-31.330	0.100
6.900	-35.952	0.100
7.000	-49.368	0.100
7.100	-36.609	0.100
7.200	-32.063	0.100
7.300	-31.432	0.100
7.400	-36.133	0.100
7.500	-26.268	0.100
7.600	-41.926	0.100
7.700	-31.344	0.100
7.800	-31.676	0.100
7.900	-34.153	0.100
8.000	-31.781	0.100
8.100	-44.564	0.100
8.200	-50.399	0.100
8.300	-27.844	0.100
8.400	-34.393	0.100
8.500	-36.178	0.100
8.600	-34.529	0.100
8.700	-46.200	0.100
8.800	-33.637	0.100
8.900	-34.594	0.100
9.000	-38.553	0.100
9.100	-32.842	0.100
9.200	-32.925	0.100
9.300	-44.541	0.100
9.400	-35.717	0.100
9.500	-45.015	0.100
9.600	-27.739	0.100
9.700	-30.435	0.100
9.800	-34.946	0.100
9.900	-48.356	0.100
10.000	-36.263	0.100
10.100	-32.696	0.100
10.200	-43.326	0.100
10.300	-41.694	0.100
10.400	-40.818	0.100
10.500	-42.540	0.100
10.600	-31.314	0.100
10.700	-24.364	0.100
10.800	-34.123	0.100
10.900	-40.462	0.100
11.000	-39.113	0.100
11.100	-35.355	0.100
11.200	-25.939	0.100
11.300	-30.789	0.100
11.400	-35.460	0.100
11.500	-36.715	0.100
11.600	-39.917	0.100
11.700	-36.694	0.100
11.800	-29.116	0.100
11.900	-41.516	0.100
12.000	-31.980	0.100
12.100	-39.684	0.100
12.200	-49.594	0.100
12.300	-30.027	0.100
12.400	-29.261	0.100
12.500	-34.454	0.100
12.600	-33.524	0.100
12.700	-36.464	0.100
12.800	-19.325	0.100
12.900	-25.185	0.100
13.000	-33.113	0.100
13.100	-24.460	0.100
13.200	-31.228	0.100
13.300	-26.861	0.100
13.400	-30.304	0.100
13.500	-36.741	0.100
13.600	-34.852	0.100
13.700	-19.928	0.100
13.800	-36.743	0.100
13.900	-40.172	0.100
14.000	-27.367	0.100
14.100	-28.802	0.100
14.200	-31.651	0.100
14.300	-28.531	0.100
14.400	-29.561	0.100
14.500	-29.962	0.100
14.600	-29.960	0.100
14.700	-39.314	0.100
14.800	-42.700	0.100
14.900	-36.228	0.100
15.000	-26.811	0.100
15.100	-22.539	0.100
15.200	-35.125	0.100
15.300	-32.658	0.100
15.400	-35.906	0.100
15.500	-32.564	0.100
15.600	-37.100	0.100
15.700	-35.243	0.100
15.800	-34.771	0.100
15.900	-36.943	0.100
16.000	-27.090	0.100
16.100	-34.244	0.100
16.200	-35.859	0.100
16.300	-18.297	0.100
16.400	-37.008	0.100
16.500	-32.738	0.100
16.600	-28.725	0.100
16.700	-29.179	0.100
16.800	-40.541	0.100
16.900	-30.836	0.100
17.000	-41.770	0.100
17.100	-27.057	0.100
17.200	-33.440	0.100
17.300	-31.560	0.100
17.400	-34.697	0.100
17.500	-45.793	0.100
17.600	-30.205	0.100
17.700	-29.779	0.100
17.800	-42.211	0.100
17.900	-29.984	0.100
18.000	-27.262	0.100
18.100	-22.768	0.100
18.200	-32.669	0.100
18.300	-30.634	0.100
18.400	-46.478	0.100
18.500	-41.360	0.100
18.600	-26.939	0.100
18.700	-41.747	0.100
18.800	-29.558	0.100
18.900	-24.684	0.100
19.000	-25.965	0.100
19.100	-36.959	0.100
19.200	-26.672	0.100
19.300	-32.983	0.100
19.400	-30.906	0.100
19.500	-35.196	0.100
19.600	-25.695	0.100
19.700	-36.064	0.100
19.800	-38.254	0.100
19.900	-34.181	0.100
20.000	-38.235	0.100
20.100	-38.129	0.100
20.200	-27.320	0.100
20.300	-33.432	0.100
20.400	-29.309	0.100
20.500	-29.008	0.100
20.600	-38.671	0.100
20.700	-53.916	0.100
20.800	-32.934	0.100
20.900	-24.669	0.100
21.000	-39.769	0.100
21.100	-32.743	0.100
21.200	-49.885	0.100
21.300	-48.314	0.100
21.400	-31.185	0.100
21.500	-50.794	0.100
21.600	-30.929	0.100
21.700	-31.592	0.100
21.800	-27.819	0.100
21.900	-16.394	0.100
22.000	-33.659	0.100
22.100	-34.610	0.100
22.200	-36.834	0.100
22.300	-40.949	0.100
22.400	-21.275	0.100
22.500	-32.763	0.100
22.600	-43.595	0.100
22.700	-39.357	0.100
22.800	-38.757	0.100
22.900	-32.500	0.100
23.000	-42.433	0.100
23.100	-41.199	0.100
23.200	-35.377	0.100
23.300	-31.180	0.100
23.400	-39.905	0.100
23.500	-39.593	0.100
23.600	-25.797	0.100
23.700	-26.305	0.100
23.800	-45.898	0.100
23.900	-26.586	0.100
24.000	-31.191	0.100
24.100	-29.604	0.100
24.200	-28.336	0.100
24.300	-28.487	0.100
24.400	-34.533	0.100
24.500	-39.863	0.100
24.600	-29.719	0.100
24.700	-33.783	0.100
24.800	-25.850	0.100
24.900	-21.886	0.100
25.000	-32.670	0.100
25.100	-27.263	0.100
25.200	-30.701	0.100
25.300	-45.858	0.100
25.400	-32.629	0.100
25.500	-22.483	0.100
25.600	-37.981	0.100
25.700	-36.329	0.100
25.800	-28.471	0.100
25.900	-29.252	0.100
26.000	-34.168	0.100
26.100	-36.861	0.100
26.200	-41.289	0.100
26.300	-30.143	0.100
26.400	-20.964	0.100
26.500	-33.909	0.100
26.600	-34.246	0.100
26.700	-39.260	0.100
26.800	-46.698	0.100
26.900	-33.152	0.100
27.000	-25.332	0.100
27.100	-39.864	0.100
27.200	-33.272	0.100
27.300	-33.114	0.100
27.400	-31.452	0.100
27.500	-30.086	0.100
27.600	-25.919	0.100
27.700	-37.391	0.100
27.800	-30.550	0.100
27.900	-21.573	0.100
28.000	-22.729	0.100
28.100	-33.491	0.100
28.200	-22.768	0.100
28.300	-29.006	0.100
28.400	-40.771	0.100
28.500	-36.043	0.100
28.600	-31.587	0.100
28.700	-26.685	0.100
28.800	-29.627	0.100
28.900	-34.364	0.100
29.000	-30.128	0.100
29.100	-21.691	0.100
29.200	-30.504	0.100
29.300	-21.619	0.100
29.400	-24.629	0.100
29.500	-50.864	0.100
29.600	-48.510	0.100
29.700	-36.264	0.100
29.800	-22.455	0.100
29.900	-21.865	0.100
30.000	-34.218	0.100
30.100	-42.973	0.100
30.200	-22.643	0.100
30.300	-19.489	0.100
30.400	-35.658	0.100
30.500	-26.998	0.100
30.600	-34.031	0.100
30.700	-27.055	0.100
30.800	-27.197	0.100
30.900	-17.873	0.100
31.000	-21.598	0.100
31.100	-23.697	0.100
31.200	-26.963	0.100
31.300	-21.101	0.100
31.400	-31.793	0.100
31.500	-27.292	0.100
31.600	-8.107	0.100
31.700	-25.960	0.100
31.800	-11.954	0.100
31.900	-14.922	0.100
32.000	-14.007	0.100
32.100	-36.268	0.100
32.200	-7.977	0.100
32.300	-2.676	0.100
32.400	-15.543	0.100
32.500	-16.242	0.100
32.600	-21.112	0.100
32.700	-18.211	0.100
32.800	-6.775	0.100
32.900	-17.005	0.100
33.000	-16.554	0.100
33.100	-10.209	0.100
33.200	-14.922	0.100
33.300	-17.495	0.100
33.400	-11.608	0.100
33.500	2.115	0.100
33.600	-9.912	0.100
33.700	-13.509	0.100
33.800	-18.986	0.100
33.900	3.190	0.100
34.000	-12.859	0.100
34.100	-12.649	0.100
34.200	-18.264	0.100
34.300	-7.996	0.100
34.400	-15.758	0.100
34.500	-14.162	0.100
34.600	-26.086	0.100
34.700	-15.667	0.100
34.800	-2.694	0.100
34.900	-0.654	0.100
35.000	-10.324	0.100
35.100	-9.758	0.100
35.200	-10.343	0.100
35.300	-0.360	0.100
35.400	-12.992	0.100
35.500	-16.282	0.100
35.600	-15.243	0.100
35.700	-13.767	0.100
35.800	-3.243	0.100
35.900	-2.030	0.100
36.000	1.134	0.100
36.100	-0.537	0.100
36.200	-10.372	0.100
36.300	-8.266	0.100
36.400	-5.632	0.100
36.500	-7.406	0.100
36.600	-4.579	0.100
36.700	-6.806	0.100
36.800	-21.271	0.100
36.900	-9.403	0.100
37.000	-7.157	0.100
37.100	2.878	0.100
37.200	-1.030	0.100
37.300	-14.036	0.100
37.400	-6.847	0.100
37.500	-11.517	0.100
37.600	-9.511	0.100
37.700	-13.302	0.100
37.800	-9.308	0.100
37.900	-5.776	0.100
38.000	2.832	0.100
38.100	-0.261	0.100
38.200	-18.357	0.100
38.300	-21.734	0.100
38.400	-0.815	0.100
38.500	-11.157	0.100
38.600	8.001	0.100
38.700	-3.336	0.100
38.800	-0.122	0.100
38.900	2.776	0.100
39.000	-0.643	0.100
39.100	-5.424	0.100
39.200	-2.786	0.100
39.300	-16.213	0.100
39.400	5.492	0.100
39.500	-2.985	0.100
39.600	6.156	0.100
39.700	-2.290	0.100
39.800	6.398	0.100
39.900	-3.193	0.100
40.000	-5.556	0.100
40.100	0.724	0.100
40.200	-6.230	0.100
40.300	2.323	0.100
40.400	0.646	0.100
40.500	-0.920	0.100
40.600	6.058	0.100
40.700	1.840	0.100
40.800	7.187	0.100
40.900	-10.967	0.100
41.000	-6.036	0.100
41.100	-4.751	0.100
41.200	4.475	0.100
41.300	-7.123	0.100
41.400	5.388	0.100
41.500	3.133	0.100
41.600	2.684	0.100
41.700	-4.440	0.100
41.800	2.391	0.100
41.900	-10.886	0.100
42.000	0.085	0.100
42.100	-7.552	0.100
42.200	-2.326	0.100
42.300	1.734	0.100
42.400	-1.156	0.100
42.500	4.346	0.100
42.600	9.403	0.100
42.700	-1.193	0.100
42.800	4.263	0.100
42.900	4.464	0.100
43.000	0.742	0.100
43.100	2.396	0.100
43.200	-10.357	0.100
43.300	0.776	0.100
43.400	7.844	0.100
43.500	5.716	0.100
43.600	-7.797	0.100
43.700	-13.090	0.100
43.800	-0.106	0.100
43.900	3.023	0.100
44.000	10.340	0.100
44.100	4.124	0.100
44.200	10.661	0.100
44.300	-7.961	0.100
44.400	12.243	0.100
44.500	3.972	0.100
44.600	3.837	0.100
44.700	-4.117	0.100
44.800	5.938	0.100
44.900	12.933	0.100
45.000	0.172	0.100
45.100	2.608	0.100
45.200	5.857	0.100
45.300	4.696	0.100
45.400	21.577	0.100
45.500	5.211	0.100
45.600	-1.582	0.100
45.700	-5.612	0.100
45.800	7.460	0.100
45.900	5.538	0.100
46.000	14.445	0.100
46.100	6.093	0.100
46.200	9.432	0.100
46.300	-1.504	0.100
46.400	-3.198	0.100
46.500	12.604	0.100
46.600	7.156	0.100
46.700	10.904	0.100
46.800	1.501	0.100
46.900	11.962	0.100
47.000	14.021	0.100
47.100	-1.526	0.100
47.200	5.978	0.100
47.300	6.951	0.100
47.400	6.623	0.100
47.500	-16.099	0.100
47.600	12.008	0.100
47.700	4.099	0.100
47.800	-0.016	0.100
47.900	7.223	0.100
48.000	18.862	0.100
48.100	-12.592	0.100
48.200	10.153	0.100
48.300	6.109	0.100
48.400	15.347	0.100
48.500	22.256	0.100
48.600	-5.399	0.100
48.700	-11.783	0.100
48.800	2.492	0.100
48.900	8.471	0.100
49.000	12.937	0.100
49.100	-0.827	0.100
49.200	12.141	0.100
49.300	6.125	0.100
49.400	3.472	0.100
49.500	-1.548	0.100
49.600	8.597	0.100
49.700	11.200	0.100
49.800	11.683	0.100
49.900	22.032	0.100
50.000	6.231	0.100
50.100	-6.761	0.100
50.200	8.382	0.100
50.300	12.585	0.100
50.400	14.537	0.100
50.500	14.686	0.100
50.600	8.805	0.100
50.700	11.975	0.100
50.800	-1.842	0.100
50.900	7.696	0.100
51.000	1.200	0.100
51.100	15.407	0.100
51.200	22.249	0.100
51.300	3.758	0.100
51.400	2.299	0.100
51.500	5.789	0.100
51.600	-1.342	0.100
51.700	7.653	0.100
51.800	1.752	0.100
51.900	28.129	0.100
52.000	18.067	0.100
52.100	8.433	0.100
52.200	6.604	0.100
52.300	7.576	0.100
52.400	10.814	0.100
52.500	9.024	0.100
52.600	0.054	0.100
52.700	15.556	0.100
52.800	16.845	0.100
52.900	1.670	0.100
53.000	22.874	0.100
53.100	15.057	0.100
53.200	21.087	0.100
53.300	15.428	0.100
53.400	9.721	0.100
53.500	14.024	0.100
53.600	12.258	0.100
53.700	7.756	0.100
53.800	16.528	0.100
53.900	12.922	0.100
54.000	-0.284	0.100
54.100	18.011	0.100
54.200	12.373	0.100
54.300	17.979	0.100
54.400	10.550	0.100
54.500	10.452	0.100
54.600	15.744	0.100
54.700	14.724	0.100
54.800	-6.321	0.100
54.900	1.619	0.100
55.000	17.065	0.100
55.100	25.499	0.100
55.200	3.889	0.100
55.300	13.196	0.100
55.400	-7.149	0.100
55.500	9.398	0.100
55.600	17.093	0.100
55.700	16.155	0.100
55.800	8.111	0.100
55.900	0.985	0.100
56.000	11.860	0.100
56.100	13.367	0.100
56.200	18.737	0.100
56.300	9.781	0.100
56.400	11.420	0.100
56.500	15.072	0.100
56.600	19.490	0.100
56.700	16.166	0.100
56.800	22.665	0.100
56.900	4.373	0.100
57.000	11.464	0.100
57.100	9.758	0.100
57.200	11.916	0.100
57.300	20.511	0.100
57.400	22.373	0.100
57.500	23.137	0.100
57.600	10.655	0.100
57.700	3.407	0.100
57.800	20.812	0.100
57.900	18.697	0.100
58.000	22.369	0.100
58.100	24.603	0.100
58.200	20.423	0.100
58.300	24.818	0.100
58.400	26.375	0.100
58.500	0.200	0.100
58.600	12.775	0.100
58.700	34.256	0.100
58.800	14.164	0.100
58.900	17.313	0.100
59.000	15.171	0.100
59.100	13.651	0.100
59.200	14.828	0.100
59.300	10.055	0.100
59.400	24.181	0.100
59.500	26.002	0.100
59.600	19.330	0.100
59.700	21.093	0.100
59.800	10.499	0.100
59.900	24.911	0.100
60.000	17.266	0.100
60.100	13.618	0.100
60.200	15.032	0.100
60.300	17.615	0.100
60.400	18.296	0.100
60.500	28.305	0.100
60.600	33.341	0.100
60.700	23.986	0.100
60.800	17.834	0.100
60.900	19.829	0.100
61.000	11.365	0.100
61.100	3.180	0.100
61.200	16.013	0.100
61.300	26.500	0.100
61.400	24.607	0.100
61.500	24.783	0.100
61.600	12.831	0.100
61.700	13.067	0.100
61.800	18.796	0.100
61.900	34.942	0.100
62.000	21.468	0.100
62.100	28.903	0.100
62.200	20.837	0.100
62.300	17.341	0.100
62.400	22.084	0.100
62.500	18.857	0.100
62.600	26.979	0.100
62.700	19.766	0.100
62.800	16.979	0.100
62.900	12.160	0.100
63.000	13.270	0.100
63.100	26.775	0.100
63.200	30.477	0.100
63.300	16.301	0.100
63.400	16.924	0.100
63.500	18.172	0.100
63.600	20.096	0.100
63.700	30.524	0.100
63.800	23.947	0.100
63.900	20.076	0.100
64.000	16.100	0.100
64.100	14.678	0.100
64.200	27.588	0.100
64.300	17.326	0.100
64.400	28.766	0.100
64.500	13.610	0.100
64.600	20.472	0.100
64.700	20.670	0.100
64.800	27.130	0.100
64.900	31.676	0.100
65.000	30.286	0.100
65.100	24.567	0.100
65.200	22.326	0.100
65.300	17.071	0.100
65.400	14.425	0.100
65.500	8.856	0.100
65.600	26.907	0.100
65.700	24.619	0.100
65.800	34.693	0.100
65.900	21.498	0.100
66.000	25.077	0.100
66.100	19.410	0.100
66.200	29.671	0.100
66.300	37.992	0.100
66.400	22.529	0.100
66.500	25.019	0.100
66.600	33.602	0.100
66.700	24.949	0.100
66.800	35.510	0.100
66.900	19.048	0.100
67.000	24.431	0.100
67.100	20.219	0.100
67.200	29.728	0.100
67.300	27.267	0.100
67.400	18.901	0.100
67.500	36.439	0.100
67.600	26.576	0.100
67.700	25.270	0.100
67.800	16.420	0.100
67.900	26.019	0.100
68.000	31.352	0.100
68.100	10.141	0.100
68.200	26.585	0.100
68.300	34.580	0.100
68.400	20.906	0.100
68.500	28.517	0.100
68.600	27.585	0.100
68.700	25.664	0.100
68.800	32.062	0.100
68.900	25.401	0.100
69.000	30.957	0.100
69.100	15.925	0.100
69.200	30.097	0.100
69.300	33.199	0.100
69.400	22.405	0.100
69.500	31.209	0.100
69.600	20.394	0.100
69.700	26.242	0.100
69.800	29.822	0.100
69.900	33.968	0.100
70.000	37.781	0.100
70.100	28.689	0.100
70.200	28.870	0.100
70.300	29.258	0.100
70.400	20.848	0.100
70.500	30.425	0.100
70.600	26.590	0.100
70.700	34.303	0.100
70.800	32.044	0.100
70.900	31.476	0.100
71.000	34.985	0.100
71.100	25.382	0.100
71.200	16.560	0.100
71.300	21.397	0.100
71.400	27.504	0.100
71.500	37.826	0.100
71.600	24.901	0.100
71.700	28.969	0.100
71.800	28.638	0.100
71.900	16.557	0.100
72.000	31.977	0.100
72.100	18.902	0.100
72.200	36.674	0.100
72.300	36.820	0.100
72.400	32.936	0.100
72.500	16.373	0.100
72.600	26.889	0.100
72.700	38.580	0.100
72.800	33.514	0.100
72.900	26.373	0.100
73.000	33.724	0.100
73.100	27.132	0.100
73.200	47.473	0.100
73.300	38.638	0.100
73.400	29.303	0.100
73.500	39.409	0.100
73.600	30.996	0.100
73.700	29.398	0.100
73.800	16.425	0.100
73.900	30.926	0.100
74.000	26.085	0.100
74.100	28.002	0.100
74.200	29.721	0.100
74.300	40.195	0.100
74.400	43.188	0.100
74.500	36.301	0.100
74.600	18.588	0.100
74.700	34.221	0.100
74.800	30.925	0.100
74.900	19.024	0.100
75.000	32.971	0.100
75.100	36.252	0.100
75.200	33.915	0.100
75.300	32.527	0.100
75.400	37.321	0.100
75.500	39.390	0.100
75.600	30.523	0.100
75.700	32.519	0.100
75.800	30.247	0.100
75.900	35.500	0.100
76.000	38.405	0.100
76.100	28.625	0.100
76.200	30.811	0.100
76.300	29.828	0.100
76.400	48.210	0.100
76.500	33.740	0.100
76.600	29.083	0.100
76.700	33.247	0.100
76.800	41.482	0.100
76.900	24.623	0.100
77.000	32.650	0.100
77.100	40.236	0.100
77.200	38.620	0.100
77.300	25.083	0.100
77.400	21.862	0.100
77.500	34.165	0.100
77.600	25.752	0.100
77.700	31.069	0.100
77.800	31.369	0.100
77.900	45.350	0.100
78.000	34.090	0.100
78.100	30.056	0.100
78.200	46.295	0.100
78.300	36.121	0.100
78.400	32.157	0.100
78.500	32.771	0.100
78.600	37.321	0.100
78.700	29.024	0.100
78.800	29.719	0.100
78.900	35.217	0.100
79.000	40.182	0.100
79.100	26.542	0.100
79.200	31.677	0.100
79.300	41.253	0.100
79.400	25.442	0.100
79.500	24.901	0.100
79.600	47.193	0.100
79.700	42.714	0.100
79.800	40.394	0.100
79.900	40.168	0.100
80.000	42.197	0.100
80.100	30.104	0.100
80.200	40.961	0.100
80.300	35.889	0.100
80.400	31.672	0.100
80.500	35.866	0.100
80.600	42.435	0.100
80.700	27.826	0.100
80.800	37.560	0.100
80.900	37.325	0.100
81.000	45.208	0.100
81.100	34.919	0.100
81.200	25.291	0.100
81.300	43.409	0.100
81.400	34.118	0.100
81.500	38.386	0.100
81.600	19.569	0.100
81.700	29.411	0.100
81.800	39.176	0.100
81.900	43.983	0.100
82.000	38.456	0.100
82.100	36.342	0.100
82.200	29.319	0.100
82.300	42.283	0.100
82.400	36.867	0.100
82.500	30.687	0.100
82.600	58.715	0.100
82.700	38.248	0.100
82.800	41.225	0.100
82.900	34.804	0.100
83.000	22.441	0.100
83.100	39.868	0.100
83.200	35.745	0.100
83.300	40.681	0.100
83.400	34.793	0.100
83.500	42.151	0.100
83.600	38.111	0.100
83.700	47.002	0.100
83.800	29.810	0.100
83.900	39.908	0.100
84.000	28.819	0.100
84.100	36.292	0.100
84.200	46.459	0.100
84.300	47.120	0.100
84.400	52.673	0.100
84.500	31.479	0.100
84.600	47.898	0.100
84.700	45.616	0.100
84.800	35.769	0.100
84.900	36.221	0.100
85.000	45.160	0.100
85.100	39.678	0.100
85.200	36.852	0.100
85.300	38.809	0.100
85.400	36.671	0.100
85.500	31.965	0.100
85.600	37.171	0.100
85.700	39.174	0.100
85.800	35.781	0.100
85.900	28.855	0.100
86.000	41.375	0.100
86.100	30.916	0.100
86.200	36.518	0.100
86.300	43.550	0.100
86.400	36.565	0.100
86.500	34.520	0.100
86.600	42.522	0.100
86.700	37.287	0.100
86.800	35.611	0.100
86.900	34.369	0.100
87.000	28.962	0.100
87.100	32.197	0.100
87.200	24.925	0.100
87.300	41.179	0.100
87.400	43.266	0.100
87.500	37.901	0.100
87.600	21.816	0.100
87.700	51.212	0.100
87.800	44.748	0.100
87.900	33.297	0.100
88.000	40.343	0.100
88.100	45.937	0.100
88.200	41.058	0.100
88.300	33.050	0.100
88.400	31.199	0.100
88.500	38.214	0.100
88.600	42.539	0.100
88.700	44.423	0.100
88.800	39.107	0.100
88.900	27.817	0.100
89.000	23.991	0.100
89.100	51.000	0.100
89.200	50.115	0.100
89.300	49.294	0.100
89.400	60.910	0.100
89.500	39.138	0.100
89.600	34.159	0.100
89.700	40.068	0.100
89.800	36.761	0.100
89.900	40.878	0.100
90.000	45.223	0.100
90.100	30.843	0.100
90.200	36.419	0.100
90.300	35.743	0.100
90.400	29.717	0.100
90.500	47.952	0.100
90.600	42.018	0.100
90.700	46.129	0.100
90.800	36.956	0.100
90.900	37.148	0.100
91.000	27.584	0.100
91.100	31.214	0.100
91.200	37.208	0.100
91.300	32.504	0.100
91.400	36.342	0.100
91.500	37.233	0.100
91.600	33.102	0.100
91.700	30.276	0.100
91.800	32.263	0.100
91.900	34.888	0.100
92.000	24.162	0.100
92.100	17.531	0.100
92.200	15.550	0.100
92.300	21.315	0.100
92.400	33.404	0.100
92.500	28.167	0.100
92.600	24.084	0.100
92.700	30.329	0.100
92.800	41.492	0.100
92.900	26.386	0.100
93.000	33.332	0.100
93.100	33.452	0.100
93.200	31.099	0.100
93.300	24.730	0.100
93.400	29.017	0.100
93.500	20.367	0.100
93.600	12.534	0.100
93.700	29.483	0.100
93.800	29.781	0.100
93.900	35.059	0.100
94.000	17.847	0.100
94.100	25.592	0.100
94.200	18.636	0.100
94.300	21.026	0.100
94.400	23.139	0.100
94.500	21.179	0.100
94.600	21.018	0.100
94.700	4.874	0.100
94.800	18.487	0.100
94.900	19.477	0.100
95.000	24.326	0.100
95.100	13.237	0.100
95.200	21.549	0.100
95.300	26.248	0.100
95.400	9.469	0.100
95.500	11.300	0.100
95.600	32.565	0.100
95.700	25.831	0.100
95.800	24.055	0.100
95.900	22.485	0.100
96.000	14.366	0.100
96.100	26.751	0.100
96.200	17.035	0.100
96.300	17.049	0.100
96.400	12.993	0.100
96.500	26.026	0.100
96.600	13.216	0.100
96.700	19.392	0.100
96.800	8.594	0.100
96.900	27.424	0.100
97.000	8.792	0.100
97.100	21.729	0.100
97.200	20.891	0.100
97.300	19.485	0.100
97.400	6.105	0.100
97.500	20.340	0.100
97.600	9.631	0.100
97.700	14.364	0.100
97.800	23.151	0.100
97.900	31.311	0.100
98.000	5.137	0.100
98.100	14.503	0.100
98.200	15.078	0.100
98.300	20.571	0.100
98.400	21.970	0.100
98.500	5.122	0.100
98.600	23.366	0.100
98.700	11.876	0.100
98.800	6.144	0.100
98.900	11.959	0.100
99.000	9.930	0.100
99.100	15.057	0.100
99.200	28.089	0.100
99.300	8.990	0.100
99.400	15.959	0.100
99.500	13.870	0.100
99.600	7.794	0.100
99.700	11.101	0.100
99.800	9.827	0.100
99.900	4.911	0.100
100.000	25.744	0.100
100.100	32.186	0.100
100.200	24.008	0.100
100.300	-3.073	0.100
100.400	16.060	0.100
100.500	17.245	0.100
100.600	11.232	0.100
100.700	19.815	0.100
100.800	8.685	0.100
100.900	11.196	0.100
101.000	7.961	0.100
101.100	2.117	0.100
101.200	22.298	0.100
101.300	13.484	0.100
101.400	10.021	0.100
101.500	21.854	0.100
101.600	12.998	0.100
101.700	23.864	0.100
101.800	-3.984	0.100
101.900	4.880	0.100
102.000	17.981	0.100
102.100	19.618	0.100
102.200	4.674	0.100
102.300	19.870	0.100
102.400	12.933	0.100
102.500	11.657	0.100
102.600	18.520	0.100
102.700	14.369	0.100
102.800	10.680	0.100
102.900	25.589	0.100
103.000	14.255	0.100
103.100	9.254	0.100
103.200	5.845	0.100
103.300	15.210	0.100
103.400	14.817	0.100
103.500	3.372	0.100
103.600	14.559	0.100
103.700	0.865	0.100
103.800	10.626	0.100
103.900	5.693	0.100
104.000	-0.500	0.100
104.100	5.791	0.100
104.200	17.803	0.100
104.300	21.462	0.100
104.400	8.227	0.100
104.500	19.996	0.100
104.600	7.287	0.100
104.700	4.499	0.100
104.800	12.324	0.100
104.900	13.149	0.100
105.000	12.372	0.100
105.100	2.896	0.100
105.200	2.722	0.100
105.300	-2.785	0.100
105.400	15.459	0.100
105.500	20.493	0.100
105.600	13.528	0.100
105.700	7.181	0.100
105.800	13.503	0.100
105.900	-0.106	0.100
106.000	-2.474	0.100
106.100	5.096	0.100
106.200	19.690	0.100
106.300	9.751	0.100
106.400	1.239	0.100
106.500	8.311	0.100
106.600	6.021	0.100
106.700	-5.054	0.100
106.800	14.028	0.100
106.900	19.471	0.100
107.000	-3.987	0.100
107.100	16.264	0.100
107.200	1.864	0.100
107.300	-0.256	0.100
107.400	-11.039	0.100
107.500	11.475	0.100
107.600	9.889	0.100
107.700	8.802	0.100
107.800	5.542	0.100
107.900	15.985	0.100
108.000	11.449	0.100
108.100	5.785	0.100
108.200	16.969	0.100
108.300	-2.151	0.100
108.400	10.514	0.100
108.500	10.679	0.100
108.600	0.809	0.100
108.700	7.834	0.100
108.800	-1.029	0.100
108.900	0.557	0.100
109.000	1.418	0.100
109.100	-8.594	0.100
109.200	16.537	0.100
109.300	13.498	0.100
109.400	16.943	0.100
109.500	12.532	0.100
109.600	-0.375	0.100
109.700	1.592	0.100
109.800	13.409	0.100
109.900	11.263	0.100
110.000	7.585	0.100
110.100	1.633	0.100
110.200	10.051	0.100
110.300	6.966	0.100
110.400	-4.149	0.100
110.500	-0.068	0.100
110.600	14.513	0.100
110.700	3.257	0.100
110.800	-3.834	0.100
110.900	2.494	0.100
111.000	3.672	0.100
111.100	5.062	0.100
111.200	-0.880	0.100
111.300	-5.553	0.100
111.400	2.989	0.100
111.500	0.232	0.100
111.600	-1.169	0.100
111.700	-2.904	0.100
111.800	-1.647	0.100
111.900	-6.737	0.100
112.000	4.575	0.100
112.100	0.951	0.100
112.200	12.262	0.100
112.300	4.213	0.100
112.400	1.604	0.100
112.500	4.439	0.100
112.600	2.694	0.100
112.700	0.337	0.100
112.800	-6.441	0.100
112.900	-2.436	0.100
113.000	-5.777	0.100
113.100	2.540	0.100
113.200	9.099	0.100
113.300	3.546	0.100
113.400	8.309	0.100
113.500	0.489	0.100
113.600	-5.346	0.100
113.700	-4.910	0.100
113.800	-6.614	0.100
113.900	-4.688	0.100
114.000	0.313	0.100
114.100	4.134	0.100
114.200	-7.793	0.100
114.300	22.504	0.100
114.400	-3.683	0.100
114.500	3.476	0.100
114.600	-7.942	0.100
114.700	5.281	0.100
114.800	4.279	0.100
114.900	1.466	0.100
115.000	-0.028	0.100
115.100	-11.084	0.100
115.200	-9.587	0.100
115.300	6.212	0.100
115.400	11.350	0.100
115.500	0.782	0.100
115.600	1.017	0.100
115.700	-4.484	0.100
115.800	-7.039	0.100
115.900	-6.760	0.100
116.000	-10.071	0.100
116.100	6.333	0.100
116.200	12.714	0.100
116.300	-6.403	0.100
116.400	-6.286	0.100
116.500	-5.127	0.100
116.600	-7.206	0.100
116.700	1.876	0.100
116.800	5.489	0.100
116.900	9.221	0.100
117.000	-6.366	0.100
117.100	-1.701	0.100
117.200	-4.753	0.100
117.300	-0.959	0.100
117.400	-9.483	0.100
117.500	-7.077	0.100
117.600	-2.146	0.100
117.700	-14.012	0.100
117.800	-5.688	0.100
117.900	-3.530	0.100
118.000	-7.756	0.100
118.100	-0.547	0.100
118.200	-8.256	0.100
118.300	-13.026	0.100
118.400	0.755	0.100
118.500	-6.402	0.100
118.600	0.911	0.100
118.700	-7.936	0.100
118.800	-6.347	0.100
118.900	-8.349	0.100
119.000	-17.444	0.100
119.100	0.889	0.100
119.200	-11.536	0.100
119.300	7.721	0.100
119.400	10.102	0.100
119.500	5.927	0.100
119.600	-16.650	0.100
119.700	-10.917	0.100
119.800	1.020	0.100
119.900	1.893	0.100
120.000	5.063	0.100
120.100	3.423	0.100
120.200	-9.125	0.100
120.300	8.569	0.100
120.400	-12.442	0.100
120.500	-8.329	0.100
120.600	-15.549	0.100
120.700	-11.463	0.100
120.800	9.746	0.100
120.900	-2.996	0.100
121.000	-2.510	0.100
121.100	-11.352	0.100
121.200	-8.802	0.100
121.300	-6.093	0.100
121.400	-7.987	0.100
121.500	0.126	0.100
121.600	-3.158	0.100
121.700	3.940	0.100
121.800	2.802	0.100
121.900	-16.027	0.100
122.000	-25.292	0.100
122.100	-6.177	0.100
122.200	-16.065	0.100
122.300	-0.669	0.100
122.400	5.264	0.100
122.500	-9.090	0.100
122.600	-11.968	0.100
122.700	-2.482	0.100
122.800	-14.284	0.100
122.900	12.318	0.100
123.000	8.031	0.100
123.100	-4.070	0.100
123.200	-19.499	0.100
123.300	-9.822	0.100
123.400	-5.922	0.100
123.500	-0.401	0.100
123.600	-6.151	0.100
123.700	-1.744	0.100
123.800	-3.844	0.100
123.900	-12.459	0.100
124.000	-9.389	0.100
124.100	-9.546	0.100
124.200	-4.410	0.100
124.300	-18.236	0.100
124.400	-4.371	0.100
124.500	-7.969	0.100
124.600	2.861	0.100
124.700	-1.196	0.100
124.800	-13.828	0.100
124.900	-17.443	0.100
125.000	-14.576	0.100
125.100	-10.690	0.100
125.200	-13.312	0.100
125.300	-9.099	0.100
125.400	-1.090	0.100
125.500	-4.917	0.100
125.600	-6.162	0.100
125.700	-11.482	0.100
125.800	-2.156	0.100
125.900	-2.849	0.100
126.000	-10.271	0.100
126.100	-20.865	0.100
126.200	-10.060	0.100
126.300	-3.162	0.100
126.400	-5.748	0.100
126.500	-3.722	0.100
126.600	-13.463	0.100
126.700	-10.223	0.100
126.800	-13.409	0.100
126.900	-7.135	0.100
127.000	-24.238	0.100
127.100	-11.366	0.100
127.200	-9.622	0.100
127.300	-0.351	0.100
127.400	-0.524	0.100
127.500	-10.779	0.100
127.600	-13.030	0.100
127.700	-18.320	0.100
127.800	-6.652	0.100
127.900	-7.171	0.100
128.000	-6.465	0.100
128.100	-6.166	0.100
128.200	-2.188	0.100
128.300	-3.296	0.100
128.400	-6.219	0.100
128.500	1.031	0.100
128.600	-11.467	0.100
128.700	-19.970	0.100
128.800	-6.473	0.100
128.900	-0.453	0.100
129.000	-13.814	0.100
129.100	-6.350	0.100
129.200	-12.620	0.100
129.300	-9.121	0.100
129.400	-7.107	0.100
129.500	-6.482	0.100
129.600	-24.940	0.100
129.700	-20.928	0.100
129.800	-6.719	0.100
129.900	-10.221	0.100
130.000	-11.435	0.100
130.100	-7.423	0.100
130.200	-6.469	0.100
130.300	0.342	0.100
130.400	-37.289	0.100
130.500	-18.907	0.100
130.600	-16.544	0.100
130.700	-14.855	0.100
130.800	-18.619	0.100
130.900	-1.856	0.100
131.000	-26.790	0.100
131.100	-19.204	0.100
131.200	-16.490	0.100
131.300	-12.107	0.100
131.400	-10.745	0.100
131.500	-12.215	0.100
131.600	-14.717	0.100
131.700	-10.523	0.100
131.800	-11.651	0.100
131.900	-10.848	0.100
132.000	-8.999	0.100
132.100	-16.604	0.100
132.200	-11.322	0.100
132.300	-11.401	0.100
132.400	-29.759	0.100
132.500	-11.710	0.100
132.600	-12.178	0.100
132.700	-15.676	0.100
132.800	-10.945	0.100
132.900	-20.226	0.100
133.000	-31.746	0.100
133.100	-15.410	0.100
133.200	-2.881	0.100
133.300	-14.376	0.100
133.400	-6.019	0.100
133.500	-21.705	0.100
133.600	-9.636	0.100
133.700	-6.926	0.100
133.800	-11.240	0.100
133.900	-8.013	0.100
134.000	-4.893	0.100
134.100	-10.296	0.100
134.200	-6.756	0.100
134.300	-11.751	0.100
134.400	-20.245	0.100
134.500	-15.847	0.100
134.600	-10.481	0.100
134.700	0.407	0.100
134.800	-17.623	0.100
134.900	-15.943	0.100
135.000	-15.314	0.100
135.100	-14.620	0.100
135.200	-9.330	0.100
135.300	-16.693	0.100
135.400	-17.623	0.100
135.500	-18.025	0.100
135.600	-14.320	0.100
135.700	-11.319	0.100
135.800	-24.639	0.100
135.900	-15.390	0.100
136.000	-0.878	0.100
136.100	-14.958	0.100
136.200	-22.308	0.100
136.300	-30.572	0.100
136.400	-20.942	0.100
136.500	-4.058	0.100
136.600	-2.527	0.100
136.700	-17.935	0.100
136.800	-19.038	0.100
136.900	-13.871	0.100
137.000	-16.784	0.100
137.100	-25.919	0.100
137.200	-24.739	0.100
137.300	-11.646	0.100
137.400	1.119	0.100
137.500	-14.159	0.100
137.600	-20.477	0.100
137.700	-16.411	0.100
137.800	-26.017	0.100
137.900	-5.382	0.100
138.000	-13.982	0.100
138.100	-10.189	0.100
138.200	-10.750	0.100
138.300	-21.945	0.100
138.400	-19.962	0.100
138.500	-8.621	0.100
138.600	-9.431	0.100
138.700	-12.918	0.100
138.800	-14.390	0.100
138.900	-25.563	0.100
139.000	-28.292	0.100
139.100	-20.810	0.100
139.200	-11.642	0.100
139.300	-10.888	0.100
139.400	-23.050	0.100
139.500	-10.537	0.100
139.600	-10.327	0.100
139.700	-7.092	0.100
139.800	-18.007	0.100
139.900	-16.947	0.100
140.000	-21.938	0.100
140.100	-14.995	0.100
140.200	-16.121	0.100
140.300	-20.886	0.100
140.400	-11.940	0.100
140.500	-12.952	0.100
140.600	-30.915	0.100
140.700	-10.181	0.100
140.800	-0.516	0.100
140.900	-17.214	0.100
141.000	-20.997	0.100
141.100	-15.981	0.100
141.200	-4.497	0.100
141.300	-20.630	0.100
141.400	-24.468	0.100
141.500	-12.625	0.100
141.600	-22.761	0.100
141.700	-23.018	0.100
141.800	-22.821	0.100
141.900	-21.934	0.100
142.000	-14.644	0.100
142.100	-10.965	0.100
142.200	-19.318	0.100
142.300	-14.854	0.100
142.400	-21.428	0.100
142.500	-26.992	0.100
142.600	-25.643	0.100
142.700	-26.209	0.100
142.800	-9.583	0.100
142.900	-15.062	0.100
143.000	-30.045	0.100
143.100	-15.396	0.100
143.200	-26.579	0.100
143.300	-11.046	0.100
143.400	-8.801	0.100
143.500	-14.938	0.100
143.600	-10.246	0.100
143.700	-12.184	0.100
143.800	-20.641	0.100
143.900	-23.769	0.100
144.000	-17.458	0.100
144.100	-29.264	0.100
144.200	-13.202	0.100
144.300	-14.696	0.100
144.400	-19.466	0.100
144.500	-15.132	0.100
144.600	-9.623	0.100
144.700	-13.574	0.100
144.800	-4.780	0.100
144.900	-28.287	0.100
145.000	-19.049	0.100
145.100	-13.576	0.100
145.200	-23.567	0.100
145.300	-17.326	0.100
145.400	-17.655	0.100
145.500	-18.753	0.100
145.600	-19.838	0.100
145.700	-14.053	0.100
145.800	-22.677	0.100
145.900	-21.107	0.100
146.000	-25.996	0.100
146.100	-27.484	0.100
146.200	-18.672	0.100
146.300	-14.338	0.100
146.400	-15.893	0.100
146.500	-11.830	0.100
146.600	-17.244	0.100
146.700	-21.969	0.100
146.800	-21.631	0.100
146.900	-25.751	0.100
147.000	-23.169	0.100
147.100	-11.105	0.100
147.200	-7.472	0.100
147.300	-19.609	0.100
147.400	-26.687	0.100
147.500	-13.783	0.100
147.600	-19.040	0.100
147.700	-37.384	0.100
147.800	-16.624	0.100
147.900	-10.085	0.100
148.000	-18.144	0.100
148.100	-14.195	0.100
148.200	-11.524	0.100
148.300	-17.363	0.100
148.400	-21.885	0.100
148.500	-7.568	0.100
148.600	-23.467	0.100
148.700	-18.852	0.100
148.800	-22.376	0.100
148.900	-20.745	0.100
149.000	-11.893	0.100
149.100	-7.962	0.100
149.200	-18.130	0.100
149.300	-16.066	0.100
149.400	-14.956	0.100
149.500	-19.462	0.100
149.600	-36.502	0.100
149.700	-27.365	0.100
149.800	-15.465	0.100
149.900	-28.724	0.100
150.000	-24.966	0.100
150.100	-16.445	0.100
150.200	-17.537	0.100
150.300	-12.736	0.100
150.400	-7.829	0.100
150.500	-19.120	0.100
150.600	-20.383	0.100
150.700	-8.504	0.100
150.800	-13.018	0.100
150.900	-1.384	0.100
151.000	-20.112	0.100
151.100	-33.733	0.100
151.200	-17.373	0.100
151.300	-12.178	0.100
151.400	-10.896	0.100
151.500	-26.986	0.100
151.600	-30.031	0.100
151.700	-19.508	0.100
151.800	-19.350	0.100
151.900	-12.528	0.100
152.000	-16.095	0.100
152.100	-13.174	0.100
152.200	-23.829	0.100
152.300	-31.379	0.100
152.400	-27.909	0.100
152.500	-7.738	0.100
152.600	-9.182	0.100
152.700	-21.590	0.100
152.800	-22.217	0.100
152.900	-12.470	0.100
153.000	-23.240	0.100
153.100	-28.342	0.100
153.200	-21.375	0.100
153.300	-35.407	0.100
153.400	-16.531	0.100
153.500	-16.746	0.100
153.600	-26.715	0.100
153.700	-10.024	0.100
153.800	-18.643	0.100
153.900	-16.800	0.100
154.000	-23.789	0.100
154.100	-16.743	0.100
154.200	-31.734	0.100
154.300	-25.088	0.100
154.400	-17.530	0.100
154.500	-14.053	0.100
154.600	-11.454	0.100
154.700	-22.463	0.100
154.800	-21.657	0.100
154.900	-36.253	0.100
155.000	-22.478	0.100
155.100	-29.358	0.100
155.200	-28.493	0.100
155.300	-30.109	0.100
155.400	-9.443	0.100
155.500	-24.151	0.100
155.600	-25.123	0.100
155.700	-19.220	0.100
155.800	-2.802	0.100
155.900	-29.432	0.100
156.000	-31.671	0.100
156.100	-1.202	0.100
156.200	-10.515	0.100
156.300	-36.864	0.100
156.400	-27.387	0.100
156.500	-15.471	0.100
156.600	-14.719	0.100
156.700	-17.127	0.100
156.800	-16.700	0.100
156.900	-11.959	0.100
157.000	-17.220	0.100
157.100	-22.384	0.100
157.200	-24.607	0.100
157.300	-19.470	0.100
157.400	-18.567	0.100
157.500	-28.499	0.100
157.600	-32.310	0.100
157.700	-10.927	0.100
157.800	-15.292	0.100
157.900	-22.103	0.100
158.000	-20.356	0.100
158.100	-17.179	0.100
158.200	-30.872	0.100
158.300	-2.670	0.100
158.400	-24.318	0.100
158.500	-22.494	0.100
158.600	-9.957	0.100
158.700	-30.803	0.100
158.800	-22.605	0.100
158.900	-13.045	0.100
159.000	-20.263	0.100
159.100	-13.988	0.100
159.200	-23.682	0.100
159.300	-19.295	0.100
159.400	-16.332	0.100
159.500	-24.941	0.100
159.600	-29.260	0.100
159.700	-30.741	0.100
159.800	-18.824	0.100
159.900	-20.847	0.100
160.000	-27.824	0.100
160.100	-22.939	0.100
160.200	-15.735	0.100
160.300	-20.799	0.100
160.400	-21.901	0.100
160.500	-18.585	0.100
160.600	-15.984	0.100
160.700	-23.265	0.100
160.800	-16.250	0.100
160.900	-27.671	0.100
161.000	-26.465	0.100
161.100	-22.482	0.100
161.200	-18.783	0.100
161.300	-19.717	0.100
161.400	-14.059	0.100
161.500	-25.376	0.100
161.600	-27.749	0.100
161.700	-21.250	0.100
161.800	-16.614	0.100
161.900	-27.786	0.100
162.000	-11.696	0.100
162.100	-16.101	0.100
162.200	-27.405	0.100
162.300	-20.724	0.100
162.400	-18.079	0.100
162.500	-31.936	0.100
162.600	-24.717	0.100
162.700	-15.898	0.100
162.800	-16.961	0.100
162.900	-24.752	0.100
163.000	-20.703	0.100
163.100	-17.125	0.100
163.200	-30.485	0.100
163.300	-30.842	0.100
163.400	-30.282	0.100
163.500	-19.696	0.100
163.600	-17.049	0.100
163.700	-27.025	0.100
163.800	-19.779	0.100
163.900	-9.331	0.100
164.000	-16.190	0.100
164.100	-17.733	0.100
164.200	-13.735	0.100
164.300	-20.395	0.100
164.400	-21.388	0.100
164.500	-18.957	0.100
164.600	-14.134	0.100
164.700	-25.431	0.100
164.800	-19.435	0.100
164.900	-17.812	0.100
165.000	-10.566	0.100
165.100	-19.808	0.100
165.200	-21.753	0.100
165.300	-25.685	0.100
165.400	-30.446	0.100
165.500	-18.775	0.100
165.600	-21.389	0.100
165.700	-32.040	0.100
165.800	-22.929	0.100
165.900	-8.403	0.100
166.000	-22.949	0.100
166.100	-25.395	0.100
166.200	-15.701	0.100
166.300	-30.375	0.100
166.400	-31.246	0.100
166.500	-25.031	0.100
166.600	-17.125	0.100
166.700	-22.485	0.100
166.800	-23.905	0.100
166.900	-17.095	0.100
167.000	-23.817	0.100
167.100	-29.538	0.100
167.200	-14.927	0.100
167.300	-21.681	0.100
167.400	-25.752	0.100
167.500	-26.642	0.100
167.600	-22.214	0.100
167.700	-35.570	0.100
167.800	-21.359	0.100
167.900	-17.173	0.100
168.000	-17.613	0.100
168.100	-22.385	0.100
168.200	-15.289	0.100
168.300	-15.762	0.100
168.400	-24.222	0.100
168.500	-22.599	0.100
168.600	-20.842	0.100
168.700	-17.680	0.100
168.800	-30.652	0.100
168.900	-13.459	0.100
169.000	-16.588	0.100
169.100	-14.155	0.100
169.200	-16.251	0.100
169.300	-15.503	0.100
169.400	-22.857	0.100
169.500	-16.463	0.100
169.600	-20.442	0.100
169.700	-19.503	0.100
169.800	-21.295	0.100
169.900	-14.120	0.100
170.000	-19.945	0.100
170.100	-15.994	0.100
170.200	-30.726	0.100
170.300	-25.977	0.100
170.400	-25.130	0.100
170.500	-27.167	0.100
170.600	-21.946	0.100
170.700	-18.921	0.100
170.800	-24.830	0.100
170.900	-27.812	0.100
171.000	-28.191	0.100
171.100	-28.337	0.100
171.200	-20.523	0.100
171.300	-18.053	0.100
171.400	-30.589	0.100
171.500	-15.341	0.100
171.600	-21.188	0.100
171.700	-18.048	0.100
171.800	-25.259	0.100
171.900	-28.051	0.100
172.000	-31.863	0.100
172.100	-26.861	0.100
172.200	-14.768	0.100
172.300	-10.671	0.100
172.400	-31.941	0.100
172.500	-30.439	0.100
172.600	-21.498	0.100
172.700	-28.842	0.100
172.800	-25.338	0.100
172.900	-27.450	0.100
173.000	-35.462	0.100
173.100	-18.393	0.100
173.200	-14.070	0.100
173.300	-17.285	0.100
173.400	-19.684	0.100
173.500	-37.026	0.100
173.600	-10.065	0.100
173.700	-18.809	0.100
173.800	-16.754	0.100
173.900	-18.246	0.100
174.000	-21.028	0.100
174.100	-20.088	0.100
174.200	-24.468	0.100
174.300	-32.365	0.100
174.400	-26.564	0.100
174.500	-12.693	0.100
174.600	-16.052	0.100
174.700	-15.608	0.100
174.800	-18.671	0.100
174.900	-15.215	0.100
175.000	-20.550	0.100
175.100	-26.349	0.100
175.200	-4.263	0.100
175.300	-24.338	0.100
175.400	-19.832	0.100
175.500	-41.923	0.100
175.600	-26.194	0.100
175.700	-22.272	0.100
175.800	-25.411	0.100
175.900	-14.946	0.100
176.000	-9.994	0.100
176.100	-24.676	0.100
176.200	-27.712	0.100
176.300	-31.302	0.100
176.400	-20.864	0.100
176.500	-30.642	0.100
176.600	-25.832	0.100
176.700	-31.799	0.100
176.800	-23.389	0.100
176.900	-14.662	0.100
177.000	-8.657	0.100
177.100	-10.252	0.100
177.200	-14.142	0.100
177.300	-29.382	0.100
177.400	-33.163	0.100
177.500	-28.956	0.100
177.600	-22.017	0.100
177.700	-16.233	0.100
177.800	-20.173	0.100
177.900	-35.707	0.100
178.000	-21.744	0.100
178.100	-17.694	0.100
178.200	-23.206	0.100
178.300	-25.687	0.100
178.400	-7.233	0.100
178.500	-29.489	0.100
178.600	-38.905	0.100
178.700	-22.909	0.100
178.800	-16.470	0.100
178.900	-21.143	0.100
179.000	-20.684	0.100
179.100	-20.173	0.100
179.200	-36.460	0.100
179.300	-25.575	0.100
179.400	-24.318	0.100
179.500	-17.142	0.100
179.600	-16.625	0.100
179.700	-31.018	0.100
179.800	-38.102	0.100
179.900	-20.689	0.100
180.000	-14.531	0.100
180.100	-23.281	0.100
180.200	-22.573	0.100
180.300	-31.617	0.100
180.400	-11.622	0.100
180.500	-13.114	0.100
180.600	-6.847	0.100
180.700	-10.776	0.100
180.800	-11.976	0.100
180.900	-25.651	0.100
181.000	-15.347	0.100
181.100	-9.882	0.100
181.200	-11.030	0.100
181.300	-11.146	0.100
181.400	-11.690	0.100
181.500	-15.829	0.100
181.600	-11.040	0.100
181.700	-13.314	0.100
181.800	-3.516	0.100
181.900	-7.356	0.100
182.000	-2.844	0.100
182.100	-8.208	0.100
182.200	-7.841	0.100
182.300	-7.384	0.100
182.400	-2.541	0.100
182.500	-8.735	0.100
182.600	-1.624	0.100
182.700	5.594	0.100
182.800	2.317	0.100
182.900	8.500	0.100
183.000	9.792	0.100
183.100	-1.842	0.100
183.200	5.896	0.100
183.300	5.911	0.100
183.400	-14.202	0.100
183.500	-0.424	0.100
183.600	-17.209	0.100
183.700	-5.219	0.100
183.800	5.833	0.100
183.900	17.585	0.100
184.000	7.500	0.100
184.100	7.585	0.100
184.200	11.605	0.100
184.300	-3.421	0.100
184.400	1.065	0.100
184.500	-2.397	0.100
184.600	10.380	0.100
184.700	-1.462	0.100
184.800	11.718	0.100
184.900	7.547	0.100
185.000	7.360	0.100
185.100	-5.146	0.100
185.200	3.207	0.100
185.300	15.837	0.100
185.400	3.977	0.100
185.500	-8.063	0.100
185.600	6.759	0.100
185.700	9.589	0.100
185.800	20.559	0.100
185.900	9.093	0.100
186.000	-13.227	0.100
186.100	0.591	0.100
186.200	-0.216	0.100
186.300	-2.363	0.100
186.400	3.662	0.100
186.500	7.505	0.100
186.600	3.956	0.100
186.700	-1.014	0.100
186.800	-1.273	0.100
186.900	14.290	0.100
187.000	1.083	0.100
187.100	-5.878	0.100
187.200	7.142	0.100
187.300	4.406	0.100
187.400	12.536	0.100
187.500	8.968	0.100
187.600	2.778	0.100
187.700	10.941	0.100
187.800	11.490	0.100
187.900	-3.280	0.100
188.000	6.816	0.100
188.100	12.903	0.100
188.200	-1.981	0.100
188.300	5.465	0.100
188.400	6.930	0.100
188.500	11.704	0.100
188.600	7.482	0.100
188.700	4.812	0.100
188.800	2.786	0.100
188.900	5.367	0.100
189.000	5.825	0.100
189.100	1.492	0.100
189.200	3.589	0.100
189.300	-5.961	0.100
189.400	22.203	0.100
189.500	5.635	0.100
189.600	0.176	0.100
189.700	0.517	0.100
189.800	-6.309	0.100
189.900	20.849	0.100
190.000	19.035	0.100
190.100	12.542	0.100
190.200	5.218	0.100
190.300	6.072	0.100
190.400	1.567	0.100
190.500	6.066	0.100
190.600	7.070	0.100
190.700	15.067	0.100
190.800	14.881	0.100
190.900	16.818	0.100
191.000	-4.275	0.100
191.100	-3.317	0.100
191.200	7.411	0.100
191.300	17.618	0.100
191.400	7.646	0.100
191.500	20.439	0.100
191.600	-4.001	0.100
191.700	18.871	0.100
191.800	22.174	0.100
191.900	12.928	0.100
192.000	6.577	0.100
192.100	8.320	0.100
192.200	13.063	0.100
192.300	2.336	0.100
192.400	16.027	0.100
192.500	12.452	0.100
192.600	11.467	0.100
192.700	2.386	0.100
192.800	8.468	0.100
192.900	8.016	0.100
193.000	6.378	0.100
193.100	16.947	0.100
193.200	19.960	0.100
193.300	8.132	0.100
193.400	10.893	0.100
193.500	18.318	0.100
193.600	3.090	0.100
193.700	17.114	0.100
193.800	28.355	0.100
193.900	13.077	0.100
194.000	15.765	0.100
194.100	20.503	0.100
194.200	18.650	0.100
194.300	16.330	0.100
194.400	6.271	0.100
194.500	13.124	0.100
194.600	9.921	0.100
194.700	-11.998	0.100
194.800	11.378	0.100
194.900	8.811	0.100
195.000	13.751	0.100
195.100	4.065	0.100
195.200	24.668	0.100
195.300	18.637	0.100
195.400	15.749	0.100
195.500	7.965	0.100
195.600	4.189	0.100
195.700	10.991	0.100
195.800	8.271	0.100
195.900	10.712	0.100
196.000	20.329	0.100
196.100	15.351	0.100
196.200	9.940	0.100
196.300	15.968	0.100
196.400	10.109	0.100
196.500	3.184	0.100
196.600	27.630	0.100
196.700	26.220	0.100
196.800	19.567	0.100
196.900	4.261	0.100
197.000	15.660	0.100
197.100	20.662	0.100
197.200	20.573	0.100
197.300	15.510	0.100
197.400	10.251	0.100
197.500	24.671	0.100
197.600	12.254	0.100
197.700	13.850	0.100
197.800	2.756	0.100
197.900	14.258	0.100
198.000	12.476	0.100
198.100	29.507	0.100
198.200	16.166	0.100
198.300	25.288	0.100
198.400	22.069	0.100
198.500	13.209	0.100
198.600	23.854	0.100
198.700	22.348	0.100
198.800	12.958	0.100
198.900	21.021	0.100
199.000	11.708	0.100
199.100	23.652	0.100
199.200	15.576	0.100
199.300	14.243	0.100
199.400	18.476	0.100
199.500	18.940	0.100
199.600	14.894	0.100
199.700	13.143	0.100
199.800	10.963	0.100
199.900	25.324	0.100
200.000	19.137	0.100
200.100	24.610	0.100
200.200	14.420	0.100
200.300	19.546	0.100
200.400	20.635	0.100
200.500	21.686	0.100
200.600	30.604	0.100
200.700	29.595	0.100
200.800	13.246	0.100
200.900	24.541	0.100
201.000	14.971	0.100
201.100	14.531	0.100
201.200	21.534	0.100
201.300	19.212	0.100
201.400	24.956	0.100
201.500	15.680	0.100
201.600	29.933	0.100
201.700	21.360	0.100
201.800	25.181	0.100
201.900	9.132	0.100
202.000	16.046	0.100
202.100	23.777	0.100
202.200	33.464	0.100
202.300	24.553	0.100
202.400	16.885	0.100
202.500	23.683	0.100
202.600	35.356	0.100
202.700	13.000	0.100
202.800	13.603	0.100
202.900	30.012	0.100
203.000	30.233	0.100
203.100	19.048	0.100
203.200	14.694	0.100
203.300	16.740	0.100
203.400	23.812	0.100
203.500	7.909	0.100
203.600	21.164	0.100
203.700	23.970	0.100
203.800	12.339	0.100
203.900	28.938	0.100
204.000	25.799	0.100
204.100	34.971	0.100
204.200	10.736	0.100
204.300	26.498	0.100
204.400	23.410	0.100
204.500	22.125	0.100
204.600	19.633	0.100
204.700	20.299	0.100
204.800	30.194	0.100
204.900	21.897	0.100
205.000	17.203	0.100
205.100	17.079	0.100
205.200	24.215	0.100
205.300	30.259	0.100
205.400	31.479	0.100
205.500	24.430	0.100
205.600	34.353	0.100
205.700	35.520	0.100
205.800	23.485	0.100
205.900	11.734	0.100
206.000	18.719	0.100
206.100	26.825	0.100
206.200	27.685	0.100
206.300	41.371	0.100
206.400	27.006	0.100
206.500	20.243	0.100
206.600	23.685	0.100
206.700	29.884	0.100
206.800	18.966	0.100
206.900	21.138	0.100
207.000	28.368	0.100
207.100	27.968	0.100
207.200	29.905	0.100
207.300	22.648	0.100
207.400	28.810	0.100
207.500	27.626	0.100
207.600	20.417	0.100
207.700	23.466	0.100
207.800	33.692	0.100
207.900	25.983	0.100
208.000	29.692	0.100
208.100	28.219	0.100
208.200	29.505	0.100
208.300	39.418	0.100
208.400	24.053	0.100
208.500	31.897	0.100
208.600	27.738	0.100
208.700	28.269	0.100
208.800	37.070	0.100
208.900	20.886	0.100
209.000	28.870	0.100
209.100	31.131	0.100
209.200	17.720	0.100
209.300	32.727	0.100
209.400	23.646	0.100
209.500	21.183	0.100
209.600	18.287	0.100
209.700	24.262	0.100
209.800	23.569	0.100
209.900	21.589	0.100
210.000	30.889	0.100
210.100	25.413	0.100
210.200	25.810	0.100
210.300	21.564	0.100
210.400	23.554	0.100
210.500	22.737	0.100
210.600	18.074	0.100
210.700	24.545	0.100
210.800	35.493	0.100
210.900	36.380	0.100
211.000	22.835	0.100
211.100	25.103	0.100
211.200	38.250	0.100
211.300	34.823	0.100
211.400	38.804	0.100
211.500	31.442	0.100
211.600	33.627	0.100
211.700	34.039	0.100
211.800	16.001	0.100
211.900	30.364	0.100
212.000	29.861	0.100
212.100	22.892	0.100
212.200	25.092	0.100
212.300	38.915	0.100
212.400	40.682	0.100
212.500	36.058	0.100
212.600	29.729	0.100
212.700	26.419	0.100
212.800	31.069	0.100
212.900	26.651	0.100
213.000	25.506	0.100
213.100	33.366	0.100
213.200	38.720	0.100
213.300	37.558	0.100
213.400	22.632	0.100
213.500	38.097	0.100
213.600	38.675	0.100
213.700	22.387	0.100
213.800	41.738	0.100
213.900	40.951	0.100
214.000	19.407	0.100
214.100	25.930	0.100
214.200	36.232	0.100
214.300	33.751	0.100
214.400	35.774	0.100
214.500	33.615	0.100
214.600	34.757	0.100
214.700	25.182	0.100
214.800	35.963	0.100
214.900	35.953	0.100
215.000	42.192	0.100
215.100	26.115	0.100
215.200	34.447	0.100
215.300	40.552	0.100
215.400	32.509	0.100
215.500	32.199	0.100
215.600	30.713	0.100
215.700	28.232	0.100
215.800	28.152	0.100
215.900	40.298	0.100
216.000	37.975	0.100
216.100	28.770	0.100
216.200	28.537	0.100
216.300	40.234	0.100
216.400	38.883	0.100
216.500	27.684	0.100
216.600	36.963	0.100
216.700	39.961	0.100
216.800	19.711	0.100
216.900	39.518	0.100
217.000	28.422	0.100
217.100	33.675	0.100
217.200	31.114	0.100
217.300	27.410	0.100
217.400	31.553	0.100
217.500	37.556	0.100
217.600	39.036	0.100
217.700	41.101	0.100
217.800	31.711	0.100
217.900	17.276	0.100
218.000	37.759	0.100
218.100	46.887	0.100
218.200	38.468	0.100
218.300	47.414	0.100
218.400	25.445	0.100
218.500	33.419	0.100
218.600	34.398	0.100
218.700	34.158	0.100
218.800	42.971	0.100
218.900	32.974	0.100
219.000	27.459	0.100
219.100	24.684	0.100
219.200	37.318	0.100
219.300	47.065	0.100
219.400	46.613	0.100
219.500	41.761	0.100
219.600	43.238	0.100
219.700	36.214	0.100
219.800	40.994	0.100
219.900	38.551	0.100
220.000	42.876	0.100
220.100	35.187	0.100
220.200	49.046	0.100
220.300	35.953	0.100
220.400	44.548	0.100
220.500	44.903	0.100
220.600	36.930	0.100
220.700	27.146	0.100
220.800	46.404	0.100
220.900	53.479	0.100
221.000	37.258	0.100
221.100	43.185	0.100
221.200	32.909	0.100
221.300	31.709	0.100
221.400	22.410	0.100
221.500	25.009	0.100
221.600	58.903	0.100
221.700	45.029	0.100
221.800	35.407	0.100
221.900	42.252	0.100
222.000	30.482	0.100
222.100	54.701	0.100
222.200	47.374	0.100
222.300	34.117	0.100
222.400	43.590	0.100
222.500	37.245	0.100
222.600	35.256	0.100
222.700	41.433	0.100
222.800	24.467	0.100
222.900	46.938	0.100
223.000	40.685	0.100
223.100	49.725	0.100
223.200	45.888	0.100
223.300	38.955	0.100
223.400	29.808	0.100
223.500	38.902	0.100
223.600	41.602	0.100
223.700	42.609	0.100
223.800	42.127	0.100
223.900	58.437	0.100
224.000	48.767	0.100
224.100	44.215	0.100
224.200	40.025	0.100
224.300	50.442	0.100
224.400	46.661	0.100
224.500	33.414	0.100
224.600	43.125	0.100
224.700	31.905	0.100
224.800	37.217	0.100
224.900	32.266	0.100
225.000	50.176	0.100
225.100	63.353	0.100
225.200	43.618	0.100
225.300	39.641	0.100
225.400	47.936	0.100
225.500	42.595	0.100
225.600	31.705	0.100
225.700	33.660	0.100
225.800	41.706	0.100
225.900	40.095	0.100
226.000	39.808	0.100
226.100	51.181	0.100
226.200	41.472	0.100
226.300	41.155	0.100
226.400	37.830	0.100
226.500	45.578	0.100
226.600	37.409	0.100
226.700	32.577	0.100
226.800	40.012	0.100
226.900	48.636	0.100
227.000	42.587	0.100
227.100	27.872	0.100
227.200	34.247	0.100
227.300	53.612	0.100
227.400	61.753	0.100
227.500	46.975	0.100
227.600	42.858	0.100
227.700	42.057	0.100
227.800	38.308	0.100
227.900	48.599	0.100
228.000	43.878	0.100
228.100	58.228	0.100
228.200	34.292	0.100
228.300	31.301	0.100
228.400	49.046	0.100
228.500	45.282	0.100
228.600	39.122	0.100
228.700	54.277	0.100
228.800	47.627	0.100
228.900	45.450	0.100
229.000	34.072	0.100
229.100	46.960	0.100
229.200	53.800	0.100
229.300	51.301	0.100
229.400	48.735	0.100
229.500	43.578	0.100
229.600	45.845	0.099
229.700	47.907	0.099
229.800	42.736	0.100
229.900	30.205	0.099
230.000	44.345	0.099
230.100	46.820	0.099
230.200	40.446	0.099
230.300	43.377	0.099
230.400	43.622	0.099
230.500	39.183	0.099
230.600	41.424	0.099
230.700	47.097	0.099
230.800	46.674	0.099
230.900	45.089	0.099
231.000	55.114	0.099
231.100	48.704	0.099
231.200	51.984	0.099
231.300	49.160	0.099
231.400	45.963	0.099
231.500	48.931	0.099
231.600	45.352	0.099
231.700	50.030	0.099
231.800	43.173	0.099
231.900	40.561	0.099
232.000	34.981	0.099
232.100	45.501	0.099
232.200	39.771	0.099
232.300	49.922	0.099
232.400	49.443	0.099
232.500	48.207	0.099
232.600	44.341	0.099
232.700	44.891	0.099
232.800	54.308	0.099
232.900	41.033	0.099
233.000	39.216	0.099
233.100	60.474	0.099
233.200	56.229	0.099
233.300	42.587	0.099
233.400	43.816	0.099
233.500	44.851	0.099
233.600	56.400	0.099
233.700	55.064	0.099
233.800	42.708	0.099
233.900	40.762	0.099
234.000	50.003	0.099
234.100	48.633	0.099
234.200	45.522	0.099
234.300	48.088	0.099
234.400	47.439	0.099
234.500	48.346	0.099
234.600	53.421	0.099
234.700	46.055	0.099
234.800	47.381	0.099
234.900	42.223	0.099
235.000	43.953	0.099
235.100	50.880	0.099
235.200	51.096	0.099
235.300	45.221	0.099
235.400	54.802	0.099
235.500	56.723	0.099
235.600	54.734	0.099
235.700	33.487	0.099
235.800	41.280	0.099
235.900	46.086	0.099
236.000	50.711	0.099
236.100	47.840	0.099
236.200	52.557	0.099
236.300	50.102	0.099
236.400	43.492	0.099
236.500	50.863	0.099
236.600	38.024	0.099
236.700	42.305	0.099
236.800	44.657	0.099
236.900	32.385	0.099
237.000	62.676	0.099
237.100	45.189	0.099
237.200	50.005	0.099
237.300	47.186	0.099
237.400	42.028	0.099
237.500	49.995	0.099
237.600	45.963	0.099
237.700	44.351	0.099
237.800	35.531	0.099
237.900	57.920	0.099
238.000	48.191	0.099
238.100	39.613	0.099
238.200	51.243	0.099
238.300	48.920	0.099
238.400	35.116	0.099
238.500	53.777	0.099
238.600	60.656	0.099
238.700	51.802	0.099
238.800	41.793	0.099
238.900	40.770	0.099
239.000	51.321	0.099
239.100	51.868	0.099
239.200	60.391	0.099
239.300	59.439	0.099
239.400	58.787	0.099
239.500	38.791	0.099
239.600	48.415	0.099
239.700	41.135	0.099
239.800	47.085	0.099
239.900	44.599	0.099
240.000	34.846	0.099
240.100	50.347	0.099
240.200	45.604	0.099
240.300	41.769	0.099
240.400	48.900	0.099
240.500	40.592	0.099
240.600	60.940	0.099
240.700	52.961	0.099
240.800	34.800	0.099
240.900	46.892	0.099
241.000	48.045	0.099
241.100	43.112	0.099
241.200	41.599	0.099
241.300	50.825	0.099
241.400	37.225	0.099
241.500	36.064	0.099
241.600	28.443	0.099
241.700	39.011	0.099
241.800	46.705	0.099
241.900	34.403	0.099
242.000	26.192	0.099
242.100	29.688	0.099
242.200	38.245	0.099
242.300	37.193	0.099
242.400	38.371	0.099
242.500	18.557	0.099
242.600	36.814	0.099
242.700	24.181	0.099
242.800	36.793	0.099
242.900	33.242	0.099
243.000	34.978	0.099
243.100	31.251	0.099
243.200	27.400	0.099
243.300	29.639	0.099
243.400	32.553	0.099
243.500	26.328	0.099
243.600	20.912	0.099
243.700	26.241	0.099
243.800	25.652	0.099
243.900	29.436	0.099
244.000	20.317	0.099
244.100	32.361	0.099
244.200	32.395	0.099
244.300	20.814	0.099
244.400	20.411	0.099
244.500	27.772	0.099
244.600	33.566	0.099
244.700	39.693	0.099
244.800	26.782	0.099
244.900	20.118	0.099
245.000	30.010	0.099
245.100	16.361	0.099
245.200	29.708	0.099
245.300	30.920	0.099
245.400	35.049	0.099
245.500	23.510	0.099
245.600	17.887	0.099
245.700	25.804	0.099
245.800	25.605	0.099
245.900	18.345	0.099
246.000	24.244	0.099
246.100	15.826	0.099
246.200	32.254	0.099
246.300	27.347	0.099
246.400	21.459	0.100
246.500	26.653	0.099
246.600	21.231	0.100
246.700	36.642	0.100
246.800	27.918	0.100
246.900	29.610	0.100
247.000	19.620	0.100
247.100	15.247	0.100
247.200	27.264	0.100
247.300	24.584	0.100
247.400	32.354	0.100
247.500	33.415	0.100
247.600	24.094	0.100
247.700	8.564	0.100
247.800	24.704	0.100
247.900	23.966	0.100
248.000	28.170	0.100
248.100	27.798	0.100
248.200	24.342	0.100
248.300	20.535	0.100
248.400	33.988	0.100
248.500	17.074	0.100
248.600	30.858	0.100
248.700	24.368	0.100
248.800	18.086	0.100
248.900	13.472	0.100
249.000	22.082	0.100
249.100	16.276	0.100
249.200	29.360	0.100
249.300	14.803	0.100
249.400	18.633	0.100
249.500	8.762	0.100
249.600	35.036	0.100
249.700	10.507	0.100
249.800	38.166	0.100
249.900	16.834	0.100
250.000	7.787	0.100
250.100	2.158	0.100
250.200	6.972	0.100
250.300	13.230	0.100
250.400	17.259	0.100
250.500	18.209	0.100
250.600	15.366	0.100
250.700	26.583	0.100
250.800	26.787	0.100
250.900	25.731	0.100
251.000	29.354	0.100
251.100	18.757	0.100
251.200	20.750	0.100
251.300	10.505	0.100
251.400	20.360	0.100
251.500	18.241	0.100
251.600	21.996	0.100
251.700	30.151	0.100
251.800	26.570	0.100
251.900	8.069	0.100
252.000	9.385	0.100
252.100	13.497	0.100
252.200	25.299	0.100
252.300	22.047	0.100
252.400	23.563	0.100
252.500	20.986	0.100
252.600	14.993	0.100
252.700	15.841	0.100
252.800	9.628	0.100
252.900	16.196	0.100
253.000	16.051	0.100
253.100	17.806	0.100
253.200	21.523	0.100
253.300	27.190	0.100
253.400	12.222	0.100
253.500	7.534	0.100
253.600	21.144	0.100
253.700	15.760	0.100
253.800	10.819	0.100
253.900	12.151	0.100
254.000	19.341	0.100
254.100	14.010	0.100
254.200	11.299	0.100
254.300	10.206	0.100
254.400	17.363	0.100
254.500	9.678	0.100
254.600	17.882	0.100
254.700	21.293	0.100
254.800	10.791	0.100
254.900	11.654	0.100
255.000	11.313	0.100
255.100	14.459	0.100
255.200	-2.039	0.100
255.300	9.003	0.100
255.400	12.595	0.100
255.500	20.554	0.100
255.600	20.718	0.100
255.700	14.834	0.100
255.800	18.153	0.100
255.900	12.630	0.100
256.000	23.165	0.100
256.100	-2.543	0.100
256.200	9.873	0.100
256.300	16.782	0.100
256.400	13.833	0.100
256.500	5.172	0.100
256.600	6.496	0.100
256.700	-5.417	0.100
256.800	7.245	0.100
256.900	26.237	0.100
257.000	13.105	0.100
257.100	7.062	0.100
257.200	26.081	0.100
257.300	12.919	0.100
257.400	12.396	0.100
257.500	-2.012	0.100
257.600	15.021	0.100
257.700	11.618	0.100
257.800	13.744	0.100
257.900	6.423	0.100
258.000	17.590	0.100
258.100	19.541	0.100
258.200	14.512	0.100
258.300	2.797	0.100
258.400	9.322	0.100
258.500	10.176	0.100
258.600	13.783	0.100
258.700	7.951	0.100
258.800	1.434	0.100
258.900	14.819	0.100
259.000	13.123	0.100
259.100	3.570	0.100
259.200	14.402	0.100
259.300	12.909	0.100
259.400	-0.358	0.100
259.500	6.766	0.100
259.600	18.983	0.100
259.700	20.706	0.100
259.800	-1.735	0.100
259.900	-4.532	0.100
260.000	-0.364	0.100
260.100	6.424	0.100
260.200	4.228	0.100
260.300	2.414	0.100
260.400	3.801	0.100
260.500	9.055	0.100
260.600	14.530	0.100
260.700	5.495	0.100
260.800	12.767	0.100
260.900	11.297	0.100
261.000	10.775	0.100
261.100	9.257	0.100
261.200	6.159	0.100
261.300	2.888	0.100
261.400	-1.201	0.100
261.500	6.133	0.100
261.600	21.370	0.100
261.700	2.964	0.100
261.800	8.481	0.100
261.900	1.531	0.100
262.000	5.252	0.100
262.100	-6.975	0.100
262.200	13.319	0.100
262.300	2.344	0.100
262.400	11.066	0.100
262.500	-2.514	0.100
262.600	7.959	0.100
262.700	10.058	0.100
262.800	-3.888	0.100
262.900	20.359	0.100
263.000	3.209	0.100
263.100	5.350	0.100
263.200	3.916	0.100
263.300	8.302	0.100
263.400	8.987	0.100
263.500	-7.620	0.100
263.600	6.877	0.100
263.700	-3.622	0.100
263.800	7.103	0.100
263.900	10.527	0.100
264.000	-6.782	0.100
264.100	12.319	0.100
264.200	5.587	0.100
264.300	4.780	0.100
264.400	3.637	0.100
264.500	4.127	0.100
264.600	1.785	0.100
264.700	1.842	0.100
264.800	-8.286	0.100
264.900	4.778	0.100
265.000	-4.978	0.100
265.100	6.608	0.100
265.200	9.030	0.100
265.300	13.391	0.100
265.400	8.087	0.100
265.500	-18.117	0.100
265.600	-1.068	0.100
265.700	10.419	0.100
265.800	22.271	0.100
265.900	0.910	0.100
266.000	1.170	0.100
266.100	-1.614	0.100
266.200	1.853	0.100
266.300	-6.790	0.100
266.400	-3.565	0.100
266.500	10.673	0.100
266.600	2.432	0.100
266.700	7.429	0.100
266.800	1.357	0.100
266.900	-4.638	0.100
267.000	1.866	0.100
267.100	2.117	0.100
267.200	-2.537	0.100
267.300	4.473	0.100
267.400	-15.189	0.100
267.500	-1.289	0.100
267.600	9.541	0.100
267.700	6.004	0.100
267.800	10.111	0.100
267.900	-6.845	0.100
268.000	-11.948	0.100
268.100	-10.380	0.100
268.200	0.930	0.100
268.300	-5.197	0.100
268.400	1.145	0.100
268.500	5.652	0.100
268.600	-7.975	0.100
268.700	2.036	0.100
268.800	6.270	0.100
268.900	5.241	0.100
269.000	-13.316	0.100
269.100	3.603	0.100
269.200	1.566	0.100
269.300	-15.376	0.100
269.400	-9.225	0.100
269.500	-4.111	0.100
269.600	5.643	0.100
269.700	2.619	0.100
269.800	0.139	0.100
269.900	5.879	0.100
270.000	1.998	0.100
270.100	-4.192	0.100
270.200	-18.421	0.100
270.300	-14.834	0.100
270.400	0.614	0.100
270.500	-3.214	0.100
270.600	1.531	0.100
270.700	6.994	0.100
270.800	-0.500	0.100
270.900	-12.239	0.100
271.000	-0.751	0.100
271.100	5.179	0.100
271.200	6.862	0.100
271.300	-1.678	0.100
271.400	-7.140	0.100
271.500	1.322	0.100
271.600	-8.143	0.100
271.700	-3.862	0.100
271.800	-1.155	0.100
271.900	-15.141	0.100
272.000	5.507	0.100
272.100	-2.147	0.100
272.200	-5.102	0.100
272.300	-6.271	0.100
272.400	0.376	0.100
272.500	-7.628	0.100
272.600	0.074	0.100
272.700	-6.030	0.100
272.800	-1.960	0.100
272.900	-5.172	0.100
273.000	-16.822	0.100
273.100	-10.703	0.100
273.200	1.687	0.100
273.300	2.865	0.100
273.400	-7.758	0.100
273.500	-18.313	0.100
273.600	-10.371	0.100
273.700	-13.807	0.100
273.800	-8.366	0.100
273.900	10.491	0.100
274.000	7.511	0.100
274.100	-11.984	0.100
274.200	-11.595	0.100
274.300	-0.020	0.100
274.400	-6.568	0.100
274.500	-13.952	0.100
274.600	-1.857	0.100
274.700	-3.550	0.100
274.800	1.195	0.100
274.900	-13.897	0.100
275.000	-25.592	0.100
275.100	-10.773	0.100
275.200	-5.982	0.100
275.300	-7.846	0.100
275.400	-5.704	0.100
275.500	-5.563	0.100
275.600	1.056	0.100
275.700	3.269	0.100
275.800	-16.439	0.100
275.900	-7.954	0.100
276.000	-3.828	0.100
276.100	-2.504	0.100
276.200	1.102	0.100
276.300	3.610	0.100
276.400	-4.577	0.100
276.500	-12.658	0.100
276.600	-17.613	0.100
276.700	-13.390	0.100
276.800	1.029	0.100
276.900	-8.135	0.100
277.000	3.367	0.100
277.100	-4.133	0.100
277.200	-10.585	0.100
277.300	-19.044	0.100
277.400	-17.275	0.100
277.500	11.633	0.100
277.600	-5.045	0.100
277.700	0.009	0.100
277.800	4.222	0.100
277.900	-16.479	0.100
278.000	-19.502	0.100
278.100	-10.664	0.100
278.200	-10.000	0.100
278.300	-0.553	0.100
278.400	0.777	0.100
278.500	-31.783	0.100
278.600	-9.829	0.100
278.700	-9.569	0.100
278.800	-1.565	0.100
278.900	-11.563	0.100
279.000	-14.189	0.100
279.100	-12.929	0.100
279.200	-9.189	0.100
279.300	-9.296	0.100
279.400	-7.853	0.100
279.500	-9.778	0.100
279.600	-3.572	0.100
279.700	-2.763	0.100
279.800	-14.528	0.100
279.900	-15.656	0.100
280.000	-14.071	0.100
280.100	-12.556	0.100
280.200	-9.757	0.100
280.300	1.735	0.100
280.400	-19.578	0.100
280.500	-21.984	0.100
280.600	-1.682	0.100
280.700	-2.704	0.100
280.800	-5.538	0.100
280.900	-16.793	0.100
281.000	-7.686	0.100
281.100	-12.015	0.100
281.200	-5.848	0.100
281.300	-16.005	0.100
281.400	0.953	0.100
281.500	-10.754	0.100
281.600	1.004	0.100
281.700	-11.861	0.100
281.800	-14.671	0.100
281.900	-13.097	0.100
282.000	-11.938	0.100
282.100	-9.246	0.100
282.200	-17.252	0.100
282.300	-18.487	0.100
282.400	-22.541	0.100
282.500	-14.827	0.100
282.600	-4.820	0.100
282.700	-23.248	0.100
282.800	-3.304	0.100
282.900	-12.264	0.100
283.000	-12.056	0.100
283.100	-11.530	0.100
283.200	-10.493	0.100
283.300	-16.338	0.100
283.400	-8.824	0.100
283.500	-18.809	0.100
283.600	-14.991	0.100
283.700	-15.176	0.100
283.800	-10.281	0.100
283.900	-15.488	0.100
284.000	-10.408	0.100
284.100	-24.710	0.100
284.200	-6.576	0.100
284.300	-2.711	0.100
284.400	-12.475	0.100
284.500	-7.683	0.100
284.600	-20.748	0.100
284.700	-13.144	0.100
284.800	-9.573	0.100
284.900	-6.076	0.100
285.000	-15.039	0.100
285.100	-11.720	0.100
285.200	-22.805	0.100
285.300	-10.512	0.100
285.400	-10.525	0.100
285.500	-15.053	0.100
285.600	-8.935	0.100
285.700	-18.523	0.100
285.800	-12.350	0.100
285.900	-15.716	0.100
286.000	-13.165	0.100
286.100	-8.114	0.100
286.200	-22.400	0.100
286.300	-17.905	0.100
286.400	-23.503	0.100
286.500	-9.037	0.100
286.600	-15.769	0.100
286.700	-15.202	0.100
286.800	-1.719	0.100
286.900	-11.194	0.100
287.000	-11.517	0.100
287.100	-29.232	0.100
287.200	-10.464	0.100
287.300	-8.984	0.100
287.400	-8.006	0.100
287.500	-4.504	0.100
287.600	-7.527	0.100
287.700	-24.085	0.100
287.800	-4.780	0.100
287.900	-7.092	0.100
288.000	-25.386	0.100
288.100	-11.053	0.100
288.200	-11.359	0.100
288.300	-9.889	0.100
288.400	-14.521	0.100
288.500	-13.494	0.100
288.600	-18.504	0.100
288.700	-16.110	0.100
288.800	-20.100	0.100
288.900	-5.916	0.100
289.000	-4.242	0.100
289.100	-7.304	0.100
289.200	-10.341	0.100
289.300	-8.852	0.100
289.400	-17.902	0.100
289.500	-17.553	0.100
289.600	-15.041	0.100
289.700	-26.157	0.100
289.800	-10.849	0.100
289.900	-33.811	0.100
290.000	-23.860	0.100
290.100	-20.891	0.100
290.200	-22.393	0.100
290.300	-34.511	0.100
290.400	-13.927	0.100
290.500	-17.358	0.100
290.600	-15.493	0.100
290.700	-19.058	0.100
290.800	-22.028	0.100
290.900	-5.170	0.100
291.000	-21.168	0.100
291.100	-11.603	0.100
291.200	-19.978	0.100
291.300	-9.197	0.100
291.400	-10.688	0.100
291.500	-13.582	0.100
291.600	-13.549	0.100
291.700	-8.118	0.100
291.800	-29.610	0.100
291.900	-26.626	0.100
292.000	-19.443	0.100
292.100	-19.360	0.100
292.200	-13.736	0.100
292.300	1.049	0.100
292.400	-5.812	0.100
292.500	-7.877	0.100
292.600	-8.908	0.100
292.700	-12.833	0.100
292.800	-11.261	0.100
292.900	-25.689	0.100
293.000	-25.509	0.100
293.100	-9.785	0.100
293.200	-29.398	0.100
293.300	-23.914	0.100
293.400	-16.597	0.100
293.500	-17.797	0.100
293.600	-18.579	0.100
293.700	-16.508	0.100
293.800	-17.384	0.100
293.900	-11.503	0.100
294.000	-17.659	0.100
294.100	-23.962	0.100
294.200	-17.856	0.100
294.300	-11.931	0.100
294.400	-13.127	0.100
294.500	-9.941	0.100
294.600	-10.219	0.100
294.700	-10.358	0.100
294.800	-11.791	0.100
294.900	-16.016	0.100
295.000	-25.231	0.100
295.100	-14.490	0.100
295.200	-20.325	0.100
295.300	-7.851	0.100
295.400	-18.979	0.100
295.500	-18.974	0.100
295.600	-17.065	0.100
295.700	-19.102	0.100
295.800	-21.709	0.100
295.900	-12.552	0.100
296.000	-16.550	0.100
296.100	-23.947	0.100
296.200	-24.076	0.100
296.300	-19.793	0.100
296.400	-14.131	0.100
296.500	-20.297	0.100
296.600	-16.007	0.100
296.700	-12.463	0.099
296.800	-9.838	0.099
296.900	-16.810	0.099
297.000	-10.940	0.099
297.100	-14.959	0.099
297.200	-27.717	0.099
297.300	-17.582	0.099
297.400	-22.686	0.099
297.500	-31.038	0.099
297.600	-27.510	0.099
297.700	-12.462	0.099
297.800	-10.301	0.099
297.900	-20.092	0.099
298.000	-26.508	0.099
298.100	-9.982	0.099
298.200	-17.603	0.099
298.300	-13.993	0.099
298.400	-20.301	0.099
298.500	-19.948	0.099
298.600	-20.653	0.099
298.700	-6.201	0.099
298.800	-14.365	0.099
298.900	-17.706	0.099
299.000	-21.386	0.099
299.100	-22.098	0.099
299.200	-23.236	0.099
299.300	-22.200	0.099
299.400	-20.238	0.099
299.500	-23.317	0.099
299.600	-22.690	0.099
299.700	-23.170	0.099
299.800	-24.851	0.099
299.900	-21.348	0.099
300.000	-15.852	0.099
300.100	-10.569	0.099
300.200	-18.683	0.099
300.300	-15.511	0.099
300.400	-10.913	0.099
300.500	-23.589	0.099
300.600	-35.212	0.099
300.700	-24.150	0.099
300.800	-11.520	0.099
300.900	-11.722	0.099
301.000	-23.300	0.099
301.100	-23.701	0.099
301.200	-18.575	0.099
301.300	-16.614	0.099
301.400	-33.611	0.099
301.500	-25.743	0.099
301.600	-27.801	0.099
301.700	-11.858	0.099
301.800	-20.708	0.099
301.900	-30.503	0.099
302.000	-13.868	0.099
302.100	-12.735	0.099
302.200	-11.481	0.099
302.300	-23.995	0.099
302.400	-14.209	0.099
302.500	-15.778	0.099
302.600	-15.733	0.099
302.700	-13.767	0.099
302.800	-22.323	0.099
302.900	-10.890	0.099
303.000	-16.411	0.099
303.100	-9.592	0.099
303.200	-20.345	0.099
303.300	-26.808	0.099
303.400	-19.862	0.099
303.500	-23.002	0.099
303.600	-14.365	0.099
303.700	-16.539	0.099
303.800	-20.030	0.099
303.900	-22.995	0.099
304.000	-17.665	0.099
304.100	-19.285	0.099
304.200	-14.712	0.099
304.300	-15.356	0.099
304.400	-22.830	0.099
304.500	-24.299	0.099
304.600	-31.048	0.099
304.700	-14.631	0.099
304.800	-7.818	0.099
304.900	-8.431	0.099
305.000	-15.635	0.099
305.100	-26.809	0.099
305.200	-30.373	0.099
305.300	-18.571	0.099
305.400	-21.450	0.099
305.500	-16.449	0.099
305.600	-21.559	0.099
305.700	-18.167	0.099
305.800	-15.472	0.099
305.900	-21.949	0.099
306.000	-24.664	0.099
306.100	-18.341	0.099
306.200	-16.251	0.099
306.300	-20.643	0.099
306.400	-14.885	0.099
306.500	-17.813	0.099
306.600	-15.134	0.099
306.700	-28.125	0.099
306.800	-24.400	0.099
306.900	-24.733	0.099
307.000	-15.867	0.099
307.100	-10.748	0.099
307.200	-17.582	0.099
307.300	-25.362	0.099
307.400	-12.115	0.099
307.500	-28.319	0.099
307.600	-21.849	0.099
307.700	-20.296	0.099
307.800	-12.758	0.099
307.900	-22.625	0.100
308.000	-24.909	0.100
308.100	-21.321	0.100
308.200	-12.578	0.100
308.300	-22.999	0.100
308.400	-26.283	0.100
308.500	-24.959	0.100
308.600	-13.179	0.100
308.700	-34.428	0.100
308.800	-30.405	0.100
308.900	-19.738	0.100
309.000	-16.787	0.100
309.100	-27.803	0.100
309.200	-14.013	0.100
309.300	-14.130	0.100
309.400	-19.263	0.100
309.500	-7.305	0.100
309.600	-28.527	0.100
309.700	-24.678	0.100
309.800	-19.984	0.100
309.900	-11.993	0.100
310.000	-25.358	0.100
310.100	-16.999	0.100
310.200	-18.463	0.100
310.300	-19.974	0.100
310.400	-19.968	0.100
310.500	-24.848	0.100
310.600	-21.175	0.100
310.700	-23.425	0.100
310.800	-7.343	0.100
310.900	-12.904	0.100
311.000	-21.418	0.100
311.100	-31.941	0.100
311.200	-22.583	0.100
311.300	-16.840	0.100
311.400	-23.488	0.100
311.500	-18.855	0.100
311.600	-17.566	0.100
311.700	-18.710	0.100
311.800	-19.023	0.100
311.900	-33.186	0.100
312.000	-30.612	0.100
312.100	-7.168	0.100
312.200	-14.993	0.100
312.300	-19.302	0.100
312.400	-19.680	0.100
312.500	-22.179	0.100
312.600	-17.416	0.100
312.700	-13.602	0.100
312.800	-24.331	0.100
312.900	-14.319	0.100
313.000	-7.631	0.100
313.100	-13.463	0.100
313.200	-19.430	0.100
313.300	-20.852	0.100
313.400	-29.820	0.100
313.500	-13.148	0.100
313.600	-14.446	0.100
313.700	-20.542	0.100
313.800	-30.353	0.100
313.900	-26.832	0.100
314.000	-15.826	0.100
314.100	-17.205	0.100
314.200	-11.859	0.100
314.300	-18.780	0.100
314.400	-24.472	0.100
314.500	-20.909	0.100
314.600	-24.950	0.100
314.700	-21.165	0.100
314.800	-18.323	0.100
314.900	-20.098	0.100
315.000	-17.082	0.100
315.100	-15.737	0.100
315.200	-39.401	0.100
315.300	-22.752	0.100
315.400	-18.035	0.100
315.500	-16.647	0.100
315.600	-18.299	0.100
315.700	-31.240	0.100
315.800	-34.943	0.100
315.900	-25.617	0.100
316.000	-6.145	0.100
316.100	-21.096	0.100
316.200	-28.624	0.100
316.300	-23.331	0.100
316.400	-19.693	0.100
316.500	-17.545	0.100
316.600	-14.163	0.100
316.700	-19.548	0.100
316.800	-10.572	0.100
316.900	-15.988	0.100
317.000	-15.799	0.100
317.100	-27.142	0.100
317.200	-17.796	0.100
317.300	-20.249	0.100
317.400	-18.804	0.100
317.500	-20.688	0.100
317.600	-13.930	0.100
317.700	-16.821	0.100
317.800	-26.383	0.100
317.900	-25.121	0.100
318.000	-29.835	0.100
318.100	-15.623	0.100
318.200	-25.586	0.100
318.300	-18.173	0.100
318.400	-34.038	0.100
318.500	-29.596	0.100
318.600	-9.598	0.100
318.700	-22.012	0.100
318.800	-23.689	0.100
318.900	-28.251	0.100
319.000	-19.824	0.100
319.100	-21.049	0.099
319.200	-17.223	0.100
319.300	-3.251	0.100
319.400	-18.819	0.099
319.500	-14.095	0.100
319.600	-13.709	0.100
319.700	-29.508	0.100
319.800	-29.161	0.100
319.900	-33.550	0.100
320.000	-20.197	0.099
320.100	-22.426	0.100
320.200	-16.797	0.100
320.300	-24.954	0.100
320.400	-28.922	0.099
320.500	-31.367	0.100
320.600	-24.775	0.100
320.700	-17.933	0.099
320.800	-13.513	0.099
320.900	-15.588	0.100
321.000	-17.342	0.099
321.100	-12.237	0.100
321.200	-17.690	0.099
321.300	-17.080	0.100
321.400	-21.018	0.099
321.500	-22.516	0.099
321.600	-26.437	0.100
321.700	-5.329	0.100
321.800	-2.816	0.100
321.900	-8.047	0.100
322.000	-28.003	0.100
322.100	-17.918	0.099
322.200	-27.726	0.100
322.300	-19.250	0.099
322.400	-30.050	0.100
322.500	-24.538	0.100
322.600	-18.726	0.099
322.700	-21.716	0.099
322.800	-12.995	0.099
322.900	-21.823	0.100
323.000	-32.485	0.100
323.100	-14.615	0.099
323.200	-24.269	0.100
323.300	-24.111	0.099
323.400	-29.307	0.100
323.500	-20.607	0.099
323.600	-13.084	0.100
323.700	-17.358	0.099
323.800	-26.209	0.099
323.900	-30.298	0.100
324.000	-17.614	0.099
324.100	-21.840	0.099
324.200	-29.503	0.100
324.300	-29.808	0.099
324.400	-28.657	0.099
324.500	-18.233	0.099
324.600	-25.573	0.099
324.700	-17.207	0.099
324.800	-15.633	0.099
324.900	-22.970	0.099
325.000	-17.837	0.099
325.100	-17.224	0.099
325.200	-24.796	0.099
325.300	-25.282	0.099
325.400	-32.708	0.099
325.500	-36.401	0.099
325.600	-18.304	0.099
325.700	-21.316	0.099
325.800	-10.045	0.099
325.900	-10.566	0.099
326.000	-26.727	0.099
326.100	-22.163	0.099
326.200	-13.423	0.099
326.300	-22.979	0.099
326.400	-22.560	0.099
326.500	-21.220	0.099
326.600	-24.520	0.099
326.700	-15.108	0.099
326.800	-28.788	0.099
326.900	-18.900	0.099
327.000	-12.362	0.099
327.100	-25.740	0.099
327.200	-26.616	0.099
327.300	-12.500	0.099
327.400	-23.840	0.099
327.500	-29.822	0.099
327.600	-26.360	0.099
327.700	-32.891	0.099
327.800	-20.607	0.099
327.900	-30.244	0.099
328.000	-24.901	0.099
328.100	-12.163	0.099
328.200	-21.624	0.099
328.300	-20.331	0.099
328.400	-9.857	0.099
328.500	-24.650	0.099
328.600	-25.312	0.099
328.700	-25.123	0.099
328.800	-23.714	0.099
328.900	-30.524	0.099
329.000	-13.984	0.099
329.100	-13.597	0.099
329.200	-29.650	0.099
329.300	-20.917	0.099
329.400	-18.417	0.099
329.500	-24.345	0.099
329.600	-17.522	0.099
329.700	-26.879	0.099
329.800	-12.279	0.099
329.900	-13.251	0.099
330.000	-27.831	0.099
330.100	-19.539	0.099
330.200	-15.484	0.099
330.300	-20.044	0.099
330.400	-13.806	0.099
330.500	-17.257	0.099
330.600	-16.156	0.099
330.700	-19.438	0.099
330.800	-15.078	0.099
330.900	-10.659	0.099
331.000	-17.803	0.099
331.100	-5.576	0.099
331.200	-18.498	0.099
331.300	-14.231	0.099
331.400	-11.740	0.099
331.500	-9.595	0.099
331.600	-3.367	0.099
331.700	-12.983	0.099
331.800	-1.112	0.099
331.900	-6.915	0.099
332.000	-12.030	0.099
332.100	-12.453	0.099
332.200	0.236	0.099
332.300	-2.688	0.099
332.400	-8.888	0.099
332.500	3.028	0.099
332.600	8.015	0.099
332.700	-0.505	0.099
332.800	-8.469	0.099
332.900	2.903	0.099
333.000	-4.090	0.099
333.100	4.615	0.099
333.200	3.612	0.099
333.300	-1.924	0.099
333.400	-8.428	0.099
333.500	-3.743	0.099
333.600	13.387	0.099
333.700	9.286	0.099
333.800	4.774	0.099
333.900	-1.667	0.099
334.000	6.207	0.099
334.100	10.590	0.099
334.200	-7.239	0.099
334.300	9.931	0.099
334.400	4.706	0.099
334.500	3.346	0.099
334.600	1.863	0.099
334.700	2.040	0.099
334.800	8.075	0.099
334.900	7.022	0.099
335.000	-3.012	0.099
335.100	8.497	0.099
335.200	-3.335	0.099
335.300	-9.532	0.099
335.400	3.222	0.099
335.500	7.606	0.099
335.600	1.478	0.099
335.700	5.913	0.099
335.800	3.790	0.099
335.900	8.848	0.100
336.000	-3.599	0.100
336.100	8.194	0.100
336.200	-1.785	0.100
336.300	5.928	0.100
336.400	18.314	0.100
336.500	7.167	0.100
336.600	-2.724	0.100
336.700	3.848	0.100
336.800	10.789	0.100
336.900	21.699	0.100
337.000	9.926	0.100
337.100	-6.968	0.100
337.200	5.106	0.100
337.300	6.990	0.100
337.400	4.524	0.100
337.500	2.520	0.100
337.600	-4.378	0.100
337.700	-0.693	0.100
337.800	-1.247	0.100
337.900	8.210	0.100
338.000	3.446	0.100
338.100	4.700	0.100
338.200	13.393	0.100
338.300	13.517	0.100
338.400	13.939	0.100
338.500	-2.082	0.100
338.600	11.272	0.100
338.700	6.188	0.100
338.800	4.988	0.100
338.900	-0.521	0.100
339.000	6.895	0.100
339.100	1.724	0.100
339.200	13.213	0.100
339.300	2.920	0.100
339.400	4.834	0.100
339.500	10.435	0.100
339.600	7.640	0.100
339.700	2.892	0.100
339.800	11.418	0.100
339.900	3.310	0.100
340.000	6.154	0.100
340.100	10.376	0.100
340.200	7.636	0.100
340.300	9.548	0.100
340.400	6.919	0.100
340.500	4.776	0.100
340.600	5.657	0.100
340.700	29.813	0.100
340.800	13.491	0.100
340.900	20.806	0.100
341.000	9.785	0.100
341.100	14.041	0.100
341.200	6.339	0.100
341.300	-0.728	0.100
341.400	8.794	0.100
341.500	21.851	0.100
341.600	26.357	0.100
341.700	7.764	0.100
341.800	2.249	0.100
341.900	19.910	0.100
342.000	8.128	0.100
342.100	13.869	0.100
342.200	13.163	0.100
342.300	20.767	0.100
342.400	12.693	0.100
342.500	7.272	0.100
342.600	21.623	0.100
342.700	10.092	0.100
342.800	14.296	0.100
342.900	-1.644	0.100
343.000	14.658	0.100
343.100	9.755	0.100
343.200	16.124	0.100
343.300	16.509	0.100
343.400	14.431	0.100
343.500	1.324	0.100
343.600	19.546	0.100
343.700	24.751	0.100
343.800	15.288	0.100
343.900	2.592	0.100
344.000	7.630	0.100
344.100	10.810	0.100
344.200	0.386	0.100
344.300	12.681	0.100
344.400	15.575	0.100
344.500	24.354	0.100
344.600	9.774	0.100
344.700	12.195	0.100
344.800	21.940	0.100
344.900	18.719	0.100
345.000	12.953	0.100
345.100	28.358	0.100
345.200	12.256	0.100
345.300	12.421	0.100
345.400	17.598	0.100
345.500	20.764	0.100
345.600	19.146	0.100
345.700	16.452	0.100
345.800	17.571	0.100
345.900	11.642	0.100
346.000	20.657	0.100
346.100	12.583	0.100
346.200	11.336	0.100
346.300	15.801	0.100
346.400	18.000	0.100
346.500	13.621	0.100
346.600	14.943	0.100
346.700	15.043	0.100
346.800	12.692	0.100
346.900	23.950	0.100
347.000	20.331	0.100
347.100	25.308	0.099
347.200	26.604	0.099
347.300	20.455	0.099
347.400	15.500	0.099
347.500	27.367	0.099
347.600	16.221	0.099
347.700	12.128	0.099
347.800	17.162	0.099
347.900	21.509	0.099
348.000	27.134	0.099
348.100	14.432	0.099
348.200	20.942	0.099
348.300	35.282	0.099
348.400	19.633	0.099
348.500	9.600	0.099
348.600	7.608	0.099
348.700	22.364	0.099
348.800	19.431	0.099
348.900	26.315	0.099
349.000	18.916	0.099
349.100	17.473	0.099
349.200	17.790	0.099
349.300	21.307	0.099
349.400	23.242	0.099
349.500	23.199	0.099
349.600	22.541	0.099
349.700	19.704	0.099
349.800	27.637	0.099
349.900	22.673	0.099
350.000	15.280	0.099
350.100	20.531	0.099
350.200	12.933	0.099
350.300	2.900	0.099
350.400	20.273	0.099
350.500	22.536	0.099
350.600	19.557	0.099
350.700	19.905	0.099
350.800	3.423	0.099
350.900	28.144	0.099
351.000	10.699	0.099
351.100	23.833	0.099
351.200	17.344	0.099
351.300	29.799	0.099
351.400	19.930	0.099
351.500	16.416	0.099
351.600	10.170	0.099
351.700	13.682	0.099
351.800	30.526	0.099
351.900	25.270	0.099
352.000	10.397	0.099
352.100	21.678	0.099
352.200	18.982	0.099
352.300	32.235	0.099
352.400	11.273	0.099
352.500	7.957	0.099
352.600	31.374	0.099
352.700	26.641	0.099
352.800	28.276	0.099
352.900	30.525	0.099
353.000	17.514	0.099
353.100	19.495	0.099
353.200	35.529	0.099
353.300	20.889	0.099
353.400	15.246	0.099
353.500	18.014	0.099
353.600	18.442	0.099
353.700	18.423	0.099
353.800	28.589	0.099
353.900	25.739	0.099
354.000	24.495	0.099
354.100	8.890	0.099
354.200	29.001	0.099
354.300	24.864	0.099
354.400	10.044	0.099
354.500	29.280	0.099
354.600	25.695	0.099
354.700	31.451	0.099
354.800	12.559	0.099
354.900	24.277	0.099
355.000	30.505	0.099
355.100	29.059	0.099
355.200	25.591	0.099
355.300	27.817	0.099
355.400	23.828	0.099
355.500	13.508	0.099
355.600	27.716	0.099
355.700	32.421	0.099
355.800	24.752	0.099
355.900	16.857	0.099
356.000	30.406	0.099
356.100	23.152	0.099
356.200	15.692	0.099
356.300	30.461	0.099
356.400	28.539	0.099
356.500	27.822	0.099
356.600	28.538	0.099
356.700	27.471	0.099
356.800	24.681	0.099
356.900	22.710	0.099
357.000	22.596	0.099
357.100	34.191	0.099
357.200	39.389	0.099
357.300	16.014	0.099
357.400	14.430	0.099
357.500	25.909	0.099
357.600	23.095	0.099
357.700	21.877	0.099
357.800	29.316	0.099
357.900	24.265	0.099
358.000	24.470	0.099
358.100	27.903	0.099
358.200	34.298	0.099
358.300	34.711	0.099
358.400	25.025	0.099
358.500	31.211	0.099
358.600	26.733	0.099
358.700	22.319	0.099
358.800	22.514	0.099
358.900	21.647	0.099
359.000	32.597	0.099
359.100	31.052	0.099
359.200	39.965	0.099
359.300	24.202	0.099
359.400	31.409	0.099
359.500	42.056	0.099
359.600	38.911	0.099
359.700	28.391	0.099
359.800	43.599	0.099
359.900	24.892	0.099
360.000	20.066	0.099
360.100	28.497	0.099
360.200	29.438	0.099
360.300	29.262	0.099
360.400	19.580	0.099
360.500	27.983	0.099
360.600	28.274	0.099
360.700	37.950	0.099
360.800	37.233	0.099
360.900	36.891	0.099
361.000	35.426	0.099
361.100	25.387	0.099
361.200	30.721	0.099
361.300	11.978	0.099
361.400	46.898	0.099
361.500	35.110	0.099
361.600	31.964	0.099
361.700	37.880	0.099
361.800	29.305	0.100
361.900	24.626	0.099
362.000	31.763	0.099
362.100	27.199	0.100
362.200	39.446	0.099
362.300	32.636	0.100
362.400	38.193	0.100
362.500	18.252	0.099
362.600	34.372	0.099
362.700	21.866	0.100
362.800	30.776	0.099
362.900	32.417	0.100
363.000	34.162	0.100
363.100	25.485	0.100
363.200	30.108	0.099
363.300	43.429	0.099
363.400	31.146	0.100
363.500	33.041	0.099
363.600	33.940	0.100
363.700	36.784	0.100
363.800	33.259	0.100
363.900	33.393	0.100
364.000	40.687	0.100
364.100	37.806	0.100
364.200	33.241	0.100
364.300	23.980	0.100
364.400	40.569	0.100
364.500	46.116	0.100
364.600	41.714	0.100
364.700	32.091	0.100
364.800	38.703	0.100
364.900	36.216	0.100
365.000	31.393	0.100
365.100	36.261	0.100
365.200	51.497	0.100
365.300	24.317	0.100
365.400	25.796	0.100
365.500	34.848	0.100
365.600	24.954	0.100
365.700	37.894	0.100
365.800	40.701	0.100
365.900	37.481	0.100
366.000	26.252	0.100
366.100	31.575	0.100
366.200	31.013	0.100
366.300	32.729	0.100
366.400	31.603	0.100
366.500	31.433	0.100
366.600	34.437	0.100
366.700	36.759	0.100
366.800	35.328	0.100
366.900	37.124	0.100
367.000	33.026	0.100
367.100	41.704	0.100
367.200	48.015	0.100
367.300	39.449	0.100
367.400	33.279	0.100
367.500	28.357	0.100
367.600	39.732	0.100
367.700	38.757	0.100
367.800	37.301	0.100
367.900	39.756	0.100
368.000	29.072	0.100
368.100	38.999	0.100
368.200	47.863	0.100
368.300	40.622	0.100
368.400	25.255	0.100
368.500	29.505	0.100
368.600	43.804	0.100
368.700	54.271	0.100
368.800	44.685	0.100
368.900	23.974	0.100
369.000	54.187	0.100
369.100	39.851	0.100
369.200	36.784	0.100
369.300	27.916	0.100
369.400	40.321	0.100
369.500	40.716	0.100
369.600	47.651	0.100
369.700	43.375	0.100
369.800	40.802	0.100
369.900	40.077	0.100
370.000	40.829	0.100
370.100	36.555	0.100
370.200	40.810	0.100
370.300	54.957	0.100
370.400	35.402	0.100
370.500	34.658	0.100
370.600	47.461	0.100
370.700	46.143	0.100
370.800	34.592	0.100
370.900	39.870	0.100
371.000	46.211	0.100
371.100	41.187	0.100
371.200	46.259	0.100
371.300	42.979	0.100
371.400	33.020	0.100
371.500	37.710	0.100
371.600	44.065	0.100
371.700	30.149	0.100
371.800	36.031	0.100
371.900	48.331	0.100
372.000	40.199	0.100
372.100	42.182	0.100
372.200	39.221	0.100
372.300	32.889	0.100
372.400	37.961	0.100
372.500	53.733	0.100
372.600	44.232	0.100
372.700	55.916	0.100
372.800	46.423	0.100
372.900	55.758	0.100
373.000	50.978	0.100
373.100	47.133	0.100
373.200	39.540	0.100
373.300	32.776	0.100
373.400	42.493	0.100
373.500	49.167	0.100
373.600	29.826	0.100
373.700	24.268	0.100
373.800	45.368	0.100
373.900	45.396	0.100
374.000	39.799	0.100
374.100	48.549	0.100
374.200	52.108	0.100
374.300	49.788	0.100
374.400	41.537	0.100
374.500	43.597	0.100
374.600	44.766	0.100
374.700	44.424	0.100
374.800	48.978	0.100
374.900	36.912	0.100
375.000	41.102	0.100
375.100	28.732	0.100
375.200	50.185	0.100
375.300	48.781	0.100
375.400	49.249	0.100
375.500	38.861	0.100
375.600	54.641	0.100
375.700	56.414	0.100
375.800	42.568	0.100
375.900	42.016	0.100
376.000	42.412	0.100
376.100	49.799	0.100
376.200	50.679	0.100
376.300	47.544	0.100
376.400	47.706	0.100
376.500	33.033	0.100
376.600	39.579	0.100
376.700	45.158	0.100
376.800	44.686	0.100
376.900	56.108	0.100
377.000	40.103	0.100
377.100	53.129	0.100
377.200	47.960	0.100
377.300	42.113	0.100
377.400	51.351	0.100
377.500	48.231	0.100
377.600	46.807	0.100
377.700	43.348	0.100
377.800	58.224	0.100
377.900	48.294	0.100
378.000	42.014	0.100
378.100	30.025	0.100
378.200	57.644	0.100
378.300	49.848	0.100
378.400	47.383	0.100
378.500	54.293	0.100
378.600	44.003	0.100
378.700	52.711	0.100
378.800	56.100	0.100
378.900	47.595	0.100
379.000	40.720	0.100
379.100	59.004	0.100
379.200	40.773	0.100
379.300	57.328	0.100
379.400	50.791	0.100
379.500	39.999	0.100
379.600	47.674	0.100
379.700	41.748	0.100
379.800	45.069	0.100
379.900	50.423	0.100
380.000	53.903	0.100
380.100	43.707	0.100
380.200	45.277	0.100
380.300	47.523	0.100
380.400	58.747	0.100
380.500	53.021	0.100
380.600	49.472	0.100
380.700	55.068	0.100
380.800	49.645	0.100
380.900	45.580	0.100
381.000	49.682	0.100
381.100	43.133	0.100
381.200	59.059	0.100
381.300	51.204	0.100
381.400	58.993	0.100
381.500	43.114	0.100
381.600	53.710	0.100
381.700	46.196	0.100
381.800	43.635	0.100
381.900	59.111	0.100
382.000	50.581	0.100
382.100	50.144	0.100
382.200	47.135	0.100
382.300	56.644	0.100
382.400	42.522	0.100
382.500	63.787	0.100
382.600	54.964	0.100
382.700	46.680	0.100
382.800	44.465	0.100
382.900	43.311	0.100
383.000	40.532	0.100
383.100	39.931	0.100
383.200	48.528	0.100
383.300	52.657	0.100
383.400	48.616	0.100
383.500	37.800	0.100
383.600	53.737	0.100
383.700	50.758	0.100
383.800	62.641	0.100
383.900	41.698	0.100
384.000	52.520	0.100
384.100	58.119	0.100
384.200	57.047	0.100
384.300	58.539	0.100
384.400	58.679	0.100
384.500	42.142	0.100
384.600	57.878	0.100
384.700	50.762	0.100
384.800	41.833	0.100
384.900	40.720	0.100
385.000	48.553	0.100
385.100	63.336	0.100
385.200	41.517	0.100
385.300	42.222	0.100
385.400	38.678	0.100
385.500	55.582	0.100
385.600	62.899	0.100
385.700	55.490	0.100
385.800	49.775	0.100
385.900	42.041	0.100
386.000	53.065	0.100
386.100	59.085	0.100
386.200	45.904	0.100
386.300	63.369	0.100
386.400	53.330	0.100
386.500	38.477	0.100
386.600	42.004	0.100
386.700	47.795	0.100
386.800	36.830	0.100
386.900	48.231	0.100
387.000	60.721	0.100
387.100	58.731	0.100
387.200	54.245	0.100
387.300	57.845	0.100
387.400	59.820	0.100
387.500	53.321	0.100
387.600	46.461	0.100
387.700	51.588	0.100
387.800	40.915	0.100
387.900	50.652	0.100
388.000	51.039	0.100
388.100	44.159	0.100
388.200	69.559	0.100
388.300	56.188	0.100
388.400	52.118	0.100
388.500	43.020	0.100
388.600	48.001	0.100
388.700	38.948	0.100
388.800	46.505	0.100
388.900	53.756	0.100
389.000	64.963	0.100
389.100	40.987	0.100
389.200	53.712	0.100
389.300	54.402	0.100
389.400	49.188	0.100
389.500	59.933	0.100
389.600	49.329	0.100
389.700	55.233	0.100
389.800	50.741	0.100
389.900	57.242	0.100
390.000	42.157	0.100
390.100	44.599	0.100
390.200	49.771	0.100
390.300	51.895	0.100
390.400	44.637	0.100
390.500	40.916	0.100
390.600	43.908	0.100
390.700	53.214	0.100
390.800	52.191	0.100
390.900	40.961	0.100
391.000	40.330	0.100
391.100	50.719	0.100
391.200	41.009	0.100
391.300	45.441	0.100
391.400	32.856	0.100
391.500	32.229	0.100
391.600	41.873	0.100
391.700	50.276	0.100
391.800	23.932	0.100
391.900	39.411	0.100
392.000	41.206	0.100
392.100	34.610	0.100
392.200	41.464	0.100
392.300	35.265	0.100
392.400	44.284	0.100
392.500	26.673	0.100
392.600	23.851	0.100
392.700	37.430	0.100
392.800	32.881	0.100
392.900	41.120	0.100
393.000	28.785	0.100
393.100	31.072	0.100
393.200	39.550	0.100
393.300	20.202	0.100
393.400	26.073	0.100
393.500	26.319	0.100
393.600	20.825	0.100
393.700	28.143	0.100
393.800	34.604	0.100
393.900	32.547	0.100
394.000	25.668	0.100
394.100	23.233	0.100
394.200	31.943	0.100
394.300	27.671	0.100
394.400	32.363	0.100
394.500	36.435	0.100
394.600	20.727	0.100
394.700	14.897	0.100
394.800	28.771	0.100
394.900	35.203	0.100
395.000	32.646	0.100
395.100	22.099	0.100
395.200	36.353	0.100
395.300	17.357	0.100
395.400	24.283	0.100
395.500	38.297	0.100
395.600	29.907	0.100
395.700	34.780	0.100
395.800	32.804	0.100
395.900	26.970	0.100
396.000	22.216	0.100
396.100	8.919	0.100
396.200	20.238	0.100
396.300	33.414	0.100
396.400	25.987	0.100
396.500	31.386	0.100
396.600	21.604	0.100
396.700	13.511	0.100
396.800	24.406	0.100
396.900	22.454	0.100
397.000	19.843	0.100
397.100	24.273	0.100
397.200	27.022	0.100
397.300	28.001	0.100
397.400	23.249	0.100
397.500	29.757	0.100
397.600	20.284	0.100
397.700	16.956	0.100
397.800	18.629	0.100
397.900	23.685	0.100
398.000	16.774	0.100
398.100	17.054	0.100
398.200	16.312	0.100
398.300	39.555	0.100
398.400	35.616	0.100
398.500	28.855	0.100
398.600	24.792	0.100
398.700	16.320	0.100
398.800	15.910	0.100
398.900	19.031	0.100
399.000	28.603	0.100
399.100	18.853	0.100
399.200	22.474	0.100
399.300	16.346	0.100
399.400	24.455	0.100
399.500	11.404	0.100
399.600	14.596	0.100
399.700	11.739	0.100
399.800	36.186	0.100
399.900	49.794	0.100
400.000	26.386	0.100
400.100	17.882	0.100
400.200	19.011	0.100
400.300	11.650	0.100
400.400	11.139	0.100
400.500	18.089	0.100
400.600	18.362	0.100
400.700	20.456	0.100
400.800	24.793	0.100
400.900	17.247	0.100
401.000	7.637	0.100
401.100	20.552	0.100
401.200	25.908	0.100
401.300	18.695	0.100
401.400	24.166	0.100
401.500	27.964	0.100
401.600	10.403	0.100
401.700	24.971	0.100
401.800	17.143	0.100
401.900	5.904	0.100
402.000	21.581	0.100
402.100	14.972	0.100
402.200	21.116	0.100
402.300	12.112	0.100
402.400	4.234	0.100
402.500	17.531	0.100
402.600	20.751	0.100
402.700	17.887	0.100
402.800	16.647	0.100
402.900	11.655	0.100
403.000	7.126	0.100
403.100	11.273	0.100
403.200	9.325	0.100
403.300	14.608	0.100
403.400	24.619	0.100
403.500	10.927	0.100
403.600	18.558	0.100
403.700	21.484	0.100
403.800	25.492	0.100
403.900	21.085	0.100
404.000	21.540	0.100
404.100	13.817	0.100
404.200	3.162	0.100
404.300	17.399	0.100
404.400	26.703	0.100
404.500	10.630	0.100
404.600	12.500	0.100
404.700	10.165	0.100
404.800	15.800	0.100
404.900	19.703	0.100
405.000	21.891	0.100
405.100	18.957	0.100
405.200	17.218	0.100
405.300	6.993	0.100
405.400	3.250	0.100
405.500	20.070	0.100
405.600	-4.298	0.100
405.700	10.656	0.100
405.800	6.588	0.100
405.900	9.719	0.100
406.000	2.656	0.100
406.100	11.038	0.100
406.200	17.135	0.100
406.300	8.878	0.100
406.400	9.780	0.100
406.500	17.105	0.100
406.600	3.620	0.100
406.700	2.910	0.100
406.800	14.242	0.100
406.900	14.256	0.100
407.000	7.724	0.100
407.100	6.756	0.100
407.200	3.598	0.100
407.300	7.319	0.100
407.400	10.795	0.100
407.500	21.786	0.100
407.600	8.221	0.100
407.700	10.709	0.100
407.800	17.843	0.100
407.900	0.924	0.100
408.000	8.531	0.100
408.100	3.812	0.100
408.200	3.462	0.100
408.300	19.527	0.100
408.400	11.372	0.100
408.500	6.267	0.100
408.600	6.378	0.100
408.700	2.259	0.100
408.800	13.920	0.100
408.900	13.341	0.100
409.000	13.220	0.100
409.100	-8.548	0.100
409.200	16.678	0.100
409.300	11.999	0.100
409.400	10.918	0.100
409.500	19.118	0.100
409.600	12.275	0.100
409.700	2.096	0.100
409.800	14.976	0.100
409.900	9.355	0.100
410.000	2.680	0.100
410.100	1.564	0.100
410.200	15.812	0.100
410.300	12.599	0.100
410.400	-9.917	0.100
410.500	5.465	0.100
410.600	10.310	0.100
410.700	8.706	0.100
410.800	5.687	0.100
410.900	2.072	0.100
411.000	5.081	0.100
411.100	7.397	0.100
411.200	9.654	0.100
411.300	7.765	0.100
411.400	2.895	0.100
411.500	-8.935	0.100
411.600	5.011	0.100
411.700	21.682	0.100
411.800	13.754	0.100
411.900	9.429	0.100
412.000	-1.717	0.100
412.100	9.314	0.100
412.200	1.818	0.100
412.300	7.147	0.100
412.400	9.374	0.100
412.500	7.575	0.100
412.600	15.585	0.100
412.700	5.156	0.100
412.800	1.990	0.100
412.900	-7.160	0.100
413.000	1.152	0.100
413.100	0.136	0.100
413.200	-6.282	0.100
413.300	6.090	0.100
413.400	13.985	0.100
413.500	10.120	0.100
413.600	0.250	0.100
413.700	3.293	0.100
413.800	4.616	0.100
413.900	0.856	0.100
414.000	3.107	0.100
414.100	3.148	0.100
414.200	9.704	0.100
414.300	10.186	0.100
414.400	6.016	0.100
414.500	2.473	0.100
414.600	6.107	0.100
414.700	-1.994	0.100
414.800	0.516	0.100
414.900	-3.869	0.100
415.000	-3.442	0.100
415.100	2.616	0.100
415.200	-4.747	0.100
415.300	5.133	0.100
415.400	1.038	0.100
415.500	-3.973	0.100
415.600	1.623	0.100
415.700	7.237	0.100
415.800	1.586	0.100
415.900	12.111	0.100
416.000	3.534	0.100
416.100	3.622	0.100
416.200	11.898	0.100
416.300	1.674	0.100
416.400	-19.659	0.100
416.500	2.788	0.100
416.600	13.765	0.100
416.700	-15.428	0.100
416.800	-1.150	0.100
416.900	5.926	0.100
417.000	-7.521	0.100
417.100	9.174	0.100
417.200	-0.001	0.100
417.300	-4.732	0.100
417.400	-3.000	0.100
417.500	-8.707	0.100
417.600	-2.461	0.100
417.700	-3.042	0.100
417.800	-1.375	0.100
417.900	-6.458	0.100
418.000	-12.543	0.100
418.100	12.157	0.100
418.200	12.613	0.100
418.300	-1.137	0.100
418.400	2.464	0.100
418.500	-10.653	0.100
418.600	-9.397	0.100
418.700	10.012	0.100
418.800	-1.686	0.100
418.900	2.849	0.100
419.000	4.556	0.100
419.100	-3.035	0.100
419.200	5.923	0.100
419.300	4.055	0.100
419.400	0.097	0.100
419.500	6.786	0.100
419.600	-2.966	0.100
419.700	-7.126	0.100
419.800	-8.979	0.100
419.900	-0.760	0.100
420.000	13.508	0.100
420.100	-8.884	0.100
420.200	1.437	0.100
420.300	0.626	0.100
420.400	3.707	0.100
420.500	-1.417	0.100
420.600	4.247	0.100
420.700	-8.008	0.100
420.800	-8.321	0.100
420.900	-16.060	0.100
421.000	1.280	0.100
421.100	0.640	0.100
421.200	-7.534	0.100
421.300	-10.395	0.100
421.400	-0.353	0.100
421.500	-9.022	0.100
421.600	-8.307	0.100
421.700	-5.728	0.100
421.800	-2.510	0.100
421.900	5.247	0.100
422.000	-7.187	0.100
422.100	2.748	0.100
422.200	-0.647	0.100
422.300	-7.772	0.100
422.400	-6.905	0.100
422.500	-4.063	0.100
422.600	-3.711	0.100
422.700	-11.354	0.100
422.800	2.661	0.100
422.900	3.834	0.100
423.000	1.264	0.100
423.100	17.231	0.100
423.200	-20.199	0.100
423.300	-20.525	0.100
423.400	-3.750	0.100
423.500	10.017	0.100
423.600	-19.200	0.100
423.700	-10.258	0.100
423.800	-7.565	0.100
423.900	-9.938	0.100
424.000	-9.786	0.100
424.100	-1.100	0.100
424.200	-3.836	0.100
424.300	-2.301	0.100
424.400	-10.184	0.100
424.500	-11.573	0.100
424.600	-7.068	0.100
424.700	-10.333	0.100
424.800	-13.223	0.100
424.900	-4.265	0.100
425.000	-24.393	0.100
425.100	-16.739	0.100
425.200	3.674	0.100
425.300	-7.870	0.100
425.400	-9.094	0.100
425.500	-17.831	0.100
425.600	-12.412	0.100
425.700	-11.557	0.100
425.800	-8.526	0.100
425.900	-11.472	0.100
426.000	2.144	0.100
426.100	-5.925	0.100
426.200	4.680	0.100
426.300	-11.682	0.100
426.400	-9.831	0.100
426.500	2.251	0.100
426.600	-0.731	0.100
426.700	-11.676	0.100
426.800	-16.772	0.100
426.900	-10.655	0.100
427.000	-6.697	0.100
427.100	-14.765	0.100
427.200	-13.776	0.100
427.300	-12.427	0.100
427.400	-0.194	0.100
427.500	-8.111	0.100
427.600	-12.783	0.100
427.700	-8.396	0.100
427.800	-2.315	0.100
427.900	-14.882	0.100
428.000	-21.441	0.100
428.100	1.538	0.100
428.200	-3.929	0.100
428.300	-11.316	0.100
428.400	-4.983	0.100
428.500	-5.113	0.100
428.600	-10.341	0.100
428.700	-0.809	0.100
428.800	-10.243	0.100
428.900	-6.554	0.100
429.000	-6.365	0.100
429.100	-23.956	0.100
429.200	-10.813	0.100
429.300	-10.669	0.100
429.400	-9.146	0.100
429.500	-17.138	0.100
429.600	-6.753	0.100
429.700	-3.810	0.100
429.800	-6.500	0.100
429.900	-12.724	0.100
430.000	-11.588	0.100
430.100	-7.722	0.100
430.200	-4.921	0.100
430.300	-11.239	0.100
430.400	-14.014	0.100
430.500	-9.397	0.100
430.600	-15.438	0.100
430.700	-21.796	0.100
430.800	-11.247	0.100
430.900	-8.760	0.100
431.000	-19.161	0.100
431.100	-13.739	0.100
431.200	-16.692	0.100
431.300	-9.991	0.100
431.400	-7.136	0.100
431.500	-20.258	0.100
431.600	-12.824	0.100
431.700	-17.588	0.100
431.800	-20.882	0.100
431.900	-10.977	0.100
432.000	-19.670	0.100
432.100	-4.439	0.100
432.200	-4.470	0.100
432.300	-15.328	0.100
432.400	-7.728	0.100
432.500	-13.728	0.100
432.600	-13.293	0.100
432.700	-18.705	0.100
432.800	-3.352	0.100
432.900	-3.225	0.100
433.000	-14.695	0.100
433.100	-14.949	0.100
433.200	-14.697	0.100
433.300	-12.076	0.100
433.400	-15.161	0.100
433.500	-25.503	0.100
433.600	-23.914	0.100
433.700	-5.039	0.100
433.800	-9.729	0.100
433.900	-22.288	0.100
434.000	-21.937	0.100
434.100	-15.729	0.100
434.200	-11.613	0.100
434.300	-6.036	0.100
434.400	-13.019	0.100
434.500	-22.987	0.100
434.600	-4.754	0.100
434.700	-11.135	0.100
434.800	-19.580	0.100
434.900	-20.524	0.100
435.000	-10.055	0.100
435.100	-12.877	0.100
435.200	-21.228	0.100
435.300	-20.085	0.100
435.400	-19.357	0.100
435.500	-0.416	0.100
435.600	-20.086	0.100
435.700	-23.037	0.100
435.800	-7.790	0.100
435.900	-9.354	0.100
436.000	-13.892	0.100
436.100	-14.231	0.100
436.200	-16.829	0.100
436.300	-13.223	0.100
436.400	-17.003	0.100
436.500	-8.019	0.100
436.600	-12.495	0.100
436.700	-19.062	0.100
436.800	-19.559	0.100
436.900	-16.757	0.100
437.000	-15.025	0.100
437.100	-20.472	0.100
437.200	-12.444	0.100
437.300	-9.497	0.100
437.400	-14.061	0.100
437.500	-20.945	0.100
437.600	-18.885	0.100
437.700	-14.545	0.100
437.800	-11.377	0.100
437.900	-28.698	0.100
438.000	-14.739	0.100
438.100	-21.780	0.100
438.200	-6.444	0.100
438.300	-20.036	0.100
438.400	-19.930	0.100
438.500	-20.730	0.100
438.600	-16.059	0.100
438.700	-27.651	0.100
438.800	-26.974	0.100
438.900	-14.568	0.100
439.000	-21.704	0.100
439.100	-12.963	0.100
439.200	-10.437	0.100
439.300	-7.285	0.100
439.400	-22.824	0.100
439.500	-25.986	0.100
439.600	-28.940	0.100
439.700	-9.451	0.100
439.800	-11.562	0.100
439.900	-11.808	0.100
440.000	-6.557	0.100
440.100	-10.572	0.100
440.200	-19.322	0.100
440.300	-14.971	0.100
440.400	-33.670	0.100
440.500	-17.758	0.100
440.600	-18.677	0.100
440.700	-16.418	0.100
440.800	-14.942	0.100
440.900	-4.354	0.100
441.000	-19.379	0.100
441.100	-9.907	0.100
441.200	-8.438	0.100
441.300	-16.870	0.100
441.400	-18.197	0.100
441.500	-5.862	0.100
441.600	-20.417	0.100
441.700	-23.924	0.100
441.800	-5.599	0.100
441.900	-22.505	0.100
442.000	-25.934	0.100
442.100	-12.329	0.100
442.200	-6.891	0.100
442.300	-16.089	0.100
442.400	-13.081	0.100
442.500	-19.390	0.100
442.600	-19.131	0.100
442.700	-20.787	0.100
442.800	-33.128	0.100
442.900	-30.582	0.100
443.000	-19.291	0.100
443.100	-20.032	0.100
443.200	-2.497	0.100
443.300	-7.630	0.100
443.400	-8.221	0.100
443.500	-9.008	0.100
443.600	-30.942	0.100
443.700	-19.357	0.100
443.800	-9.304	0.100
443.900	-16.114	0.100
444.000	-15.560	0.100
444.100	-23.784	0.100
444.200	-14.099	0.100
444.300	-21.243	0.100
444.400	-26.607	0.100
444.500	-25.249	0.100
444.600	-28.521	0.100
444.700	-9.003	0.100
444.800	-10.099	0.100
444.900	-11.181	0.100
445.000	-32.997	0.100
445.100	-19.503	0.100
445.200	-26.180	0.100
445.300	-12.417	0.100
445.400	-15.419	0.100
445.500	-23.768	0.099
445.600	-11.779	0.099
445.700	-13.939	0.099
445.800	-17.432	0.099
445.900	-10.324	0.099
446.000	-20.182	0.099
446.100	-27.662	0.099
446.200	-27.352	0.099
446.300	-10.511	0.099
446.400	-15.768	0.100
446.500	-11.199	0.099
446.600	-26.182	0.099
446.700	-12.180	0.099
446.800	-9.953	0.099
446.900	-18.562	0.099
447.000	-20.588	0.099
447.100	-11.785	0.099
447.200	-16.705	0.099
447.300	-21.085	0.100
447.400	-25.996	0.099
447.500	-26.173	0.099
447.600	-11.880	0.099
447.700	-10.960	0.099
447.800	-4.987	0.099
447.900	-20.553	0.099
448.000	-14.226	0.099
448.100	-12.817	0.099
448.200	-23.922	0.099
448.300	-23.866	0.099
448.400	-19.866	0.099
448.500	-15.644	0.099
448.600	-21.383	0.099
448.700	-16.172	0.099
448.800	-20.888	0.099
448.900	-12.980	0.099
449.000	-12.272	0.099
449.100	-11.892	0.099
449.200	-13.492	0.099
449.300	-12.810	0.099
449.400	-12.729	0.099
449.500	-16.053	0.099
449.600	-23.480	0.099
449.700	-12.830	0.099
449.800	-16.614	0.099
449.900	-22.540	0.099
450.000	-24.239	0.099
450.100	-30.038	0.099
450.200	-12.482	0.099
450.300	-10.337	0.099
450.400	-13.142	0.099
450.500	-14.237	0.099
450.600	-16.368	0.099
450.700	-25.356	0.099
450.800	-18.001	0.099
450.900	-23.825	0.099
451.000	-11.023	0.099
451.100	-26.124	0.099
451.200	-26.948	0.099
451.300	-21.524	0.099
451.400	-37.103	0.099
451.500	-20.469	0.099
451.600	-28.408	0.099
451.700	-16.305	0.099
451.800	-18.768	0.099
451.900	-15.584	0.099
452.000	-23.012	0.099
452.100	-15.808	0.099
452.200	-18.294	0.099
452.300	-18.755	0.099
452.400	-14.235	0.099
452.500	-17.458	0.099
452.600	-25.327	0.099
452.700	-28.314	0.099
452.800	-17.388	0.099
452.900	-19.565	0.099
453.000	-22.990	0.099
453.100	-36.642	0.099
453.200	-30.717	0.099
453.300	-24.515	0.099
453.400	-14.319	0.099
453.500	-11.383	0.099
453.600	-9.243	0.099
453.700	-16.415	0.099
453.800	-20.325	0.099
453.900	-25.129	0.099
454.000	-33.961	0.099
454.100	-16.526	0.099
454.200	-21.936	0.099
454.300	-15.398	0.099
454.400	-28.576	0.099
454.500	-17.376	0.099
454.600	-38.435	0.099
454.700	-17.912	0.099
454.800	-4.548	0.099
454.900	-17.988	0.099
455.000	-25.629	0.099
455.100	-21.572	0.099
455.200	-19.252	0.099
455.300	-27.269	0.099
455.400	-21.394	0.099
455.500	-22.318	0.099
455.600	-30.048	0.099
455.700	-31.898	0.099
455.800	-8.223	0.099
455.900	-28.303	0.099
456.000	-23.840	0.099
456.100	-18.042	0.099
456.200	-23.700	0.099
456.300	-30.179	0.099
456.400	-29.556	0.099
456.500	-16.132	0.099
456.600	-13.082	0.099
456.700	-22.734	0.099
456.800	-21.703	0.099
456.900	-14.923	0.099
457.000	-20.693	0.099
457.100	-24.302	0.099
457.200	-25.356	0.099
457.300	-21.631	0.099
457.400	-18.917	0.099
457.500	-15.327	0.099
457.600	-12.860	0.099
457.700	-19.678	0.099
457.800	-22.305	0.099
457.900	-24.597	0.099
458.000	-25.191	0.099
458.100	-27.826	0.099
458.200	-10.705	0.099
458.300	-15.600	0.099
458.400	-29.313	0.099
458.500	-30.246	0.099
458.600	-19.651	0.099
458.700	-22.748	0.099
458.800	-14.631	0.099
458.900	-27.166	0.099
459.000	-17.450	0.099
459.100	-14.545	0.099
459.200	-22.073	0.100
459.300	-21.229	0.099
459.400	-23.632	0.100
459.500	-17.049	0.100
459.600	-12.086	0.099
459.700	-29.445	0.100
459.800	-30.645	0.100
459.900	-19.585	0.100
460.000	-30.524	0.100
460.100	-21.007	0.100
460.200	-26.743	0.100
460.300	-18.914	0.100
460.400	-15.795	0.100
460.500	-19.453	0.100
460.600	-21.335	0.100
460.700	-30.049	0.100
460.800	-15.691	0.100
460.900	-13.103	0.100
461.000	-18.734	0.100
461.100	-22.783	0.100
461.200	-25.521	0.100
461.300	-18.197	0.100
461.400	-21.652	0.100
461.500	-14.280	0.100
461.600	-34.113	0.100
461.700	-31.138	0.100
461.800	-15.779	0.100
461.900	-17.698	0.100
462.000	-24.961	0.100
462.100	-26.092	0.100
462.200	-31.633	0.100
462.300	-18.421	0.100
462.400	-14.946	0.100
462.500	-22.122	0.100
462.600	-37.546	0.100
462.700	-22.012	0.100
462.800	-21.915	0.100
462.900	-14.546	0.100
463.000	-10.417	0.100
463.100	-27.451	0.100
463.200	-21.403	0.100
463.300	-17.685	0.100
463.400	-8.755	0.100
463.500	-29.287	0.100
463.600	-24.658	0.100
463.700	-23.182	0.100
463.800	-16.044	0.100
463.900	-16.179	0.100
464.000	-35.549	0.100
464.100	-11.204	0.100
464.200	-23.241	0.100
464.300	-10.129	0.100
464.400	-27.228	0.100
464.500	-36.702	0.100
464.600	-9.464	0.100
464.700	-30.459	0.100
464.800	-16.891	0.100
464.900	-17.205	0.100
465.000	-35.715	0.100
465.100	-25.911	0.100
465.200	-11.355	0.100
465.300	-23.530	0.100
465.400	-26.018	0.100
465.500	-16.079	0.100
465.600	-28.840	0.100
465.700	-30.836	0.100
465.800	-13.458	0.100
465.900	-35.351	0.100
466.000	-15.191	0.100
466.100	-20.199	0.100
466.200	-22.466	0.100
466.300	-25.882	0.100
466.400	-21.857	0.100
466.500	-23.313	0.100
466.600	-33.809	0.100
466.700	-35.889	0.100
466.800	-9.883	0.100
466.900	-19.202	0.100
467.000	-13.280	0.100
467.100	-15.603	0.100
467.200	-19.574	0.100
467.300	-24.003	0.100
467.400	-17.593	0.100
467.500	-21.713	0.100
467.600	-15.821	0.100
467.700	-27.580	0.100
467.800	-10.028	0.100
467.900	-19.816	0.100
468.000	-26.479	0.100
468.100	-26.547	0.100
468.200	-19.745	0.100
468.300	-28.463	0.100
468.400	-15.045	0.100
468.500	-21.972	0.100
468.600	-13.169	0.100
468.700	-19.395	0.100
468.800	-22.856	0.100
468.900	-34.723	0.100
469.000	-16.304	0.100
469.100	-7.591	0.100
469.200	-17.085	0.100
469.300	-19.303	0.100
469.400	-30.834	0.100
469.500	-14.572	0.100
469.600	-21.984	0.100
469.700	-25.685	0.100
469.800	-21.853	0.100
469.900	-25.105	0.100
470.000	-39.596	0.100
470.100	-14.777	0.100
470.200	-25.022	0.100
470.300	-28.893	0.100
470.400	-32.480	0.100
470.500	-15.135	0.100
470.600	-17.757	0.100
470.700	-20.838	0.100
470.800	-15.837	0.100
470.900	-28.954	0.100
471.000	-11.974	0.100
471.100	-21.372	0.100
471.200	-23.957	0.100
471.300	-25.433	0.100
471.400	-13.033	0.100
471.500	-19.581	0.100
471.600	-21.383	0.100
471.700	-25.220	0.100
471.800	-30.211	0.100
471.900	-24.707	0.100
472.000	-16.926	0.100
472.100	-6.232	0.100
472.200	-18.015	0.100
472.300	-21.298	0.100
472.400	-14.513	0.100
472.500	-17.009	0.100
472.600	-27.087	0.100
472.700	-16.851	0.100
472.800	-25.125	0.100
472.900	-22.624	0.100
473.000	-24.874	0.100
473.100	-17.908	0.100
473.200	-25.000	0.100
473.300	-35.003	0.100
473.400	-7.903	0.100
473.500	-23.160	0.100
473.600	-26.695	0.100
473.700	-23.380	0.100
473.800	-20.719	0.100
473.900	-25.412	0.100
474.000	-18.667	0.100
474.100	-20.797	0.100
474.200	-23.705	0.100
474.300	-32.035	0.100
474.400	-17.036	0.100
474.500	-24.808	0.100
474.600	-26.586	0.100
474.700	-21.836	0.100
474.800	-18.257	0.100
474.900	-25.808	0.100
475.000	-19.415	0.100
475.100	-33.178	0.100
475.200	-22.121	0.100
475.300	-36.843	0.100
475.400	-14.529	0.100
475.500	-30.843	0.100
475.600	-29.764	0.100
475.700	-25.707	0.100
475.800	-25.389	0.100
475.900	-27.253	0.100
476.000	-7.649	0.100
476.100	-23.873	0.100
476.200	-20.896	0.100
476.300	-32.779	0.100
476.400	-25.317	0.100
476.500	-14.328	0.100
476.600	-19.059	0.100
476.700	-21.846	0.100
476.800	-17.488	0.100
476.900	-27.462	0.100
477.000	-24.180	0.100
477.100	-24.982	0.100
477.200	-20.795	0.100
477.300	-15.929	0.100
477.400	-28.819	0.100
477.500	-35.497	0.100
477.600	-32.035	0.100
477.700	-17.806	0.100
477.800	-18.727	0.100
477.900	-10.719	0.100
478.000	-16.856	0.100
478.100	-31.665	0.100
478.200	-19.718	0.100
478.300	-27.972	0.100
478.400	-23.152	0.100
478.500	-25.628	0.100
478.600	-15.186	0.100
478.700	-13.679	0.100
478.800	-15.647	0.100
478.900	-14.245	0.100
479.000	-27.974	0.100
479.100	-17.815	0.100
479.200	-21.656	0.100
479.300	-29.156	0.100
479.400	-10.893	0.100
479.500	-17.964	0.100
479.600	-19.119	0.100
479.700	-22.022	0.100
479.800	-28.110	0.100
479.900	-37.628	0.100
480.000	-26.140	0.100
480.100	-22.514	0.100
480.200	-16.565	0.100
480.300	-20.298	0.100
480.400	-26.563	0.100
480.500	-23.232	0.100
480.600	-26.033	0.100
480.700	-21.942	0.100
480.800	-22.303	0.100
480.900	-19.596	0.100
481.000	-17.980	0.100
481.100	-22.679	0.100
481.200	-19.404	0.100
481.300	-1.856	0.100
481.400	2.136	0.100
481.500	-5.218	0.100
481.600	-1.207	0.100
481.700	-11.709	0.100
481.800	-5.903	0.100
481.900	-14.918	0.100
482.000	-13.289	0.100
482.100	2.747	0.100
482.200	1.267	0.100
482.300	3.082	0.100
482.400	-0.375	0.100
482.500	10.357	0.100
482.600	1.524	0.100
482.700	-4.477	0.100
482.800	-6.326	0.100
482.900	4.516	0.100
483.000	-11.404	0.100
483.100	8.347	0.100
483.200	5.229	0.100
483.300	9.419	0.100
483.400	0.221	0.100
483.500	3.095	0.100
483.600	0.601	0.100
483.700	-1.494	0.100
483.800	1.543	0.100
483.900	-1.932	0.100
484.000	4.949	0.100
484.100	-3.468	0.100
484.200	12.710	0.100
484.300	12.139	0.100
484.400	5.079	0.100
484.500	4.676	0.100
484.600	3.286	0.100
484.700	5.553	0.100
484.800	6.855	0.100
484.900	10.422	0.100
485.000	3.521	0.100
485.100	11.077	0.100
485.200	1.415	0.100
485.300	2.548	0.100
485.400	-10.267	0.100
485.500	0.234	0.100
485.600	7.173	0.100
485.700	10.363	0.100
485.800	3.078	0.100
485.900	11.787	0.100
486.000	9.297	0.100
486.100	-2.154	0.100
486.200	-6.602	0.100
486.300	-2.217	0.100
486.400	8.033	0.100
486.500	6.312	0.100
486.600	-0.205	0.100
486.700	2.537	0.100
486.800	6.735	0.100
486.900	6.211	0.100
487.000	-4.161	0.100
487.100	16.502	0.100
487.200	-0.048	0.100
487.300	13.884	0.100
487.400	-5.010	0.100
487.500	-7.713	0.100
487.600	3.049	0.100
487.700	17.269	0.100
487.800	-3.289	0.100
487.900	10.393	0.100
488.000	7.343	0.100
488.100	8.386	0.100
488.200	11.883	0.100
488.300	3.488	0.100
488.400	-5.352	0.100
488.500	4.489	0.100
488.600	10.687	0.100
488.700	9.826	0.100
488.800	4.788	0.100
488.900	7.658	0.100
489.000	14.088	0.100
489.100	16.031	0.100
489.200	13.834	0.100
489.300	1.818	0.100
489.400	-3.745	0.100
489.500	2.240	0.100
489.600	-1.322	0.100
489.700	2.560	0.100
489.800	0.689	0.100
489.900	16.730	0.100
490.000	6.044	0.100
490.100	5.051	0.100
490.200	19.488	0.100
490.300	16.342	0.100
490.400	12.708	0.100
490.500	1.422	0.100
490.600	7.586	0.100
490.700	18.055	0.100
490.800	13.203	0.100
490.900	1.782	0.100
491.000	8.541	0.100
491.100	0.313	0.100
491.200	7.521	0.100
491.300	18.292	0.100
491.400	5.094	0.100
491.500	12.281	0.100
491.600	24.127	0.100
491.700	3.675	0.100
491.800	6.217	0.100
491.900	0.102	0.100
492.000	12.326	0.100
492.100	13.185	0.100
492.200	2.996	0.100
492.300	20.263	0.100
492.400	18.029	0.100
492.500	4.323	0.100
492.600	6.790	0.100
492.700	14.416	0.100
492.800	10.484	0.100
492.900	2.361	0.100
493.000	3.169	0.100
493.100	27.632	0.100
493.200	21.585	0.100
493.300	17.966	0.100
493.400	3.450	0.100
493.500	27.982	0.100
493.600	14.279	0.100
493.700	5.155	0.100
493.800	18.535	0.100
493.900	15.549	0.100
494.000	4.032	0.100
494.100	18.189	0.100
494.200	17.339	0.100
494.300	10.268	0.100
494.400	6.662	0.100
494.500	15.505	0.100
494.600	11.233	0.100
494.700	13.636	0.100
494.800	8.703	0.100
494.900	1.775	0.100
495.000	15.688	0.100
495.100	14.849	0.100
495.200	19.608	0.100
495.300	11.417	0.100
495.400	15.981	0.100
495.500	17.695	0.100
495.600	9.136	0.100
495.700	11.096	0.100
495.800	12.175	0.100
495.900	20.296	0.100
496.000	20.030	0.100
496.100	11.352	0.100
496.200	14.025	0.100
496.300	7.753	0.100
496.400	13.960	0.100
496.500	34.031	0.100
496.600	13.425	0.100
496.700	16.314	0.100
496.800	24.251	0.100
496.900	19.019	0.100
497.000	27.023	0.100
497.100	22.265	0.100
497.200	26.742	0.100
497.300	23.673	0.100
497.400	4.232	0.100
497.500	15.130	0.100
497.600	20.426	0.100
497.700	13.687	0.100
497.800	20.678	0.100
497.900	17.448	0.100
498.000	16.996	0.100
498.100	7.215	0.100
498.200	17.790	0.100
498.300	21.463	0.100
498.400	6.838	0.100
498.500	17.030	0.100
498.600	32.415	0.100
498.700	15.812	0.100
498.800	20.494	0.100
498.900	20.458	0.100
499.000	31.818	0.100
499.100	36.847	0.100
499.200	9.537	0.100
499.300	13.921	0.100
499.400	5.355	0.100
499.500	8.436	0.100
499.600	16.256	0.100
499.700	23.036	0.100
499.800	20.172	0.100
499.900	11.868	0.100
500.000	14.563	0.100
500.100	26.253	0.100
500.200	18.274	0.100
500.300	15.188	0.100
500.400	20.977	0.100
500.500	22.365	0.100
500.600	15.671	0.100
500.700	16.852	0.100
500.800	14.227	0.100
500.900	31.113	0.099
501.000	24.869	0.099
501.100	27.993	0.099
501.200	20.587	0.099
501.300	34.422	0.099
501.400	4.478	0.099
501.500	15.217	0.099
501.600	7.806	0.099
501.700	30.849	0.099
501.800	10.569	0.099
501.900	22.477	0.099
502.000	20.123	0.099
502.100	19.505	0.099
502.200	26.328	0.099
502.300	18.647	0.099
502.400	26.055	0.099
502.500	18.317	0.099
502.600	21.465	0.099
502.700	35.968	0.099
502.800	24.038	0.099
502.900	21.828	0.099
503.000	26.733	0.099
503.100	4.098	0.099
503.200	22.597	0.099
503.300	21.036	0.099
503.400	23.527	0.099
503.500	17.139	0.099
503.600	13.088	0.099
503.700	28.213	0.099
503.800	18.109	0.099
503.900	14.644	0.099
504.000	30.120	0.099
504.100	18.741	0.099
504.200	28.377	0.099
504.300	9.092	0.099
504.400	26.080	0.099
504.500	38.724	0.099
504.600	29.272	0.099
504.700	23.459	0.099
504.800	27.887	0.099
504.900	18.679	0.099
505.000	18.065	0.099
505.100	28.400	0.099
505.200	30.738	0.099
505.300	15.589	0.099
505.400	21.911	0.099
505.500	15.406	0.099
505.600	18.546	0.099
505.700	22.062	0.099
505.800	25.381	0.099
505.900	21.920	0.099
506.000	25.446	0.099
506.100	13.187	0.099
506.200	20.543	0.099
506.300	22.761	0.099
506.400	28.777	0.099
506.500	9.640	0.099
506.600	12.947	0.099
506.700	25.798	0.099
506.800	29.376	0.099
506.900	22.503	0.099
507.000	25.524	0.099
507.100	17.741	0.099
507.200	22.303	0.099
507.300	29.435	0.099
507.400	19.462	0.099
507.500	33.362	0.099
507.600	16.564	0.099
507.700	27.344	0.099
507.800	29.373	0.099
507.900	27.564	0.099
508.000	28.780	0.099
508.100	22.053	0.099
508.200	33.163	0.099
508.300	36.415	0.099
508.400	24.017	0.099
508.500	31.479	0.099
508.600	28.579	0.099
508.700	21.897	0.099
508.800	30.344	0.099
508.900	24.238	0.099
509.000	28.310	0.099
509.100	24.555	0.099
509.200	24.564	0.099
509.300	26.811	0.099
509.400	17.371	0.099
509.500	22.458	0.099
509.600	10.134	0.099
509.700	15.839	0.099
509.800	26.566	0.099
509.900	37.626	0.099
510.000	33.193	0.099
510.100	26.547	0.099
510.200	28.451	0.099
510.300	39.726	0.099
510.400	35.510	0.099
510.500	41.599	0.099
510.600	37.637	0.099
510.700	20.513	0.099
510.800	18.891	0.099
510.900	26.964	0.099
511.000	27.019	0.099
511.100	34.937	0.099
511.200	38.878	0.099
511.300	40.579	0.099
511.400	19.711	0.099
511.500	20.392	0.099
511.600	18.396	0.099
511.700	25.443	0.099
511.800	30.785	0.099
511.900	33.791	0.099
512.000	13.155	0.099
512.100	45.939	0.099
512.200	36.086	0.099
512.300	28.465	0.099
512.400	20.925	0.099
512.500	32.284	0.099
512.600	40.710	0.099
512.700	32.345	0.099
512.800	16.567	0.099
512.900	37.019	0.099
513.000	41.116	0.099
513.100	36.553	0.099
513.200	37.002	0.099
513.300	36.756	0.099
513.400	25.733	0.099
513.500	28.147	0.099
513.600	22.780	0.099
513.700	24.899	0.099
513.800	39.710	0.099
513.900	35.567	0.099
514.000	35.646	0.099
514.100	37.747	0.099
514.200	39.011	0.099
514.300	38.175	0.099
514.400	35.223	0.099
514.500	37.093	0.099
514.600	29.189	0.099
514.700	33.617	0.099
514.800	34.165	0.099
514.900	23.599	0.099
515.000	36.471	0.099
515.100	51.212	0.099
515.200	36.896	0.099
515.300	31.614	0.099
515.400	23.537	0.099
515.500	16.405	0.099
515.600	38.775	0.099
515.700	29.729	0.099
515.800	27.444	0.099
515.900	41.691	0.099
516.000	37.992	0.099
516.100	30.162	0.099
516.200	34.843	0.099
516.300	38.051	0.099
516.400	47.225	0.099
516.500	39.172	0.099
516.600	34.790	0.099
516.700	38.598	0.099
516.800	42.557	0.099
516.900	33.872	0.099
517.000	33.407	0.099
517.100	27.769	0.099
517.200	49.263	0.099
517.300	34.516	0.099
517.400	30.208	0.099
517.500	42.912	0.099
517.600	38.144	0.099
517.700	28.679	0.099
517.800	43.721	0.099
517.900	42.472	0.099
518.000	25.472	0.099
518.100	43.351	0.100
518.200	44.312	0.100
518.300	46.534	0.100
518.400	46.049	0.100
518.500	41.299	0.100
518.600	36.389	0.100
518.700	40.508	0.100
518.800	37.484	0.100
518.900	40.117	0.100
519.000	37.273	0.100
519.100	25.152	0.100
519.200	43.439	0.100
519.300	47.130	0.100
519.400	35.350	0.100
519.500	38.261	0.100
519.600	37.294	0.100
519.700	42.609	0.100
519.800	43.998	0.100
519.900	33.719	0.100
520.000	49.987	0.100
520.100	36.091	0.100
520.200	31.906	0.100
520.300	43.587	0.100
520.400	43.688	0.100
520.500	35.047	0.100
520.600	32.068	0.100
520.700	36.816	0.100
520.800	44.453	0.100
520.900	40.639	0.100
521.000	33.286	0.100
521.100	46.316	0.100
521.200	54.822	0.100
521.300	53.083	0.100
521.400	41.890	0.100
521.500	46.182	0.100
521.600	39.994	0.100
521.700	39.032	0.100
521.800	30.353	0.100
521.900	36.891	0.100
522.000	39.535	0.100
522.100	37.588	0.100
522.200	42.170	0.100
522.300	44.150	0.100
522.400	42.810	0.100
522.500	31.524	0.100
522.600	33.283	0.100
522.700	47.260	0.100
522.800	35.639	0.100
522.900	44.216	0.100
523.000	53.214	0.100
523.100	47.124	0.100
523.200	38.361	0.100
523.300	38.768	0.100
523.400	40.769	0.100
523.500	36.156	0.100
523.600	38.999	0.100
523.700	39.396	0.100
523.800	47.852	0.100
523.900	37.758	0.100
524.000	47.971	0.100
524.100	34.750	0.100
524.200	29.300	0.100
524.300	51.397	0.100
524.400	45.126	0.100
524.500	57.241	0.100
524.600	50.181	0.100
524.700	30.999	0.100
524.800	47.298	0.100
524.900	42.144	0.100
525.000	54.631	0.100
525.100	34.967	0.100
525.200	41.818	0.100
525.300	41.298	0.100
525.400	41.012	0.100
525.500	32.862	0.100
525.600	56.922	0.100
525.700	47.437	0.100
525.800	56.247	0.100
525.900	43.178	0.100
526.000	46.176	0.100
526.100	46.396	0.100
526.200	45.284	0.100
526.300	44.904	0.100
526.400	38.189	0.100
526.500	40.505	0.100
526.600	49.790	0.100
526.700	43.929	0.100
526.800	43.842	0.100
526.900	38.976	0.100
527.000	52.064	0.100
527.100	43.630	0.100
527.200	54.706	0.100
527.300	42.431	0.100
527.400	52.670	0.100
527.500	43.045	0.100
527.600	51.008	0.100
527.700	46.795	0.100
527.800	50.120	0.100
527.900	37.877	0.100
528.000	42.359	0.100
528.100	55.280	0.100
528.200	46.436	0.100
528.300	45.836	0.100
528.400	47.933	0.100
528.500	54.486	0.100
528.600	50.682	0.100
528.700	44.208	0.100
528.800	44.023	0.100
528.900	47.722	0.100
529.000	45.724	0.100
529.100	42.409	0.100
529.200	41.505	0.100
529.300	42.703	0.100
529.400	54.168	0.100
529.500	40.844	0.100
529.600	45.478	0.100
529.700	37.548	0.100
529.800	56.154	0.100
529.900	55.570	0.100
530.000	38.313	0.100
530.100	52.782	0.100
530.200	39.977	0.100
530.300	42.224	0.100
530.400	50.085	0.100
530.500	50.162	0.100
530.600	38.677	0.100
530.700	42.726	0.100
530.800	48.810	0.100
530.900	43.282	0.100
531.000	46.414	0.100
531.100	47.694	0.100
531.200	36.630	0.100
531.300	60.937	0.100
531.400	55.905	0.100
531.500	37.961	0.100
531.600	44.730	0.100
531.700	41.342	0.100
531.800	66.453	0.100
531.900	54.933	0.100
532.000	48.048	0.100
532.100	39.533	0.100
532.200	55.807	0.100
532.300	49.756	0.100
532.400	52.519	0.100
532.500	52.565	0.100
532.600	53.111	0.100
532.700	48.098	0.100
532.800	43.616	0.100
532.900	44.475	0.100
533.000	49.991	0.100
533.100	48.982	0.100
533.200	44.602	0.100
533.300	41.444	0.100
533.400	39.578	0.100
533.500	53.408	0.100
533.600	58.874	0.100
533.700	44.240	0.100
533.800	40.857	0.100
533.900	48.671	0.100
534.000	48.172	0.100
534.100	39.848	0.100
534.200	59.174	0.100
534.300	63.144	0.100
534.400	46.434	0.100
534.500	45.008	0.100
534.600	48.185	0.100
534.700	46.025	0.100
534.800	35.512	0.100
534.900	55.170	0.100
535.000	54.180	0.100
535.100	60.508	0.100
535.200	63.830	0.100
535.300	54.966	0.100
535.400	42.078	0.100
535.500	37.254	0.100
535.600	57.918	0.100
535.700	54.491	0.100
535.800	61.121	0.100
535.900	51.220	0.100
536.000	40.527	0.100
536.100	48.987	0.100
536.200	52.391	0.100
536.300	58.216	0.100
536.400	48.838	0.100
536.500	50.795	0.100
536.600	43.113	0.100
536.700	55.398	0.100
536.800	44.177	0.100
536.900	37.489	0.100
537.000	35.591	0.100
537.100	52.175	0.100
537.200	48.476	0.100
537.300	64.121	0.100
537.400	44.922	0.100
537.500	47.926	0.100
537.600	48.050	0.100
537.700	52.149	0.100
537.800	51.610	0.100
537.900	54.188	0.100
538.000	53.837	0.100
538.100	47.022	0.100
538.200	51.797	0.100
538.300	54.066	0.100
538.400	37.868	0.100
538.500	45.144	0.100
538.600	50.263	0.100
538.700	53.897	0.100
538.800	41.080	0.100
538.900	54.467	0.100
539.000	50.876	0.100
539.100	56.633	0.100
539.200	60.241	0.100
539.300	45.408	0.100
539.400	52.571	0.100
539.500	50.900	0.100
539.600	44.236	0.100
539.700	48.881	0.100
539.800	42.533	0.100
539.900	46.392	0.100
540.000	41.502	0.100
540.100	50.165	0.100
540.200	66.534	0.100
540.300	54.099	0.100
540.400	55.109	0.100
540.500	56.387	0.100
540.600	44.320	0.100
540.700	51.704	0.100
540.800	45.756	0.100
540.900	45.993	0.100
541.000	42.151	0.100
541.100	38.808	0.100
541.200	50.016	0.100
541.300	45.236	0.100
541.400	31.251	0.100
541.500	31.183	0.100
541.600	44.973	0.100
541.700	45.529	0.100
541.800	30.298	0.100
541.900	30.326	0.100
542.000	27.783	0.100
542.100	35.883	0.100
542.200	23.198	0.100
542.300	45.122	0.100
542.400	34.167	0.100
542.500	36.376	0.100
542.600	31.720	0.100
542.700	26.173	0.100
542.800	31.900	0.100
542.900	34.681	0.100
543.000	34.056	0.100
543.100	28.684	0.100
543.200	27.388	0.100
543.300	23.057	0.100
543.400	23.413	0.100
543.500	38.601	0.100
543.600	30.449	0.100
543.700	30.167	0.100
543.800	25.363	0.100
543.900	27.317	0.100
544.000	29.177	0.100
544.100	35.229	0.100
544.200	20.242	0.100
544.300	19.301	0.100
544.400	25.232	0.100
544.500	22.017	0.100
544.600	28.177	0.100
544.700	28.147	0.100
544.800	22.283	0.100
544.900	29.116	0.100
545.000	20.105	0.100
545.100	15.821	0.100
545.200	26.239	0.100
545.300	33.131	0.100
545.400	26.296	0.100
545.500	24.343	0.100
545.600	35.527	0.100
545.700	21.500	0.100
545.800	19.414	0.100
545.900	15.069	0.100
546.000	26.634	0.100
546.100	25.673	0.100
546.200	19.063	0.100
546.300	17.972	0.100
546.400	25.099	0.100
546.500	19.311	0.100
546.600	39.026	0.100
546.700	22.001	0.100
546.800	10.513	0.100
546.900	18.151	0.100
547.000	16.654	0.100
547.100	17.019	0.100
547.200	13.119	0.100
547.300	30.031	0.100
547.400	39.901	0.100
547.500	20.315	0.100
547.600	20.679	0.100
547.700	18.544	0.100
547.800	20.658	0.100
547.900	22.778	0.100
548.000	10.287	0.100
548.100	20.865	0.100
548.200	22.393	0.100
548.300	29.996	0.100
548.400	22.393	0.100
548.500	4.457	0.100
548.600	21.250	0.100
548.700	17.313	0.100
548.800	26.925	0.100
548.900	26.853	0.100
549.000	17.881	0.100
549.100	33.162	0.100
549.200	32.495	0.100
549.300	20.951	0.100
549.400	27.306	0.100
549.500	14.234	0.100
549.600	22.709	0.100
549.700	16.826	0.100
549.800	20.843	0.100
549.900	11.688	0.100
550.000	5.965	0.100
550.100	26.205	0.100
550.200	25.531	0.100
550.300	20.495	0.100
550.400	15.285	0.100
550.500	22.275	0.100
550.600	14.815	0.100
550.700	24.046	0.100
550.800	5.629	0.100
550.900	17.920	0.100
551.000	12.198	0.100
551.100	21.781	0.100
551.200	15.936	0.100
551.300	18.263	0.100
551.400	7.430	0.100
551.500	21.536	0.100
551.600	26.502	0.100
551.700	17.328	0.100
551.800	13.792	0.100
551.900	22.154	0.100
552.000	13.118	0.100
552.100	6.834	0.100
552.200	17.145	0.100
552.300	6.138	0.100
552.400	10.609	0.100
552.500	25.718	0.100
552.600	24.658	0.100
552.700	29.944	0.100
552.800	10.518	0.100
552.900	16.981	0.100
553.000	4.471	0.100
553.100	9.077	0.100
553.200	15.416	0.100
553.300	-1.704	0.100
553.400	4.977	0.100
553.500	22.979	0.100
553.600	11.923	0.100
553.700	12.824	0.100
553.800	1.429	0.100
553.900	9.215	0.100
554.000	15.524	0.100
554.100	13.842	0.100
554.200	10.086	0.100
554.300	16.849	0.100
554.400	17.760	0.100
554.500	16.162	0.100
554.600	5.912	0.100
554.700	15.396	0.100
554.800	9.254	0.100
554.900	14.083	0.100
555.000	16.848	0.100
555.100	9.003	0.100
555.200	13.398	0.100
555.300	2.426	0.100
555.400	1.522	0.100
555.500	19.938	0.100
555.600	19.101	0.100
555.700	11.797	0.100
555.800	15.011	0.100
555.900	13.033	0.100
556.000	14.213	0.100
556.100	11.098	0.100
556.200	8.203	0.100
556.300	3.231	0.100
556.400	-2.678	0.100
556.500	8.635	0.100
556.600	12.959	0.100
556.700	7.879	0.100
556.800	4.909	0.100
556.900	5.146	0.100
557.000	8.075	0.100
557.100	-0.713	0.100
557.200	13.865	0.100
557.300	15.305	0.100
557.400	8.608	0.100
557.500	7.212	0.100
557.600	10.898	0.100
557.700	-1.110	0.100
557.800	8.260	0.100
557.900	2.774	0.100
558.000	14.328	0.100
558.100	5.795	0.100
558.200	8.203	0.100
558.300	2.498	0.100
558.400	3.735	0.100
558.500	17.137	0.100
558.600	-0.475	0.100
558.700	11.298	0.100
558.800	7.300	0.100
558.900	5.066	0.100
559.000	9.500	0.100
559.100	10.342	0.100
559.200	-5.423	0.100
559.300	-1.624	0.100
559.400	12.428	0.100
559.500	12.380	0.100
559.600	2.670	0.100
559.700	17.507	0.100
559.800	-0.232	0.100
559.900	8.723	0.100
560.000	4.372	0.100
560.100	9.633	0.100
560.200	9.223	0.100
560.300	6.256	0.100
560.400	-5.392	0.100
560.500	-3.148	0.100
560.600	13.911	0.100
560.700	14.872	0.100
560.800	13.535	0.100
560.900	0.815	0.100
561.000	8.564	0.100
561.100	3.307	0.100
561.200	5.303	0.100
561.300	-5.063	0.100
561.400	3.651	0.100
561.500	4.950	0.100
561.600	-1.645	0.100
561.700	0.490	0.100
561.800	-3.530	0.100
561.900	0.321	0.100
562.000	9.744	0.100
562.100	4.276	0.100
562.200	-3.810	0.100
562.300	12.094	0.100
562.400	-9.963	0.100
562.500	-2.217	0.100
562.600	6.381	0.100
562.700	-6.435	0.100
562.800	3.634	0.100
562.900	-7.466	0.100
563.000	18.794	0.100
563.100	2.971	0.100
563.200	4.028	0.100
563.300	9.113	0.100
563.400	-13.309	0.100
563.500	1.866	0.100
563.600	-1.684	0.100
563.700	-0.467	0.100
563.800	7.284	0.100
563.900	-0.600	0.100
564.000	-1.170	0.100
564.100	3.404	0.100
564.200	2.445	0.100
564.300	8.548	0.100
564.400	-4.253	0.100
564.500	6.108	0.100
564.600	-1.574	0.100
564.700	1.719	0.100
564.800	-0.417	0.100
564.900	-13.746	0.100
565.000	0.451	0.100
565.100	8.525	0.100
565.200	13.797	0.100
565.300	14.338	0.100
565.400	8.119	0.100
565.500	3.954	0.100
565.600	-2.483	0.100
565.700	4.073	0.100
565.800	-11.744	0.100
565.900	0.514	0.100
566.000	-0.769	0.100
566.100	-3.497	0.100
566.200	-13.559	0.100
566.300	-5.287	0.100
566.400	8.799	0.100
566.500	15.266	0.100
566.600	0.878	0.100
566.700	0.518	0.100
566.800	-6.201	0.100
566.900	-3.343	0.100
567.000	-5.853	0.100
567.100	-0.087	0.100
567.200	9.354	0.100
567.300	-2.463	0.100
567.400	-5.381	0.100
567.500	-2.332	0.100
567.600	6.366	0.100
567.700	-10.192	0.100
567.800	-14.857	0.100
567.900	1.263	0.100
568.000	-5.518	0.100
568.100	3.522	0.100
568.200	2.228	0.100
568.300	-1.571	0.100
568.400	-12.143	0.100
568.500	-3.614	0.100
568.600	-7.798	0.100
568.700	14.864	0.100
568.800	3.332	0.100
568.900	3.650	0.100
569.000	-14.723	0.100
569.100	-7.424	0.100
569.200	-6.116	0.100
569.300	3.533	0.100
569.400	5.699	0.100
569.500	5.531	0.100
569.600	-5.675	0.100
569.700	-6.783	0.100
569.800	-0.040	0.100
569.900	-0.705	0.100
570.000	-11.600	0.100
570.100	-9.053	0.100
570.200	-4.084	0.100
570.300	-8.918	0.100
570.400	-10.261	0.100
570.500	-5.930	0.100
570.600	-7.738	0.100
570.700	-18.590	0.100
570.800	-7.521	0.100
570.900	-0.864	0.100
571.000	-2.912	0.100
571.100	-9.636	0.100
571.200	-11.257	0.100
571.300	-1.746	0.100
571.400	-8.888	0.100
571.500	-0.534	0.100
571.600	-2.822	0.100
571.700	-17.413	0.100
571.800	-0.876	0.100
571.900	-7.263	0.100
572.000	-8.593	0.100
572.100	-1.541	0.100
572.200	-10.235	0.100
572.300	3.333	0.100
572.400	0.931	0.100
572.500	-12.176	0.100
572.600	-4.992	0.100
572.700	-1.483	0.100
572.800	-1.832	0.100
572.900	-11.898	0.100
573.000	-26.205	0.100
573.100	-4.453	0.100
573.200	-12.443	0.100
573.300	-5.643	0.100
573.400	-0.924	0.100
573.500	-2.685	0.100
573.600	-0.331	0.100
573.700	-17.362	0.100
573.800	-19.169	0.100
573.900	-12.237	0.100
574.000	-2.315	0.100
574.100	1.912	0.100
574.200	-6.717	0.100
574.300	-4.666	0.100
574.400	-8.087	0.100
574.500	-12.978	0.100
574.600	-9.388	0.100
574.700	-14.968	0.100
574.800	-9.629	0.100
574.900	-5.517	0.100
575.000	-16.431	0.100
575.100	-23.874	0.100
575.200	-10.218	0.100
575.300	1.216	0.100
575.400	-15.904	0.100
575.500	-8.475	0.100
575.600	-6.703	0.100
575.700	-13.086	0.100
575.800	-1.773	0.100
575.900	-5.909	0.100
576.000	-6.047	0.100
576.100	-9.311	0.100
576.200	-9.110	0.100
576.300	-11.855	0.100
576.400	-5.795	0.100
576.500	-5.475	0.100
576.600	-11.010	0.100
576.700	-11.741	0.100
576.800	-24.400	0.100
576.900	-14.556	0.100
577.000	-9.391	0.100
577.100	-12.382	0.100
577.200	-14.112	0.100
577.300	-12.378	0.100
577.400	-13.663	0.100
577.500	-9.981	0.100
577.600	-0.437	0.100
577.700	4.785	0.100
577.800	-16.319	0.100
577.900	-6.056	0.100
578.000	-13.839	0.100
578.100	-0.833	0.100
578.200	-10.609	0.100
578.300	-20.119	0.100
578.400	-11.021	0.100
578.500	-3.344	0.100
578.600	-15.796	0.100
578.700	-17.124	0.100
578.800	-13.737	0.100
578.900	-12.853	0.100
579.000	2.071	0.100
579.100	-7.306	0.100
579.200	-15.803	0.100
579.300	-14.696	0.100
579.400	-13.867	0.100
579.500	-12.361	0.100
579.600	-8.110	0.100
579.700	-18.643	0.100
579.800	-8.638	0.100
579.900	-15.823	0.100
580.000	-14.031	0.100
580.100	-13.257	0.100
580.200	-9.861	0.100
580.300	-23.473	0.100
580.400	-8.071	0.100
580.500	-15.310	0.100
580.600	-11.942	0.100
580.700	-7.634	0.100
580.800	-8.901	0.100
580.900	-15.667	0.100
581.000	-11.004	0.100
581.100	-15.777	0.100
581.200	-10.237	0.100
581.300	-11.296	0.100
581.400	-24.456	0.100
581.500	-7.726	0.100
581.600	-8.587	0.100
581.700	-13.081	0.100
581.800	-12.570	0.100
581.900	-14.828	0.100
582.000	-14.066	0.100
582.100	-13.538	0.100
582.200	-20.846	0.100
582.300	-8.537	0.100
582.400	-16.317	0.100
582.500	-9.755	0.100
582.600	-19.930	0.100
582.700	-18.138	0.100
582.800	-22.163	0.100
582.900	-18.340	0.100
583.000	-12.369	0.100
583.100	-31.694	0.100
583.200	0.200	0.100
583.300	1.104	0.100
583.400	0.295	0.100
583.500	-7.886	0.100
583.600	-17.124	0.100
583.700	-16.079	0.100
583.800	-14.483	0.100
583.900	-15.774	0.100
584.000	-5.674	0.100
584.100	-15.775	0.100
584.200	-21.375	0.100
584.300	-21.156	0.100
584.400	-6.557	0.100
584.500	-14.343	0.100
584.600	-13.482	0.100
584.700	-12.212	0.100
584.800	-14.834	0.100
584.900	-22.156	0.100
585.000	-24.574	0.100
585.100	-17.874	0.100
585.200	-20.671	0.100
585.300	-14.808	0.100
585.400	-17.304	0.100
585.500	-16.016	0.100
585.600	-17.918	0.100
585.700	-19.525	0.100
585.800	-8.593	0.100
585.900	-14.706	0.100
586.000	-14.432	0.100
586.100	-23.815	0.100
586.200	-17.684	0.100
586.300	-22.816	0.100
586.400	-12.675	0.100
586.500	-25.340	0.100
586.600	-28.795	0.100
586.700	-22.193	0.100
586.800	-14.690	0.100
586.900	-17.963	0.100
587.000	-12.645	0.100
587.100	-14.471	0.100
587.200	-21.885	0.100
587.300	-20.181	0.100
587.400	-14.078	0.100
587.500	-28.747	0.100
587.600	-24.368	0.100
587.700	-13.051	0.100
587.800	-20.149	0.100
587.900	-9.170	0.100
588.000	-32.024	0.100
588.100	-19.151	0.100
588.200	-14.984	0.100
588.300	-19.448	0.100
588.400	-27.694	0.100
588.500	-5.667	0.100
588.600	-2.844	0.100
588.700	-17.985	0.100
588.800	-17.738	0.100
588.900	-18.689	0.100
589.000	-27.622	0.100
589.100	-11.116	0.100
589.200	-25.298	0.100
589.300	-16.255	0.100
589.400	-21.034	0.100
589.500	-27.773	0.100
589.600	-14.178	0.100
589.700	-14.295	0.100
589.800	-24.708	0.100
589.900	-16.374	0.100
590.000	-15.937	0.100
590.100	-20.367	0.100
590.200	-8.023	0.100
590.300	-8.620	0.100
590.400	-20.716	0.100
590.500	-13.932	0.100
590.600	-13.050	0.100
590.700	-22.405	0.100
590.800	-17.404	0.100
590.900	-9.581	0.100
591.000	-11.563	0.100
591.100	-25.730	0.100
591.200	-25.020	0.100
591.300	-22.531	0.100
591.400	-18.451	0.100
591.500	-20.778	0.100
591.600	-19.956	0.100
591.700	-17.499	0.100
591.800	-19.856	0.100
591.900	-15.144	0.100
592.000	-21.091	0.100
592.100	-20.484	0.100
592.200	-23.405	0.100
592.300	-26.551	0.100
592.400	-25.540	0.100
592.500	-33.321	0.100
592.600	-19.138	0.100
592.700	-13.876	0.100
592.800	-10.757	0.100
592.900	-9.755	0.100
593.000	-17.412	0.100
593.100	-9.718	0.100
593.200	-35.467	0.100
593.300	-15.496	0.100
593.400	-13.015	0.100
593.500	-11.734	0.100
593.600	-25.712	0.100
593.700	-27.383	0.100
593.800	-20.819	0.100
593.900	-24.306	0.100
594.000	-18.491	0.100
594.100	-10.747	0.100
594.200	-13.297	0.100
594.300	-25.610	0.100
594.400	-15.285	0.100
594.500	-12.847	0.100
594.600	-21.965	0.100
594.700	-23.784	0.100
594.800	-16.099	0.100
594.900	-17.845	0.100
595.000	-18.250	0.100
595.100	-17.238	0.100
595.200	-16.054	0.100
595.300	-17.615	0.100
595.400	-13.743	0.100
595.500	-29.445	0.100
595.600	-15.782	0.100
595.700	-15.905	0.100
595.800	-23.499	0.100
595.900	-25.658	0.100
596.000	-22.347	0.100
596.100	-21.650	0.100
596.200	-21.278	0.100
596.300	-19.837	0.100
596.400	-8.610	0.100
596.500	-15.446	0.100
596.600	-27.689	0.100
596.700	-30.870	0.100
596.800	-23.557	0.100
596.900	-13.227	0.100
597.000	-12.495	0.100
597.100	-11.578	0.100
597.200	-18.891	0.100
597.300	-17.899	0.100
597.400	-11.480	0.100
597.500	-19.105	0.100
597.600	-33.239	0.100
597.700	-33.494	0.100
597.800	-20.592	0.100
597.900	-24.516	0.100
598.000	-15.081	0.100
598.100	-10.518	0.100
598.200	-29.998	0.100
598.300	-10.570	0.100
598.400	-26.754	0.100
598.500	-22.055	0.100
598.600	-18.176	0.100
598.700	-13.876	0.100
598.800	-22.868	0.100
598.900	-21.486	0.100
599.000	-12.169	0.100
599.100	-19.770	0.100
599.200	-23.376	0.100
599.300	-26.364	0.100
599.400	-19.557	0.100
599.500	-12.586	0.100
599.600	-35.264	0.100
599.700	-21.983	0.100
599.800	-17.577	0.100
599.900	-25.977	0.100
600.000	-26.186	0.100
600.100	-15.233	0.100
600.200	-19.902	0.100
600.300	-27.382	0.100
600.400	-14.920	0.100
600.500	-23.708	0.100
600.600	-25.582	0.100
600.700	-26.371	0.100
600.800	-14.831	0.100
600.900	-26.004	0.100
601.000	-28.389	0.100
601.100	-16.672	0.100
601.200	-27.536	0.100
601.300	-21.750	0.100
601.400	-17.309	0.100
601.500	-19.950	0.100
601.600	-28.294	0.100
601.700	-21.595	0.100
601.800	-22.069	0.100
601.900	-7.387	0.100
602.000	-16.950	0.100
602.100	-11.493	0.100
602.200	-18.672	0.100
602.300	-24.469	0.100
602.400	-18.116	0.100
602.500	-33.655	0.100
602.600	-20.496	0.100
602.700	-16.489	0.100
602.800	-27.120	0.100
602.900	-22.358	0.100
603.000	-29.009	0.100
603.100	-17.464	0.100
603.200	-25.912	0.100
603.300	-20.378	0.100
603.400	-18.838	0.100
603.500	-17.251	0.100
603.600	-30.287	0.100
603.700	-29.105	0.100
603.800	-22.302	0.100
603.900	-12.580	0.100
604.000	-22.844	0.100
604.100	-18.503	0.100
604.200	-13.494	0.100
604.300	-20.920	0.100
604.400	-25.760	0.100
604.500	-24.261	0.100
604.600	-14.636	0.100
604.700	-21.189	0.100
604.800	-20.090	0.100
604.900	-34.874	0.100
605.000	-29.511	0.100
605.100	-26.108	0.100
605.200	-12.570	0.100
605.300	-14.616	0.100
605.400	-23.280	0.100
605.500	-21.446	0.100
605.600	-18.305	0.100
605.700	-13.325	0.100
605.800	-25.835	0.100
605.900	-40.527	0.100
606.000	-12.898	0.100
606.100	-28.550	0.100
606.200	-20.629	0.100
606.300	-21.161	0.100
606.400	-16.248	0.100
606.500	-25.977	0.100
606.600	-16.472	0.100
606.700	-11.777	0.100
606.800	-27.905	0.100
606.900	-35.459	0.100
607.000	-10.685	0.100
607.100	-19.732	0.100
607.200	-25.972	0.100
607.300	-17.500	0.100
607.400	-20.626	0.100
607.500	-17.098	0.100
607.600	-14.862	0.100
607.700	-25.373	0.100
607.800	-35.475	0.100
607.900	-24.162	0.100
608.000	-24.616	0.100
608.100	-28.683	0.100
608.200	-20.927	0.100
608.300	-25.892	0.100
608.400	-10.481	0.100
608.500	-26.055	0.100
608.600	-11.985	0.100
608.700	-26.853	0.100
608.800	-27.914	0.100
608.900	-25.667	0.100
609.000	-28.001	0.100
609.100	-16.021	0.100
609.200	-24.974	0.100
609.300	-21.463	0.100
609.400	-28.174	0.100
609.500	-29.264	0.100
609.600	-20.611	0.100
609.700	-15.823	0.100
609.800	-25.136	0.100
609.900	-18.939	0.100
610.000	-29.561	0.100
610.100	-17.870	0.100
610.200	-19.863	0.100
610.300	-15.779	0.100
610.400	-18.336	0.100
610.500	-26.086	0.100
610.600	-17.414	0.100
610.700	-20.030	0.100
610.800	-21.229	0.100
610.900	-21.717	0.100
611.000	-18.732	0.100
611.100	-21.105	0.100
611.200	-33.100	0.100
611.300	-19.040	0.100
611.400	-24.024	0.100
611.500	-29.746	0.100
611.600	-22.013	0.100
611.700	-24.939	0.100
611.800	-25.037	0.100
611.900	-9.966	0.100
612.000	-32.673	0.100
612.100	-27.170	0.100
612.200	-15.154	0.100
612.300	-10.758	0.100
612.400	-10.938	0.100
612.500	-30.046	0.100
612.600	-28.905	0.100
612.700	-24.181	0.100
612.800	-21.754	0.100
612.900	-35.681	0.100
613.000	-12.609	0.100
613.100	-7.800	0.100
613.200	-13.055	0.100
613.300	-12.417	0.100
613.400	-28.800	0.100
613.500	-23.361	0.100
613.600	-15.555	0.100
613.700	-14.057	0.100
613.800	-23.822	0.100
613.900	-17.434	0.100
614.000	-19.226	0.100
614.100	-18.175	0.100
614.200	-24.100	0.100
614.300	-29.612	0.100
614.400	-17.878	0.100
614.500	-31.910	0.100
614.600	-27.315	0.100
614.700	-29.286	0.100
614.800	-35.780	0.100
614.900	-23.412	0.100
615.000	-25.524	0.100
615.100	-15.686	0.100
615.200	-24.632	0.100
615.300	-18.882	0.100
615.400	-24.687	0.100
615.500	-15.584	0.100
615.600	-32.628	0.100
615.700	-25.044	0.100
615.800	-23.975	0.100
615.900	-10.144	0.100
616.000	-22.663	0.100
616.100	-27.460	0.100
616.200	-27.470	0.100
616.300	-16.792	0.100
616.400	-8.819	0.100
616.500	-21.347	0.100
616.600	-23.063	0.100
616.700	-20.777	0.100
616.800	-28.065	0.100
616.900	-28.614	0.100
617.000	-13.509	0.100
617.100	-22.670	0.100
617.200	-23.505	0.100
617.300	-24.990	0.100
617.400	-12.993	0.100
617.500	-21.158	0.100
617.600	-16.686	0.100
617.700	-16.856	0.100
617.800	-22.017	0.100
617.900	-26.221	0.100
618.000	-32.182	0.100
618.100	-24.553	0.100
618.200	-21.346	0.100
618.300	-15.699	0.100
618.400	-20.736	0.100
618.500	-22.534	0.100
618.600	-19.255	0.100
618.700	-24.442	0.100
618.800	-25.258	0.100
618.900	-24.745	0.100
619.000	-21.219	0.100
619.100	-23.025	0.100
619.200	-27.415	0.100
619.300	-29.139	0.100
619.400	-17.526	0.100
619.500	-14.145	0.100
619.600	-33.802	0.100
619.700	-10.524	0.100
619.800	-27.071	0.100
619.900	-27.937	0.100
620.000	-7.975	0.100
620.100	-15.828	0.100
620.200	-26.681	0.100
620.300	-27.232	0.100
620.400	-25.563	0.100
620.500	-19.859	0.100
620.600	-25.074	0.100
620.700	-22.669	0.100
620.800	-16.947	0.100
620.900	-23.664	0.100
621.000	-31.956	0.100
621.100	-31.991	0.100
621.200	-15.093	0.100
621.300	-18.502	0.100
621.400	-20.826	0.100
621.500	-23.201	0.100
621.600	-31.082	0.100
621.700	-27.860	0.100
621.800	-33.655	0.100
621.900	-23.598	0.100
622.000	-20.424	0.100
622.100	-19.211	0.100
622.200	-21.968	0.100
622.300	-18.145	0.100
622.400	-19.761	0.100
622.500	-31.198	0.100
622.600	-18.213	0.100
622.700	-30.192	0.100
622.800	-27.042	0.100
622.900	-20.851	0.100
623.000	-28.160	0.100
623.100	-24.631	0.100
623.200	-26.784	0.100
623.300	-31.280	0.100
623.400	-10.132	0.100
623.500	-23.501	0.100
623.600	-22.118	0.100
623.700	-32.857	0.100
623.800	-30.754	0.100
623.900	-29.554	0.100
624.000	-12.604	0.100
624.100	-17.810	0.100
624.200	-21.539	0.100
624.300	-22.450	0.100
624.400	-15.768	0.100
624.500	-16.403	0.100
624.600	-25.100	0.100
624.700	-21.649	0.100
624.800	-26.681	0.100
624.900	-17.757	0.100
625.000	-33.444	0.100
625.100	-32.719	0.100
625.200	-26.514	0.100
625.300	-33.068	0.100
625.400	-22.493	0.100
625.500	-15.904	0.100
625.600	-19.205	0.100
625.700	-36.447	0.100
625.800	-31.250	0.100
625.900	-19.550	0.100
626.000	-36.271	0.100
626.100	-23.826	0.100
626.200	-19.677	0.100
626.300	-23.311	0.100
626.400	-15.846	0.100
626.500	-22.955	0.100
626.600	-28.847	0.100
626.700	-24.261	0.100
626.800	-34.057	0.100
626.900	-12.635	0.100
627.000	-25.243	0.100
627.100	-32.158	0.100
627.200	-28.599	0.100
627.300	-22.827	0.100
627.400	-24.674	0.100
627.500	-21.907	0.100
627.600	-19.271	0.100
627.700	-20.662	0.100
627.800	-27.630	0.100
627.900	-21.304	0.100
628.000	-25.853	0.100
628.100	-20.522	0.100
628.200	-22.722	0.100
628.300	-17.979	0.100
628.400	-20.054	0.100
628.500	-22.510	0.100
628.600	-24.927	0.100
628.700	-26.843	0.100
628.800	-22.293	0.100
628.900	-15.974	0.100
629.000	-20.616	0.100
629.100	-19.501	0.100
629.200	-41.342	0.100
629.300	-23.890	0.100
629.400	-21.626	0.100
629.500	-34.037	0.100
629.600	-36.174	0.100
629.700	-26.591	0.100
629.800	-24.236	0.100
629.900	-19.677	0.100
630.000	-14.845	0.100
630.100	-30.098	0.100
630.200	-20.203	0.100
630.300	-18.044	0.100
630.400	-27.563	0.100
630.500	-14.068	0.100
630.600	-20.057	0.100
630.700	-32.836	0.100
630.800	-18.112	0.100
630.900	-13.279	0.100
631.000	-17.682	0.100
631.100	-8.964	0.100
631.200	-10.195	0.100
631.300	-4.535	0.100
631.400	-8.563	0.100
631.500	-7.363	0.100
631.600	-13.727	0.100
631.700	-6.810	0.100
631.800	-7.313	0.100
631.900	-6.320	0.100
632.000	-7.865	0.100
632.100	2.035	0.100
632.200	-5.951	0.100
632.300	-9.461	0.100
632.400	-3.128	0.100
632.500	0.020	0.100
632.600	1.156	0.100
632.700	-9.669	0.100
632.800	-6.919	0.100
632.900	4.566	0.100
633.000	-3.186	0.100
633.100	-5.431	0.100
633.200	-4.715	0.100
633.300	5.216	0.100
633.400	-3.269	0.100
633.500	-0.124	0.100
633.600	6.882	0.100
633.700	3.744	0.100
633.800	10.136	0.100
633.900	16.617	0.100
634.000	1.502	0.100
634.100	-0.730	0.100
634.200	2.598	0.100
634.300	-3.611	0.100
634.400	3.401	0.100
634.500	2.158	0.100
634.600	5.941	0.100
634.700	-1.556	0.100
634.800	-7.324	0.100
634.900	7.251	0.100
635.000	1.512	0.100
635.100	4.903	0.100
635.200	-6.108	0.100
635.300	2.737	0.100
635.400	6.451	0.100
635.500	-3.096	0.100
635.600	5.392	0.100
635.700	8.578	0.100
635.800	-2.679	0.100
635.900	8.250	0.100
636.000	9.250	0.100
636.100	8.232	0.100
636.200	8.844	0.100
636.300	-4.036	0.100
636.400	3.098	0.100
636.500	11.612	0.100
636.600	3.543	0.100
636.700	0.905	0.100
636.800	12.601	0.100
636.900	8.059	0.100
637.000	10.505	0.100
637.100	-4.497	0.100
637.200	0.480	0.100
637.300	6.648	0.100
637.400	11.014	0.100
637.500	-9.026	0.100
637.600	1.216	0.100
637.700	11.765	0.100
637.800	1.936	0.100
637.900	-4.305	0.100
638.000	5.363	0.100
638.100	8.939	0.100
638.200	2.629	0.100
638.300	5.760	0.100
638.400	4.649	0.100
638.500	13.877	0.100
638.600	7.124	0.100
638.700	11.788	0.100
638.800	5.149	0.100
638.900	4.509	0.100
639.000	9.462	0.100
639.100	-5.818	0.100
639.200	2.100	0.100
639.300	12.535	0.100
639.400	1.391	0.100
639.500	7.566	0.100
639.600	11.287	0.100
639.700	4.881	0.100
639.800	0.231	0.100
639.900	16.487	0.100
640.000	5.694	0.100
640.100	10.880	0.100
640.200	1.809	0.100
640.300	7.607	0.100
640.400	2.852	0.100
640.500	10.954	0.100
640.600	6.549	0.100
640.700	3.787	0.100
640.800	-12.415	0.100
640.900	7.130	0.100
641.000	15.167	0.100
641.100	9.861	0.100
641.200	10.612	0.100
641.300	19.432	0.100
641.400	7.107	0.100
641.500	12.492	0.100
641.600	10.309	0.100
641.700	15.035	0.100
641.800	13.682	0.100
641.900	18.322	0.100
642.000	1.139	0.100
642.100	11.669	0.100
642.200	13.017	0.100
642.300	12.228	0.100
642.400	8.294	0.100
642.500	-4.135	0.100
642.600	4.447	0.100
642.700	10.840	0.100
642.800	12.604	0.100
642.900	12.579	0.100
643.000	7.951	0.100
643.100	-1.052	0.100
643.200	3.163	0.100
643.300	16.978	0.100
643.400	21.355	0.100
643.500	9.206	0.100
643.600	22.794	0.100
643.700	14.155	0.100
643.800	11.858	0.100
643.900	15.101	0.100
644.000	10.531	0.100
644.100	7.089	0.100
644.200	12.009	0.100
644.300	13.244	0.100
644.400	13.859	0.100
644.500	6.204	0.100
644.600	20.504	0.100
644.700	5.808	0.100
644.800	18.890	0.100
644.900	21.599	0.100
645.000	19.511	0.100
645.100	8.177	0.100
645.200	1.120	0.100
645.300	18.245	0.100
645.400	16.548	0.100
645.500	15.556	0.100
645.600	13.978	0.100
645.700	18.297	0.100
645.800	8.950	0.100
645.900	6.775	0.100
646.000	15.581	0.100
646.100	7.916	0.100
646.200	18.122	0.100
646.300	7.681	0.100
646.400	13.824	0.100
646.500	14.992	0.100
646.600	22.416	0.100
646.700	16.136	0.100
646.800	13.838	0.100
646.900	18.009	0.100
647.000	28.293	0.100
647.100	22.042	0.100
647.200	29.142	0.100
647.300	9.867	0.100
647.400	0.182	0.100
647.500	8.216	0.100
647.600	7.766	0.100
647.700	17.628	0.100
647.800	26.266	0.100
647.900	23.902	0.100
648.000	15.013	0.100
648.100	15.424	0.100
648.200	21.825	0.100
648.300	8.774	0.100
648.400	6.363	0.100
648.500	6.056	0.100
648.600	27.059	0.100
648.700	5.724	0.100
648.800	9.326	0.100
648.900	11.236	0.100
649.000	20.564	0.100
649.100	20.437	0.100
649.200	22.477	0.100
649.300	6.161	0.100
649.400	-0.844	0.100
649.500	16.585	0.100
649.600	17.602	0.100
649.700	23.772	0.100
649.800	16.970	0.100
649.900	6.280	0.100
650.000	18.307	0.100
650.100	7.261	0.100
650.200	28.903	0.100
650.300	15.833	0.100
650.400	28.437	0.100
650.500	15.001	0.100
650.600	7.422	0.100
650.700	17.868	0.100
650.800	23.736	0.100
650.900	24.250	0.100
651.000	15.144	0.100
651.100	19.725	0.100
651.200	17.916	0.100
651.300	26.267	0.100
651.400	19.421	0.100
651.500	22.121	0.100
651.600	21.547	0.100
651.700	15.232	0.100
651.800	11.900	0.100
651.900	29.532	0.100
652.000	19.438	0.100
652.100	3.720	0.100
652.200	24.722	0.100
652.300	21.889	0.100
652.400	25.308	0.100
652.500	31.708	0.100
652.600	18.609	0.100
652.700	22.335	0.100
652.800	9.749	0.100
652.900	21.293	0.100
653.000	27.924	0.100
653.100	27.852	0.100
653.200	17.770	0.100
653.300	16.680	0.100
653.400	13.685	0.100
653.500	16.254	0.100
653.600	23.777	0.100
653.700	27.090	0.100
653.800	7.909	0.100
653.900	10.778	0.100
654.000	24.027	0.100
654.100	23.403	0.100
654.200	25.031	0.100
654.300	18.902	0.100
654.400	29.366	0.100
654.500	29.241	0.100
654.600	17.111	0.100
654.700	22.063	0.100
654.800	11.916	0.100
654.900	25.429	0.100
655.000	29.585	0.100
655.100	31.272	0.100
655.200	20.966	0.100
655.300	23.191	0.100
655.400	11.062	0.100
655.500	14.812	0.100
655.600	20.935	0.100
655.700	30.153	0.100
655.800	31.912	0.100
655.900	16.456	0.100
656.000	17.671	0.100
656.100	21.164	0.100
656.200	12.579	0.100
656.300	20.220	0.100
656.400	30.874	0.100
656.500	23.007	0.100
656.600	13.591	0.100
656.700	26.029	0.100
656.800	31.288	0.100
656.900	19.436	0.100
657.000	28.780	0.100
657.100	11.722	0.100
657.200	30.557	0.100
657.300	29.541	0.100
657.400	21.432	0.100
657.500	27.572	0.100
657.600	37.844	0.100
657.700	31.027	0.100
657.800	35.231	0.100
657.900	24.151	0.100
658.000	28.107	0.100
658.100	36.698	0.100
658.200	30.549	0.100
658.300	20.598	0.100
658.400	12.610	0.100
658.500	34.448	0.100
658.600	19.874	0.100
658.700	31.833	0.100
658.800	32.357	0.100
658.900	16.294	0.100
659.000	16.078	0.100
659.100	30.914	0.100
659.200	27.650	0.100
659.300	26.239	0.100
659.400	29.329	0.100
659.500	22.495	0.100
659.600	28.666	0.100
659.700	28.108	0.100
659.800	23.839	0.100
659.900	23.839	0.100
660.000	22.793	0.100
660.100	20.319	0.100
660.200	36.186	0.100
660.300	29.816	0.100
660.400	29.754	0.100
660.500	42.522	0.100
660.600	34.894	0.100
660.700	38.608	0.100
660.800	32.308	0.100
660.900	27.802	0.100
661.000	21.653	0.100
661.100	28.038	0.100
661.200	20.112	0.100
661.300	31.580	0.100
661.400	30.150	0.100
661.500	31.313	0.100
661.600	31.929	0.100
661.700	32.764	0.100
661.800	24.081	0.100
661.900	15.379	0.100
662.000	20.036	0.100
662.100	34.898	0.100
662.200	38.850	0.100
662.300	38.228	0.100
662.400	28.407	0.100
662.500	27.397	0.100
662.600	32.902	0.100
662.700	41.502	0.100
662.800	33.941	0.100
662.900	32.651	0.100
663.000	43.438	0.100
663.100	37.796	0.100
663.200	30.489	0.100
663.300	23.047	0.100
663.400	27.994	0.100
663.500	26.032	0.100
663.600	40.774	0.100
663.700	34.590	0.100
663.800	39.762	0.100
663.900	45.318	0.100
664.000	33.469	0.100
664.100	32.766	0.100
664.200	36.330	0.100
664.300	23.965	0.100
664.400	34.035	0.100
664.500	35.449	0.100
664.600	9.413	0.100
664.700	29.197	0.100
664.800	32.145	0.100
664.900	35.718	0.100
665.000	20.880	0.100
665.100	42.858	0.100
665.200	45.559	0.100
665.300	35.796	0.100
665.400	43.150	0.100
665.500	41.593	0.100
665.600	40.200	0.100
665.700	35.433	0.100
665.800	43.127	0.100
665.900	32.199	0.100
666.000	27.103	0.100
666.100	46.044	0.100
666.200	32.514	0.100
666.300	45.536	0.100
666.400	38.395	0.100
666.500	20.532	0.100
666.600	29.221	0.100
666.700	28.067	0.100
666.800	41.875	0.100
666.900	28.452	0.100
667.000	29.590	0.100
667.100	46.137	0.100
667.200	52.362	0.100
667.300	39.954	0.100
667.400	40.969	0.100
667.500	38.949	0.100
667.600	34.245	0.100
667.700	25.910	0.100
667.800	45.389	0.100
667.900	34.367	0.100
668.000	41.398	0.100
668.100	42.760	0.100
668.200	49.029	0.100
668.300	34.502	0.100
668.400	29.078	0.100
668.500	31.777	0.100
668.600	42.593	0.100
668.700	40.885	0.100
668.800	32.490	0.100
668.900	40.610	0.100
669.000	44.293	0.100
669.100	50.947	0.100
669.200	42.515	0.100
669.300	48.041	0.100
669.400	37.058	0.100
669.500	32.539	0.100
669.600	41.064	0.100
669.700	40.276	0.100
669.800	47.777	0.100
669.900	30.689	0.100
670.000	29.114	0.100
670.100	32.400	0.100
670.200	52.373	0.100
670.300	41.284	0.100
670.400	36.466	0.100
670.500	43.020	0.100
670.600	38.622	0.100
670.700	40.567	0.100
670.800	43.455	0.100
670.900	48.100	0.100
671.000	32.287	0.100
671.100	51.731	0.100
671.200	44.987	0.100
671.300	48.367	0.100
671.400	47.969	0.100
671.500	27.142	0.100
671.600	42.346	0.100
671.700	39.066	0.100
671.800	24.482	0.100
671.900	54.345	0.100
672.000	38.577	0.100
672.100	44.134	0.100
672.200	41.241	0.100
672.300	47.986	0.100
672.400	50.033	0.100
672.500	47.947	0.100
672.600	45.149	0.100
672.700	47.117	0.100
672.800	42.436	0.100
672.900	40.463	0.100
673.000	27.403	0.100
673.100	42.857	0.100
673.200	46.842	0.100
673.300	39.909	0.100
673.400	35.445	0.100
673.500	45.709	0.100
673.600	37.398	0.100
673.700	43.513	0.100
673.800	47.961	0.100
673.900	50.089	0.100
674.000	39.055	0.100
674.100	37.141	0.100
674.200	39.994	0.100
674.300	40.136	0.100
674.400	50.002	0.100
674.500	51.223	0.100
674.600	53.504	0.100
674.700	47.072	0.100
674.800	48.079	0.100
674.900	28.834	0.100
675.000	36.772	0.100
675.100	26.823	0.100
675.200	42.802	0.100
675.300	47.318	0.100
675.400	53.607	0.100
675.500	39.094	0.100
675.600	53.079	0.100
675.700	48.740	0.100
675.800	52.149	0.100
675.900	41.562	0.100
676.000	47.811	0.100
676.100	49.015	0.100
676.200	43.665	0.100
676.300	46.671	0.100
676.400	41.038	0.100
676.500	46.442	0.100
676.600	48.614	0.100
676.700	47.705	0.100
676.800	36.475	0.100
676.900	47.961	0.100
677.000	51.553	0.100
677.100	44.674	0.100
677.200	42.393	0.100
677.300	52.862	0.100
677.400	55.616	0.100
677.500	45.157	0.100
677.600	37.185	0.100
677.700	60.421	0.100
677.800	56.107	0.100
677.900	41.595	0.100
678.000	48.052	0.100
678.100	44.991	0.100
678.200	47.395	0.100
678.300	42.336	0.100
678.400	44.657	0.100
678.500	43.552	0.100
678.600	51.637	0.100
678.700	45.261	0.100
678.800	55.950	0.100
678.900	42.695	0.100
679.000	51.777	0.100
679.100	47.467	0.100
679.200	48.724	0.100
679.300	51.603	0.100
679.400	47.808	0.100
679.500	45.277	0.100
679.600	45.552	0.100
679.700	39.357	0.100
679.800	45.244	0.100
679.900	46.655	0.100
680.000	48.966	0.100
680.100	44.505	0.100
680.200	47.644	0.100
680.300	49.395	0.100
680.400	52.704	0.100
680.500	50.800	0.100
680.600	46.228	0.100
680.700	42.005	0.100
680.800	53.266	0.100
680.900	50.563	0.100
681.000	51.757	0.100
681.100	58.992	0.100
681.200	42.642	0.100
681.300	41.931	0.100
681.400	46.685	0.100
681.500	53.032	0.100
681.600	53.001	0.100
681.700	55.467	0.100
681.800	52.556	0.100
681.900	45.171	0.100
682.000	41.361	0.100
682.100	50.261	0.100
682.200	51.870	0.100
682.300	50.335	0.100
682.400	49.651	0.100
682.500	51.653	0.100
682.600	50.632	0.100
682.700	56.603	0.100
682.800	53.237	0.100
682.900	51.482	0.100
683.000	45.455	0.100
683.100	50.099	0.100
683.200	48.515	0.100
683.300	52.728	0.100
683.400	43.121	0.100
683.500	44.330	0.100
683.600	36.636	0.100
683.700	48.444	0.100
683.800	56.891	0.100
683.900	51.806	0.100
684.000	50.670	0.100
684.100	41.283	0.100
684.200	52.049	0.100
684.300	52.116	0.100
684.400	31.435	0.100
684.500	50.332	0.100
684.600	45.154	0.100
684.700	55.687	0.100
684.800	58.866	0.100
684.900	51.109	0.100
685.000	52.759	0.100
685.100	49.241	0.100
685.200	63.217	0.100
685.300	61.420	0.100
685.400	49.118	0.100
685.500	42.709	0.100
685.600	26.916	0.100
685.700	45.891	0.100
685.800	46.201	0.100
685.900	55.070	0.100
686.000	73.125	0.100
686.100	57.673	0.100
686.200	49.673	0.100
686.300	50.344	0.100
686.400	45.115	0.100
686.500	38.747	0.100
686.600	40.081	0.100
686.700	54.584	0.100
686.800	45.578	0.100
686.900	47.352	0.100
687.000	46.332	0.100
687.100	58.102	0.100
687.200	53.719	0.100
687.300	53.844	0.100
687.400	42.123	0.100
687.500	49.274	0.100
687.600	41.619	0.100
687.700	43.419	0.100
687.800	50.063	0.100
687.900	37.075	0.100
688.000	59.055	0.100
688.100	56.926	0.100
688.200	59.297	0.100
688.300	49.896	0.100
688.400	58.710	0.100
688.500	48.889	0.100
688.600	53.415	0.100
688.700	49.086	0.100
688.800	44.792	0.100
688.900	52.966	0.100
689.000	55.306	0.100
689.100	49.521	0.100
689.200	60.897	0.100
689.300	43.797	0.100
689.400	41.341	0.100
689.500	56.664	0.100
689.600	52.631	0.100
689.700	45.640	0.100
689.800	54.962	0.100
689.900	49.671	0.100
690.000	41.039	0.100
690.100	32.234	0.100
690.200	53.238	0.100
690.300	59.570	0.100
690.400	58.141	0.100
690.500	47.137	0.100
690.600	43.996	0.100
690.700	52.152	0.100
690.800	46.195	0.100
690.900	55.777	0.100
691.000	38.172	0.100
691.100	27.325	0.100
691.200	41.598	0.100
691.300	44.698	0.100
691.400	42.575	0.100
691.500	35.775	0.100
691.600	37.861	0.100
691.700	40.688	0.100
691.800	30.646	0.100
691.900	38.975	0.100
692.000	35.289	0.100
692.100	32.932	0.100
692.200	34.898	0.100
692.300	36.819	0.100
692.400	32.686	0.100
692.500	27.799	0.100
692.600	25.592	0.100
692.700	35.130	0.100
692.800	33.525	0.100
692.900	28.160	0.100
693.000	21.097	0.100
693.100	26.220	0.100
693.200	28.646	0.100
693.300	20.019	0.100
693.400	24.936	0.100
693.500	25.679	0.100
693.600	29.421	0.100
693.700	20.786	0.100
693.800	19.417	0.100
693.900	34.274	0.100
694.000	37.161	0.100
694.100	23.374	0.100
694.200	29.337	0.100
694.300	28.593	0.100
694.400	19.946	0.100
694.500	20.427	0.100
694.600	43.258	0.100
694.700	21.075	0.100
694.800	26.051	0.100
694.900	12.378	0.100
695.000	18.992	0.100
695.100	30.998	0.100
695.200	20.620	0.100
695.300	23.526	0.100
695.400	32.051	0.100
695.500	22.288	0.100
695.600	30.534	0.100
695.700	15.431	0.100
695.800	28.363	0.100
695.900	16.295	0.100
696.000	18.673	0.100
696.100	16.609	0.100
696.200	17.422	0.100
696.300	17.249	0.100
696.400	20.594	0.100
696.500	17.126	0.100
696.600	29.148	0.100
696.700	10.028	0.100
696.800	18.195	0.100
696.900	20.490	0.100
697.000	28.477	0.100
697.100	19.209	0.100
697.200	12.660	0.100
697.300	20.644	0.100
697.400	20.949	0.100
697.500	20.923	0.100
697.600	14.981	0.100
697.700	7.723	0.100
697.800	23.773	0.100
697.900	28.315	0.100
698.000	11.501	0.100
698.100	24.324	0.100
698.200	17.950	0.100
698.300	26.494	0.100
698.400	20.514	0.100
698.500	19.749	0.100
698.600	21.107	0.100
698.700	26.170	0.100
698.800	19.663	0.100
698.900	16.664	0.100
699.000	10.973	0.100
699.100	24.632	0.100
699.200	16.454	0.100
699.300	15.317	0.100
699.400	2.948	0.100
699.500	22.730	0.100
699.600	28.659	0.100
699.700	19.285	0.100
699.800	3.921	0.100
699.900	27.877	0.100
700.000	23.967	0.100
700.100	23.671	0.100
700.200	12.552	0.100
700.300	9.764	0.100
700.400	23.927	0.100
700.500	14.339	0.100
700.600	16.435	0.100
700.700	23.211	0.100
700.800	12.810	0.100
700.900	23.939	0.100
701.000	12.028	0.100
701.100	11.018	0.100
701.200	8.749	0.100
701.300	10.729	0.100
701.400	-1.829	0.100
701.500	15.496	0.100
701.600	18.773	0.100
701.700	20.912	0.100
701.800	27.065	0.100
701.900	18.909	0.100
702.000	1.297	0.100
702.100	10.648	0.100
702.200	5.665	0.100
702.300	7.568	0.100
702.400	7.177	0.100
702.500	19.898	0.100
702.600	22.591	0.100
702.700	7.799	0.100
702.800	13.741	0.100
702.900	20.398	0.100
703.000	8.688	0.100
703.100	7.498	0.100
703.200	14.803	0.100
703.300	12.719	0.100
703.400	10.230	0.100
703.500	21.656	0.100
703.600	2.408	0.100
703.700	2.201	0.100
703.800	17.961	0.100
703.900	16.562	0.100
704.000	6.654	0.100
704.100	5.496	0.100
704.200	-3.220	0.100
704.300	8.728	0.100
704.400	5.581	0.100
704.500	10.577	0.100
704.600	0.235	0.100
704.700	16.529	0.100
704.800	8.031	0.100
704.900	17.147	0.100
705.000	15.274	0.100
705.100	8.952	0.100
705.200	3.085	0.100
705.300	19.570	0.100
705.400	8.255	0.100
705.500	14.330	0.100
705.600	12.064	0.100
705.700	5.463	0.100
705.800	7.861	0.100
705.900	6.809	0.100
706.000	11.120	0.100
706.100	8.872	0.100
706.200	12.612	0.100
706.300	6.018	0.100
706.400	0.733	0.100
706.500	10.155	0.100
706.600	5.168	0.100
706.700	3.194	0.100
706.800	10.846	0.100
706.900	20.834	0.100
707.000	15.627	0.100
707.100	-2.419	0.100
707.200	17.855	0.100
707.300	12.868	0.100
707.400	-13.645	0.100
707.500	-1.265	0.100
707.600	-1.880	0.100
707.700	5.769	0.100
707.800	5.311	0.100
707.900	-0.878	0.100
708.000	-4.009	0.100
708.100	2.311	0.100
708.200	11.063	0.100
708.300	5.552	0.100
708.400	-2.363	0.100
708.500	9.742	0.100
708.600	7.699	0.100
708.700	0.655	0.100
708.800	-2.658	0.100
708.900	9.599	0.100
709.000	13.686	0.100
709.100	5.913	0.100
709.200	-3.360	0.100
709.300	3.491	0.100
709.400	6.534	0.100
709.500	8.864	0.100
709.600	4.835	0.100
709.700	5.763	0.100
709.800	-2.060	0.100
709.900	9.067	0.100
710.000	7.636	0.100
710.100	16.945	0.100
710.200	14.025	0.100
710.300	3.139	0.100
710.400	5.593	0.100
710.500	-0.985	0.100
710.600	-6.329	0.100
710.700	1.802	0.100
710.800	-0.115	0.100
710.900	7.468	0.100
711.000	-0.054	0.100
711.100	1.023	0.100
711.200	8.095	0.100
711.300	5.296	0.100
711.400	2.818	0.100
711.500	2.236	0.100
711.600	-1.192	0.100
711.700	9.564	0.100
711.800	5.217	0.100
711.900	3.536	0.100
712.000	3.701	0.100
712.100	1.399	0.100
712.200	0.172	0.100
712.300	4.026	0.100
712.400	-8.067	0.100
712.500	8.507	0.100
712.600	-10.035	0.100
712.700	-7.200	0.100
712.800	2.938	0.100
712.900	12.349	0.100
713.000	3.957	0.100
713.100	10.304	0.100
713.200	-7.908	0.100
713.300	2.509	0.100
713.400	-7.756	0.100
713.500	1.972	0.100
713.600	-14.854	0.100
713.700	9.924	0.100
713.800	-0.452	0.100
713.900	2.265	0.100
714.000	-14.396	0.100
714.100	13.082	0.100
714.200	-0.293	0.100
714.300	4.084	0.100
714.400	-12.252	0.100
714.500	2.396	0.100
714.600	4.291	0.100
714.700	-8.801	0.100
714.800	-7.250	0.100
714.900	14.514	0.100
715.000	1.400	0.100
715.100	1.790	0.100
715.200	-8.024	0.100
715.300	-10.368	0.100
715.400	-11.447	0.100
715.500	3.581	0.100
715.600	9.882	0.100
715.700	4.344	0.100
715.800	-2.636	0.100
715.900	-1.906	0.100
716.000	-2.919	0.100
716.100	2.463	0.100
716.200	1.135	0.100
716.300	10.666	0.100
716.400	-12.612	0.100
716.500	-3.368	0.100
716.600	0.093	0.100
716.700	-2.723	0.100
716.800	-6.058	0.100
716.900	-5.059	0.100
717.000	-1.213	0.100
717.100	-6.954	0.100
717.200	-4.648	0.100
717.300	1.298	0.100
717.400	-2.463	0.100
717.500	-2.226	0.100
717.600	-3.030	0.100
717.700	-5.307	0.100
717.800	-2.791	0.100
717.900	3.886	0.100
718.000	-8.059	0.100
718.100	-0.880	0.100
718.200	14.424	0.100
718.300	-10.837	0.100
718.400	-12.683	0.100
718.500	2.056	0.100
718.600	-1.291	0.100
718.700	-6.395	0.100
718.800	-0.482	0.100
718.900	-13.662	0.100
719.000	-7.664	0.100
719.100	-10.720	0.100
719.200	-1.549	0.100
719.300	-0.648	0.100
719.400	-3.628	0.100
719.500	-8.991	0.100
719.600	0.236	0.100
719.700	0.266	0.100
719.800	0.171	0.100
719.900	-1.897	0.100
720.000	-6.885	0.100
720.100	-3.983	0.100
720.200	0.197	0.100
720.300	-11.332	0.100
720.400	-10.666	0.100
720.500	-5.246	0.100
720.600	-2.801	0.100
720.700	-0.325	0.100
720.800	-26.244	0.100
720.900	-13.522	0.100
721.000	-8.195	0.100
721.100	-8.004	0.100
721.200	-8.695	0.100
721.300	0.744	0.100
721.400	-10.526	0.100
721.500	-16.174	0.100
721.600	-3.175	0.100
721.700	-1.172	0.100
721.800	-11.250	0.100
721.900	-3.148	0.100
722.000	-7.826	0.100
722.100	-7.254	0.100
722.200	-14.273	0.100
722.300	-6.197	0.100
722.400	-17.914	0.100
722.500	-0.818	0.100
722.600	1.431	0.100
722.700	-5.987	0.100
722.800	-8.009	0.100
722.900	-10.839	0.100
723.000	-3.968	0.100
723.100	-14.626	0.100
723.200	-18.970	0.100
723.300	-7.760	0.100
723.400	-11.587	0.100
723.500	-1.404	0.100
723.600	10.578	0.100
723.700	-19.488	0.100
723.800	-4.033	0.100
723.900	-13.121	0.100
724.000	-18.673	0.100
724.100	-8.232	0.100
724.200	-13.379	0.100
724.300	-2.790	0.100
724.400	-4.720	0.100
724.500	-2.804	0.100
724.600	-7.034	0.100
724.700	-11.170	0.100
724.800	-8.982	0.100
724.900	-2.104	0.100
725.000	-3.902	0.100
725.100	-17.206	0.100
725.200	-21.318	0.100
725.300	-17.397	0.100
725.400	-6.301	0.100
725.500	-7.987	0.100
725.600	-16.995	0.100
725.700	-18.330	0.100
725.800	-13.285	0.100
725.900	-13.470	0.100
726.000	-9.880	0.100
726.100	-10.658	0.100
726.200	-11.716	0.100
726.300	-9.275	0.100
726.400	-12.731	0.100
726.500	-7.571	0.100
726.600	-20.755	0.100
726.700	-14.021	0.100
726.800	-10.780	0.100
726.900	-11.860	0.100
727.000	-13.996	0.100
727.100	-5.211	0.100
727.200	-3.718	0.100
727.300	-9.504	0.100
727.400	-21.124	0.100
727.500	-7.505	0.100
727.600	-10.683	0.100
727.700	-11.307	0.100
727.800	-10.020	0.100
727.900	-20.903	0.100
728.000	-19.084	0.100
728.100	-19.515	0.100
728.200	-21.866	0.100
728.300	-19.498	0.100
728.400	-16.669	0.100
728.500	-14.329	0.100
728.600	-5.778	0.100
728.700	-15.021	0.100
728.800	-10.183	0.100
728.900	-13.288	0.100
729.000	-10.738	0.100
729.100	-10.793	0.100
729.200	-15.061	0.100
729.300	3.302	0.100
729.400	-10.750	0.100
729.500	-18.004	0.100
729.600	-18.648	0.100
729.700	-22.736	0.100
729.800	-15.526	0.100
729.900	-11.873	0.100
730.000	-6.526	0.100
730.100	-15.013	0.100
730.200	-14.114	0.100
730.300	-20.207	0.100
730.400	-10.667	0.100
730.500	-1.449	0.100
730.600	-15.054	0.100
730.700	-15.440	0.100
730.800	-16.472	0.100
730.900	-21.520	0.100
731.000	-17.078	0.100
731.100	-17.081	0.100
731.200	-19.292	0.100
731.300	-12.924	0.100
731.400	-20.311	0.100
731.500	-24.784	0.100
731.600	-12.851	0.100
731.700	-18.580	0.100
731.800	-11.046	0.100
731.900	-19.963	0.100
732.000	-26.696	0.100
732.100	-2.136	0.100
732.200	-18.149	0.100
732.300	-19.903	0.100
732.400	-23.167	0.100
732.500	-5.701	0.100
732.600	-15.284	0.100
732.700	-16.828	0.100
732.800	-20.638	0.100
732.900	-2.639	0.100
733.000	-8.518	0.100
733.100	-11.141	0.100
733.200	-21.855	0.100
733.300	-20.866	0.100
733.400	-6.369	0.100
733.500	-12.442	0.100
733.600	-19.846	0.100
733.700	-15.860	0.100
733.800	-18.873	0.100
733.900	-14.450	0.100
734.000	-23.760	0.100
734.100	-8.865	0.100
734.200	-2.386	0.100
734.300	-15.736	0.100
734.400	-18.528	0.100
734.500	-20.134	0.100
734.600	-17.566	0.100
734.700	-19.747	0.100
734.800	-11.815	0.100
734.900	-8.267	0.100
735.000	-9.197	0.100
735.100	-21.670	0.100
735.200	-13.973	0.100
735.300	-11.858	0.100
735.400	-26.623	0.100
735.500	-11.248	0.100
735.600	-15.588	0.100
735.700	-16.300	0.100
735.800	-28.032	0.100
735.900	-20.354	0.100
736.000	-19.792	0.100
736.100	-24.070	0.100
736.200	-17.158	0.100
736.300	-15.221	0.100
736.400	-15.954	0.100
736.500	-18.875	0.100
736.600	-17.643	0.100
736.700	-27.637	0.100
736.800	-15.208	0.100
736.900	-23.749	0.100
737.000	-18.743	0.100
737.100	-14.670	0.100
737.200	-13.605	0.100
737.300	-18.209	0.100
737.400	-9.460	0.100
737.500	-16.810	0.100
737.600	-14.068	0.100
737.700	-11.557	0.100
737.800	-22.117	0.100
737.900	-26.894	0.100
738.000	-33.991	0.100
738.100	-14.742	0.100
738.200	-10.772	0.100
738.300	-15.407	0.100
738.400	-19.492	0.100
738.500	-16.708	0.100
738.600	-28.182	0.100
738.700	-11.534	0.100
738.800	-30.621	0.100
738.900	-27.506	0.100
739.000	-14.165	0.100
739.100	-22.350	0.100
739.200	-22.015	0.100
739.300	-14.142	0.100
739.400	-23.143	0.100
739.500	-22.114	0.100
739.600	-10.948	0.100
739.700	-11.915	0.100
739.800	-22.031	0.100
739.900	-14.175	0.100
740.000	-21.560	0.100
740.100	-19.325	0.100
740.200	-23.566	0.100
740.300	-24.997	0.100
740.400	-18.417	0.100
740.500	-17.300	0.100
740.600	-10.810	0.100
740.700	-19.540	0.100
740.800	-12.437	0.100
740.900	-26.845	0.100
741.000	-16.042	0.100
741.100	-18.473	0.100
741.200	-10.103	0.100
741.300	-26.165	0.100
741.400	-21.786	0.100
741.500	-27.594	0.100
741.600	-32.560	0.100
741.700	-15.062	0.100
741.800	-3.715	0.100
741.900	-17.411	0.100
742.000	-21.171	0.100
742.100	-19.021	0.100
742.200	-30.647	0.100
742.300	-20.471	0.100
742.400	-15.980	0.100
742.500	-32.117	0.100
742.600	-21.854	0.100
742.700	-27.937	0.100
742.800	-20.620	0.100
742.900	-15.520	0.100
743.000	-18.967	0.100
743.100	-25.788	0.100
743.200	-12.652	0.100
743.300	-24.636	0.100
743.400	-24.317	0.100
743.500	-24.571	0.100
743.600	-24.094	0.100
743.700	-14.435	0.100
743.800	-15.486	0.100
743.900	-36.542	0.100
744.000	-22.974	0.100
744.100	-21.153	0.100
744.200	-21.560	0.100
744.300	-19.023	0.100
744.400	-26.808	0.100
744.500	-22.881	0.100
744.600	-7.019	0.100
744.700	-7.801	0.100
744.800	-17.745	0.100
744.900	-13.722	0.100
745.000	-38.167	0.100
745.100	-15.034	0.100
745.200	-14.147	0.100
745.300	-18.493	0.100
745.400	-12.757	0.100
745.500	-16.805	0.100
745.600	-27.686	0.100
745.700	-27.128	0.100
745.800	-14.754	0.100
745.900	-11.514	0.100
746.000	-15.960	0.100
746.100	-16.652	0.100
746.200	-20.005	0.100
746.300	-26.640	0.100
746.400	-21.998	0.100
746.500	-20.019	0.100
746.600	-6.190	0.100
746.700	-28.942	0.100
746.800	-18.210	0.100
746.900	-29.258	0.100
747.000	-32.832	0.100
747.100	-29.997	0.100
747.200	-21.760	0.100
747.300	-26.006	0.100
747.400	-18.750	0.100
747.500	-22.611	0.100
747.600	-25.548	0.100
747.700	-18.199	0.100
747.800	-20.657	0.100
747.900	-12.969	0.100
748.000	-17.867	0.100
748.100	-17.724	0.100
748.200	-23.788	0.100
748.300	-25.613	0.100
748.400	-17.849	0.100
748.500	-28.666	0.100
748.600	-20.670	0.100
748.700	-11.095	0.100
748.800	-21.265	0.100
748.900	-17.311	0.100
749.000	-19.048	0.100
749.100	-26.729	0.100
749.200	-27.712	0.100
749.300	-38.542	0.100
749.400	-26.829	0.100
749.500	-15.700	0.100
749.600	-14.390	0.100
749.700	-19.886	0.100
749.800	-17.354	0.100
749.900	-22.688	0.100
750.000	-31.913	0.100
750.100	-22.929	0.100
750.200	-25.893	0.100
750.300	-27.277	0.100
750.400	-30.213	0.100
750.500	-13.260	0.100
750.600	-27.618	0.100
750.700	-21.789	0.100
750.800	-20.207	0.100
750.900	-23.493	0.100
751.000	-22.975	0.100
751.100	-17.136	0.100
751.200	-29.116	0.100
751.300	-20.609	0.100
751.400	-21.346	0.100
751.500	-29.674	0.100
751.600	-19.445	0.100
751.700	-21.038	0.100
751.800	-34.647	0.100
751.900	-25.987	0.100
752.000	-23.929	0.100
752.100	-14.894	0.100
752.200	-20.336	0.100
752.300	-23.429	0.100
752.400	-29.186	0.100
752.500	-24.851	0.100
752.600	-26.843	0.100
752.700	-24.239	0.100
752.800	-16.094	0.100
752.900	-23.140	0.100
753.000	-32.431	0.100
753.100	-18.412	0.100
753.200	-9.167	0.100
753.300	-17.826	0.100
753.400	-30.285	0.100
753.500	-27.256	0.100
753.600	-10.901	0.100
753.700	-23.374	0.100
753.800	-33.127	0.100
753.900	-23.767	0.100
754.000	-37.702	0.100
754.100	-18.139	0.100
754.200	-13.473	0.100
754.300	-20.309	0.100
754.400	-17.911	0.100
754.500	-15.811	0.100
754.600	-22.746	0.100
754.700	-32.358	0.100
754.800	-21.081	0.100
754.900	-15.394	0.100
755.000	-32.076	0.100
755.100	-13.418	0.100
755.200	-14.699	0.100
755.300	-21.776	0.100
755.400	-20.208	0.100
755.500	-19.149	0.100
755.600	-27.550	0.100
755.700	-22.709	0.100
755.800	-31.013	0.100
755.900	-22.336	0.100
756.000	-19.743	0.100
756.100	-28.274	0.100
756.200	-35.561	0.100
756.300	-26.706	0.100
756.400	-18.716	0.100
756.500	-21.962	0.100
756.600	-14.522	0.100
756.700	-12.159	0.100
756.800	-29.981	0.100
756.900	-20.882	0.100
757.000	-25.493	0.100
757.100	-24.554	0.100
757.200	-27.617	0.100
757.300	-21.109	0.100
757.400	-23.726	0.100
757.500	-34.143	0.100
757.600	-26.375	0.100
757.700	-15.251	0.100
757.800	-10.885	0.100
757.900	-27.528	0.100
758.000	-23.560	0.100
758.100	-34.902	0.100
758.200	-31.957	0.100
758.300	-23.345	0.100
758.400	-10.838	0.100
758.500	-28.205	0.100
758.600	-26.854	0.100
758.700	-26.677	0.100
758.800	-25.911	0.100
758.900	-22.051	0.100
759.000	-11.027	0.100
759.100	-23.065	0.100
759.200	-30.882	0.100
759.300	-25.027	0.100
759.400	-43.427	0.100
759.500	-27.796	0.100
759.600	-23.399	0.100
759.700	-27.481	0.100
759.800	-21.004	0.100
759.900	-23.306	0.100
760.000	-20.026	0.100
760.100	-14.490	0.100
760.200	-18.699	0.100
760.300	-23.195	0.100
760.400	-17.290	0.100
760.500	-15.847	0.100
760.600	-34.154	0.100
760.700	-21.139	0.100
760.800	-29.259	0.100
760.900	-40.411	0.100
761.000	-37.683	0.100
761.100	-7.628	0.100
761.200	-21.113	0.100
761.300	-19.890	0.100
761.400	-30.278	0.100
761.500	-27.076	0.100
761.600	-18.593	0.100
761.700	-19.190	0.100
761.800	-16.006	0.100
761.900	-21.576	0.100
762.000	-32.361	0.100
762.100	-27.244	0.100
762.200	-28.091	0.100
762.300	-30.254	0.100
762.400	-29.168	0.100
762.500	-20.163	0.100
762.600	-6.638	0.100
762.700	-25.002	0.100
762.800	-24.614	0.100
762.900	-16.548	0.100
763.000	-24.131	0.100
763.100	-28.561	0.100
763.200	-21.139	0.100
763.300	-23.891	0.100
763.400	-19.250	0.100
763.500	-24.813	0.100
763.600	-18.424	0.100
763.700	-22.161	0.100
763.800	-29.670	0.100
763.900	-16.352	0.100
764.000	-27.942	0.100
764.100	-36.131	0.100
764.200	-27.362	0.100
764.300	-14.046	0.100
764.400	-26.058	0.100
764.500	-18.950	0.100
764.600	-22.223	0.100
764.700	-29.278	0.100
764.800	-26.372	0.100
764.900	-26.770	0.100
765.000	-31.712	0.100
765.100	-30.651	0.100
765.200	-21.137	0.100
765.300	-22.025	0.100
765.400	-21.887	0.100
765.500	-22.196	0.100
765.600	-26.547	0.100
765.700	-33.130	0.100
765.800	-29.165	0.100
765.900	-15.185	0.100
766.000	-17.130	0.100
766.100	-25.594	0.100
766.200	-29.503	0.100
766.300	-19.328	0.100
766.400	-19.757	0.100
766.500	-35.294	0.100
766.600	-25.320	0.100
766.700	-18.903	0.100
766.800	-28.414	0.100
766.900	-22.934	0.100
767.000	-19.904	0.100
767.100	-30.003	0.100
767.200	-16.817	0.100
767.300	-28.306	0.100
767.400	-16.450	0.100
767.500	-25.112	0.100
767.600	-29.215	0.100
767.700	-26.417	0.100
767.800	-22.554	0.100
767.900	-24.988	0.100
768.000	-31.622	0.100
768.100	-23.744	0.100
768.200	-30.410	0.100
768.300	-10.274	0.100
768.400	-27.437	0.100
768.500	-27.119	0.100
768.600	-24.148	0.100
768.700	-22.835	0.100
768.800	-26.804	0.100
768.900	-20.796	0.100
769.000	-29.985	0.100
769.100	-27.368	0.100
769.200	-16.639	0.100
769.300	-27.956	0.100
769.400	-36.997	0.100
769.500	-15.731	0.100
769.600	-29.786	0.100
769.700	-26.757	0.100
769.800	-16.042	0.100
769.900	-30.931	0.100
770.000	-23.622	0.100
770.100	-20.011	0.100
770.200	-20.917	0.100
770.300	-16.017	0.100
770.400	-37.095	0.100
770.500	-22.087	0.100
770.600	-28.949	0.100
770.700	-23.691	0.100
770.800	-26.768	0.100
770.900	-16.293	0.100
771.000	-17.884	0.100
771.100	-16.967	0.100
771.200	-20.463	0.100
771.300	-27.254	0.100
771.400	-11.460	0.100
771.500	-26.594	0.100
771.600	-14.326	0.100
771.700	-30.659	0.100
771.800	-18.289	0.100
771.900	-11.681	0.100
772.000	-44.939	0.100
772.100	-23.523	0.100
772.200	-30.751	0.100
772.300	-19.645	0.100
772.400	-27.034	0.100
772.500	-20.965	0.100
772.600	-31.186	0.100
772.700	-37.028	0.100
772.800	-33.103	0.100
772.900	-40.992	0.100
773.000	-23.928	0.100
773.100	-10.954	0.100
773.200	-13.962	0.100
773.300	-27.317	0.100
773.400	-34.438	0.100
773.500	-19.958	0.100
773.600	-15.766	0.100
773.700	-22.062	0.100
773.800	-23.931	0.100
773.900	-25.297	0.100
774.000	-26.337	0.100
774.100	-27.185	0.100
774.200	-23.931	0.100
774.300	-29.824	0.100
774.400	-27.238	0.100
774.500	-20.874	0.100
774.600	-16.575	0.100
774.700	-25.298	0.100
774.800	-33.818	0.100
774.900	-28.455	0.100
775.000	-23.088	0.100
775.100	-22.767	0.100
775.200	-27.092	0.100
775.300	-14.715	0.100
775.400	-20.197	0.100
775.500	-22.296	0.100
775.600	-22.755	0.100
775.700	-24.079	0.100
775.800	-18.213	0.100
775.900	-21.379	0.100
776.000	-13.253	0.100
776.100	-24.718	0.100
776.200	-38.442	0.100
776.300	-30.747	0.100
776.400	-23.037	0.100
776.500	-32.087	0.100
776.600	-16.629	0.100
776.700	-20.682	0.100
776.800	-27.323	0.100
776.900	-30.623	0.100
777.000	-29.495	0.100
777.100	-24.754	0.100
777.200	-10.800	0.100
777.300	-28.055	0.100
777.400	-19.494	0.100
777.500	-25.565	0.100
777.600	-25.973	0.100
777.700	-29.542	0.100
777.800	-24.594	0.100
777.900	-21.427	0.100
778.000	-18.971	0.100
778.100	-27.648	0.100
778.200	-23.351	0.100
778.300	-34.279	0.100
778.400	-28.889	0.100
778.500	-23.111	0.100
778.600	-12.015	0.100
778.700	-28.615	0.100
778.800	-30.398	0.100
778.900	-25.164	0.100
779.000	-10.458	0.100
779.100	-13.509	0.100
779.200	-36.074	0.100
779.300	-29.840	0.100
779.400	-32.758	0.100
779.500	-20.066	0.100
779.600	-26.496	0.100
779.700	-33.065	0.100
779.800	-12.157	0.100
779.900	-6.342	0.100
780.000	-21.948	0.100
780.100	-32.362	0.100
780.200	-16.992	0.100
780.300	-20.542	0.100
780.400	-17.290	0.100
780.500	-17.369	0.100
780.600	-40.101	0.100
780.700	-12.245	0.100
780.800	-35.196	0.100
780.900	-16.107	0.100
781.000	-18.825	0.100
781.100	-9.756	0.100
781.200	-23.823	0.100
781.300	-9.916	0.100
781.400	-16.529	0.100
781.500	-7.280	0.100
781.600	-29.351	0.100
781.700	-9.296	0.100
781.800	-1.941	0.100
781.900	-11.822	0.100
782.000	-3.730	0.100
782.100	6.971	0.100
782.200	-1.387	0.100
782.300	-0.326	0.100
782.400	-2.978	0.100
782.500	-2.829	0.100
782.600	-14.697	0.100
782.700	-4.839	0.100
782.800	0.335	0.100
782.900	12.856	0.100
783.000	-6.668	0.100
783.100	1.533	0.100
783.200	-17.134	0.100
783.300	-3.286	0.100
783.400	-4.979	0.100
783.500	-4.644	0.100
783.600	-4.127	0.100
783.700	4.619	0.100
783.800	-4.708	0.100
783.900	5.845	0.100
784.000	4.720	0.100
784.100	-1.995	0.100
784.200	4.505	0.100
784.300	3.055	0.100
784.400	-2.808	0.100
784.500	8.737	0.100
784.600	11.571	0.100
784.700	6.721	0.100
784.800	0.573	0.100
784.900	8.838	0.100
785.000	3.558	0.100
785.100	-1.529	0.100
785.200	8.501	0.100
785.300	-0.727	0.100
785.400	8.742	0.100
785.500	6.882	0.100
785.600	-1.641	0.100
785.700	-14.037	0.100
785.800	4.035	0.100
785.900	11.011	0.100
786.000	-3.262	0.100
786.100	6.579	0.100
786.200	2.643	0.100
786.300	9.772	0.100
786.400	5.066	0.100
786.500	5.740	0.100
786.600	2.286	0.100
786.700	5.957	0.100
786.800	0.117	0.100
786.900	7.605	0.100
787.000	0.652	0.100
787.100	5.602	0.100
787.200	-1.858	0.100
787.300	2.246	0.100
787.400	5.241	0.100
787.500	12.446	0.100
787.600	-6.120	0.100
787.700	-8.952	0.100
787.800	1.599	0.100
787.900	-3.062	0.100
788.000	2.669	0.100
788.100	1.001	0.100
788.200	3.508	0.100
788.300	12.894	0.100
788.400	12.308	0.100
788.500	2.664	0.100
788.600	4.447	0.100
788.700	1.461	0.100
788.800	-2.401	0.100
788.900	-4.170	0.100
789.000	15.846	0.100
789.100	1.337	0.100
789.200	1.845	0.100
789.300	12.991	0.100
789.400	9.457	0.100
789.500	11.260	0.100
789.600	8.593	0.100
789.700	-0.557	0.100
789.800	3.193	0.100
789.900	-0.379	0.100
790.000	16.065	0.100
790.100	2.456	0.100
790.200	8.203	0.100
790.300	6.132	0.100
790.400	10.464	0.100
790.500	13.128	0.100
790.600	0.235	0.100
790.700	-0.072	0.100
790.800	9.758	0.100
790.900	15.777	0.100
791.000	8.594	0.100
791.100	-0.590	0.100
791.200	15.966	0.100
791.300	14.755	0.100
791.400	13.719	0.100
791.500	3.651	0.100
791.600	1.895	0.100
791.700	3.532	0.100
791.800	2.487	0.100
791.900	1.619	0.100
792.000	7.752	0.100
792.100	6.374	0.100
792.200	6.000	0.100
792.300	21.756	0.100
792.400	11.459	0.100
792.500	13.888	0.100
792.600	14.729	0.100
792.700	8.589	0.100
792.800	5.332	0.100
792.900	0.975	0.100
793.000	16.722	0.100
793.100	-0.289	0.100
793.200	8.334	0.100
793.300	14.221	0.100
793.400	8.564	0.100
793.500	21.583	0.100
793.600	9.913	0.100
793.700	8.672	0.100
793.800	9.818	0.100
793.900	24.734	0.100
794.000	15.970	0.100
794.100	9.822	0.100
794.200	23.601	0.100
794.300	14.074	0.100
794.400	16.709	0.100
794.500	23.667	0.100
794.600	13.655	0.100
794.700	-1.046	0.100
794.800	17.541	0.100
794.900	11.684	0.100
795.000	6.103	0.100
795.100	3.762	0.100
795.200	13.994	0.100
795.300	0.804	0.100
795.400	20.349	0.100
795.500	19.372	0.100
795.600	20.562	0.100
795.700	22.422	0.100
795.800	19.649	0.100
795.900	10.569	0.100
796.000	18.572	0.100
796.100	6.009	0.100
796.200	11.771	0.100
796.300	-2.849	0.100
796.400	11.307	0.100
796.500	13.321	0.100
796.600	7.052	0.100
796.700	13.730	0.100
796.800	20.916	0.100
796.900	21.964	0.100
797.000	7.794	0.100
797.100	13.733	0.100
797.200	20.589	0.100
797.300	20.710	0.100
797.400	16.212	0.100
797.500	9.132	0.100
797.600	11.105	0.100
797.700	19.250	0.100
797.800	15.749	0.100
797.900	29.687	0.100
798.000	13.168	0.100
798.100	23.318	0.100
798.200	25.527	0.100
798.300	9.733	0.100
798.400	16.751	0.100
798.500	13.763	0.100
798.600	17.958	0.100
798.700	14.817	0.100
798.800	15.778	0.100
798.900	7.364	0.100
799.000	20.750	0.100
799.100	12.360	0.100
799.200	-1.864	0.100
799.300	18.264	0.100
799.400	29.350	0.100
799.500	25.205	0.100
799.600	14.469	0.100
799.700	31.994	0.100
799.800	20.986	0.100
799.900	4.578	0.100
800.000	23.363	0.100
