time /s	I /nA	E /V
0.100	-2.060	0.101
0.200	-9.176	0.101
0.300	1.865	0.101
0.400	3.451	0.101
0.500	3.279	0.101
0.600	9.803	0.101
0.700	-3.947	0.101
0.800	-16.412	0.101
0.900	-3.564	0.101
1.000	-6.703	0.101
1.100	-3.011	0.101
1.200	-12.212	0.101
1.300	6.649	0.101
1.400	-7.253	0.101
1.500	-10.828	0.101
1.600	-0.673	0.101
1.700	-3.057	0.101
1.800	-0.096	0.101
1.900	-5.765	0.101
2.000	-5.738	0.101
2.100	-7.316	0.101
2.200	3.483	0.101
2.300	1.018	0.101
2.400	-4.782	0.101
2.500	-15.745	0.101
2.600	-13.261	0.101
2.700	6.042	0.101
2.800	-15.513	0.101
2.900	7.737	0.101
3.000	-11.328	0.101
3.100	-9.122	0.101
3.200	-6.330	0.101
3.300	-11.982	0.101
3.400	-15.283	0.101
3.500	1.907	0.101
3.600	-4.615	0.101
3.700	-10.918	0.101
3.800	-4.090	0.101
3.900	-10.718	0.101
4.000	-16.504	0.101
4.100	9.157	0.101
4.200	-2.719	0.101
4.300	1.588	0.101
4.400	-5.052	0.101
4.500	-3.967	0.101
4.600	2.116	0.101
4.700	-6.633	0.101
4.800	-7.965	0.101
4.900	-8.415	0.101
5.000	-0.994	0.101
5.100	-15.966	0.101
5.200	-2.552	0.101
5.300	-7.570	0.101
5.400	0.191	0.101
5.500	2.726	0.101
5.600	-30.155	0.101
5.700	-4.326	0.101
5.800	10.149	0.101
5.900	-11.089	0.101
6.000	4.164	0.101
6.100	-1.561	0.101
6.200	-5.101	0.101
6.300	-2.396	0.101
6.400	1.478	0.101
6.500	-18.984	0.101
6.600	-8.503	0.101
6.700	-1.476	0.101
6.800	1.032	0.101
6.900	-4.294	0.101
7.000	-3.799	0.101
7.100	-5.161	0.101
7.200	-3.231	0.101
7.300	-13.083	0.101
7.400	-5.177	0.101
7.500	0.902	0.101
7.600	-7.043	0.101
7.700	-4.391	0.101
7.800	-10.171	0.101
7.900	-2.592	0.101
8.000	0.289	0.101
8.100	4.195	0.101
8.200	7.573	0.101
8.300	-5.707	0.101
8.400	-14.987	0.101
8.500	5.536	0.101
8.600	-8.854	0.101
8.700	0.134	0.101
8.800	-9.018	0.101
8.900	-4.710	0.101
9.000	-20.267	0.101
9.100	-13.818	0.101
9.200	7.603	0.101
9.300	12.045	0.101
9.400	-12.151	0.101
9.500	-8.600	0.101
9.600	6.254	0.101
9.700	-6.865	0.101
9.800	1.146	0.101
9.900	-14.471	0.101
10.000	-15.366	0.101
10.100	-16.261	0.101
10.200	10.420	0.101
10.300	-1.569	0.101
10.400	-6.784	0.101
10.500	-4.363	0.101
10.600	-9.193	0.101
10.700	8.405	0.101
10.800	-7.522	0.101
10.900	-5.276	0.101
11.000	-23.398	0.101
11.100	0.074	0.101
11.200	0.332	0.101
11.300	-2.101	0.101
11.400	-19.594	0.101
11.500	-1.660	0.101
11.600	2.684	0.101
11.700	1.497	0.101
11.800	-7.550	0.101
11.900	-18.291	0.101
12.000	-0.324	0.101
12.100	-11.937	0.101
12.200	3.538	0.101
12.300	-7.672	0.101
12.400	5.260	0.101
12.500	1.593	0.101
12.600	-6.232	0.101
12.700	-9.062	0.101
12.800	-5.644	0.101
12.900	5.030	0.101
13.000	-8.897	0.101
13.100	-6.602	0.101
13.200	-1.238	0.101
13.300	-18.876	0.101
13.400	-14.134	0.101
13.500	-10.288	0.101
13.600	2.374	0.101
13.700	5.356	0.101
13.800	-1.887	0.101
13.900	-14.905	0.101
14.000	4.203	0.101
14.100	-3.182	0.101
14.200	-5.433	0.101
14.300	-3.000	0.101
14.400	-13.328	0.101
14.500	0.880	0.101
14.600	-0.701	0.101
14.700	-16.795	0.101
14.800	-12.043	0.101
14.900	-7.884	0.101
15.000	0.082	0.101
15.100	-0.100	0.101
15.200	2.974	0.101
15.300	-1.100	0.101
15.400	-1.662	0.101
15.500	3.419	0.101
15.600	-1.715	0.101
15.700	-0.233	0.101
15.800	-9.125	0.101
15.900	-7.195	0.101
16.000	-12.900	0.101
16.100	0.857	0.101
16.200	-3.389	0.101
16.300	19.265	0.101
16.400	-5.454	0.101
16.500	-5.565	0.101
16.600	-7.221	0.101
16.700	7.015	0.101
16.800	2.803	0.101
16.900	-5.348	0.101
17.000	-3.748	0.101
17.100	-3.166	0.101
17.200	10.405	0.101
17.300	-14.145	0.101
17.400	-2.259	0.101
17.500	-12.511	0.101
17.600	6.983	0.101
17.700	-0.234	0.101
17.800	-9.861	0.101
17.900	-16.861	0.101
18.000	-9.840	0.101
18.100	-2.879	0.101
18.200	-3.867	0.101
18.300	-16.805	0.101
18.400	2.744	0.101
18.500	3.733	0.101
18.600	5.264	0.101
18.700	-2.738	0.101
18.800	-7.226	0.101
18.900	-5.359	0.101
19.000	6.639	0.101
19.100	8.986	0.101
19.200	-18.246	0.101
19.300	-6.944	0.101
19.400	2.033	0.101
19.500	-13.743	0.101
19.600	-0.334	0.101
19.700	-19.042	0.101
19.800	9.633	0.101
19.900	-6.930	0.101
20.000	1.935	0.101
20.100	-2.813	0.101
20.200	10.046	0.101
20.300	-6.284	0.101
20.400	0.814	0.101
20.500	-17.447	0.101
20.600	-14.303	0.101
20.700	-2.014	0.101
20.800	4.092	0.101
20.900	-7.340	0.101
21.000	-23.309	0.101
21.100	-1.279	0.101
21.200	12.806	0.101
21.300	-11.520	0.101
21.400	-16.689	0.101
21.500	-6.556	0.101
21.600	3.227	0.101
21.700	-5.501	0.101
21.800	-1.802	0.101
21.900	-7.698	0.101
22.000	-10.752	0.101
22.100	-7.283	0.101
22.200	-20.930	0.101
22.300	1.230	0.101
22.400	-7.247	0.101
22.500	5.156	0.101
22.600	-4.811	0.101
22.700	-0.148	0.101
22.800	9.181	0.101
22.900	-4.176	0.101
23.000	-7.507	0.101
23.100	1.166	0.101
23.200	-2.140	0.101
23.300	-13.211	0.101
23.400	-4.105	0.101
23.500	4.964	0.101
23.600	-4.467	0.101
23.700	-8.337	0.101
23.800	0.561	0.101
23.900	9.880	0.101
24.000	-7.377	0.101
24.100	-10.605	0.101
24.200	-6.634	0.101
24.300	-3.419	0.101
24.400	18.695	0.101
24.500	-8.556	0.101
24.600	-12.416	0.101
24.700	-15.254	0.101
24.800	-5.181	0.101
24.900	6.592	0.101
25.000	-9.311	0.101
25.100	-1.948	0.101
25.200	-4.713	0.101
25.300	4.434	0.101
25.400	-11.356	0.101
25.500	6.054	0.101
25.600	-3.787	0.101
25.700	11.615	0.101
25.800	3.407	0.101
25.900	1.041	0.101
26.000	-1.873	0.101
26.100	-17.679	0.101
26.200	5.496	0.101
26.300	-12.906	0.101
26.400	-11.020	0.101
26.500	-6.369	0.101
26.600	-4.190	0.101
26.700	-4.470	0.101
26.800	-2.172	0.101
26.900	-8.646	0.101
27.000	12.834	0.101
27.100	1.078	0.101
27.200	-10.974	0.101
27.300	-4.628	0.101
27.400	14.356	0.101
27.500	12.020	0.101
27.600	-3.898	0.101
27.700	-6.775	0.101
27.800	-0.134	0.101
27.900	-4.482	0.101
28.000	-1.783	0.101
28.100	-9.196	0.101
28.200	-3.168	0.101
28.300	6.732	0.101
28.400	-19.279	0.101
28.500	-18.139	0.101
28.600	-7.004	0.101
28.700	-2.157	0.101
28.800	-11.549	0.101
28.900	-21.259	0.101
29.000	13.896	0.101
29.100	-3.300	0.101
29.200	-5.468	0.101
29.300	7.016	0.101
29.400	5.924	0.101
29.500	-7.907	0.101
29.600	-10.779	0.101
29.700	-3.467	0.101
29.800	-2.506	0.101
29.900	5.027	0.101
30.000	6.115	0.101
30.100	-14.164	0.101
30.200	13.483	0.101
30.300	6.435	0.101
30.400	-2.353	0.101
30.500	-0.234	0.101
30.600	0.366	0.101
30.700	5.804	0.101
30.800	2.117	0.101
30.900	5.075	0.101
31.000	-14.834	0.101
31.100	13.034	0.101
31.200	-12.594	0.101
31.300	15.890	0.101
31.400	15.963	0.101
31.500	8.620	0.101
31.600	2.299	0.101
31.700	4.699	0.101
31.800	6.728	0.101
31.900	7.812	0.101
32.000	2.487	0.101
32.100	2.510	0.101
32.200	5.149	0.101
32.300	4.226	0.101
32.400	2.158	0.101
32.500	2.018	0.101
32.600	0.975	0.101
32.700	-6.355	0.101
32.800	3.970	0.101
32.900	-4.632	0.101
33.000	18.225	0.101
33.100	1.089	0.101
33.200	7.339	0.101
33.300	-0.286	0.101
33.400	-0.766	0.101
33.500	5.933	0.101
33.600	20.255	0.101
33.700	10.206	0.101
33.800	1.653	0.101
33.900	1.763	0.101
34.000	18.184	0.101
34.100	13.521	0.101
34.200	12.348	0.101
34.300	11.780	0.101
34.400	4.097	0.101
34.500	9.506	0.101
34.600	-10.241	0.101
34.700	12.901	0.101
34.800	7.281	0.101
34.900	21.013	0.101
35.000	7.250	0.101
35.100	7.079	0.101
35.200	0.890	0.101
35.300	6.484	0.101
35.400	6.826	0.101
35.500	14.964	0.101
35.600	-0.716	0.101
35.700	10.130	0.101
35.800	-7.048	0.101
35.900	9.038	0.101
36.000	9.674	0.101
36.100	18.942	0.101
36.200	-2.217	0.101
36.300	14.930	0.101
36.400	-0.200	0.101
36.500	-2.261	0.101
36.600	7.615	0.101
36.700	14.071	0.101
36.800	1.733	0.101
36.900	12.613	0.101
37.000	2.484	0.101
37.100	3.398	0.101
37.200	21.648	0.101
37.300	8.537	0.101
37.400	-3.396	0.101
37.500	2.843	0.101
37.600	9.488	0.101
37.700	6.476	0.101
37.800	12.410	0.101
37.900	1.846	0.101
38.000	14.011	0.101
38.100	0.976	0.101
38.200	11.769	0.101
38.300	-0.943	0.101
38.400	12.489	0.101
38.500	28.982	0.101
38.600	5.956	0.101
38.700	-1.621	0.101
38.800	4.982	0.101
38.900	6.831	0.101
39.000	25.802	0.101
39.100	-5.208	0.101
39.200	2.134	0.101
39.300	2.201	0.101
39.400	2.756	0.101
39.500	19.374	0.101
39.600	19.963	0.101
39.700	1.406	0.101
39.800	20.090	0.101
39.900	8.018	0.101
40.000	12.630	0.101
40.100	6.120	0.101
40.200	15.002	0.101
40.300	8.209	0.101
40.400	6.348	0.101
40.500	11.370	0.101
40.600	26.342	0.101
40.700	13.353	0.101
40.800	11.605	0.101
40.900	18.738	0.101
41.000	-1.052	0.101
41.100	8.702	0.101
41.200	8.343	0.101
41.300	12.164	0.101
41.400	3.784	0.101
41.500	8.735	0.101
41.600	7.816	0.101
41.700	5.383	0.101
41.800	18.582	0.101
41.900	16.544	0.101
42.000	6.918	0.101
42.100	20.203	0.101
42.200	21.055	0.101
42.300	-2.777	0.101
42.400	13.268	0.101
42.500	25.395	0.101
42.600	12.964	0.101
42.700	0.999	0.101
42.800	11.888	0.101
42.900	14.290	0.101
43.000	9.611	0.101
43.100	1.466	0.101
43.200	21.154	0.101
43.300	22.123	0.101
43.400	10.694	0.101
43.500	14.368	0.101
43.600	9.750	0.101
43.700	3.976	0.101
43.800	19.944	0.101
43.900	12.926	0.101
44.000	5.153	0.101
44.100	2.488	0.101
44.200	14.435	0.101
44.300	11.924	0.101
44.400	5.769	0.101
44.500	8.547	0.101
44.600	18.383	0.101
44.700	14.543	0.101
44.800	17.642	0.101
44.900	3.571	0.101
45.000	17.268	0.101
45.100	15.374	0.101
45.200	18.607	0.101
45.300	15.042	0.101
45.400	15.855	0.101
45.500	19.992	0.101
45.600	-3.783	0.101
45.700	14.973	0.101
45.800	19.594	0.101
45.900	13.808	0.101
46.000	25.573	0.101
46.100	0.879	0.101
46.200	29.118	0.101
46.300	4.633	0.101
46.400	9.905	0.101
46.500	17.356	0.101
46.600	0.965	0.101
46.700	25.598	0.101
46.800	10.012	0.101
46.900	20.607	0.101
47.000	6.367	0.101
47.100	18.518	0.101
47.200	11.724	0.101
47.300	8.591	0.101
47.400	10.223	0.101
47.500	29.714	0.101
47.600	1.396	0.101
47.700	17.288	0.101
47.800	9.477	0.101
47.900	14.069	0.101
48.000	20.874	0.101
48.100	6.572	0.101
48.200	5.653	0.101
48.300	13.169	0.101
48.400	11.006	0.101
48.500	15.393	0.101
48.600	22.461	0.101
48.700	12.290	0.101
48.800	19.641	0.101
48.900	9.591	0.101
49.000	4.996	0.101
49.100	25.049	0.101
49.200	8.274	0.101
49.300	0.750	0.101
49.400	4.764	0.101
49.500	18.650	0.101
49.600	6.949	0.101
49.700	10.854	0.101
49.800	21.206	0.101
49.900	16.379	0.101
50.000	18.305	0.101
50.100	11.000	0.101
50.200	8.386	0.101
50.300	3.180	0.101
50.400	6.491	0.101
50.500	26.245	0.101
50.600	14.269	0.101
50.700	15.326	0.101
50.800	3.598	0.101
50.900	33.437	0.101
51.000	30.756	0.101
51.100	26.952	0.101
51.200	10.989	0.101
51.300	1.021	0.101
51.400	8.751	0.101
51.500	8.036	0.101
51.600	13.157	0.101
51.700	18.666	0.101
51.800	1.374	0.101
51.900	-4.300	0.101
52.000	18.587	0.101
52.100	26.845	0.101
52.200	-1.845	0.101
52.300	16.580	0.101
52.400	19.052	0.101
52.500	12.650	0.101
52.600	21.177	0.101
52.700	11.320	0.101
52.800	-0.368	0.101
52.900	8.671	0.101
53.000	16.902	0.101
53.100	10.050	0.101
53.200	4.338	0.101
53.300	8.905	0.101
53.400	3.626	0.101
53.500	8.690	0.101
53.600	20.279	0.101
53.700	13.064	0.101
53.800	7.040	0.101
53.900	17.602	0.101
54.000	16.049	0.101
54.100	4.812	0.101
54.200	19.170	0.101
54.300	13.189	0.101
54.400	19.618	0.101
54.500	14.647	0.101
54.600	8.146	0.101
54.700	20.859	0.101
54.800	17.746	0.101
54.900	29.650	0.101
55.000	11.415	0.101
55.100	7.909	0.101
55.200	12.644	0.101
55.300	10.391	0.101
55.400	14.227	0.101
55.500	14.250	0.101
55.600	14.366	0.101
55.700	9.476	0.101
55.800	4.522	0.101
55.900	21.853	0.101
56.000	16.081	0.101
56.100	6.626	0.101
56.200	18.332	0.101
56.300	8.625	0.101
56.400	15.016	0.101
56.500	21.371	0.101
56.600	13.480	0.101
56.700	14.347	0.101
56.800	6.133	0.101
56.900	20.819	0.101
57.000	12.984	0.101
57.100	8.277	0.101
57.200	14.443	0.101
57.300	24.938	0.101
57.400	7.355	0.101
57.500	12.039	0.101
57.600	6.083	0.101
57.700	14.867	0.101
57.800	17.485	0.101
57.900	12.332	0.101
58.000	7.448	0.101
58.100	17.035	0.101
58.200	5.633	0.101
58.300	22.189	0.101
58.400	14.393	0.101
58.500	11.031	0.101
58.600	9.609	0.101
58.700	0.285	0.101
58.800	5.126	0.101
58.900	17.836	0.101
59.000	10.987	0.101
59.100	3.935	0.101
59.200	17.416	0.101
59.300	11.010	0.101
59.400	9.497	0.101
59.500	2.039	0.101
59.600	2.645	0.101
59.700	12.019	0.101
59.800	5.999	0.101
59.900	10.835	0.101
60.000	21.418	0.101
60.100	15.783	0.101
60.200	9.096	0.101
60.300	13.503	0.101
60.400	17.484	0.101
60.500	23.064	0.101
60.600	0.964	0.101
60.700	11.070	0.101
60.800	10.743	0.101
60.900	11.378	0.101
61.000	8.838	0.101
61.100	12.141	0.101
61.200	20.868	0.101
61.300	7.646	0.101
61.400	12.311	0.101
61.500	15.772	0.101
61.600	14.874	0.101
61.700	14.555	0.101
61.800	-2.292	0.101
61.900	11.509	0.101
62.000	2.530	0.101
62.100	8.355	0.101
62.200	18.246	0.101
62.300	4.581	0.101
62.400	5.975	0.101
62.500	12.080	0.101
62.600	17.511	0.101
62.700	14.525	0.101
62.800	10.721	0.101
62.900	25.782	0.101
63.000	11.877	0.101
63.100	18.373	0.101
63.200	-0.671	0.101
63.300	2.240	0.101
63.400	20.348	0.101
63.500	22.596	0.101
63.600	23.557	0.101
63.700	8.663	0.101
63.800	6.466	0.101
63.900	22.625	0.101
64.000	16.750	0.101
64.100	17.530	0.100
64.200	1.995	0.100
64.300	8.190	0.100
64.400	23.476	0.100
64.500	5.483	0.100
64.600	17.336	0.100
64.700	3.376	0.100
64.800	17.276	0.100
64.900	15.697	0.100
65.000	6.647	0.100
65.100	12.979	0.100
65.200	26.932	0.100
65.300	16.730	0.100
65.400	7.010	0.100
65.500	8.835	0.100
65.600	2.000	0.100
65.700	1.151	0.100
65.800	21.398	0.100
65.900	10.105	0.100
66.000	15.962	0.100
66.100	11.123	0.100
66.200	-2.027	0.100
66.300	15.728	0.100
66.400	15.749	0.100
66.500	12.411	0.100
66.600	16.177	0.100
66.700	14.102	0.100
66.800	15.589	0.100
66.900	2.734	0.100
67.000	16.962	0.100
67.100	9.526	0.100
67.200	15.760	0.100
67.300	15.028	0.100
67.400	4.520	0.100
67.500	17.430	0.100
67.600	12.416	0.100
67.700	16.027	0.100
67.800	9.030	0.100
67.900	10.161	0.100
68.000	11.875	0.100
68.100	17.651	0.100
68.200	18.351	0.100
68.300	4.065	0.100
68.400	9.129	0.100
68.500	17.250	0.100
68.600	-0.679	0.100
68.700	2.602	0.100
68.800	12.335	0.100
68.900	7.152	0.100
69.000	9.122	0.100
69.100	33.952	0.100
69.200	-3.131	0.100
69.300	15.684	0.100
69.400	19.689	0.100
69.500	5.624	0.100
69.600	14.316	0.100
69.700	20.180	0.100
69.800	18.806	0.100
69.900	8.563	0.100
70.000	6.227	0.100
70.100	26.273	0.100
70.200	31.821	0.100
70.300	19.186	0.100
70.400	4.229	0.100
70.500	17.999	0.100
70.600	11.721	0.100
70.700	1.769	0.100
70.800	22.694	0.100
70.900	16.562	0.100
71.000	23.096	0.100
71.100	13.853	0.100
71.200	9.635	0.100
71.300	10.239	0.100
71.400	12.021	0.100
71.500	21.291	0.100
71.600	7.122	0.100
71.700	14.201	0.100
71.800	17.638	0.100
71.900	19.478	0.100
72.000	12.221	0.100
72.100	11.365	0.100
72.200	16.619	0.100
72.300	3.288	0.100
72.400	20.925	0.100
72.500	0.510	0.100
72.600	10.155	0.100
72.700	8.224	0.100
72.800	16.107	0.100
72.900	6.957	0.100
73.000	8.205	0.100
73.100	21.829	0.100
73.200	24.933	0.100
73.300	3.289	0.100
73.400	14.274	0.100
73.500	18.399	0.100
73.600	15.660	0.100
73.700	12.182	0.100
73.800	4.222	0.100
73.900	11.570	0.100
74.000	8.660	0.100
74.100	11.287	0.100
74.200	3.184	0.100
74.300	19.429	0.100
74.400	9.906	0.100
74.500	9.256	0.100
74.600	3.771	0.100
74.700	12.983	0.100
74.800	7.129	0.100
74.900	-0.031	0.100
75.000	26.350	0.100
75.100	5.281	0.100
75.200	13.324	0.100
75.300	24.859	0.100
75.400	3.903	0.100
75.500	12.269	0.100
75.600	14.605	0.100
75.700	3.628	0.100
75.800	17.485	0.100
75.900	3.479	0.100
76.000	14.220	0.100
76.100	6.913	0.100
76.200	8.411	0.100
76.300	4.362	0.100
76.400	11.023	0.100
76.500	13.665	0.100
76.600	15.403	0.100
76.700	3.481	0.100
76.800	17.085	0.100
76.900	20.340	0.100
77.000	14.647	0.100
77.100	-0.437	0.100
77.200	2.215	0.100
77.300	0.478	0.100
77.400	13.876	0.100
77.500	6.905	0.100
77.600	21.297	0.100
77.700	11.833	0.100
77.800	6.619	0.100
77.900	16.637	0.100
78.000	9.410	0.100
78.100	12.293	0.100
78.200	10.537	0.100
78.300	-5.630	0.100
78.400	11.475	0.100
78.500	17.470	0.100
78.600	20.263	0.100
78.700	18.724	0.100
78.800	19.594	0.100
78.900	9.218	0.100
79.000	9.020	0.100
79.100	-1.782	0.100
79.200	11.264	0.100
79.300	14.330	0.100
79.400	12.205	0.100
79.500	18.865	0.100
79.600	13.726	0.100
79.700	6.628	0.100
79.800	15.003	0.100
79.900	8.612	0.100
80.000	18.341	0.100
80.100	15.073	0.100
80.200	10.460	0.100
80.300	13.098	0.100
80.400	8.244	0.100
80.500	11.230	0.100
80.600	10.158	0.100
80.700	2.553	0.100
80.800	2.906	0.100
80.900	18.646	0.101
81.000	20.901	0.101
81.100	14.387	0.101
81.200	4.916	0.101
81.300	1.542	0.101
81.400	7.904	0.101
81.500	12.508	0.101
81.600	9.964	0.101
81.700	14.673	0.101
81.800	20.640	0.101
81.900	17.986	0.101
82.000	6.780	0.101
82.100	18.514	0.101
82.200	9.150	0.101
82.300	2.067	0.101
82.400	2.168	0.101
82.500	2.925	0.101
82.600	16.201	0.101
82.700	23.333	0.101
82.800	21.642	0.101
82.900	25.320	0.101
83.000	20.611	0.101
83.100	-3.998	0.101
83.200	22.101	0.101
83.300	27.454	0.101
83.400	14.729	0.101
83.500	18.743	0.101
83.600	11.909	0.101
83.700	3.421	0.101
83.800	-2.111	0.101
83.900	14.585	0.101
84.000	13.184	0.101
84.100	6.108	0.101
84.200	7.416	0.101
84.300	25.474	0.101
84.400	13.699	0.101
84.500	19.802	0.101
84.600	7.626	0.101
84.700	24.707	0.101
84.800	7.794	0.101
84.900	4.032	0.101
85.000	19.883	0.101
85.100	20.660	0.101
85.200	26.832	0.101
85.300	9.370	0.101
85.400	12.903	0.101
85.500	11.996	0.101
85.600	10.330	0.101
85.700	4.185	0.101
85.800	16.909	0.101
85.900	9.924	0.101
86.000	20.141	0.101
86.100	21.700	0.101
86.200	22.527	0.101
86.300	5.674	0.101
86.400	14.263	0.101
86.500	10.651	0.101
86.600	13.963	0.101
86.700	4.999	0.101
86.800	13.342	0.101
86.900	12.514	0.101
87.000	10.552	0.101
87.100	12.277	0.101
87.200	10.143	0.101
87.300	10.748	0.101
87.400	4.247	0.101
87.500	14.446	0.101
87.600	18.952	0.101
87.700	17.073	0.101
87.800	9.320	0.101
87.900	11.357	0.101
88.000	20.926	0.101
88.100	13.403	0.101
88.200	15.286	0.101
88.300	23.849	0.101
88.400	11.056	0.101
88.500	20.004	0.101
88.600	23.122	0.101
88.700	5.305	0.101
88.800	6.395	0.101
88.900	9.077	0.101
89.000	17.475	0.101
89.100	2.384	0.101
89.200	12.075	0.101
89.300	16.400	0.101
89.400	6.315	0.101
89.500	18.137	0.101
89.600	3.373	0.101
89.700	12.361	0.101
89.800	25.336	0.101
89.900	19.485	0.101
90.000	23.376	0.101
90.100	7.424	0.101
90.200	15.924	0.101
90.300	7.387	0.101
90.400	3.328	0.101
90.500	3.270	0.101
90.600	24.235	0.101
90.700	15.054	0.101
90.800	4.185	0.101
90.900	13.880	0.101
91.000	10.058	0.101
91.100	-11.263	0.101
91.200	14.769	0.101
91.300	8.169	0.101
91.400	5.053	0.101
91.500	0.263	0.101
91.600	3.284	0.101
91.700	11.271	0.101
91.800	-1.590	0.101
91.900	-2.079	0.101
92.000	10.157	0.101
92.100	5.167	0.101
92.200	4.387	0.101
92.300	7.171	0.101
92.400	5.069	0.101
92.500	-0.151	0.101
92.600	17.641	0.101
92.700	14.423	0.101
92.800	5.547	0.101
92.900	-5.786	0.101
93.000	5.070	0.101
93.100	-3.908	0.101
93.200	9.646	0.101
93.300	2.204	0.101
93.400	1.783	0.101
93.500	7.481	0.101
93.600	-5.227	0.101
93.700	-3.343	0.101
93.800	5.028	0.101
93.900	2.296	0.101
94.000	-6.765	0.101
94.100	5.580	0.101
94.200	-8.500	0.101
94.300	-3.541	0.101
94.400	-3.275	0.101
94.500	0.490	0.101
94.600	-6.540	0.101
94.700	-8.292	0.101
94.800	8.804	0.101
94.900	-1.999	0.101
95.000	-13.518	0.101
95.100	-0.028	0.101
95.200	3.855	0.101
95.300	-20.751	0.101
95.400	0.377	0.101
95.500	-3.436	0.101
95.600	-3.297	0.101
95.700	-8.721	0.101
95.800	4.394	0.101
95.900	13.128	0.101
96.000	3.285	0.101
96.100	1.606	0.101
96.200	-11.875	0.101
96.300	-6.006	0.101
96.400	-2.971	0.101
96.500	14.362	0.101
96.600	-13.707	0.101
96.700	-9.043	0.101
96.800	-6.067	0.101
96.900	9.237	0.101
97.000	1.521	0.101
97.100	5.298	0.101
97.200	6.387	0.101
97.300	-11.635	0.101
97.400	2.586	0.101
97.500	-5.411	0.101
97.600	12.333	0.101
97.700	-2.571	0.101
97.800	-8.445	0.101
97.900	-0.425	0.101
98.000	4.788	0.101
98.100	-5.204	0.101
98.200	1.353	0.101
98.300	-11.304	0.101
98.400	-0.029	0.101
98.500	-7.061	0.101
98.600	5.918	0.101
98.700	-4.370	0.101
98.800	6.818	0.101
98.900	6.377	0.101
99.000	1.689	0.101
99.100	-1.381	0.101
99.200	-9.651	0.101
99.300	-4.674	0.101
99.400	-0.150	0.101
99.500	8.979	0.101
99.600	2.585	0.101
99.700	-7.504	0.101
99.800	3.897	0.101
99.900	1.565	0.101
100.000	5.155	0.101
100.100	3.424	0.101
100.200	-0.451	0.101
100.300	-5.328	0.101
100.400	0.669	0.101
100.500	-9.128	0.101
100.600	-0.574	0.101
100.700	-11.424	0.101
100.800	-6.020	0.101
100.900	4.351	0.101
101.000	11.249	0.101
101.100	-4.789	0.101
101.200	1.241	0.101
101.300	-1.548	0.101
101.400	-5.984	0.101
101.500	16.933	0.101
101.600	6.160	0.101
101.700	-13.419	0.101
101.800	1.690	0.101
101.900	-12.752	0.101
102.000	-8.842	0.101
102.100	-5.265	0.101
102.200	1.956	0.101
102.300	0.894	0.101
102.400	1.280	0.101
102.500	3.763	0.101
102.600	1.790	0.101
102.700	-1.500	0.101
102.800	-11.612	0.101
102.900	1.348	0.101
103.000	5.989	0.101
103.100	7.270	0.101
103.200	-10.817	0.101
103.300	8.420	0.101
103.400	7.761	0.101
103.500	-9.414	0.101
103.600	-0.881	0.101
103.700	-4.531	0.101
103.800	1.633	0.101
103.900	-7.763	0.101
104.000	-2.308	0.101
104.100	12.626	0.101
104.200	-13.177	0.101
104.300	2.389	0.101
104.400	7.483	0.101
104.500	11.381	0.101
104.600	-20.003	0.101
104.700	-6.703	0.101
104.800	2.822	0.101
104.900	-0.383	0.101
105.000	-1.126	0.101
105.100	7.229	0.101
105.200	-9.574	0.101
105.300	-2.443	0.101
105.400	8.768	0.101
105.500	-2.608	0.101
105.600	1.755	0.101
105.700	3.735	0.101
105.800	-6.066	0.101
105.900	-4.629	0.101
106.000	-9.526	0.101
106.100	-1.436	0.101
106.200	-12.145	0.101
106.300	-0.897	0.101
106.400	-2.614	0.101
106.500	3.359	0.101
106.600	8.877	0.101
106.700	-9.267	0.101
106.800	0.545	0.101
106.900	15.576	0.101
107.000	-13.028	0.101
107.100	-3.315	0.101
107.200	-9.686	0.101
107.300	-3.874	0.101
107.400	4.511	0.101
107.500	-4.978	0.101
107.600	2.880	0.101
107.700	3.369	0.101
107.800	-2.437	0.101
107.900	21.902	0.101
108.000	6.413	0.101
108.100	-12.407	0.101
108.200	-3.470	0.101
108.300	-13.892	0.101
108.400	4.099	0.101
108.500	-13.841	0.101
108.600	-1.368	0.101
108.700	3.382	0.101
108.800	-0.015	0.101
108.900	7.690	0.101
109.000	-1.078	0.101
109.100	-6.482	0.101
109.200	2.556	0.101
109.300	-11.128	0.101
109.400	-12.900	0.101
109.500	2.486	0.101
109.600	-2.490	0.101
109.700	6.370	0.101
109.800	-0.805	0.101
109.900	-3.531	0.101
110.000	1.887	0.101
110.100	-5.713	0.101
110.200	0.259	0.101
110.300	3.594	0.101
110.400	-0.237	0.101
110.500	3.010	0.101
110.600	-0.069	0.101
110.700	-0.292	0.101
110.800	-2.607	0.101
110.900	-14.904	0.101
111.000	-0.136	0.101
111.100	-4.157	0.101
111.200	3.575	0.101
111.300	10.978	0.101
111.400	-6.540	0.101
111.500	-11.439	0.101
111.600	-6.021	0.101
111.700	-4.424	0.101
111.800	-9.992	0.101
111.900	-3.724	0.101
112.000	-14.609	0.101
112.100	0.190	0.101
112.200	-5.288	0.101
112.300	-1.528	0.101
112.400	0.711	0.101
112.500	0.529	0.101
112.600	-1.103	0.101
112.700	0.762	0.101
112.800	2.648	0.101
112.900	1.917	0.101
113.000	-13.142	0.101
113.100	2.850	0.101
113.200	13.838	0.101
113.300	-0.096	0.101
113.400	-11.497	0.101
113.500	-4.822	0.101
113.600	-3.823	0.101
113.700	-3.397	0.101
113.800	1.923	0.101
113.900	-2.352	0.101
114.000	-8.613	0.101
114.100	-9.809	0.101
114.200	-6.246	0.101
114.300	-10.999	0.101
114.400	-16.918	0.101
114.500	9.153	0.101
114.600	11.514	0.101
114.700	-5.977	0.101
114.800	4.039	0.101
114.900	-10.219	0.101
115.000	-13.835	0.101
115.100	-14.283	0.101
115.200	6.100	0.101
115.300	-2.729	0.101
115.400	-9.587	0.101
115.500	-2.538	0.101
115.600	10.991	0.101
115.700	-5.882	0.101
115.800	4.568	0.101
115.900	-11.865	0.101
116.000	-3.435	0.101
116.100	6.514	0.101
116.200	-9.731	0.101
116.300	-3.197	0.101
116.400	-6.944	0.101
116.500	-6.894	0.101
116.600	0.024	0.101
116.700	-2.663	0.101
116.800	-7.365	0.101
116.900	-4.810	0.101
117.000	0.391	0.101
117.100	-6.549	0.101
117.200	1.436	0.101
117.300	-13.109	0.101
117.400	5.488	0.101
117.500	4.224	0.101
117.600	-12.860	0.101
117.700	-16.890	0.101
117.800	8.380	0.101
117.900	-5.329	0.101
118.000	-2.866	0.101
118.100	-2.426	0.101
118.200	5.294	0.101
118.300	5.109	0.101
118.400	3.972	0.101
118.500	1.170	0.101
118.600	11.320	0.101
118.700	-5.847	0.101
118.800	-0.364	0.101
118.900	-8.655	0.101
119.000	-3.128	0.101
119.100	-12.464	0.101
119.200	0.187	0.101
119.300	-1.619	0.101
119.400	-3.386	0.101
119.500	-6.887	0.101
119.600	-1.058	0.101
119.700	0.236	0.101
119.800	-15.341	0.101
119.900	3.276	0.101
120.000	-4.441	0.101
120.100	-1.461	0.101
120.200	-5.941	0.101
120.300	-9.941	0.101
120.400	12.164	0.101
120.500	-7.984	0.101
120.600	-8.239	0.101
120.700	-0.086	0.101
120.800	-2.924	0.101
120.900	0.111	0.101
121.000	1.349	0.101
121.100	8.841	0.101
121.200	-10.702	0.101
121.300	4.058	0.101
121.400	2.720	0.101
121.500	-5.368	0.101
121.600	-6.252	0.101
121.700	-4.697	0.101
121.800	2.127	0.101
121.900	-6.545	0.101
122.000	-5.835	0.101
122.100	-8.976	0.101
122.200	5.393	0.101
122.300	-1.683	0.101
122.400	-4.093	0.101
122.500	-9.977	0.101
122.600	-0.990	0.101
122.700	-16.899	0.101
122.800	-1.958	0.101
122.900	-3.814	0.101
123.000	-0.884	0.101
123.100	-13.932	0.101
123.200	-11.085	0.101
123.300	-2.695	0.101
123.400	-10.113	0.101
123.500	5.819	0.101
123.600	-3.055	0.101
123.700	-8.529	0.101
123.800	-8.597	0.101
123.900	-0.494	0.101
124.000	-10.194	0.101
124.100	-18.563	0.101
124.200	-4.612	0.101
124.300	-3.815	0.101
124.400	11.288	0.101
124.500	-9.182	0.101
124.600	-6.871	0.101
124.700	-1.186	0.101
124.800	0.284	0.101
124.900	-7.548	0.101
125.000	7.562	0.101
125.100	-6.515	0.101
125.200	1.606	0.101
125.300	-6.320	0.101
125.400	2.521	0.101
125.500	3.540	0.101
125.600	-3.921	0.101
125.700	-8.749	0.101
125.800	-0.275	0.101
125.900	-5.430	0.101
126.000	-4.019	0.101
126.100	-4.076	0.101
126.200	-14.081	0.101
126.300	-11.597	0.101
126.400	2.098	0.101
126.500	-10.528	0.101
126.600	-7.563	0.101
126.700	5.606	0.101
126.800	-9.813	0.101
126.900	-7.227	0.101
127.000	-8.735	0.101
127.100	-5.648	0.101
127.200	4.707	0.101
127.300	-11.414	0.101
127.400	-2.235	0.101
127.500	-7.717	0.101
127.600	-8.931	0.101
127.700	-1.252	0.101
127.800	3.040	0.101
127.900	-1.044	0.101
128.000	1.147	0.101
128.100	-8.650	0.101
128.200	-1.575	0.101
128.300	-1.605	0.101
128.400	-0.915	0.101
128.500	-7.763	0.101
128.600	-8.487	0.101
128.700	-5.516	0.101
128.800	-11.268	0.101
128.900	-13.807	0.101
129.000	1.690	0.101
129.100	-8.570	0.101
129.200	-4.371	0.101
129.300	-0.245	0.101
129.400	2.600	0.101
129.500	-18.616	0.101
129.600	-4.745	0.101
129.700	-19.987	0.101
129.800	6.203	0.101
129.900	-0.411	0.101
130.000	-0.605	0.101
130.100	-8.515	0.101
130.200	-15.006	0.101
130.300	7.669	0.101
130.400	-13.230	0.101
130.500	-6.326	0.101
130.600	16.571	0.101
130.700	1.591	0.101
130.800	-0.476	0.101
130.900	-19.052	0.101
131.000	-4.851	0.101
131.100	2.626	0.101
131.200	-5.607	0.101
131.300	2.597	0.101
131.400	3.969	0.101
131.500	-5.650	0.101
131.600	-25.433	0.101
131.700	-8.648	0.101
131.800	-4.418	0.101
131.900	-5.324	0.101
132.000	10.599	0.101
132.100	5.841	0.101
132.200	-10.090	0.101
132.300	-5.586	0.101
132.400	-4.129	0.101
132.500	-10.304	0.101
132.600	-3.597	0.101
132.700	-3.979	0.101
132.800	-3.000	0.101
132.900	-6.406	0.101
133.000	0.063	0.101
133.100	0.926	0.101
133.200	-3.901	0.101
133.300	-19.460	0.101
133.400	0.206	0.101
133.500	0.376	0.101
133.600	-3.982	0.101
133.700	-15.369	0.101
133.800	-5.823	0.101
133.900	-3.605	0.101
134.000	4.406	0.101
134.100	-2.341	0.101
134.200	-2.355	0.101
134.300	1.857	0.101
134.400	-7.734	0.101
134.500	-2.509	0.101
134.600	-8.920	0.101
134.700	-6.817	0.101
134.800	-6.481	0.101
134.900	-6.493	0.101
135.000	-12.473	0.101
135.100	0.926	0.101
135.200	-6.085	0.101
135.300	-12.027	0.101
135.400	4.917	0.101
135.500	5.078	0.101
135.600	10.939	0.101
135.700	-15.617	0.101
135.800	-8.150	0.101
135.900	-12.392	0.101
136.000	10.031	0.101
136.100	-4.967	0.101
136.200	-14.143	0.101
136.300	-7.044	0.101
136.400	-4.859	0.101
136.500	-7.802	0.101
136.600	-8.748	0.101
136.700	-4.183	0.101
136.800	-0.493	0.101
136.900	-2.248	0.101
137.000	-17.250	0.101
137.100	-5.137	0.101
137.200	0.314	0.101
137.300	-4.776	0.101
137.400	-7.779	0.101
137.500	-13.867	0.101
137.600	-5.186	0.101
137.700	-1.156	0.101
137.800	-8.255	0.101
137.900	-1.002	0.101
138.000	-1.690	0.101
138.100	-0.243	0.101
138.200	-4.300	0.101
138.300	2.920	0.101
138.400	-14.688	0.101
138.500	0.656	0.101
138.600	-17.451	0.101
138.700	-9.751	0.101
138.800	-10.431	0.101
138.900	3.826	0.101
139.000	-9.807	0.101
139.100	10.739	0.101
139.200	-4.782	0.101
139.300	-10.670	0.101
139.400	-0.156	0.101
139.500	-22.182	0.101
139.600	-8.197	0.101
139.700	-4.855	0.101
139.800	3.397	0.101
139.900	-2.623	0.101
140.000	-10.256	0.101
140.100	-2.771	0.101
140.200	-3.849	0.101
140.300	-14.863	0.101
140.400	-10.661	0.101
140.500	6.022	0.101
140.600	6.156	0.101
140.700	-13.208	0.101
140.800	-13.630	0.101
140.900	-11.398	0.101
141.000	2.988	0.101
141.100	5.616	0.101
141.200	1.019	0.101
141.300	-11.894	0.101
141.400	-13.511	0.101
141.500	-6.850	0.101
141.600	-7.026	0.101
141.700	-12.262	0.101
141.800	2.696	0.101
141.900	-3.092	0.101
142.000	-17.952	0.101
142.100	-0.305	0.101
142.200	-18.840	0.101
142.300	-14.512	0.101
142.400	-5.485	0.101
142.500	-7.262	0.101
142.600	-0.758	0.101
142.700	-6.931	0.101
142.800	-4.847	0.101
142.900	-12.239	0.101
143.000	1.076	0.101
143.100	2.318	0.101
143.200	-14.232	0.101
143.300	-5.383	0.101
143.400	-2.543	0.101
143.500	7.760	0.101
143.600	-2.708	0.101
143.700	-12.427	0.101
143.800	-0.287	0.101
143.900	-1.838	0.101
144.000	-13.674	0.101
144.100	-0.298	0.101
144.200	12.548	0.101
144.300	-12.198	0.101
144.400	0.038	0.101
144.500	-12.109	0.101
144.600	-5.617	0.101
144.700	-5.390	0.101
144.800	-0.633	0.101
144.900	-12.149	0.101
145.000	-10.912	0.101
145.100	-7.671	0.101
145.200	-8.418	0.101
145.300	-2.433	0.101
145.400	3.899	0.101
145.500	-6.081	0.101
145.600	-13.584	0.101
145.700	-12.256	0.101
145.800	-16.048	0.101
145.900	-7.992	0.101
146.000	11.861	0.101
146.100	5.415	0.101
146.200	1.226	0.101
146.300	-5.176	0.101
146.400	-9.183	0.101
146.500	-5.804	0.101
146.600	-1.834	0.101
146.700	2.555	0.101
146.800	-6.919	0.101
146.900	-6.559	0.101
147.000	-8.304	0.101
147.100	-3.831	0.101
147.200	-4.076	0.101
147.300	3.202	0.101
147.400	3.359	0.101
147.500	-11.604	0.101
147.600	-10.864	0.101
147.700	-8.462	0.101
147.800	-11.126	0.101
147.900	-13.147	0.101
148.000	-4.457	0.101
148.100	-12.411	0.101
148.200	-11.575	0.101
148.300	-6.383	0.101
148.400	0.000	0.101
148.500	6.489	0.101
148.600	-6.261	0.101
148.700	-16.257	0.101
148.800	-7.695	0.101
148.900	-6.620	0.101
149.000	-7.009	0.101
149.100	-11.537	0.101
149.200	-2.876	0.101
149.300	-4.969	0.101
149.400	-2.141	0.101
149.500	-9.853	0.101
149.600	-17.975	0.101
149.700	-1.349	0.101
149.800	-3.282	0.101
149.900	-5.775	0.101
150.000	-1.754	0.101
150.100	-6.396	0.101
150.200	-2.447	0.101
150.300	2.164	0.101
150.400	-4.673	0.101
150.500	-7.177	0.101
150.600	0.439	0.101
150.700	-3.851	0.101
150.800	-7.375	0.101
150.900	-3.981	0.101
151.000	-1.642	0.101
151.100	-7.004	0.101
151.200	-6.337	0.101
151.300	-10.158	0.101
151.400	-3.529	0.101
151.500	3.767	0.101
151.600	-15.801	0.101
151.700	-11.350	0.101
151.800	2.951	0.101
151.900	-9.813	0.101
152.000	-2.345	0.101
152.100	-7.561	0.101
152.200	-9.571	0.101
152.300	-6.792	0.101
152.400	-5.399	0.101
152.500	-9.930	0.101
152.600	-5.800	0.101
152.700	-5.776	0.101
152.800	-4.209	0.101
152.900	-15.005	0.101
153.000	-6.586	0.101
153.100	-4.766	0.101
153.200	-1.746	0.101
153.300	5.055	0.101
153.400	6.300	0.101
153.500	-11.814	0.101
153.600	-1.442	0.101
153.700	1.471	0.101
153.800	-4.457	0.101
153.900	-8.275	0.101
154.000	-2.053	0.101
154.100	-7.355	0.101
154.200	-10.009	0.101
154.300	-2.401	0.101
154.400	11.528	0.101
154.500	-5.197	0.101
154.600	-14.783	0.101
154.700	-2.515	0.101
154.800	1.024	0.101
154.900	-8.048	0.101
155.000	5.044	0.101
155.100	-13.631	0.101
155.200	-10.171	0.101
155.300	0.376	0.101
155.400	0.445	0.101
155.500	-13.549	0.101
155.600	-1.677	0.101
155.700	0.848	0.101
155.800	-11.249	0.101
155.900	-10.581	0.101
156.000	-2.997	0.101
156.100	-14.397	0.101
156.200	-13.345	0.101
156.300	5.272	0.101
156.400	-4.467	0.101
156.500	5.104	0.101
156.600	-10.323	0.101
156.700	-8.118	0.101
156.800	1.607	0.101
156.900	-3.682	0.101
157.000	0.511	0.101
157.100	-17.134	0.101
157.200	-8.736	0.101
157.300	-6.345	0.101
157.400	-5.148	0.101
157.500	-6.772	0.101
157.600	4.180	0.101
157.700	-2.060	0.101
157.800	-9.359	0.101
157.900	-10.911	0.101
158.000	-2.278	0.101
158.100	-2.393	0.101
158.200	4.291	0.101
158.300	2.825	0.101
158.400	4.442	0.101
158.500	-1.777	0.101
158.600	-9.626	0.101
158.700	-4.738	0.101
158.800	2.144	0.101
158.900	9.402	0.101
159.000	-15.129	0.101
159.100	-0.592	0.101
159.200	-18.778	0.101
159.300	-7.608	0.101
159.400	7.687	0.101
159.500	-3.392	0.101
159.600	-2.424	0.101
159.700	5.479	0.101
159.800	-2.443	0.101
159.900	-0.826	0.101
160.000	-8.579	0.101
160.100	-12.324	0.101
160.200	5.599	0.101
160.300	-11.674	0.101
160.400	-10.262	0.101
160.500	-10.598	0.101
160.600	-0.580	0.101
160.700	-7.801	0.101
160.800	-6.476	0.101
160.900	-5.347	0.101
161.000	4.462	0.101
161.100	-17.521	0.101
161.200	-5.184	0.101
161.300	-4.349	0.101
161.400	-15.959	0.101
161.500	0.835	0.101
161.600	-11.644	0.101
161.700	-2.421	0.101
161.800	0.613	0.101
161.900	-10.594	0.101
162.000	-1.538	0.101
162.100	-0.785	0.101
162.200	-8.962	0.101
162.300	-11.806	0.101
162.400	-6.514	0.101
162.500	3.735	0.101
162.600	-9.459	0.101
162.700	-15.398	0.101
162.800	-7.249	0.101
162.900	-5.904	0.101
163.000	0.735	0.101
163.100	10.613	0.101
163.200	-12.764	0.101
163.300	-3.376	0.101
163.400	-18.087	0.101
163.500	-8.548	0.101
163.600	-3.834	0.101
163.700	-13.374	0.101
163.800	-8.259	0.101
163.900	0.720	0.101
164.000	1.769	0.101
164.100	-7.708	0.101
164.200	-5.346	0.101
164.300	1.154	0.101
164.400	3.096	0.101
164.500	-6.301	0.101
164.600	-8.780	0.101
164.700	0.566	0.101
164.800	-10.803	0.101
164.900	7.034	0.101
165.000	2.794	0.101
165.100	-16.981	0.101
165.200	1.966	0.101
165.300	0.720	0.101
165.400	2.223	0.101
165.500	-9.219	0.101
165.600	6.631	0.101
165.700	-9.241	0.101
165.800	1.247	0.101
165.900	-8.262	0.101
166.000	-10.370	0.101
166.100	0.927	0.101
166.200	-6.172	0.101
166.300	14.870	0.101
166.400	-5.402	0.101
166.500	-8.738	0.101
166.600	-12.922	0.101
166.700	-11.171	0.101
166.800	-18.708	0.101
166.900	-1.932	0.101
167.000	1.055	0.101
167.100	-7.789	0.101
167.200	-8.601	0.101
167.300	-10.043	0.101
167.400	-2.110	0.101
167.500	-10.705	0.101
167.600	-12.799	0.101
167.700	-1.371	0.101
167.800	-7.612	0.101
167.900	4.642	0.101
168.000	-3.943	0.101
168.100	4.296	0.101
168.200	-6.489	0.101
168.300	-4.430	0.101
168.400	8.434	0.101
168.500	-15.934	0.101
168.600	-16.055	0.101
168.700	-0.568	0.101
168.800	-18.241	0.101
168.900	-11.673	0.101
169.000	-3.935	0.101
169.100	0.176	0.101
169.200	0.738	0.101
169.300	-21.274	0.101
169.400	-6.397	0.101
169.500	1.655	0.101
169.600	6.883	0.101
169.700	-1.565	0.101
169.800	-12.004	0.101
169.900	-4.194	0.101
170.000	-31.522	0.101
170.100	-1.526	0.101
170.200	11.494	0.101
170.300	-2.369	0.101
170.400	-15.358	0.101
170.500	-4.115	0.101
170.600	1.128	0.101
170.700	-10.557	0.101
170.800	-8.981	0.101
170.900	10.500	0.101
171.000	4.286	0.101
171.100	-12.286	0.101
171.200	-14.343	0.101
171.300	-8.362	0.101
171.400	-0.116	0.101
171.500	0.786	0.101
171.600	1.847	0.101
171.700	-9.325	0.101
171.800	-10.351	0.101
171.900	-0.470	0.101
172.000	-1.183	0.101
172.100	-0.603	0.101
172.200	-8.369	0.101
172.300	-3.689	0.101
172.400	-4.532	0.101
172.500	-1.839	0.101
172.600	-5.682	0.101
172.700	-10.903	0.101
172.800	-7.050	0.101
172.900	-4.163	0.101
173.000	-1.381	0.101
173.100	0.128	0.101
173.200	0.402	0.101
173.300	-7.268	0.101
173.400	-5.959	0.101
173.500	-2.975	0.101
173.600	-12.996	0.101
173.700	-6.516	0.101
173.800	-0.836	0.101
173.900	0.380	0.101
174.000	0.123	0.101
174.100	-3.150	0.101
174.200	-2.036	0.101
174.300	-11.808	0.101
174.400	-7.124	0.101
174.500	-11.925	0.101
174.600	-2.637	0.101
174.700	2.444	0.101
174.800	-0.479	0.101
174.900	-13.496	0.101
175.000	-3.345	0.101
175.100	0.223	0.101
175.200	-6.849	0.101
175.300	-0.006	0.101
175.400	-12.487	0.101
175.500	-17.882	0.101
175.600	-12.613	0.101
175.700	-2.283	0.101
175.800	-5.386	0.101
175.900	1.588	0.101
176.000	-2.466	0.101
176.100	-5.442	0.101
176.200	1.946	0.101
176.300	-3.625	0.101
176.400	-0.434	0.101
176.500	-4.071	0.101
176.600	3.023	0.101
176.700	-16.755	0.101
176.800	-10.004	0.101
176.900	-13.517	0.101
177.000	3.336	0.101
177.100	-12.874	0.101
177.200	-1.407	0.101
177.300	-13.468	0.101
177.400	5.423	0.101
177.500	-10.729	0.101
177.600	2.001	0.101
177.700	-3.228	0.101
177.800	-12.623	0.101
177.900	4.076	0.101
178.000	-9.800	0.101
178.100	5.450	0.101
178.200	0.309	0.101
178.300	-9.856	0.101
178.400	-6.510	0.101
178.500	-10.806	0.101
178.600	-5.571	0.101
178.700	-11.618	0.101
178.800	5.131	0.101
178.900	-12.539	0.101
179.000	10.899	0.101
179.100	-16.705	0.101
179.200	-4.973	0.101
179.300	1.456	0.101
179.400	5.495	0.101
179.500	6.649	0.101
179.600	-5.907	0.101
179.700	-10.452	0.101
179.800	-1.213	0.101
179.900	-4.216	0.101
180.000	-12.715	0.101
180.100	-0.834	0.101
180.200	-9.440	0.101
180.300	-12.514	0.101
180.400	13.109	0.101
180.500	0.133	0.101
180.600	-3.128	0.101
180.700	2.843	0.101
180.800	1.561	0.101
180.900	-0.938	0.101
181.000	-6.460	0.101
181.100	4.832	0.101
181.200	7.063	0.101
181.300	-3.717	0.101
181.400	-3.938	0.101
181.500	-5.313	0.101
181.600	16.411	0.101
181.700	7.466	0.101
181.800	1.711	0.101
181.900	6.927	0.101
182.000	9.403	0.101
182.100	-1.829	0.101
182.200	18.143	0.101
182.300	1.113	0.101
182.400	-6.965	0.101
182.500	-3.143	0.101
182.600	14.121	0.101
182.700	8.465	0.101
182.800	10.513	0.101
182.900	12.825	0.101
183.000	12.640	0.101
183.100	4.253	0.101
183.200	4.842	0.101
183.300	1.301	0.101
183.400	4.703	0.101
183.500	14.596	0.101
183.600	15.399	0.101
183.700	4.485	0.101
183.800	3.393	0.101
183.900	18.075	0.101
184.000	1.157	0.101
184.100	10.187	0.101
184.200	0.261	0.101
184.300	-2.649	0.101
184.400	-5.619	0.101
184.500	13.685	0.101
184.600	8.275	0.101
184.700	-0.378	0.101
184.800	12.374	0.101
184.900	-1.891	0.101
185.000	-9.450	0.101
185.100	10.916	0.101
185.200	22.345	0.101
185.300	19.045	0.101
185.400	13.230	0.101
185.500	10.913	0.101
185.600	11.309	0.101
185.700	-5.322	0.101
185.800	1.662	0.101
185.900	8.304	0.101
186.000	1.613	0.101
186.100	19.742	0.101
186.200	3.438	0.101
186.300	3.055	0.101
186.400	5.362	0.101
186.500	8.363	0.101
186.600	13.186	0.101
186.700	-6.056	0.101
186.800	-5.552	0.101
186.900	18.410	0.101
187.000	-0.399	0.101
187.100	7.944	0.101
187.200	15.489	0.101
187.300	6.433	0.101
187.400	8.727	0.101
187.500	19.686	0.101
187.600	18.772	0.101
187.700	7.846	0.101
187.800	15.376	0.101
187.900	6.922	0.101
188.000	-4.663	0.101
188.100	3.402	0.101
188.200	0.555	0.101
188.300	11.941	0.101
188.400	4.644	0.101
188.500	15.504	0.101
188.600	4.545	0.101
188.700	10.888	0.101
188.800	6.745	0.101
188.900	11.830	0.101
189.000	17.281	0.101
189.100	-2.489	0.101
189.200	2.423	0.101
189.300	-12.384	0.101
189.400	6.726	0.101
189.500	12.094	0.101
189.600	4.450	0.101
189.700	4.989	0.101
189.800	15.485	0.101
189.900	2.633	0.101
190.000	6.108	0.101
190.100	7.530	0.101
190.200	5.069	0.101
190.300	14.500	0.101
190.400	16.363	0.101
190.500	10.436	0.101
190.600	11.898	0.101
190.700	7.349	0.101
190.800	3.660	0.101
190.900	0.481	0.101
191.000	12.678	0.101
191.100	7.353	0.101
191.200	2.457	0.101
191.300	4.359	0.101
191.400	15.245	0.101
191.500	19.690	0.101
191.600	19.079	0.101
191.700	4.423	0.101
191.800	15.109	0.101
191.900	13.288	0.101
192.000	1.104	0.101
192.100	14.761	0.101
192.200	13.792	0.101
192.300	10.501	0.101
192.400	0.003	0.101
192.500	22.685	0.101
192.600	10.186	0.101
192.700	13.636	0.101
192.800	21.474	0.101
192.900	24.130	0.101
193.000	20.644	0.101
193.100	8.741	0.101
193.200	34.234	0.101
193.300	16.378	0.101
193.400	12.024	0.101
193.500	19.231	0.101
193.600	8.642	0.101
193.700	8.068	0.101
193.800	-0.109	0.101
193.900	13.853	0.101
194.000	14.516	0.101
194.100	19.687	0.101
194.200	18.374	0.101
194.300	-2.693	0.101
194.400	12.251	0.101
194.500	13.377	0.101
194.600	5.968	0.101
194.700	8.290	0.101
194.800	17.891	0.101
194.900	6.567	0.101
195.000	10.329	0.101
195.100	18.630	0.101
195.200	12.831	0.101
195.300	12.585	0.101
195.400	6.143	0.101
195.500	10.964	0.101
195.600	15.581	0.101
195.700	19.710	0.101
195.800	17.013	0.101
195.900	9.841	0.101
196.000	16.000	0.101
196.100	16.870	0.101
196.200	14.245	0.101
196.300	20.211	0.101
196.400	19.646	0.101
196.500	20.045	0.101
196.600	15.498	0.101
196.700	36.889	0.101
196.800	8.093	0.101
196.900	15.486	0.101
197.000	6.536	0.101
197.100	14.934	0.101
197.200	8.819	0.101
197.300	34.858	0.101
197.400	12.986	0.101
197.500	12.296	0.101
197.600	21.517	0.101
197.700	28.645	0.101
197.800	18.742	0.101
197.900	8.498	0.101
198.000	7.783	0.101
198.100	0.851	0.101
198.200	14.336	0.101
198.300	17.893	0.101
198.400	9.610	0.101
198.500	21.579	0.101
198.600	21.632	0.101
198.700	17.665	0.101
198.800	7.634	0.101
198.900	27.813	0.101
199.000	21.249	0.101
199.100	16.931	0.101
199.200	13.972	0.101
199.300	12.262	0.101
199.400	28.320	0.101
199.500	15.545	0.101
199.600	13.774	0.101
199.700	24.627	0.101
199.800	13.868	0.101
199.900	5.083	0.101
200.000	19.855	0.101
200.100	27.998	0.101
200.200	22.148	0.101
200.300	20.135	0.101
200.400	18.052	0.101
200.500	9.946	0.101
200.600	4.448	0.101
200.700	13.312	0.101
200.800	38.658	0.101
200.900	17.269	0.101
201.000	15.097	0.101
201.100	21.606	0.101
201.200	15.718	0.101
201.300	18.585	0.101
201.400	14.375	0.101
201.500	20.003	0.101
201.600	7.473	0.101
201.700	20.850	0.101
201.800	22.825	0.101
201.900	21.292	0.101
202.000	3.979	0.101
202.100	11.440	0.101
202.200	15.479	0.101
202.300	29.164	0.101
202.400	10.549	0.101
202.500	19.024	0.101
202.600	17.795	0.101
202.700	33.309	0.101
202.800	9.850	0.101
202.900	8.200	0.101
203.000	0.854	0.101
203.100	2.731	0.101
203.200	40.580	0.101
203.300	29.882	0.101
203.400	4.434	0.101
203.500	13.853	0.101
203.600	5.746	0.101
203.700	25.034	0.101
203.800	9.784	0.101
203.900	17.229	0.101
204.000	30.746	0.101
204.100	16.205	0.101
204.200	14.581	0.101
204.300	18.123	0.101
204.400	20.089	0.101
204.500	14.248	0.101
204.600	22.645	0.101
204.700	25.099	0.101
204.800	24.362	0.101
204.900	-2.097	0.101
205.000	15.938	0.101
205.100	13.496	0.101
205.200	24.939	0.101
205.300	18.236	0.101
205.400	15.113	0.101
205.500	9.270	0.101
205.600	19.042	0.101
205.700	10.711	0.101
205.800	31.801	0.101
205.900	13.820	0.101
206.000	22.185	0.101
206.100	19.857	0.101
206.200	17.211	0.101
206.300	17.762	0.101
206.400	14.989	0.101
206.500	5.650	0.101
206.600	20.797	0.101
206.700	21.765	0.101
206.800	15.730	0.101
206.900	17.608	0.101
207.000	14.043	0.101
207.100	19.498	0.101
207.200	13.641	0.101
207.300	6.123	0.101
207.400	24.311	0.101
207.500	14.398	0.101
207.600	21.331	0.101
207.700	32.238	0.101
207.800	0.172	0.101
207.900	28.487	0.101
208.000	21.781	0.101
208.100	24.294	0.101
208.200	22.860	0.101
208.300	9.326	0.101
208.400	15.652	0.101
208.500	18.251	0.101
208.600	17.433	0.101
208.700	16.163	0.101
208.800	15.038	0.101
208.900	16.596	0.101
209.000	12.572	0.101
209.100	12.479	0.101
209.200	14.139	0.101
209.300	8.386	0.101
209.400	4.545	0.101
209.500	11.691	0.101
209.600	14.619	0.101
209.700	14.000	0.101
209.800	14.288	0.101
209.900	8.129	0.101
210.000	26.286	0.101
210.100	17.522	0.101
210.200	6.670	0.101
210.300	30.054	0.101
210.400	14.267	0.101
210.500	10.441	0.101
210.600	13.481	0.101
210.700	26.947	0.101
210.800	15.831	0.101
210.900	25.040	0.101
211.000	13.698	0.101
211.100	20.593	0.101
211.200	7.873	0.101
211.300	18.651	0.101
211.400	25.253	0.101
211.500	9.277	0.101
211.600	20.914	0.101
211.700	17.140	0.101
211.800	8.370	0.101
211.900	17.597	0.101
212.000	30.806	0.101
212.100	16.031	0.101
212.200	13.522	0.101
212.300	33.364	0.101
212.400	-10.054	0.101
212.500	15.975	0.101
212.600	14.568	0.101
212.700	23.359	0.101
212.800	10.336	0.101
212.900	8.379	0.101
213.000	25.967	0.101
213.100	28.986	0.101
213.200	24.792	0.101
213.300	19.090	0.101
213.400	18.067	0.101
213.500	13.946	0.101
213.600	9.451	0.101
213.700	17.808	0.101
213.800	12.125	0.101
213.900	7.956	0.101
214.000	25.408	0.101
214.100	19.129	0.101
214.200	29.353	0.101
214.300	12.823	0.101
214.400	21.972	0.101
214.500	15.633	0.101
214.600	7.643	0.101
214.700	15.202	0.101
214.800	27.505	0.101
214.900	15.333	0.101
215.000	11.036	0.101
215.100	14.241	0.101
215.200	26.447	0.101
215.300	21.014	0.101
215.400	17.198	0.101
215.500	11.227	0.101
215.600	19.054	0.101
215.700	13.278	0.101
215.800	15.642	0.101
215.900	22.605	0.101
216.000	22.091	0.101
216.100	5.002	0.101
216.200	20.212	0.101
216.300	22.862	0.101
216.400	17.826	0.101
216.500	10.458	0.101
216.600	14.449	0.101
216.700	23.786	0.101
216.800	11.352	0.101
216.900	9.664	0.101
217.000	15.908	0.101
217.100	18.516	0.101
217.200	6.602	0.101
217.300	15.992	0.101
217.400	12.524	0.101
217.500	19.903	0.101
217.600	21.172	0.101
217.700	15.780	0.101
217.800	20.275	0.101
217.900	17.834	0.101
218.000	19.033	0.101
218.100	14.668	0.101
218.200	22.612	0.101
218.300	15.738	0.101
218.400	12.965	0.101
218.500	7.015	0.101
218.600	24.651	0.101
218.700	14.753	0.101
218.800	18.910	0.101
218.900	18.059	0.101
219.000	23.394	0.101
219.100	14.482	0.101
219.200	15.031	0.101
219.300	14.010	0.101
219.400	19.518	0.101
219.500	18.173	0.101
219.600	16.699	0.101
219.700	19.467	0.101
219.800	21.579	0.101
219.900	12.534	0.101
220.000	17.011	0.101
220.100	9.049	0.101
220.200	18.942	0.101
220.300	24.831	0.101
220.400	10.456	0.101
220.500	16.832	0.101
220.600	12.733	0.101
220.700	14.643	0.101
220.800	20.439	0.101
220.900	20.465	0.101
221.000	22.681	0.101
221.100	18.023	0.101
221.200	17.511	0.101
221.300	8.368	0.101
221.400	16.178	0.101
221.500	13.616	0.101
221.600	25.602	0.101
221.700	21.542	0.101
221.800	12.531	0.101
221.900	18.291	0.101
222.000	11.011	0.101
222.100	13.423	0.101
222.200	22.025	0.101
222.300	14.930	0.101
222.400	15.098	0.101
222.500	19.179	0.101
222.600	21.157	0.101
222.700	20.489	0.101
222.800	13.032	0.101
222.900	16.490	0.101
223.000	8.912	0.101
223.100	12.350	0.101
223.200	11.583	0.101
223.300	3.325	0.101
223.400	43.029	0.101
223.500	17.131	0.101
223.600	8.758	0.101
223.700	9.472	0.101
223.800	11.926	0.101
223.900	26.520	0.101
224.000	24.707	0.101
224.100	23.150	0.101
224.200	9.379	0.101
224.300	23.188	0.101
224.400	-1.086	0.101
224.500	9.518	0.101
224.600	9.303	0.101
224.700	24.860	0.101
224.800	10.074	0.101
224.900	19.914	0.101
225.000	25.353	0.101
225.100	25.080	0.101
225.200	24.736	0.101
225.300	13.439	0.101
225.400	21.904	0.101
225.500	15.018	0.101
225.600	26.039	0.101
225.700	20.525	0.101
225.800	18.880	0.101
225.900	3.915	0.101
226.000	10.490	0.101
226.100	10.391	0.101
226.200	25.399	0.101
226.300	31.847	0.101
226.400	19.161	0.101
226.500	17.077	0.101
226.600	13.459	0.101
226.700	23.140	0.101
226.800	8.969	0.101
226.900	16.658	0.101
227.000	12.262	0.101
227.100	16.133	0.101
227.200	6.429	0.101
227.300	26.684	0.101
227.400	16.266	0.101
227.500	25.961	0.101
227.600	14.520	0.101
227.700	16.487	0.101
227.800	23.651	0.101
227.900	17.994	0.101
228.000	14.233	0.101
228.100	28.898	0.101
228.200	13.393	0.101
228.300	18.248	0.101
228.400	13.021	0.101
228.500	7.627	0.101
228.600	17.247	0.101
228.700	27.110	0.101
228.800	4.466	0.101
228.900	16.052	0.101
229.000	27.541	0.101
229.100	10.126	0.101
229.200	20.277	0.101
229.300	10.423	0.101
229.400	23.014	0.101
229.500	13.291	0.101
229.600	23.247	0.101
229.700	30.734	0.101
229.800	-3.127	0.101
229.900	11.735	0.101
230.000	26.702	0.101
230.100	20.357	0.101
230.200	18.771	0.101
230.300	11.280	0.101
230.400	14.061	0.101
230.500	17.817	0.101
230.600	13.407	0.101
230.700	23.345	0.101
230.800	39.103	0.101
230.900	14.199	0.101
231.000	11.726	0.101
231.100	28.660	0.101
231.200	9.719	0.101
231.300	25.330	0.101
231.400	15.643	0.101
231.500	17.277	0.101
231.600	14.788	0.101
231.700	16.944	0.101
231.800	19.806	0.101
231.900	15.517	0.101
232.000	21.307	0.101
232.100	8.350	0.101
232.200	18.521	0.101
232.300	22.259	0.101
232.400	22.114	0.101
232.500	10.896	0.101
232.600	9.325	0.101
232.700	16.784	0.101
232.800	17.430	0.101
232.900	24.663	0.101
233.000	21.426	0.101
233.100	6.105	0.101
233.200	22.451	0.101
233.300	20.310	0.101
233.400	30.004	0.101
233.500	14.435	0.101
233.600	2.044	0.101
233.700	-6.515	0.101
233.800	18.729	0.101
233.900	18.657	0.101
234.000	25.227	0.101
234.100	17.617	0.101
234.200	15.476	0.101
234.300	26.339	0.101
234.400	4.038	0.101
234.500	21.389	0.101
234.600	23.859	0.101
234.700	29.489	0.101
234.800	17.492	0.101
234.900	11.693	0.101
235.000	17.563	0.101
235.100	6.965	0.101
235.200	15.762	0.101
235.300	17.043	0.101
235.400	14.138	0.101
235.500	9.925	0.101
235.600	13.334	0.101
235.700	24.551	0.101
235.800	21.164	0.101
235.900	10.081	0.101
236.000	16.213	0.101
236.100	16.279	0.101
236.200	28.864	0.101
236.300	18.343	0.101
236.400	7.641	0.101
236.500	16.542	0.101
236.600	21.566	0.101
236.700	11.346	0.101
236.800	30.234	0.101
236.900	-7.735	0.101
237.000	30.677	0.101
237.100	33.149	0.101
237.200	21.365	0.101
237.300	4.559	0.101
237.400	21.277	0.101
237.500	32.796	0.101
237.600	14.189	0.101
237.700	12.269	0.101
237.800	20.599	0.101
237.900	26.219	0.101
238.000	12.897	0.101
238.100	9.600	0.101
238.200	18.354	0.101
238.300	19.735	0.101
238.400	10.551	0.101
238.500	6.827	0.101
238.600	25.760	0.101
238.700	18.725	0.101
238.800	27.104	0.101
238.900	5.244	0.101
239.000	16.515	0.101
239.100	12.128	0.101
239.200	27.974	0.101
239.300	10.677	0.101
239.400	21.334	0.101
239.500	10.896	0.101
239.600	23.187	0.101
239.700	14.495	0.101
239.800	38.233	0.101
239.900	24.631	0.101
240.000	15.383	0.101
240.100	4.910	0.101
240.200	21.802	0.101
240.300	19.939	0.101
240.400	16.264	0.101
240.500	12.244	0.101
240.600	4.101	0.101
240.700	12.949	0.101
240.800	13.413	0.101
240.900	10.027	0.101
241.000	11.062	0.101
241.100	10.490	0.101
241.200	3.813	0.101
241.300	6.408	0.101
241.400	6.969	0.101
241.500	17.696	0.101
241.600	-4.660	0.101
241.700	14.808	0.101
241.800	8.031	0.101
241.900	13.195	0.101
242.000	13.333	0.101
242.100	8.215	0.101
242.200	-12.915	0.101
242.300	9.995	0.101
242.400	-1.314	0.101
242.500	5.644	0.101
242.600	-1.624	0.101
242.700	-6.989	0.101
242.800	4.283	0.101
242.900	10.360	0.101
243.000	-13.581	0.101
243.100	7.835	0.101
243.200	10.518	0.101
243.300	5.807	0.101
243.400	4.071	0.101
243.500	17.708	0.101
243.600	-0.912	0.101
243.700	2.190	0.101
243.800	-3.197	0.101
243.900	-2.890	0.101
244.000	-5.966	0.101
244.100	3.627	0.101
244.200	1.406	0.101
244.300	5.347	0.101
244.400	-5.374	0.101
244.500	-2.794	0.101
244.600	-13.784	0.101
244.700	-3.349	0.101
244.800	4.151	0.101
244.900	11.141	0.101
245.000	-1.727	0.101
245.100	-14.971	0.101
245.200	10.088	0.101
245.300	6.526	0.101
245.400	1.791	0.101
245.500	12.537	0.101
245.600	10.700	0.101
245.700	-3.018	0.101
245.800	3.194	0.101
245.900	14.856	0.101
246.000	-9.763	0.101
246.100	-1.754	0.101
246.200	-4.633	0.101
246.300	-15.545	0.101
246.400	-7.162	0.101
246.500	2.952	0.101
246.600	-1.655	0.101
246.700	12.150	0.101
246.800	-0.916	0.101
246.900	9.164	0.101
247.000	2.217	0.101
247.100	-5.091	0.101
247.200	8.001	0.101
247.300	-2.918	0.101
247.400	0.024	0.101
247.500	15.071	0.101
247.600	-0.322	0.101
247.700	0.287	0.101
247.800	3.324	0.101
247.900	9.376	0.101
248.000	7.025	0.101
248.100	0.041	0.101
248.200	3.927	0.101
248.300	-18.984	0.101
248.400	9.425	0.101
248.500	12.095	0.101
248.600	0.039	0.101
248.700	7.051	0.101
248.800	2.536	0.101
248.900	-14.699	0.101
249.000	-1.339	0.101
249.100	6.895	0.101
249.200	3.285	0.101
249.300	-0.338	0.101
249.400	-0.327	0.101
249.500	9.664	0.101
249.600	4.409	0.101
249.700	1.053	0.101
249.800	-7.467	0.101
249.900	0.988	0.101
250.000	-5.956	0.101
250.100	-3.471	0.101
250.200	14.508	0.101
250.300	-0.497	0.101
250.400	-5.738	0.101
250.500	-1.128	0.101
250.600	-3.247	0.101
250.700	3.157	0.101
250.800	-3.445	0.101
250.900	1.809	0.101
251.000	3.246	0.101
251.100	2.066	0.101
251.200	-11.260	0.101
251.300	14.652	0.101
251.400	-17.610	0.101
251.500	-0.176	0.101
251.600	-15.417	0.101
251.700	0.111	0.101
251.800	-0.108	0.101
251.900	7.331	0.101
252.000	3.276	0.101
252.100	-6.694	0.101
252.200	1.099	0.101
252.300	-0.046	0.101
252.400	-1.303	0.101
252.500	18.668	0.101
252.600	-10.697	0.101
252.700	-11.437	0.101
252.800	9.569	0.101
252.900	-13.575	0.101
253.000	-6.403	0.101
253.100	5.564	0.101
253.200	-0.363	0.101
253.300	13.729	0.101
253.400	-4.590	0.101
253.500	-0.384	0.101
253.600	12.929	0.101
253.700	-2.424	0.101
253.800	-5.118	0.101
253.900	-10.900	0.101
254.000	0.828	0.101
254.100	-4.969	0.101
254.200	-5.628	0.101
254.300	6.208	0.101
254.400	-0.779	0.101
254.500	-19.176	0.101
254.600	-0.175	0.101
254.700	-9.916	0.101
254.800	-3.411	0.101
254.900	2.296	0.101
255.000	-1.584	0.101
255.100	-8.569	0.101
255.200	2.485	0.101
255.300	-5.145	0.101
255.400	7.929	0.101
255.500	6.009	0.101
255.600	-5.203	0.101
255.700	-3.053	0.101
255.800	7.808	0.101
255.900	1.270	0.101
256.000	-4.480	0.101
256.100	-5.169	0.101
256.200	-0.432	0.101
256.300	2.695	0.101
256.400	-7.377	0.101
256.500	-3.570	0.101
256.600	4.319	0.101
256.700	3.455	0.101
256.800	5.536	0.101
256.900	2.805	0.101
257.000	-4.633	0.101
257.100	3.110	0.101
257.200	12.835	0.101
257.300	-3.513	0.101
257.400	-6.403	0.101
257.500	16.818	0.101
257.600	-4.663	0.101
257.700	-14.281	0.101
257.800	-0.802	0.101
257.900	3.094	0.101
258.000	-1.938	0.101
258.100	-0.378	0.101
258.200	-7.823	0.101
258.300	1.289	0.101
258.400	12.650	0.101
258.500	-16.030	0.101
258.600	13.907	0.101
258.700	-4.120	0.101
258.800	1.050	0.101
258.900	-10.026	0.101
259.000	0.525	0.101
259.100	0.136	0.101
259.200	2.790	0.101
259.300	-12.268	0.101
259.400	3.919	0.101
259.500	-4.706	0.101
259.600	7.381	0.101
259.700	13.633	0.101
259.800	-21.108	0.101
259.900	0.966	0.101
260.000	8.095	0.101
260.100	-10.052	0.101
260.200	-7.267	0.101
260.300	-0.673	0.101
260.400	-3.604	0.101
260.500	-2.232	0.101
260.600	-9.250	0.101
260.700	-6.830	0.101
260.800	-11.537	0.101
260.900	-7.950	0.101
261.000	2.361	0.101
261.100	-6.120	0.101
261.200	-11.789	0.101
261.300	1.541	0.101
261.400	-0.242	0.101
261.500	-2.996	0.101
261.600	3.856	0.101
261.700	-9.054	0.101
261.800	-3.776	0.101
261.900	-8.159	0.101
262.000	-3.445	0.101
262.100	-4.042	0.101
262.200	6.377	0.101
262.300	9.866	0.101
262.400	-6.885	0.101
262.500	-2.416	0.101
262.600	-2.888	0.101
262.700	-12.697	0.101
262.800	6.417	0.101
262.900	-4.612	0.101
263.000	-9.473	0.101
263.100	-8.272	0.101
263.200	5.032	0.101
263.300	-4.421	0.101
263.400	-0.981	0.101
263.500	-10.696	0.101
263.600	-3.758	0.101
263.700	12.129	0.101
263.800	2.052	0.101
263.900	-12.589	0.101
264.000	-5.361	0.101
264.100	-0.881	0.101
264.200	-9.984	0.101
264.300	0.004	0.101
264.400	-11.502	0.101
264.500	5.915	0.101
264.600	-17.104	0.101
264.700	1.963	0.101
264.800	3.845	0.101
264.900	-5.199	0.101
265.000	-7.109	0.101
265.100	-1.725	0.101
265.200	-16.003	0.101
265.300	-2.104	0.101
265.400	-8.533	0.101
265.500	4.181	0.101
265.600	2.263	0.101
265.700	2.326	0.101
265.800	-5.095	0.101
265.900	-11.051	0.101
266.000	-1.600	0.101
266.100	10.460	0.101
266.200	-17.663	0.101
266.300	1.150	0.101
266.400	-7.277	0.101
266.500	-6.597	0.101
266.600	3.644	0.101
266.700	-7.447	0.101
266.800	2.615	0.101
266.900	-3.933	0.101
267.000	3.457	0.101
267.100	0.243	0.101
267.200	-7.340	0.101
267.300	-5.702	0.101
267.400	-24.020	0.101
267.500	-19.584	0.101
267.600	3.460	0.101
267.700	-13.614	0.101
267.800	3.070	0.101
267.900	-6.848	0.101
268.000	-5.863	0.101
268.100	0.884	0.101
268.200	-4.983	0.101
268.300	2.949	0.101
268.400	-3.012	0.101
268.500	-8.157	0.101
268.600	-2.882	0.101
268.700	-2.430	0.101
268.800	4.604	0.101
268.900	9.404	0.101
269.000	-24.659	0.101
269.100	1.192	0.101
269.200	-10.126	0.101
269.300	0.736	0.101
269.400	1.958	0.101
269.500	-8.625	0.101
269.600	2.550	0.101
269.700	-6.768	0.101
269.800	-3.079	0.101
269.900	-10.519	0.101
270.000	-10.461	0.101
270.100	-8.019	0.101
270.200	6.722	0.101
270.300	1.386	0.101
270.400	-23.916	0.101
270.500	-3.860	0.101
270.600	-5.466	0.101
270.700	-3.795	0.101
270.800	-9.311	0.101
270.900	5.711	0.101
271.000	-1.605	0.101
271.100	-6.696	0.101
271.200	-8.802	0.101
271.300	-10.412	0.101
271.400	-5.443	0.101
271.500	-14.930	0.101
271.600	-13.823	0.101
271.700	-6.435	0.101
271.800	-0.266	0.101
271.900	-13.936	0.101
272.000	-5.845	0.101
272.100	-21.420	0.101
272.200	-3.283	0.101
272.300	-1.593	0.101
272.400	-3.077	0.101
272.500	-2.320	0.101
272.600	-0.289	0.101
272.700	-8.410	0.101
272.800	-17.910	0.101
272.900	-6.384	0.101
273.000	-10.505	0.101
273.100	-6.370	0.101
273.200	-27.340	0.101
273.300	0.175	0.101
273.400	-4.178	0.101
273.500	-12.038	0.101
273.600	-1.028	0.101
273.700	-2.293	0.101
273.800	-6.382	0.101
273.900	-9.681	0.101
274.000	-14.779	0.101
274.100	-6.367	0.101
274.200	-9.394	0.101
274.300	-18.141	0.101
274.400	1.769	0.101
274.500	-2.139	0.101
274.600	3.086	0.101
274.700	-4.364	0.101
274.800	-13.104	0.101
274.900	-8.277	0.101
275.000	1.713	0.101
275.100	-7.952	0.101
275.200	8.091	0.101
275.300	-8.518	0.101
275.400	-9.074	0.101
275.500	-16.945	0.101
275.600	-0.940	0.101
275.700	-12.566	0.101
275.800	-8.445	0.101
275.900	2.689	0.101
276.000	-10.448	0.101
276.100	2.734	0.101
276.200	-2.235	0.101
276.300	-0.604	0.101
276.400	-12.660	0.101
276.500	-9.418	0.101
276.600	-12.889	0.101
276.700	-5.760	0.101
276.800	-3.272	0.101
276.900	-8.566	0.101
277.000	-10.840	0.101
277.100	7.915	0.101
277.200	-14.426	0.101
277.300	-3.645	0.101
277.400	-8.596	0.101
277.500	9.186	0.101
277.600	-8.912	0.101
277.700	-6.084	0.101
277.800	3.024	0.101
277.900	-9.241	0.101
278.000	1.422	0.101
278.100	-12.519	0.101
278.200	-13.151	0.101
278.300	-0.803	0.101
278.400	-4.330	0.101
278.500	-1.875	0.101
278.600	-5.899	0.101
278.700	-12.298	0.101
278.800	-24.175	0.101
278.900	-8.724	0.101
279.000	0.794	0.101
279.100	-12.515	0.101
279.200	-8.983	0.101
279.300	7.675	0.101
279.400	-3.843	0.101
279.500	3.409	0.101
279.600	-4.647	0.101
279.700	-15.053	0.101
279.800	-11.920	0.101
279.900	-4.842	0.101
280.000	6.368	0.101
280.100	-9.993	0.101
280.200	-11.782	0.101
280.300	4.279	0.101
280.400	-10.901	0.101
280.500	4.790	0.101
280.600	-16.756	0.101
280.700	-6.698	0.101
280.800	-7.383	0.101
280.900	2.925	0.101
281.000	-7.163	0.101
281.100	-18.251	0.101
281.200	-18.038	0.101
281.300	2.204	0.101
281.400	-15.093	0.101
281.500	-2.341	0.101
281.600	-4.549	0.101
281.700	-6.626	0.101
281.800	-7.754	0.101
281.900	-1.454	0.101
282.000	-8.337	0.101
282.100	1.387	0.101
282.200	-11.018	0.101
282.300	-4.896	0.101
282.400	0.836	0.101
282.500	-3.036	0.101
282.600	-9.817	0.101
282.700	5.766	0.101
282.800	-7.434	0.101
282.900	-7.029	0.101
283.000	-11.333	0.101
283.100	-7.552	0.101
283.200	-14.914	0.101
283.300	-9.755	0.101
283.400	-5.527	0.101
283.500	2.233	0.101
283.600	0.713	0.101
283.700	-12.428	0.101
283.800	-7.404	0.101
283.900	-27.740	0.101
284.000	2.121	0.101
284.100	0.926	0.101
284.200	-13.817	0.101
284.300	-13.516	0.101
284.400	-2.664	0.101
284.500	-5.408	0.101
284.600	-6.971	0.101
284.700	-5.046	0.101
284.800	-1.983	0.101
284.900	-3.376	0.101
285.000	-17.053	0.101
285.100	-7.053	0.101
285.200	0.724	0.101
285.300	-7.846	0.101
285.400	-16.835	0.101
285.500	9.509	0.101
285.600	4.303	0.101
285.700	-1.607	0.101
285.800	-0.284	0.101
285.900	1.087	0.101
286.000	-18.962	0.101
286.100	-12.729	0.101
286.200	7.767	0.101
286.300	-17.992	0.101
286.400	-8.769	0.101
286.500	-8.053	0.101
286.600	-3.643	0.101
286.700	-6.035	0.101
286.800	-11.542	0.101
286.900	4.231	0.101
287.000	-7.663	0.101
287.100	-8.023	0.101
287.200	-8.828	0.101
287.300	-22.712	0.101
287.400	-16.716	0.101
287.500	-5.288	0.101
287.600	-5.133	0.101
287.700	2.396	0.101
287.800	0.184	0.101
287.900	-19.700	0.101
288.000	-15.655	0.101
288.100	8.775	0.101
288.200	-4.501	0.101
288.300	-2.488	0.101
288.400	-7.008	0.101
288.500	-11.014	0.101
288.600	-2.652	0.101
288.700	-5.861	0.101
288.800	-18.655	0.101
288.900	-2.124	0.101
289.000	-4.869	0.101
289.100	8.311	0.101
289.200	-12.422	0.101
289.300	-6.118	0.101
289.400	-8.941	0.101
289.500	-8.490	0.101
289.600	-17.379	0.101
289.700	-5.583	0.101
289.800	-3.542	0.101
289.900	-3.841	0.101
290.000	-3.367	0.101
290.100	-19.399	0.101
290.200	-6.273	0.101
290.300	-18.378	0.101
290.400	9.831	0.101
290.500	-12.065	0.101
290.600	-13.327	0.101
290.700	-9.044	0.101
290.800	-10.537	0.101
290.900	-3.205	0.101
291.000	-5.454	0.101
291.100	-12.552	0.101
291.200	-15.819	0.101
291.300	-2.905	0.101
291.400	-5.657	0.101
291.500	-13.412	0.101
291.600	-11.592	0.101
291.700	3.050	0.101
291.800	-1.874	0.101
291.900	-15.490	0.101
292.000	-6.828	0.101
292.100	-0.396	0.101
292.200	-12.990	0.101
292.300	-5.854	0.101
292.400	-1.205	0.101
292.500	-1.658	0.101
292.600	-8.189	0.101
292.700	-20.022	0.101
292.800	-9.447	0.101
292.900	-2.142	0.101
293.000	-10.478	0.101
293.100	6.678	0.101
293.200	-7.683	0.101
293.300	-8.294	0.101
293.400	-0.637	0.101
293.500	-7.808	0.101
293.600	-10.794	0.101
293.700	-3.682	0.101
293.800	-10.849	0.101
293.900	-9.162	0.101
294.000	-1.500	0.101
294.100	-7.764	0.101
294.200	-10.973	0.101
294.300	1.188	0.101
294.400	0.624	0.101
294.500	-0.704	0.101
294.600	-7.905	0.101
294.700	-13.280	0.101
294.800	-14.602	0.101
294.900	-4.881	0.101
295.000	-10.645	0.101
295.100	-15.225	0.101
295.200	-10.029	0.101
295.300	-11.883	0.101
295.400	-8.447	0.101
295.500	-6.901	0.101
295.600	4.741	0.101
295.700	4.687	0.101
295.800	-11.747	0.101
295.900	-14.998	0.101
296.000	-19.107	0.101
296.100	2.466	0.101
296.200	-16.585	0.101
296.300	-15.270	0.101
296.400	0.665	0.101
296.500	-12.086	0.101
296.600	-10.011	0.101
296.700	6.872	0.101
296.800	-0.333	0.101
296.900	-10.348	0.101
297.000	-12.250	0.101
297.100	-0.702	0.101
297.200	-1.945	0.101
297.300	-8.228	0.101
297.400	-10.303	0.101
297.500	-10.641	0.101
297.600	-1.533	0.101
297.700	-8.333	0.101
297.800	2.951	0.101
297.900	-11.015	0.101
298.000	-3.658	0.101
298.100	-1.112	0.101
298.200	-5.770	0.101
298.300	11.170	0.101
298.400	-16.061	0.101
298.500	-15.282	0.101
298.600	0.582	0.101
298.700	-0.667	0.101
298.800	-1.652	0.101
298.900	-0.370	0.101
299.000	-11.938	0.101
299.100	-4.893	0.101
299.200	-19.207	0.101
299.300	-6.507	0.101
299.400	-9.398	0.101
299.500	-10.155	0.101
299.600	-11.406	0.101
299.700	5.781	0.101
299.800	-14.303	0.101
299.900	-8.569	0.101
300.000	-6.045	0.101
300.100	-10.409	0.101
300.200	3.039	0.101
300.300	-9.200	0.101
300.400	-4.333	0.101
300.500	-6.901	0.101
300.600	-10.034	0.101
300.700	1.279	0.101
300.800	-21.527	0.101
300.900	-24.081	0.101
301.000	-0.068	0.101
301.100	-4.922	0.101
301.200	-5.310	0.101
301.300	-13.320	0.101
301.400	6.673	0.101
301.500	-6.553	0.101
301.600	-11.207	0.101
301.700	0.765	0.101
301.800	0.030	0.101
301.900	-19.844	0.101
302.000	-8.207	0.101
302.100	-20.365	0.101
302.200	-3.066	0.101
302.300	1.318	0.101
302.400	-4.579	0.101
302.500	1.237	0.101
302.600	-18.723	0.101
302.700	-7.281	0.101
302.800	-5.512	0.101
302.900	-7.886	0.101
303.000	-8.788	0.101
303.100	-7.783	0.101
303.200	-14.381	0.101
303.300	5.302	0.101
303.400	-2.298	0.101
303.500	-13.309	0.101
303.600	-2.865	0.101
303.700	-9.209	0.101
303.800	-2.971	0.101
303.900	-7.836	0.101
304.000	-20.815	0.101
304.100	-7.708	0.101
304.200	-11.099	0.101
304.300	-0.716	0.101
304.400	-6.037	0.101
304.500	-20.720	0.101
304.600	-12.352	0.101
304.700	-4.170	0.101
304.800	-4.624	0.101
304.900	3.202	0.101
305.000	-3.474	0.101
305.100	-6.164	0.101
305.200	3.412	0.101
305.300	-6.631	0.101
305.400	-13.426	0.101
305.500	-17.436	0.101
305.600	-0.430	0.101
305.700	-6.764	0.101
305.800	7.276	0.101
305.900	-11.037	0.101
306.000	4.094	0.101
306.100	-25.639	0.101
306.200	-15.819	0.101
306.300	-4.335	0.101
306.400	-9.227	0.101
306.500	-10.135	0.101
306.600	-5.195	0.101
306.700	-20.917	0.101
306.800	-4.576	0.101
306.900	2.476	0.101
307.000	-8.387	0.101
307.100	3.189	0.101
307.200	-11.482	0.101
307.300	-4.899	0.101
307.400	-5.289	0.101
307.500	-5.242	0.101
307.600	-12.040	0.101
307.700	-1.549	0.101
307.800	-15.734	0.101
307.900	-2.916	0.101
308.000	-0.942	0.101
308.100	-2.584	0.101
308.200	-11.313	0.101
308.300	-6.424	0.101
308.400	-1.385	0.101
308.500	-23.631	0.101
308.600	-9.161	0.101
308.700	-10.093	0.101
308.800	-33.417	0.101
308.900	-1.758	0.101
309.000	2.891	0.101
309.100	6.062	0.101
309.200	0.597	0.101
309.300	-8.101	0.101
309.400	-11.228	0.101
309.500	-20.015	0.101
309.600	-8.603	0.101
309.700	-3.654	0.101
309.800	2.867	0.101
309.900	-8.386	0.101
310.000	-10.086	0.101
310.100	7.923	0.101
310.200	-12.107	0.101
310.300	-15.335	0.101
310.400	-6.808	0.101
310.500	4.181	0.101
310.600	-9.580	0.101
310.700	-34.318	0.101
310.800	-3.998	0.101
310.900	-0.028	0.101
311.000	-11.992	0.101
311.100	-8.841	0.101
311.200	-4.873	0.101
311.300	-8.625	0.101
311.400	-5.519	0.101
311.500	-9.704	0.101
311.600	0.077	0.101
311.700	-4.678	0.101
311.800	0.118	0.101
311.900	-20.578	0.101
312.000	-5.632	0.101
312.100	0.307	0.101
312.200	-0.287	0.101
312.300	-13.034	0.101
312.400	-9.193	0.101
312.500	1.582	0.101
312.600	-8.013	0.101
312.700	-19.047	0.101
312.800	-3.633	0.101
312.900	-7.724	0.101
313.000	-1.232	0.101
313.100	-10.187	0.101
313.200	-0.191	0.101
313.300	-8.395	0.101
313.400	-12.448	0.101
313.500	-3.604	0.101
313.600	0.269	0.101
313.700	-9.741	0.101
313.800	-7.176	0.101
313.900	0.005	0.101
314.000	-4.445	0.101
314.100	-7.366	0.101
314.200	-6.576	0.101
314.300	-9.586	0.101
314.400	-0.338	0.101
314.500	-1.027	0.101
314.600	-8.694	0.101
314.700	1.402	0.101
314.800	-25.727	0.101
314.900	-2.827	0.101
315.000	-10.753	0.101
315.100	-12.711	0.101
315.200	-5.662	0.101
315.300	-4.584	0.101
315.400	-9.089	0.101
315.500	-12.768	0.101
315.600	-6.000	0.101
315.700	-3.807	0.101
315.800	-3.908	0.101
315.900	-1.914	0.101
316.000	-2.210	0.101
316.100	-4.026	0.101
316.200	-25.653	0.101
316.300	-17.292	0.101
316.400	-4.049	0.101
316.500	3.667	0.101
316.600	-8.195	0.101
316.700	-22.372	0.101
316.800	-1.725	0.101
316.900	-8.498	0.101
317.000	6.103	0.101
317.100	-15.108	0.101
317.200	-10.525	0.101
317.300	-13.957	0.101
317.400	-10.439	0.101
317.500	-12.305	0.101
317.600	14.798	0.101
317.700	-15.139	0.101
317.800	0.212	0.101
317.900	1.262	0.101
318.000	-4.228	0.101
318.100	-3.953	0.101
318.200	-1.820	0.101
318.300	1.615	0.101
318.400	-1.994	0.101
318.500	-10.839	0.101
318.600	-5.661	0.101
318.700	1.280	0.101
318.800	-8.796	0.101
318.900	-12.752	0.101
319.000	-11.808	0.101
319.100	-2.783	0.101
319.200	-7.309	0.101
319.300	-9.970	0.101
319.400	-6.069	0.101
319.500	-13.802	0.101
319.600	9.168	0.101
319.700	-10.078	0.101
319.800	-4.019	0.101
319.900	-10.815	0.101
320.000	3.311	0.101
320.100	11.373	0.101
320.200	-7.511	0.101
320.300	-18.579	0.101
320.400	-7.332	0.101
320.500	2.473	0.101
320.600	-15.939	0.101
320.700	-15.660	0.101
320.800	-1.199	0.101
320.900	-19.859	0.101
321.000	-8.284	0.101
321.100	-0.602	0.101
321.200	-9.484	0.101
321.300	-18.217	0.101
321.400	-2.085	0.101
321.500	-4.256	0.101
321.600	-2.674	0.101
321.700	-6.166	0.101
321.800	-9.517	0.101
321.900	-10.395	0.101
322.000	0.407	0.101
322.100	-5.902	0.101
322.200	-8.626	0.101
322.300	-8.953	0.101
322.400	-6.307	0.101
322.500	-8.176	0.101
322.600	-10.156	0.101
322.700	8.150	0.101
322.800	-8.883	0.101
322.900	-15.329	0.101
323.000	-7.078	0.101
323.100	-2.813	0.101
323.200	-5.446	0.101
323.300	-1.901	0.101
323.400	-7.143	0.101
323.500	3.611	0.101
323.600	-2.824	0.101
323.700	-4.934	0.101
323.800	-6.534	0.101
323.900	-5.347	0.101
324.000	-15.189	0.101
324.100	-6.347	0.101
324.200	-13.741	0.101
324.300	-8.440	0.101
324.400	-1.994	0.101
324.500	-5.840	0.101
324.600	-9.446	0.101
324.700	10.076	0.101
324.800	8.950	0.101
324.900	-15.303	0.101
325.000	0.458	0.101
325.100	2.284	0.101
325.200	-7.750	0.101
325.300	-1.139	0.101
325.400	-0.141	0.101
325.500	-20.667	0.101
325.600	13.915	0.101
325.700	-2.733	0.101
325.800	0.169	0.101
325.900	-10.226	0.101
326.000	-10.741	0.101
326.100	-11.042	0.101
326.200	-1.696	0.101
326.300	-19.743	0.101
326.400	-21.193	0.101
326.500	0.417	0.101
326.600	-14.626	0.101
326.700	1.011	0.101
326.800	-4.596	0.101
326.900	-5.669	0.101
327.000	-11.056	0.101
327.100	15.656	0.101
327.200	-5.102	0.101
327.300	-2.395	0.101
327.400	3.086	0.101
327.500	4.804	0.101
327.600	-7.514	0.101
327.700	-1.469	0.101
327.800	-15.107	0.101
327.900	-11.163	0.101
328.000	2.687	0.101
328.100	-10.612	0.101
328.200	5.468	0.101
328.300	-6.534	0.101
328.400	4.580	0.101
328.500	-8.577	0.101
328.600	0.996	0.101
328.700	-19.385	0.101
328.800	-13.026	0.101
328.900	-9.312	0.101
329.000	0.069	0.101
329.100	0.121	0.101
329.200	-8.270	0.101
329.300	-3.897	0.101
329.400	5.688	0.101
329.500	-13.371	0.101
329.600	-0.891	0.101
329.700	-10.789	0.101
329.800	0.274	0.101
329.900	-4.688	0.101
330.000	-16.449	0.101
330.100	-10.743	0.101
330.200	-4.609	0.101
330.300	-8.816	0.101
330.400	0.466	0.101
330.500	-7.005	0.101
330.600	2.201	0.101
330.700	4.701	0.101
330.800	-13.288	0.101
330.900	-9.566	0.101
331.000	3.282	0.101
331.100	-3.678	0.101
331.200	-10.498	0.101
331.300	2.972	0.101
331.400	3.633	0.101
331.500	-9.554	0.101
331.600	-3.480	0.101
331.700	-0.274	0.101
331.800	12.818	0.101
331.900	1.264	0.101
332.000	8.969	0.101
332.100	14.425	0.101
332.200	1.204	0.101
332.300	8.891	0.101
332.400	15.952	0.101
332.500	6.639	0.101
332.600	18.314	0.101
332.700	6.683	0.101
332.800	-5.859	0.101
332.900	13.148	0.101
333.000	-4.155	0.101
333.100	-3.629	0.101
333.200	13.317	0.101
333.300	29.438	0.101
333.400	8.819	0.101
333.500	7.077	0.101
333.600	9.410	0.101
333.700	1.110	0.101
333.800	6.719	0.101
333.900	14.297	0.101
334.000	8.948	0.101
334.100	4.999	0.101
334.200	0.913	0.101
334.300	-4.481	0.101
334.400	5.465	0.101
334.500	-1.119	0.101
334.600	2.370	0.101
334.700	16.431	0.101
334.800	14.786	0.101
334.900	11.174	0.101
335.000	20.935	0.101
335.100	7.386	0.101
335.200	2.115	0.101
335.300	-5.969	0.101
335.400	2.134	0.101
335.500	2.452	0.101
335.600	8.558	0.101
335.700	-11.988	0.101
335.800	7.389	0.101
335.900	5.689	0.101
336.000	15.211	0.101
336.100	2.342	0.101
336.200	13.747	0.101
336.300	-9.123	0.101
336.400	-4.547	0.101
336.500	10.771	0.101
336.600	9.765	0.101
336.700	7.892	0.101
336.800	14.548	0.101
336.900	9.231	0.101
337.000	15.559	0.101
337.100	4.442	0.101
337.200	2.458	0.101
337.300	6.334	0.101
337.400	1.121	0.101
337.500	8.207	0.101
337.600	-2.333	0.101
337.700	9.485	0.101
337.800	4.090	0.101
337.900	6.054	0.101
338.000	16.719	0.101
338.100	-1.688	0.101
338.200	23.471	0.101
338.300	13.094	0.101
338.400	2.790	0.101
338.500	12.244	0.101
338.600	18.134	0.101
338.700	6.989	0.101
338.800	6.855	0.101
338.900	11.638	0.101
339.000	5.596	0.101
339.100	-4.714	0.101
339.200	5.179	0.101
339.300	-8.590	0.101
339.400	9.934	0.101
339.500	24.372	0.101
339.600	-1.811	0.101
339.700	7.862	0.101
339.800	7.299	0.101
339.900	13.424	0.101
340.000	1.743	0.101
340.100	2.113	0.101
340.200	7.980	0.101
340.300	0.781	0.101
340.400	11.191	0.101
340.500	25.638	0.101
340.600	20.368	0.101
340.700	18.700	0.101
340.800	-7.724	0.101
340.900	4.445	0.101
341.000	2.522	0.101
341.100	10.850	0.101
341.200	12.342	0.101
341.300	14.128	0.101
341.400	-3.851	0.101
341.500	21.520	0.101
341.600	5.618	0.101
341.700	3.772	0.101
341.800	10.346	0.101
341.900	7.412	0.101
342.000	-2.983	0.101
342.100	22.711	0.101
342.200	13.070	0.101
342.300	14.132	0.101
342.400	17.556	0.101
342.500	7.179	0.101
342.600	6.081	0.101
342.700	-3.006	0.101
342.800	12.191	0.101
342.900	11.470	0.101
343.000	15.759	0.101
343.100	9.249	0.101
343.200	2.167	0.101
343.300	27.307	0.101
343.400	14.686	0.101
343.500	5.714	0.101
343.600	10.419	0.101
343.700	9.298	0.101
343.800	9.604	0.101
343.900	14.592	0.101
344.000	7.609	0.101
344.100	13.576	0.101
344.200	28.800	0.101
344.300	5.697	0.101
344.400	-0.059	0.101
344.500	26.230	0.101
344.600	6.298	0.101
344.700	6.383	0.101
344.800	21.075	0.101
344.900	17.081	0.101
345.000	8.559	0.101
345.100	16.506	0.101
345.200	1.451	0.101
345.300	20.640	0.101
345.400	6.395	0.101
345.500	-3.994	0.101
345.600	12.307	0.101
345.700	11.024	0.101
345.800	22.970	0.101
345.900	17.749	0.101
346.000	12.934	0.101
346.100	16.250	0.101
346.200	6.508	0.101
346.300	13.382	0.101
346.400	17.089	0.101
346.500	4.608	0.101
346.600	16.903	0.101
346.700	31.315	0.101
346.800	21.336	0.101
346.900	3.444	0.101
347.000	6.523	0.101
347.100	22.189	0.101
347.200	16.825	0.101
347.300	8.912	0.101
347.400	20.958	0.101
347.500	-0.624	0.101
347.600	9.121	0.101
347.700	8.946	0.101
347.800	4.531	0.101
347.900	30.759	0.101
348.000	8.077	0.101
348.100	16.254	0.101
348.200	17.207	0.101
348.300	29.006	0.101
348.400	11.149	0.101
348.500	25.472	0.101
348.600	7.858	0.101
348.700	1.449	0.101
348.800	8.509	0.101
348.900	20.051	0.101
349.000	16.751	0.101
349.100	16.617	0.101
349.200	16.801	0.101
349.300	30.757	0.101
349.400	20.937	0.101
349.500	9.163	0.101
349.600	10.532	0.101
349.700	19.482	0.101
349.800	9.655	0.101
349.900	24.684	0.101
350.000	13.733	0.101
350.100	22.109	0.101
350.200	19.540	0.101
350.300	15.800	0.101
350.400	19.128	0.101
350.500	18.587	0.101
350.600	21.867	0.101
350.700	22.940	0.101
350.800	16.676	0.101
350.900	12.948	0.101
351.000	4.116	0.101
351.100	33.403	0.101
351.200	14.849	0.101
351.300	10.772	0.101
351.400	13.722	0.101
351.500	15.283	0.101
351.600	14.957	0.101
351.700	17.192	0.101
351.800	15.404	0.101
351.900	9.610	0.101
352.000	16.483	0.101
352.100	17.994	0.101
352.200	6.136	0.101
352.300	10.503	0.101
352.400	31.005	0.101
352.500	18.605	0.101
352.600	9.255	0.101
352.700	24.614	0.101
352.800	12.727	0.101
352.900	10.653	0.101
353.000	10.050	0.101
353.100	19.301	0.101
353.200	22.459	0.101
353.300	21.490	0.101
353.400	22.650	0.101
353.500	22.849	0.101
353.600	23.220	0.101
353.700	21.507	0.101
353.800	14.694	0.101
353.900	9.374	0.101
354.000	34.629	0.101
354.100	14.035	0.101
354.200	26.529	0.101
354.300	28.604	0.101
354.400	28.730	0.101
354.500	10.077	0.101
354.600	19.360	0.101
354.700	19.147	0.101
354.800	18.211	0.101
354.900	13.556	0.101
355.000	30.019	0.101
355.100	8.030	0.101
355.200	8.389	0.101
355.300	15.695	0.101
355.400	22.054	0.101
355.500	10.951	0.101
355.600	25.856	0.101
355.700	2.206	0.101
355.800	23.796	0.101
355.900	22.990	0.101
356.000	25.383	0.101
356.100	16.658	0.101
356.200	13.457	0.101
356.300	11.050	0.101
356.400	18.085	0.101
356.500	15.880	0.101
356.600	15.100	0.101
356.700	31.999	0.101
356.800	18.152	0.101
356.900	23.153	0.101
357.000	16.940	0.101
357.100	10.537	0.101
357.200	11.343	0.101
357.300	23.448	0.101
357.400	23.798	0.101
357.500	10.529	0.101
357.600	13.309	0.101
357.700	13.845	0.101
357.800	15.802	0.101
357.900	14.170	0.101
358.000	9.885	0.101
358.100	22.235	0.101
358.200	20.655	0.101
358.300	23.294	0.101
358.400	17.472	0.101
358.500	1.112	0.101
358.600	25.430	0.101
358.700	16.680	0.101
358.800	21.513	0.101
358.900	17.392	0.101
359.000	20.125	0.101
359.100	8.406	0.101
359.200	35.139	0.101
359.300	12.662	0.101
359.400	17.050	0.101
359.500	21.174	0.101
359.600	9.894	0.101
359.700	22.456	0.101
359.800	16.776	0.101
359.900	24.069	0.101
360.000	20.485	0.101
360.100	15.359	0.101
360.200	8.703	0.101
360.300	17.039	0.101
360.400	9.933	0.101
360.500	24.276	0.101
360.600	28.165	0.101
360.700	7.071	0.101
360.800	21.550	0.101
360.900	10.110	0.101
361.000	7.955	0.101
361.100	12.911	0.101
361.200	36.110	0.101
361.300	19.791	0.101
361.400	15.450	0.101
361.500	13.664	0.101
361.600	23.992	0.101
361.700	23.482	0.101
361.800	21.073	0.101
361.900	15.103	0.101
362.000	24.220	0.101
362.100	-2.266	0.101
362.200	16.740	0.101
362.300	16.192	0.101
362.400	21.426	0.101
362.500	21.312	0.101
362.600	37.936	0.101
362.700	16.701	0.101
362.800	22.828	0.101
362.900	6.773	0.101
363.000	17.404	0.101
363.100	15.565	0.101
363.200	7.330	0.101
363.300	20.337	0.101
363.400	17.089	0.101
363.500	24.274	0.101
363.600	10.285	0.101
363.700	16.962	0.101
363.800	13.029	0.101
363.900	27.958	0.101
364.000	10.521	0.101
364.100	31.153	0.101
364.200	7.677	0.101
364.300	13.631	0.101
364.400	15.947	0.101
364.500	16.400	0.101
364.600	12.563	0.101
364.700	15.605	0.101
364.800	19.959	0.101
364.900	3.489	0.101
365.000	17.422	0.101
365.100	-2.049	0.101
365.200	41.657	0.101
365.300	16.153	0.101
365.400	15.926	0.101
365.500	12.527	0.101
365.600	22.332	0.101
365.700	13.087	0.101
365.800	20.176	0.101
365.900	11.330	0.101
366.000	23.444	0.101
366.100	27.090	0.101
366.200	16.006	0.101
366.300	12.251	0.101
366.400	1.207	0.101
366.500	26.489	0.101
366.600	15.751	0.101
366.700	32.443	0.101
366.800	28.088	0.101
366.900	9.329	0.101
367.000	17.827	0.101
367.100	17.085	0.101
367.200	13.954	0.101
367.300	14.891	0.101
367.400	21.635	0.101
367.500	19.877	0.101
367.600	17.284	0.101
367.700	31.338	0.101
367.800	12.824	0.101
367.900	27.673	0.101
368.000	14.017	0.101
368.100	11.733	0.101
368.200	15.295	0.101
368.300	22.539	0.101
368.400	14.045	0.101
368.500	16.987	0.101
368.600	26.651	0.101
368.700	18.146	0.101
368.800	2.199	0.101
368.900	21.386	0.101
369.000	32.465	0.101
369.100	10.162	0.101
369.200	12.886	0.101
369.300	20.206	0.101
369.400	12.217	0.101
369.500	13.145	0.101
369.600	21.188	0.101
369.700	28.717	0.101
369.800	-2.583	0.101
369.900	13.343	0.101
370.000	15.585	0.101
370.100	16.752	0.101
370.200	9.380	0.101
370.300	26.551	0.101
370.400	12.203	0.101
370.500	17.729	0.101
370.600	27.744	0.101
370.700	4.400	0.101
370.800	17.169	0.101
370.900	22.098	0.101
371.000	16.872	0.101
371.100	24.520	0.101
371.200	27.523	0.101
371.300	19.027	0.101
371.400	23.121	0.101
371.500	9.558	0.101
371.600	13.524	0.101
371.700	13.387	0.101
371.800	25.456	0.101
371.900	19.771	0.101
372.000	6.176	0.101
372.100	22.968	0.101
372.200	24.025	0.101
372.300	17.530	0.101
372.400	15.719	0.101
372.500	18.047	0.101
372.600	12.843	0.101
372.700	29.013	0.101
372.800	29.386	0.101
372.900	19.694	0.101
373.000	11.176	0.101
373.100	12.669	0.101
373.200	15.965	0.101
373.300	25.632	0.101
373.400	10.508	0.101
373.500	21.957	0.101
373.600	27.865	0.101
373.700	13.629	0.101
373.800	23.616	0.101
373.900	18.819	0.101
374.000	16.838	0.101
374.100	13.120	0.101
374.200	10.121	0.101
374.300	14.835	0.101
374.400	16.623	0.101
374.500	14.890	0.101
374.600	5.695	0.101
374.700	17.219	0.101
374.800	28.366	0.101
374.900	16.910	0.101
375.000	27.064	0.101
375.100	25.558	0.101
375.200	31.564	0.101
375.300	13.895	0.101
375.400	10.335	0.101
375.500	24.433	0.101
375.600	19.288	0.101
375.700	28.484	0.101
375.800	18.632	0.101
375.900	7.335	0.101
376.000	16.453	0.101
376.100	21.968	0.101
376.200	12.286	0.101
376.300	14.888	0.101
376.400	19.320	0.101
376.500	0.831	0.101
376.600	31.955	0.101
376.700	18.263	0.101
376.800	22.153	0.101
376.900	20.933	0.101
377.000	26.008	0.101
377.100	18.080	0.101
377.200	25.690	0.101
377.300	22.375	0.101
377.400	8.685	0.101
377.500	18.612	0.101
377.600	14.240	0.101
377.700	40.724	0.101
377.800	24.256	0.101
377.900	-1.136	0.101
378.000	18.557	0.101
378.100	9.781	0.101
378.200	13.784	0.101
378.300	5.719	0.101
378.400	15.607	0.101
378.500	21.037	0.101
378.600	16.908	0.101
378.700	32.722	0.101
378.800	11.510	0.101
378.900	5.158	0.101
379.000	17.336	0.101
379.100	15.606	0.101
379.200	15.887	0.101
379.300	19.673	0.101
379.400	22.739	0.101
379.500	13.178	0.101
379.600	17.123	0.101
379.700	17.177	0.101
379.800	42.841	0.101
379.900	25.233	0.101
380.000	18.341	0.101
380.100	25.198	0.101
380.200	6.842	0.101
380.300	3.118	0.101
380.400	35.148	0.101
380.500	15.379	0.101
380.600	13.169	0.101
380.700	29.276	0.101
380.800	20.219	0.101
380.900	17.801	0.101
381.000	24.923	0.101
381.100	13.284	0.101
381.200	24.088	0.101
381.300	12.832	0.101
381.400	20.361	0.101
381.500	17.083	0.101
381.600	27.336	0.101
381.700	12.560	0.101
381.800	18.961	0.101
381.900	18.180	0.101
382.000	20.953	0.101
382.100	23.660	0.101
382.200	13.059	0.101
382.300	-1.275	0.101
382.400	23.094	0.101
382.500	17.472	0.101
382.600	28.508	0.101
382.700	7.299	0.101
382.800	14.176	0.101
382.900	14.316	0.101
383.000	18.157	0.101
383.100	16.925	0.101
383.200	37.184	0.101
383.300	17.797	0.101
383.400	17.912	0.101
383.500	9.585	0.101
383.600	31.451	0.101
383.700	15.037	0.101
383.800	2.381	0.101
383.900	17.443	0.101
384.000	17.285	0.101
384.100	18.979	0.101
384.200	23.081	0.101
384.300	16.884	0.101
384.400	18.607	0.101
384.500	20.456	0.101
384.600	14.606	0.101
384.700	11.073	0.101
384.800	20.321	0.101
384.900	25.723	0.101
385.000	10.866	0.101
385.100	25.701	0.101
385.200	21.773	0.101
385.300	20.334	0.101
385.400	17.334	0.101
385.500	26.551	0.101
385.600	16.390	0.101
385.700	22.228	0.101
385.800	8.670	0.101
385.900	17.384	0.101
386.000	20.666	0.101
386.100	14.180	0.101
386.200	19.738	0.101
386.300	22.277	0.101
386.400	16.927	0.101
386.500	10.838	0.101
386.600	18.206	0.101
386.700	13.878	0.101
386.800	19.191	0.101
386.900	33.148	0.101
387.000	23.689	0.101
387.100	16.969	0.101
387.200	25.787	0.101
387.300	13.446	0.101
387.400	17.069	0.101
387.500	23.599	0.101
387.600	22.246	0.101
387.700	18.607	0.101
387.800	20.067	0.101
387.900	12.588	0.101
388.000	27.373	0.101
388.100	14.263	0.101
388.200	12.001	0.101
388.300	17.298	0.101
388.400	22.115	0.101
388.500	30.408	0.101
388.600	25.424	0.101
388.700	18.959	0.101
388.800	12.766	0.101
388.900	14.127	0.101
389.000	28.629	0.101
389.100	20.237	0.101
389.200	23.662	0.101
389.300	16.351	0.101
389.400	11.556	0.101
389.500	10.113	0.101
389.600	18.569	0.101
389.700	20.777	0.101
389.800	18.515	0.101
389.900	20.481	0.101
390.000	15.915	0.101
390.100	14.127	0.101
390.200	8.552	0.101
390.300	30.350	0.101
390.400	26.418	0.101
390.500	24.984	0.101
390.600	22.170	0.101
390.700	6.942	0.101
390.800	10.360	0.101
390.900	24.156	0.101
391.000	6.728	0.101
391.100	7.974	0.101
391.200	-0.747	0.101
391.300	5.834	0.101
391.400	5.452	0.101
391.500	13.100	0.101
391.600	29.517	0.101
391.700	5.206	0.101
391.800	-2.664	0.101
391.900	-2.568	0.101
392.000	0.243	0.101
392.100	14.620	0.101
392.200	-5.985	0.101
392.300	1.151	0.101
392.400	9.670	0.101
392.500	5.612	0.101
392.600	1.407	0.101
392.700	0.808	0.101
392.800	-8.819	0.101
392.900	12.291	0.101
393.000	-2.111	0.101
393.100	5.224	0.101
393.200	0.119	0.101
393.300	-6.818	0.101
393.400	6.221	0.101
393.500	-6.591	0.101
393.600	1.982	0.101
393.700	-1.386	0.101
393.800	5.276	0.101
393.900	12.751	0.101
394.000	5.361	0.101
394.100	4.584	0.101
394.200	-12.758	0.101
394.300	-3.344	0.101
394.400	-7.437	0.101
394.500	1.480	0.101
394.600	6.907	0.101
394.700	-18.764	0.101
394.800	-12.544	0.101
394.900	-9.296	0.101
395.000	7.743	0.101
395.100	9.154	0.101
395.200	-7.135	0.101
395.300	-14.595	0.101
395.400	-4.771	0.101
395.500	-7.674	0.101
395.600	-5.572	0.101
395.700	1.962	0.101
395.800	2.276	0.101
395.900	0.694	0.101
396.000	-7.097	0.101
396.100	-15.942	0.101
396.200	-17.338	0.101
396.300	-1.476	0.101
396.400	8.160	0.101
396.500	-2.243	0.101
396.600	-8.817	0.101
396.700	3.402	0.101
396.800	-11.653	0.101
396.900	-10.314	0.101
397.000	-21.391	0.101
397.100	14.671	0.101
397.200	-8.141	0.101
397.300	-6.353	0.101
397.400	-4.275	0.101
397.500	-11.226	0.101
397.600	-22.995	0.101
397.700	3.444	0.101
397.800	-4.633	0.101
397.900	-9.089	0.101
398.000	-0.799	0.101
398.100	0.633	0.101
398.200	-3.882	0.101
398.300	6.386	0.101
398.400	9.763	0.101
398.500	-0.667	0.101
398.600	4.104	0.101
398.700	-7.874	0.101
398.800	1.456	0.101
398.900	1.247	0.101
399.000	12.208	0.101
399.100	-1.100	0.101
399.200	-9.462	0.101
399.300	-1.453	0.101
399.400	0.012	0.101
399.500	-3.602	0.101
399.600	13.553	0.101
399.700	-11.224	0.101
399.800	-17.811	0.101
399.900	-9.055	0.101
400.000	6.026	0.101
400.100	-6.537	0.101
400.200	5.932	0.101
400.300	-0.028	0.101
400.400	10.441	0.101
400.500	-4.306	0.101
400.600	-11.504	0.101
400.700	2.553	0.101
400.800	0.770	0.101
400.900	4.154	0.101
401.000	-7.398	0.101
401.100	6.685	0.101
401.200	-8.974	0.101
401.300	1.484	0.101
401.400	1.963	0.101
401.500	3.971	0.101
401.600	4.038	0.101
401.700	-10.065	0.101
401.800	-14.584	0.101
401.900	5.750	0.101
402.000	10.809	0.101
402.100	-0.686	0.101
402.200	-0.338	0.101
402.300	18.519	0.101
402.400	5.252	0.101
402.500	-3.282	0.101
402.600	-10.568	0.101
402.700	-7.561	0.101
402.800	0.698	0.101
402.900	-6.067	0.101
403.000	-6.188	0.101
403.100	-3.529	0.101
403.200	-4.766	0.101
403.300	0.123	0.101
403.400	2.271	0.101
403.500	14.537	0.101
403.600	1.071	0.101
403.700	-8.281	0.101
403.800	-6.352	0.101
403.900	-9.422	0.101
404.000	1.248	0.101
404.100	-1.083	0.101
404.200	-5.044	0.101
404.300	2.282	0.101
404.400	0.936	0.101
404.500	9.573	0.101
404.600	-2.383	0.101
404.700	-4.247	0.101
404.800	-3.300	0.101
404.900	-10.368	0.101
405.000	5.198	0.101
405.100	0.057	0.101
405.200	-2.015	0.101
405.300	-7.888	0.101
405.400	-6.100	0.101
405.500	7.433	0.101
405.600	1.608	0.101
405.700	-21.351	0.101
405.800	-4.642	0.101
405.900	-8.246	0.101
406.000	-3.721	0.101
406.100	0.207	0.101
406.200	-15.848	0.101
406.300	-13.016	0.101
406.400	0.319	0.101
406.500	1.862	0.101
406.600	-7.252	0.101
406.700	0.232	0.101
406.800	2.577	0.101
406.900	-0.076	0.101
407.000	-11.902	0.101
407.100	-10.912	0.101
407.200	5.576	0.101
407.300	7.687	0.101
407.400	-0.664	0.101
407.500	-5.769	0.101
407.600	7.635	0.101
407.700	-5.901	0.101
407.800	-7.702	0.101
407.900	-3.207	0.101
408.000	-4.481	0.101
408.100	-6.177	0.101
408.200	2.065	0.101
408.300	-11.787	0.101
408.400	-18.324	0.101
408.500	-3.755	0.101
408.600	6.416	0.101
408.700	-3.440	0.101
408.800	-0.179	0.101
408.900	-8.771	0.101
409.000	-9.852	0.101
409.100	-8.337	0.101
409.200	-10.857	0.101
409.300	1.448	0.101
409.400	-4.242	0.101
409.500	6.880	0.101
409.600	2.191	0.101
409.700	-8.966	0.101
409.800	-5.270	0.101
409.900	-7.573	0.101
410.000	3.743	0.101
410.100	-1.474	0.101
410.200	-3.290	0.101
410.300	1.363	0.101
410.400	-6.794	0.101
410.500	2.257	0.101
410.600	-5.498	0.101
410.700	-6.045	0.101
410.800	-1.669	0.101
410.900	4.172	0.101
411.000	-2.718	0.101
411.100	-6.305	0.101
411.200	-1.373	0.101
411.300	-2.835	0.101
411.400	2.955	0.101
411.500	-14.154	0.101
411.600	-8.782	0.101
411.700	6.683	0.101
411.800	-8.709	0.101
411.900	-9.296	0.101
412.000	-3.707	0.101
412.100	-8.717	0.101
412.200	3.291	0.101
412.300	-7.603	0.101
412.400	-10.143	0.101
412.500	-3.271	0.101
412.600	-5.007	0.101
412.700	2.108	0.101
412.800	-6.272	0.101
412.900	0.407	0.101
413.000	-0.913	0.101
413.100	-10.655	0.101
413.200	4.269	0.101
413.300	-8.677	0.101
413.400	-8.857	0.101
413.500	-6.092	0.101
413.600	-4.298	0.101
413.700	0.416	0.101
413.800	-1.448	0.101
413.900	-6.095	0.101
414.000	16.067	0.101
414.100	-15.307	0.101
414.200	-25.149	0.101
414.300	-5.223	0.101
414.400	-4.679	0.101
414.500	3.019	0.101
414.600	-12.263	0.101
414.700	-3.298	0.101
414.800	-9.282	0.101
414.900	-6.841	0.101
415.000	9.451	0.101
415.100	-4.759	0.101
415.200	-6.540	0.101
415.300	-8.754	0.101
415.400	-3.431	0.101
415.500	1.320	0.101
415.600	-2.576	0.101
415.700	-5.621	0.101
415.800	-3.712	0.101
415.900	-22.025	0.101
416.000	-21.423	0.101
416.100	-10.128	0.101
416.200	0.200	0.101
416.300	-11.620	0.101
416.400	6.411	0.101
416.500	-9.813	0.101
416.600	-9.463	0.101
416.700	-3.717	0.101
416.800	-12.007	0.101
416.900	-12.541	0.101
417.000	-1.347	0.101
417.100	-4.722	0.101
417.200	-7.042	0.101
417.300	-10.182	0.101
417.400	-13.661	0.101
417.500	-9.932	0.101
417.600	6.541	0.101
417.700	-18.756	0.101
417.800	-9.424	0.101
417.900	-6.105	0.101
418.000	-0.272	0.101
418.100	-3.902	0.101
418.200	-4.641	0.101
418.300	-2.390	0.101
418.400	-19.165	0.101
418.500	-8.655	0.101
418.600	3.631	0.101
418.700	-11.672	0.101
418.800	-13.977	0.101
418.900	-6.521	0.101
419.000	-2.026	0.101
419.100	2.215	0.101
419.200	-15.558	0.101
419.300	-4.693	0.101
419.400	-19.267	0.101
419.500	0.062	0.101
419.600	2.837	0.101
419.700	-8.827	0.101
419.800	-24.031	0.101
419.900	7.441	0.101
420.000	-5.447	0.101
420.100	6.190	0.101
420.200	-9.488	0.101
420.300	-19.670	0.101
420.400	3.787	0.101
420.500	-7.191	0.101
420.600	-15.254	0.101
420.700	-1.869	0.101
420.800	-3.161	0.101
420.900	-13.841	0.101
421.000	-4.919	0.101
421.100	-6.386	0.101
421.200	-12.611	0.101
421.300	-6.715	0.101
421.400	-4.814	0.101
421.500	-7.207	0.101
421.600	-12.805	0.101
421.700	-14.526	0.101
421.800	-5.577	0.101
421.900	-7.140	0.101
422.000	-0.967	0.101
422.100	-8.808	0.101
422.200	-7.523	0.101
422.300	-4.849	0.101
422.400	-3.691	0.101
422.500	-7.643	0.101
422.600	-21.831	0.101
422.700	-16.399	0.101
422.800	-1.470	0.101
422.900	-10.343	0.101
423.000	-2.049	0.101
423.100	-14.826	0.101
423.200	4.252	0.101
423.300	-18.714	0.101
423.400	4.932	0.101
423.500	-11.317	0.101
423.600	-16.632	0.101
423.700	-2.673	0.101
423.800	2.309	0.101
423.900	-4.472	0.101
424.000	1.549	0.101
424.100	-10.241	0.101
424.200	-0.040	0.101
424.300	-5.378	0.101
424.400	-3.290	0.101
424.500	-8.607	0.101
424.600	-16.050	0.101
424.700	-5.435	0.101
424.800	-14.419	0.101
424.900	-8.880	0.101
425.000	-5.725	0.101
425.100	-2.859	0.101
425.200	-4.829	0.101
425.300	-6.593	0.101
425.400	-6.873	0.101
425.500	-13.705	0.101
425.600	-15.462	0.101
425.700	1.828	0.101
425.800	-4.298	0.101
425.900	-9.733	0.101
426.000	-13.807	0.101
426.100	-3.710	0.101
426.200	-17.620	0.101
426.300	7.960	0.101
426.400	-7.350	0.101
426.500	4.628	0.101
426.600	-23.061	0.101
426.700	-1.210	0.101
426.800	-8.651	0.101
426.900	8.317	0.101
427.000	1.498	0.101
427.100	-10.671	0.101
427.200	-0.736	0.101
427.300	4.986	0.101
427.400	-2.235	0.101
427.500	-17.687	0.101
427.600	1.447	0.101
427.700	-5.035	0.101
427.800	-9.051	0.101
427.900	-9.319	0.101
428.000	-23.495	0.101
428.100	6.265	0.101
428.200	-21.175	0.101
428.300	-9.730	0.101
428.400	-12.015	0.101
428.500	-10.444	0.101
428.600	-17.887	0.101
428.700	13.891	0.101
428.800	7.366	0.101
428.900	-7.905	0.101
429.000	-5.115	0.101
429.100	-8.870	0.101
429.200	-15.104	0.101
429.300	-11.057	0.101
429.400	-2.186	0.101
429.500	-3.670	0.101
429.600	-4.422	0.101
429.700	-2.458	0.101
429.800	-15.077	0.101
429.900	-11.107	0.101
430.000	-13.763	0.101
430.100	-5.542	0.101
430.200	1.780	0.101
430.300	-4.398	0.101
430.400	-1.684	0.101
430.500	-4.112	0.101
430.600	-13.775	0.101
430.700	-2.195	0.101
430.800	-15.362	0.101
430.900	-5.108	0.101
431.000	-6.516	0.101
431.100	-0.239	0.101
431.200	-16.440	0.101
431.300	-6.385	0.101
431.400	-4.575	0.101
431.500	-0.528	0.101
431.600	-15.523	0.101
431.700	1.285	0.101
431.800	-9.161	0.101
431.900	-9.996	0.101
432.000	-20.550	0.101
432.100	4.933	0.101
432.200	-6.506	0.101
432.300	-2.862	0.101
432.400	-22.152	0.101
432.500	-9.432	0.101
432.600	-4.747	0.101
432.700	-4.177	0.101
432.800	-9.285	0.101
432.900	-6.676	0.101
433.000	-7.706	0.101
433.100	-4.452	0.101
433.200	-5.054	0.101
433.300	4.357	0.101
433.400	-2.057	0.101
433.500	2.794	0.101
433.600	-11.152	0.101
433.700	-16.957	0.101
433.800	-0.273	0.101
433.900	-20.845	0.101
434.000	-4.321	0.101
434.100	0.727	0.101
434.200	4.324	0.101
434.300	-10.486	0.101
434.400	-9.461	0.101
434.500	-5.760	0.101
434.600	0.454	0.101
434.700	-11.445	0.101
434.800	-7.033	0.101
434.900	-2.989	0.101
435.000	3.239	0.101
435.100	-10.837	0.101
435.200	-16.570	0.101
435.300	-6.253	0.101
435.400	-7.947	0.101
435.500	-27.715	0.101
435.600	-6.872	0.101
435.700	-1.478	0.101
435.800	-11.782	0.101
435.900	3.899	0.101
436.000	-8.691	0.101
436.100	-9.385	0.101
436.200	2.565	0.101
436.300	-10.701	0.101
436.400	-6.196	0.101
436.500	-8.232	0.101
436.600	-8.997	0.101
436.700	1.528	0.101
436.800	-7.960	0.101
436.900	-20.330	0.101
437.000	-11.297	0.101
437.100	-14.963	0.101
437.200	1.149	0.101
437.300	-8.016	0.101
437.400	-22.306	0.101
437.500	-0.178	0.101
437.600	3.415	0.101
437.700	-8.082	0.101
437.800	-18.984	0.101
437.900	-8.199	0.101
438.000	-8.564	0.101
438.100	-24.466	0.101
438.200	-2.919	0.101
438.300	-11.015	0.101
438.400	-5.981	0.101
438.500	-3.631	0.101
438.600	-3.544	0.101
438.700	-10.333	0.101
438.800	1.709	0.101
438.900	-11.668	0.101
439.000	-17.256	0.101
439.100	-8.231	0.101
439.200	-3.375	0.101
439.300	-1.019	0.101
439.400	-8.666	0.101
439.500	-6.526	0.101
439.600	5.562	0.101
439.700	-19.843	0.101
439.800	-18.873	0.101
439.900	-15.174	0.101
440.000	-5.821	0.101
440.100	-14.235	0.101
440.200	-3.220	0.101
440.300	0.427	0.101
440.400	1.889	0.101
440.500	-15.869	0.101
440.600	-5.614	0.101
440.700	-8.574	0.101
440.800	-5.737	0.101
440.900	-14.388	0.101
441.000	-4.676	0.101
441.100	-7.958	0.101
441.200	-14.645	0.101
441.300	6.291	0.101
441.400	-7.527	0.101
441.500	-10.119	0.101
441.600	-20.616	0.101
441.700	-9.932	0.101
441.800	-8.271	0.101
441.900	-7.878	0.101
442.000	-7.515	0.101
442.100	-8.884	0.101
442.200	4.565	0.101
442.300	2.404	0.101
442.400	-18.527	0.101
442.500	-19.169	0.101
442.600	-11.355	0.101
442.700	-9.828	0.101
442.800	-7.928	0.101
442.900	-7.588	0.101
443.000	1.379	0.101
443.100	0.903	0.101
443.200	-8.639	0.101
443.300	-16.340	0.101
443.400	-23.261	0.101
443.500	-0.952	0.101
443.600	-1.187	0.101
443.700	-12.828	0.101
443.800	-15.266	0.101
443.900	-5.749	0.101
444.000	-17.221	0.101
444.100	-7.149	0.101
444.200	-6.739	0.101
444.300	0.952	0.101
444.400	1.499	0.101
444.500	7.418	0.101
444.600	-5.954	0.101
444.700	-17.193	0.101
444.800	-2.950	0.101
444.900	-4.110	0.101
445.000	-5.490	0.101
445.100	-12.451	0.101
445.200	-1.365	0.101
445.300	-15.929	0.101
445.400	-0.523	0.101
445.500	-0.355	0.101
445.600	0.242	0.101
445.700	-10.206	0.101
445.800	-11.864	0.101
445.900	-2.215	0.101
446.000	-23.085	0.101
446.100	-8.894	0.101
446.200	-1.605	0.101
446.300	-10.888	0.101
446.400	-2.205	0.101
446.500	-9.326	0.101
446.600	-3.292	0.101
446.700	4.390	0.101
446.800	-0.135	0.101
446.900	-5.610	0.101
447.000	-12.321	0.101
447.100	-11.997	0.101
447.200	-7.536	0.101
447.300	-14.926	0.101
447.400	-7.410	0.101
447.500	4.507	0.101
447.600	0.317	0.101
447.700	-18.653	0.101
447.800	-6.110	0.101
447.900	-12.691	0.101
448.000	-11.186	0.101
448.100	-1.940	0.101
448.200	-9.049	0.101
448.300	-12.561	0.101
448.400	-12.763	0.101
448.500	-7.243	0.101
448.600	-3.633	0.101
448.700	0.366	0.101
448.800	-3.618	0.101
448.900	-13.620	0.101
449.000	-3.982	0.101
449.100	-11.113	0.101
449.200	-5.415	0.101
449.300	8.008	0.101
449.400	-7.036	0.101
449.500	-4.624	0.101
449.600	0.055	0.101
449.700	4.864	0.101
449.800	0.061	0.101
449.900	-15.016	0.101
450.000	-19.660	0.101
450.100	1.569	0.101
450.200	-27.046	0.101
450.300	-3.192	0.101
450.400	-14.991	0.101
450.500	-11.059	0.101
450.600	-4.722	0.101
450.700	5.483	0.101
450.800	-9.199	0.101
450.900	-13.300	0.101
451.000	-15.504	0.101
451.100	-17.023	0.101
451.200	5.470	0.101
451.300	-0.989	0.101
451.400	-25.160	0.101
451.500	5.389	0.101
451.600	-17.263	0.101
451.700	-9.402	0.101
451.800	-4.319	0.101
451.900	-30.118	0.101
452.000	-6.114	0.101
452.100	-8.906	0.101
452.200	-2.360	0.101
452.300	-5.522	0.101
452.400	-6.698	0.101
452.500	-16.477	0.101
452.600	-5.786	0.101
452.700	3.143	0.101
452.800	-18.000	0.101
452.900	-4.203	0.101
453.000	-9.340	0.101
453.100	-14.323	0.101
453.200	-1.322	0.101
453.300	1.066	0.101
453.400	-10.145	0.101
453.500	-8.839	0.101
453.600	-20.301	0.101
453.700	-6.085	0.101
453.800	-4.849	0.101
453.900	-4.832	0.101
454.000	-6.676	0.101
454.100	-10.633	0.101
454.200	-9.568	0.101
454.300	-18.093	0.101
454.400	-10.047	0.101
454.500	-2.383	0.101
454.600	-1.846	0.101
454.700	-1.404	0.101
454.800	-4.251	0.101
454.900	-12.141	0.101
455.000	-10.242	0.101
455.100	3.227	0.101
455.200	-10.828	0.101
455.300	-7.157	0.101
455.400	-2.531	0.101
455.500	-9.383	0.101
455.600	-15.665	0.101
455.700	-2.763	0.101
455.800	6.013	0.101
455.900	-14.274	0.101
456.000	-2.949	0.101
456.100	-7.550	0.101
456.200	-5.672	0.101
456.300	1.358	0.101
456.400	-6.494	0.101
456.500	-25.802	0.101
456.600	-7.656	0.101
456.700	-2.716	0.101
456.800	-4.943	0.101
456.900	8.004	0.101
457.000	-6.677	0.101
457.100	-10.749	0.101
457.200	-17.664	0.101
457.300	0.304	0.101
457.400	-1.570	0.101
457.500	-7.487	0.101
457.600	-25.339	0.101
457.700	-26.711	0.101
457.800	4.756	0.101
457.900	-23.164	0.101
458.000	-12.253	0.101
458.100	-10.635	0.101
458.200	-9.356	0.101
458.300	-0.753	0.101
458.400	-12.489	0.101
458.500	-10.054	0.101
458.600	-8.319	0.101
458.700	3.754	0.101
458.800	0.912	0.101
458.900	2.399	0.101
459.000	-5.144	0.101
459.100	0.012	0.101
459.200	-1.311	0.101
459.300	-17.638	0.101
459.400	-10.251	0.101
459.500	-15.311	0.101
459.600	-3.120	0.101
459.700	-24.393	0.101
459.800	-4.907	0.101
459.900	-8.371	0.101
460.000	-7.329	0.101
460.100	1.543	0.101
460.200	-13.761	0.101
460.300	-4.182	0.101
460.400	-2.249	0.101
460.500	-3.434	0.101
460.600	4.959	0.101
460.700	-6.100	0.101
460.800	-11.978	0.101
460.900	-1.784	0.101
461.000	-5.146	0.101
461.100	-8.638	0.101
461.200	-3.806	0.101
461.300	-2.683	0.101
461.400	-8.101	0.101
461.500	-21.135	0.101
461.600	-3.733	0.101
461.700	-6.105	0.101
461.800	-12.483	0.101
461.900	-7.423	0.101
462.000	-2.473	0.101
462.100	-23.165	0.101
462.200	-2.194	0.101
462.300	1.750	0.101
462.400	-13.473	0.101
462.500	-19.068	0.101
462.600	-2.261	0.101
462.700	-4.201	0.101
462.800	-4.658	0.101
462.900	-5.528	0.101
463.000	-12.472	0.101
463.100	-9.127	0.101
463.200	-7.195	0.101
463.300	-9.710	0.101
463.400	-12.334	0.101
463.500	-1.417	0.101
463.600	-0.346	0.101
463.700	-2.405	0.101
463.800	3.751	0.101
463.900	-7.605	0.101
464.000	-6.774	0.101
464.100	-12.286	0.101
464.200	2.444	0.101
464.300	8.563	0.101
464.400	-9.520	0.101
464.500	-9.091	0.101
464.600	-0.807	0.101
464.700	-24.982	0.101
464.800	-12.840	0.101
464.900	-16.434	0.101
465.000	-7.659	0.101
465.100	-10.590	0.101
465.200	4.458	0.101
465.300	-9.338	0.101
465.400	-7.695	0.101
465.500	-3.790	0.101
465.600	-1.950	0.101
465.700	-8.052	0.101
465.800	-5.120	0.101
465.900	-8.176	0.101
466.000	1.216	0.101
466.100	-12.976	0.101
466.200	4.150	0.101
466.300	-15.295	0.101
466.400	-21.027	0.101
466.500	10.433	0.101
466.600	-4.844	0.101
466.700	-15.840	0.101
466.800	-11.457	0.101
466.900	-2.246	0.101
467.000	-0.478	0.101
467.100	-10.582	0.101
467.200	-8.323	0.101
467.300	-4.002	0.101
467.400	-0.890	0.101
467.500	-2.083	0.101
467.600	-7.670	0.101
467.700	-15.637	0.101
467.800	-3.200	0.101
467.900	-5.267	0.101
468.000	-1.172	0.101
468.100	-13.661	0.101
468.200	5.780	0.101
468.300	-12.365	0.101
468.400	-2.778	0.101
468.500	-16.710	0.101
468.600	7.604	0.101
468.700	-9.858	0.101
468.800	-4.429	0.101
468.900	-10.192	0.101
469.000	0.920	0.101
469.100	-6.916	0.101
469.200	-20.394	0.101
469.300	-15.299	0.101
469.400	3.148	0.101
469.500	-6.208	0.101
469.600	-6.511	0.101
469.700	-1.260	0.101
469.800	-10.525	0.101
469.900	-5.690	0.101
470.000	-4.372	0.101
470.100	-1.310	0.101
470.200	-7.052	0.101
470.300	-9.032	0.101
470.400	13.763	0.101
470.500	-9.355	0.101
470.600	-9.636	0.101
470.700	-1.073	0.101
470.800	-1.606	0.101
470.900	-0.176	0.101
471.000	-21.091	0.101
471.100	-1.542	0.101
471.200	-2.210	0.101
471.300	-1.009	0.101
471.400	-13.167	0.101
471.500	-16.560	0.101
471.600	1.759	0.101
471.700	-2.944	0.101
471.800	1.011	0.101
471.900	-8.318	0.101
472.000	-17.216	0.101
472.100	-11.096	0.101
472.200	-12.160	0.101
472.300	6.495	0.101
472.400	-16.929	0.101
472.500	2.343	0.101
472.600	3.213	0.101
472.700	-3.055	0.101
472.800	5.046	0.101
472.900	-2.186	0.101
473.000	-5.168	0.101
473.100	-1.424	0.101
473.200	-9.608	0.101
473.300	-7.368	0.101
473.400	-10.567	0.101
473.500	-16.139	0.101
473.600	-9.406	0.101
473.700	-9.402	0.101
473.800	-3.126	0.101
473.900	-5.048	0.101
474.000	-8.992	0.101
474.100	8.756	0.101
474.200	-12.580	0.101
474.300	-3.533	0.101
474.400	-9.939	0.101
474.500	-23.420	0.101
474.600	-3.591	0.101
474.700	-0.346	0.101
474.800	-5.592	0.101
474.900	-5.505	0.101
475.000	-6.607	0.101
475.100	-2.458	0.101
475.200	-9.915	0.101
475.300	-9.700	0.101
475.400	8.106	0.101
475.500	-22.823	0.101
475.600	-12.786	0.101
475.700	3.092	0.101
475.800	-16.902	0.101
475.900	0.830	0.101
476.000	9.436	0.101
476.100	-10.558	0.101
476.200	-3.648	0.101
476.300	-22.884	0.101
476.400	-5.791	0.101
476.500	1.182	0.101
476.600	3.751	0.101
476.700	-0.249	0.101
476.800	-10.614	0.101
476.900	-5.499	0.101
477.000	-8.002	0.101
477.100	-6.225	0.101
477.200	-8.991	0.101
477.300	-5.907	0.101
477.400	-17.639	0.101
477.500	0.289	0.101
477.600	-5.795	0.101
477.700	-0.572	0.101
477.800	-10.427	0.101
477.900	-7.965	0.101
478.000	-2.439	0.101
478.100	-7.603	0.101
478.200	-14.025	0.101
478.300	8.358	0.101
478.400	-6.698	0.101
478.500	-11.560	0.101
478.600	-4.691	0.101
478.700	-10.777	0.101
478.800	-4.077	0.101
478.900	-15.366	0.101
479.000	-4.749	0.101
479.100	-9.575	0.101
479.200	-15.983	0.101
479.300	-6.445	0.101
479.400	2.849	0.101
479.500	-11.479	0.101
479.600	-5.075	0.101
479.700	-13.450	0.101
479.800	-6.014	0.101
479.900	-10.224	0.101
480.000	1.659	0.101
480.100	5.199	0.101
480.200	0.884	0.101
480.300	-6.381	0.101
480.400	0.051	0.101
480.500	6.343	0.101
480.600	-9.354	0.101
480.700	-16.600	0.101
480.800	-9.888	0.101
480.900	4.175	0.101
481.000	5.634	0.101
481.100	3.159	0.101
481.200	16.557	0.101
481.300	-3.168	0.101
481.400	1.355	0.101
481.500	20.967	0.101
481.600	2.353	0.101
481.700	-1.720	0.101
481.800	11.663	0.101
481.900	3.783	0.101
482.000	3.122	0.101
482.100	-16.933	0.101
482.200	21.855	0.101
482.300	7.238	0.101
482.400	24.841	0.101
482.500	-1.718	0.101
482.600	8.880	0.101
482.700	10.865	0.101
482.800	3.666	0.101
482.900	2.750	0.101
483.000	20.237	0.101
483.100	-1.322	0.101
483.200	13.425	0.101
483.300	5.647	0.101
483.400	7.607	0.101
483.500	-0.593	0.101
483.600	10.403	0.101
483.700	2.790	0.101
483.800	9.573	0.101
483.900	24.550	0.101
484.000	4.223	0.101
484.100	-8.040	0.101
484.200	10.249	0.101
484.300	3.719	0.101
484.400	-4.722	0.101
484.500	5.754	0.101
484.600	12.925	0.101
484.700	-0.481	0.101
484.800	-0.144	0.101
484.900	4.061	0.101
485.000	10.379	0.101
485.100	-1.017	0.101
485.200	14.580	0.101
485.300	8.675	0.101
485.400	15.531	0.101
485.500	-3.290	0.101
485.600	14.951	0.101
485.700	-6.940	0.101
485.800	1.895	0.101
485.900	12.896	0.101
486.000	5.455	0.101
486.100	19.386	0.101
486.200	4.858	0.101
486.300	0.834	0.101
486.400	-3.953	0.101
486.500	6.828	0.101
486.600	16.252	0.101
486.700	-4.403	0.101
486.800	14.956	0.101
486.900	4.147	0.101
487.000	-4.410	0.101
487.100	12.456	0.101
487.200	14.948	0.101
487.300	12.012	0.101
487.400	-3.037	0.101
487.500	3.638	0.101
487.600	14.894	0.101
487.700	19.469	0.101
487.800	4.022	0.101
487.900	6.011	0.101
488.000	1.395	0.101
488.100	-2.714	0.101
488.200	6.505	0.101
488.300	11.460	0.101
488.400	9.918	0.101
488.500	12.777	0.101
488.600	5.783	0.101
488.700	4.503	0.101
488.800	6.368	0.101
488.900	11.987	0.101
489.000	12.699	0.101
489.100	19.859	0.101
489.200	7.021	0.101
489.300	-4.867	0.101
489.400	-0.568	0.101
489.500	4.884	0.101
489.600	7.872	0.101
489.700	13.393	0.101
489.800	10.508	0.101
489.900	17.456	0.101
490.000	-4.968	0.101
490.100	-4.116	0.101
490.200	15.413	0.101
490.300	8.060	0.101
490.400	27.568	0.101
490.500	-3.924	0.101
490.600	15.244	0.101
490.700	9.703	0.101
490.800	8.974	0.101
490.900	11.859	0.101
491.000	-5.755	0.101
491.100	23.686	0.101
491.200	12.002	0.101
491.300	-5.622	0.101
491.400	8.404	0.101
491.500	13.164	0.101
491.600	10.917	0.101
491.700	5.189	0.101
491.800	8.367	0.101
491.900	6.619	0.101
492.000	14.695	0.101
492.100	4.753	0.101
492.200	9.264	0.101
492.300	3.937	0.101
492.400	9.669	0.101
492.500	15.626	0.101
492.600	7.953	0.101
492.700	5.265	0.101
492.800	22.842	0.101
492.900	-1.184	0.101
493.000	1.524	0.101
493.100	12.557	0.101
493.200	9.233	0.101
493.300	5.425	0.101
493.400	10.318	0.101
493.500	13.353	0.101
493.600	17.761	0.101
493.700	10.741	0.101
493.800	6.080	0.101
493.900	15.112	0.101
494.000	4.270	0.101
494.100	4.596	0.101
494.200	6.426	0.101
494.300	5.919	0.101
494.400	17.359	0.101
494.500	18.808	0.101
494.600	10.241	0.101
494.700	12.296	0.101
494.800	0.941	0.101
494.900	14.784	0.101
495.000	18.754	0.101
495.100	17.050	0.101
495.200	10.244	0.101
495.300	17.760	0.101
495.400	9.723	0.101
495.500	-1.110	0.101
495.600	13.689	0.101
495.700	6.520	0.101
495.800	13.197	0.101
495.900	15.466	0.101
496.000	5.328	0.101
496.100	10.165	0.101
496.200	8.283	0.101
496.300	10.391	0.101
496.400	22.578	0.101
496.500	6.027	0.101
496.600	12.491	0.101
496.700	9.673	0.101
496.800	20.431	0.101
496.900	16.458	0.101
497.000	4.094	0.101
497.100	24.245	0.101
497.200	13.924	0.101
497.300	8.796	0.101
497.400	25.547	0.101
497.500	2.731	0.101
497.600	15.097	0.101
497.700	9.964	0.101
497.800	3.246	0.101
497.900	8.348	0.101
498.000	20.728	0.101
498.100	19.285	0.101
498.200	23.320	0.101
498.300	6.596	0.101
498.400	19.490	0.101
498.500	18.914	0.101
498.600	19.322	0.101
498.700	19.593	0.101
498.800	9.989	0.101
498.900	20.274	0.101
499.000	16.913	0.101
499.100	16.832	0.101
499.200	23.670	0.101
499.300	4.421	0.101
499.400	21.126	0.101
499.500	7.689	0.101
499.600	15.181	0.101
499.700	14.617	0.101
499.800	20.188	0.101
499.900	15.445	0.101
500.000	12.479	0.101
500.100	24.067	0.101
500.200	20.599	0.101
500.300	17.357	0.101
500.400	25.249	0.101
500.500	14.423	0.101
500.600	-2.896	0.101
500.700	22.459	0.101
500.800	26.526	0.101
500.900	8.468	0.101
501.000	12.414	0.101
501.100	17.011	0.101
501.200	12.253	0.101
501.300	14.383	0.101
501.400	20.010	0.101
501.500	12.752	0.101
501.600	7.009	0.101
501.700	23.459	0.101
501.800	12.943	0.101
501.900	17.410	0.101
502.000	24.566	0.101
502.100	22.748	0.101
502.200	10.718	0.101
502.300	15.192	0.101
502.400	14.168	0.101
502.500	24.452	0.101
502.600	11.911	0.101
502.700	17.149	0.101
502.800	12.877	0.101
502.900	10.329	0.101
503.000	27.136	0.101
503.100	21.406	0.101
503.200	6.951	0.101
503.300	15.084	0.101
503.400	27.481	0.101
503.500	25.347	0.101
503.600	15.114	0.101
503.700	11.158	0.101
503.800	11.138	0.101
503.900	23.512	0.101
504.000	24.201	0.101
504.100	19.157	0.101
504.200	11.616	0.101
504.300	16.236	0.101
504.400	14.874	0.101
504.500	12.108	0.101
504.600	28.233	0.101
504.700	20.342	0.101
504.800	29.235	0.101
504.900	2.395	0.101
505.000	11.756	0.101
505.100	16.919	0.101
505.200	18.711	0.101
505.300	21.811	0.101
505.400	11.931	0.101
505.500	19.362	0.101
505.600	13.038	0.101
505.700	15.581	0.101
505.800	27.805	0.101
505.900	30.138	0.101
506.000	11.122	0.101
506.100	11.506	0.101
506.200	16.223	0.101
506.300	5.136	0.101
506.400	18.066	0.101
506.500	10.644	0.101
506.600	21.003	0.101
506.700	12.140	0.101
506.800	9.674	0.101
506.900	17.663	0.101
507.000	19.622	0.101
507.100	24.014	0.101
507.200	-1.476	0.101
507.300	30.846	0.101
507.400	3.838	0.101
507.500	25.041	0.101
507.600	13.147	0.101
507.700	13.363	0.101
507.800	11.263	0.101
507.900	19.417	0.101
508.000	13.109	0.101
508.100	28.742	0.101
508.200	12.290	0.101
508.300	18.862	0.101
508.400	13.876	0.101
508.500	5.277	0.101
508.600	22.578	0.101
508.700	6.365	0.101
508.800	7.350	0.101
508.900	11.954	0.101
509.000	17.933	0.101
509.100	19.042	0.101
509.200	11.557	0.101
509.300	21.453	0.101
509.400	26.435	0.101
509.500	3.362	0.101
509.600	17.176	0.101
509.700	11.096	0.101
509.800	16.963	0.101
509.900	24.423	0.101
510.000	1.460	0.101
510.100	16.005	0.101
510.200	28.491	0.101
510.300	20.362	0.101
510.400	14.541	0.101
510.500	20.614	0.101
510.600	40.777	0.101
510.700	12.551	0.101
510.800	9.745	0.101
510.900	11.240	0.101
511.000	14.740	0.101
511.100	11.272	0.101
511.200	15.797	0.101
511.300	20.292	0.101
511.400	27.910	0.101
511.500	26.280	0.101
511.600	26.514	0.101
511.700	14.580	0.101
511.800	16.502	0.101
511.900	30.400	0.101
512.000	-2.923	0.101
512.100	19.088	0.101
512.200	23.768	0.101
512.300	16.849	0.101
512.400	13.727	0.101
512.500	13.817	0.101
512.600	24.206	0.101
512.700	9.397	0.101
512.800	18.147	0.101
512.900	9.792	0.101
513.000	29.029	0.101
513.100	7.296	0.101
513.200	17.187	0.101
513.300	11.580	0.101
513.400	21.366	0.101
513.500	14.510	0.101
513.600	18.089	0.101
513.700	15.933	0.101
513.800	24.800	0.101
513.900	7.626	0.101
514.000	9.220	0.101
514.100	24.718	0.101
514.200	24.956	0.101
514.300	12.355	0.101
514.400	17.570	0.101
514.500	18.001	0.101
514.600	18.349	0.101
514.700	17.538	0.101
514.800	11.852	0.101
514.900	13.874	0.101
515.000	26.753	0.101
515.100	8.667	0.101
515.200	12.916	0.101
515.300	18.381	0.101
515.400	24.575	0.101
515.500	6.844	0.101
515.600	9.279	0.101
515.700	29.034	0.101
515.800	9.157	0.101
515.900	10.172	0.101
516.000	23.168	0.101
516.100	14.582	0.101
516.200	4.522	0.101
516.300	10.117	0.101
516.400	19.633	0.101
516.500	22.893	0.101
516.600	11.119	0.101
516.700	10.332	0.101
516.800	18.479	0.101
516.900	23.399	0.101
517.000	30.971	0.101
517.100	13.855	0.101
517.200	24.889	0.101
517.300	12.375	0.101
517.400	14.218	0.101
517.500	24.811	0.101
517.600	15.865	0.101
517.700	21.302	0.101
517.800	19.895	0.101
517.900	25.548	0.101
518.000	17.133	0.101
518.100	7.556	0.101
518.200	10.214	0.101
518.300	23.677	0.101
518.400	28.795	0.101
518.500	8.760	0.101
518.600	24.845	0.101
518.700	23.893	0.101
518.800	16.776	0.101
518.900	22.246	0.101
519.000	16.333	0.101
519.100	13.812	0.101
519.200	10.408	0.101
519.300	17.814	0.101
519.400	18.362	0.101
519.500	10.203	0.101
519.600	28.781	0.101
519.700	12.527	0.101
519.800	15.616	0.101
519.900	9.402	0.101
520.000	14.459	0.101
520.100	18.434	0.101
520.200	25.731	0.101
520.300	24.720	0.101
520.400	15.915	0.101
520.500	13.937	0.101
520.600	16.276	0.101
520.700	21.310	0.101
520.800	18.590	0.101
520.900	20.329	0.101
521.000	21.221	0.101
521.100	20.014	0.101
521.200	41.542	0.101
521.300	2.198	0.101
521.400	17.219	0.101
521.500	22.138	0.101
521.600	14.579	0.101
521.700	2.856	0.101
521.800	14.660	0.101
521.900	19.981	0.101
522.000	12.179	0.101
522.100	26.708	0.101
522.200	12.414	0.101
522.300	25.696	0.101
522.400	26.816	0.101
522.500	21.320	0.101
522.600	27.846	0.101
522.700	15.530	0.101
522.800	21.009	0.101
522.900	16.116	0.101
523.000	17.738	0.101
523.100	11.674	0.101
523.200	27.719	0.101
523.300	8.002	0.101
523.400	27.361	0.101
523.500	18.376	0.101
523.600	3.608	0.101
523.700	5.264	0.101
523.800	25.496	0.101
523.900	15.938	0.101
524.000	16.314	0.101
524.100	11.038	0.101
524.200	24.836	0.101
524.300	5.603	0.101
524.400	15.337	0.101
524.500	29.755	0.101
524.600	18.747	0.101
524.700	16.707	0.101
524.800	16.123	0.101
524.900	17.742	0.101
525.000	19.701	0.101
525.100	20.696	0.101
525.200	-2.717	0.101
525.300	8.348	0.101
525.400	15.476	0.101
525.500	31.702	0.101
525.600	20.693	0.101
525.700	14.850	0.101
525.800	14.984	0.101
525.900	30.751	0.101
526.000	14.252	0.101
526.100	22.748	0.101
526.200	14.370	0.101
526.300	15.216	0.101
526.400	13.377	0.101
526.500	20.214	0.101
526.600	18.822	0.101
526.700	19.930	0.101
526.800	-0.612	0.101
526.900	17.920	0.101
527.000	38.424	0.101
527.100	22.007	0.101
527.200	13.217	0.101
527.300	19.346	0.101
527.400	26.294	0.101
527.500	20.248	0.101
527.600	17.481	0.101
527.700	29.439	0.101
527.800	11.458	0.101
527.900	13.891	0.101
528.000	21.778	0.101
528.100	19.947	0.101
528.200	24.602	0.101
528.300	9.367	0.101
528.400	12.876	0.101
528.500	24.219	0.101
528.600	13.808	0.101
528.700	5.317	0.101
528.800	25.655	0.101
528.900	18.554	0.101
529.000	26.280	0.101
529.100	41.386	0.101
529.200	-4.449	0.101
529.300	33.682	0.101
529.400	17.840	0.101
529.500	13.465	0.101
529.600	22.366	0.101
529.700	8.164	0.101
529.800	26.812	0.101
529.900	22.687	0.101
530.000	15.004	0.101
530.100	14.701	0.101
530.200	28.117	0.101
530.300	22.236	0.101
530.400	9.760	0.101
530.500	8.130	0.101
530.600	7.920	0.101
530.700	18.134	0.101
530.800	21.828	0.101
530.900	7.553	0.101
531.000	33.174	0.101
531.100	7.156	0.101
531.200	13.916	0.101
531.300	17.396	0.101
531.400	17.340	0.101
531.500	31.791	0.101
531.600	26.046	0.101
531.700	17.846	0.101
531.800	13.865	0.101
531.900	18.692	0.101
532.000	17.616	0.101
532.100	25.231	0.101
532.200	15.529	0.101
532.300	12.902	0.101
532.400	20.531	0.101
532.500	18.695	0.101
532.600	22.300	0.101
532.700	29.809	0.101
532.800	15.834	0.101
532.900	32.745	0.101
533.000	21.603	0.101
533.100	12.588	0.101
533.200	28.181	0.101
533.300	9.583	0.101
533.400	19.122	0.101
533.500	7.961	0.101
533.600	11.403	0.101
533.700	26.112	0.101
533.800	24.501	0.101
533.900	-0.183	0.101
534.000	21.675	0.101
534.100	5.335	0.101
534.200	22.214	0.101
534.300	23.427	0.101
534.400	18.956	0.101
534.500	19.534	0.101
534.600	13.199	0.101
534.700	17.438	0.101
534.800	13.679	0.101
534.900	27.340	0.101
535.000	18.019	0.101
535.100	20.700	0.101
535.200	10.368	0.101
535.300	17.441	0.101
535.400	18.685	0.101
535.500	30.330	0.101
535.600	21.487	0.101
535.700	20.293	0.101
535.800	12.741	0.101
535.900	18.297	0.101
536.000	20.234	0.101
536.100	26.722	0.101
536.200	19.113	0.101
536.300	15.859	0.101
536.400	16.469	0.101
536.500	21.846	0.101
536.600	21.024	0.101
536.700	25.025	0.101
536.800	18.060	0.101
536.900	15.041	0.101
537.000	31.498	0.101
537.100	12.415	0.101
537.200	20.670	0.101
537.300	13.733	0.101
537.400	1.010	0.101
537.500	20.501	0.101
537.600	5.421	0.101
537.700	30.947	0.101
537.800	29.462	0.101
537.900	22.651	0.101
538.000	22.831	0.101
538.100	15.431	0.101
538.200	9.123	0.101
538.300	16.267	0.101
538.400	22.108	0.101
538.500	20.083	0.101
538.600	28.586	0.101
538.700	20.358	0.101
538.800	5.653	0.101
538.900	23.237	0.101
539.000	20.242	0.101
539.100	22.443	0.101
539.200	23.236	0.101
539.300	22.809	0.101
539.400	7.816	0.101
539.500	21.734	0.101
539.600	33.111	0.101
539.700	21.969	0.101
539.800	17.886	0.101
539.900	17.269	0.101
540.000	25.047	0.101
540.100	12.599	0.101
540.200	32.524	0.101
540.300	17.558	0.101
540.400	22.973	0.101
540.500	7.203	0.101
540.600	17.661	0.101
540.700	-9.522	0.101
540.800	15.119	0.101
540.900	13.725	0.101
541.000	12.237	0.101
541.100	26.038	0.101
541.200	1.074	0.101
541.300	7.518	0.101
541.400	4.146	0.101
541.500	8.327	0.101
541.600	9.916	0.101
541.700	18.347	0.101
541.800	-5.146	0.101
541.900	5.057	0.101
542.000	2.263	0.101
542.100	3.712	0.101
542.200	3.072	0.101
542.300	-2.621	0.101
542.400	4.500	0.101
542.500	-3.676	0.101
542.600	8.711	0.101
542.700	-0.549	0.101
542.800	0.431	0.101
542.900	-0.212	0.101
543.000	6.987	0.101
543.100	-15.512	0.101
543.200	12.105	0.101
543.300	4.803	0.101
543.400	-3.241	0.101
543.500	-12.853	0.101
543.600	0.971	0.101
543.700	-2.522	0.101
543.800	9.084	0.101
543.900	-7.905	0.101
544.000	-0.942	0.101
544.100	-7.579	0.101
544.200	-3.519	0.101
544.300	-7.561	0.101
544.400	-4.643	0.101
544.500	-7.889	0.101
544.600	-5.723	0.101
544.700	0.143	0.101
544.800	-6.654	0.101
544.900	-5.982	0.101
545.000	6.480	0.101
545.100	0.906	0.101
545.200	0.306	0.101
545.300	-6.310	0.101
545.400	-1.620	0.101
545.500	4.129	0.101
545.600	-4.697	0.101
545.700	-2.306	0.101
545.800	-8.046	0.101
545.900	-0.513	0.101
546.000	-1.787	0.101
546.100	20.247	0.101
546.200	-7.109	0.101
546.300	10.217	0.101
546.400	-16.522	0.101
546.500	-8.293	0.101
546.600	-3.908	0.101
546.700	-5.702	0.101
546.800	6.350	0.101
546.900	-7.986	0.101
547.000	-11.109	0.101
547.100	9.315	0.101
547.200	5.343	0.101
547.300	0.098	0.101
547.400	-10.147	0.101
547.500	3.603	0.101
547.600	-1.277	0.101
547.700	5.772	0.101
547.800	-13.773	0.101
547.900	-7.186	0.101
548.000	-9.372	0.101
548.100	5.568	0.101
548.200	3.999	0.101
548.300	-6.724	0.101
548.400	20.646	0.101
548.500	6.100	0.101
548.600	-6.162	0.101
548.700	1.543	0.101
548.800	-11.216	0.101
548.900	12.248	0.101
549.000	1.368	0.101
549.100	0.601	0.101
549.200	-10.814	0.101
549.300	-1.820	0.101
549.400	4.461	0.101
549.500	-13.365	0.101
549.600	-1.434	0.101
549.700	-2.181	0.101
549.800	1.325	0.101
549.900	-5.347	0.101
550.000	3.018	0.101
550.100	2.566	0.101
550.200	0.488	0.101
550.300	-3.405	0.101
550.400	4.734	0.101
550.500	-0.709	0.101
550.600	-1.635	0.101
550.700	-4.399	0.101
550.800	0.745	0.101
550.900	12.355	0.101
551.000	8.953	0.101
551.100	-3.890	0.101
551.200	-5.919	0.101
551.300	2.640	0.101
551.400	18.259	0.101
551.500	-17.031	0.101
551.600	-8.570	0.101
551.700	-5.448	0.101
551.800	-2.946	0.101
551.900	-2.953	0.101
552.000	-8.642	0.101
552.100	6.474	0.101
552.200	-20.531	0.101
552.300	2.920	0.101
552.400	-1.296	0.101
552.500	5.434	0.101
552.600	-10.700	0.101
552.700	3.379	0.101
552.800	-0.150	0.101
552.900	5.856	0.101
553.000	-9.685	0.101
553.100	15.529	0.101
553.200	-1.034	0.101
553.300	-3.808	0.101
553.400	-8.085	0.101
553.500	-8.390	0.101
553.600	0.889	0.101
553.700	3.553	0.101
553.800	-16.410	0.101
553.900	7.153	0.101
554.000	-3.011	0.101
554.100	-7.177	0.101
554.200	-8.410	0.101
554.300	9.499	0.101
554.400	-3.316	0.101
554.500	2.184	0.101
554.600	-8.597	0.101
554.700	0.319	0.101
554.800	-13.329	0.101
554.900	-4.029	0.101
555.000	4.229	0.101
555.100	-6.468	0.101
555.200	-6.425	0.101
555.300	-1.258	0.101
555.400	6.987	0.101
555.500	-9.233	0.101
555.600	-0.402	0.101
555.700	-1.057	0.101
555.800	5.811	0.101
555.900	-12.320	0.101
556.000	-7.750	0.101
556.100	-0.526	0.101
556.200	0.536	0.101
556.300	3.308	0.101
556.400	-4.152	0.101
556.500	2.144	0.101
556.600	-0.061	0.101
556.700	6.133	0.101
556.800	-6.366	0.101
556.900	7.132	0.101
557.000	-10.774	0.101
557.100	-22.870	0.101
557.200	-5.490	0.101
557.300	4.649	0.101
557.400	6.794	0.101
557.500	-11.457	0.101
557.600	0.006	0.101
557.700	-13.180	0.101
557.800	-13.039	0.101
557.900	-3.425	0.101
558.000	-3.565	0.101
558.100	0.504	0.101
558.200	-3.162	0.101
558.300	-1.794	0.101
558.400	-4.609	0.101
558.500	-4.287	0.101
558.600	-8.091	0.101
558.700	-10.516	0.101
558.800	5.203	0.101
558.900	-7.340	0.101
559.000	-1.544	0.101
559.100	-2.970	0.101
559.200	-2.494	0.101
559.300	-9.704	0.101
559.400	-3.259	0.101
559.500	-2.236	0.101
559.600	-10.337	0.101
559.700	3.078	0.101
559.800	5.932	0.101
559.900	0.510	0.101
560.000	-10.478	0.101
560.100	-4.629	0.101
560.200	-4.681	0.101
560.300	3.395	0.101
560.400	1.733	0.101
560.500	-1.748	0.101
560.600	-3.810	0.101
560.700	-11.497	0.101
560.800	-3.016	0.101
560.900	3.242	0.101
561.000	-11.872	0.101
561.100	-1.124	0.101
561.200	8.156	0.101
561.300	-2.799	0.101
561.400	-1.395	0.101
561.500	-5.018	0.101
561.600	-8.367	0.101
561.700	-10.878	0.101
561.800	-8.285	0.101
561.900	-16.573	0.101
562.000	-7.740	0.101
562.100	-1.764	0.101
562.200	-6.088	0.101
562.300	-16.303	0.101
562.400	8.749	0.101
562.500	9.580	0.101
562.600	-6.084	0.101
562.700	-2.550	0.101
562.800	-3.585	0.101
562.900	-13.988	0.101
563.000	-9.227	0.101
563.100	4.671	0.101
563.200	-8.619	0.101
563.300	-0.899	0.101
563.400	-3.828	0.101
563.500	7.244	0.101
563.600	-4.217	0.101
563.700	-15.621	0.101
563.800	-10.776	0.101
563.900	-10.713	0.101
564.000	-6.299	0.101
564.100	-19.620	0.101
564.200	-1.402	0.101
564.300	-6.437	0.101
564.400	6.991	0.101
564.500	-14.415	0.101
564.600	-12.341	0.101
564.700	-2.566	0.101
564.800	0.457	0.101
564.900	-2.346	0.101
565.000	-18.140	0.101
565.100	-8.835	0.101
565.200	-2.959	0.101
565.300	1.300	0.101
565.400	-6.790	0.101
565.500	-8.532	0.101
565.600	-14.291	0.101
565.700	4.200	0.101
565.800	-13.204	0.101
565.900	4.412	0.101
566.000	-3.768	0.101
566.100	-11.645	0.101
566.200	-9.939	0.101
566.300	-12.812	0.101
566.400	-16.006	0.101
566.500	-12.838	0.101
566.600	-11.476	0.101
566.700	1.509	0.101
566.800	-0.554	0.101
566.900	-5.826	0.101
567.000	-17.849	0.101
567.100	-19.067	0.101
567.200	9.178	0.101
567.300	-8.891	0.101
567.400	-2.328	0.101
567.500	6.700	0.101
567.600	-3.429	0.101
567.700	-19.790	0.101
567.800	-16.152	0.101
567.900	-10.060	0.101
568.000	-12.095	0.101
568.100	4.290	0.101
568.200	4.948	0.101
568.300	-3.136	0.101
568.400	-9.328	0.101
568.500	-29.674	0.101
568.600	-17.138	0.101
568.700	-1.077	0.101
568.800	-5.233	0.101
568.900	-14.599	0.101
569.000	-6.926	0.101
569.100	-3.362	0.101
569.200	0.324	0.101
569.300	-4.449	0.101
569.400	4.475	0.101
569.500	-5.099	0.101
569.600	-0.891	0.101
569.700	-8.904	0.101
569.800	-6.695	0.101
569.900	0.497	0.101
570.000	-14.823	0.101
570.100	-1.809	0.101
570.200	-3.717	0.101
570.300	-11.038	0.101
570.400	2.633	0.101
570.500	-2.432	0.101
570.600	2.096	0.101
570.700	-12.365	0.101
570.800	-9.690	0.101
570.900	0.080	0.101
571.000	-11.227	0.101
571.100	-2.320	0.101
571.200	-14.428	0.101
571.300	-11.775	0.101
571.400	-2.021	0.101
571.500	-11.265	0.101
571.600	-15.025	0.101
571.700	-7.587	0.101
571.800	-5.299	0.101
571.900	-13.414	0.101
572.000	-4.546	0.101
572.100	-15.294	0.101
572.200	-4.723	0.101
572.300	-1.594	0.101
572.400	1.308	0.101
572.500	-5.972	0.101
572.600	-12.541	0.101
572.700	-16.857	0.101
572.800	-10.575	0.101
572.900	0.864	0.101
573.000	0.066	0.101
573.100	-10.364	0.101
573.200	-9.182	0.101
573.300	-17.809	0.101
573.400	1.141	0.101
573.500	9.668	0.101
573.600	-18.187	0.101
573.700	4.984	0.101
573.800	-8.351	0.101
573.900	-13.233	0.101
574.000	-13.376	0.101
574.100	-15.421	0.101
574.200	-5.248	0.101
574.300	-1.497	0.101
574.400	-3.461	0.101
574.500	-9.536	0.101
574.600	-2.053	0.101
574.700	-11.062	0.101
574.800	-9.757	0.101
574.900	9.720	0.101
575.000	-10.205	0.101
575.100	2.365	0.101
575.200	8.139	0.101
575.300	-5.897	0.101
575.400	-10.898	0.101
575.500	-9.264	0.101
575.600	-9.980	0.101
575.700	-10.523	0.101
575.800	3.369	0.101
575.900	-12.280	0.101
576.000	-12.222	0.101
576.100	-10.540	0.101
576.200	-13.045	0.101
576.300	-2.535	0.101
576.400	-10.603	0.101
576.500	-0.247	0.101
576.600	-10.684	0.101
576.700	-15.460	0.101
576.800	2.242	0.101
576.900	-3.195	0.101
577.000	-12.561	0.101
577.100	-8.849	0.101
577.200	-6.268	0.101
577.300	-7.591	0.101
577.400	-4.997	0.101
577.500	2.549	0.101
577.600	-7.713	0.101
577.700	-15.109	0.101
577.800	-16.625	0.101
577.900	-13.669	0.101
578.000	-16.272	0.101
578.100	1.716	0.101
578.200	0.850	0.101
578.300	-15.468	0.101
578.400	-7.977	0.101
578.500	-6.505	0.101
578.600	-0.407	0.101
578.700	-2.189	0.101
578.800	3.606	0.101
578.900	-13.282	0.101
579.000	-17.035	0.101
579.100	-3.549	0.101
579.200	-3.785	0.101
579.300	-5.004	0.101
579.400	-18.292	0.101
579.500	0.314	0.101
579.600	-9.945	0.101
579.700	3.515	0.101
579.800	-13.412	0.101
579.900	-4.108	0.101
580.000	-12.746	0.101
580.100	-21.480	0.101
580.200	-7.981	0.101
580.300	-10.610	0.101
580.400	-1.936	0.101
580.500	-0.980	0.101
580.600	-3.022	0.101
580.700	-6.631	0.101
580.800	-6.013	0.101
580.900	-0.716	0.101
581.000	-6.259	0.101
581.100	-4.840	0.101
581.200	-10.398	0.101
581.300	-15.801	0.101
581.400	-10.129	0.101
581.500	-3.882	0.101
581.600	-7.424	0.101
581.700	-22.925	0.101
581.800	-9.630	0.101
581.900	-7.649	0.101
582.000	3.913	0.101
582.100	-6.893	0.101
582.200	-22.563	0.101
582.300	-12.149	0.101
582.400	-11.803	0.101
582.500	-17.944	0.101
582.600	-15.962	0.101
582.700	-7.978	0.101
582.800	-6.269	0.101
582.900	0.194	0.101
583.000	0.295	0.101
583.100	-18.677	0.101
583.200	-3.454	0.101
583.300	3.504	0.101
583.400	-5.690	0.101
583.500	-12.646	0.101
583.600	-10.017	0.101
583.700	-9.441	0.101
583.800	0.307	0.101
583.900	-5.253	0.101
584.000	-4.014	0.101
584.100	-5.265	0.101
584.200	-14.845	0.101
584.300	-5.881	0.101
584.400	-14.915	0.101
584.500	-9.856	0.101
584.600	-13.525	0.101
584.700	-3.587	0.101
584.800	-7.819	0.101
584.900	-6.199	0.101
585.000	-13.117	0.101
585.100	-3.302	0.101
585.200	-25.533	0.101
585.300	-3.586	0.101
585.400	-7.482	0.101
585.500	-2.905	0.101
585.600	0.711	0.101
585.700	-16.234	0.101
585.800	-0.391	0.101
585.900	-12.781	0.101
586.000	-6.020	0.101
586.100	-3.904	0.101
586.200	-7.288	0.101
586.300	-8.966	0.101
586.400	-8.669	0.101
586.500	-13.109	0.101
586.600	-8.511	0.101
586.700	7.089	0.101
586.800	-1.307	0.101
586.900	-4.517	0.101
587.000	-12.685	0.101
587.100	-16.474	0.101
587.200	-2.302	0.101
587.300	5.806	0.101
587.400	-8.718	0.101
587.500	-8.665	0.101
587.600	-9.929	0.101
587.700	-4.156	0.101
587.800	-4.935	0.101
587.900	-2.367	0.101
588.000	-7.815	0.101
588.100	-3.630	0.101
588.200	-7.859	0.101
588.300	-8.990	0.101
588.400	-9.794	0.101
588.500	-16.225	0.101
588.600	-1.012	0.101
588.700	-12.644	0.101
588.800	-8.337	0.101
588.900	-11.967	0.101
589.000	-12.458	0.101
589.100	10.007	0.101
589.200	-3.627	0.101
589.300	-5.539	0.101
589.400	-5.001	0.101
589.500	-13.103	0.101
589.600	-0.676	0.101
589.700	-11.677	0.101
589.800	-0.411	0.101
589.900	6.745	0.101
590.000	-8.078	0.101
590.100	-7.051	0.101
590.200	-9.218	0.101
590.300	-5.219	0.101
590.400	-8.119	0.101
590.500	-15.657	0.101
590.600	-1.635	0.101
590.700	-14.039	0.101
590.800	-6.782	0.101
590.900	-11.643	0.101
591.000	1.511	0.101
591.100	-10.257	0.101
591.200	-25.645	0.101
591.300	-9.871	0.101
591.400	-2.322	0.101
591.500	3.695	0.101
591.600	0.051	0.101
591.700	-9.946	0.101
591.800	-9.410	0.101
591.900	-6.134	0.101
592.000	-4.916	0.101
592.100	-6.088	0.101
592.200	-14.767	0.101
592.300	-11.456	0.101
592.400	-25.549	0.101
592.500	14.595	0.101
592.600	-14.865	0.101
592.700	-9.041	0.101
592.800	-5.075	0.101
592.900	-9.523	0.101
593.000	-10.143	0.101
593.100	-3.941	0.101
593.200	-12.909	0.101
593.300	-2.879	0.101
593.400	-12.250	0.101
593.500	-6.340	0.101
593.600	-8.021	0.101
593.700	-3.070	0.101
593.800	-14.543	0.101
593.900	-10.661	0.101
594.000	-13.753	0.101
594.100	4.160	0.101
594.200	0.220	0.101
594.300	-19.048	0.101
594.400	-2.173	0.101
594.500	-12.739	0.101
594.600	-18.173	0.101
594.700	0.359	0.101
594.800	-1.664	0.101
594.900	-3.018	0.101
595.000	-18.401	0.101
595.100	-6.414	0.101
595.200	-7.057	0.101
595.300	-13.256	0.101
595.400	-7.829	0.101
595.500	-2.264	0.101
595.600	0.918	0.101
595.700	-13.027	0.101
595.800	-10.841	0.101
595.900	-22.079	0.101
596.000	-14.836	0.101
596.100	-8.621	0.101
596.200	0.537	0.101
596.300	-4.094	0.101
596.400	-15.828	0.101
596.500	4.268	0.101
596.600	-12.199	0.101
596.700	-7.110	0.101
596.800	0.821	0.101
596.900	-6.360	0.101
597.000	-24.304	0.101
597.100	-5.284	0.101
597.200	-5.474	0.101
597.300	-4.155	0.101
597.400	-16.907	0.101
597.500	-18.191	0.101
597.600	-7.470	0.101
597.700	-3.107	0.101
597.800	-14.136	0.101
597.900	-8.338	0.101
598.000	-10.801	0.101
598.100	-9.768	0.101
598.200	-13.117	0.101
598.300	-8.207	0.101
598.400	-11.491	0.101
598.500	-5.277	0.101
598.600	-12.591	0.101
598.700	-11.346	0.100
598.800	-5.282	0.101
598.900	-16.821	0.101
599.000	-12.992	0.101
599.100	-11.170	0.101
599.200	2.165	0.101
599.300	-9.204	0.101
599.400	-5.256	0.100
599.500	-13.808	0.100
599.600	-9.963	0.100
599.700	-9.353	0.100
599.800	-1.602	0.100
599.900	-22.280	0.100
600.000	-0.717	0.101
600.100	-1.536	0.101
600.200	2.577	0.100
600.300	-11.842	0.100
600.400	-4.995	0.101
600.500	-7.312	0.101
600.600	-13.206	0.100
600.700	-9.119	0.101
600.800	3.162	0.100
600.900	-2.920	0.101
601.000	-2.326	0.100
601.100	-2.368	0.101
601.200	-18.992	0.100
601.300	2.600	0.101
601.400	-8.252	0.100
601.500	-17.120	0.100
601.600	-3.857	0.100
601.700	-11.741	0.100
601.800	-4.241	0.101
601.900	-13.090	0.100
602.000	-10.313	0.100
602.100	3.644	0.100
602.200	-9.166	0.100
602.300	-5.897	0.100
602.400	3.368	0.101
602.500	-17.425	0.100
602.600	-2.019	0.100
602.700	2.652	0.100
602.800	-1.207	0.100
602.900	-17.453	0.100
603.000	13.716	0.100
603.100	-17.851	0.100
603.200	-16.154	0.100
603.300	-7.688	0.100
603.400	-1.854	0.100
603.500	-5.553	0.100
603.600	-16.455	0.100
603.700	-3.384	0.100
603.800	-14.242	0.100
603.900	-18.858	0.100
604.000	-8.938	0.100
604.100	-4.198	0.100
604.200	-2.449	0.100
604.300	-6.486	0.100
604.400	-13.606	0.100
604.500	-9.995	0.100
604.600	-3.951	0.100
604.700	-3.848	0.100
604.800	-10.123	0.100
604.900	-12.238	0.100
605.000	-1.905	0.100
605.100	-8.198	0.100
605.200	-9.102	0.100
605.300	-9.559	0.100
605.400	-6.400	0.100
605.500	-13.016	0.100
605.600	-12.087	0.100
605.700	-11.063	0.100
605.800	-7.257	0.100
605.900	-3.682	0.100
606.000	-16.328	0.100
606.100	-6.171	0.100
606.200	-2.707	0.100
606.300	-12.295	0.100
606.400	-20.369	0.100
606.500	-8.364	0.100
606.600	14.143	0.100
606.700	-5.977	0.100
606.800	-9.794	0.100
606.900	-17.484	0.100
607.000	-6.185	0.100
607.100	1.029	0.100
607.200	-18.825	0.100
607.300	1.455	0.100
607.400	-1.370	0.100
607.500	-11.191	0.100
607.600	-7.958	0.100
607.700	1.244	0.100
607.800	-4.932	0.100
607.900	-2.841	0.100
608.000	1.534	0.100
608.100	-12.994	0.100
608.200	-2.410	0.100
608.300	-7.286	0.100
608.400	-8.628	0.100
608.500	-8.935	0.100
608.600	-3.529	0.100
608.700	-17.716	0.100
608.800	-12.339	0.100
608.900	0.821	0.100
609.000	-2.672	0.100
609.100	4.288	0.100
609.200	-12.550	0.100
609.300	-10.368	0.100
609.400	-15.268	0.100
609.500	-21.364	0.100
609.600	-7.693	0.100
609.700	-11.748	0.100
609.800	-8.579	0.100
609.900	-3.583	0.100
610.000	-14.682	0.100
610.100	-11.697	0.100
610.200	-2.725	0.100
610.300	-16.425	0.100
610.400	-3.538	0.100
610.500	0.745	0.100
610.600	-11.419	0.100
610.700	-6.071	0.100
610.800	-1.072	0.100
610.900	-5.206	0.100
611.000	-13.391	0.100
611.100	-5.174	0.100
611.200	-1.818	0.100
611.300	4.177	0.100
611.400	-14.493	0.100
611.500	-7.974	0.100
611.600	-12.865	0.100
611.700	-6.217	0.100
611.800	-13.501	0.100
611.900	-7.080	0.100
612.000	-12.565	0.100
612.100	-7.025	0.100
612.200	-10.873	0.100
612.300	-2.248	0.100
612.400	-9.569	0.100
612.500	-8.167	0.100
612.600	-2.459	0.100
612.700	-6.107	0.100
612.800	-15.741	0.100
612.900	-3.141	0.100
613.000	-20.657	0.100
613.100	-5.291	0.100
613.200	-15.640	0.100
613.300	-9.583	0.100
613.400	-10.826	0.100
613.500	-5.915	0.100
613.600	2.688	0.100
613.700	-9.771	0.100
613.800	-6.151	0.100
613.900	1.345	0.100
614.000	-6.102	0.100
614.100	-16.785	0.100
614.200	-5.140	0.100
614.300	-11.821	0.100
614.400	-20.274	0.100
614.500	-5.272	0.100
614.600	10.210	0.100
614.700	-12.164	0.100
614.800	-5.118	0.100
614.900	-10.850	0.100
615.000	-8.975	0.100
615.100	-11.667	0.100
615.200	-10.928	0.100
615.300	-2.829	0.100
615.400	-12.599	0.100
615.500	1.915	0.100
615.600	-7.108	0.100
615.700	-14.736	0.100
615.800	0.830	0.100
615.900	-5.568	0.100
616.000	4.240	0.100
616.100	3.502	0.100
616.200	-14.631	0.100
616.300	-0.510	0.100
616.400	-3.914	0.100
616.500	-6.570	0.100
616.600	-10.286	0.100
616.700	-14.923	0.100
616.800	-4.050	0.100
616.900	-11.768	0.100
617.000	-9.032	0.100
617.100	-15.619	0.100
617.200	4.553	0.100
617.300	-9.015	0.100
617.400	-8.080	0.100
617.500	-5.042	0.100
617.600	-3.160	0.100
617.700	-14.081	0.100
617.800	-3.090	0.100
617.900	8.949	0.100
618.000	-10.972	0.100
618.100	4.532	0.100
618.200	-10.676	0.100
618.300	-0.472	0.100
618.400	-8.578	0.100
618.500	-0.638	0.100
618.600	-18.838	0.100
618.700	-5.895	0.100
618.800	-23.823	0.100
618.900	-18.304	0.100
619.000	9.880	0.100
619.100	-9.587	0.100
619.200	-12.853	0.100
619.300	-7.752	0.100
619.400	-3.743	0.100
619.500	-8.696	0.100
619.600	-3.941	0.100
619.700	-10.904	0.100
619.800	-4.921	0.100
619.900	-5.364	0.100
620.000	-10.400	0.100
620.100	5.015	0.100
620.200	3.721	0.100
620.300	-2.063	0.100
620.400	-21.178	0.100
620.500	-10.182	0.100
620.600	-1.064	0.100
620.700	-16.676	0.100
620.800	-1.450	0.100
620.900	1.395	0.100
621.000	-6.091	0.100
621.100	6.622	0.100
621.200	-16.891	0.100
621.300	-19.625	0.100
621.400	4.737	0.100
621.500	-18.434	0.100
621.600	-3.293	0.100
621.700	-7.275	0.100
621.800	-13.809	0.100
621.900	-6.864	0.100
622.000	4.893	0.100
622.100	-17.335	0.100
622.200	4.594	0.100
622.300	-10.723	0.100
622.400	-8.152	0.100
622.500	-4.047	0.100
622.600	-12.916	0.100
622.700	-3.450	0.100
622.800	0.051	0.100
622.900	3.334	0.100
623.000	-3.613	0.100
623.100	-7.078	0.100
623.200	-8.353	0.100
623.300	-5.562	0.100
623.400	-15.293	0.100
623.500	9.556	0.100
623.600	-3.708	0.100
623.700	-1.696	0.100
623.800	-9.128	0.100
623.900	-15.033	0.100
624.000	-3.606	0.100
624.100	-7.780	0.100
624.200	-7.971	0.100
624.300	-10.817	0.100
624.400	-10.076	0.100
624.500	-16.358	0.100
624.600	-6.985	0.100
624.700	-14.355	0.100
624.800	-8.307	0.100
624.900	-1.850	0.100
625.000	-18.982	0.100
625.100	8.127	0.100
625.200	-3.177	0.100
625.300	-11.374	0.100
625.400	-0.637	0.100
625.500	-13.555	0.100
625.600	-10.439	0.100
625.700	8.960	0.100
625.800	-10.370	0.100
625.900	-4.148	0.100
626.000	-11.890	0.100
626.100	-4.808	0.100
626.200	-14.629	0.100
626.300	-21.609	0.100
626.400	0.959	0.100
626.500	-15.722	0.100
626.600	-12.661	0.100
626.700	6.985	0.100
626.800	-14.657	0.100
626.900	-4.369	0.100
627.000	-2.192	0.100
627.100	6.883	0.100
627.200	-6.515	0.100
627.300	-5.830	0.100
627.400	-10.667	0.100
627.500	-4.501	0.100
627.600	6.725	0.100
627.700	-10.325	0.100
627.800	-21.642	0.100
627.900	-14.417	0.100
628.000	-4.049	0.100
628.100	1.023	0.100
628.200	-12.857	0.100
628.300	-5.018	0.100
628.400	-8.389	0.100
628.500	-6.337	0.100
628.600	-10.925	0.100
628.700	-13.833	0.100
628.800	-8.053	0.100
628.900	-11.688	0.100
629.000	-9.610	0.100
629.100	-3.970	0.100
629.200	-9.474	0.100
629.300	-11.621	0.100
629.400	-5.669	0.100
629.500	-1.246	0.100
629.600	-7.017	0.100
629.700	-15.261	0.100
629.800	11.281	0.100
629.900	-28.806	0.100
630.000	-3.388	0.100
630.100	0.766	0.100
630.200	-24.443	0.100
630.300	1.336	0.100
630.400	-10.759	0.100
630.500	0.246	0.100
630.600	-12.741	0.100
630.700	-6.381	0.100
630.800	3.959	0.100
630.900	13.524	0.100
631.000	-0.842	0.100
631.100	13.386	0.100
631.200	0.932	0.100
631.300	-0.411	0.100
631.400	-4.173	0.100
631.500	3.604	0.100
631.600	7.685	0.100
631.700	-7.525	0.100
631.800	13.346	0.100
631.900	13.642	0.100
632.000	-1.762	0.100
632.100	12.759	0.100
632.200	-0.576	0.100
632.300	-2.334	0.100
632.400	5.803	0.100
632.500	4.934	0.100
632.600	20.677	0.101
632.700	5.452	0.101
632.800	-0.914	0.101
632.900	2.714	0.101
633.000	3.053	0.101
633.100	7.375	0.101
633.200	16.995	0.101
633.300	8.756	0.101
633.400	5.939	0.101
633.500	3.949	0.101
633.600	11.903	0.101
633.700	19.396	0.101
633.800	13.587	0.101
633.900	-0.087	0.101
634.000	6.988	0.101
634.100	11.264	0.101
634.200	2.562	0.101
634.300	0.256	0.101
634.400	5.230	0.101
634.500	2.126	0.101
634.600	13.883	0.101
634.700	15.496	0.101
634.800	-5.759	0.101
634.900	10.908	0.101
635.000	-2.597	0.101
635.100	14.239	0.101
635.200	-3.017	0.101
635.300	8.261	0.101
635.400	7.883	0.101
635.500	6.739	0.101
635.600	5.640	0.101
635.700	7.223	0.101
635.800	9.815	0.101
635.900	7.155	0.101
636.000	-1.197	0.101
636.100	-1.414	0.101
636.200	3.329	0.101
636.300	12.349	0.101
636.400	-2.172	0.101
636.500	9.906	0.101
636.600	13.267	0.101
636.700	8.916	0.101
636.800	3.846	0.101
636.900	12.035	0.101
637.000	6.035	0.101
637.100	4.534	0.101
637.200	-5.403	0.101
637.300	3.866	0.101
637.400	-5.644	0.101
637.500	5.585	0.101
637.600	8.834	0.101
637.700	0.696	0.101
637.800	10.702	0.101
637.900	11.292	0.101
638.000	1.398	0.101
638.100	6.840	0.101
638.200	18.577	0.101
638.300	0.078	0.101
638.400	-8.544	0.101
638.500	11.599	0.101
638.600	-1.705	0.101
638.700	11.826	0.101
638.800	16.150	0.101
638.900	18.825	0.101
639.000	3.352	0.101
639.100	-19.339	0.101
639.200	1.290	0.101
639.300	7.865	0.101
639.400	3.859	0.101
639.500	-4.187	0.101
639.600	11.265	0.101
639.700	16.412	0.101
639.800	9.486	0.101
639.900	7.806	0.101
640.000	-6.822	0.101
640.100	22.613	0.101
640.200	-0.169	0.101
640.300	6.532	0.101
640.400	8.550	0.101
640.500	-1.498	0.101
640.600	0.605	0.101
640.700	-1.560	0.101
640.800	18.123	0.101
640.900	11.067	0.101
641.000	2.224	0.101
641.100	4.923	0.101
641.200	12.828	0.101
641.300	14.703	0.101
641.400	2.416	0.101
641.500	19.797	0.101
641.600	4.011	0.101
641.700	7.826	0.101
641.800	9.555	0.101
641.900	10.008	0.101
642.000	6.330	0.101
642.100	13.729	0.101
642.200	0.130	0.101
642.300	4.500	0.101
642.400	7.560	0.101
642.500	12.287	0.101
642.600	0.682	0.101
642.700	7.762	0.101
642.800	10.718	0.101
642.900	10.107	0.101
643.000	9.756	0.101
643.100	11.143	0.101
643.200	18.609	0.101
643.300	6.609	0.101
643.400	14.730	0.101
643.500	18.266	0.101
643.600	1.303	0.101
643.700	12.496	0.101
643.800	18.562	0.101
643.900	-3.085	0.101
644.000	15.238	0.101
644.100	7.455	0.101
644.200	5.455	0.101
644.300	10.850	0.101
644.400	13.795	0.101
644.500	9.989	0.101
644.600	8.478	0.101
644.700	7.992	0.101
644.800	22.405	0.101
644.900	22.041	0.101
645.000	4.260	0.101
645.100	25.925	0.101
645.200	4.333	0.101
645.300	2.852	0.101
645.400	6.595	0.101
645.500	21.992	0.101
645.600	12.425	0.101
645.700	15.432	0.101
645.800	-1.072	0.101
645.900	23.266	0.101
646.000	15.707	0.101
646.100	17.698	0.101
646.200	19.700	0.101
646.300	11.477	0.101
646.400	11.028	0.101
646.500	26.023	0.101
646.600	4.690	0.101
646.700	8.419	0.101
646.800	2.119	0.101
646.900	6.771	0.101
647.000	3.575	0.101
647.100	10.574	0.101
647.200	12.820	0.101
647.300	23.752	0.101
647.400	8.066	0.102
647.500	11.504	0.101
647.600	1.696	0.101
647.700	9.597	0.102
647.800	16.560	0.101
647.900	21.509	0.101
648.000	7.752	0.101
648.100	29.650	0.101
648.200	13.465	0.101
648.300	12.840	0.101
648.400	16.541	0.101
648.500	8.817	0.101
648.600	14.022	0.101
648.700	28.348	0.101
648.800	5.098	0.101
648.900	12.081	0.101
649.000	22.457	0.101
649.100	4.558	0.101
649.200	24.526	0.101
649.300	13.906	0.101
649.400	19.883	0.101
649.500	8.868	0.101
649.600	11.199	0.101
649.700	17.205	0.101
649.800	10.588	0.101
649.900	25.269	0.101
650.000	8.728	0.101
650.100	25.477	0.101
650.200	11.128	0.101
650.300	30.618	0.101
650.400	15.175	0.101
650.500	22.022	0.101
650.600	16.011	0.101
650.700	15.259	0.101
650.800	13.868	0.101
650.900	28.113	0.101
651.000	13.812	0.101
651.100	11.856	0.101
651.200	20.751	0.101
651.300	11.054	0.101
651.400	17.698	0.101
651.500	20.751	0.101
651.600	14.548	0.101
651.700	8.222	0.101
651.800	16.781	0.101
651.900	24.794	0.101
652.000	20.102	0.101
652.100	14.249	0.101
652.200	10.888	0.101
652.300	20.306	0.101
652.400	20.208	0.101
652.500	18.659	0.101
652.600	17.322	0.101
652.700	18.622	0.101
652.800	13.031	0.101
652.900	7.700	0.101
653.000	19.758	0.101
653.100	22.023	0.101
653.200	26.185	0.101
653.300	7.359	0.101
653.400	23.055	0.101
653.500	17.147	0.101
653.600	22.620	0.101
653.700	7.242	0.101
653.800	13.434	0.101
653.900	15.542	0.101
654.000	17.282	0.101
654.100	19.724	0.101
654.200	19.027	0.101
654.300	21.160	0.101
654.400	26.055	0.101
654.500	18.776	0.101
654.600	17.342	0.101
654.700	5.741	0.101
654.800	33.992	0.101
654.900	6.282	0.101
655.000	13.851	0.101
655.100	19.756	0.101
655.200	19.215	0.101
655.300	12.515	0.101
655.400	20.001	0.101
655.500	20.323	0.101
655.600	18.701	0.101
655.700	15.284	0.101
655.800	6.995	0.101
655.900	6.383	0.101
656.000	26.282	0.101
656.100	13.457	0.101
656.200	34.277	0.101
656.300	9.462	0.101
656.400	4.442	0.101
656.500	17.270	0.101
656.600	18.943	0.101
656.700	18.716	0.101
656.800	18.119	0.101
656.900	13.774	0.101
657.000	10.617	0.101
657.100	13.018	0.101
657.200	12.574	0.101
657.300	11.358	0.101
657.400	27.848	0.101
657.500	11.918	0.101
657.600	20.499	0.101
657.700	15.973	0.101
657.800	20.460	0.101
657.900	11.241	0.101
658.000	9.932	0.101
658.100	22.269	0.101
658.200	15.240	0.101
658.300	22.362	0.101
658.400	15.327	0.101
658.500	2.626	0.101
658.600	13.186	0.101
658.700	12.586	0.101
658.800	22.649	0.101
658.900	16.750	0.101
659.000	19.285	0.101
659.100	17.261	0.101
659.200	21.317	0.101
659.300	25.349	0.101
659.400	16.622	0.101
659.500	14.696	0.101
659.600	14.229	0.101
659.700	29.788	0.101
659.800	14.041	0.101
659.900	2.806	0.101
660.000	13.555	0.101
660.100	26.116	0.101
660.200	19.354	0.101
660.300	16.404	0.101
660.400	16.345	0.101
660.500	16.704	0.101
660.600	15.637	0.101
660.700	15.221	0.101
660.800	23.078	0.101
660.900	8.327	0.101
661.000	6.850	0.101
661.100	17.998	0.101
661.200	21.450	0.101
661.300	7.228	0.101
661.400	13.768	0.101
661.500	10.245	0.101
661.600	32.158	0.101
661.700	29.218	0.101
661.800	5.974	0.101
661.900	17.894	0.101
662.000	1.283	0.101
662.100	5.865	0.101
662.200	16.024	0.101
662.300	16.729	0.101
662.400	23.518	0.101
662.500	21.733	0.101
662.600	23.119	0.101
662.700	16.291	0.101
662.800	2.108	0.101
662.900	31.208	0.101
663.000	24.898	0.101
663.100	8.462	0.101
663.200	29.090	0.101
663.300	17.062	0.101
663.400	10.645	0.101
663.500	9.023	0.101
663.600	17.896	0.101
663.700	16.494	0.101
663.800	15.373	0.101
663.900	17.149	0.101
664.000	21.778	0.101
664.100	9.609	0.101
664.200	21.543	0.101
664.300	20.866	0.101
664.400	3.711	0.101
664.500	8.896	0.101
664.600	19.982	0.101
664.700	18.025	0.101
664.800	24.142	0.101
664.900	15.223	0.101
665.000	25.661	0.101
665.100	26.071	0.101
665.200	19.200	0.101
665.300	26.707	0.101
665.400	13.325	0.101
665.500	13.016	0.101
665.600	16.676	0.101
665.700	25.839	0.101
665.800	13.066	0.101
665.900	0.114	0.101
666.000	20.050	0.101
666.100	26.215	0.101
666.200	7.062	0.101
666.300	27.751	0.101
666.400	7.800	0.101
666.500	13.689	0.101
666.600	11.740	0.101
666.700	20.904	0.101
666.800	23.304	0.101
666.900	18.622	0.101
667.000	4.283	0.101
667.100	18.907	0.101
667.200	15.705	0.101
667.300	30.276	0.101
667.400	23.799	0.101
667.500	12.871	0.101
667.600	14.630	0.101
667.700	18.763	0.101
667.800	24.143	0.101
667.900	28.679	0.101
668.000	30.497	0.101
668.100	25.065	0.101
668.200	0.713	0.101
668.300	11.684	0.101
668.400	16.091	0.101
668.500	9.726	0.101
668.600	23.145	0.101
668.700	17.970	0.101
668.800	13.460	0.101
668.900	23.072	0.101
669.000	5.991	0.101
669.100	21.921	0.101
669.200	22.954	0.101
669.300	30.508	0.101
669.400	10.854	0.101
669.500	19.080	0.101
669.600	30.976	0.101
669.700	28.373	0.101
669.800	9.345	0.101
669.900	5.405	0.101
670.000	10.543	0.101
670.100	23.291	0.101
670.200	31.933	0.101
670.300	9.865	0.101
670.400	12.355	0.101
670.500	24.107	0.101
670.600	34.971	0.101
670.700	15.802	0.101
670.800	19.980	0.101
670.900	9.958	0.101
671.000	8.727	0.101
671.100	22.613	0.101
671.200	20.756	0.101
671.300	18.834	0.101
671.400	14.284	0.101
671.500	19.337	0.101
671.600	24.954	0.101
671.700	20.360	0.101
671.800	18.779	0.101
671.900	14.565	0.101
672.000	23.931	0.101
672.100	6.887	0.101
672.200	19.467	0.101
672.300	5.628	0.101
672.400	23.548	0.101
672.500	13.379	0.101
672.600	7.586	0.101
672.700	19.279	0.101
672.800	28.029	0.101
672.900	13.068	0.101
673.000	15.129	0.101
673.100	24.003	0.101
673.200	23.429	0.101
673.300	15.788	0.101
673.400	23.777	0.101
673.500	18.352	0.101
673.600	17.223	0.101
673.700	16.698	0.101
673.800	16.906	0.101
673.900	17.747	0.101
674.000	16.498	0.101
674.100	30.608	0.101
674.200	30.102	0.101
674.300	17.561	0.101
674.400	16.090	0.101
674.500	9.297	0.101
674.600	4.242	0.101
674.700	24.445	0.101
674.800	34.622	0.101
674.900	32.877	0.101
675.000	16.016	0.101
675.100	19.626	0.101
675.200	22.441	0.101
675.300	5.586	0.101
675.400	15.391	0.101
675.500	2.481	0.101
675.600	21.692	0.101
675.700	20.468	0.101
675.800	13.454	0.101
675.900	33.949	0.101
676.000	23.515	0.101
676.100	21.878	0.101
676.200	28.595	0.101
676.300	12.169	0.101
676.400	22.096	0.101
676.500	15.202	0.101
676.600	24.798	0.101
676.700	22.342	0.101
676.800	7.678	0.101
676.900	18.829	0.101
677.000	13.269	0.101
677.100	16.546	0.101
677.200	24.777	0.101
677.300	14.903	0.101
677.400	20.233	0.101
677.500	10.366	0.101
677.600	18.225	0.101
677.700	28.944	0.101
677.800	10.644	0.101
677.900	16.685	0.101
678.000	30.687	0.101
678.100	12.642	0.101
678.200	22.983	0.101
678.300	20.174	0.101
678.400	20.794	0.101
678.500	14.837	0.101
678.600	10.864	0.101
678.700	26.540	0.101
678.800	25.040	0.101
678.900	16.711	0.101
679.000	6.306	0.101
679.100	20.162	0.101
679.200	29.492	0.101
679.300	22.147	0.101
679.400	14.272	0.101
679.500	21.248	0.101
679.600	24.633	0.101
679.700	21.096	0.101
679.800	3.815	0.101
679.900	11.975	0.101
680.000	18.744	0.101
680.100	22.564	0.101
680.200	15.416	0.101
680.300	12.643	0.101
680.400	28.167	0.101
680.500	29.528	0.101
680.600	15.997	0.101
680.700	17.732	0.101
680.800	14.828	0.101
680.900	21.996	0.101
681.000	19.858	0.101
681.100	9.785	0.101
681.200	25.988	0.101
681.300	23.703	0.101
681.400	26.466	0.101
681.500	17.483	0.101
681.600	27.812	0.101
681.700	30.351	0.101
681.800	27.715	0.101
681.900	7.978	0.101
682.000	14.051	0.101
682.100	21.123	0.101
682.200	4.710	0.101
682.300	22.129	0.101
682.400	18.201	0.101
682.500	17.050	0.101
682.600	21.479	0.101
682.700	20.628	0.101
682.800	11.719	0.101
682.900	22.295	0.101
683.000	25.880	0.101
683.100	23.511	0.101
683.200	15.481	0.101
683.300	20.913	0.101
683.400	20.217	0.101
683.500	32.506	0.101
683.600	22.674	0.101
683.700	24.613	0.101
683.800	18.546	0.101
683.900	18.729	0.101
684.000	4.800	0.101
684.100	16.268	0.101
684.200	7.683	0.101
684.300	38.766	0.101
684.400	26.990	0.101
684.500	14.661	0.101
684.600	13.758	0.101
684.700	18.056	0.101
684.800	22.920	0.101
684.900	15.756	0.101
685.000	15.584	0.101
685.100	9.718	0.101
685.200	26.072	0.101
685.300	18.013	0.101
685.400	37.038	0.101
685.500	27.539	0.101
685.600	16.243	0.101
685.700	35.521	0.101
685.800	23.694	0.101
685.900	22.364	0.101
686.000	19.324	0.101
686.100	12.827	0.101
686.200	13.886	0.101
686.300	15.558	0.101
686.400	16.253	0.101
686.500	13.799	0.101
686.600	31.093	0.101
686.700	11.924	0.101
686.800	8.856	0.101
686.900	29.116	0.101
687.000	22.062	0.101
687.100	26.709	0.101
687.200	11.807	0.101
687.300	26.467	0.101
687.400	25.581	0.101
687.500	25.143	0.101
687.600	26.648	0.101
687.700	10.886	0.101
687.800	22.276	0.101
687.900	14.557	0.101
688.000	18.140	0.101
688.100	18.622	0.101
688.200	14.544	0.101
688.300	13.715	0.101
688.400	34.732	0.101
688.500	21.519	0.101
688.600	6.668	0.101
688.700	31.203	0.101
688.800	18.612	0.101
688.900	10.502	0.101
689.000	17.892	0.101
689.100	15.003	0.101
689.200	19.800	0.101
689.300	9.029	0.101
689.400	26.679	0.101
689.500	23.256	0.101
689.600	12.664	0.101
689.700	14.698	0.101
689.800	12.782	0.101
689.900	27.923	0.101
690.000	13.514	0.101
690.100	25.586	0.101
690.200	26.447	0.101
690.300	30.986	0.101
690.400	24.347	0.101
690.500	13.880	0.101
690.600	17.488	0.101
690.700	9.101	0.101
690.800	13.594	0.101
690.900	14.041	0.101
691.000	3.150	0.101
691.100	6.774	0.101
691.200	20.119	0.101
691.300	2.135	0.101
691.400	11.753	0.101
691.500	14.304	0.101
691.600	17.883	0.101
691.700	3.243	0.101
691.800	5.536	0.101
691.900	-1.417	0.101
692.000	1.554	0.101
692.100	13.116	0.101
692.200	5.541	0.101
692.300	-7.127	0.101
692.400	-15.145	0.101
692.500	4.897	0.101
692.600	3.769	0.101
692.700	9.589	0.101
692.800	-0.480	0.101
692.900	-4.107	0.101
693.000	-0.197	0.101
693.100	2.638	0.101
693.200	-15.776	0.101
693.300	-6.804	0.101
693.400	2.206	0.101
693.500	7.848	0.101
693.600	-16.541	0.101
693.700	2.026	0.101
693.800	-5.191	0.101
693.900	-1.265	0.101
694.000	-11.389	0.101
694.100	-9.566	0.101
694.200	8.764	0.101
694.300	-0.842	0.101
694.400	4.927	0.101
694.500	-2.171	0.101
694.600	-12.209	0.101
694.700	-4.081	0.101
694.800	4.327	0.101
694.900	2.485	0.101
695.000	-16.045	0.101
695.100	-14.898	0.101
695.200	15.829	0.101
695.300	-13.652	0.101
695.400	-3.098	0.101
695.500	-7.601	0.101
695.600	-11.815	0.101
695.700	1.050	0.101
695.800	-3.391	0.101
695.900	3.311	0.101
696.000	-9.283	0.101
696.100	-8.434	0.101
696.200	6.308	0.101
696.300	-3.079	0.101
696.400	0.679	0.101
696.500	7.827	0.101
696.600	2.966	0.101
696.700	1.095	0.101
696.800	12.379	0.101
696.900	-13.535	0.101
697.000	-15.490	0.101
697.100	10.834	0.101
697.200	0.626	0.101
697.300	-2.116	0.101
697.400	-9.786	0.101
697.500	-14.051	0.101
697.600	3.200	0.101
697.700	-0.384	0.101
697.800	9.780	0.101
697.900	-3.444	0.101
698.000	-2.537	0.101
698.100	-12.610	0.101
698.200	-0.399	0.101
698.300	-6.065	0.101
698.400	-9.620	0.101
698.500	9.098	0.101
698.600	-0.869	0.101
698.700	3.999	0.101
698.800	-15.554	0.101
698.900	-5.740	0.101
699.000	-9.635	0.101
699.100	7.234	0.101
699.200	10.606	0.101
699.300	-6.949	0.101
699.400	10.353	0.101
699.500	-6.182	0.101
699.600	-5.878	0.101
699.700	7.054	0.101
699.800	0.035	0.101
699.900	-9.824	0.101
700.000	-2.350	0.101
700.100	-6.400	0.101
700.200	-0.878	0.101
700.300	-3.842	0.101
700.400	4.183	0.101
700.500	-3.265	0.101
700.600	-20.088	0.101
700.700	2.230	0.101
700.800	-9.369	0.101
700.900	-4.888	0.101
701.000	-1.760	0.101
701.100	-2.690	0.101
701.200	10.029	0.101
701.300	1.731	0.101
701.400	3.357	0.101
701.500	-12.531	0.101
701.600	2.085	0.101
701.700	7.408	0.101
701.800	8.988	0.101
701.900	-7.009	0.101
702.000	-10.101	0.101
702.100	-4.651	0.101
702.200	8.966	0.101
702.300	3.903	0.101
702.400	-8.987	0.101
702.500	0.266	0.101
702.600	-7.963	0.101
702.700	-8.858	0.101
702.800	-3.009	0.101
702.900	-8.241	0.101
703.000	-3.458	0.101
703.100	12.104	0.101
703.200	-5.377	0.101
703.300	-16.185	0.101
703.400	-0.264	0.101
703.500	7.448	0.101
703.600	-15.606	0.101
703.700	-7.731	0.101
703.800	2.514	0.101
703.900	-0.898	0.101
704.000	-1.425	0.101
704.100	5.790	0.101
704.200	-7.521	0.101
704.300	9.475	0.101
704.400	-2.486	0.101
704.500	-14.225	0.101
704.600	-1.440	0.101
704.700	13.794	0.101
704.800	-9.431	0.101
704.900	-7.847	0.101
705.000	2.665	0.101
705.100	5.678	0.101
705.200	-0.081	0.101
705.300	8.728	0.101
705.400	3.419	0.101
705.500	-2.212	0.101
705.600	-11.554	0.101
705.700	-5.744	0.101
705.800	-7.183	0.101
705.900	6.660	0.101
706.000	-5.527	0.101
706.100	-4.815	0.101
706.200	-7.065	0.101
706.300	-2.890	0.101
706.400	-7.894	0.101
706.500	3.094	0.101
706.600	6.510	0.101
706.700	-8.881	0.101
706.800	-6.385	0.101
706.900	-4.100	0.101
707.000	-13.248	0.101
707.100	-13.993	0.101
707.200	3.749	0.101
707.300	5.327	0.101
707.400	-16.067	0.101
707.500	4.807	0.101
707.600	0.430	0.101
707.700	-10.360	0.101
707.800	-6.166	0.101
707.900	-3.531	0.101
708.000	-6.519	0.101
708.100	-10.444	0.101
708.200	-5.142	0.101
708.300	1.357	0.101
708.400	-2.033	0.101
708.500	-1.069	0.101
708.600	-3.027	0.101
708.700	3.182	0.101
708.800	-3.484	0.101
708.900	-6.606	0.101
709.000	-6.159	0.101
709.100	-7.978	0.101
709.200	-5.978	0.101
709.300	-8.405	0.101
709.400	14.793	0.101
709.500	-2.275	0.101
709.600	-2.755	0.101
709.700	-11.141	0.101
709.800	-4.475	0.101
709.900	-4.376	0.101
710.000	-2.570	0.101
710.100	5.363	0.101
710.200	-11.167	0.101
710.300	-9.161	0.101
710.400	0.493	0.101
710.500	0.998	0.101
710.600	-6.390	0.101
710.700	-1.376	0.101
710.800	0.419	0.101
710.900	1.282	0.101
711.000	-8.142	0.101
711.100	-5.582	0.101
711.200	-13.460	0.101
711.300	-8.587	0.101
711.400	5.838	0.101
711.500	11.042	0.101
711.600	-8.129	0.101
711.700	-0.141	0.101
711.800	-9.952	0.101
711.900	-2.672	0.101
712.000	3.260	0.101
712.100	-10.228	0.101
712.200	-10.459	0.101
712.300	-15.602	0.101
712.400	-14.178	0.101
712.500	-7.105	0.101
712.600	-3.512	0.101
712.700	-6.509	0.101
712.800	-3.612	0.101
712.900	-3.726	0.101
713.000	-2.598	0.101
713.100	-5.512	0.101
713.200	-3.825	0.101
713.300	-16.516	0.101
713.400	-5.431	0.101
713.500	-1.921	0.101
713.600	-13.418	0.101
713.700	-0.009	0.101
713.800	-2.931	0.101
713.900	-1.032	0.101
714.000	-1.340	0.101
714.100	-13.858	0.101
714.200	-6.701	0.101
714.300	-10.314	0.101
714.400	-13.218	0.101
714.500	-5.202	0.101
714.600	4.494	0.101
714.700	-20.824	0.101
714.800	-10.792	0.101
714.900	-3.139	0.101
715.000	3.822	0.101
715.100	4.989	0.101
715.200	0.989	0.101
715.300	-15.084	0.101
715.400	-10.346	0.101
715.500	-20.301	0.101
715.600	-4.970	0.101
715.700	-5.137	0.101
715.800	2.859	0.101
715.900	-2.122	0.101
716.000	-11.045	0.101
716.100	0.397	0.101
716.200	0.779	0.101
716.300	-11.389	0.101
716.400	-0.143	0.101
716.500	-10.192	0.101
716.600	-13.022	0.101
716.700	-5.883	0.101
716.800	-1.282	0.101
716.900	-10.199	0.101
717.000	-1.739	0.101
717.100	-7.887	0.101
717.200	5.837	0.101
717.300	-4.376	0.101
717.400	-12.925	0.101
717.500	2.698	0.101
717.600	1.229	0.101
717.700	-10.643	0.101
717.800	-13.297	0.101
717.900	-3.214	0.101
718.000	-14.799	0.101
718.100	-8.524	0.101
718.200	-10.691	0.101
718.300	-10.433	0.101
718.400	-6.785	0.101
718.500	1.174	0.101
718.600	-2.789	0.101
718.700	-17.529	0.101
718.800	-0.109	0.101
718.900	-14.286	0.101
719.000	-16.319	0.101
719.100	0.856	0.101
719.200	12.947	0.101
719.300	4.580	0.101
719.400	-10.220	0.101
719.500	-7.491	0.101
719.600	-21.205	0.101
719.700	-19.854	0.101
719.800	1.640	0.101
719.900	-3.651	0.101
720.000	-5.493	0.101
720.100	-10.445	0.101
720.200	-18.534	0.101
720.300	4.873	0.101
720.400	-7.401	0.101
720.500	3.847	0.101
720.600	-9.730	0.101
720.700	-7.402	0.101
720.800	-2.928	0.101
720.900	-7.865	0.101
721.000	-8.509	0.101
721.100	-1.210	0.101
721.200	-4.202	0.101
721.300	-17.047	0.101
721.400	-2.914	0.101
721.500	-11.339	0.101
721.600	-3.084	0.101
721.700	-18.912	0.101
721.800	-4.210	0.101
721.900	-10.176	0.101
722.000	8.974	0.101
722.100	-13.426	0.101
722.200	-16.938	0.101
722.300	-14.712	0.101
722.400	-1.464	0.101
722.500	-7.804	0.101
722.600	13.333	0.101
722.700	-9.679	0.101
722.800	-23.995	0.101
722.900	-17.037	0.101
723.000	-11.953	0.101
723.100	-7.920	0.101
723.200	5.809	0.101
723.300	-5.732	0.101
723.400	-3.165	0.101
723.500	-0.036	0.101
723.600	15.507	0.101
723.700	-6.838	0.101
723.800	-18.966	0.101
723.900	-2.571	0.101
724.000	-2.396	0.101
724.100	1.217	0.101
724.200	-21.221	0.101
724.300	-5.013	0.101
724.400	-5.687	0.101
724.500	-9.302	0.101
724.600	-9.450	0.101
724.700	4.484	0.101
724.800	-5.464	0.101
724.900	-13.917	0.101
725.000	-11.064	0.101
725.100	-22.552	0.101
725.200	1.796	0.101
725.300	-13.444	0.101
725.400	2.285	0.101
725.500	-9.379	0.101
725.600	-14.185	0.101
725.700	1.558	0.101
725.800	7.109	0.101
725.900	-3.454	0.101
726.000	-15.972	0.101
726.100	3.195	0.101
726.200	4.384	0.101
726.300	-8.526	0.101
726.400	-16.114	0.101
726.500	2.994	0.101
726.600	-8.068	0.101
726.700	-8.216	0.101
726.800	-17.781	0.101
726.900	-6.817	0.101
727.000	-3.281	0.101
727.100	-11.046	0.101
727.200	-0.947	0.101
727.300	2.235	0.101
727.400	-5.441	0.101
727.500	-9.963	0.101
727.600	-2.971	0.101
727.700	-15.091	0.101
727.800	-10.506	0.101
727.900	3.906	0.101
728.000	-3.273	0.101
728.100	-10.243	0.101
728.200	-5.380	0.101
728.300	-13.046	0.101
728.400	-6.858	0.101
728.500	-8.468	0.101
728.600	-29.918	0.101
728.700	0.506	0.101
728.800	-6.657	0.101
728.900	-11.035	0.101
729.000	-19.919	0.101
729.100	-7.159	0.101
729.200	-30.157	0.101
729.300	-9.985	0.101
729.400	1.249	0.101
729.500	-7.870	0.101
729.600	2.534	0.101
729.700	5.090	0.101
729.800	-11.276	0.101
729.900	-5.662	0.101
730.000	-12.838	0.101
730.100	-2.466	0.101
730.200	-17.342	0.101
730.300	-2.829	0.101
730.400	0.212	0.101
730.500	-15.101	0.101
730.600	-13.730	0.101
730.700	-6.796	0.101
730.800	-4.991	0.101
730.900	-14.301	0.101
731.000	-4.943	0.101
731.100	-12.420	0.101
731.200	-10.505	0.101
731.300	-0.707	0.101
731.400	-7.175	0.101
731.500	-14.432	0.101
731.600	-16.746	0.101
731.700	-6.517	0.101
731.800	-9.901	0.101
731.900	-14.244	0.101
732.000	-14.096	0.101
732.100	-3.892	0.101
732.200	-14.885	0.101
732.300	16.575	0.101
732.400	-9.936	0.101
732.500	-1.343	0.101
732.600	-9.895	0.101
732.700	-23.143	0.101
732.800	-7.472	0.101
732.900	-18.910	0.101
733.000	-7.472	0.101
733.100	-24.329	0.101
733.200	-0.832	0.101
733.300	-12.941	0.101
733.400	4.597	0.101
733.500	-5.345	0.101
733.600	-17.484	0.101
733.700	-9.477	0.101
733.800	-11.282	0.101
733.900	1.972	0.101
734.000	-8.051	0.101
734.100	-10.236	0.101
734.200	-4.623	0.101
734.300	13.099	0.101
734.400	1.909	0.101
734.500	-12.193	0.101
734.600	-17.410	0.101
734.700	-4.081	0.101
734.800	-7.389	0.101
734.900	-15.227	0.101
735.000	-4.078	0.101
735.100	2.245	0.101
735.200	-8.470	0.101
735.300	-0.096	0.101
735.400	-18.249	0.101
735.500	-4.543	0.101
735.600	-4.700	0.101
735.700	-14.378	0.101
735.800	-5.288	0.101
735.900	-5.742	0.101
736.000	-0.056	0.101
736.100	-25.746	0.101
736.200	-8.006	0.101
736.300	-19.687	0.101
736.400	-5.673	0.101
736.500	-15.874	0.101
736.600	-8.219	0.101
736.700	-8.503	0.101
736.800	-8.841	0.101
736.900	3.524	0.101
737.000	-12.664	0.101
737.100	-7.184	0.101
737.200	-7.115	0.101
737.300	-11.196	0.101
737.400	-2.520	0.101
737.500	-17.255	0.101
737.600	-9.433	0.101
737.700	-15.748	0.101
737.800	-7.309	0.101
737.900	-6.345	0.101
738.000	-2.750	0.101
738.100	-10.830	0.101
738.200	-18.156	0.101
738.300	-1.765	0.101
738.400	-4.520	0.101
738.500	-10.868	0.101
738.600	-18.605	0.101
738.700	-3.631	0.101
738.800	-4.925	0.101
738.900	-13.509	0.101
739.000	-4.398	0.101
739.100	-4.173	0.101
739.200	-10.920	0.101
739.300	-6.225	0.101
739.400	-2.121	0.101
739.500	-9.659	0.101
739.600	-12.973	0.101
739.700	3.161	0.101
739.800	-1.254	0.101
739.900	7.229	0.101
740.000	-21.039	0.101
740.100	-4.984	0.101
740.200	-13.550	0.101
740.300	-16.295	0.101
740.400	-7.768	0.101
740.500	-2.198	0.101
740.600	-11.508	0.101
740.700	-15.205	0.101
740.800	-6.201	0.101
740.900	0.750	0.101
741.000	-10.887	0.101
741.100	-14.786	0.101
741.200	-2.685	0.101
741.300	-7.387	0.101
741.400	-20.725	0.101
741.500	-4.526	0.101
741.600	-1.043	0.101
741.700	-16.616	0.101
741.800	-1.848	0.101
741.900	-8.338	0.101
742.000	-7.654	0.101
742.100	-16.538	0.101
742.200	-7.485	0.101
742.300	-1.965	0.101
742.400	-7.198	0.101
742.500	-11.857	0.101
742.600	-5.041	0.101
742.700	-10.771	0.101
742.800	-5.322	0.101
742.900	-1.051	0.101
743.000	-9.293	0.101
743.100	-15.098	0.101
743.200	-6.831	0.101
743.300	-9.939	0.101
743.400	1.449	0.101
743.500	4.350	0.101
743.600	-20.241	0.101
743.700	-10.847	0.101
743.800	-8.364	0.101
743.900	-22.599	0.101
744.000	-8.055	0.101
744.100	-0.276	0.101
744.200	4.418	0.101
744.300	-1.910	0.101
744.400	-25.086	0.101
744.500	-11.445	0.101
744.600	-10.933	0.101
744.700	-13.598	0.101
744.800	-1.975	0.101
744.900	-4.338	0.101
745.000	-6.217	0.101
745.100	-17.885	0.101
745.200	-14.907	0.101
745.300	-9.246	0.101
745.400	-9.362	0.101
745.500	-3.855	0.101
745.600	-17.132	0.101
745.700	-6.333	0.101
745.800	-6.340	0.101
745.900	-9.636	0.101
746.000	-5.620	0.101
746.100	-4.550	0.101
746.200	-9.602	0.101
746.300	-0.929	0.101
746.400	-4.391	0.101
746.500	-4.907	0.101
746.600	-11.293	0.101
746.700	-10.548	0.101
746.800	-16.809	0.101
746.900	-6.225	0.101
747.000	19.515	0.101
747.100	2.135	0.101
747.200	-8.859	0.101
747.300	-12.738	0.101
747.400	0.602	0.101
747.500	3.235	0.101
747.600	-7.726	0.101
747.700	-3.654	0.101
747.800	-20.203	0.101
747.900	8.685	0.101
748.000	-14.780	0.101
748.100	-6.095	0.101
748.200	6.421	0.101
748.300	-4.869	0.101
748.400	-7.883	0.101
748.500	-13.373	0.101
748.600	-21.497	0.101
748.700	-11.176	0.101
748.800	-13.098	0.101
748.900	-8.199	0.101
749.000	-2.184	0.101
749.100	-13.078	0.101
749.200	-17.638	0.101
749.300	-14.077	0.101
749.400	-14.772	0.101
749.500	-2.328	0.101
749.600	-7.176	0.101
749.700	-3.608	0.101
749.800	0.725	0.101
749.900	5.742	0.101
750.000	-9.014	0.101
750.100	-5.002	0.101
750.200	-6.494	0.101
750.300	-4.825	0.101
750.400	-4.093	0.101
750.500	-10.219	0.101
750.600	-20.606	0.101
750.700	-17.056	0.101
750.800	-5.742	0.101
750.900	-10.127	0.101
751.000	-12.421	0.101
751.100	-8.870	0.101
751.200	-2.713	0.101
751.300	-7.654	0.101
751.400	-9.001	0.101
751.500	-6.125	0.101
751.600	-7.764	0.101
751.700	4.037	0.101
751.800	-15.377	0.101
751.900	-6.270	0.101
752.000	-3.639	0.101
752.100	-6.146	0.101
752.200	-20.866	0.101
752.300	-8.490	0.101
752.400	-15.248	0.101
752.500	-6.771	0.101
752.600	-0.592	0.101
752.700	-11.597	0.101
752.800	-3.607	0.101
752.900	-0.343	0.101
753.000	-10.272	0.101
753.100	-19.378	0.101
753.200	-1.258	0.101
753.300	-5.440	0.101
753.400	2.926	0.101
753.500	-17.112	0.101
753.600	-15.293	0.101
753.700	-15.403	0.101
753.800	3.956	0.101
753.900	-14.676	0.101
754.000	-14.487	0.101
754.100	-8.112	0.101
754.200	-14.306	0.101
754.300	-7.982	0.101
754.400	-0.731	0.101
754.500	-14.810	0.101
754.600	-2.958	0.101
754.700	-2.179	0.101
754.800	-19.553	0.101
754.900	-7.431	0.101
755.000	-11.367	0.101
755.100	0.349	0.101
755.200	-10.394	0.101
755.300	-8.475	0.101
755.400	-2.481	0.101
755.500	-11.490	0.101
755.600	1.359	0.101
755.700	-12.159	0.101
755.800	-5.934	0.101
755.900	-1.678	0.101
756.000	-15.218	0.101
756.100	-20.413	0.101
756.200	0.173	0.101
756.300	-2.582	0.101
756.400	-7.770	0.101
756.500	-0.130	0.101
756.600	-12.116	0.101
756.700	-4.735	0.101
756.800	-3.542	0.101
756.900	-10.247	0.101
757.000	2.997	0.101
757.100	-3.337	0.101
757.200	-8.171	0.101
757.300	5.935	0.101
757.400	-9.206	0.101
757.500	1.234	0.101
757.600	-0.756	0.101
757.700	3.688	0.101
757.800	-11.917	0.101
757.900	-15.416	0.101
758.000	-4.898	0.101
758.100	-11.094	0.101
758.200	-20.150	0.101
758.300	-4.539	0.101
758.400	-17.445	0.101
758.500	9.299	0.101
758.600	-10.095	0.101
758.700	-27.563	0.101
758.800	-12.314	0.101
758.900	-10.060	0.101
759.000	-2.175	0.101
759.100	-9.958	0.101
759.200	0.498	0.101
759.300	-3.321	0.101
759.400	-7.144	0.101
759.500	-12.019	0.101
759.600	-15.191	0.101
759.700	-4.553	0.101
759.800	-9.735	0.101
759.900	-13.400	0.101
760.000	-15.178	0.101
760.100	-3.934	0.101
760.200	-19.550	0.101
760.300	-3.462	0.101
760.400	5.367	0.101
760.500	-4.130	0.101
760.600	-0.372	0.101
760.700	-3.728	0.101
760.800	-3.460	0.101
760.900	-3.305	0.101
761.000	-3.354	0.101
761.100	-13.172	0.101
761.200	-0.742	0.101
761.300	-16.375	0.101
761.400	-0.602	0.101
761.500	-4.275	0.101
761.600	-8.878	0.101
761.700	-12.401	0.101
761.800	-13.614	0.101
761.900	5.890	0.101
762.000	-4.763	0.101
762.100	-14.151	0.101
762.200	-11.424	0.101
762.300	-7.390	0.101
762.400	-1.906	0.101
762.500	-9.439	0.101
762.600	-0.567	0.101
762.700	-25.775	0.101
762.800	3.569	0.101
762.900	-18.288	0.101
763.000	0.525	0.101
763.100	1.971	0.101
763.200	8.175	0.101
763.300	-10.421	0.101
763.400	-14.190	0.101
763.500	-14.697	0.101
763.600	-8.430	0.101
763.700	18.833	0.101
763.800	-22.557	0.101
763.900	-0.059	0.101
764.000	-2.345	0.101
764.100	-11.654	0.101
764.200	-3.516	0.101
764.300	-12.569	0.101
764.400	-6.393	0.101
764.500	-4.525	0.101
764.600	-5.773	0.101
764.700	-4.547	0.101
764.800	-4.960	0.101
764.900	-2.960	0.101
765.000	-22.036	0.101
765.100	-20.101	0.101
765.200	-5.756	0.101
765.300	-9.218	0.101
765.400	-10.443	0.101
765.500	-3.865	0.101
765.600	-16.134	0.101
765.700	-1.634	0.101
765.800	-6.683	0.101
765.900	-6.591	0.101
766.000	0.687	0.101
766.100	-6.596	0.101
766.200	0.608	0.101
766.300	0.978	0.101
766.400	-4.120	0.101
766.500	-10.900	0.101
766.600	-7.003	0.101
766.700	-7.314	0.101
766.800	-18.824	0.101
766.900	-12.136	0.101
767.000	-2.606	0.101
767.100	1.368	0.101
767.200	-13.401	0.101
767.300	-13.702	0.101
767.400	-5.699	0.101
767.500	-1.683	0.101
767.600	-8.117	0.101
767.700	-10.027	0.101
767.800	-12.271	0.101
767.900	-6.397	0.101
768.000	-13.398	0.101
768.100	-7.400	0.101
768.200	-0.143	0.101
768.300	1.184	0.101
768.400	-5.565	0.101
768.500	-14.788	0.101
768.600	-1.056	0.101
768.700	-22.938	0.101
768.800	-11.482	0.101
768.900	-1.721	0.101
769.000	-8.723	0.101
769.100	-11.183	0.101
769.200	-12.702	0.101
769.300	-1.187	0.101
769.400	10.011	0.101
769.500	9.429	0.101
769.600	-4.000	0.101
769.700	-3.971	0.101
769.800	1.954	0.101
769.900	-3.756	0.101
770.000	-11.367	0.101
770.100	-4.586	0.101
770.200	3.154	0.101
770.300	-15.832	0.101
770.400	-6.056	0.101
770.500	-8.760	0.101
770.600	-0.197	0.101
770.700	-13.003	0.101
770.800	-7.857	0.101
770.900	-9.465	0.101
771.000	-0.333	0.101
771.100	-14.796	0.101
771.200	-7.227	0.101
771.300	-13.782	0.101
771.400	-13.309	0.101
771.500	-1.803	0.101
771.600	-18.530	0.101
771.700	-13.965	0.101
771.800	-13.886	0.101
771.900	2.791	0.101
772.000	-9.220	0.101
772.100	-0.831	0.101
772.200	-14.666	0.101
772.300	-6.189	0.101
772.400	-10.984	0.101
772.500	-3.341	0.101
772.600	-1.991	0.101
772.700	-15.836	0.101
772.800	5.773	0.101
772.900	0.491	0.101
773.000	-15.054	0.101
773.100	1.040	0.101
773.200	-6.166	0.101
773.300	-9.844	0.101
773.400	-1.161	0.101
773.500	-22.809	0.101
773.600	-9.456	0.101
773.700	-11.526	0.101
773.800	0.704	0.101
773.900	-3.339	0.101
774.000	-7.931	0.101
774.100	-0.576	0.101
774.200	-11.561	0.101
774.300	-0.641	0.101
774.400	-4.160	0.101
774.500	-12.885	0.101
774.600	-3.614	0.101
774.700	-3.773	0.101
774.800	-6.737	0.101
774.900	-14.558	0.101
775.000	-2.936	0.101
775.100	-16.939	0.101
775.200	-11.256	0.101
775.300	2.638	0.101
775.400	-2.151	0.101
775.500	-10.580	0.101
775.600	-6.388	0.101
775.700	-8.467	0.101
775.800	9.632	0.101
775.900	-5.511	0.101
776.000	-6.834	0.101
776.100	-18.690	0.101
776.200	3.564	0.101
776.300	-15.666	0.101
776.400	-6.110	0.101
776.500	-6.721	0.101
776.600	-7.460	0.101
776.700	-18.665	0.101
776.800	-7.851	0.101
776.900	-15.306	0.101
777.000	-4.984	0.101
777.100	-9.786	0.101
777.200	-17.607	0.101
777.300	-10.044	0.101
777.400	-6.618	0.101
777.500	-8.805	0.101
777.600	-5.676	0.101
777.700	1.518	0.101
777.800	1.435	0.101
777.900	-7.014	0.101
778.000	-10.914	0.101
778.100	-5.657	0.101
778.200	2.561	0.101
778.300	1.332	0.101
778.400	-12.050	0.101
778.500	-9.873	0.101
778.600	0.245	0.101
778.700	-9.862	0.101
778.800	3.402	0.101
778.900	-22.113	0.101
779.000	-5.908	0.101
779.100	-9.643	0.101
779.200	-9.721	0.101
779.300	3.320	0.101
779.400	-9.328	0.101
779.500	-8.494	0.101
779.600	-10.224	0.101
779.700	-7.536	0.101
779.800	-13.224	0.101
779.900	5.305	0.101
780.000	-11.016	0.101
780.100	-1.788	0.101
780.200	-15.580	0.101
780.300	-3.232	0.101
780.400	-7.550	0.101
780.500	-7.309	0.101
780.600	-7.026	0.101
780.700	8.316	0.101
780.800	-9.486	0.101
780.900	-7.339	0.101
781.000	0.156	0.101
781.100	-0.796	0.101
781.200	4.718	0.101
781.300	7.525	0.101
781.400	-2.855	0.101
781.500	-0.282	0.101
781.600	9.028	0.101
781.700	-1.486	0.101
781.800	5.490	0.101
781.900	-5.885	0.101
782.000	8.466	0.101
782.100	3.549	0.101
782.200	1.638	0.101
782.300	9.678	0.101
782.400	16.502	0.101
782.500	3.486	0.101
782.600	4.035	0.101
782.700	0.506	0.101
782.800	5.256	0.101
782.900	10.782	0.101
783.000	-1.015	0.101
783.100	8.919	0.101
783.200	-6.787	0.101
783.300	13.681	0.101
783.400	15.951	0.101
783.500	12.390	0.101
783.600	11.293	0.101
783.700	6.682	0.101
783.800	16.752	0.101
783.900	11.424	0.101
784.000	17.818	0.101
784.100	14.492	0.101
784.200	17.012	0.101
784.300	2.929	0.101
784.400	6.002	0.101
784.500	12.840	0.101
784.600	3.592	0.101
784.700	7.696	0.101
784.800	5.753	0.101
784.900	2.313	0.101
785.000	-4.998	0.101
785.100	1.548	0.101
785.200	8.822	0.101
785.300	7.479	0.101
785.400	9.186	0.101
785.500	7.828	0.101
785.600	17.598	0.101
785.700	7.307	0.101
785.800	10.267	0.101
785.900	7.749	0.101
786.000	-6.633	0.101
786.100	0.463	0.101
786.200	10.875	0.101
786.300	-1.562	0.101
786.400	2.651	0.101
786.500	-6.250	0.101
786.600	8.849	0.101
786.700	1.802	0.101
786.800	10.779	0.101
786.900	8.231	0.101
787.000	9.763	0.101
787.100	-2.415	0.101
787.200	2.355	0.101
787.300	-0.610	0.101
787.400	7.835	0.101
787.500	3.785	0.101
787.600	21.505	0.101
787.700	10.305	0.101
787.800	15.741	0.101
787.900	6.882	0.101
788.000	-1.038	0.101
788.100	3.023	0.101
788.200	-10.839	0.101
788.300	24.712	0.101
788.400	9.133	0.101
788.500	-4.241	0.101
788.600	14.768	0.101
788.700	21.359	0.101
788.800	6.956	0.101
788.900	0.673	0.101
789.000	14.473	0.101
789.100	3.721	0.101
789.200	-1.924	0.101
789.300	17.953	0.101
789.400	3.869	0.101
789.500	3.181	0.101
789.600	10.096	0.101
789.700	7.104	0.101
789.800	8.316	0.101
789.900	7.677	0.101
790.000	13.927	0.101
790.100	5.210	0.101
790.200	-2.270	0.101
790.300	-0.937	0.101
790.400	9.438	0.101
790.500	9.623	0.101
790.600	-6.768	0.101
790.700	7.970	0.101
790.800	12.374	0.101
790.900	6.299	0.101
791.000	4.269	0.101
791.100	4.853	0.101
791.200	10.385	0.101
791.300	5.227	0.101
791.400	5.292	0.101
791.500	7.502	0.101
791.600	10.492	0.101
791.700	-0.188	0.101
791.800	19.793	0.101
791.900	14.339	0.101
792.000	11.251	0.101
792.100	-0.468	0.101
792.200	2.862	0.101
792.300	2.613	0.101
792.400	18.592	0.101
792.500	-2.842	0.101
792.600	-10.263	0.101
792.700	10.665	0.101
792.800	0.917	0.101
792.900	-4.814	0.101
793.000	20.890	0.101
793.100	7.006	0.101
793.200	16.280	0.101
793.300	-8.536	0.101
793.400	12.332	0.101
793.500	3.179	0.101
793.600	0.322	0.101
793.700	-4.147	0.101
793.800	2.672	0.101
793.900	2.201	0.101
794.000	5.071	0.101
794.100	15.364	0.101
794.200	-0.490	0.101
794.300	20.295	0.101
794.400	5.253	0.101
794.500	-10.182	0.101
794.600	3.441	0.101
794.700	9.779	0.101
794.800	19.494	0.101
794.900	6.083	0.101
795.000	9.969	0.101
795.100	3.892	0.101
795.200	5.647	0.101
795.300	22.692	0.101
795.400	12.899	0.101
795.500	10.379	0.101
795.600	8.080	0.101
795.700	11.582	0.101
795.800	21.025	0.101
795.900	14.175	0.101
796.000	7.949	0.101
796.100	5.428	0.101
796.200	15.668	0.101
796.300	8.652	0.101
796.400	9.971	0.101
796.500	20.634	0.101
796.600	8.632	0.101
796.700	19.744	0.101
796.800	11.878	0.101
796.900	10.584	0.101
797.000	12.547	0.101
797.100	-1.521	0.101
797.200	26.010	0.101
797.300	14.848	0.101
797.400	6.224	0.101
797.500	9.740	0.101
797.600	4.574	0.101
797.700	10.557	0.101
797.800	18.174	0.101
797.900	17.045	0.101
798.000	5.896	0.101
798.100	18.340	0.101
798.200	13.349	0.101
798.300	25.267	0.101
798.400	14.655	0.101
798.500	13.259	0.101
798.600	-9.424	0.101
798.700	28.313	0.101
798.800	13.302	0.101
798.900	20.817	0.101
799.000	13.036	0.101
799.100	8.250	0.101
799.200	14.067	0.101
799.300	10.331	0.101
799.400	11.259	0.101
799.500	13.282	0.101
799.600	12.504	0.101
799.700	6.167	0.101
799.800	3.881	0.101
799.900	30.441	0.101
800.000	17.871	0.101
