time /s	I /nA	E /V
0.100	-46.445	0.101
0.200	-34.738	0.101
0.300	-23.309	0.101
0.400	-4.054	0.101
0.500	-26.403	0.101
0.600	-48.752	0.100
0.700	0.749	0.101
0.800	-17.323	0.101
0.900	-60.485	0.101
1.000	-40.231	0.101
1.100	-37.419	0.100
1.200	-54.550	0.101
1.300	-56.429	0.101
1.400	-56.697	0.101
1.500	-23.855	0.101
1.600	-56.408	0.101
1.700	-34.420	0.100
1.800	-44.289	0.101
1.900	-8.885	0.101
2.000	-51.781	0.101
2.100	-40.563	0.101
2.200	-51.261	0.101
2.300	-27.346	0.101
2.400	0.214	0.101
2.500	-28.498	0.101
2.600	-16.806	0.101
2.700	-55.784	0.101
2.800	-33.202	0.101
2.900	-32.266	0.101
3.000	-28.558	0.101
3.100	-26.126	0.101
3.200	-30.479	0.101
3.300	-34.750	0.101
3.400	-31.960	0.101
3.500	-13.630	0.101
3.600	-47.354	0.100
3.700	-59.284	0.101
3.800	-37.398	0.101
3.900	-5.217	0.101
4.000	-56.390	0.101
4.100	-36.646	0.101
4.200	-40.694	0.100
4.300	-51.164	0.101
4.400	-46.146	0.101
4.500	-38.332	0.101
4.600	-45.118	0.101
4.700	-25.713	0.101
4.800	-51.088	0.101
4.900	-20.382	0.101
5.000	-24.497	0.101
5.100	-17.729	0.101
5.200	-39.924	0.101
5.300	-49.675	0.101
5.400	-48.894	0.101
5.500	-47.943	0.101
5.600	-27.693	0.101
5.700	-12.885	0.101
5.800	-13.148	0.101
5.900	-45.977	0.101
6.000	-23.103	0.101
6.100	-44.733	0.101
6.200	-31.080	0.101
6.300	-67.716	0.101
6.400	-6.004	0.100
6.500	-48.500	0.101
6.600	-37.434	0.101
6.700	-33.708	0.101
6.800	-36.225	0.101
6.900	-22.832	0.101
7.000	-34.254	0.101
7.100	-33.052	0.101
7.200	-37.951	0.101
7.300	-46.842	0.101
7.400	-44.104	0.101
7.500	-31.665	0.101
7.600	-47.502	0.101
7.700	-63.106	0.100
7.800	-44.193	0.101
7.900	-31.801	0.101
8.000	-22.113	0.101
8.100	-55.078	0.101
8.200	7.518	0.101
8.300	-39.173	0.101
8.400	-49.061	0.101
8.500	-3.523	0.101
8.600	-16.261	0.101
8.700	-39.941	0.101
8.800	-13.368	0.101
8.900	-17.379	0.101
9.000	-44.880	0.101
9.100	-33.689	0.101
9.200	-32.083	0.101
9.300	-33.860	0.101
9.400	-24.492	0.101
9.500	-47.389	0.101
9.600	-10.263	0.101
9.700	-28.538	0.101
9.800	-32.859	0.100
9.900	-60.582	0.100
10.000	-29.579	0.100
10.100	-71.014	0.101
10.200	-27.665	0.101
10.300	-36.593	0.101
10.400	-73.786	0.101
10.500	-34.178	0.101
10.600	-52.890	0.101
10.700	-24.687	0.101
10.800	-14.778	0.101
10.900	-36.241	0.101
11.000	-26.390	0.101
11.100	-1.537	0.100
11.200	-15.268	0.101
11.300	-20.863	0.101
11.400	-17.683	0.101
11.500	-33.109	0.100
11.600	-30.846	0.101
11.700	-50.184	0.100
11.800	-6.832	0.100
11.900	-51.102	0.100
12.000	-33.312	0.101
12.100	-45.111	0.101
12.200	-20.070	0.100
12.300	-14.351	0.100
12.400	-28.647	0.101
12.500	-30.397	0.100
12.600	0.139	0.100
12.700	-46.346	0.100
12.800	-49.801	0.100
12.900	-23.841	0.101
13.000	-74.631	0.100
13.100	-31.054	0.100
13.200	-38.289	0.101
13.300	-38.098	0.101
13.400	-17.412	0.101
13.500	-43.770	0.100
13.600	-39.528	0.100
13.700	-36.049	0.101
13.800	12.827	0.100
13.900	-33.398	0.101
14.000	-22.963	0.100
14.100	-26.114	0.101
14.200	-31.827	0.101
14.300	-59.545	0.100
14.400	-0.304	0.100
14.500	-61.096	0.100
14.600	-23.164	0.101
14.700	-33.703	0.100
14.800	-36.247	0.101
14.900	-25.233	0.101
15.000	-45.888	0.101
15.100	-35.228	0.100
15.200	-4.728	0.100
15.300	-35.851	0.100
15.400	-38.940	0.100
15.500	-27.257	0.101
15.600	-28.581	0.101
15.700	0.273	0.101
15.800	-51.277	0.101
15.900	-15.436	0.101
16.000	-47.798	0.100
16.100	-30.098	0.100
16.200	-20.336	0.100
16.300	-18.846	0.100
16.400	-2.424	0.101
16.500	-57.881	0.100
16.600	-46.836	0.100
16.700	-57.989	0.101
16.800	-41.729	0.100
16.900	-33.188	0.100
17.000	-19.116	0.101
17.100	-35.149	0.101
17.200	-58.344	0.101
17.300	-27.520	0.101
17.400	-42.703	0.101
17.500	-36.641	0.100
17.600	16.374	0.101
17.700	-8.250	0.101
17.800	-39.212	0.101
17.900	-51.935	0.101
18.000	-15.865	0.100
18.100	-20.350	0.100
18.200	-4.948	0.101
18.300	-34.675	0.101
18.400	-16.432	0.101
18.500	-39.143	0.101
18.600	-35.179	0.101
18.700	-41.666	0.101
18.800	-53.655	0.101
18.900	-34.293	0.101
19.000	-7.210	0.101
19.100	-33.442	0.100
19.200	-60.484	0.101
19.300	-34.843	0.100
19.400	-7.716	0.100
19.500	-29.276	0.100
19.600	-37.571	0.100
19.700	-29.125	0.100
19.800	-22.995	0.100
19.900	10.656	0.100
20.000	-1.240	0.100
20.100	-36.332	0.101
20.200	-54.338	0.101
20.300	-38.078	0.100
20.400	-10.535	0.101
20.500	-47.206	0.101
20.600	-35.498	0.100
20.700	-35.645	0.101
20.800	-41.563	0.101
20.900	-29.430	0.100
21.000	-40.822	0.101
21.100	-26.791	0.100
21.200	-47.189	0.100
21.300	-39.822	0.101
21.400	-7.927	0.100
21.500	-60.201	0.101
21.600	-22.907	0.101
21.700	-46.658	0.100
21.800	-16.196	0.101
21.900	-44.968	0.101
22.000	-38.689	0.100
22.100	-51.175	0.100
22.200	-50.217	0.101
22.300	-63.358	0.101
22.400	-21.641	0.101
22.500	-38.197	0.100
22.600	-26.027	0.101
22.700	-40.633	0.101
22.800	-18.537	0.101
22.900	-46.072	0.100
23.000	-18.544	0.100
23.100	2.295	0.100
23.200	-20.551	0.100
23.300	10.114	0.101
23.400	-21.135	0.100
23.500	-37.493	0.100
23.600	-13.942	0.101
23.700	-36.799	0.100
23.800	-14.304	0.101
23.900	10.233	0.100
24.000	-27.451	0.101
24.100	-30.833	0.100
24.200	-41.784	0.100
24.300	-8.562	0.101
24.400	-4.613	0.100
24.500	-33.780	0.100
24.600	-18.619	0.100
24.700	-17.876	0.101
24.800	-34.454	0.101
24.900	-28.068	0.101
25.000	-10.905	0.101
25.100	-25.406	0.101
25.200	7.668	0.100
25.300	-5.707	0.101
25.400	-32.220	0.100
25.500	-25.738	0.101
25.600	-25.427	0.101
25.700	-15.472	0.101
25.800	-34.863	0.101
25.900	9.548	0.101
26.000	-31.664	0.100
26.100	5.212	0.101
26.200	-28.105	0.100
26.300	-15.312	0.100
26.400	-19.746	0.101
26.500	-19.356	0.101
26.600	11.609	0.101
26.700	-30.592	0.101
26.800	-46.350	0.101
26.900	-35.249	0.100
27.000	-42.224	0.101
27.100	-38.038	0.101
27.200	-43.475	0.101
27.300	-25.300	0.101
27.400	-32.651	0.101
27.500	-29.049	0.100
27.600	-27.228	0.101
27.700	-39.864	0.101
27.800	-19.858	0.101
27.900	-37.472	0.100
28.000	-31.701	0.100
28.100	-31.581	0.101
28.200	-21.884	0.100
28.300	20.101	0.100
28.400	-55.014	0.100
28.500	-27.613	0.101
28.600	-36.641	0.101
28.700	-4.111	0.100
28.800	-37.472	0.101
28.900	-16.199	0.100
29.000	-27.933	0.101
29.100	-42.069	0.100
29.200	-28.103	0.100
29.300	-9.634	0.100
29.400	6.879	0.101
29.500	-27.725	0.100
29.600	-20.029	0.100
29.700	-15.013	0.101
29.800	-27.420	0.101
29.900	-11.000	0.101
30.000	-25.269	0.101
30.100	-58.040	0.101
30.200	8.861	0.101
30.300	-39.949	0.100
30.400	-29.650	0.101
30.500	-27.501	0.100
30.600	-25.660	0.101
30.700	-8.474	0.101
30.800	-0.793	0.100
30.900	-33.964	0.100
31.000	-25.284	0.100
31.100	-44.085	0.101
31.200	-34.813	0.101
31.300	-17.147	0.101
31.400	-17.366	0.101
31.500	-33.549	0.101
31.600	12.275	0.101
31.700	-51.408	0.101
31.800	-2.587	0.100
31.900	15.996	0.101
32.000	-18.538	0.101
32.100	-30.207	0.101
32.200	-37.039	0.100
32.300	-20.370	0.101
32.400	-13.727	0.101
32.500	-30.974	0.101
32.600	-9.269	0.100
32.700	-14.431	0.101
32.800	-25.427	0.101
32.900	-2.194	0.101
33.000	-60.990	0.100
33.100	-34.962	0.101
33.200	-6.818	0.101
33.300	-23.643	0.101
33.400	-10.456	0.101
33.500	-14.973	0.101
33.600	-36.976	0.101
33.700	-35.963	0.101
33.800	-20.961	0.100
33.900	-6.783	0.101
34.000	-12.303	0.101
34.100	-15.871	0.101
34.200	-36.324	0.101
34.300	-8.671	0.101
34.400	-0.321	0.101
34.500	-22.785	0.101
34.600	-20.732	0.101
34.700	-4.750	0.100
34.800	-40.271	0.101
34.900	-6.666	0.101
35.000	-7.755	0.100
35.100	-24.375	0.101
35.200	17.762	0.101
35.300	-35.803	0.101
35.400	6.344	0.101
35.500	-0.745	0.101
35.600	-33.269	0.101
35.700	-12.138	0.101
35.800	-20.208	0.101
35.900	-27.425	0.101
36.000	-12.878	0.101
36.100	-27.020	0.101
36.200	-28.774	0.101
36.300	-11.380	0.101
36.400	-6.087	0.101
36.500	3.260	0.101
36.600	1.321	0.101
36.700	-39.390	0.101
36.800	-0.707	0.101
36.900	-29.627	0.101
37.000	-28.024	0.101
37.100	-36.896	0.101
37.200	-43.371	0.101
37.300	-15.691	0.101
37.400	-36.235	0.101
37.500	11.673	0.101
37.600	-14.664	0.101
37.700	-8.372	0.101
37.800	-34.272	0.101
37.900	-18.384	0.101
38.000	-17.144	0.101
38.100	8.247	0.101
38.200	5.327	0.100
38.300	3.068	0.101
38.400	2.348	0.101
38.500	-22.515	0.101
38.600	-30.456	0.101
38.700	-9.487	0.101
38.800	-8.918	0.101
38.900	-6.233	0.101
39.000	12.522	0.101
39.100	17.124	0.101
39.200	-2.824	0.101
39.300	-19.129	0.101
39.400	-37.241	0.101
39.500	-1.671	0.101
39.600	-13.503	0.101
39.700	-14.212	0.101
39.800	-3.973	0.101
39.900	-20.496	0.101
40.000	-20.824	0.101
40.100	13.609	0.101
40.200	-21.115	0.101
40.300	-11.822	0.101
40.400	-1.255	0.101
40.500	-16.190	0.100
40.600	-10.343	0.100
40.700	-17.743	0.101
40.800	17.047	0.101
40.900	-24.368	0.101
41.000	3.210	0.101
41.100	-12.507	0.101
41.200	11.978	0.101
41.300	-7.234	0.101
41.400	-24.860	0.101
41.500	-18.699	0.101
41.600	11.191	0.101
41.700	-16.398	0.101
41.800	-18.207	0.101
41.900	-4.564	0.101
42.000	-12.310	0.101
42.100	-30.624	0.101
42.200	-0.514	0.101
42.300	30.647	0.101
42.400	18.450	0.101
42.500	2.076	0.101
42.600	-12.565	0.101
42.700	-17.302	0.101
42.800	13.306	0.101
42.900	17.063	0.101
43.000	-26.698	0.101
43.100	-6.232	0.101
43.200	-28.625	0.101
43.300	0.309	0.101
43.400	-4.513	0.101
43.500	-1.363	0.101
43.600	-28.434	0.101
43.700	-0.450	0.101
43.800	28.970	0.101
43.900	-6.431	0.100
44.000	10.809	0.101
44.100	23.660	0.101
44.200	-23.545	0.101
44.300	2.013	0.101
44.400	-12.644	0.101
44.500	10.145	0.101
44.600	-29.729	0.101
44.700	10.813	0.101
44.800	-19.890	0.101
44.900	7.648	0.101
45.000	-30.069	0.101
45.100	2.795	0.101
45.200	-29.976	0.100
45.300	17.051	0.101
45.400	-14.514	0.101
45.500	-1.149	0.101
45.600	-18.382	0.101
45.700	25.254	0.101
45.800	-3.999	0.101
45.900	-30.909	0.101
46.000	10.564	0.101
46.100	-10.519	0.101
46.200	4.718	0.101
46.300	1.404	0.101
46.400	-3.127	0.101
46.500	7.633	0.101
46.600	-16.997	0.101
46.700	-6.798	0.101
46.800	3.250	0.101
46.900	2.969	0.101
47.000	3.173	0.101
47.100	17.210	0.101
47.200	-10.816	0.101
47.300	18.121	0.101
47.400	-2.135	0.101
47.500	16.000	0.101
47.600	1.629	0.101
47.700	-0.567	0.101
47.800	2.539	0.101
47.900	-6.062	0.101
48.000	1.963	0.101
48.100	21.110	0.101
48.200	-8.836	0.101
48.300	3.445	0.101
48.400	26.743	0.101
48.500	-4.335	0.101
48.600	-12.449	0.101
48.700	13.714	0.101
48.800	-9.752	0.101
48.900	7.362	0.101
49.000	-11.281	0.101
49.100	44.302	0.101
49.200	-11.929	0.101
49.300	21.145	0.101
49.400	-18.633	0.101
49.500	10.523	0.100
49.600	-12.837	0.100
49.700	-6.884	0.101
49.800	12.497	0.101
49.900	-9.297	0.100
50.000	-10.571	0.101
50.100	8.251	0.101
50.200	9.776	0.101
50.300	23.439	0.101
50.400	-11.737	0.101
50.500	-7.273	0.101
50.600	14.119	0.101
50.700	16.337	0.101
50.800	-8.325	0.100
50.900	-4.283	0.101
51.000	30.753	0.101
51.100	-36.394	0.101
51.200	-0.414	0.101
51.300	-8.068	0.101
51.400	-31.979	0.101
51.500	9.378	0.101
51.600	-12.958	0.101
51.700	31.403	0.101
51.800	-0.438	0.101
51.900	-9.425	0.101
52.000	-2.320	0.100
52.100	3.759	0.100
52.200	-6.204	0.101
52.300	5.903	0.100
52.400	-5.895	0.100
52.500	13.480	0.101
52.600	28.842	0.101
52.700	-25.998	0.101
52.800	-11.310	0.101
52.900	7.748	0.101
53.000	31.132	0.101
53.100	10.467	0.101
53.200	6.749	0.100
53.300	-2.321	0.101
53.400	16.023	0.101
53.500	-19.249	0.100
53.600	-0.471	0.100
53.700	14.112	0.101
53.800	41.604	0.101
53.900	3.710	0.101
54.000	16.616	0.101
54.100	-5.667	0.101
54.200	-36.398	0.101
54.300	37.561	0.101
54.400	-16.580	0.101
54.500	9.680	0.101
54.600	-3.552	0.101
54.700	7.447	0.101
54.800	-2.522	0.101
54.900	-18.665	0.101
55.000	34.297	0.101
55.100	18.593	0.101
55.200	-1.550	0.101
55.300	13.280	0.100
55.400	19.359	0.101
55.500	-16.152	0.100
55.600	-26.456	0.101
55.700	-6.772	0.101
55.800	14.502	0.101
55.900	14.110	0.101
56.000	8.484	0.101
56.100	12.250	0.100
56.200	6.092	0.101
56.300	35.342	0.101
56.400	-5.361	0.101
56.500	10.099	0.101
56.600	-4.477	0.101
56.700	-23.377	0.101
56.800	-11.528	0.101
56.900	-5.346	0.101
57.000	44.363	0.101
57.100	34.241	0.101
57.200	-32.123	0.101
57.300	23.464	0.101
57.400	24.384	0.101
57.500	17.497	0.100
57.600	-13.526	0.101
57.700	26.757	0.101
57.800	20.417	0.101
57.900	12.171	0.101
58.000	0.541	0.101
58.100	21.138	0.100
58.200	27.264	0.101
58.300	15.499	0.101
58.400	3.225	0.101
58.500	16.108	0.100
58.600	-18.385	0.100
58.700	9.841	0.101
58.800	-4.800	0.101
58.900	-5.968	0.101
59.000	15.555	0.101
59.100	-2.624	0.101
59.200	25.776	0.101
59.300	-1.686	0.100
59.400	19.246	0.100
59.500	36.492	0.101
59.600	17.954	0.100
59.700	8.283	0.101
59.800	6.151	0.101
59.900	0.365	0.101
60.000	13.146	0.101
60.100	33.898	0.100
60.200	-23.698	0.100
60.300	-4.341	0.100
60.400	32.869	0.101
60.500	29.664	0.100
60.600	12.010	0.101
60.700	10.732	0.100
60.800	25.149	0.100
60.900	13.831	0.100
61.000	-6.129	0.101
61.100	-16.264	0.101
61.200	20.439	0.100
61.300	9.011	0.101
61.400	-22.815	0.100
61.500	9.293	0.100
61.600	-4.855	0.100
61.700	6.099	0.101
61.800	16.754	0.101
61.900	14.562	0.101
62.000	11.782	0.101
62.100	9.199	0.101
62.200	17.124	0.101
62.300	1.384	0.101
62.400	10.337	0.101
62.500	20.567	0.100
62.600	-2.925	0.101
62.700	6.158	0.100
62.800	10.683	0.100
62.900	3.968	0.101
63.000	32.759	0.101
63.100	4.917	0.101
63.200	1.034	0.101
63.300	5.918	0.101
63.400	-9.011	0.100
63.500	29.329	0.101
63.600	13.174	0.101
63.700	45.974	0.101
63.800	18.181	0.101
63.900	16.578	0.101
64.000	25.487	0.101
64.100	17.820	0.101
64.200	29.553	0.100
64.300	37.475	0.101
64.400	21.473	0.101
64.500	11.064	0.101
64.600	-8.207	0.101
64.700	19.150	0.101
64.800	18.621	0.101
64.900	10.465	0.100
65.000	18.793	0.100
65.100	20.456	0.100
65.200	-8.302	0.100
65.300	7.901	0.101
65.400	31.242	0.100
65.500	48.038	0.100
65.600	4.377	0.101
65.700	-7.025	0.101
65.800	11.571	0.101
65.900	14.067	0.101
66.000	35.930	0.101
66.100	6.036	0.101
66.200	23.169	0.101
66.300	-0.404	0.101
66.400	36.772	0.100
66.500	29.172	0.101
66.600	-2.826	0.100
66.700	2.824	0.101
66.800	-6.963	0.101
66.900	-10.887	0.101
67.000	37.503	0.101
67.100	16.125	0.101
67.200	-5.194	0.100
67.300	-4.827	0.101
67.400	32.046	0.101
67.500	-7.447	0.101
67.600	22.551	0.101
67.700	10.037	0.101
67.800	12.422	0.100
67.900	32.926	0.101
68.000	19.884	0.101
68.100	12.964	0.101
68.200	-8.026	0.101
68.300	40.159	0.101
68.400	-16.876	0.101
68.500	41.331	0.101
68.600	22.192	0.101
68.700	3.307	0.101
68.800	-8.302	0.100
68.900	-7.051	0.100
69.000	30.380	0.100
69.100	13.471	0.101
69.200	28.559	0.101
69.300	27.474	0.101
69.400	34.105	0.101
69.500	25.442	0.101
69.600	-21.858	0.100
69.700	22.931	0.100
69.800	16.480	0.101
69.900	7.529	0.100
70.000	21.530	0.100
70.100	-2.521	0.101
70.200	4.530	0.101
70.300	-7.089	0.101
70.400	20.479	0.100
70.500	8.745	0.100
70.600	23.081	0.101
70.700	25.652	0.100
70.800	18.631	0.100
70.900	-11.103	0.101
71.000	19.400	0.101
71.100	40.648	0.100
71.200	56.802	0.100
71.300	6.195	0.100
71.400	20.558	0.101
71.500	-0.488	0.100
71.600	3.556	0.100
71.700	36.609	0.100
71.800	17.406	0.100
71.900	-6.292	0.100
72.000	28.832	0.101
72.100	-17.410	0.101
72.200	35.999	0.101
72.300	4.953	0.101
72.400	33.616	0.100
72.500	4.194	0.101
72.600	13.127	0.101
72.700	18.335	0.101
72.800	9.110	0.100
72.900	-5.988	0.100
73.000	39.055	0.101
73.100	30.952	0.101
73.200	26.312	0.100
73.300	53.351	0.101
73.400	22.948	0.100
73.500	15.031	0.101
73.600	14.677	0.100
73.700	13.756	0.100
73.800	21.794	0.100
73.900	22.566	0.101
74.000	-10.886	0.101
74.100	6.611	0.100
74.200	-5.360	0.101
74.300	39.250	0.101
74.400	0.000	0.100
74.500	19.468	0.101
74.600	3.048	0.100
74.700	-9.555	0.101
74.800	-12.703	0.101
74.900	31.601	0.101
75.000	49.598	0.101
75.100	9.602	0.101
75.200	27.170	0.101
75.300	5.836	0.100
75.400	38.667	0.101
75.500	18.567	0.101
75.600	7.419	0.101
75.700	8.250	0.100
75.800	22.095	0.100
75.900	39.577	0.101
76.000	9.213	0.101
76.100	15.785	0.101
76.200	26.152	0.101
76.300	42.120	0.101
76.400	-2.688	0.101
76.500	20.916	0.101
76.600	34.183	0.101
76.700	19.183	0.101
76.800	-2.815	0.101
76.900	40.379	0.101
77.000	26.591	0.101
77.100	1.673	0.100
77.200	32.321	0.101
77.300	15.232	0.100
77.400	7.727	0.101
77.500	48.173	0.101
77.600	42.379	0.101
77.700	13.293	0.101
77.800	16.690	0.101
77.900	7.923	0.100
78.000	11.625	0.101
78.100	30.753	0.101
78.200	5.828	0.100
78.300	-3.682	0.100
78.400	58.274	0.101
78.500	25.284	0.100
78.600	1.826	0.101
78.700	17.946	0.100
78.800	45.984	0.101
78.900	20.481	0.101
79.000	32.733	0.101
79.100	11.099	0.100
79.200	32.383	0.100
79.300	8.416	0.100
79.400	40.914	0.101
79.500	7.502	0.100
79.600	0.493	0.101
79.700	40.462	0.100
79.800	19.582	0.101
79.900	43.006	0.101
80.000	19.558	0.100
80.100	15.294	0.101
80.200	12.509	0.101
80.300	25.308	0.101
80.400	16.508	0.100
80.500	32.823	0.101
80.600	38.992	0.101
80.700	41.773	0.101
80.800	-21.515	0.100
80.900	34.784	0.100
81.000	16.137	0.100
81.100	29.088	0.101
81.200	-0.125	0.101
81.300	23.484	0.101
81.400	16.897	0.101
81.500	15.657	0.101
81.600	1.708	0.101
81.700	54.307	0.101
81.800	19.143	0.101
81.900	43.867	0.101
82.000	29.061	0.101
82.100	35.932	0.101
82.200	28.294	0.100
82.300	30.303	0.101
82.400	53.297	0.101
82.500	36.977	0.101
82.600	44.483	0.101
82.700	10.316	0.101
82.800	0.625	0.101
82.900	1.156	0.101
83.000	37.498	0.101
83.100	29.441	0.101
83.200	41.485	0.100
83.300	20.744	0.100
83.400	-0.737	0.101
83.500	24.439	0.101
83.600	37.569	0.100
83.700	31.627	0.101
83.800	31.251	0.101
83.900	3.792	0.101
84.000	17.454	0.101
84.100	7.355	0.101
84.200	43.872	0.101
84.300	25.113	0.101
84.400	13.430	0.101
84.500	30.300	0.101
84.600	25.119	0.101
84.700	16.204	0.101
84.800	39.630	0.101
84.900	30.492	0.101
85.000	36.001	0.100
85.100	-13.278	0.101
85.200	27.077	0.101
85.300	54.007	0.101
85.400	42.581	0.101
85.500	14.254	0.101
85.600	32.579	0.101
85.700	21.384	0.101
85.800	15.118	0.101
85.900	1.922	0.101
86.000	18.826	0.101
86.100	47.643	0.101
86.200	32.047	0.100
86.300	47.402	0.101
86.400	29.767	0.101
86.500	57.136	0.100
86.600	35.831	0.101
86.700	6.683	0.101
86.800	39.890	0.100
86.900	60.860	0.101
87.000	36.571	0.101
87.100	33.873	0.101
87.200	36.494	0.100
87.300	40.705	0.101
87.400	10.183	0.100
87.500	49.406	0.101
87.600	12.287	0.101
87.700	44.651	0.101
87.800	42.274	0.101
87.900	10.744	0.101
88.000	10.397	0.101
88.100	29.018	0.101
88.200	25.146	0.101
88.300	12.033	0.101
88.400	27.246	0.101
88.500	10.836	0.101
88.600	44.836	0.101
88.700	19.736	0.101
88.800	41.505	0.100
88.900	7.324	0.100
89.000	35.564	0.101
89.100	55.140	0.101
89.200	40.308	0.101
89.300	-1.597	0.101
89.400	17.055	0.101
89.500	43.597	0.101
89.600	26.023	0.101
89.700	29.864	0.101
89.800	47.850	0.101
89.900	24.264	0.101
90.000	14.186	0.101
90.100	-1.036	0.101
90.200	36.735	0.101
90.300	67.643	0.101
90.400	22.198	0.101
90.500	46.509	0.101
90.600	12.976	0.101
90.700	68.345	0.101
90.800	15.090	0.101
90.900	31.563	0.101
91.000	7.405	0.101
91.100	44.454	0.101
91.200	49.216	0.101
91.300	4.549	0.101
91.400	48.950	0.101
91.500	53.495	0.101
91.600	33.832	0.101
91.700	22.512	0.101
91.800	-2.069	0.101
91.900	21.416	0.101
92.000	16.969	0.101
92.100	25.144	0.101
92.200	12.089	0.100
92.300	32.159	0.101
92.400	38.706	0.101
92.500	33.834	0.101
92.600	8.173	0.101
92.700	10.470	0.101
92.800	26.190	0.101
92.900	12.501	0.101
93.000	24.947	0.101
93.100	34.480	0.101
93.200	26.403	0.101
93.300	24.759	0.101
93.400	3.844	0.101
93.500	15.532	0.101
93.600	26.166	0.101
93.700	48.852	0.101
93.800	43.454	0.100
93.900	0.418	0.101
94.000	19.162	0.101
94.100	28.282	0.101
94.200	42.629	0.101
94.300	2.310	0.101
94.400	16.603	0.101
94.500	18.197	0.101
94.600	15.672	0.100
94.700	42.419	0.101
94.800	40.267	0.101
94.900	-5.987	0.101
95.000	23.023	0.101
95.100	-0.878	0.101
95.200	30.206	0.101
95.300	14.616	0.101
95.400	-18.818	0.100
95.500	34.958	0.101
95.600	54.834	0.101
95.700	5.050	0.101
95.800	27.212	0.101
95.900	25.267	0.101
96.000	14.311	0.101
96.100	24.036	0.101
96.200	-4.233	0.101
96.300	31.698	0.101
96.400	5.644	0.101
96.500	1.889	0.101
96.600	30.468	0.101
96.700	3.361	0.101
96.800	29.038	0.101
96.900	38.445	0.101
97.000	-11.185	0.101
97.100	25.570	0.101
97.200	19.962	0.101
97.300	10.414	0.101
97.400	44.786	0.101
97.500	8.266	0.101
97.600	13.605	0.101
97.700	24.310	0.101
97.800	11.502	0.101
97.900	9.408	0.101
98.000	0.259	0.101
98.100	18.997	0.100
98.200	1.751	0.101
98.300	15.256	0.101
98.400	11.859	0.100
98.500	14.866	0.101
98.600	3.849	0.101
98.700	5.301	0.101
98.800	41.660	0.101
98.900	34.844	0.101
99.000	12.765	0.101
99.100	22.920	0.101
99.200	36.161	0.101
99.300	23.293	0.101
99.400	45.594	0.101
99.500	20.541	0.101
99.600	2.751	0.101
99.700	36.483	0.101
99.800	27.877	0.101
99.900	-5.027	0.101
100.000	23.942	0.100
100.100	20.366	0.101
100.200	49.344	0.101
100.300	14.254	0.101
100.400	14.249	0.101
100.500	22.792	0.101
100.600	18.881	0.101
100.700	43.375	0.100
100.800	10.590	0.101
100.900	48.690	0.100
101.000	1.782	0.101
101.100	-19.395	0.101
101.200	15.353	0.101
101.300	33.749	0.101
101.400	12.682	0.101
101.500	-7.970	0.101
101.600	9.346	0.101
101.700	37.735	0.101
101.800	-9.583	0.100
101.900	17.649	0.101
102.000	3.160	0.101
102.100	26.384	0.101
102.200	7.449	0.101
102.300	35.996	0.101
102.400	14.042	0.101
102.500	7.569	0.101
102.600	20.816	0.100
102.700	22.686	0.100
102.800	26.172	0.101
102.900	41.134	0.101
103.000	5.412	0.101
103.100	31.958	0.101
103.200	21.925	0.101
103.300	40.117	0.101
103.400	37.783	0.101
103.500	64.641	0.101
103.600	44.848	0.101
103.700	-14.490	0.100
103.800	-12.633	0.100
103.900	23.935	0.101
104.000	-21.696	0.101
104.100	13.259	0.101
104.200	27.132	0.100
104.300	9.983	0.100
104.400	6.828	0.101
104.500	-4.894	0.101
104.600	26.613	0.101
104.700	16.073	0.101
104.800	46.732	0.101
104.900	39.541	0.101
105.000	23.232	0.101
105.100	21.842	0.101
105.200	8.523	0.101
105.300	14.915	0.101
105.400	58.793	0.101
105.500	42.192	0.100
105.600	-1.123	0.101
105.700	-2.151	0.100
105.800	42.005	0.100
105.900	30.650	0.101
106.000	33.493	0.101
106.100	18.393	0.100
106.200	46.158	0.101
106.300	3.036	0.101
106.400	18.599	0.101
106.500	15.723	0.101
106.600	-2.253	0.100
106.700	47.264	0.101
106.800	8.580	0.101
106.900	37.337	0.101
107.000	20.223	0.101
107.100	32.545	0.101
107.200	-27.132	0.100
107.300	19.774	0.100
107.400	1.849	0.101
107.500	22.237	0.101
107.600	-1.557	0.101
107.700	30.994	0.101
107.800	19.124	0.101
107.900	7.066	0.101
108.000	-1.346	0.101
108.100	39.370	0.101
108.200	12.777	0.101
108.300	15.682	0.101
108.400	23.698	0.101
108.500	53.514	0.101
108.600	17.486	0.101
108.700	3.298	0.101
108.800	31.070	0.101
108.900	50.506	0.101
109.000	-18.034	0.100
109.100	15.846	0.101
109.200	22.723	0.101
109.300	-41.498	0.101
109.400	-11.301	0.101
109.500	29.560	0.100
109.600	14.619	0.100
109.700	13.247	0.101
109.800	38.808	0.101
109.900	29.928	0.101
110.000	8.084	0.101
110.100	34.775	0.101
110.200	11.524	0.101
110.300	21.816	0.101
110.400	-16.802	0.101
110.500	17.144	0.101
110.600	13.448	0.101
110.700	16.764	0.101
110.800	13.625	0.101
110.900	33.779	0.101
111.000	19.600	0.100
111.100	6.090	0.101
111.200	15.470	0.101
111.300	-18.894	0.101
111.400	11.591	0.101
111.500	3.820	0.101
111.600	14.265	0.101
111.700	18.554	0.101
111.800	37.849	0.100
111.900	8.383	0.101
112.000	-1.792	0.100
112.100	13.890	0.101
112.200	-1.231	0.101
112.300	28.574	0.101
112.400	23.579	0.101
112.500	27.728	0.101
112.600	7.717	0.101
112.700	49.804	0.101
112.800	8.149	0.101
112.900	22.493	0.101
113.000	47.817	0.101
113.100	15.141	0.101
113.200	4.969	0.101
113.300	6.092	0.101
113.400	21.603	0.101
113.500	32.638	0.101
113.600	-23.669	0.101
113.700	25.825	0.101
113.800	-1.875	0.101
113.900	-12.317	0.101
114.000	13.648	0.101
114.100	14.856	0.101
114.200	14.666	0.100
114.300	-18.259	0.101
114.400	-14.132	0.101
114.500	14.341	0.100
114.600	21.236	0.101
114.700	41.314	0.101
114.800	10.746	0.101
114.900	13.607	0.101
115.000	4.987	0.100
115.100	0.294	0.101
115.200	23.061	0.101
115.300	29.949	0.101
115.400	11.196	0.100
115.500	28.664	0.101
115.600	0.820	0.101
115.700	7.622	0.101
115.800	12.764	0.101
115.900	9.043	0.101
116.000	17.769	0.101
116.100	5.595	0.101
116.200	15.767	0.101
116.300	15.591	0.100
116.400	-2.517	0.101
116.500	28.579	0.101
116.600	29.217	0.100
116.700	17.215	0.100
116.800	19.680	0.101
116.900	27.007	0.101
117.000	23.707	0.101
117.100	23.211	0.101
117.200	-6.747	0.100
117.300	21.556	0.100
117.400	6.775	0.100
117.500	36.354	0.101
117.600	17.140	0.101
117.700	10.313	0.100
117.800	20.144	0.101
117.900	-1.977	0.100
118.000	32.419	0.100
118.100	25.610	0.101
118.200	8.429	0.100
118.300	19.148	0.101
118.400	28.260	0.101
118.500	17.226	0.100
118.600	-0.387	0.101
118.700	50.944	0.101
118.800	11.834	0.101
118.900	10.964	0.101
119.000	-0.726	0.101
119.100	7.804	0.101
119.200	-2.881	0.100
119.300	21.463	0.100
119.400	24.363	0.100
119.500	-23.713	0.100
119.600	11.929	0.101
119.700	27.463	0.101
119.800	5.949	0.100
119.900	1.882	0.101
120.000	19.082	0.101
120.100	2.660	0.101
120.200	9.669	0.101
120.300	35.916	0.100
120.400	3.754	0.101
120.500	29.193	0.100
120.600	-17.012	0.101
120.700	31.431	0.101
120.800	37.290	0.101
120.900	27.156	0.100
121.000	27.627	0.100
121.100	7.874	0.101
121.200	33.339	0.101
121.300	-2.825	0.101
121.400	15.875	0.101
121.500	12.275	0.100
121.600	10.887	0.101
121.700	13.591	0.101
121.800	4.799	0.100
121.900	32.356	0.100
122.000	-3.110	0.100
122.100	11.546	0.100
122.200	35.860	0.100
122.300	2.790	0.100
122.400	37.308	0.101
122.500	6.011	0.101
122.600	5.211	0.100
122.700	1.072	0.101
122.800	19.239	0.101
122.900	4.099	0.101
123.000	29.637	0.101
123.100	12.593	0.101
123.200	-11.471	0.100
123.300	-9.611	0.101
123.400	50.400	0.101
123.500	1.117	0.101
123.600	8.917	0.100
123.700	20.047	0.101
123.800	15.725	0.100
123.900	25.580	0.100
124.000	15.321	0.101
124.100	30.550	0.100
124.200	47.115	0.100
124.300	49.088	0.101
124.400	15.537	0.101
124.500	39.085	0.101
124.600	47.850	0.100
124.700	6.763	0.100
124.800	-22.304	0.101
124.900	1.836	0.101
125.000	13.653	0.101
125.100	-27.698	0.101
125.200	9.979	0.101
125.300	29.159	0.101
125.400	-10.531	0.101
125.500	25.529	0.101
125.600	17.743	0.101
125.700	4.561	0.101
125.800	12.792	0.100
125.900	-20.756	0.100
126.000	24.665	0.100
126.100	17.329	0.101
126.200	10.940	0.101
126.300	-10.949	0.100
126.400	-6.312	0.101
126.500	15.790	0.100
126.600	36.514	0.101
126.700	-1.271	0.101
126.800	-19.993	0.101
126.900	-11.927	0.101
127.000	-5.185	0.101
127.100	26.489	0.101
127.200	7.800	0.100
127.300	-7.303	0.100
127.400	-0.282	0.100
127.500	0.089	0.101
127.600	14.891	0.101
127.700	-13.066	0.101
127.800	11.756	0.101
127.900	30.405	0.101
128.000	-23.737	0.101
128.100	-4.140	0.101
128.200	-4.672	0.101
128.300	1.097	0.101
128.400	-1.240	0.101
128.500	3.519	0.101
128.600	13.812	0.101
128.700	41.808	0.101
128.800	6.255	0.101
128.900	18.131	0.101
129.000	15.618	0.100
129.100	-6.880	0.101
129.200	11.545	0.101
129.300	-0.580	0.101
129.400	27.635	0.101
129.500	-25.703	0.101
129.600	27.202	0.101
129.700	-3.065	0.101
129.800	3.603	0.101
129.900	-4.875	0.101
130.000	25.839	0.101
130.100	36.526	0.101
130.200	4.855	0.101
130.300	-24.763	0.101
130.400	-10.945	0.101
130.500	45.249	0.101
130.600	-23.966	0.101
130.700	20.773	0.101
130.800	26.790	0.101
130.900	19.031	0.101
131.000	5.817	0.101
131.100	-16.571	0.101
131.200	0.542	0.101
131.300	3.416	0.101
131.400	-4.639	0.101
131.500	25.408	0.101
131.600	23.893	0.101
131.700	-7.630	0.101
131.800	-12.124	0.101
131.900	13.447	0.101
132.000	-9.394	0.101
132.100	18.368	0.101
132.200	1.681	0.101
132.300	20.145	0.101
132.400	-12.898	0.101
132.500	11.900	0.101
132.600	5.898	0.100
132.700	1.908	0.101
132.800	17.307	0.101
132.900	17.375	0.101
133.000	-4.743	0.101
133.100	18.448	0.101
133.200	14.411	0.101
133.300	8.884	0.101
133.400	6.032	0.101
133.500	29.210	0.101
133.600	1.106	0.101
133.700	9.442	0.101
133.800	37.798	0.101
133.900	-3.489	0.101
134.000	18.320	0.101
134.100	-9.911	0.101
134.200	-4.288	0.101
134.300	-21.703	0.101
134.400	-9.482	0.101
134.500	-2.470	0.101
134.600	0.806	0.101
134.700	6.896	0.101
134.800	36.607	0.101
134.900	-18.873	0.101
135.000	45.637	0.101
135.100	-1.063	0.101
135.200	1.420	0.101
135.300	20.488	0.101
135.400	-7.993	0.101
135.500	-5.274	0.101
135.600	13.048	0.101
135.700	-3.282	0.101
135.800	16.705	0.101
135.900	30.942	0.101
136.000	0.740	0.101
136.100	0.126	0.101
136.200	-24.928	0.101
136.300	13.423	0.101
136.400	16.215	0.101
136.500	4.475	0.101
136.600	-1.630	0.101
136.700	6.988	0.101
136.800	30.062	0.101
136.900	15.907	0.101
137.000	-14.134	0.100
137.100	7.071	0.101
137.200	40.748	0.101
137.300	-4.066	0.101
137.400	32.067	0.101
137.500	-6.441	0.101
137.600	16.272	0.101
137.700	-6.948	0.101
137.800	0.537	0.101
137.900	-23.403	0.101
138.000	-6.881	0.101
138.100	14.696	0.101
138.200	22.262	0.101
138.300	28.573	0.101
138.400	12.200	0.101
138.500	-19.814	0.100
138.600	-8.188	0.101
138.700	10.284	0.101
138.800	-0.029	0.101
138.900	7.952	0.100
139.000	10.004	0.101
139.100	11.895	0.101
139.200	-21.500	0.101
139.300	35.057	0.101
139.400	0.592	0.101
139.500	23.702	0.101
139.600	9.924	0.101
139.700	-6.390	0.101
139.800	-9.439	0.101
139.900	-17.387	0.101
140.000	34.610	0.101
140.100	18.726	0.101
140.200	-6.134	0.101
140.300	-21.575	0.101
140.400	14.205	0.101
140.500	-22.791	0.101
140.600	-16.542	0.101
140.700	17.913	0.101
140.800	-13.463	0.101
140.900	10.571	0.101
141.000	8.434	0.101
141.100	20.095	0.101
141.200	-20.099	0.101
141.300	10.144	0.101
141.400	-21.883	0.101
141.500	3.987	0.101
141.600	3.939	0.101
141.700	-6.667	0.101
141.800	-4.610	0.101
141.900	23.648	0.101
142.000	42.756	0.101
142.100	11.614	0.101
142.200	-28.429	0.101
142.300	0.579	0.101
142.400	19.945	0.101
142.500	33.258	0.100
142.600	-23.530	0.101
142.700	-11.144	0.101
142.800	27.185	0.101
142.900	16.147	0.101
143.000	23.702	0.101
143.100	8.703	0.101
143.200	15.931	0.101
143.300	-57.957	0.101
143.400	8.194	0.101
143.500	-4.688	0.101
143.600	-7.734	0.101
143.700	4.108	0.101
143.800	22.872	0.101
143.900	3.514	0.101
144.000	-17.285	0.101
144.100	7.290	0.101
144.200	-9.672	0.101
144.300	11.465	0.101
144.400	-3.408	0.101
144.500	-2.451	0.101
144.600	18.843	0.101
144.700	-12.480	0.101
144.800	11.841	0.101
144.900	-10.660	0.101
145.000	17.014	0.101
145.100	38.198	0.101
145.200	-57.694	0.101
145.300	1.482	0.101
145.400	8.954	0.101
145.500	4.202	0.101
145.600	-2.707	0.101
145.700	-1.312	0.101
145.800	-3.388	0.101
145.900	33.452	0.101
146.000	0.232	0.101
146.100	-35.573	0.101
146.200	18.920	0.101
146.300	30.742	0.101
146.400	-7.143	0.101
146.500	24.907	0.101
146.600	27.739	0.101
146.700	-5.856	0.101
146.800	-14.877	0.101
146.900	8.411	0.101
147.000	-16.674	0.101
147.100	9.418	0.101
147.200	4.371	0.101
147.300	9.987	0.101
147.400	22.446	0.101
147.500	17.046	0.101
147.600	-12.641	0.101
147.700	-17.579	0.101
147.800	-30.202	0.101
147.900	18.337	0.101
148.000	-5.106	0.101
148.100	-18.897	0.101
148.200	43.793	0.101
148.300	-11.729	0.101
148.400	16.667	0.101
148.500	1.001	0.101
148.600	-4.872	0.101
148.700	-0.889	0.101
148.800	-24.559	0.101
148.900	-6.191	0.101
149.000	-21.171	0.101
149.100	29.148	0.101
149.200	-26.770	0.101
149.300	3.599	0.101
149.400	19.715	0.101
149.500	14.640	0.101
149.600	12.662	0.101
149.700	6.577	0.101
149.800	-3.107	0.101
149.900	-19.576	0.101
150.000	20.171	0.101
150.100	-2.987	0.101
150.200	-34.943	0.101
150.300	-35.167	0.101
150.400	36.746	0.101
150.500	13.004	0.101
150.600	6.389	0.101
150.700	0.278	0.100
150.800	4.707	0.101
150.900	3.152	0.101
151.000	-13.680	0.101
151.100	-3.909	0.101
151.200	9.584	0.101
151.300	22.733	0.101
151.400	10.780	0.101
151.500	-8.221	0.101
151.600	10.019	0.101
151.700	0.083	0.101
151.800	-4.513	0.101
151.900	6.942	0.101
152.000	25.225	0.101
152.100	14.565	0.101
152.200	20.607	0.101
152.300	-12.423	0.101
152.400	-28.263	0.101
152.500	5.921	0.101
152.600	-6.145	0.101
152.700	6.134	0.101
152.800	-5.801	0.101
152.900	16.412	0.101
153.000	2.578	0.101
153.100	5.257	0.101
153.200	4.319	0.101
153.300	-4.125	0.101
153.400	-19.155	0.101
153.500	-35.971	0.101
153.600	13.043	0.101
153.700	-2.036	0.101
153.800	11.252	0.101
153.900	-8.513	0.100
154.000	9.203	0.101
154.100	18.218	0.101
154.200	-4.497	0.101
154.300	-1.687	0.101
154.400	-0.826	0.101
154.500	6.775	0.101
154.600	-23.820	0.101
154.700	-15.507	0.101
154.800	-0.014	0.101
154.900	-8.010	0.101
155.000	-15.036	0.101
155.100	37.646	0.101
155.200	12.427	0.101
155.300	-1.120	0.101
155.400	-11.315	0.101
155.500	-19.727	0.101
155.600	20.120	0.101
155.700	-23.713	0.101
155.800	36.520	0.101
155.900	-0.626	0.101
156.000	6.288	0.101
156.100	-5.079	0.101
156.200	24.606	0.101
156.300	16.143	0.101
156.400	10.031	0.101
156.500	-9.502	0.101
156.600	-25.151	0.101
156.700	-21.356	0.100
156.800	25.214	0.101
156.900	32.245	0.101
157.000	0.724	0.101
157.100	-8.500	0.101
157.200	5.456	0.101
157.300	-25.500	0.101
157.400	-7.328	0.101
157.500	5.235	0.101
157.600	-15.162	0.101
157.700	19.402	0.101
157.800	-0.655	0.101
157.900	4.556	0.101
158.000	28.059	0.101
158.100	9.054	0.101
158.200	15.961	0.101
158.300	21.603	0.101
158.400	-20.839	0.101
158.500	30.809	0.101
158.600	-9.253	0.101
158.700	-24.683	0.101
158.800	10.687	0.101
158.900	-16.130	0.101
159.000	3.137	0.101
159.100	-10.780	0.101
159.200	10.634	0.101
159.300	-5.690	0.101
159.400	-22.670	0.101
159.500	36.244	0.101
159.600	5.326	0.100
159.700	-0.888	0.100
159.800	15.131	0.101
159.900	-6.514	0.101
160.000	-29.639	0.101
160.100	-4.737	0.101
160.200	-8.676	0.101
160.300	-28.543	0.101
160.400	9.252	0.101
160.500	-0.095	0.101
160.600	13.722	0.100
160.700	-10.440	0.101
160.800	-39.643	0.101
160.900	2.548	0.101
161.000	9.244	0.101
161.100	-27.075	0.101
161.200	-5.799	0.101
161.300	23.914	0.101
161.400	16.446	0.101
161.500	-23.575	0.101
161.600	5.999	0.101
161.700	-5.225	0.101
161.800	-7.523	0.101
161.900	9.695	0.101
162.000	7.899	0.101
162.100	10.339	0.101
162.200	-28.182	0.101
162.300	-28.193	0.101
162.400	10.684	0.101
162.500	-29.843	0.101
162.600	-2.653	0.101
162.700	23.934	0.101
162.800	-4.476	0.101
162.900	-7.798	0.101
163.000	-28.909	0.101
163.100	-5.561	0.101
163.200	-12.390	0.101
163.300	-3.085	0.101
163.400	-30.332	0.101
163.500	6.832	0.101
163.600	7.502	0.101
163.700	-44.355	0.100
163.800	5.256	0.100
163.900	19.586	0.101
164.000	14.140	0.101
164.100	-10.529	0.101
164.200	6.366	0.101
164.300	-0.554	0.101
164.400	26.966	0.101
164.500	4.026	0.101
164.600	13.042	0.101
164.700	-24.119	0.101
164.800	-3.246	0.101
164.900	-8.393	0.101
165.000	-19.488	0.101
165.100	-24.260	0.101
165.200	-14.213	0.101
165.300	-27.158	0.101
165.400	22.943	0.101
165.500	-3.731	0.101
165.600	-2.126	0.101
165.700	19.107	0.101
165.800	18.302	0.101
165.900	-23.734	0.100
166.000	-11.587	0.101
166.100	2.179	0.101
166.200	29.071	0.101
166.300	-20.676	0.101
166.400	-3.627	0.101
166.500	-5.841	0.101
166.600	17.898	0.101
166.700	5.403	0.101
166.800	-45.951	0.101
166.900	22.178	0.101
167.000	6.274	0.101
167.100	-21.731	0.101
167.200	-13.113	0.100
167.300	-31.032	0.100
167.400	11.836	0.101
167.500	-10.488	0.101
167.600	-26.076	0.101
167.700	-6.168	0.101
167.800	-8.855	0.101
167.900	-5.315	0.101
168.000	17.124	0.101
168.100	14.994	0.101
168.200	14.112	0.101
168.300	32.148	0.101
168.400	-15.406	0.101
168.500	-1.836	0.101
168.600	-8.666	0.101
168.700	9.049	0.101
168.800	-31.301	0.101
168.900	1.154	0.101
169.000	-6.125	0.101
169.100	-39.351	0.101
169.200	-22.711	0.101
169.300	1.147	0.101
169.400	-24.686	0.101
169.500	23.866	0.101
169.600	-16.050	0.101
169.700	-30.457	0.101
169.800	10.978	0.101
169.900	-8.898	0.100
170.000	5.194	0.101
170.100	-6.778	0.101
170.200	-9.858	0.101
170.300	-11.879	0.101
170.400	-2.758	0.101
170.500	-9.117	0.100
170.600	-7.445	0.101
170.700	-19.629	0.101
170.800	21.565	0.101
170.900	19.714	0.101
171.000	-37.942	0.101
171.100	-33.044	0.101
171.200	20.219	0.101
171.300	-11.449	0.101
171.400	-19.805	0.101
171.500	9.256	0.101
171.600	-1.072	0.101
171.700	-15.868	0.101
171.800	-1.775	0.101
171.900	-17.435	0.101
172.000	-5.463	0.101
172.100	-8.831	0.101
172.200	-7.939	0.101
172.300	3.004	0.101
172.400	-19.864	0.101
172.500	5.554	0.101
172.600	4.133	0.101
172.700	-3.104	0.101
172.800	-5.208	0.101
172.900	-11.957	0.101
173.000	9.191	0.101
173.100	15.663	0.101
173.200	12.311	0.101
173.300	20.450	0.101
173.400	-34.143	0.101
173.500	-2.340	0.101
173.600	-47.092	0.100
173.700	20.629	0.101
173.800	-32.943	0.101
173.900	8.586	0.101
174.000	5.980	0.101
174.100	31.251	0.101
174.200	-0.848	0.101
174.300	1.323	0.101
174.400	-11.147	0.101
174.500	-12.830	0.101
174.600	37.567	0.101
174.700	-11.099	0.101
174.800	31.725	0.101
174.900	16.839	0.101
175.000	-25.434	0.101
175.100	17.776	0.101
175.200	-28.386	0.101
175.300	-11.084	0.101
175.400	-14.113	0.100
175.500	26.453	0.101
175.600	31.599	0.101
175.700	-10.886	0.101
175.800	-11.223	0.101
175.900	-17.883	0.101
176.000	-31.695	0.101
176.100	17.546	0.101
176.200	-10.995	0.101
176.300	30.385	0.101
176.400	-22.756	0.101
176.500	-13.657	0.101
176.600	-22.509	0.101
176.700	-11.795	0.101
176.800	2.559	0.101
176.900	8.908	0.101
177.000	-15.422	0.101
177.100	26.136	0.101
177.200	-13.022	0.101
177.300	-13.023	0.101
177.400	22.719	0.101
177.500	-3.814	0.101
177.600	9.823	0.101
177.700	-0.083	0.101
177.800	-10.626	0.101
177.900	-15.873	0.101
178.000	-11.707	0.101
178.100	-5.420	0.100
178.200	-25.787	0.101
178.300	13.478	0.101
178.400	-7.351	0.101
178.500	6.205	0.101
178.600	-11.035	0.101
178.700	-17.765	0.101
178.800	4.559	0.100
178.900	9.505	0.101
179.000	-24.665	0.101
179.100	-36.282	0.101
179.200	-4.574	0.101
179.300	-6.684	0.101
179.400	2.927	0.101
179.500	14.866	0.100
179.600	11.216	0.101
179.700	-9.541	0.101
179.800	14.071	0.101
179.900	-25.009	0.100
180.000	-15.050	0.101
180.100	-18.671	0.101
180.200	5.149	0.101
180.300	-14.000	0.101
180.400	-14.921	0.101
180.500	12.297	0.101
180.600	1.475	0.101
180.700	-8.831	0.101
180.800	-3.716	0.101
180.900	7.746	0.101
181.000	8.332	0.101
181.100	11.683	0.101
181.200	8.241	0.100
181.300	-1.770	0.100
181.400	-14.177	0.101
181.500	-24.363	0.101
181.600	4.046	0.100
181.700	-8.310	0.101
181.800	15.307	0.101
181.900	2.063	0.101
182.000	-4.584	0.101
182.100	-14.997	0.101
182.200	-10.263	0.101
182.300	11.145	0.101
182.400	3.971	0.101
182.500	-16.562	0.101
182.600	-13.955	0.101
182.700	7.956	0.101
182.800	-12.357	0.101
182.900	9.674	0.101
183.000	9.760	0.101
183.100	-12.115	0.101
183.200	5.674	0.101
183.300	-2.999	0.100
183.400	-19.463	0.101
183.500	20.433	0.101
183.600	9.871	0.101
183.700	-14.258	0.101
183.800	38.051	0.101
183.900	21.343	0.101
184.000	1.893	0.100
184.100	12.813	0.101
184.200	-21.664	0.101
184.300	-3.952	0.101
184.400	0.657	0.101
184.500	3.330	0.101
184.600	2.616	0.101
184.700	13.964	0.101
184.800	17.805	0.101
184.900	14.859	0.101
185.000	-16.573	0.101
185.100	33.595	0.101
185.200	-42.946	0.101
185.300	19.243	0.101
185.400	16.972	0.101
185.500	9.597	0.100
185.600	13.262	0.101
185.700	9.165	0.101
185.800	7.309	0.101
185.900	9.349	0.101
186.000	-10.554	0.100
186.100	29.305	0.101
186.200	-7.275	0.100
186.300	4.246	0.100
186.400	3.097	0.100
186.500	-16.909	0.100
186.600	-13.664	0.101
186.700	59.335	0.100
186.800	-11.540	0.101
186.900	-10.033	0.101
187.000	3.309	0.100
187.100	-1.384	0.101
187.200	28.513	0.101
187.300	-0.040	0.101
187.400	9.059	0.101
187.500	37.498	0.101
187.600	-13.530	0.100
187.700	8.945	0.100
187.800	-17.989	0.100
187.900	9.932	0.100
188.000	30.122	0.100
188.100	20.821	0.100
188.200	9.093	0.100
188.300	33.945	0.100
188.400	-37.602	0.100
188.500	3.434	0.100
188.600	27.641	0.100
188.700	23.173	0.100
188.800	-14.128	0.100
188.900	5.512	0.100
189.000	-10.005	0.100
189.100	-14.534	0.100
189.200	8.675	0.100
189.300	-7.894	0.100
189.400	17.894	0.101
189.500	29.517	0.101
189.600	14.609	0.100
189.700	-19.390	0.101
189.800	-9.295	0.101
189.900	34.934	0.100
190.000	4.956	0.101
190.100	67.221	0.100
190.200	-26.803	0.101
190.300	-14.866	0.101
190.400	-22.669	0.100
190.500	41.292	0.101
190.600	20.038	0.100
190.700	-2.284	0.100
190.800	23.989	0.100
190.900	-9.865	0.100
191.000	-8.169	0.101
191.100	16.247	0.101
191.200	16.124	0.101
191.300	29.324	0.100
191.400	1.936	0.100
191.500	15.616	0.100
191.600	-1.090	0.100
191.700	48.403	0.101
191.800	-17.837	0.100
191.900	0.161	0.101
192.000	33.085	0.101
192.100	15.634	0.101
192.200	33.465	0.101
192.300	8.389	0.100
192.400	25.272	0.101
192.500	21.271	0.100
192.600	8.317	0.100
192.700	1.428	0.100
192.800	7.308	0.100
192.900	32.391	0.101
193.000	5.146	0.101
193.100	-0.399	0.101
193.200	-4.180	0.101
193.300	30.116	0.101
193.400	18.552	0.101
193.500	48.101	0.101
193.600	50.741	0.101
193.700	43.294	0.101
193.800	10.821	0.101
193.900	-17.890	0.101
194.000	-6.274	0.101
194.100	20.082	0.101
194.200	6.291	0.101
194.300	31.285	0.101
194.400	33.545	0.101
194.500	5.837	0.100
194.600	-1.354	0.100
194.700	19.633	0.100
194.800	28.372	0.100
194.900	43.983	0.101
195.000	0.966	0.101
195.100	28.038	0.101
195.200	-6.449	0.101
195.300	-16.426	0.100
195.400	15.626	0.100
195.500	15.813	0.101
195.600	16.155	0.101
195.700	19.430	0.101
195.800	6.227	0.101
195.900	1.364	0.101
196.000	14.538	0.100
196.100	3.007	0.100
196.200	20.384	0.100
196.300	6.629	0.100
196.400	21.560	0.101
196.500	14.360	0.101
196.600	-2.941	0.101
196.700	-13.783	0.100
196.800	0.242	0.101
196.900	37.729	0.101
197.000	38.404	0.100
197.100	14.579	0.100
197.200	2.805	0.100
197.300	-1.601	0.101
197.400	10.079	0.101
197.500	21.801	0.101
197.600	45.207	0.101
197.700	8.743	0.100
197.800	26.580	0.101
197.900	-15.424	0.101
198.000	19.933	0.100
198.100	-15.931	0.100
198.200	25.829	0.100
198.300	17.255	0.101
198.400	9.186	0.101
198.500	34.282	0.100
198.600	-24.047	0.100
198.700	-10.364	0.100
198.800	4.887	0.101
198.900	48.019	0.101
199.000	-4.764	0.100
199.100	30.686	0.100
199.200	18.827	0.100
199.300	53.260	0.100
199.400	-4.595	0.101
199.500	2.408	0.100
199.600	24.112	0.100
199.700	14.494	0.100
199.800	18.794	0.100
199.900	34.846	0.101
200.000	2.049	0.100
200.100	33.488	0.100
200.200	24.419	0.101
200.300	28.813	0.101
200.400	47.654	0.100
200.500	3.334	0.101
200.600	28.648	0.100
200.700	31.779	0.101
200.800	3.863	0.100
200.900	20.839	0.100
201.000	37.353	0.100
201.100	19.446	0.100
201.200	28.755	0.100
201.300	25.159	0.101
201.400	45.031	0.101
201.500	18.699	0.100
201.600	3.698	0.100
201.700	2.875	0.100
201.800	21.958	0.100
201.900	11.172	0.100
202.000	15.700	0.100
202.100	16.733	0.100
202.200	9.260	0.100
202.300	30.642	0.100
202.400	9.462	0.100
202.500	22.414	0.101
202.600	26.839	0.100
202.700	12.250	0.100
202.800	-3.514	0.100
202.900	44.405	0.101
203.000	20.000	0.100
203.100	10.537	0.100
203.200	36.465	0.100
203.300	45.803	0.101
203.400	9.277	0.100
203.500	26.305	0.100
203.600	-7.905	0.100
203.700	4.919	0.101
203.800	40.475	0.100
203.900	31.784	0.100
204.000	8.568	0.101
204.100	17.795	0.100
204.200	2.370	0.101
204.300	5.404	0.100
204.400	-15.490	0.100
204.500	22.982	0.101
204.600	23.448	0.100
204.700	22.077	0.100
204.800	21.112	0.101
204.900	42.603	0.101
205.000	8.771	0.100
205.100	20.223	0.101
205.200	17.832	0.100
205.300	53.320	0.101
205.400	9.246	0.100
205.500	18.578	0.100
205.600	20.878	0.100
205.700	-7.590	0.100
205.800	30.521	0.100
205.900	61.789	0.101
206.000	25.263	0.100
206.100	-8.681	0.100
206.200	14.836	0.100
206.300	30.789	0.101
206.400	13.004	0.100
206.500	32.631	0.100
206.600	3.972	0.100
206.700	25.931	0.100
206.800	37.960	0.100
206.900	12.066	0.100
207.000	-3.812	0.100
207.100	10.496	0.100
207.200	7.681	0.101
207.300	25.870	0.101
207.400	17.107	0.100
207.500	29.846	0.101
207.600	-17.419	0.100
207.700	30.652	0.101
207.800	45.539	0.101
207.900	17.802	0.101
208.000	35.335	0.100
208.100	25.825	0.101
208.200	7.391	0.100
208.300	6.511	0.100
208.400	12.769	0.100
208.500	17.450	0.101
208.600	60.597	0.101
208.700	-18.297	0.101
208.800	40.214	0.101
208.900	51.832	0.100
209.000	-9.578	0.100
209.100	25.462	0.101
209.200	21.137	0.100
209.300	2.383	0.100
209.400	14.147	0.100
209.500	45.729	0.100
209.600	25.657	0.100
209.700	7.210	0.100
209.800	2.253	0.101
209.900	31.990	0.100
210.000	29.599	0.101
210.100	22.424	0.101
210.200	-3.626	0.101
210.300	24.378	0.101
210.400	17.428	0.100
210.500	24.889	0.100
210.600	35.063	0.101
210.700	21.120	0.100
210.800	28.611	0.101
210.900	5.001	0.101
211.000	40.999	0.100
211.100	3.865	0.101
211.200	11.753	0.101
211.300	-14.457	0.101
211.400	3.964	0.100
211.500	12.994	0.101
211.600	30.254	0.100
211.700	38.859	0.101
211.800	17.055	0.101
211.900	16.274	0.101
212.000	6.170	0.101
212.100	-8.103	0.101
212.200	27.201	0.101
212.300	12.056	0.101
212.400	38.158	0.101
212.500	-9.632	0.101
212.600	65.146	0.100
212.700	8.854	0.101
212.800	12.810	0.101
212.900	3.009	0.101
213.000	46.080	0.101
213.100	4.331	0.100
213.200	33.145	0.101
213.300	38.455	0.101
213.400	-2.375	0.100
213.500	26.558	0.100
213.600	48.432	0.101
213.700	8.947	0.101
213.800	31.158	0.100
213.900	31.682	0.100
214.000	4.271	0.101
214.100	27.481	0.100
214.200	-8.385	0.100
214.300	33.793	0.100
214.400	38.239	0.101
214.500	17.210	0.100
214.600	25.533	0.100
214.700	26.078	0.101
214.800	1.529	0.101
214.900	30.650	0.101
215.000	17.895	0.101
215.100	24.547	0.101
215.200	-17.635	0.100
215.300	34.314	0.100
215.400	44.623	0.101
215.500	17.771	0.100
215.600	23.024	0.100
215.700	36.403	0.101
215.800	1.894	0.101
215.900	6.082	0.101
216.000	17.085	0.100
216.100	17.438	0.100
216.200	28.164	0.101
216.300	9.320	0.101
216.400	57.594	0.101
216.500	29.801	0.101
216.600	17.016	0.101
216.700	42.554	0.101
216.800	17.669	0.100
216.900	18.663	0.101
217.000	-0.871	0.101
217.100	29.761	0.101
217.200	36.598	0.101
217.300	32.790	0.101
217.400	37.520	0.100
217.500	33.691	0.101
217.600	21.332	0.101
217.700	14.978	0.101
217.800	4.184	0.101
217.900	10.293	0.100
218.000	19.289	0.100
218.100	16.817	0.101
218.200	-0.798	0.101
218.300	26.526	0.101
218.400	27.221	0.101
218.500	24.586	0.101
218.600	46.898	0.101
218.700	5.541	0.101
218.800	54.747	0.101
218.900	12.844	0.100
219.000	65.110	0.101
219.100	49.072	0.100
219.200	16.953	0.100
219.300	0.431	0.100
219.400	29.497	0.100
219.500	33.242	0.101
219.600	25.186	0.100
219.700	26.611	0.101
219.800	9.503	0.101
219.900	42.122	0.100
220.000	33.015	0.101
220.100	34.301	0.100
220.200	39.423	0.100
220.300	31.266	0.100
220.400	35.118	0.101
220.500	17.811	0.100
220.600	15.421	0.100
220.700	33.942	0.101
220.800	26.045	0.100
220.900	25.824	0.101
221.000	32.799	0.101
221.100	8.147	0.101
221.200	40.154	0.101
221.300	27.514	0.101
221.400	29.695	0.100
221.500	42.172	0.101
221.600	18.715	0.101
221.700	30.296	0.101
221.800	25.687	0.101
221.900	6.300	0.101
222.000	55.189	0.101
222.100	-2.629	0.101
222.200	29.117	0.101
222.300	14.621	0.100
222.400	21.985	0.100
222.500	34.683	0.101
222.600	15.534	0.100
222.700	60.722	0.101
222.800	52.469	0.101
222.900	49.212	0.101
223.000	18.909	0.101
223.100	-7.101	0.100
223.200	10.026	0.101
223.300	38.973	0.101
223.400	40.460	0.101
223.500	24.562	0.100
223.600	37.590	0.100
223.700	31.109	0.101
223.800	14.541	0.101
223.900	6.695	0.101
224.000	32.191	0.101
224.100	20.005	0.101
224.200	27.568	0.101
224.300	52.483	0.101
224.400	27.653	0.101
224.500	30.540	0.101
224.600	13.947	0.101
224.700	29.471	0.101
224.800	39.192	0.101
224.900	29.545	0.101
225.000	15.556	0.101
225.100	31.212	0.100
225.200	20.471	0.101
225.300	4.957	0.101
225.400	31.473	0.101
225.500	15.794	0.101
225.600	32.032	0.101
225.700	28.143	0.101
225.800	41.016	0.101
225.900	27.821	0.101
226.000	28.617	0.101
226.100	-2.706	0.101
226.200	9.837	0.101
226.300	52.814	0.101
226.400	52.391	0.101
226.500	31.752	0.101
226.600	39.033	0.101
226.700	40.908	0.101
226.800	31.706	0.101
226.900	22.615	0.101
227.000	22.009	0.100
227.100	75.436	0.101
227.200	32.850	0.100
227.300	23.232	0.101
227.400	40.138	0.101
227.500	15.146	0.101
227.600	15.318	0.101
227.700	28.490	0.100
227.800	9.597	0.101
227.900	51.228	0.101
228.000	32.730	0.100
228.100	33.119	0.101
228.200	19.187	0.100
228.300	54.802	0.101
228.400	11.340	0.100
228.500	21.089	0.101
228.600	98.225	0.101
228.700	2.344	0.101
228.800	50.789	0.101
228.900	34.828	0.101
229.000	44.178	0.101
229.100	23.518	0.101
229.200	29.644	0.101
229.300	12.671	0.101
229.400	28.711	0.101
229.500	32.584	0.101
229.600	52.689	0.101
229.700	23.651	0.101
229.800	51.761	0.101
229.900	32.101	0.101
230.000	16.862	0.101
230.100	50.572	0.101
230.200	-3.978	0.101
230.300	43.448	0.101
230.400	52.097	0.101
230.500	10.193	0.101
230.600	31.231	0.101
230.700	45.548	0.100
230.800	22.638	0.101
230.900	24.240	0.101
231.000	13.063	0.101
231.100	8.842	0.101
231.200	5.940	0.101
231.300	9.886	0.101
231.400	59.709	0.101
231.500	56.477	0.100
231.600	10.512	0.101
231.700	-11.382	0.101
231.800	27.919	0.101
231.900	59.535	0.101
232.000	39.377	0.101
232.100	22.934	0.101
232.200	55.044	0.101
232.300	19.494	0.101
232.400	7.059	0.101
232.500	41.839	0.101
232.600	-5.323	0.101
232.700	31.238	0.101
232.800	32.357	0.101
232.900	39.160	0.101
233.000	25.012	0.101
233.100	22.262	0.101
233.200	57.310	0.101
233.300	33.195	0.101
233.400	50.562	0.101
233.500	19.613	0.101
233.600	35.743	0.101
233.700	-9.150	0.101
233.800	25.147	0.101
233.900	-1.009	0.101
234.000	30.692	0.101
234.100	72.611	0.101
234.200	22.188	0.101
234.300	-13.131	0.101
234.400	29.328	0.101
234.500	34.851	0.101
234.600	31.966	0.101
234.700	2.007	0.101
234.800	59.444	0.101
234.900	26.160	0.101
235.000	18.389	0.101
235.100	96.573	0.101
235.200	47.412	0.101
235.300	17.781	0.101
235.400	30.049	0.101
235.500	42.344	0.101
235.600	34.128	0.101
235.700	33.608	0.101
235.800	44.242	0.101
235.900	21.070	0.101
236.000	33.196	0.101
236.100	41.529	0.101
236.200	27.838	0.101
236.300	56.980	0.101
236.400	46.843	0.101
236.500	17.591	0.101
236.600	63.408	0.101
236.700	12.295	0.101
236.800	45.214	0.101
236.900	-5.642	0.101
237.000	32.506	0.101
237.100	13.253	0.101
237.200	64.942	0.101
237.300	24.958	0.101
237.400	20.139	0.101
237.500	43.483	0.101
237.600	37.936	0.101
237.700	6.565	0.101
237.800	39.034	0.101
237.900	49.521	0.101
238.000	51.476	0.101
238.100	29.978	0.101
238.200	21.440	0.101
238.300	4.126	0.101
238.400	9.222	0.101
238.500	59.037	0.101
238.600	13.279	0.101
238.700	14.331	0.101
238.800	35.565	0.101
238.900	24.750	0.101
239.000	30.674	0.101
239.100	36.865	0.101
239.200	45.010	0.101
239.300	17.221	0.101
239.400	55.024	0.101
239.500	32.076	0.101
239.600	76.321	0.101
239.700	18.111	0.101
239.800	44.343	0.101
239.900	48.748	0.101
240.000	37.699	0.101
240.100	26.612	0.101
240.200	11.123	0.101
240.300	50.095	0.101
240.400	52.314	0.101
240.500	15.256	0.101
240.600	52.314	0.101
240.700	27.556	0.101
240.800	49.205	0.101
240.900	-23.593	0.101
241.000	37.511	0.101
241.100	42.474	0.101
241.200	17.591	0.101
241.300	16.022	0.101
241.400	54.607	0.101
241.500	4.089	0.101
241.600	25.542	0.101
241.700	36.287	0.101
241.800	16.782	0.101
241.900	50.795	0.101
242.000	55.241	0.101
242.100	31.959	0.101
242.200	29.001	0.101
242.300	37.388	0.101
242.400	32.949	0.101
242.500	42.279	0.101
242.600	2.390	0.101
242.700	43.790	0.101
242.800	23.541	0.101
242.900	45.528	0.101
243.000	4.447	0.101
243.100	13.120	0.101
243.200	41.448	0.101
243.300	12.477	0.101
243.400	69.161	0.101
243.500	58.923	0.101
243.600	1.976	0.101
243.700	44.996	0.101
243.800	29.069	0.101
243.900	20.434	0.101
244.000	44.957	0.101
244.100	14.438	0.101
244.200	37.054	0.101
244.300	43.206	0.101
244.400	-3.297	0.101
244.500	74.964	0.101
244.600	-29.790	0.101
244.700	52.353	0.101
244.800	4.409	0.101
244.900	7.636	0.101
245.000	24.581	0.101
245.100	9.318	0.101
245.200	21.135	0.101
245.300	12.305	0.101
245.400	29.598	0.101
245.500	13.831	0.101
245.600	37.448	0.101
245.700	22.177	0.101
245.800	31.891	0.101
245.900	36.835	0.101
246.000	-21.514	0.101
246.100	-1.147	0.101
246.200	6.352	0.101
246.300	21.856	0.101
246.400	40.877	0.101
246.500	6.795	0.101
246.600	6.936	0.101
246.700	20.576	0.101
246.800	14.400	0.101
246.900	26.246	0.101
247.000	30.557	0.101
247.100	17.611	0.101
247.200	0.840	0.101
247.300	-4.841	0.101
247.400	31.841	0.101
247.500	7.428	0.101
247.600	45.057	0.101
247.700	22.896	0.101
247.800	32.578	0.101
247.900	21.522	0.101
248.000	31.473	0.101
248.100	23.293	0.101
248.200	27.520	0.101
248.300	8.851	0.101
248.400	18.322	0.101
248.500	26.301	0.101
248.600	19.435	0.101
248.700	1.162	0.101
248.800	41.087	0.101
248.900	38.794	0.101
249.000	27.900	0.101
249.100	4.415	0.101
249.200	31.294	0.101
249.300	38.579	0.101
249.400	-0.387	0.101
249.500	15.487	0.101
249.600	34.971	0.101
249.700	36.117	0.101
249.800	20.768	0.101
249.900	25.250	0.101
250.000	28.933	0.101
250.100	18.977	0.101
250.200	16.381	0.101
250.300	13.307	0.101
250.400	-2.529	0.101
250.500	27.189	0.101
250.600	40.853	0.101
250.700	31.081	0.101
250.800	-16.021	0.101
250.900	-7.168	0.101
251.000	34.500	0.101
251.100	40.147	0.101
251.200	37.871	0.101
251.300	50.642	0.101
251.400	0.293	0.101
251.500	12.556	0.101
251.600	27.317	0.101
251.700	23.377	0.101
251.800	-24.912	0.101
251.900	23.132	0.101
252.000	30.156	0.101
252.100	2.630	0.101
252.200	27.630	0.101
252.300	15.900	0.101
252.400	22.125	0.101
252.500	23.698	0.101
252.600	9.054	0.101
252.700	21.875	0.101
252.800	15.281	0.101
252.900	21.867	0.101
253.000	53.759	0.101
253.100	-30.249	0.101
253.200	31.209	0.101
253.300	-2.711	0.101
253.400	29.207	0.101
253.500	22.586	0.101
253.600	17.748	0.101
253.700	4.956	0.101
253.800	42.520	0.101
253.900	30.506	0.101
254.000	9.885	0.101
254.100	37.801	0.101
254.200	35.706	0.101
254.300	25.633	0.101
254.400	36.659	0.101
254.500	29.944	0.101
254.600	15.507	0.101
254.700	31.108	0.101
254.800	6.792	0.101
254.900	20.100	0.101
255.000	38.583	0.101
255.100	30.841	0.101
255.200	16.473	0.101
255.300	25.935	0.101
255.400	19.423	0.101
255.500	-2.240	0.101
255.600	27.335	0.101
255.700	30.315	0.101
255.800	10.889	0.101
255.900	25.210	0.101
256.000	55.144	0.101
256.100	28.929	0.101
256.200	-16.070	0.101
256.300	-3.584	0.101
256.400	10.031	0.101
256.500	-3.126	0.101
256.600	26.377	0.101
256.700	48.671	0.101
256.800	5.464	0.101
256.900	40.629	0.101
257.000	10.727	0.101
257.100	-2.175	0.101
257.200	34.027	0.101
257.300	-1.083	0.101
257.400	-5.275	0.101
257.500	14.108	0.101
257.600	11.666	0.101
257.700	30.763	0.101
257.800	8.631	0.101
257.900	8.761	0.101
258.000	18.209	0.101
258.100	17.494	0.101
258.200	34.259	0.101
258.300	26.424	0.101
258.400	9.818	0.101
258.500	18.785	0.101
258.600	-9.288	0.101
258.700	10.620	0.101
258.800	7.591	0.101
258.900	23.577	0.101
259.000	18.061	0.101
259.100	16.584	0.101
259.200	35.530	0.101
259.300	-7.219	0.101
259.400	6.991	0.101
259.500	38.671	0.101
259.600	10.997	0.101
259.700	32.393	0.101
259.800	-0.315	0.101
259.900	32.363	0.101
260.000	21.283	0.101
260.100	44.501	0.101
260.200	21.575	0.101
260.300	22.509	0.101
260.400	13.790	0.101
260.500	14.779	0.101
260.600	16.970	0.101
260.700	8.300	0.101
260.800	35.389	0.101
260.900	14.525	0.101
261.000	21.687	0.101
261.100	-12.070	0.101
261.200	23.112	0.101
261.300	44.665	0.101
261.400	39.678	0.101
261.500	3.909	0.101
261.600	7.278	0.101
261.700	7.545	0.101
261.800	0.048	0.101
261.900	16.075	0.101
262.000	9.837	0.101
262.100	27.302	0.101
262.200	18.086	0.101
262.300	-9.564	0.101
262.400	19.253	0.101
262.500	-10.050	0.101
262.600	19.871	0.101
262.700	2.191	0.101
262.800	32.787	0.101
262.900	-3.282	0.101
263.000	16.191	0.101
263.100	23.845	0.101
263.200	22.044	0.101
263.300	26.460	0.101
263.400	20.097	0.101
263.500	1.182	0.101
263.600	12.023	0.101
263.700	-5.667	0.101
263.800	-4.872	0.101
263.900	7.723	0.101
264.000	8.948	0.101
264.100	-8.000	0.101
264.200	48.183	0.101
264.300	-17.299	0.101
264.400	21.344	0.101
264.500	-15.942	0.101
264.600	5.275	0.101
264.700	28.569	0.101
264.800	2.316	0.101
264.900	-2.327	0.101
265.000	38.352	0.101
265.100	-10.212	0.101
265.200	-2.047	0.101
265.300	14.215	0.101
265.400	33.178	0.101
265.500	16.177	0.101
265.600	33.216	0.101
265.700	-17.516	0.101
265.800	0.993	0.101
265.900	25.422	0.101
266.000	23.692	0.101
266.100	-7.651	0.101
266.200	31.711	0.101
266.300	23.012	0.101
266.400	30.940	0.101
266.500	-9.430	0.101
266.600	1.776	0.101
266.700	3.439	0.101
266.800	6.734	0.101
266.900	15.317	0.101
267.000	17.461	0.101
267.100	35.942	0.101
267.200	-21.330	0.101
267.300	-16.184	0.101
267.400	32.889	0.101
267.500	27.462	0.101
267.600	37.150	0.101
267.700	-1.049	0.101
267.800	-12.075	0.101
267.900	46.467	0.101
268.000	43.692	0.101
268.100	-16.195	0.101
268.200	10.415	0.101
268.300	21.369	0.101
268.400	18.510	0.101
268.500	20.417	0.101
268.600	18.928	0.101
268.700	31.313	0.101
268.800	-6.100	0.101
268.900	3.904	0.101
269.000	4.187	0.101
269.100	3.141	0.101
269.200	17.548	0.101
269.300	24.844	0.101
269.400	5.669	0.101
269.500	16.901	0.101
269.600	13.650	0.101
269.700	14.541	0.101
269.800	-17.022	0.101
269.900	16.674	0.101
270.000	13.674	0.101
270.100	26.874	0.101
270.200	-29.198	0.101
270.300	44.412	0.101
270.400	-9.592	0.101
270.500	7.780	0.101
270.600	-6.227	0.101
270.700	-2.303	0.101
270.800	16.178	0.101
270.900	9.463	0.101
271.000	45.258	0.101
271.100	8.521	0.101
271.200	-8.880	0.101
271.300	-15.213	0.101
271.400	12.791	0.101
271.500	-0.270	0.101
271.600	20.392	0.101
271.700	38.554	0.101
271.800	-13.600	0.101
271.900	1.296	0.101
272.000	26.641	0.101
272.100	3.608	0.101
272.200	36.270	0.101
272.300	-9.191	0.101
272.400	36.445	0.101
272.500	-24.259	0.101
272.600	-21.647	0.101
272.700	2.614	0.101
272.800	14.726	0.101
272.900	-4.649	0.101
273.000	5.730	0.101
273.100	3.232	0.101
273.200	-15.248	0.101
273.300	25.540	0.101
273.400	36.796	0.101
273.500	32.160	0.101
273.600	14.094	0.101
273.700	10.402	0.101
273.800	3.442	0.101
273.900	-16.488	0.101
274.000	-4.576	0.101
274.100	-3.873	0.101
274.200	-7.392	0.101
274.300	-5.233	0.101
274.400	12.555	0.101
274.500	38.353	0.101
274.600	1.026	0.101
274.700	12.604	0.101
274.800	15.023	0.101
274.900	-34.405	0.101
275.000	16.710	0.101
275.100	18.602	0.101
275.200	-11.912	0.101
275.300	4.119	0.101
275.400	27.216	0.101
275.500	-20.354	0.101
275.600	35.946	0.101
275.700	12.896	0.101
275.800	-9.598	0.101
275.900	4.266	0.101
276.000	8.907	0.101
276.100	38.282	0.101
276.200	39.189	0.101
276.300	8.711	0.101
276.400	-8.169	0.101
276.500	-13.513	0.101
276.600	39.112	0.101
276.700	1.552	0.101
276.800	12.551	0.101
276.900	-29.706	0.101
277.000	9.233	0.101
277.100	0.872	0.101
277.200	-7.396	0.101
277.300	19.926	0.101
277.400	3.651	0.101
277.500	22.883	0.101
277.600	-7.118	0.101
277.700	-7.907	0.101
277.800	-10.296	0.101
277.900	27.874	0.101
278.000	19.838	0.101
278.100	-8.717	0.101
278.200	-2.511	0.101
278.300	27.655	0.101
278.400	3.082	0.101
278.500	8.570	0.101
278.600	4.458	0.101
278.700	7.192	0.101
278.800	-6.481	0.101
278.900	20.558	0.101
279.000	1.179	0.101
279.100	8.407	0.101
279.200	-9.025	0.101
279.300	24.863	0.101
279.400	24.941	0.101
279.500	-21.422	0.101
279.600	20.499	0.101
279.700	-2.099	0.101
279.800	-16.087	0.101
279.900	2.170	0.101
280.000	22.632	0.101
280.100	-12.425	0.101
280.200	-4.833	0.101
280.300	-21.586	0.101
280.400	4.214	0.101
280.500	20.709	0.101
280.600	3.002	0.101
280.700	12.891	0.101
280.800	-2.838	0.101
280.900	27.434	0.101
281.000	12.344	0.101
281.100	-20.255	0.101
281.200	15.712	0.101
281.300	-8.887	0.101
281.400	-16.757	0.101
281.500	-22.012	0.101
281.600	-5.818	0.101
281.700	5.053	0.101
281.800	-13.278	0.101
281.900	27.142	0.101
282.000	12.209	0.101
282.100	5.685	0.101
282.200	21.731	0.101
282.300	25.482	0.101
282.400	-4.620	0.101
282.500	-9.893	0.101
282.600	8.063	0.101
282.700	-29.140	0.101
282.800	-5.203	0.101
282.900	16.966	0.101
283.000	6.862	0.101
283.100	-6.186	0.101
283.200	-22.448	0.101
283.300	-1.536	0.101
283.400	27.851	0.101
283.500	15.492	0.101
283.600	29.678	0.101
283.700	20.858	0.101
283.800	-15.154	0.101
283.900	11.890	0.101
284.000	5.087	0.101
284.100	-1.534	0.101
284.200	5.484	0.101
284.300	-12.742	0.101
284.400	14.084	0.101
284.500	26.640	0.101
284.600	14.990	0.101
284.700	-21.070	0.101
284.800	11.104	0.101
284.900	36.805	0.101
285.000	22.175	0.101
285.100	15.572	0.101
285.200	0.957	0.101
285.300	2.663	0.101
285.400	-2.385	0.101
285.500	1.375	0.101
285.600	-15.071	0.101
285.700	17.453	0.101
285.800	-21.294	0.101
285.900	1.228	0.101
286.000	-6.869	0.101
286.100	13.081	0.101
286.200	6.811	0.101
286.300	-13.476	0.101
286.400	4.861	0.101
286.500	-14.055	0.101
286.600	6.479	0.101
286.700	-9.772	0.101
286.800	-20.984	0.101
286.900	12.097	0.101
287.000	-21.686	0.101
287.100	20.002	0.101
287.200	-0.118	0.101
287.300	-2.933	0.101
287.400	10.592	0.101
287.500	-11.743	0.101
287.600	-22.242	0.101
287.700	-8.114	0.101
287.800	1.591	0.101
287.900	4.331	0.101
288.000	-33.874	0.101
288.100	-8.662	0.101
288.200	-13.195	0.101
288.300	-10.087	0.101
288.400	-17.934	0.101
288.500	-19.556	0.101
288.600	11.648	0.101
288.700	25.671	0.101
288.800	-8.737	0.101
288.900	-8.642	0.101
289.000	-28.060	0.101
289.100	32.616	0.101
289.200	22.052	0.101
289.300	-17.463	0.101
289.400	-0.186	0.101
289.500	-27.795	0.101
289.600	-4.591	0.101
289.700	-8.742	0.101
289.800	17.473	0.101
289.900	-0.989	0.101
290.000	-13.301	0.101
290.100	-10.251	0.101
290.200	-4.779	0.101
290.300	-4.708	0.101
290.400	-20.150	0.101
290.500	23.482	0.101
290.600	2.786	0.101
290.700	-23.356	0.101
290.800	5.957	0.101
290.900	17.070	0.101
291.000	-4.632	0.101
291.100	-7.259	0.101
291.200	1.971	0.101
291.300	28.518	0.101
291.400	16.305	0.101
291.500	12.393	0.101
291.600	-17.506	0.101
291.700	21.292	0.101
291.800	6.751	0.101
291.900	3.516	0.101
292.000	-17.808	0.101
292.100	-9.952	0.101
292.200	-3.415	0.101
292.300	14.097	0.101
292.400	-0.303	0.101
292.500	-16.209	0.101
292.600	-10.965	0.101
292.700	-20.670	0.101
292.800	14.998	0.101
292.900	-22.406	0.101
293.000	-10.484	0.101
293.100	-6.946	0.101
293.200	-9.752	0.101
293.300	19.229	0.101
293.400	-16.974	0.101
293.500	-17.093	0.101
293.600	-27.455	0.101
293.700	5.471	0.101
293.800	-10.240	0.101
293.900	-8.658	0.101
294.000	14.545	0.101
294.100	0.379	0.101
294.200	-3.182	0.101
294.300	-14.942	0.101
294.400	1.920	0.101
294.500	-43.578	0.101
294.600	-38.435	0.101
294.700	17.563	0.101
294.800	1.871	0.101
294.900	-37.778	0.101
295.000	-0.292	0.101
295.100	-0.930	0.101
295.200	-5.051	0.101
295.300	5.960	0.101
295.400	-5.660	0.101
295.500	-6.271	0.101
295.600	-8.057	0.101
295.700	-31.988	0.101
295.800	27.155	0.101
295.900	13.229	0.101
296.000	-19.785	0.101
296.100	35.016	0.101
296.200	-4.703	0.101
296.300	-0.906	0.101
296.400	2.446	0.101
296.500	0.874	0.101
296.600	-6.697	0.101
296.700	4.124	0.101
296.800	0.318	0.101
296.900	37.232	0.101
297.000	-7.495	0.101
297.100	-10.490	0.101
297.200	3.635	0.101
297.300	-6.320	0.101
297.400	-17.436	0.101
297.500	-2.138	0.101
297.600	-0.624	0.101
297.700	-3.526	0.101
297.800	13.533	0.101
297.900	-11.236	0.101
298.000	5.220	0.101
298.100	6.106	0.101
298.200	-11.068	0.101
298.300	-30.967	0.101
298.400	1.863	0.101
298.500	8.333	0.101
298.600	-5.175	0.101
298.700	8.104	0.101
298.800	21.038	0.101
298.900	11.324	0.101
299.000	-27.516	0.101
299.100	-0.729	0.101
299.200	7.755	0.101
299.300	-15.834	0.101
299.400	-7.508	0.101
299.500	-24.751	0.101
299.600	6.698	0.101
299.700	32.060	0.101
299.800	-20.528	0.101
299.900	-7.493	0.101
300.000	12.500	0.101
300.100	2.434	0.101
300.200	50.098	0.101
300.300	-7.373	0.101
300.400	-8.564	0.101
300.500	20.531	0.101
300.600	-28.571	0.101
300.700	-0.989	0.101
300.800	9.498	0.101
300.900	-10.208	0.101
301.000	0.401	0.101
301.100	8.913	0.101
301.200	-22.435	0.101
301.300	0.738	0.101
301.400	8.209	0.101
301.500	-4.863	0.101
301.600	28.258	0.101
301.700	11.395	0.101
301.800	-3.841	0.101
301.900	-22.303	0.101
302.000	5.451	0.101
302.100	5.144	0.101
302.200	-5.611	0.101
302.300	12.940	0.101
302.400	3.567	0.101
302.500	-12.348	0.101
302.600	15.875	0.101
302.700	1.603	0.101
302.800	-18.750	0.101
302.900	17.140	0.101
303.000	24.036	0.101
303.100	-3.416	0.101
303.200	-3.130	0.101
303.300	-6.620	0.101
303.400	-11.401	0.101
303.500	13.819	0.101
303.600	-1.283	0.101
303.700	12.244	0.101
303.800	7.177	0.101
303.900	0.023	0.101
304.000	40.175	0.101
304.100	-15.860	0.101
304.200	-14.166	0.101
304.300	16.545	0.101
304.400	-5.731	0.101
304.500	-14.535	0.101
304.600	1.855	0.101
304.700	-11.741	0.101
304.800	-8.617	0.101
304.900	2.422	0.101
305.000	-30.762	0.101
305.100	-29.123	0.101
305.200	-27.268	0.101
305.300	-19.579	0.101
305.400	-9.323	0.101
305.500	-36.627	0.101
305.600	15.435	0.101
305.700	-16.215	0.101
305.800	15.061	0.101
305.900	-2.436	0.101
306.000	-11.266	0.101
306.100	-28.287	0.101
306.200	11.201	0.101
306.300	-8.811	0.101
306.400	-8.163	0.101
306.500	-5.604	0.101
306.600	-29.157	0.101
306.700	-1.346	0.101
306.800	-26.496	0.101
306.900	-2.315	0.101
307.000	-4.571	0.101
307.100	3.701	0.101
307.200	-26.861	0.101
307.300	-20.008	0.101
307.400	3.120	0.101
307.500	3.558	0.101
307.600	-17.121	0.101
307.700	20.339	0.101
307.800	13.197	0.101
307.900	-9.473	0.100
308.000	3.543	0.101
308.100	-5.496	0.100
308.200	-1.648	0.101
308.300	5.923	0.101
308.400	-2.109	0.100
308.500	5.124	0.100
308.600	-9.961	0.100
308.700	11.846	0.100
308.800	-11.042	0.100
308.900	-3.707	0.101
309.000	-12.568	0.100
309.100	0.493	0.100
309.200	-2.938	0.100
309.300	-26.412	0.100
309.400	-1.803	0.100
309.500	-9.571	0.100
309.600	-8.469	0.100
309.700	4.599	0.100
309.800	8.382	0.100
309.900	0.311	0.100
310.000	-8.254	0.100
310.100	-12.661	0.100
310.200	10.442	0.100
310.300	6.268	0.100
310.400	-0.879	0.100
310.500	-5.195	0.100
310.600	22.367	0.100
310.700	-38.291	0.100
310.800	5.157	0.100
310.900	-3.530	0.100
311.000	5.242	0.100
311.100	-44.335	0.100
311.200	20.965	0.100
311.300	-14.396	0.100
311.400	-20.102	0.100
311.500	-0.143	0.100
311.600	6.911	0.100
311.700	7.328	0.100
311.800	-4.257	0.100
311.900	28.527	0.100
312.000	-17.221	0.100
312.100	0.149	0.100
312.200	-17.865	0.100
312.300	-1.809	0.100
312.400	-13.506	0.100
312.500	3.396	0.100
312.600	-2.367	0.100
312.700	2.784	0.100
312.800	-21.811	0.100
312.900	-6.406	0.100
313.000	-11.504	0.100
313.100	-2.014	0.100
313.200	18.322	0.100
313.300	-19.608	0.100
313.400	-2.244	0.100
313.500	2.087	0.100
313.600	-25.786	0.100
313.700	14.745	0.100
313.800	-0.677	0.100
313.900	0.807	0.100
314.000	43.880	0.100
314.100	16.995	0.100
314.200	-1.897	0.100
314.300	-2.572	0.100
314.400	-13.770	0.100
314.500	-13.032	0.100
314.600	-17.169	0.100
314.700	-4.313	0.100
314.800	3.813	0.100
314.900	-25.055	0.100
315.000	-11.822	0.100
315.100	-38.563	0.100
315.200	3.558	0.100
315.300	-10.680	0.100
315.400	15.258	0.100
315.500	5.044	0.100
315.600	17.562	0.100
315.700	-1.669	0.100
315.800	-13.390	0.100
315.900	12.806	0.100
316.000	29.923	0.100
316.100	19.345	0.100
316.200	2.418	0.100
316.300	-13.172	0.100
316.400	-21.982	0.100
316.500	20.574	0.100
316.600	18.054	0.100
316.700	-13.402	0.100
316.800	6.070	0.100
316.900	-40.822	0.100
317.000	-6.351	0.100
317.100	2.050	0.100
317.200	-17.209	0.100
317.300	5.053	0.100
317.400	-10.284	0.100
317.500	-34.088	0.100
317.600	1.744	0.100
317.700	2.262	0.100
317.800	11.965	0.100
317.900	-14.909	0.100
318.000	-3.987	0.100
318.100	-11.730	0.100
318.200	-17.325	0.100
318.300	-7.825	0.100
318.400	8.270	0.100
318.500	-19.563	0.100
318.600	-13.096	0.100
318.700	-6.474	0.100
318.800	-24.950	0.100
318.900	-35.632	0.100
319.000	-7.984	0.100
319.100	38.566	0.100
319.200	-29.779	0.100
319.300	-14.442	0.100
319.400	-26.632	0.100
319.500	-3.012	0.100
319.600	-11.873	0.100
319.700	6.960	0.100
319.800	-15.956	0.100
319.900	-25.916	0.100
320.000	-3.746	0.100
320.100	-6.118	0.100
320.200	-10.025	0.100
320.300	12.634	0.100
320.400	-13.227	0.100
320.500	17.825	0.100
320.600	-8.539	0.100
320.700	-20.774	0.100
320.800	-26.394	0.100
320.900	38.963	0.100
321.000	0.750	0.100
321.100	20.115	0.100
321.200	4.761	0.100
321.300	-24.651	0.100
321.400	1.126	0.100
321.500	-17.954	0.100
321.600	29.230	0.100
321.700	-30.530	0.100
321.800	35.650	0.100
321.900	3.880	0.100
322.000	29.380	0.100
322.100	6.529	0.100
322.200	-15.410	0.100
322.300	-32.399	0.100
322.400	-7.269	0.100
322.500	-4.954	0.100
322.600	9.542	0.100
322.700	-26.611	0.100
322.800	-14.821	0.100
322.900	-11.584	0.100
323.000	5.931	0.100
323.100	23.789	0.100
323.200	-22.311	0.100
323.300	14.404	0.100
323.400	-13.757	0.100
323.500	2.661	0.100
323.600	-41.660	0.100
323.700	-17.368	0.100
323.800	24.434	0.100
323.900	-21.538	0.100
324.000	-4.680	0.100
324.100	-3.132	0.100
324.200	-1.656	0.100
324.300	0.575	0.100
324.400	-26.045	0.100
324.500	-5.732	0.100
324.600	21.660	0.100
324.700	24.623	0.100
324.800	-7.173	0.100
324.900	-9.268	0.100
325.000	-17.074	0.100
325.100	10.523	0.100
325.200	5.793	0.100
325.300	4.602	0.100
325.400	-30.754	0.100
325.500	-0.011	0.100
325.600	5.467	0.100
325.700	19.495	0.100
325.800	2.304	0.100
325.900	20.623	0.100
326.000	27.067	0.100
326.100	-13.942	0.100
326.200	-13.993	0.100
326.300	5.796	0.100
326.400	-13.034	0.100
326.500	6.564	0.100
326.600	-4.163	0.100
326.700	-8.719	0.100
326.800	-4.227	0.100
326.900	1.128	0.100
327.000	-6.531	0.100
327.100	24.222	0.100
327.200	0.994	0.100
327.300	-2.867	0.100
327.400	-53.697	0.100
327.500	-1.423	0.100
327.600	20.386	0.100
327.700	0.472	0.100
327.800	-0.133	0.100
327.900	24.509	0.100
328.000	13.348	0.100
328.100	-7.754	0.100
328.200	-4.977	0.100
328.300	20.586	0.100
328.400	20.335	0.100
328.500	-18.760	0.100
328.600	22.869	0.100
328.700	23.101	0.100
328.800	-26.855	0.100
328.900	-6.745	0.100
329.000	7.161	0.100
329.100	-12.159	0.100
329.200	9.050	0.100
329.300	30.269	0.100
329.400	5.488	0.100
329.500	-33.129	0.100
329.600	-20.612	0.100
329.700	-7.868	0.100
329.800	-39.060	0.100
329.900	2.506	0.100
330.000	-7.988	0.100
330.100	-14.581	0.101
330.200	24.432	0.101
330.300	11.509	0.100
330.400	-14.670	0.100
330.500	1.306	0.101
330.600	-13.749	0.101
330.700	-15.365	0.101
330.800	18.418	0.101
330.900	19.004	0.101
331.000	-2.788	0.101
331.100	4.840	0.101
331.200	-6.678	0.101
331.300	6.091	0.101
331.400	-4.357	0.101
331.500	-1.075	0.101
331.600	40.257	0.101
331.700	-23.507	0.101
331.800	8.665	0.101
331.900	13.725	0.101
332.000	2.719	0.101
332.100	16.853	0.101
332.200	-26.008	0.101
332.300	8.919	0.101
332.400	-24.802	0.101
332.500	18.654	0.101
332.600	10.536	0.101
332.700	34.978	0.101
332.800	7.521	0.101
332.900	-8.685	0.101
333.000	-4.431	0.101
333.100	-22.275	0.101
333.200	-15.285	0.101
333.300	-6.967	0.101
333.400	18.546	0.101
333.500	7.961	0.101
333.600	19.570	0.101
333.700	-29.496	0.101
333.800	-13.670	0.101
333.900	13.288	0.101
334.000	16.140	0.101
334.100	-28.050	0.101
334.200	-14.946	0.101
334.300	23.928	0.101
334.400	-26.350	0.101
334.500	-26.578	0.101
334.600	8.594	0.101
334.700	33.826	0.101
334.800	-5.980	0.101
334.900	-2.966	0.101
335.000	1.994	0.101
335.100	-28.476	0.101
335.200	39.735	0.101
335.300	6.709	0.101
335.400	44.232	0.101
335.500	-14.133	0.101
335.600	29.594	0.101
335.700	2.637	0.101
335.800	-25.987	0.101
335.900	20.227	0.101
336.000	-7.567	0.101
336.100	5.045	0.101
336.200	36.764	0.101
336.300	4.768	0.101
336.400	12.426	0.101
336.500	17.317	0.101
336.600	6.448	0.101
336.700	28.717	0.101
336.800	-3.869	0.101
336.900	25.804	0.101
337.000	19.734	0.101
337.100	7.049	0.101
337.200	-14.334	0.101
337.300	6.780	0.101
337.400	16.721	0.101
337.500	-19.360	0.101
337.600	21.345	0.101
337.700	9.637	0.101
337.800	-21.382	0.101
337.900	-35.777	0.101
338.000	20.748	0.101
338.100	21.788	0.101
338.200	23.753	0.101
338.300	-20.111	0.101
338.400	-21.086	0.101
338.500	24.101	0.101
338.600	-25.639	0.101
338.700	12.552	0.101
338.800	-3.092	0.101
338.900	0.795	0.101
339.000	25.857	0.101
339.100	15.118	0.101
339.200	11.567	0.101
339.300	-0.748	0.101
339.400	-16.771	0.101
339.500	1.028	0.101
339.600	-33.311	0.101
339.700	37.776	0.101
339.800	18.989	0.101
339.900	22.323	0.101
340.000	6.270	0.101
340.100	-21.205	0.101
340.200	4.872	0.101
340.300	20.498	0.101
340.400	5.117	0.101
340.500	3.620	0.101
340.600	-14.524	0.101
340.700	-25.198	0.100
340.800	14.802	0.101
340.900	14.293	0.101
341.000	20.347	0.101
341.100	-19.283	0.101
341.200	12.831	0.101
341.300	24.099	0.101
341.400	10.645	0.101
341.500	-1.845	0.101
341.600	-9.364	0.101
341.700	7.068	0.101
341.800	5.054	0.101
341.900	3.086	0.101
342.000	10.622	0.101
342.100	14.194	0.101
342.200	7.364	0.101
342.300	20.543	0.101
342.400	-22.973	0.101
342.500	17.742	0.101
342.600	44.064	0.101
342.700	-1.846	0.101
342.800	33.694	0.101
342.900	34.521	0.101
343.000	13.915	0.101
343.100	6.389	0.101
343.200	-9.674	0.101
343.300	17.287	0.101
343.400	-13.314	0.101
343.500	3.132	0.101
343.600	23.116	0.101
343.700	47.634	0.101
343.800	32.207	0.101
343.900	26.801	0.101
344.000	-9.354	0.101
344.100	19.094	0.101
344.200	7.673	0.101
344.300	-7.177	0.101
344.400	42.841	0.101
344.500	20.308	0.101
344.600	-9.406	0.101
344.700	1.409	0.101
344.800	21.894	0.101
344.900	-20.110	0.101
345.000	5.296	0.101
345.100	-5.365	0.101
345.200	24.387	0.101
345.300	21.420	0.101
345.400	16.752	0.101
345.500	-9.789	0.101
345.600	2.612	0.101
345.700	9.118	0.101
345.800	-15.861	0.101
345.900	5.916	0.101
346.000	15.697	0.101
346.100	4.135	0.101
346.200	9.807	0.101
346.300	34.399	0.101
346.400	28.015	0.101
346.500	13.966	0.101
346.600	8.249	0.101
346.700	20.549	0.101
346.800	-3.933	0.101
346.900	-16.774	0.100
347.000	-14.079	0.101
347.100	11.283	0.101
347.200	26.463	0.101
347.300	0.020	0.101
347.400	27.139	0.101
347.500	17.984	0.101
347.600	15.569	0.101
347.700	10.137	0.100
347.800	-0.005	0.101
347.900	27.802	0.101
348.000	-20.537	0.101
348.100	-17.760	0.101
348.200	9.965	0.101
348.300	24.883	0.101
348.400	-0.960	0.101
348.500	14.533	0.101
348.600	17.370	0.101
348.700	16.062	0.100
348.800	4.802	0.101
348.900	11.765	0.101
349.000	9.623	0.100
349.100	-2.496	0.100
349.200	-2.396	0.101
349.300	16.648	0.101
349.400	31.044	0.101
349.500	33.169	0.100
349.600	12.472	0.100
349.700	14.475	0.101
349.800	50.699	0.100
349.900	-14.653	0.101
350.000	40.762	0.101
350.100	-0.779	0.101
350.200	30.237	0.101
350.300	-14.852	0.101
350.400	9.334	0.101
350.500	-14.759	0.101
350.600	-2.134	0.101
350.700	6.082	0.101
350.800	53.434	0.101
350.900	24.840	0.101
351.000	-5.134	0.101
351.100	8.417	0.100
351.200	21.960	0.101
351.300	5.828	0.101
351.400	16.931	0.101
351.500	30.564	0.101
351.600	42.757	0.101
351.700	42.207	0.101
351.800	9.924	0.101
351.900	9.039	0.100
352.000	19.365	0.101
352.100	31.507	0.101
352.200	20.475	0.101
352.300	32.264	0.101
352.400	16.656	0.100
352.500	-12.233	0.100
352.600	13.074	0.101
352.700	-5.870	0.101
352.800	30.040	0.101
352.900	35.910	0.101
353.000	-12.560	0.101
353.100	28.404	0.101
353.200	-28.623	0.101
353.300	22.350	0.101
353.400	36.888	0.101
353.500	-11.589	0.100
353.600	3.618	0.101
353.700	11.255	0.101
353.800	3.624	0.101
353.900	4.304	0.100
354.000	-0.267	0.101
354.100	-2.167	0.101
354.200	18.170	0.101
354.300	39.096	0.101
354.400	38.242	0.101
354.500	14.893	0.101
354.600	20.405	0.100
354.700	16.110	0.101
354.800	39.585	0.101
354.900	-28.538	0.101
355.000	-3.130	0.100
355.100	14.680	0.101
355.200	24.213	0.101
355.300	51.059	0.101
355.400	5.746	0.101
355.500	4.296	0.101
355.600	43.202	0.101
355.700	31.243	0.101
355.800	22.281	0.101
355.900	34.660	0.101
356.000	-5.251	0.101
356.100	9.821	0.101
356.200	-11.934	0.100
356.300	25.275	0.101
356.400	9.710	0.101
356.500	22.928	0.101
356.600	7.409	0.101
356.700	21.554	0.101
356.800	32.951	0.101
356.900	5.876	0.101
357.000	24.359	0.101
357.100	0.476	0.100
357.200	29.961	0.101
357.300	-19.884	0.100
357.400	31.338	0.101
357.500	51.438	0.101
357.600	27.746	0.101
357.700	31.007	0.100
357.800	32.591	0.101
357.900	28.378	0.101
358.000	27.866	0.101
358.100	-6.959	0.101
358.200	-1.896	0.101
358.300	6.746	0.101
358.400	14.207	0.101
358.500	61.985	0.101
358.600	26.192	0.100
358.700	12.112	0.101
358.800	56.504	0.101
358.900	10.649	0.101
359.000	21.662	0.101
359.100	31.688	0.101
359.200	11.515	0.100
359.300	13.113	0.101
359.400	-5.034	0.101
359.500	18.114	0.101
359.600	12.459	0.101
359.700	-11.819	0.101
359.800	51.914	0.101
359.900	17.672	0.101
360.000	-14.597	0.101
360.100	6.247	0.101
360.200	22.301	0.101
360.300	21.364	0.101
360.400	1.608	0.101
360.500	43.012	0.101
360.600	23.815	0.101
360.700	34.684	0.101
360.800	32.451	0.101
360.900	27.372	0.101
361.000	31.562	0.101
361.100	38.001	0.101
361.200	16.044	0.101
361.300	64.562	0.101
361.400	10.776	0.101
361.500	18.430	0.101
361.600	0.103	0.101
361.700	9.497	0.101
361.800	52.960	0.101
361.900	-7.411	0.101
362.000	41.413	0.101
362.100	17.637	0.101
362.200	23.034	0.101
362.300	18.265	0.101
362.400	50.051	0.101
362.500	17.171	0.101
362.600	3.492	0.101
362.700	9.465	0.101
362.800	-0.526	0.101
362.900	-0.165	0.101
363.000	21.436	0.101
363.100	11.421	0.101
363.200	40.634	0.101
363.300	30.119	0.101
363.400	12.160	0.101
363.500	-9.627	0.101
363.600	14.159	0.101
363.700	25.290	0.101
363.800	19.523	0.101
363.900	20.843	0.101
364.000	35.006	0.101
364.100	29.431	0.101
364.200	24.537	0.101
364.300	15.044	0.100
364.400	57.302	0.101
364.500	-12.695	0.101
364.600	51.129	0.101
364.700	19.941	0.101
364.800	0.436	0.101
364.900	24.222	0.100
365.000	24.947	0.100
365.100	28.858	0.101
365.200	30.044	0.101
365.300	38.239	0.101
365.400	16.344	0.101
365.500	58.830	0.101
365.600	36.613	0.101
365.700	14.763	0.101
365.800	34.829	0.101
365.900	24.792	0.101
366.000	18.793	0.101
366.100	52.485	0.101
366.200	49.961	0.101
366.300	8.558	0.101
366.400	29.328	0.101
366.500	14.156	0.101
366.600	18.976	0.101
366.700	16.082	0.101
366.800	68.256	0.101
366.900	24.905	0.101
367.000	38.287	0.101
367.100	20.496	0.101
367.200	32.226	0.101
367.300	8.403	0.100
367.400	23.853	0.101
367.500	35.520	0.101
367.600	26.134	0.101
367.700	-8.642	0.101
367.800	-1.170	0.101
367.900	26.246	0.101
368.000	51.531	0.101
368.100	19.367	0.101
368.200	40.526	0.101
368.300	35.783	0.101
368.400	42.866	0.100
368.500	37.021	0.101
368.600	53.190	0.101
368.700	-2.371	0.100
368.800	38.438	0.101
368.900	9.590	0.101
369.000	67.441	0.101
369.100	48.545	0.101
369.200	52.377	0.101
369.300	0.340	0.101
369.400	34.949	0.101
369.500	8.641	0.101
369.600	24.700	0.101
369.700	48.342	0.101
369.800	-13.242	0.101
369.900	23.997	0.101
370.000	45.836	0.101
370.100	30.859	0.101
370.200	36.806	0.100
370.300	12.874	0.101
370.400	5.727	0.101
370.500	36.469	0.100
370.600	9.317	0.100
370.700	40.303	0.101
370.800	41.097	0.101
370.900	-5.596	0.101
371.000	61.755	0.101
371.100	21.599	0.100
371.200	11.067	0.100
371.300	-2.992	0.101
371.400	25.783	0.101
371.500	48.646	0.101
371.600	31.472	0.101
371.700	33.897	0.100
371.800	38.494	0.100
371.900	15.521	0.101
372.000	27.683	0.100
372.100	21.097	0.100
372.200	11.613	0.101
372.300	25.121	0.101
372.400	35.116	0.101
372.500	19.456	0.101
372.600	30.224	0.101
372.700	40.746	0.101
372.800	21.555	0.101
372.900	27.054	0.101
373.000	57.505	0.101
373.100	18.122	0.101
373.200	42.170	0.101
373.300	17.817	0.101
373.400	28.535	0.101
373.500	1.241	0.101
373.600	28.082	0.101
373.700	12.904	0.101
373.800	8.871	0.101
373.900	31.675	0.101
374.000	7.712	0.101
374.100	49.846	0.101
374.200	29.226	0.101
374.300	51.944	0.101
374.400	10.237	0.100
374.500	21.701	0.101
374.600	21.100	0.100
374.700	11.771	0.100
374.800	42.863	0.101
374.900	0.648	0.101
375.000	2.059	0.101
375.100	36.944	0.101
375.200	5.397	0.101
375.300	-1.430	0.101
375.400	38.697	0.101
375.500	4.894	0.101
375.600	32.932	0.101
375.700	45.940	0.101
375.800	-4.177	0.101
375.900	45.989	0.101
376.000	26.319	0.101
376.100	27.364	0.100
376.200	25.827	0.101
376.300	32.377	0.101
376.400	60.842	0.101
376.500	34.480	0.101
376.600	36.989	0.101
376.700	-3.238	0.101
376.800	42.397	0.101
376.900	27.481	0.101
377.000	59.833	0.101
377.100	18.054	0.101
377.200	29.389	0.101
377.300	21.027	0.101
377.400	36.695	0.101
377.500	50.921	0.101
377.600	61.904	0.101
377.700	23.190	0.101
377.800	27.300	0.101
377.900	26.990	0.101
378.000	51.887	0.101
378.100	38.852	0.101
378.200	48.216	0.101
378.300	30.842	0.101
378.400	-7.373	0.100
378.500	17.546	0.101
378.600	59.850	0.101
378.700	35.896	0.101
378.800	23.198	0.101
378.900	21.913	0.101
379.000	48.837	0.101
379.100	55.294	0.101
379.200	35.315	0.101
379.300	49.742	0.101
379.400	22.836	0.101
379.500	39.422	0.101
379.600	15.396	0.100
379.700	32.832	0.101
379.800	6.689	0.101
379.900	-1.381	0.100
380.000	47.359	0.101
380.100	24.399	0.101
380.200	52.143	0.101
380.300	37.041	0.100
380.400	21.586	0.101
380.500	36.319	0.101
380.600	26.160	0.101
380.700	54.645	0.101
380.800	-4.565	0.101
380.900	26.196	0.101
381.000	42.397	0.101
381.100	46.633	0.101
381.200	6.350	0.101
381.300	50.612	0.101
381.400	31.762	0.101
381.500	32.815	0.101
381.600	8.315	0.101
381.700	41.957	0.101
381.800	65.576	0.101
381.900	35.214	0.101
382.000	42.426	0.101
382.100	34.689	0.101
382.200	49.478	0.101
382.300	13.460	0.101
382.400	49.984	0.101
382.500	53.001	0.100
382.600	31.931	0.101
382.700	18.663	0.101
382.800	0.346	0.101
382.900	45.105	0.101
383.000	44.807	0.101
383.100	44.296	0.101
383.200	41.472	0.101
383.300	70.162	0.101
383.400	8.497	0.101
383.500	12.407	0.101
383.600	21.551	0.101
383.700	53.119	0.101
383.800	22.094	0.101
383.900	52.736	0.101
384.000	68.675	0.101
384.100	34.683	0.101
384.200	24.713	0.101
384.300	48.596	0.101
384.400	22.655	0.101
384.500	1.807	0.101
384.600	6.497	0.101
384.700	25.171	0.101
384.800	24.601	0.101
384.900	25.834	0.101
385.000	39.188	0.101
385.100	8.899	0.101
385.200	21.448	0.101
385.300	36.718	0.101
385.400	47.007	0.100
385.500	28.338	0.101
385.600	-5.560	0.101
385.700	34.538	0.101
385.800	6.397	0.101
385.900	22.482	0.101
386.000	68.627	0.101
386.100	39.055	0.101
386.200	55.046	0.101
386.300	19.769	0.101
386.400	33.383	0.101
386.500	37.734	0.101
386.600	44.585	0.101
386.700	31.683	0.101
386.800	40.692	0.101
386.900	9.470	0.101
387.000	27.663	0.101
387.100	43.525	0.101
387.200	45.735	0.101
387.300	33.576	0.101
387.400	44.220	0.101
387.500	48.507	0.101
387.600	14.779	0.101
387.700	42.877	0.101
387.800	24.693	0.101
387.900	17.103	0.101
388.000	61.803	0.101
388.100	32.507	0.101
388.200	24.829	0.101
388.300	63.209	0.101
388.400	26.874	0.101
388.500	44.363	0.101
388.600	6.586	0.101
388.700	73.692	0.101
388.800	42.385	0.101
388.900	44.384	0.101
389.000	38.800	0.101
389.100	13.141	0.101
389.200	62.075	0.101
389.300	18.305	0.101
389.400	47.148	0.101
389.500	-1.699	0.101
389.600	38.792	0.101
389.700	12.871	0.101
389.800	20.268	0.101
389.900	39.421	0.101
390.000	32.525	0.101
390.100	28.307	0.101
390.200	28.653	0.101
390.300	21.197	0.101
390.400	53.128	0.101
390.500	23.767	0.101
390.600	21.093	0.101
390.700	-9.222	0.101
390.800	31.939	0.101
390.900	44.757	0.101
391.000	43.078	0.101
391.100	15.208	0.101
391.200	32.513	0.101
391.300	60.601	0.101
391.400	31.836	0.101
391.500	19.128	0.101
391.600	34.647	0.101
391.700	22.065	0.101
391.800	6.987	0.101
391.900	48.418	0.101
392.000	56.885	0.101
392.100	2.864	0.101
392.200	20.399	0.101
392.300	69.292	0.101
392.400	28.928	0.101
392.500	30.301	0.101
392.600	31.234	0.101
392.700	42.979	0.101
392.800	45.377	0.101
392.900	41.997	0.101
393.000	41.934	0.101
393.100	55.970	0.101
393.200	18.880	0.101
393.300	23.654	0.101
393.400	32.270	0.101
393.500	43.088	0.101
393.600	2.631	0.101
393.700	16.799	0.101
393.800	18.431	0.101
393.900	-2.746	0.101
394.000	20.558	0.101
394.100	-9.440	0.101
394.200	59.572	0.101
394.300	14.811	0.101
394.400	29.396	0.101
394.500	26.698	0.101
394.600	19.148	0.101
394.700	41.879	0.101
394.800	32.445	0.101
394.900	24.428	0.101
395.000	22.956	0.101
395.100	33.234	0.101
395.200	44.423	0.101
395.300	-16.598	0.101
395.400	13.549	0.101
395.500	49.117	0.101
395.600	1.885	0.101
395.700	48.960	0.101
395.800	24.711	0.101
395.900	47.665	0.101
396.000	-0.198	0.101
396.100	11.987	0.101
396.200	22.350	0.101
396.300	29.788	0.101
396.400	26.037	0.101
396.500	13.959	0.101
396.600	38.453	0.101
396.700	35.155	0.101
396.800	21.393	0.101
396.900	31.175	0.101
397.000	21.028	0.101
397.100	24.443	0.101
397.200	39.479	0.101
397.300	20.424	0.101
397.400	33.461	0.101
397.500	13.037	0.101
397.600	30.981	0.101
397.700	15.128	0.101
397.800	27.469	0.101
397.900	30.747	0.101
398.000	37.800	0.101
398.100	12.696	0.101
398.200	24.154	0.101
398.300	31.109	0.101
398.400	32.278	0.101
398.500	20.449	0.101
398.600	42.459	0.101
398.700	25.351	0.101
398.800	17.291	0.101
398.900	9.602	0.101
399.000	44.669	0.101
399.100	31.251	0.101
399.200	-1.911	0.101
399.300	23.380	0.101
399.400	40.111	0.101
399.500	5.910	0.101
399.600	0.001	0.101
399.700	26.907	0.101
399.800	15.514	0.101
399.900	35.316	0.101
400.000	29.917	0.101
400.100	7.607	0.101
400.200	13.439	0.101
400.300	34.244	0.101
400.400	21.973	0.101
400.500	13.096	0.101
400.600	7.424	0.101
400.700	41.082	0.101
400.800	33.069	0.101
400.900	-1.406	0.101
401.000	39.659	0.101
401.100	-2.509	0.101
401.200	25.368	0.101
401.300	20.485	0.101
401.400	7.954	0.101
401.500	8.317	0.101
401.600	8.784	0.101
401.700	24.178	0.101
401.800	18.519	0.101
401.900	35.083	0.101
402.000	39.105	0.101
402.100	8.867	0.101
402.200	55.279	0.100
402.300	19.733	0.101
402.400	2.439	0.101
402.500	-6.304	0.101
402.600	16.736	0.101
402.700	-0.833	0.101
402.800	18.546	0.101
402.900	12.126	0.101
403.000	6.565	0.101
403.100	20.897	0.101
403.200	5.773	0.101
403.300	17.937	0.101
403.400	27.598	0.101
403.500	41.558	0.101
403.600	9.601	0.101
403.700	1.993	0.101
403.800	20.437	0.101
403.900	24.999	0.101
404.000	23.941	0.101
404.100	5.506	0.101
404.200	26.769	0.101
404.300	35.019	0.101
404.400	14.053	0.101
404.500	26.796	0.101
404.600	-22.728	0.101
404.700	15.047	0.101
404.800	27.426	0.101
404.900	34.718	0.101
405.000	18.726	0.101
405.100	9.730	0.101
405.200	-7.563	0.101
405.300	-10.510	0.101
405.400	19.409	0.101
405.500	26.144	0.101
405.600	21.920	0.101
405.700	31.881	0.101
405.800	-28.277	0.101
405.900	12.025	0.101
406.000	24.149	0.101
406.100	38.323	0.101
406.200	12.612	0.101
406.300	12.912	0.101
406.400	4.345	0.101
406.500	14.566	0.101
406.600	51.636	0.101
406.700	42.931	0.101
406.800	-8.064	0.101
406.900	27.240	0.100
407.000	19.835	0.101
407.100	6.377	0.101
407.200	-5.698	0.101
407.300	25.688	0.101
407.400	24.005	0.101
407.500	10.422	0.101
407.600	11.445	0.101
407.700	12.966	0.101
407.800	8.148	0.101
407.900	-4.625	0.101
408.000	26.006	0.101
408.100	-12.022	0.101
408.200	22.689	0.101
408.300	31.454	0.101
408.400	17.846	0.101
408.500	8.128	0.101
408.600	21.382	0.101
408.700	10.894	0.101
408.800	-0.098	0.101
408.900	43.914	0.101
409.000	-0.793	0.101
409.100	-1.363	0.101
409.200	28.692	0.101
409.300	8.233	0.101
409.400	43.034	0.101
409.500	25.874	0.101
409.600	-22.618	0.101
409.700	18.807	0.101
409.800	21.394	0.101
409.900	-0.934	0.101
410.000	34.295	0.101
410.100	-2.925	0.101
410.200	51.886	0.101
410.300	41.866	0.101
410.400	1.404	0.101
410.500	43.398	0.101
410.600	19.163	0.101
410.700	22.553	0.101
410.800	-19.704	0.101
410.900	17.222	0.100
411.000	27.513	0.101
411.100	-6.273	0.101
411.200	30.223	0.101
411.300	22.616	0.101
411.400	38.013	0.101
411.500	22.292	0.101
411.600	13.342	0.101
411.700	34.144	0.101
411.800	16.310	0.101
411.900	5.853	0.101
412.000	3.451	0.101
412.100	12.336	0.101
412.200	4.953	0.101
412.300	31.333	0.101
412.400	34.501	0.101
412.500	39.470	0.101
412.600	15.217	0.101
412.700	-12.265	0.101
412.800	16.626	0.101
412.900	27.696	0.101
413.000	2.471	0.101
413.100	19.626	0.101
413.200	11.791	0.101
413.300	16.546	0.101
413.400	-6.911	0.101
413.500	11.460	0.101
413.600	-4.213	0.101
413.700	16.061	0.101
413.800	8.599	0.101
413.900	29.735	0.101
414.000	1.979	0.101
414.100	28.348	0.101
414.200	6.974	0.101
414.300	16.262	0.101
414.400	39.658	0.101
414.500	21.133	0.101
414.600	16.462	0.101
414.700	17.205	0.101
414.800	14.617	0.101
414.900	17.282	0.101
415.000	13.246	0.101
415.100	-4.159	0.101
415.200	24.528	0.101
415.300	-0.892	0.100
415.400	17.985	0.101
415.500	18.153	0.101
415.600	39.143	0.101
415.700	-21.011	0.101
415.800	18.251	0.101
415.900	17.688	0.101
416.000	24.709	0.101
416.100	3.985	0.101
416.200	33.685	0.101
416.300	-13.728	0.101
416.400	-31.510	0.101
416.500	29.363	0.101
416.600	27.300	0.101
416.700	3.063	0.101
416.800	27.099	0.101
416.900	-16.178	0.101
417.000	11.548	0.101
417.100	0.178	0.101
417.200	20.806	0.101
417.300	-3.548	0.101
417.400	26.895	0.101
417.500	16.674	0.101
417.600	60.289	0.101
417.700	-0.835	0.101
417.800	35.607	0.101
417.900	21.974	0.101
418.000	15.808	0.101
418.100	2.586	0.101
418.200	0.123	0.101
418.300	-13.894	0.101
418.400	3.944	0.101
418.500	69.192	0.101
418.600	18.518	0.101
418.700	26.766	0.101
418.800	-5.664	0.101
418.900	3.636	0.101
419.000	17.271	0.101
419.100	10.070	0.100
419.200	14.697	0.101
419.300	-7.991	0.101
419.400	47.591	0.101
419.500	0.664	0.101
419.600	-2.155	0.101
419.700	24.307	0.101
419.800	-12.925	0.101
419.900	30.738	0.101
420.000	29.251	0.101
420.100	-1.031	0.101
420.200	-25.489	0.101
420.300	-7.485	0.101
420.400	-1.476	0.101
420.500	-1.083	0.101
420.600	12.925	0.101
420.700	28.965	0.101
420.800	7.039	0.101
420.900	-4.020	0.101
421.000	36.263	0.101
421.100	9.665	0.101
421.200	13.448	0.101
421.300	-14.080	0.101
421.400	29.729	0.101
421.500	-1.543	0.101
421.600	19.325	0.101
421.700	-0.546	0.101
421.800	0.278	0.101
421.900	-17.560	0.101
422.000	54.058	0.101
422.100	4.523	0.101
422.200	6.083	0.101
422.300	10.811	0.101
422.400	-8.538	0.101
422.500	9.924	0.101
422.600	20.189	0.101
422.700	7.724	0.101
422.800	9.866	0.101
422.900	24.190	0.101
423.000	-6.044	0.101
423.100	18.876	0.101
423.200	-18.370	0.101
423.300	-2.476	0.101
423.400	18.619	0.101
423.500	24.157	0.101
423.600	18.679	0.101
423.700	2.157	0.101
423.800	-11.722	0.101
423.900	35.394	0.101
424.000	-23.984	0.101
424.100	26.520	0.101
424.200	4.675	0.101
424.300	8.590	0.101
424.400	15.419	0.101
424.500	15.409	0.101
424.600	10.019	0.101
424.700	21.565	0.101
424.800	28.209	0.101
424.900	-16.136	0.101
425.000	15.176	0.101
425.100	-3.593	0.101
425.200	14.530	0.101
425.300	20.477	0.101
425.400	12.707	0.101
425.500	50.198	0.101
425.600	-10.930	0.101
425.700	23.344	0.101
425.800	20.695	0.101
425.900	17.459	0.101
426.000	28.996	0.101
426.100	16.850	0.101
426.200	25.129	0.101
426.300	5.610	0.101
426.400	-5.869	0.101
426.500	3.552	0.101
426.600	13.025	0.101
426.700	23.646	0.101
426.800	-17.187	0.101
426.900	-28.451	0.101
427.000	15.585	0.101
427.100	9.914	0.101
427.200	15.698	0.101
427.300	9.586	0.101
427.400	-2.767	0.101
427.500	-12.568	0.101
427.600	11.748	0.101
427.700	-13.453	0.101
427.800	-2.498	0.101
427.900	-4.623	0.101
428.000	34.490	0.101
428.100	4.129	0.101
428.200	24.504	0.101
428.300	14.311	0.101
428.400	33.552	0.101
428.500	17.440	0.101
428.600	6.487	0.101
428.700	0.291	0.101
428.800	-28.734	0.101
428.900	6.100	0.101
429.000	82.214	0.101
429.100	9.005	0.101
429.200	18.076	0.101
429.300	-4.906	0.101
429.400	-27.618	0.101
429.500	24.396	0.101
429.600	18.238	0.101
429.700	-1.136	0.101
429.800	-13.141	0.101
429.900	-16.547	0.101
430.000	8.533	0.101
430.100	-0.007	0.101
430.200	-9.273	0.101
430.300	15.491	0.101
430.400	-5.723	0.101
430.500	0.200	0.101
430.600	8.176	0.101
430.700	-11.268	0.101
430.800	14.273	0.101
430.900	-8.057	0.101
431.000	-8.192	0.101
431.100	30.889	0.101
431.200	9.270	0.101
431.300	51.117	0.101
431.400	-1.108	0.101
431.500	-14.154	0.101
431.600	-9.717	0.101
431.700	5.815	0.101
431.800	-1.234	0.101
431.900	-1.588	0.101
432.000	-7.854	0.101
432.100	-0.091	0.101
432.200	7.353	0.101
432.300	-20.188	0.101
432.400	6.260	0.101
432.500	-14.947	0.101
432.600	18.912	0.101
432.700	-28.669	0.101
432.800	22.553	0.101
432.900	12.981	0.101
433.000	10.965	0.101
433.100	-9.818	0.101
433.200	1.989	0.101
433.300	-8.594	0.101
433.400	-11.865	0.101
433.500	5.271	0.101
433.600	-15.028	0.101
433.700	-28.406	0.101
433.800	22.329	0.101
433.900	-18.373	0.101
434.000	30.560	0.101
434.100	-13.419	0.101
434.200	-3.729	0.101
434.300	6.613	0.101
434.400	-22.414	0.101
434.500	22.766	0.101
434.600	6.538	0.101
434.700	33.443	0.101
434.800	1.170	0.101
434.900	-4.251	0.101
435.000	-9.703	0.101
435.100	-16.613	0.101
435.200	-4.268	0.101
435.300	0.103	0.101
435.400	3.196	0.101
435.500	23.159	0.101
435.600	3.093	0.101
435.700	11.181	0.101
435.800	8.409	0.101
435.900	7.841	0.101
436.000	2.105	0.101
436.100	-6.007	0.101
436.200	21.632	0.101
436.300	4.355	0.101
436.400	-21.004	0.101
436.500	26.745	0.101
436.600	8.550	0.101
436.700	8.632	0.101
436.800	4.670	0.101
436.900	27.365	0.101
437.000	-3.491	0.101
437.100	7.859	0.101
437.200	-29.793	0.101
437.300	39.874	0.101
437.400	-21.598	0.101
437.500	11.968	0.101
437.600	5.326	0.101
437.700	-10.050	0.101
437.800	27.496	0.101
437.900	-17.752	0.101
438.000	29.777	0.101
438.100	-13.007	0.101
438.200	-18.204	0.101
438.300	-5.194	0.101
438.400	-11.323	0.101
438.500	14.915	0.101
438.600	-22.083	0.101
438.700	-20.666	0.101
438.800	0.461	0.101
438.900	7.828	0.101
439.000	17.344	0.101
439.100	6.265	0.101
439.200	3.447	0.101
439.300	-12.452	0.101
439.400	-28.516	0.101
439.500	15.958	0.101
439.600	12.968	0.101
439.700	8.983	0.101
439.800	-1.091	0.101
439.900	-10.805	0.101
440.000	30.752	0.101
440.100	16.137	0.101
440.200	-3.008	0.101
440.300	-11.094	0.101
440.400	8.161	0.101
440.500	-16.410	0.101
440.600	-16.140	0.101
440.700	5.131	0.101
440.800	-12.756	0.101
440.900	33.687	0.101
441.000	-5.427	0.101
441.100	-17.942	0.101
441.200	-11.568	0.101
441.300	-12.460	0.101
441.400	17.204	0.101
441.500	-1.903	0.101
441.600	20.610	0.101
441.700	16.540	0.101
441.800	-1.317	0.101
441.900	7.384	0.101
442.000	36.833	0.101
442.100	-31.300	0.101
442.200	16.059	0.101
442.300	17.790	0.101
442.400	10.821	0.101
442.500	3.703	0.101
442.600	-1.418	0.101
442.700	4.064	0.101
442.800	-5.364	0.101
442.900	34.949	0.101
443.000	-18.194	0.101
443.100	-5.850	0.101
443.200	11.072	0.101
443.300	-28.981	0.101
443.400	17.967	0.101
443.500	-2.278	0.101
443.600	0.171	0.101
443.700	17.399	0.101
443.800	17.112	0.101
443.900	4.360	0.101
444.000	-29.763	0.101
444.100	41.012	0.101
444.200	13.312	0.101
444.300	23.734	0.101
444.400	-16.921	0.101
444.500	4.432	0.101
444.600	12.845	0.101
444.700	12.745	0.101
444.800	-14.175	0.101
444.900	33.930	0.101
445.000	12.219	0.101
445.100	-3.247	0.101
445.200	4.375	0.101
445.300	-31.399	0.101
445.400	-13.132	0.101
445.500	23.877	0.101
445.600	13.845	0.101
445.700	15.159	0.101
445.800	-11.494	0.101
445.900	-21.655	0.101
446.000	-0.925	0.101
446.100	27.363	0.101
446.200	26.341	0.101
446.300	-1.966	0.101
446.400	-15.245	0.101
446.500	14.976	0.101
446.600	2.512	0.101
446.700	-20.215	0.101
446.800	-18.723	0.101
446.900	18.208	0.101
447.000	-1.617	0.101
447.100	11.645	0.101
447.200	-18.187	0.101
447.300	-26.642	0.101
447.400	-15.094	0.101
447.500	-6.544	0.101
447.600	-12.009	0.101
447.700	-18.290	0.101
447.800	-11.421	0.101
447.900	28.315	0.101
448.000	-20.399	0.101
448.100	32.699	0.101
448.200	-10.255	0.101
448.300	10.748	0.101
448.400	-10.436	0.101
448.500	0.796	0.101
448.600	4.268	0.101
448.700	-11.333	0.101
448.800	0.480	0.101
448.900	-20.107	0.101
449.000	37.261	0.101
449.100	-4.735	0.101
449.200	19.354	0.101
449.300	3.498	0.101
449.400	11.154	0.101
449.500	1.654	0.101
449.600	-1.894	0.101
449.700	-35.464	0.101
449.800	17.684	0.101
449.900	-5.198	0.101
450.000	15.656	0.101
450.100	10.037	0.101
450.200	-24.741	0.101
450.300	-0.869	0.101
450.400	-7.399	0.101
450.500	-3.368	0.101
450.600	11.611	0.101
450.700	4.875	0.101
450.800	-4.927	0.101
450.900	-37.655	0.101
451.000	8.331	0.101
451.100	-15.053	0.101
451.200	10.136	0.101
451.300	18.637	0.101
451.400	10.810	0.101
451.500	16.793	0.101
451.600	36.812	0.101
451.700	-12.980	0.101
451.800	1.311	0.101
451.900	-5.878	0.101
452.000	-3.397	0.101
452.100	-12.882	0.101
452.200	-13.655	0.101
452.300	-5.324	0.101
452.400	-23.043	0.101
452.500	18.054	0.101
452.600	1.189	0.101
452.700	-11.421	0.101
452.800	-15.883	0.101
452.900	10.855	0.101
453.000	44.526	0.101
453.100	-8.617	0.101
453.200	-16.167	0.101
453.300	11.442	0.101
453.400	16.546	0.101
453.500	11.468	0.101
453.600	6.239	0.101
453.700	-0.923	0.101
453.800	26.704	0.101
453.900	3.128	0.101
454.000	-7.843	0.101
454.100	23.202	0.101
454.200	-44.367	0.101
454.300	-2.839	0.101
454.400	-23.430	0.101
454.500	5.615	0.101
454.600	-22.701	0.101
454.700	34.760	0.101
454.800	12.448	0.101
454.900	7.728	0.101
455.000	-24.121	0.101
455.100	-8.314	0.101
455.200	8.644	0.101
455.300	-0.424	0.101
455.400	2.116	0.101
455.500	3.182	0.101
455.600	2.546	0.101
455.700	5.702	0.101
455.800	-0.783	0.101
455.900	30.316	0.101
456.000	-5.222	0.101
456.100	4.468	0.101
456.200	3.184	0.101
456.300	6.675	0.101
456.400	-7.428	0.101
456.500	-31.978	0.101
456.600	-6.328	0.101
456.700	10.682	0.101
456.800	-8.954	0.101
456.900	-10.091	0.101
457.000	-2.407	0.101
457.100	-6.507	0.101
457.200	13.535	0.101
457.300	5.779	0.101
457.400	-10.083	0.101
457.500	-24.066	0.101
457.600	12.720	0.101
457.700	-5.376	0.101
457.800	-28.023	0.101
457.900	7.699	0.100
458.000	34.246	0.101
458.100	-8.023	0.101
458.200	-16.416	0.101
458.300	29.766	0.101
458.400	8.354	0.101
458.500	25.656	0.101
458.600	-7.834	0.101
458.700	5.861	0.101
458.800	-3.948	0.101
458.900	-30.822	0.101
459.000	-16.755	0.101
459.100	-0.053	0.101
459.200	-25.671	0.101
459.300	-4.924	0.101
459.400	-21.435	0.101
459.500	13.907	0.101
459.600	1.210	0.101
459.700	-15.501	0.101
459.800	-4.727	0.101
459.900	-18.386	0.101
460.000	-16.794	0.101
460.100	-2.682	0.101
460.200	29.148	0.101
460.300	-21.769	0.101
460.400	6.945	0.101
460.500	-25.763	0.101
460.600	2.980	0.101
460.700	-24.684	0.101
460.800	11.363	0.101
460.900	-17.304	0.101
461.000	-2.725	0.101
461.100	-41.063	0.101
461.200	17.670	0.101
461.300	18.627	0.101
461.400	6.587	0.101
461.500	10.140	0.101
461.600	-16.368	0.101
461.700	8.942	0.101
461.800	-26.324	0.101
461.900	-14.622	0.101
462.000	6.509	0.101
462.100	-10.998	0.101
462.200	14.593	0.101
462.300	10.414	0.101
462.400	-23.424	0.101
462.500	23.784	0.101
462.600	11.653	0.101
462.700	13.215	0.101
462.800	-25.396	0.101
462.900	-22.195	0.101
463.000	5.727	0.101
463.100	-41.361	0.100
463.200	-7.931	0.101
463.300	6.846	0.101
463.400	-16.490	0.101
463.500	27.754	0.101
463.600	-2.286	0.101
463.700	8.803	0.101
463.800	-11.598	0.101
463.900	-16.050	0.101
464.000	-7.256	0.101
464.100	-17.383	0.101
464.200	-10.971	0.101
464.300	4.107	0.101
464.400	21.442	0.100
464.500	-19.081	0.101
464.600	24.815	0.101
464.700	-14.931	0.101
464.800	-2.282	0.101
464.900	-13.719	0.101
465.000	33.649	0.100
465.100	4.403	0.101
465.200	-4.636	0.101
465.300	-29.262	0.101
465.400	9.192	0.101
465.500	-9.908	0.101
465.600	-0.287	0.101
465.700	-2.293	0.101
465.800	-1.516	0.101
465.900	-17.973	0.101
466.000	-17.273	0.101
466.100	-4.520	0.101
466.200	0.340	0.101
466.300	-19.883	0.101
466.400	11.032	0.101
466.500	6.240	0.101
466.600	-17.802	0.101
466.700	-13.782	0.101
466.800	3.090	0.101
466.900	5.889	0.101
467.000	14.793	0.101
467.100	-1.932	0.101
467.200	9.208	0.101
467.300	-5.637	0.101
467.400	1.907	0.101
467.500	-7.331	0.101
467.600	3.068	0.101
467.700	20.273	0.101
467.800	10.373	0.101
467.900	12.529	0.101
468.000	-48.242	0.101
468.100	-4.181	0.101
468.200	-9.729	0.101
468.300	-11.605	0.101
468.400	9.171	0.101
468.500	-30.723	0.101
468.600	-36.353	0.101
468.700	30.129	0.101
468.800	-27.268	0.101
468.900	-10.485	0.101
469.000	14.064	0.101
469.100	-23.335	0.101
469.200	3.583	0.101
469.300	5.816	0.101
469.400	-8.280	0.101
469.500	-37.030	0.101
469.600	9.599	0.101
469.700	-2.128	0.100
469.800	-0.850	0.101
469.900	16.912	0.101
470.000	-25.207	0.101
470.100	26.052	0.101
470.200	-21.008	0.101
470.300	4.692	0.101
470.400	-16.171	0.101
470.500	5.286	0.101
470.600	12.491	0.101
470.700	26.220	0.101
470.800	3.059	0.101
470.900	24.658	0.101
471.000	-12.734	0.101
471.100	-20.919	0.101
471.200	8.222	0.101
471.300	-33.524	0.101
471.400	6.839	0.101
471.500	-35.879	0.101
471.600	23.219	0.100
471.700	-38.821	0.101
471.800	16.726	0.101
471.900	1.918	0.101
472.000	-10.257	0.101
472.100	-20.151	0.101
472.200	2.018	0.101
472.300	-16.075	0.101
472.400	-6.126	0.101
472.500	-15.414	0.101
472.600	57.404	0.101
472.700	0.251	0.101
472.800	-30.987	0.101
472.900	-11.842	0.101
473.000	-7.517	0.101
473.100	43.563	0.101
473.200	-16.891	0.101
473.300	-6.573	0.101
473.400	3.234	0.101
473.500	-26.280	0.101
473.600	12.801	0.101
473.700	-17.626	0.101
473.800	-20.451	0.101
473.900	-13.010	0.101
474.000	14.061	0.101
474.100	-21.409	0.101
474.200	-11.470	0.101
474.300	-4.537	0.101
474.400	-37.123	0.100
474.500	10.586	0.100
474.600	1.724	0.101
474.700	4.581	0.101
474.800	19.297	0.101
474.900	19.702	0.101
475.000	-18.614	0.101
475.100	-15.832	0.101
475.200	16.129	0.101
475.300	18.198	0.101
475.400	-31.394	0.101
475.500	9.951	0.101
475.600	-10.234	0.101
475.700	-17.279	0.101
475.800	-31.359	0.101
475.900	-10.882	0.101
476.000	-9.131	0.101
476.100	-15.947	0.101
476.200	-11.431	0.101
476.300	-27.909	0.101
476.400	10.550	0.101
476.500	15.561	0.101
476.600	-8.941	0.101
476.700	-1.169	0.101
476.800	10.590	0.101
476.900	10.589	0.101
477.000	5.117	0.101
477.100	2.965	0.101
477.200	-43.944	0.101
477.300	-14.342	0.101
477.400	-10.555	0.101
477.500	14.486	0.101
477.600	17.255	0.101
477.700	-9.530	0.101
477.800	-10.084	0.101
477.900	0.345	0.101
478.000	-3.681	0.101
478.100	3.269	0.101
478.200	-23.833	0.101
478.300	13.600	0.101
478.400	-27.257	0.101
478.500	-15.727	0.101
478.600	23.838	0.101
478.700	26.747	0.101
478.800	25.893	0.101
478.900	10.456	0.101
479.000	-3.548	0.101
479.100	-37.447	0.101
479.200	-39.611	0.101
479.300	-11.149	0.101
479.400	-1.606	0.101
479.500	7.176	0.101
479.600	-20.847	0.101
479.700	-20.170	0.101
479.800	-2.660	0.101
479.900	0.500	0.101
480.000	-28.481	0.101
480.100	-9.129	0.101
480.200	40.375	0.101
480.300	15.177	0.101
480.400	19.622	0.101
480.500	-7.745	0.101
480.600	2.857	0.101
480.700	-11.161	0.101
480.800	20.056	0.101
480.900	0.801	0.101
481.000	-1.483	0.101
481.100	4.129	0.101
481.200	-1.032	0.101
481.300	23.270	0.101
481.400	8.831	0.101
481.500	21.302	0.101
481.600	10.573	0.101
481.700	13.448	0.101
481.800	-22.719	0.100
481.900	5.501	0.101
482.000	-12.863	0.101
482.100	17.399	0.101
482.200	-22.827	0.100
482.300	-24.158	0.100
482.400	-15.393	0.101
482.500	-18.312	0.101
482.600	1.365	0.101
482.700	12.375	0.101
482.800	-10.034	0.101
482.900	21.418	0.101
483.000	9.268	0.101
483.100	0.227	0.101
483.200	3.807	0.101
483.300	12.960	0.101
483.400	-5.422	0.101
483.500	-17.500	0.101
483.600	19.570	0.101
483.700	1.165	0.101
483.800	-11.643	0.101
483.900	35.336	0.101
484.000	5.790	0.101
484.100	7.590	0.101
484.200	20.079	0.101
484.300	-1.225	0.101
484.400	19.078	0.101
484.500	21.177	0.100
484.600	14.194	0.101
484.700	-13.010	0.101
484.800	-0.109	0.101
484.900	21.967	0.101
485.000	7.714	0.101
485.100	-2.298	0.101
485.200	14.616	0.101
485.300	11.451	0.101
485.400	2.430	0.100
485.500	10.487	0.101
485.600	10.208	0.101
485.700	21.134	0.101
485.800	26.386	0.101
485.900	23.358	0.101
486.000	5.999	0.101
486.100	-11.009	0.101
486.200	15.063	0.101
486.300	9.787	0.101
486.400	12.582	0.101
486.500	9.257	0.101
486.600	-15.824	0.101
486.700	-6.027	0.101
486.800	-15.974	0.101
486.900	22.585	0.101
487.000	19.760	0.101
487.100	23.231	0.101
487.200	31.001	0.101
487.300	6.222	0.101
487.400	-16.166	0.101
487.500	20.835	0.101
487.600	26.109	0.101
487.700	-2.098	0.101
487.800	31.610	0.101
487.900	2.752	0.101
488.000	1.801	0.101
488.100	-0.416	0.101
488.200	15.173	0.101
488.300	12.945	0.101
488.400	21.551	0.101
488.500	13.885	0.100
488.600	-10.236	0.101
488.700	9.779	0.101
488.800	0.665	0.101
488.900	21.927	0.101
489.000	-2.206	0.101
489.100	-6.101	0.101
489.200	24.157	0.101
489.300	12.167	0.101
489.400	13.361	0.101
489.500	2.624	0.101
489.600	13.937	0.101
489.700	-10.628	0.101
489.800	12.699	0.101
489.900	17.493	0.101
490.000	2.541	0.101
490.100	1.067	0.101
490.200	21.034	0.101
490.300	17.860	0.101
490.400	28.784	0.101
490.500	-16.208	0.101
490.600	17.724	0.101
490.700	13.172	0.101
490.800	16.528	0.101
490.900	-29.547	0.101
491.000	8.757	0.101
491.100	-12.548	0.101
491.200	-23.137	0.100
491.300	-16.595	0.101
491.400	11.320	0.101
491.500	-12.243	0.101
491.600	4.975	0.101
491.700	-8.773	0.101
491.800	0.638	0.101
491.900	11.758	0.101
492.000	-28.311	0.101
492.100	-16.698	0.101
492.200	0.710	0.101
492.300	25.123	0.101
492.400	9.904	0.101
492.500	23.114	0.101
492.600	18.575	0.101
492.700	34.328	0.101
492.800	1.026	0.101
492.900	5.767	0.101
493.000	25.703	0.101
493.100	18.918	0.101
493.200	8.547	0.100
493.300	-9.856	0.101
493.400	15.382	0.101
493.500	33.444	0.101
493.600	2.365	0.101
493.700	-14.000	0.101
493.800	32.189	0.101
493.900	-13.732	0.101
494.000	-12.840	0.101
494.100	-1.896	0.101
494.200	8.522	0.101
494.300	23.132	0.101
494.400	-20.067	0.101
494.500	5.283	0.101
494.600	33.493	0.101
494.700	18.850	0.101
494.800	27.485	0.101
494.900	33.332	0.101
495.000	3.608	0.101
495.100	-0.911	0.101
495.200	-22.810	0.101
495.300	14.615	0.101
495.400	6.393	0.101
495.500	-15.304	0.100
495.600	28.363	0.101
495.700	-15.617	0.101
495.800	23.762	0.101
495.900	7.321	0.101
496.000	-5.377	0.101
496.100	5.554	0.101
496.200	-10.436	0.101
496.300	23.593	0.101
496.400	11.548	0.101
496.500	7.116	0.101
496.600	22.077	0.101
496.700	20.455	0.101
496.800	17.263	0.101
496.900	27.613	0.101
497.000	43.108	0.101
497.100	24.777	0.101
497.200	-37.788	0.100
497.300	-4.458	0.101
497.400	-1.845	0.101
497.500	-5.961	0.101
497.600	-2.070	0.101
497.700	23.401	0.101
497.800	12.767	0.101
497.900	-10.089	0.101
498.000	17.851	0.101
498.100	-25.028	0.101
498.200	31.165	0.101
498.300	8.516	0.100
498.400	24.994	0.101
498.500	-14.728	0.100
498.600	3.812	0.101
498.700	14.920	0.101
498.800	-12.521	0.100
498.900	-8.426	0.100
499.000	39.494	0.101
499.100	1.656	0.101
499.200	13.908	0.101
499.300	24.568	0.101
499.400	13.948	0.101
499.500	53.342	0.101
499.600	20.120	0.101
499.700	32.853	0.101
499.800	24.785	0.101
499.900	11.684	0.101
500.000	26.050	0.101
500.100	-8.267	0.101
500.200	21.640	0.101
500.300	11.652	0.101
500.400	19.100	0.101
500.500	1.826	0.101
500.600	12.000	0.101
500.700	5.178	0.101
500.800	-33.924	0.101
500.900	46.346	0.101
501.000	-28.365	0.100
501.100	4.157	0.100
501.200	40.686	0.100
501.300	-6.178	0.101
501.400	4.706	0.101
501.500	13.353	0.101
501.600	-7.062	0.101
501.700	26.256	0.101
501.800	0.146	0.101
501.900	40.543	0.100
502.000	31.528	0.101
502.100	29.058	0.101
502.200	-17.545	0.101
502.300	-12.407	0.101
502.400	28.327	0.101
502.500	6.000	0.101
502.600	25.900	0.101
502.700	23.038	0.101
502.800	-33.151	0.101
502.900	-13.319	0.101
503.000	29.444	0.101
503.100	16.997	0.101
503.200	2.573	0.101
503.300	14.058	0.101
503.400	32.279	0.101
503.500	22.612	0.101
503.600	-11.300	0.101
503.700	0.830	0.101
503.800	20.890	0.101
503.900	22.478	0.101
504.000	1.756	0.101
504.100	1.201	0.101
504.200	-5.059	0.101
504.300	6.740	0.101
504.400	25.141	0.101
504.500	36.716	0.101
504.600	40.380	0.101
504.700	9.874	0.100
504.800	14.881	0.101
504.900	52.034	0.101
505.000	20.981	0.101
505.100	28.902	0.101
505.200	34.989	0.101
505.300	1.286	0.101
505.400	15.019	0.101
505.500	-9.927	0.101
505.600	17.332	0.101
505.700	19.205	0.101
505.800	18.097	0.101
505.900	29.938	0.101
506.000	53.791	0.101
506.100	7.184	0.101
506.200	14.175	0.101
506.300	11.017	0.101
506.400	-18.544	0.101
506.500	21.421	0.101
506.600	32.078	0.101
506.700	9.175	0.100
506.800	43.802	0.101
506.900	31.686	0.101
507.000	14.192	0.101
507.100	-25.822	0.101
507.200	37.523	0.101
507.300	58.563	0.100
507.400	21.525	0.101
507.500	6.786	0.100
507.600	17.565	0.101
507.700	40.341	0.101
507.800	17.383	0.101
507.900	24.650	0.101
508.000	31.140	0.101
508.100	34.671	0.101
508.200	36.643	0.101
508.300	10.881	0.100
508.400	12.923	0.101
508.500	16.610	0.101
508.600	6.281	0.101
508.700	7.860	0.101
508.800	-21.894	0.101
508.900	26.635	0.101
509.000	15.137	0.101
509.100	-3.211	0.101
509.200	1.367	0.101
509.300	34.920	0.101
509.400	33.872	0.101
509.500	-6.073	0.101
509.600	18.154	0.101
509.700	16.240	0.101
509.800	10.438	0.101
509.900	1.733	0.101
510.000	35.953	0.101
510.100	42.886	0.101
510.200	22.516	0.101
510.300	45.451	0.101
510.400	6.030	0.101
510.500	20.442	0.101
510.600	-2.486	0.101
510.700	32.370	0.101
510.800	65.728	0.101
510.900	27.676	0.101
511.000	-7.731	0.101
511.100	47.814	0.101
511.200	16.770	0.101
511.300	21.090	0.101
511.400	36.157	0.101
511.500	36.330	0.101
511.600	1.562	0.101
511.700	42.401	0.101
511.800	1.213	0.101
511.900	27.635	0.101
512.000	49.797	0.101
512.100	28.201	0.101
512.200	15.926	0.101
512.300	11.798	0.101
512.400	37.887	0.101
512.500	9.492	0.101
512.600	-7.979	0.101
512.700	32.245	0.101
512.800	36.227	0.101
512.900	-2.460	0.101
513.000	18.571	0.101
513.100	54.015	0.101
513.200	11.299	0.101
513.300	-1.849	0.101
513.400	18.320	0.101
513.500	-2.522	0.101
513.600	40.476	0.101
513.700	-11.017	0.101
513.800	34.665	0.101
513.900	32.209	0.101
514.000	38.708	0.101
514.100	33.889	0.101
514.200	-2.104	0.101
514.300	33.578	0.101
514.400	13.849	0.100
514.500	22.223	0.101
514.600	10.627	0.101
514.700	4.950	0.101
514.800	57.187	0.101
514.900	33.230	0.101
515.000	2.480	0.101
515.100	33.101	0.101
515.200	13.551	0.101
515.300	7.988	0.101
515.400	29.424	0.100
515.500	21.804	0.101
515.600	11.417	0.101
515.700	18.504	0.101
515.800	14.622	0.101
515.900	9.125	0.101
516.000	64.440	0.101
516.100	19.983	0.101
516.200	21.860	0.101
516.300	19.093	0.101
516.400	36.433	0.101
516.500	4.821	0.101
516.600	5.536	0.101
516.700	15.484	0.101
516.800	39.653	0.101
516.900	3.574	0.101
517.000	28.589	0.101
517.100	47.865	0.101
517.200	20.789	0.101
517.300	-15.580	0.101
517.400	13.607	0.101
517.500	7.094	0.101
517.600	24.263	0.101
517.700	33.884	0.101
517.800	43.374	0.101
517.900	49.475	0.101
518.000	34.884	0.101
518.100	-8.271	0.101
518.200	38.889	0.101
518.300	52.561	0.101
518.400	36.250	0.101
518.500	30.101	0.101
518.600	23.103	0.101
518.700	72.202	0.101
518.800	7.365	0.101
518.900	49.169	0.101
519.000	37.333	0.101
519.100	48.010	0.101
519.200	16.838	0.101
519.300	32.851	0.101
519.400	43.861	0.101
519.500	34.005	0.101
519.600	34.066	0.101
519.700	39.600	0.101
519.800	26.423	0.101
519.900	43.366	0.101
520.000	21.483	0.101
520.100	26.449	0.101
520.200	26.519	0.101
520.300	57.337	0.101
520.400	7.131	0.101
520.500	48.317	0.101
520.600	32.869	0.101
520.700	77.341	0.101
520.800	28.121	0.101
520.900	-1.580	0.101
521.000	39.373	0.101
521.100	32.207	0.101
521.200	48.675	0.101
521.300	0.160	0.101
521.400	-7.677	0.101
521.500	56.718	0.101
521.600	-0.024	0.101
521.700	33.146	0.101
521.800	28.367	0.101
521.900	39.896	0.101
522.000	30.874	0.101
522.100	21.488	0.101
522.200	42.892	0.101
522.300	-0.722	0.101
522.400	52.864	0.101
522.500	23.358	0.101
522.600	19.776	0.101
522.700	32.709	0.101
522.800	21.065	0.101
522.900	15.871	0.101
523.000	39.537	0.101
523.100	41.748	0.101
523.200	26.676	0.101
523.300	48.173	0.101
523.400	12.230	0.101
523.500	53.404	0.101
523.600	23.543	0.101
523.700	27.454	0.101
523.800	47.113	0.101
523.900	35.850	0.101
524.000	50.695	0.101
524.100	5.061	0.101
524.200	56.183	0.101
524.300	-14.798	0.101
524.400	13.796	0.101
524.500	36.581	0.101
524.600	31.273	0.101
524.700	55.224	0.101
524.800	22.265	0.101
524.900	40.498	0.101
525.000	23.627	0.101
525.100	69.937	0.101
525.200	0.551	0.101
525.300	22.194	0.101
525.400	20.909	0.101
525.500	31.770	0.101
525.600	20.134	0.101
525.700	27.999	0.101
525.800	23.813	0.101
525.900	-3.503	0.101
526.000	51.636	0.101
526.100	44.195	0.101
526.200	33.042	0.101
526.300	23.954	0.101
526.400	17.421	0.101
526.500	8.360	0.101
526.600	37.653	0.101
526.700	14.941	0.100
526.800	31.761	0.101
526.900	29.722	0.101
527.000	16.416	0.101
527.100	11.324	0.101
527.200	59.843	0.101
527.300	49.107	0.101
527.400	51.051	0.101
527.500	3.643	0.101
527.600	30.953	0.101
527.700	19.471	0.101
527.800	13.411	0.101
527.900	50.176	0.101
528.000	36.054	0.101
528.100	33.153	0.101
528.200	32.955	0.101
528.300	16.849	0.101
528.400	27.801	0.101
528.500	13.294	0.101
528.600	15.956	0.101
528.700	36.087	0.101
528.800	19.942	0.101
528.900	34.216	0.101
529.000	44.299	0.101
529.100	22.278	0.101
529.200	41.872	0.101
529.300	33.210	0.101
529.400	36.079	0.101
529.500	46.793	0.101
529.600	32.732	0.101
529.700	29.688	0.101
529.800	45.580	0.101
529.900	4.073	0.101
530.000	36.225	0.101
530.100	14.009	0.101
530.200	14.120	0.101
530.300	55.523	0.101
530.400	40.883	0.101
530.500	20.191	0.101
530.600	16.283	0.101
530.700	35.601	0.101
530.800	4.718	0.101
530.900	46.893	0.101
531.000	45.854	0.101
531.100	10.826	0.101
531.200	23.441	0.101
531.300	51.248	0.101
531.400	55.094	0.101
531.500	42.393	0.101
531.600	32.187	0.101
531.700	36.258	0.101
531.800	23.333	0.101
531.900	35.667	0.101
532.000	50.666	0.101
532.100	25.350	0.101
532.200	46.407	0.101
532.300	28.946	0.101
532.400	40.245	0.101
532.500	46.831	0.101
532.600	32.507	0.101
532.700	49.247	0.101
532.800	33.501	0.101
532.900	36.472	0.101
533.000	26.154	0.101
533.100	37.948	0.101
533.200	27.565	0.101
533.300	32.961	0.101
533.400	38.309	0.101
533.500	80.541	0.101
533.600	35.116	0.101
533.700	-9.279	0.101
533.800	35.277	0.101
533.900	10.100	0.101
534.000	42.204	0.101
534.100	18.625	0.101
534.200	48.464	0.101
534.300	27.972	0.101
534.400	37.039	0.101
534.500	-1.843	0.101
534.600	42.857	0.101
534.700	35.530	0.101
534.800	16.831	0.101
534.900	37.190	0.101
535.000	55.633	0.101
535.100	14.320	0.101
535.200	23.351	0.101
535.300	25.672	0.101
535.400	28.540	0.101
535.500	10.920	0.101
535.600	65.046	0.101
535.700	40.819	0.101
535.800	36.742	0.101
535.900	27.071	0.101
536.000	34.657	0.101
536.100	50.565	0.101
536.200	22.957	0.101
536.300	28.836	0.101
536.400	9.332	0.101
536.500	33.712	0.101
536.600	27.359	0.101
536.700	37.995	0.101
536.800	43.340	0.101
536.900	42.692	0.101
537.000	20.663	0.101
537.100	39.721	0.101
537.200	39.692	0.101
537.300	13.617	0.101
537.400	38.347	0.101
537.500	9.104	0.101
537.600	8.796	0.101
537.700	45.904	0.100
537.800	25.487	0.101
537.900	41.872	0.101
538.000	26.746	0.101
538.100	20.671	0.101
538.200	29.435	0.101
538.300	38.973	0.100
538.400	41.097	0.101
538.500	23.757	0.101
538.600	4.890	0.101
538.700	29.243	0.101
538.800	34.468	0.101
538.900	8.791	0.101
539.000	60.943	0.101
539.100	41.437	0.101
539.200	45.175	0.101
539.300	29.324	0.101
539.400	36.483	0.101
539.500	47.024	0.101
539.600	37.323	0.101
539.700	19.882	0.101
539.800	69.282	0.101
539.900	14.509	0.100
540.000	20.288	0.101
540.100	19.088	0.101
540.200	22.667	0.101
540.300	37.026	0.101
540.400	20.341	0.101
540.500	55.581	0.101
540.600	18.775	0.101
540.700	47.260	0.101
540.800	23.953	0.101
540.900	28.941	0.101
541.000	21.484	0.101
541.100	38.495	0.101
541.200	41.559	0.101
541.300	32.951	0.101
541.400	16.447	0.101
541.500	30.642	0.101
541.600	15.967	0.101
541.700	12.820	0.101
541.800	8.706	0.101
541.900	35.388	0.101
542.000	22.561	0.101
542.100	8.360	0.101
542.200	30.526	0.101
542.300	17.482	0.101
542.400	21.360	0.101
542.500	18.613	0.101
542.600	32.731	0.101
542.700	11.515	0.101
542.800	9.900	0.101
542.900	7.607	0.101
543.000	19.979	0.101
543.100	37.307	0.101
543.200	32.169	0.101
543.300	29.807	0.101
543.400	49.510	0.101
543.500	24.198	0.101
543.600	27.756	0.101
543.700	27.427	0.100
543.800	14.619	0.101
543.900	41.487	0.101
544.000	35.950	0.101
544.100	36.125	0.101
544.200	0.685	0.101
544.300	10.911	0.101
544.400	8.030	0.101
544.500	26.102	0.101
544.600	48.956	0.101
544.700	36.279	0.100
544.800	-7.489	0.100
544.900	50.008	0.101
545.000	22.975	0.101
545.100	-2.913	0.101
545.200	36.331	0.101
545.300	59.256	0.101
545.400	14.544	0.101
545.500	4.059	0.101
545.600	6.661	0.101
545.700	56.403	0.101
545.800	11.842	0.100
545.900	18.564	0.101
546.000	9.526	0.101
546.100	56.538	0.101
546.200	34.512	0.101
546.300	37.552	0.101
546.400	48.979	0.101
546.500	31.799	0.101
546.600	26.666	0.101
546.700	14.226	0.101
546.800	7.844	0.101
546.900	10.479	0.101
547.000	17.734	0.101
547.100	-1.757	0.101
547.200	8.838	0.101
547.300	26.808	0.101
547.400	31.658	0.101
547.500	48.948	0.101
547.600	-6.428	0.101
547.700	30.046	0.101
547.800	13.768	0.101
547.900	0.813	0.101
548.000	10.731	0.101
548.100	-3.521	0.100
548.200	21.771	0.101
548.300	29.782	0.101
548.400	11.608	0.101
548.500	17.475	0.101
548.600	17.046	0.101
548.700	43.921	0.101
548.800	24.196	0.101
548.900	37.970	0.101
549.000	52.602	0.101
549.100	-5.495	0.101
549.200	26.581	0.101
549.300	-1.023	0.101
549.400	13.460	0.101
549.500	13.636	0.101
549.600	10.358	0.101
549.700	18.938	0.101
549.800	9.683	0.101
549.900	40.460	0.101
550.000	1.948	0.101
550.100	15.789	0.101
550.200	28.855	0.101
550.300	11.568	0.101
550.400	21.634	0.101
550.500	27.211	0.101
550.600	34.050	0.101
550.700	36.817	0.101
550.800	37.993	0.101
550.900	0.020	0.101
551.000	1.308	0.101
551.100	51.698	0.101
551.200	2.009	0.101
551.300	30.513	0.101
551.400	21.942	0.101
551.500	-12.259	0.101
551.600	69.762	0.101
551.700	16.287	0.101
551.800	45.871	0.101
551.900	13.729	0.101
552.000	32.216	0.101
552.100	-3.105	0.101
552.200	36.423	0.101
552.300	23.454	0.101
552.400	0.076	0.101
552.500	10.642	0.101
552.600	2.581	0.101
552.700	20.523	0.101
552.800	10.556	0.101
552.900	21.502	0.101
553.000	42.070	0.101
553.100	10.549	0.101
553.200	14.343	0.101
553.300	4.240	0.101
553.400	41.142	0.101
553.500	8.703	0.101
553.600	9.363	0.101
553.700	33.366	0.101
553.800	23.517	0.101
553.900	-2.491	0.101
554.000	32.889	0.101
554.100	40.368	0.101
554.200	34.209	0.101
554.300	5.410	0.101
554.400	18.919	0.101
554.500	21.182	0.101
554.600	2.242	0.101
554.700	0.774	0.100
554.800	-9.126	0.101
554.900	8.680	0.101
555.000	0.297	0.100
555.100	23.344	0.101
555.200	22.089	0.101
555.300	26.023	0.101
555.400	34.733	0.100
555.500	-3.917	0.101
555.600	20.966	0.101
555.700	27.749	0.101
555.800	-11.056	0.100
555.900	15.937	0.101
556.000	31.694	0.101
556.100	24.442	0.101
556.200	-3.792	0.101
556.300	48.600	0.101
556.400	32.143	0.101
556.500	43.564	0.101
556.600	7.545	0.101
556.700	34.071	0.101
556.800	10.849	0.101
556.900	12.910	0.100
557.000	14.631	0.101
557.100	61.975	0.101
557.200	33.827	0.101
557.300	-4.820	0.101
557.400	11.509	0.101
557.500	13.164	0.101
557.600	32.051	0.101
557.700	42.881	0.101
557.800	37.806	0.101
557.900	14.083	0.101
558.000	3.817	0.101
558.100	-33.639	0.101
558.200	9.613	0.101
558.300	8.063	0.100
558.400	37.458	0.101
558.500	-12.095	0.100
558.600	20.208	0.100
558.700	19.042	0.101
558.800	16.938	0.101
558.900	22.413	0.101
559.000	4.891	0.101
559.100	18.407	0.101
559.200	17.055	0.101
559.300	31.566	0.101
559.400	18.700	0.101
559.500	18.075	0.101
559.600	24.676	0.101
559.700	12.761	0.101
559.800	34.919	0.101
559.900	4.475	0.101
560.000	26.591	0.101
560.100	-18.937	0.101
560.200	42.489	0.101
560.300	12.629	0.101
560.400	13.036	0.101
560.500	19.398	0.101
560.600	34.878	0.101
560.700	-20.651	0.100
560.800	18.160	0.101
560.900	35.089	0.101
561.000	-15.681	0.101
561.100	8.079	0.101
561.200	22.216	0.101
561.300	-8.089	0.101
561.400	5.857	0.101
561.500	13.469	0.101
561.600	-18.066	0.101
561.700	1.348	0.101
561.800	-14.137	0.101
561.900	18.644	0.101
562.000	-1.070	0.101
562.100	23.038	0.101
562.200	14.873	0.101
562.300	3.593	0.101
562.400	-12.530	0.101
562.500	1.725	0.101
562.600	-3.021	0.101
562.700	32.403	0.101
562.800	24.035	0.101
562.900	-11.403	0.101
563.000	-8.295	0.101
563.100	-1.377	0.101
563.200	7.141	0.101
563.300	36.146	0.101
563.400	3.789	0.101
563.500	8.266	0.101
563.600	13.884	0.101
563.700	14.805	0.101
563.800	-12.995	0.101
563.900	26.615	0.101
564.000	-13.407	0.101
564.100	22.273	0.101
564.200	8.411	0.101
564.300	35.268	0.101
564.400	2.830	0.101
564.500	-3.973	0.101
564.600	18.380	0.101
564.700	44.277	0.101
564.800	30.248	0.101
564.900	-16.798	0.101
565.000	34.417	0.101
565.100	-13.056	0.101
565.200	-27.360	0.101
565.300	33.411	0.101
565.400	32.215	0.101
565.500	27.030	0.101
565.600	20.745	0.101
565.700	5.604	0.101
565.800	-7.991	0.101
565.900	-5.168	0.101
566.000	6.979	0.101
566.100	20.909	0.101
566.200	15.629	0.101
566.300	-1.100	0.101
566.400	7.578	0.101
566.500	28.746	0.101
566.600	5.676	0.101
566.700	35.465	0.101
566.800	11.750	0.101
566.900	3.205	0.101
567.000	6.533	0.101
567.100	3.792	0.101
567.200	-1.426	0.101
567.300	13.996	0.101
567.400	17.894	0.101
567.500	27.405	0.101
567.600	0.135	0.101
567.700	47.184	0.101
567.800	4.587	0.101
567.900	23.607	0.101
568.000	-6.566	0.101
568.100	45.608	0.101
568.200	18.373	0.101
568.300	31.878	0.101
568.400	2.700	0.101
568.500	0.995	0.101
568.600	14.125	0.101
568.700	-3.076	0.101
568.800	14.490	0.101
568.900	2.878	0.101
569.000	13.032	0.101
569.100	6.045	0.101
569.200	22.872	0.101
569.300	15.836	0.101
569.400	14.060	0.101
569.500	-19.376	0.101
569.600	8.689	0.101
569.700	24.381	0.101
569.800	2.073	0.101
569.900	19.753	0.101
570.000	9.424	0.101
570.100	22.301	0.101
570.200	6.005	0.101
570.300	17.407	0.101
570.400	17.563	0.101
570.500	-8.486	0.101
570.600	9.412	0.101
570.700	4.151	0.101
570.800	25.201	0.101
570.900	11.692	0.101
571.000	2.710	0.101
571.100	-0.258	0.101
571.200	1.881	0.101
571.300	30.769	0.101
571.400	-22.081	0.101
571.500	-28.084	0.101
571.600	36.127	0.101
571.700	16.344	0.101
571.800	-8.615	0.101
571.900	9.551	0.101
572.000	22.522	0.101
572.100	13.441	0.101
572.200	43.093	0.101
572.300	8.735	0.101
572.400	-4.018	0.101
572.500	33.404	0.101
572.600	33.843	0.101
572.700	2.205	0.101
572.800	26.685	0.101
572.900	-2.096	0.100
573.000	-10.080	0.101
573.100	37.166	0.101
573.200	0.291	0.101
573.300	23.742	0.101
573.400	15.295	0.101
573.500	-1.864	0.101
573.600	54.328	0.101
573.700	18.328	0.100
573.800	25.377	0.101
573.900	-10.881	0.100
574.000	20.019	0.100
574.100	38.348	0.101
574.200	-0.554	0.101
574.300	8.994	0.101
574.400	22.686	0.101
574.500	4.719	0.101
574.600	5.251	0.101
574.700	-6.593	0.101
574.800	-5.410	0.101
574.900	52.804	0.101
575.000	-3.895	0.101
575.100	13.017	0.101
575.200	-15.469	0.100
575.300	7.115	0.101
575.400	31.799	0.100
575.500	8.566	0.101
575.600	-1.719	0.101
575.700	6.503	0.101
575.800	40.308	0.101
575.900	-30.476	0.100
576.000	36.619	0.101
576.100	-11.811	0.100
576.200	12.220	0.101
576.300	11.328	0.100
576.400	26.807	0.101
576.500	3.382	0.100
576.600	46.975	0.100
576.700	-18.551	0.101
576.800	33.687	0.101
576.900	2.344	0.101
577.000	-14.877	0.100
577.100	33.623	0.100
577.200	-13.701	0.101
577.300	17.663	0.101
577.400	23.814	0.101
577.500	0.060	0.101
577.600	-27.732	0.100
577.700	10.189	0.101
577.800	17.526	0.101
577.900	7.471	0.101
578.000	15.681	0.101
578.100	13.990	0.101
578.200	-10.553	0.101
578.300	-20.118	0.100
578.400	10.235	0.101
578.500	24.507	0.101
578.600	3.008	0.101
578.700	14.524	0.101
578.800	-32.695	0.101
578.900	-19.040	0.101
579.000	-7.666	0.101
579.100	27.646	0.101
579.200	9.858	0.100
579.300	18.630	0.101
579.400	20.583	0.101
579.500	-34.832	0.101
579.600	43.838	0.101
579.700	-11.812	0.101
579.800	14.239	0.101
579.900	18.414	0.100
580.000	0.786	0.101
580.100	-19.281	0.101
580.200	39.550	0.101
580.300	-35.509	0.100
580.400	-18.246	0.101
580.500	8.338	0.100
580.600	-11.297	0.100
580.700	8.676	0.101
580.800	33.493	0.101
580.900	-1.940	0.101
581.000	-0.119	0.100
581.100	27.124	0.100
581.200	-37.649	0.100
581.300	-16.782	0.100
581.400	19.841	0.101
581.500	5.349	0.101
581.600	30.262	0.101
581.700	16.827	0.101
581.800	-15.383	0.100
581.900	17.283	0.101
582.000	5.989	0.101
582.100	31.710	0.101
582.200	9.190	0.101
582.300	-3.655	0.101
582.400	-3.995	0.101
582.500	20.218	0.100
582.600	-18.942	0.101
582.700	31.488	0.101
582.800	-12.980	0.101
582.900	-5.616	0.100
583.000	-4.349	0.101
583.100	-3.153	0.101
583.200	-15.347	0.101
583.300	17.158	0.101
583.400	14.553	0.100
583.500	6.060	0.101
583.600	6.069	0.101
583.700	-2.186	0.101
583.800	8.240	0.101
583.900	-9.333	0.100
584.000	-1.168	0.101
584.100	-3.967	0.101
584.200	23.571	0.101
584.300	-11.894	0.101
584.400	7.549	0.101
584.500	-14.252	0.101
584.600	10.738	0.101
584.700	13.362	0.101
584.800	-2.495	0.101
584.900	0.333	0.101
585.000	23.325	0.101
585.100	-19.709	0.101
585.200	1.404	0.101
585.300	-19.795	0.101
585.400	-25.699	0.101
585.500	-1.063	0.100
585.600	13.541	0.101
585.700	6.745	0.100
585.800	5.831	0.100
585.900	19.237	0.100
586.000	5.280	0.101
586.100	-27.245	0.100
586.200	-7.650	0.101
586.300	-9.975	0.101
586.400	-12.997	0.101
586.500	9.794	0.100
586.600	2.697	0.101
586.700	-2.498	0.101
586.800	-7.219	0.101
586.900	18.512	0.101
587.000	-10.528	0.101
587.100	-14.241	0.101
587.200	0.794	0.100
587.300	7.304	0.101
587.400	-13.227	0.101
587.500	-45.175	0.101
587.600	-3.384	0.101
587.700	2.895	0.101
587.800	-5.276	0.101
587.900	41.831	0.101
588.000	2.849	0.101
588.100	19.387	0.101
588.200	19.629	0.100
588.300	20.874	0.101
588.400	-16.237	0.101
588.500	-36.540	0.101
588.600	13.050	0.101
588.700	-42.981	0.101
588.800	-46.345	0.100
588.900	7.907	0.101
589.000	-12.651	0.101
589.100	12.807	0.100
589.200	4.900	0.100
589.300	-49.955	0.101
589.400	-30.042	0.101
589.500	26.265	0.101
589.600	-3.679	0.101
589.700	4.354	0.101
589.800	38.676	0.101
589.900	-1.874	0.101
590.000	-19.094	0.101
590.100	24.825	0.101
590.200	29.561	0.101
590.300	-8.999	0.101
590.400	14.624	0.101
590.500	14.429	0.101
590.600	2.869	0.101
590.700	9.691	0.101
590.800	-13.007	0.101
590.900	1.257	0.101
591.000	4.045	0.101
591.100	-7.984	0.101
591.200	-27.963	0.101
591.300	23.910	0.101
591.400	14.235	0.101
591.500	-25.598	0.101
591.600	-0.663	0.101
591.700	16.937	0.101
591.800	-28.745	0.101
591.900	-15.363	0.101
592.000	21.532	0.101
592.100	0.504	0.101
592.200	-9.956	0.101
592.300	-21.424	0.101
592.400	0.880	0.101
592.500	20.710	0.101
592.600	-15.642	0.101
592.700	18.560	0.101
592.800	-2.795	0.101
592.900	-13.712	0.101
593.000	10.884	0.101
593.100	-5.749	0.101
593.200	-19.597	0.101
593.300	-17.222	0.101
593.400	-22.534	0.101
593.500	-23.734	0.101
593.600	-7.719	0.101
593.700	19.002	0.100
593.800	14.741	0.101
593.900	22.141	0.101
594.000	20.490	0.101
594.100	-29.756	0.101
594.200	3.099	0.101
594.300	-26.179	0.101
594.400	37.484	0.101
594.500	5.909	0.101
594.600	-4.225	0.101
594.700	-2.821	0.101
594.800	-5.106	0.101
594.900	-12.349	0.101
595.000	-18.131	0.101
595.100	-1.279	0.101
595.200	12.727	0.101
595.300	-1.119	0.101
595.400	9.744	0.100
595.500	-18.149	0.100
595.600	-3.560	0.101
595.700	-44.937	0.101
595.800	4.081	0.101
595.900	-30.355	0.100
596.000	19.842	0.100
596.100	2.445	0.101
596.200	27.211	0.100
596.300	-11.839	0.100
596.400	-11.899	0.101
596.500	-3.062	0.101
596.600	-4.674	0.101
596.700	-3.489	0.101
596.800	7.486	0.100
596.900	-2.731	0.101
597.000	-1.488	0.101
597.100	-5.917	0.101
597.200	21.523	0.101
597.300	-2.624	0.101
597.400	-1.290	0.101
597.500	-36.946	0.101
597.600	31.069	0.101
597.700	13.793	0.101
597.800	35.490	0.101
597.900	-4.112	0.101
598.000	-11.879	0.100
598.100	-15.237	0.100
598.200	-0.119	0.101
598.300	9.632	0.101
598.400	-29.369	0.101
598.500	-6.848	0.101
598.600	6.229	0.101
598.700	-6.536	0.100
598.800	-38.717	0.101
598.900	-2.437	0.101
599.000	0.993	0.101
599.100	-4.925	0.101
599.200	-3.874	0.101
599.300	17.174	0.101
599.400	2.447	0.101
599.500	12.438	0.101
599.600	-5.852	0.100
599.700	-27.758	0.101
599.800	-10.548	0.100
599.900	-7.073	0.101
600.000	-10.295	0.101
600.100	-0.939	0.101
600.200	-10.884	0.101
600.300	2.102	0.100
600.400	4.891	0.101
600.500	6.778	0.101
600.600	-28.810	0.100
600.700	19.633	0.101
600.800	8.968	0.101
600.900	6.753	0.101
601.000	19.446	0.101
601.100	-7.325	0.101
601.200	-12.860	0.101
601.300	10.093	0.101
601.400	-17.064	0.100
601.500	30.520	0.100
601.600	-8.498	0.100
601.700	5.457	0.101
601.800	-6.533	0.101
601.900	-19.583	0.101
602.000	-11.962	0.101
602.100	1.430	0.101
602.200	-4.768	0.101
602.300	12.967	0.101
602.400	7.923	0.100
602.500	-22.379	0.100
602.600	22.858	0.101
602.700	10.772	0.101
602.800	-5.136	0.100
602.900	-46.071	0.100
603.000	-9.024	0.100
603.100	-11.249	0.100
603.200	21.634	0.100
603.300	-7.308	0.100
603.400	-10.697	0.100
603.500	8.465	0.100
603.600	-4.326	0.100
603.700	14.462	0.101
603.800	-0.444	0.101
603.900	19.010	0.100
604.000	3.662	0.100
604.100	-17.850	0.101
604.200	-18.556	0.101
604.300	18.802	0.101
604.400	-13.904	0.100
604.500	4.473	0.100
604.600	9.170	0.101
604.700	0.177	0.101
604.800	-0.939	0.101
604.900	25.621	0.101
605.000	-5.483	0.101
605.100	25.858	0.101
605.200	-15.863	0.101
605.300	-15.425	0.100
605.400	-33.084	0.100
605.500	-0.689	0.101
605.600	-25.810	0.101
605.700	1.515	0.101
605.800	-29.118	0.101
605.900	5.400	0.101
606.000	9.152	0.101
606.100	-13.904	0.101
606.200	19.397	0.101
606.300	15.723	0.100
606.400	-13.219	0.101
606.500	-2.081	0.100
606.600	5.484	0.100
606.700	9.573	0.101
606.800	-6.929	0.100
606.900	2.174	0.100
607.000	6.515	0.100
607.100	25.850	0.100
607.200	10.972	0.100
607.300	-15.932	0.101
607.400	9.426	0.101
607.500	24.324	0.100
607.600	14.433	0.101
607.700	-14.040	0.101
607.800	-19.804	0.100
607.900	-1.308	0.101
608.000	21.873	0.100
608.100	-2.186	0.100
608.200	-27.014	0.101
608.300	23.558	0.101
608.400	2.393	0.101
608.500	-26.542	0.101
608.600	-25.681	0.101
608.700	36.188	0.101
608.800	-17.505	0.101
608.900	-1.652	0.101
609.000	-56.210	0.100
609.100	21.582	0.101
609.200	-10.809	0.100
609.300	8.097	0.101
609.400	-18.761	0.100
609.500	-3.033	0.100
609.600	-2.379	0.101
609.700	33.783	0.101
609.800	-50.721	0.101
609.900	28.209	0.100
610.000	11.718	0.101
610.100	3.266	0.101
610.200	-1.091	0.101
610.300	-23.393	0.101
610.400	-18.482	0.101
610.500	-43.575	0.101
610.600	-34.354	0.100
610.700	-22.390	0.101
610.800	0.128	0.101
610.900	22.838	0.101
611.000	-24.481	0.101
611.100	13.575	0.101
611.200	-4.026	0.101
611.300	6.660	0.101
611.400	3.731	0.101
611.500	-4.144	0.100
611.600	21.703	0.101
611.700	1.624	0.101
611.800	9.144	0.101
611.900	21.901	0.101
612.000	7.743	0.101
612.100	-6.201	0.101
612.200	-7.783	0.101
612.300	-45.112	0.101
612.400	34.754	0.101
612.500	7.739	0.101
612.600	27.167	0.101
612.700	-15.914	0.101
612.800	-25.786	0.101
612.900	26.931	0.101
613.000	-8.866	0.101
613.100	-6.489	0.101
613.200	-2.840	0.101
613.300	-21.391	0.101
613.400	19.535	0.101
613.500	-24.502	0.101
613.600	-11.597	0.101
613.700	-0.299	0.101
613.800	13.122	0.100
613.900	-12.398	0.101
614.000	5.475	0.101
614.100	-4.226	0.101
614.200	4.484	0.101
614.300	-22.885	0.101
614.400	-18.048	0.101
614.500	34.730	0.101
614.600	10.838	0.100
614.700	-46.540	0.100
614.800	2.794	0.100
614.900	-18.675	0.101
615.000	-7.964	0.101
615.100	-6.135	0.101
615.200	16.569	0.101
615.300	-34.556	0.101
615.400	-0.364	0.100
615.500	7.767	0.101
615.600	-19.262	0.101
615.700	9.582	0.100
615.800	-0.129	0.101
615.900	-13.354	0.101
616.000	10.016	0.101
616.100	13.279	0.101
616.200	-6.670	0.101
616.300	-25.629	0.101
616.400	-22.207	0.100
616.500	-16.030	0.101
616.600	5.148	0.100
616.700	2.547	0.101
616.800	2.885	0.100
616.900	-17.378	0.101
617.000	12.269	0.101
617.100	-20.243	0.101
617.200	-31.167	0.101
617.300	-0.899	0.100
617.400	-2.552	0.101
617.500	-5.678	0.101
617.600	-10.544	0.100
617.700	-12.591	0.101
617.800	-41.212	0.101
617.900	-31.834	0.100
618.000	-9.217	0.101
618.100	5.119	0.101
618.200	5.092	0.101
618.300	-8.532	0.101
618.400	-6.559	0.101
618.500	8.768	0.101
618.600	-21.837	0.101
618.700	-7.439	0.101
618.800	-3.047	0.101
618.900	0.237	0.101
619.000	-5.360	0.100
619.100	-35.177	0.101
619.200	2.849	0.101
619.300	-24.729	0.100
619.400	-16.068	0.101
619.500	4.566	0.101
619.600	3.822	0.101
619.700	-10.295	0.100
619.800	-9.889	0.100
619.900	-18.418	0.100
620.000	6.386	0.100
620.100	16.246	0.100
620.200	-0.474	0.101
620.300	0.300	0.100
620.400	-11.249	0.101
620.500	13.314	0.100
620.600	-3.151	0.100
620.700	-1.511	0.100
620.800	15.972	0.100
620.900	6.152	0.101
621.000	5.639	0.101
621.100	20.918	0.100
621.200	-6.462	0.100
621.300	-15.720	0.101
621.400	-8.226	0.101
621.500	-14.299	0.100
621.600	3.882	0.101
621.700	-36.875	0.100
621.800	-18.655	0.101
621.900	-22.193	0.101
622.000	-26.762	0.101
622.100	18.835	0.101
622.200	21.668	0.101
622.300	2.142	0.101
622.400	3.556	0.101
622.500	12.174	0.101
622.600	-6.727	0.100
622.700	-15.635	0.101
622.800	1.442	0.101
622.900	12.084	0.100
623.000	4.799	0.100
623.100	-8.100	0.101
623.200	-20.391	0.101
623.300	3.463	0.101
623.400	24.958	0.101
623.500	0.452	0.100
623.600	0.672	0.101
623.700	-0.559	0.100
623.800	0.048	0.100
623.900	-25.574	0.100
624.000	-22.177	0.101
624.100	-2.272	0.101
624.200	12.338	0.101
624.300	-7.850	0.101
624.400	21.832	0.100
624.500	-30.424	0.101
624.600	-24.600	0.101
624.700	-11.858	0.100
624.800	-12.654	0.101
624.900	15.694	0.101
625.000	25.993	0.100
625.100	-23.029	0.101
625.200	-15.154	0.101
625.300	13.551	0.100
625.400	4.238	0.100
625.500	-34.180	0.101
625.600	4.373	0.101
625.700	-2.348	0.101
625.800	12.825	0.101
625.900	13.464	0.101
626.000	6.674	0.101
626.100	18.863	0.100
626.200	0.021	0.101
626.300	21.677	0.101
626.400	-18.823	0.101
626.500	-8.912	0.101
626.600	5.271	0.101
626.700	0.967	0.101
626.800	-8.339	0.101
626.900	-14.088	0.101
627.000	-29.861	0.101
627.100	6.023	0.101
627.200	-34.021	0.100
627.300	1.816	0.101
627.400	-20.141	0.101
627.500	-17.072	0.101
627.600	-7.162	0.101
627.700	-26.132	0.101
627.800	-9.407	0.100
627.900	-8.126	0.100
628.000	-7.943	0.101
628.100	-21.985	0.101
628.200	1.201	0.101
628.300	1.361	0.101
628.400	18.603	0.100
628.500	-23.657	0.101
628.600	29.376	0.101
628.700	-29.206	0.101
628.800	-14.855	0.100
628.900	4.606	0.100
629.000	-13.373	0.101
629.100	-11.194	0.101
629.200	-8.018	0.100
629.300	-4.743	0.100
629.400	-9.054	0.101
629.500	-26.662	0.100
629.600	-0.463	0.101
629.700	7.109	0.101
629.800	-21.701	0.100
629.900	-19.169	0.100
630.000	3.068	0.100
630.100	13.273	0.101
630.200	6.106	0.101
630.300	-29.206	0.101
630.400	-1.756	0.101
630.500	-12.866	0.100
630.600	-4.234	0.101
630.700	17.406	0.101
630.800	-33.913	0.100
630.900	3.276	0.101
631.000	31.706	0.101
631.100	14.499	0.101
631.200	-19.372	0.100
631.300	-2.236	0.101
631.400	-6.167	0.100
631.500	-24.971	0.101
631.600	-4.738	0.100
631.700	-2.849	0.100
631.800	4.981	0.100
631.900	21.785	0.101
632.000	-7.820	0.101
632.100	-25.698	0.101
632.200	14.468	0.100
632.300	-34.891	0.100
632.400	9.826	0.100
632.500	-14.166	0.101
632.600	-0.971	0.101
632.700	3.328	0.100
632.800	-15.466	0.100
632.900	11.211	0.100
633.000	5.476	0.100
633.100	-20.256	0.101
633.200	13.548	0.100
633.300	-0.726	0.100
633.400	-0.702	0.100
633.500	-3.372	0.100
633.600	28.368	0.101
633.700	-0.763	0.100
633.800	16.662	0.101
633.900	-12.562	0.100
634.000	17.279	0.101
634.100	12.120	0.100
634.200	-4.663	0.101
634.300	7.288	0.101
634.400	-10.817	0.101
634.500	-24.819	0.101
634.600	7.169	0.101
634.700	0.470	0.101
634.800	3.223	0.100
634.900	-5.338	0.101
635.000	0.477	0.101
635.100	-8.076	0.100
635.200	-7.426	0.100
635.300	1.208	0.100
635.400	-3.519	0.101
635.500	8.717	0.101
635.600	34.604	0.101
635.700	30.432	0.101
635.800	9.772	0.101
635.900	10.290	0.101
636.000	18.350	0.101
636.100	30.618	0.101
636.200	10.093	0.101
636.300	10.984	0.101
636.400	-6.353	0.101
636.500	-16.881	0.101
636.600	5.697	0.100
636.700	17.558	0.101
636.800	-7.293	0.101
636.900	22.181	0.101
637.000	3.709	0.101
637.100	-18.872	0.101
637.200	19.395	0.101
637.300	27.778	0.101
637.400	-10.178	0.100
637.500	16.321	0.101
637.600	-4.417	0.101
637.700	-10.831	0.100
637.800	-11.272	0.101
637.900	24.538	0.101
638.000	2.178	0.100
638.100	21.913	0.101
638.200	24.637	0.101
638.300	-20.802	0.101
638.400	6.255	0.100
638.500	-1.035	0.100
638.600	21.813	0.101
638.700	7.939	0.101
638.800	15.327	0.100
638.900	-13.794	0.101
639.000	0.616	0.101
639.100	23.567	0.101
639.200	29.597	0.101
639.300	0.436	0.101
639.400	8.495	0.100
639.500	-18.179	0.100
639.600	9.127	0.101
639.700	11.624	0.101
639.800	-16.391	0.101
639.900	-14.797	0.101
640.000	-26.036	0.100
640.100	2.166	0.101
640.200	16.694	0.101
640.300	-10.147	0.100
640.400	4.474	0.100
640.500	14.446	0.101
640.600	-2.995	0.100
640.700	0.540	0.100
640.800	44.313	0.100
640.900	-4.551	0.101
641.000	16.017	0.100
641.100	15.494	0.100
641.200	23.668	0.100
641.300	-5.833	0.100
641.400	-20.514	0.100
641.500	14.693	0.100
641.600	-1.895	0.100
641.700	0.847	0.101
641.800	18.139	0.100
641.900	-20.492	0.100
642.000	11.031	0.100
642.100	-8.287	0.100
642.200	41.738	0.100
642.300	24.527	0.100
642.400	30.801	0.100
642.500	-22.175	0.100
642.600	8.397	0.100
642.700	0.837	0.100
642.800	16.150	0.100
642.900	-4.233	0.101
643.000	-10.516	0.101
643.100	29.434	0.100
643.200	24.632	0.100
643.300	-20.800	0.101
643.400	-40.081	0.101
643.500	-8.114	0.100
643.600	-3.640	0.101
643.700	23.264	0.101
643.800	17.323	0.101
643.900	20.302	0.101
644.000	9.108	0.101
644.100	8.872	0.101
644.200	-10.647	0.101
644.300	6.382	0.101
644.400	-1.043	0.101
644.500	-7.197	0.101
644.600	11.322	0.101
644.700	7.662	0.101
644.800	9.091	0.101
644.900	42.668	0.101
645.000	18.152	0.101
645.100	3.688	0.101
645.200	22.582	0.101
645.300	-10.673	0.100
645.400	33.288	0.100
645.500	12.964	0.101
645.600	-31.055	0.101
645.700	14.999	0.101
645.800	23.222	0.101
645.900	37.155	0.101
646.000	-0.410	0.100
646.100	36.015	0.100
646.200	6.043	0.100
646.300	8.129	0.100
646.400	40.477	0.100
646.500	0.228	0.100
646.600	20.070	0.100
646.700	6.418	0.100
646.800	0.668	0.100
646.900	-29.206	0.100
647.000	23.358	0.101
647.100	-11.953	0.100
647.200	17.742	0.100
647.300	-5.035	0.100
647.400	21.758	0.101
647.500	-29.516	0.100
647.600	26.403	0.101
647.700	50.585	0.100
647.800	33.424	0.100
647.900	-12.195	0.100
648.000	-5.229	0.100
648.100	26.925	0.100
648.200	22.423	0.101
648.300	2.453	0.101
648.400	3.652	0.100
648.500	0.602	0.100
648.600	11.592	0.100
648.700	12.980	0.101
648.800	20.001	0.100
648.900	39.241	0.101
649.000	-3.076	0.100
649.100	18.075	0.101
649.200	38.660	0.101
649.300	17.953	0.100
649.400	29.393	0.100
649.500	22.118	0.100
649.600	3.035	0.101
649.700	-17.405	0.100
649.800	21.604	0.101
649.900	48.689	0.100
650.000	4.185	0.101
650.100	11.071	0.100
650.200	13.967	0.101
650.300	20.040	0.100
650.400	34.040	0.101
650.500	-17.516	0.101
650.600	11.869	0.101
650.700	14.874	0.100
650.800	7.545	0.100
650.900	14.293	0.100
651.000	34.865	0.100
651.100	-15.985	0.100
651.200	39.758	0.100
651.300	45.832	0.100
651.400	23.330	0.101
651.500	26.407	0.101
651.600	20.195	0.101
651.700	8.904	0.101
651.800	30.381	0.101
651.900	19.732	0.101
652.000	-11.676	0.101
652.100	18.756	0.100
652.200	4.768	0.101
652.300	8.344	0.101
652.400	20.170	0.100
652.500	11.193	0.101
652.600	-37.659	0.100
652.700	-2.749	0.101
652.800	23.154	0.101
652.900	20.798	0.101
653.000	17.843	0.100
653.100	29.865	0.100
653.200	14.596	0.101
653.300	-2.106	0.100
653.400	21.041	0.100
653.500	26.922	0.101
653.600	2.153	0.101
653.700	26.373	0.100
653.800	-13.353	0.101
653.900	0.714	0.100
654.000	17.650	0.101
654.100	19.778	0.101
654.200	30.794	0.101
654.300	38.421	0.100
654.400	22.751	0.100
654.500	37.665	0.100
654.600	29.519	0.101
654.700	13.517	0.100
654.800	15.381	0.100
654.900	30.535	0.101
655.000	15.245	0.100
655.100	11.154	0.101
655.200	-8.982	0.101
655.300	-8.896	0.101
655.400	31.306	0.100
655.500	19.674	0.101
655.600	12.608	0.100
655.700	-0.128	0.100
655.800	9.880	0.101
655.900	37.953	0.101
656.000	-10.499	0.100
656.100	28.185	0.100
656.200	67.889	0.101
656.300	5.414	0.100
656.400	43.831	0.101
656.500	-6.387	0.100
656.600	-12.477	0.100
656.700	-2.138	0.100
656.800	33.047	0.100
656.900	20.186	0.100
657.000	28.332	0.101
657.100	7.022	0.101
657.200	7.797	0.100
657.300	30.742	0.101
657.400	19.428	0.101
657.500	-5.227	0.100
657.600	29.415	0.100
657.700	38.117	0.101
657.800	16.419	0.100
657.900	11.677	0.101
658.000	39.924	0.101
658.100	-2.384	0.101
658.200	45.014	0.101
658.300	5.936	0.100
658.400	41.494	0.100
658.500	9.709	0.101
658.600	9.397	0.100
658.700	-13.835	0.100
658.800	-0.580	0.100
658.900	16.719	0.101
659.000	-13.834	0.100
659.100	23.381	0.100
659.200	2.463	0.100
659.300	10.046	0.100
659.400	23.847	0.101
659.500	8.745	0.101
659.600	3.731	0.101
659.700	19.198	0.100
659.800	0.986	0.100
659.900	35.107	0.101
660.000	57.478	0.100
660.100	19.766	0.100
660.200	22.791	0.101
660.300	27.760	0.100
660.400	9.981	0.101
660.500	28.577	0.100
660.600	52.456	0.100
660.700	14.562	0.100
660.800	36.010	0.101
660.900	20.519	0.100
661.000	23.455	0.101
661.100	4.616	0.100
661.200	15.444	0.100
661.300	34.352	0.100
661.400	16.241	0.100
661.500	6.156	0.100
661.600	18.445	0.100
661.700	-18.833	0.101
661.800	50.485	0.100
661.900	-3.866	0.100
662.000	28.905	0.100
662.100	60.211	0.101
662.200	8.338	0.101
662.300	54.914	0.100
662.400	14.460	0.100
662.500	40.522	0.101
662.600	-9.734	0.100
662.700	13.725	0.100
662.800	4.699	0.100
662.900	46.755	0.100
663.000	23.462	0.100
663.100	11.799	0.100
663.200	33.077	0.101
663.300	15.282	0.100
663.400	20.464	0.100
663.500	42.119	0.100
663.600	34.889	0.100
663.700	25.674	0.100
663.800	12.946	0.100
663.900	26.888	0.100
664.000	-2.799	0.101
664.100	26.515	0.100
664.200	34.192	0.100
664.300	22.947	0.101
664.400	17.597	0.100
664.500	23.178	0.101
664.600	22.044	0.101
664.700	29.830	0.100
664.800	16.914	0.100
664.900	6.760	0.100
665.000	1.704	0.100
665.100	51.026	0.100
665.200	28.119	0.100
665.300	24.648	0.100
665.400	8.688	0.100
665.500	18.174	0.100
665.600	31.247	0.100
665.700	27.866	0.100
665.800	32.050	0.100
665.900	52.506	0.100
666.000	27.340	0.100
666.100	59.098	0.100
666.200	46.692	0.101
666.300	24.378	0.100
666.400	43.051	0.100
666.500	23.969	0.100
666.600	36.226	0.100
666.700	6.945	0.100
666.800	38.230	0.100
666.900	29.193	0.101
667.000	30.628	0.100
667.100	28.058	0.100
667.200	27.262	0.100
667.300	36.966	0.100
667.400	1.184	0.100
667.500	39.127	0.100
667.600	8.413	0.101
667.700	30.052	0.100
667.800	14.655	0.100
667.900	14.321	0.100
668.000	1.377	0.100
668.100	53.740	0.100
668.200	53.237	0.100
668.300	-16.484	0.100
668.400	41.057	0.100
668.500	31.072	0.100
668.600	20.811	0.101
668.700	5.212	0.100
668.800	23.008	0.100
668.900	51.184	0.101
669.000	19.755	0.100
669.100	3.744	0.101
669.200	53.350	0.100
669.300	27.304	0.100
669.400	6.487	0.100
669.500	54.739	0.100
669.600	39.152	0.101
669.700	26.056	0.101
669.800	41.587	0.100
669.900	17.646	0.100
670.000	23.597	0.100
670.100	20.821	0.101
670.200	12.902	0.100
670.300	34.512	0.101
670.400	36.126	0.100
670.500	34.757	0.100
670.600	38.981	0.100
670.700	42.796	0.100
670.800	11.509	0.100
670.900	28.885	0.100
671.000	17.396	0.100
671.100	28.849	0.100
671.200	43.542	0.101
671.300	31.277	0.101
671.400	26.110	0.100
671.500	17.493	0.100
671.600	-0.382	0.101
671.700	43.526	0.100
671.800	40.055	0.100
671.900	39.375	0.100
672.000	14.611	0.100
672.100	28.514	0.100
672.200	31.512	0.100
672.300	29.527	0.100
672.400	28.217	0.100
672.500	44.328	0.100
672.600	10.020	0.100
672.700	23.627	0.100
672.800	60.834	0.100
672.900	2.105	0.100
673.000	22.752	0.100
673.100	15.769	0.100
673.200	46.062	0.101
673.300	47.284	0.100
673.400	48.014	0.101
673.500	23.781	0.101
673.600	39.033	0.100
673.700	35.197	0.100
673.800	36.467	0.100
673.900	46.098	0.100
674.000	21.915	0.101
674.100	35.620	0.100
674.200	31.131	0.100
674.300	36.571	0.101
674.400	60.112	0.101
674.500	0.970	0.101
674.600	35.984	0.100
674.700	68.374	0.100
674.800	54.011	0.101
674.900	34.784	0.101
675.000	16.056	0.100
675.100	53.868	0.100
675.200	29.386	0.100
675.300	-1.202	0.100
675.400	33.796	0.100
675.500	41.187	0.100
675.600	34.508	0.100
675.700	51.898	0.101
675.800	17.259	0.100
675.900	22.746	0.100
676.000	20.667	0.100
676.100	13.552	0.100
676.200	38.021	0.100
676.300	11.791	0.100
676.400	32.215	0.100
676.500	26.259	0.101
676.600	42.112	0.101
676.700	20.317	0.100
676.800	44.921	0.100
676.900	11.131	0.100
677.000	56.589	0.100
677.100	46.972	0.100
677.200	31.373	0.101
677.300	39.576	0.100
677.400	39.996	0.100
677.500	25.844	0.100
677.600	48.240	0.100
677.700	21.725	0.101
677.800	29.921	0.101
677.900	23.509	0.101
678.000	18.646	0.100
678.100	57.870	0.101
678.200	-3.727	0.100
678.300	29.676	0.100
678.400	10.175	0.101
678.500	15.280	0.100
678.600	32.767	0.100
678.700	52.210	0.100
678.800	38.877	0.101
678.900	12.522	0.101
679.000	26.845	0.100
679.100	-2.725	0.101
679.200	28.732	0.100
679.300	35.313	0.101
679.400	44.775	0.101
679.500	29.188	0.100
679.600	3.824	0.100
679.700	19.460	0.101
679.800	20.226	0.101
679.900	61.078	0.100
680.000	3.661	0.101
680.100	53.254	0.101
680.200	35.793	0.101
680.300	9.148	0.101
680.400	39.074	0.101
680.500	18.199	0.101
680.600	32.706	0.101
680.700	63.485	0.101
680.800	25.573	0.100
680.900	34.757	0.101
681.000	51.569	0.100
681.100	18.116	0.101
681.200	36.070	0.101
681.300	37.922	0.101
681.400	21.044	0.101
681.500	6.074	0.100
681.600	13.162	0.101
681.700	36.187	0.100
681.800	19.613	0.101
681.900	44.667	0.101
682.000	37.448	0.100
682.100	23.705	0.100
682.200	37.470	0.100
682.300	15.431	0.100
682.400	35.694	0.100
682.500	37.870	0.100
682.600	67.191	0.100
682.700	22.808	0.100
682.800	70.300	0.100
682.900	24.742	0.100
683.000	34.216	0.100
683.100	25.933	0.100
683.200	48.300	0.100
683.300	39.203	0.100
683.400	39.806	0.100
683.500	51.794	0.100
683.600	19.057	0.101
683.700	25.293	0.100
683.800	50.302	0.100
683.900	-7.892	0.100
684.000	43.791	0.101
684.100	34.950	0.100
684.200	18.007	0.101
684.300	31.855	0.101
684.400	44.931	0.100
684.500	31.906	0.100
684.600	37.317	0.100
684.700	5.418	0.100
684.800	12.397	0.100
684.900	12.286	0.100
685.000	26.311	0.100
685.100	33.482	0.100
685.200	61.399	0.101
685.300	18.139	0.100
685.400	14.643	0.100
685.500	24.052	0.100
685.600	34.958	0.100
685.700	46.544	0.101
685.800	18.261	0.100
685.900	-0.186	0.100
686.000	31.720	0.100
686.100	11.911	0.100
686.200	59.571	0.100
686.300	57.045	0.100
686.400	48.186	0.100
686.500	-7.155	0.100
686.600	58.313	0.100
686.700	18.281	0.100
686.800	35.318	0.100
686.900	25.306	0.101
687.000	60.400	0.101
687.100	12.694	0.101
687.200	5.613	0.100
687.300	62.469	0.100
687.400	10.039	0.100
687.500	28.766	0.101
687.600	53.934	0.100
687.700	30.005	0.100
687.800	5.001	0.101
687.900	0.084	0.100
688.000	51.491	0.101
688.100	30.498	0.100
688.200	17.235	0.100
688.300	43.939	0.100
688.400	47.499	0.100
688.500	35.217	0.100
688.600	12.308	0.101
688.700	52.859	0.101
688.800	50.668	0.100
688.900	29.194	0.100
689.000	8.700	0.100
689.100	21.074	0.100
689.200	34.344	0.100
689.300	44.072	0.100
689.400	42.047	0.100
689.500	20.527	0.100
689.600	27.530	0.100
689.700	32.251	0.100
689.800	26.081	0.100
689.900	22.580	0.100
690.000	33.520	0.100
690.100	57.619	0.100
690.200	46.578	0.101
690.300	28.767	0.100
690.400	44.505	0.100
690.500	17.730	0.100
690.600	67.950	0.100
690.700	43.346	0.101
690.800	36.734	0.101
690.900	26.131	0.100
691.000	28.832	0.100
691.100	35.593	0.100
691.200	31.770	0.100
691.300	10.029	0.100
691.400	35.879	0.100
691.500	41.526	0.100
691.600	35.531	0.100
691.700	51.579	0.100
691.800	23.856	0.100
691.900	32.156	0.101
692.000	19.857	0.100
692.100	39.956	0.100
692.200	9.396	0.100
692.300	-3.273	0.100
692.400	41.423	0.100
692.500	39.074	0.100
692.600	19.484	0.101
692.700	18.496	0.100
692.800	59.847	0.100
692.900	52.099	0.100
693.000	44.929	0.101
693.100	18.156	0.100
693.200	35.774	0.100
693.300	31.249	0.100
693.400	47.922	0.101
693.500	32.357	0.100
693.600	-0.871	0.101
693.700	4.201	0.100
693.800	35.114	0.100
693.900	-2.565	0.100
694.000	1.567	0.100
694.100	61.499	0.101
694.200	28.262	0.101
694.300	43.293	0.100
694.400	25.650	0.100
694.500	30.090	0.100
694.600	25.907	0.101
694.700	-1.957	0.101
694.800	9.533	0.101
694.900	12.042	0.100
695.000	35.264	0.100
695.100	27.853	0.100
695.200	43.340	0.100
695.300	-12.509	0.100
695.400	28.409	0.100
695.500	22.299	0.100
695.600	21.226	0.100
695.700	22.006	0.101
695.800	2.699	0.100
695.900	-0.693	0.100
696.000	32.549	0.100
696.100	46.700	0.101
696.200	12.837	0.100
696.300	37.484	0.101
696.400	26.129	0.100
696.500	6.680	0.100
696.600	18.161	0.101
696.700	15.252	0.101
696.800	31.905	0.100
696.900	33.261	0.101
697.000	42.840	0.100
697.100	15.666	0.101
697.200	7.440	0.100
697.300	26.399	0.100
697.400	21.876	0.100
697.500	-16.942	0.100
697.600	30.478	0.101
697.700	36.051	0.101
697.800	30.786	0.100
697.900	13.196	0.100
698.000	20.189	0.101
698.100	-14.434	0.100
698.200	20.217	0.100
698.300	1.491	0.101
698.400	21.754	0.100
698.500	32.500	0.101
698.600	19.455	0.100
698.700	23.559	0.100
698.800	19.360	0.101
698.900	0.170	0.100
699.000	19.833	0.100
699.100	70.269	0.100
699.200	26.715	0.101
699.300	1.890	0.100
699.400	23.666	0.101
699.500	33.486	0.100
699.600	-7.855	0.101
699.700	15.027	0.101
699.800	51.490	0.100
699.900	-5.629	0.100
700.000	28.593	0.101
700.100	3.168	0.101
700.200	24.213	0.101
700.300	9.331	0.100
700.400	37.157	0.101
700.500	6.244	0.101
700.600	50.783	0.100
700.700	1.801	0.100
700.800	17.718	0.101
700.900	51.506	0.101
701.000	9.470	0.100
701.100	22.407	0.100
701.200	23.724	0.101
701.300	4.712	0.101
701.400	17.986	0.101
701.500	17.600	0.101
701.600	35.038	0.101
701.700	24.984	0.101
701.800	26.556	0.100
701.900	22.872	0.101
702.000	5.965	0.100
702.100	-12.991	0.100
702.200	3.156	0.101
702.300	4.103	0.100
702.400	16.173	0.100
702.500	-17.502	0.101
702.600	22.924	0.100
702.700	6.360	0.101
702.800	23.162	0.101
702.900	9.037	0.100
703.000	41.847	0.100
703.100	10.592	0.100
703.200	-3.389	0.101
703.300	18.990	0.101
703.400	26.805	0.100
703.500	7.856	0.100
703.600	39.149	0.100
703.700	6.556	0.100
703.800	25.783	0.100
703.900	40.192	0.100
704.000	27.666	0.100
704.100	23.276	0.101
704.200	27.796	0.101
704.300	9.158	0.100
704.400	9.440	0.100
704.500	20.264	0.101
704.600	43.893	0.100
704.700	12.500	0.101
704.800	-1.748	0.100
704.900	5.115	0.100
705.000	24.415	0.100
705.100	53.360	0.100
705.200	22.219	0.101
705.300	2.067	0.100
705.400	3.731	0.100
705.500	25.686	0.100
705.600	1.185	0.100
705.700	24.433	0.100
705.800	19.147	0.101
705.900	13.159	0.100
706.000	14.406	0.101
706.100	-2.252	0.100
706.200	35.167	0.100
706.300	33.611	0.100
706.400	-19.730	0.101
706.500	31.577	0.101
706.600	46.738	0.100
706.700	-6.571	0.101
706.800	20.728	0.100
706.900	10.394	0.101
707.000	20.639	0.101
707.100	20.917	0.101
707.200	-16.475	0.100
707.300	18.329	0.100
707.400	45.208	0.101
707.500	21.234	0.101
707.600	14.119	0.101
707.700	25.072	0.101
707.800	5.163	0.100
707.900	24.760	0.100
708.000	43.475	0.101
708.100	20.591	0.101
708.200	30.581	0.101
708.300	1.250	0.101
708.400	19.804	0.101
708.500	10.323	0.101
708.600	12.650	0.101
708.700	12.240	0.101
708.800	14.876	0.101
708.900	20.605	0.101
709.000	23.593	0.101
709.100	16.353	0.101
709.200	25.583	0.101
709.300	33.431	0.101
709.400	29.490	0.101
709.500	26.728	0.101
709.600	27.753	0.101
709.700	32.569	0.101
709.800	5.843	0.100
709.900	22.156	0.101
710.000	36.895	0.101
710.100	12.614	0.101
710.200	9.228	0.101
710.300	-0.355	0.101
710.400	-10.422	0.100
710.500	13.702	0.101
710.600	-5.956	0.100
710.700	24.766	0.101
710.800	-11.856	0.101
710.900	-15.092	0.100
711.000	13.117	0.100
711.100	14.191	0.100
711.200	25.021	0.101
711.300	0.649	0.101
711.400	30.659	0.101
711.500	20.513	0.101
711.600	23.058	0.100
711.700	16.618	0.100
711.800	31.508	0.100
711.900	27.161	0.101
712.000	13.548	0.101
712.100	30.507	0.100
712.200	15.584	0.101
712.300	-12.319	0.101
712.400	35.335	0.100
712.500	25.424	0.101
712.600	0.939	0.100
712.700	5.936	0.101
712.800	9.288	0.101
712.900	21.898	0.100
713.000	27.236	0.100
713.100	6.566	0.101
713.200	-6.965	0.100
713.300	-12.812	0.101
713.400	-6.153	0.101
713.500	40.082	0.101
713.600	19.176	0.101
713.700	26.192	0.101
713.800	7.221	0.101
713.900	-9.236	0.101
714.000	23.643	0.101
714.100	-14.944	0.101
714.200	38.115	0.101
714.300	35.676	0.101
714.400	-17.349	0.101
714.500	15.016	0.101
714.600	-10.730	0.101
714.700	-37.200	0.100
714.800	12.764	0.100
714.900	8.407	0.101
715.000	3.572	0.101
715.100	13.708	0.101
715.200	27.635	0.101
715.300	17.242	0.101
715.400	27.400	0.101
715.500	10.783	0.101
715.600	-12.116	0.101
715.700	11.244	0.100
715.800	2.676	0.100
715.900	12.629	0.101
716.000	10.090	0.101
716.100	8.573	0.101
716.200	38.579	0.101
716.300	-5.661	0.101
716.400	41.910	0.101
716.500	3.210	0.101
716.600	-2.121	0.101
716.700	14.347	0.100
716.800	10.108	0.101
716.900	29.303	0.101
717.000	-25.449	0.100
717.100	48.044	0.101
717.200	-16.887	0.101
717.300	8.466	0.101
717.400	6.482	0.101
717.500	19.928	0.101
717.600	32.236	0.101
717.700	-18.942	0.101
717.800	10.968	0.101
717.900	21.452	0.101
718.000	40.590	0.100
718.100	17.529	0.100
718.200	35.629	0.100
718.300	12.987	0.100
718.400	-15.288	0.101
718.500	11.228	0.100
718.600	-4.660	0.100
718.700	7.248	0.101
718.800	17.069	0.100
718.900	-12.012	0.101
719.000	0.804	0.101
719.100	2.768	0.101
719.200	-2.117	0.101
719.300	8.878	0.101
719.400	19.436	0.101
719.500	22.514	0.101
719.600	1.559	0.101
719.700	7.196	0.101
719.800	12.433	0.101
719.900	10.431	0.101
720.000	21.223	0.100
720.100	14.485	0.101
720.200	18.337	0.100
720.300	7.928	0.101
720.400	-4.843	0.101
720.500	22.105	0.101
720.600	17.735	0.100
720.700	12.150	0.100
720.800	13.240	0.100
720.900	13.035	0.100
721.000	16.456	0.101
721.100	27.061	0.101
721.200	7.289	0.101
721.300	11.965	0.101
721.400	1.779	0.100
721.500	-35.247	0.100
721.600	-13.105	0.101
721.700	-8.701	0.101
721.800	46.375	0.101
721.900	-13.769	0.100
722.000	38.704	0.101
722.100	-8.293	0.100
722.200	18.981	0.101
722.300	-26.520	0.101
722.400	-12.053	0.101
722.500	22.284	0.101
722.600	-0.140	0.100
722.700	31.822	0.100
722.800	4.306	0.101
722.900	-5.175	0.101
723.000	10.583	0.101
723.100	27.162	0.101
723.200	8.632	0.100
723.300	1.795	0.101
723.400	7.283	0.101
723.500	-32.987	0.101
723.600	44.478	0.101
723.700	-6.945	0.100
723.800	0.875	0.101
723.900	10.408	0.100
724.000	8.898	0.100
724.100	-16.173	0.100
724.200	13.657	0.100
724.300	5.072	0.101
724.400	-5.462	0.101
724.500	-11.681	0.100
724.600	-20.578	0.100
724.700	21.894	0.101
724.800	-9.614	0.101
724.900	-6.385	0.100
725.000	18.598	0.101
725.100	-0.160	0.101
725.200	0.412	0.100
725.300	-32.447	0.100
725.400	22.374	0.100
725.500	1.910	0.100
725.600	2.575	0.101
725.700	30.590	0.100
725.800	-26.481	0.100
725.900	23.818	0.100
726.000	8.896	0.100
726.100	57.290	0.101
726.200	10.368	0.100
726.300	31.159	0.100
726.400	-11.689	0.101
726.500	28.828	0.101
726.600	-30.078	0.100
726.700	-10.179	0.100
726.800	11.980	0.101
726.900	12.729	0.100
727.000	16.437	0.101
727.100	10.291	0.100
727.200	-19.635	0.100
727.300	-19.173	0.101
727.400	32.783	0.101
727.500	-12.221	0.100
727.600	-0.126	0.101
727.700	-5.064	0.101
727.800	-16.627	0.101
727.900	19.842	0.100
728.000	7.004	0.100
728.100	8.241	0.100
728.200	-24.817	0.101
728.300	6.364	0.101
728.400	-21.233	0.100
728.500	-1.464	0.101
728.600	15.112	0.100
728.700	14.425	0.101
728.800	8.840	0.101
728.900	8.510	0.101
729.000	20.764	0.101
729.100	22.458	0.101
729.200	0.312	0.101
729.300	27.316	0.100
729.400	7.730	0.101
729.500	28.931	0.100
729.600	35.205	0.100
729.700	4.740	0.100
729.800	-4.479	0.100
729.900	-7.684	0.100
730.000	20.430	0.100
730.100	-23.916	0.100
730.200	-18.285	0.100
730.300	28.564	0.100
730.400	-14.546	0.100
730.500	34.578	0.100
730.600	-12.789	0.100
730.700	26.965	0.100
730.800	12.426	0.100
730.900	1.385	0.101
731.000	26.323	0.100
731.100	-13.260	0.101
731.200	4.057	0.100
731.300	-2.150	0.100
731.400	19.805	0.100
731.500	13.869	0.100
731.600	-25.428	0.101
731.700	1.252	0.100
731.800	17.782	0.101
731.900	-5.948	0.101
732.000	2.541	0.100
732.100	7.993	0.100
732.200	-1.651	0.101
732.300	17.540	0.101
732.400	-2.349	0.100
732.500	11.534	0.100
732.600	-4.978	0.100
732.700	-33.820	0.100
732.800	22.609	0.100
732.900	24.870	0.101
733.000	-20.755	0.100
733.100	-23.311	0.101
733.200	-13.341	0.100
733.300	-13.380	0.101
733.400	-11.838	0.101
733.500	10.087	0.100
733.600	-10.657	0.100
733.700	-19.626	0.100
733.800	2.121	0.100
733.900	15.117	0.100
734.000	4.210	0.101
734.100	-13.333	0.101
734.200	-13.831	0.100
734.300	-8.386	0.100
734.400	-3.876	0.100
734.500	-12.825	0.101
734.600	10.327	0.101
734.700	-11.113	0.100
734.800	4.178	0.100
734.900	18.219	0.101
735.000	22.650	0.100
735.100	-6.328	0.101
735.200	-9.827	0.100
735.300	-10.577	0.100
735.400	-6.827	0.101
735.500	-16.698	0.101
735.600	20.244	0.100
735.700	7.065	0.101
735.800	-4.329	0.100
735.900	5.875	0.101
736.000	-19.678	0.101
736.100	11.585	0.101
736.200	22.473	0.101
736.300	-2.340	0.101
736.400	-39.360	0.101
736.500	-4.944	0.100
736.600	15.278	0.100
736.700	15.278	0.101
736.800	29.183	0.100
736.900	-13.687	0.100
737.000	-1.717	0.100
737.100	12.091	0.101
737.200	17.062	0.101
737.300	-6.987	0.101
737.400	12.690	0.101
737.500	26.019	0.101
737.600	-22.335	0.100
737.700	-13.399	0.100
737.800	3.626	0.100
737.900	20.692	0.100
738.000	-33.828	0.100
738.100	2.092	0.101
738.200	-25.833	0.100
738.300	15.960	0.101
738.400	-4.716	0.101
738.500	35.536	0.101
738.600	-4.882	0.101
738.700	-26.798	0.101
738.800	-23.494	0.101
738.900	21.680	0.100
739.000	7.340	0.100
739.100	-17.441	0.100
739.200	-12.865	0.101
739.300	8.966	0.101
739.400	3.440	0.101
739.500	27.958	0.100
739.600	7.466	0.101
739.700	-23.283	0.100
739.800	-10.705	0.100
739.900	12.239	0.101
740.000	14.533	0.101
740.100	-27.130	0.101
740.200	8.510	0.100
740.300	7.584	0.101
740.400	8.241	0.101
740.500	6.966	0.101
740.600	-4.470	0.101
740.700	21.335	0.101
740.800	25.891	0.101
740.900	17.410	0.100
741.000	-12.012	0.101
741.100	-10.060	0.100
741.200	16.576	0.101
741.300	16.471	0.101
741.400	34.821	0.100
741.500	-15.732	0.100
741.600	5.473	0.101
741.700	-23.262	0.100
741.800	-12.704	0.100
741.900	-19.844	0.100
742.000	13.081	0.101
742.100	-7.879	0.100
742.200	6.135	0.101
742.300	-8.886	0.100
742.400	-25.038	0.100
742.500	10.271	0.100
742.600	2.155	0.100
742.700	5.323	0.100
742.800	3.597	0.101
742.900	-4.937	0.100
743.000	-13.895	0.101
743.100	-3.486	0.100
743.200	10.955	0.101
743.300	6.360	0.100
743.400	12.908	0.100
743.500	-19.181	0.100
743.600	2.816	0.101
743.700	-10.470	0.100
743.800	-7.282	0.100
743.900	25.294	0.100
744.000	-9.349	0.100
744.100	7.125	0.101
744.200	2.832	0.100
744.300	-41.309	0.100
744.400	35.372	0.101
744.500	-29.674	0.100
744.600	-18.454	0.100
744.700	27.129	0.100
744.800	22.013	0.100
744.900	-12.127	0.100
745.000	-6.890	0.100
745.100	2.024	0.100
745.200	-6.450	0.101
745.300	0.394	0.101
745.400	-0.116	0.100
745.500	19.333	0.100
745.600	-20.967	0.100
745.700	21.741	0.100
745.800	-1.614	0.101
745.900	-10.041	0.101
746.000	6.291	0.101
746.100	14.571	0.101
746.200	8.788	0.101
746.300	-12.264	0.100
746.400	21.266	0.100
746.500	-1.654	0.101
746.600	-11.576	0.100
746.700	-16.016	0.100
746.800	1.302	0.100
746.900	-18.542	0.100
747.000	2.103	0.101
747.100	-8.270	0.101
747.200	23.624	0.101
747.300	-2.060	0.101
747.400	8.430	0.100
747.500	9.762	0.100
747.600	-19.880	0.101
747.700	-1.558	0.101
747.800	14.231	0.100
747.900	-18.268	0.101
748.000	-9.349	0.101
748.100	15.658	0.101
748.200	18.225	0.100
748.300	12.955	0.101
748.400	-15.145	0.100
748.500	6.469	0.100
748.600	10.224	0.101
748.700	19.438	0.100
748.800	1.597	0.101
748.900	-2.888	0.100
749.000	-0.999	0.101
749.100	28.409	0.100
749.200	-22.546	0.100
749.300	-4.468	0.100
749.400	13.329	0.100
749.500	-3.683	0.100
749.600	-25.446	0.100
749.700	-8.458	0.101
749.800	5.238	0.100
749.900	3.363	0.101
750.000	-1.899	0.100
750.100	1.198	0.100
750.200	9.133	0.100
750.300	1.958	0.101
750.400	20.399	0.101
750.500	9.735	0.101
750.600	-6.012	0.100
750.700	13.798	0.100
750.800	-12.187	0.100
750.900	-26.663	0.100
751.000	-2.497	0.100
751.100	18.204	0.100
751.200	-14.706	0.101
751.300	-2.991	0.101
751.400	-8.621	0.101
751.500	-3.677	0.100
751.600	5.294	0.101
751.700	-29.691	0.100
751.800	-17.198	0.100
751.900	-8.069	0.101
752.000	11.848	0.100
752.100	0.117	0.100
752.200	-23.482	0.101
752.300	-24.813	0.100
752.400	23.146	0.101
752.500	-20.754	0.101
752.600	-13.985	0.100
752.700	-9.351	0.101
752.800	-24.381	0.100
752.900	-29.128	0.101
753.000	-5.943	0.101
753.100	-20.034	0.101
753.200	3.296	0.101
753.300	-13.139	0.101
753.400	-8.038	0.101
753.500	10.297	0.101
753.600	-2.036	0.101
753.700	-8.760	0.100
753.800	-4.927	0.101
753.900	-2.366	0.100
754.000	5.267	0.100
754.100	36.384	0.101
754.200	2.836	0.101
754.300	-13.695	0.100
754.400	23.391	0.101
754.500	-18.028	0.101
754.600	16.836	0.101
754.700	-30.738	0.101
754.800	2.426	0.101
754.900	8.543	0.101
755.000	-6.909	0.101
755.100	14.036	0.100
755.200	22.577	0.101
755.300	-13.971	0.100
755.400	-13.970	0.101
755.500	20.653	0.101
755.600	-17.193	0.101
755.700	-4.450	0.101
755.800	-1.161	0.101
755.900	-9.402	0.101
756.000	-32.358	0.101
756.100	18.257	0.101
756.200	-9.852	0.100
756.300	-20.296	0.101
756.400	-10.496	0.101
756.500	17.251	0.101
756.600	5.084	0.101
756.700	-35.160	0.100
756.800	-16.192	0.101
756.900	-10.724	0.101
757.000	9.402	0.101
757.100	-31.819	0.101
757.200	22.773	0.101
757.300	-43.549	0.101
757.400	-1.456	0.100
757.500	16.639	0.101
757.600	-55.337	0.101
757.700	-13.945	0.101
757.800	-1.227	0.101
757.900	0.571	0.101
758.000	12.542	0.101
758.100	5.114	0.101
758.200	57.850	0.101
758.300	2.125	0.101
758.400	-34.080	0.101
758.500	16.306	0.101
758.600	1.699	0.101
758.700	6.865	0.101
758.800	-5.299	0.101
758.900	-29.520	0.101
759.000	-20.699	0.101
759.100	-21.857	0.101
759.200	13.425	0.101
759.300	12.299	0.101
759.400	9.820	0.101
759.500	2.955	0.101
759.600	-5.804	0.101
759.700	-14.337	0.101
759.800	-13.935	0.101
759.900	19.402	0.101
760.000	-15.917	0.100
760.100	23.641	0.100
760.200	19.395	0.101
760.300	15.280	0.101
760.400	-11.401	0.101
760.500	-35.537	0.100
760.600	-10.583	0.100
760.700	5.819	0.101
760.800	-5.465	0.100
760.900	-14.961	0.101
761.000	-8.491	0.100
761.100	-30.071	0.101
761.200	-0.849	0.100
761.300	3.924	0.101
761.400	-5.852	0.101
761.500	-9.136	0.101
761.600	-11.118	0.100
761.700	-21.765	0.101
761.800	0.051	0.101
761.900	-19.128	0.100
762.000	-6.725	0.101
762.100	-4.934	0.101
762.200	15.802	0.101
762.300	-10.144	0.101
762.400	-5.464	0.101
762.500	-12.267	0.101
762.600	-16.475	0.100
762.700	2.031	0.101
762.800	-10.990	0.101
762.900	-12.432	0.101
763.000	-30.639	0.100
763.100	-43.036	0.101
763.200	-24.537	0.101
763.300	6.722	0.101
763.400	10.299	0.101
763.500	1.052	0.101
763.600	-26.801	0.101
763.700	19.012	0.100
763.800	-15.864	0.101
763.900	-18.975	0.100
764.000	-30.253	0.100
764.100	-32.762	0.101
764.200	16.016	0.100
764.300	-36.901	0.101
764.400	-3.910	0.100
764.500	-8.215	0.101
764.600	21.606	0.101
764.700	-6.343	0.101
764.800	27.180	0.101
764.900	2.113	0.100
765.000	-36.149	0.101
765.100	21.700	0.100
765.200	-55.696	0.100
765.300	-3.562	0.100
765.400	-17.310	0.100
765.500	-21.445	0.101
765.600	-0.213	0.100
765.700	-13.299	0.101
765.800	-25.014	0.101
765.900	1.459	0.101
766.000	19.365	0.101
766.100	-24.193	0.100
766.200	-9.790	0.101
766.300	2.397	0.101
766.400	-20.122	0.101
766.500	-40.056	0.100
766.600	8.756	0.100
766.700	-26.525	0.100
766.800	-3.583	0.100
766.900	2.496	0.101
767.000	-9.274	0.101
767.100	-0.134	0.101
767.200	-7.127	0.100
767.300	-19.368	0.101
767.400	15.507	0.100
767.500	-5.829	0.100
767.600	10.723	0.100
767.700	2.709	0.100
767.800	-2.482	0.101
767.900	-24.617	0.101
768.000	-29.363	0.101
768.100	-13.126	0.101
768.200	-7.363	0.101
768.300	-3.142	0.101
768.400	-33.103	0.101
768.500	-25.910	0.101
768.600	-27.485	0.101
768.700	-40.564	0.101
768.800	8.259	0.101
768.900	-10.166	0.101
769.000	8.397	0.101
769.100	10.536	0.101
769.200	30.356	0.100
769.300	2.617	0.100
769.400	5.125	0.100
769.500	9.415	0.101
769.600	-12.600	0.101
769.700	-12.332	0.100
769.800	-14.981	0.101
769.900	-5.984	0.101
770.000	-10.234	0.101
770.100	-29.462	0.101
770.200	-3.358	0.101
770.300	-27.165	0.101
770.400	-8.811	0.100
770.500	-13.649	0.101
770.600	-20.207	0.100
770.700	-16.233	0.101
770.800	-9.666	0.101
770.900	-22.376	0.101
771.000	9.107	0.101
771.100	-12.978	0.101
771.200	-17.256	0.101
771.300	-1.763	0.100
771.400	-6.305	0.101
771.500	-34.794	0.101
771.600	15.019	0.101
771.700	-0.395	0.101
771.800	-32.415	0.100
771.900	-10.326	0.101
772.000	-8.347	0.101
772.100	-15.348	0.101
772.200	-34.839	0.101
772.300	15.165	0.101
772.400	-12.643	0.101
772.500	6.094	0.101
772.600	-14.341	0.101
772.700	1.725	0.101
772.800	-47.493	0.100
772.900	18.804	0.101
773.000	-7.907	0.101
773.100	-17.385	0.100
773.200	-6.349	0.100
773.300	0.973	0.101
773.400	17.273	0.101
773.500	-15.077	0.101
773.600	-61.555	0.101
773.700	-26.319	0.101
773.800	13.045	0.100
773.900	0.347	0.100
774.000	-13.457	0.101
774.100	-29.971	0.101
774.200	3.319	0.100
774.300	10.440	0.100
774.400	-7.869	0.101
774.500	-32.655	0.100
774.600	11.540	0.101
774.700	-5.991	0.101
774.800	-4.879	0.100
774.900	-13.975	0.101
775.000	-18.924	0.101
775.100	-13.758	0.100
775.200	-24.326	0.101
775.300	18.817	0.101
775.400	1.780	0.100
775.500	-10.749	0.101
775.600	0.966	0.100
775.700	9.356	0.101
775.800	-28.168	0.101
775.900	-35.078	0.100
776.000	32.786	0.101
776.100	-31.088	0.101
776.200	-5.943	0.101
776.300	17.302	0.101
776.400	-37.521	0.100
776.500	-17.794	0.100
776.600	-17.862	0.101
776.700	-1.680	0.101
776.800	11.185	0.101
776.900	-34.423	0.101
777.000	-13.192	0.100
777.100	-11.523	0.101
777.200	5.501	0.101
777.300	-7.895	0.101
777.400	28.254	0.101
777.500	4.117	0.101
777.600	-0.174	0.101
777.700	-18.259	0.100
777.800	-20.275	0.101
777.900	-11.675	0.101
778.000	6.578	0.101
778.100	-30.744	0.100
778.200	-25.263	0.100
778.300	5.689	0.101
778.400	9.634	0.100
778.500	-6.190	0.101
778.600	-18.175	0.101
778.700	5.034	0.101
778.800	13.543	0.101
778.900	-34.653	0.101
779.000	4.375	0.101
779.100	-8.286	0.101
779.200	-6.669	0.100
779.300	-23.637	0.101
779.400	-7.096	0.101
779.500	-8.982	0.101
779.600	-15.511	0.101
779.700	-13.096	0.101
779.800	-12.755	0.101
779.900	-1.269	0.101
780.000	-25.372	0.101
780.100	-16.258	0.100
780.200	-9.315	0.101
780.300	6.651	0.100
780.400	-13.718	0.101
780.500	-19.703	0.101
780.600	7.497	0.101
780.700	-10.698	0.101
780.800	21.066	0.101
780.900	-51.117	0.101
781.000	18.583	0.101
781.100	14.161	0.101
781.200	-57.873	0.101
781.300	-10.338	0.101
781.400	10.864	0.100
781.500	24.224	0.101
781.600	-14.904	0.101
781.700	-2.166	0.101
781.800	-8.587	0.100
781.900	-7.007	0.101
782.000	4.535	0.101
782.100	1.027	0.100
782.200	1.850	0.101
782.300	-23.507	0.100
782.400	-13.447	0.100
782.500	-8.413	0.100
782.600	-11.865	0.101
782.700	6.948	0.101
782.800	-23.423	0.101
782.900	3.105	0.101
783.000	31.652	0.101
783.100	-29.887	0.100
783.200	-5.265	0.100
783.300	10.182	0.100
783.400	7.804	0.101
783.500	25.423	0.101
783.600	-5.537	0.101
783.700	-19.506	0.101
783.800	-28.233	0.101
783.900	-26.122	0.101
784.000	-49.102	0.101
784.100	17.860	0.101
784.200	20.729	0.101
784.300	16.679	0.101
784.400	11.627	0.101
784.500	-11.658	0.101
784.600	1.167	0.101
784.700	14.752	0.101
784.800	-17.510	0.101
784.900	-5.002	0.101
785.000	0.354	0.100
785.100	-9.013	0.101
785.200	-4.629	0.101
785.300	-3.157	0.101
785.400	16.224	0.101
785.500	5.370	0.101
785.600	-28.700	0.101
785.700	-18.783	0.100
785.800	23.718	0.100
785.900	1.802	0.101
786.000	-1.598	0.101
786.100	0.377	0.101
786.200	-26.446	0.101
786.300	-5.510	0.101
786.400	16.682	0.101
786.500	1.663	0.101
786.600	3.002	0.101
786.700	-32.173	0.101
786.800	-1.604	0.101
786.900	-4.079	0.101
787.000	-2.180	0.101
787.100	30.529	0.101
787.200	-1.674	0.100
787.300	-9.254	0.101
787.400	-4.969	0.101
787.500	-19.455	0.101
787.600	7.094	0.101
787.700	6.923	0.101
787.800	25.690	0.101
787.900	-2.694	0.101
788.000	-4.980	0.101
788.100	7.981	0.101
788.200	14.287	0.101
788.300	1.334	0.100
788.400	-28.689	0.100
788.500	-12.814	0.100
788.600	-3.828	0.101
788.700	7.859	0.101
788.800	3.656	0.100
788.900	8.624	0.100
789.000	27.148	0.101
789.100	5.371	0.100
789.200	26.704	0.100
789.300	-11.247	0.101
789.400	13.287	0.101
789.500	10.977	0.101
789.600	-20.093	0.101
789.700	5.009	0.101
789.800	26.966	0.101
789.900	32.550	0.100
790.000	1.205	0.101
790.100	8.501	0.101
790.200	14.920	0.101
790.300	18.631	0.101
790.400	19.515	0.101
790.500	4.757	0.101
790.600	18.989	0.100
790.700	28.188	0.101
790.800	21.017	0.101
790.900	-2.750	0.101
791.000	6.931	0.101
791.100	19.464	0.100
791.200	19.603	0.101
791.300	7.044	0.101
791.400	-13.243	0.100
791.500	12.413	0.101
791.600	0.085	0.101
791.700	1.472	0.101
791.800	19.969	0.101
791.900	31.020	0.101
792.000	-3.020	0.101
792.100	-2.493	0.101
792.200	-7.136	0.101
792.300	22.519	0.101
792.400	-2.681	0.101
792.500	-11.372	0.100
792.600	22.364	0.101
792.700	0.237	0.101
792.800	14.094	0.101
792.900	2.144	0.101
793.000	-17.113	0.100
793.100	-12.627	0.101
793.200	24.561	0.101
793.300	10.561	0.100
793.400	11.589	0.100
793.500	-1.646	0.101
793.600	7.244	0.101
793.700	-7.004	0.101
793.800	10.489	0.101
793.900	5.539	0.101
794.000	32.367	0.100
794.100	11.133	0.100
794.200	-12.654	0.101
794.300	-16.826	0.101
794.400	10.757	0.101
794.500	-11.368	0.101
794.600	-18.559	0.101
794.700	19.863	0.101
794.800	-4.724	0.100
794.900	-16.217	0.100
795.000	24.248	0.100
795.100	-10.529	0.101
795.200	14.802	0.101
795.300	-18.410	0.100
795.400	11.579	0.100
795.500	48.820	0.100
795.600	6.940	0.100
795.700	-21.556	0.100
795.800	-15.107	0.100
795.900	11.932	0.101
796.000	10.363	0.100
796.100	14.214	0.101
796.200	12.792	0.100
796.300	-7.059	0.100
796.400	-1.387	0.100
796.500	3.836	0.100
796.600	-11.823	0.101
796.700	4.036	0.101
796.800	20.189	0.100
796.900	-7.109	0.100
797.000	0.903	0.100
797.100	-12.733	0.100
797.200	8.773	0.101
797.300	36.386	0.101
797.400	17.495	0.100
797.500	-8.836	0.101
797.600	-0.021	0.100
797.700	-16.184	0.100
797.800	12.731	0.101
797.900	5.474	0.101
798.000	17.828	0.100
798.100	1.454	0.100
798.200	5.304	0.101
798.300	10.738	0.101
798.400	39.422	0.101
798.500	8.432	0.101
798.600	-22.431	0.100
798.700	7.669	0.100
798.800	6.222	0.101
798.900	33.095	0.100
799.000	33.790	0.101
799.100	20.528	0.101
799.200	45.960	0.101
799.300	18.594	0.101
799.400	-4.170	0.101
799.500	6.308	0.100
799.600	-1.888	0.100
799.700	25.095	0.100
799.800	27.062	0.101
799.900	-10.221	0.100
800.000	-4.287	0.101
