time /s	I /nA	E /V
0.100	-20.209	0.101
0.200	-12.165	0.101
0.300	-11.309	0.101
0.400	-8.139	0.101
0.500	5.714	0.101
0.600	-2.214	0.101
0.700	-7.326	0.101
0.800	-8.160	0.101
0.900	-5.126	0.101
1.000	-6.767	0.101
1.100	8.612	0.101
1.200	1.860	0.101
1.300	-0.209	0.101
1.400	-0.822	0.101
1.500	4.816	0.101
1.600	-16.135	0.101
1.700	-7.609	0.101
1.800	-6.081	0.101
1.900	2.048	0.101
2.000	-9.280	0.101
2.100	9.453	0.101
2.200	-4.369	0.101
2.300	-10.989	0.101
2.400	-3.732	0.101
2.500	-12.967	0.101
2.600	2.424	0.101
2.700	1.026	0.101
2.800	-3.648	0.101
2.900	0.625	0.101
3.000	-10.501	0.101
3.100	-3.339	0.101
3.200	-17.883	0.101
3.300	-5.247	0.101
3.400	2.408	0.101
3.500	-12.568	0.101
3.600	-10.866	0.101
3.700	2.653	0.101
3.800	2.457	0.101
3.900	-6.265	0.101
4.000	3.137	0.101
4.100	-0.703	0.101
4.200	-1.189	0.101
4.300	-7.826	0.101
4.400	-5.194	0.101
4.500	5.054	0.101
4.600	-4.742	0.101
4.700	-16.459	0.101
4.800	-9.220	0.101
4.900	-5.779	0.101
5.000	-3.901	0.101
5.100	-20.596	0.101
5.200	-3.961	0.101
5.300	-14.410	0.101
5.400	-4.841	0.101
5.500	-0.983	0.101
5.600	-3.305	0.101
5.700	-14.843	0.101
5.800	-2.167	0.101
5.900	4.059	0.101
6.000	1.279	0.101
6.100	-6.047	0.101
6.200	-2.452	0.101
6.300	-5.524	0.101
6.400	-11.666	0.101
6.500	3.476	0.101
6.600	-10.917	0.101
6.700	-0.753	0.101
6.800	-0.779	0.101
6.900	-7.207	0.101
7.000	-4.724	0.101
7.100	-6.029	0.101
7.200	-5.830	0.101
7.300	-1.512	0.101
7.400	-1.500	0.101
7.500	-9.492	0.101
7.600	-2.107	0.101
7.700	-11.083	0.101
7.800	-7.114	0.101
7.900	-6.597	0.101
8.000	-3.555	0.101
8.100	-17.388	0.101
8.200	-13.291	0.101
8.300	-3.617	0.101
8.400	-1.314	0.101
8.500	-4.502	0.101
8.600	-27.055	0.101
8.700	-0.413	0.101
8.800	-2.392	0.101
8.900	8.221	0.101
9.000	-11.791	0.101
9.100	-2.022	0.101
9.200	-19.396	0.101
9.300	3.904	0.101
9.400	-9.886	0.101
9.500	-14.685	0.101
9.600	10.789	0.101
9.700	9.423	0.101
9.800	-5.584	0.101
9.900	-9.435	0.101
10.000	-3.941	0.101
10.100	-6.053	0.101
10.200	-5.789	0.101
10.300	-4.224	0.101
10.400	-17.597	0.101
10.500	-8.932	0.101
10.600	-16.575	0.101
10.700	-8.780	0.101
10.800	-0.763	0.101
10.900	-10.582	0.101
11.000	4.075	0.101
11.100	4.061	0.101
11.200	-1.800	0.101
11.300	-6.988	0.101
11.400	-15.563	0.101
11.500	3.147	0.101
11.600	-4.834	0.101
11.700	9.820	0.101
11.800	-5.640	0.101
11.900	-16.255	0.101
12.000	10.058	0.101
12.100	-21.983	0.101
12.200	-10.767	0.101
12.300	-1.788	0.101
12.400	-6.310	0.101
12.500	-10.237	0.101
12.600	-1.239	0.101
12.700	-4.025	0.101
12.800	-5.741	0.101
12.900	-2.910	0.101
13.000	-9.789	0.101
13.100	7.490	0.101
13.200	-7.789	0.101
13.300	0.585	0.101
13.400	-3.793	0.101
13.500	-8.529	0.101
13.600	-15.171	0.101
13.700	-0.376	0.101
13.800	-9.276	0.101
13.900	4.080	0.101
14.000	1.188	0.101
14.100	0.057	0.101
14.200	-12.606	0.101
14.300	-11.805	0.101
14.400	-12.130	0.101
14.500	-0.404	0.101
14.600	3.745	0.101
14.700	-20.705	0.101
14.800	0.432	0.101
14.900	-7.058	0.101
15.000	-4.078	0.101
15.100	-9.822	0.101
15.200	-16.907	0.101
15.300	-11.686	0.101
15.400	16.246	0.101
15.500	-11.483	0.101
15.600	-2.356	0.101
15.700	-2.165	0.101
15.800	0.627	0.101
15.900	-8.103	0.101
16.000	-6.700	0.101
16.100	-9.933	0.101
16.200	6.844	0.101
16.300	-12.183	0.101
16.400	-12.080	0.101
16.500	-2.804	0.101
16.600	-3.507	0.101
16.700	1.697	0.101
16.800	-7.652	0.101
16.900	-13.738	0.101
17.000	-9.223	0.101
17.100	-10.225	0.101
17.200	6.099	0.101
17.300	-5.636	0.101
17.400	-9.075	0.101
17.500	-0.384	0.101
17.600	2.589	0.101
17.700	-8.513	0.101
17.800	7.176	0.101
17.900	2.541	0.101
18.000	-11.918	0.101
18.100	0.683	0.101
18.200	-16.947	0.101
18.300	-7.869	0.101
18.400	-8.152	0.101
18.500	-13.187	0.101
18.600	-4.584	0.101
18.700	-9.413	0.101
18.800	0.033	0.101
18.900	0.986	0.101
19.000	-6.582	0.101
19.100	-5.475	0.101
19.200	-22.114	0.101
19.300	-8.068	0.101
19.400	2.618	0.101
19.500	-3.425	0.101
19.600	-18.236	0.101
19.700	-13.668	0.101
19.800	1.346	0.101
19.900	-11.391	0.101
20.000	1.521	0.101
20.100	-6.328	0.101
20.200	-10.795	0.101
20.300	7.058	0.101
20.400	10.047	0.101
20.500	-10.784	0.101
20.600	-21.317	0.101
20.700	2.921	0.101
20.800	-2.977	0.101
20.900	-13.617	0.101
21.000	-3.131	0.101
21.100	-9.054	0.101
21.200	-18.640	0.101
21.300	-7.966	0.101
21.400	-1.128	0.101
21.500	13.265	0.101
21.600	-13.969	0.101
21.700	-4.538	0.101
21.800	-0.646	0.101
21.900	-11.972	0.101
22.000	3.209	0.101
22.100	-11.868	0.101
22.200	-8.308	0.101
22.300	3.557	0.101
22.400	-5.744	0.101
22.500	2.058	0.101
22.600	-0.329	0.101
22.700	-3.157	0.101
22.800	3.742	0.101
22.900	-5.789	0.101
23.000	-14.886	0.101
23.100	-4.467	0.101
23.200	3.504	0.101
23.300	-1.869	0.101
23.400	-2.579	0.101
23.500	7.031	0.101
23.600	-1.802	0.101
23.700	-15.883	0.101
23.800	-15.382	0.101
23.900	-8.020	0.101
24.000	8.748	0.101
24.100	-14.326	0.101
24.200	9.780	0.101
24.300	-8.739	0.101
24.400	5.206	0.101
24.500	-2.649	0.101
24.600	-3.137	0.101
24.700	2.071	0.101
24.800	-18.206	0.101
24.900	-17.739	0.101
25.000	-16.625	0.101
25.100	4.105	0.101
25.200	-6.319	0.101
25.300	1.115	0.101
25.400	-5.372	0.101
25.500	-4.182	0.101
25.600	3.199	0.101
25.700	-7.524	0.101
25.800	-1.076	0.101
25.900	-3.853	0.101
26.000	-4.945	0.101
26.100	-2.786	0.101
26.200	-16.809	0.101
26.300	-7.787	0.101
26.400	2.675	0.101
26.500	-1.009	0.101
26.600	-8.677	0.101
26.700	-17.602	0.101
26.800	0.555	0.101
26.900	0.991	0.101
27.000	-7.437	0.101
27.100	7.045	0.101
27.200	-17.174	0.101
27.300	-6.930	0.101
27.400	-7.958	0.101
27.500	-11.705	0.101
27.600	-10.873	0.101
27.700	-1.629	0.101
27.800	-4.665	0.101
27.900	-4.210	0.101
28.000	-12.247	0.101
28.100	-4.906	0.101
28.200	2.995	0.101
28.300	-3.192	0.101
28.400	-5.432	0.101
28.500	-5.952	0.101
28.600	-14.040	0.101
28.700	-1.222	0.101
28.800	-12.746	0.101
28.900	17.684	0.101
29.000	-16.024	0.101
29.100	-0.747	0.101
29.200	-6.880	0.101
29.300	2.351	0.101
29.400	-7.022	0.101
29.500	0.469	0.101
29.600	0.168	0.101
29.700	-10.780	0.101
29.800	-16.903	0.101
29.900	-2.782	0.101
30.000	-14.334	0.101
30.100	2.822	0.101
30.200	-3.396	0.101
30.300	-13.140	0.101
30.400	-3.350	0.101
30.500	-2.040	0.101
30.600	-7.508	0.101
30.700	0.034	0.101
30.800	5.267	0.101
30.900	-0.556	0.101
31.000	18.695	0.101
31.100	1.577	0.101
31.200	14.954	0.101
31.300	11.199	0.101
31.400	17.058	0.101
31.500	11.260	0.101
31.600	7.823	0.101
31.700	10.962	0.101
31.800	12.332	0.101
31.900	7.092	0.101
32.000	10.529	0.101
32.100	21.583	0.101
32.200	8.465	0.101
32.300	26.558	0.101
32.400	1.717	0.101
32.500	28.419	0.101
32.600	0.856	0.101
32.700	21.910	0.101
32.800	18.860	0.101
32.900	11.749	0.101
33.000	7.132	0.101
33.100	10.748	0.101
33.200	11.076	0.101
33.300	13.183	0.101
33.400	12.480	0.101
33.500	19.669	0.101
33.600	5.610	0.101
33.700	19.041	0.101
33.800	21.859	0.101
33.900	9.637	0.101
34.000	13.649	0.101
34.100	22.219	0.101
34.200	16.091	0.101
34.300	2.705	0.101
34.400	8.660	0.101
34.500	8.956	0.101
34.600	-7.827	0.101
34.700	10.466	0.101
34.800	12.426	0.101
34.900	2.662	0.101
35.000	13.663	0.101
35.100	18.292	0.101
35.200	15.040	0.101
35.300	12.246	0.101
35.400	19.970	0.101
35.500	18.182	0.101
35.600	14.520	0.101
35.700	8.431	0.101
35.800	21.792	0.101
35.900	9.366	0.101
36.000	18.181	0.101
36.100	7.214	0.101
36.200	15.166	0.101
36.300	11.720	0.101
36.400	15.142	0.101
36.500	21.264	0.101
36.600	12.781	0.101
36.700	13.538	0.101
36.800	22.633	0.101
36.900	30.528	0.101
37.000	10.584	0.101
37.100	27.538	0.101
37.200	16.232	0.101
37.300	24.949	0.101
37.400	27.140	0.101
37.500	5.449	0.101
37.600	15.607	0.101
37.700	16.820	0.101
37.800	11.791	0.101
37.900	24.457	0.101
38.000	24.232	0.101
38.100	27.315	0.101
38.200	21.595	0.101
38.300	27.351	0.101
38.400	23.511	0.101
38.500	22.199	0.101
38.600	23.558	0.101
38.700	22.320	0.101
38.800	36.384	0.101
38.900	16.337	0.101
39.000	25.196	0.101
39.100	27.857	0.101
39.200	19.152	0.101
39.300	20.914	0.101
39.400	33.619	0.101
39.500	14.001	0.101
39.600	20.532	0.101
39.700	29.726	0.101
39.800	16.724	0.101
39.900	27.284	0.101
40.000	17.641	0.101
40.100	16.851	0.101
40.200	19.665	0.101
40.300	19.270	0.101
40.400	21.503	0.101
40.500	21.249	0.101
40.600	17.674	0.101
40.700	21.906	0.101
40.800	42.027	0.101
40.900	30.229	0.101
41.000	21.234	0.101
41.100	15.869	0.101
41.200	32.481	0.101
41.300	21.420	0.101
41.400	19.138	0.101
41.500	16.909	0.101
41.600	22.130	0.101
41.700	23.644	0.101
41.800	27.829	0.101
41.900	20.130	0.101
42.000	25.740	0.101
42.100	25.963	0.101
42.200	30.120	0.101
42.300	25.419	0.101
42.400	14.728	0.101
42.500	24.453	0.101
42.600	29.856	0.101
42.700	30.401	0.101
42.800	29.480	0.101
42.900	12.306	0.101
43.000	29.167	0.101
43.100	14.282	0.101
43.200	28.179	0.101
43.300	38.624	0.101
43.400	34.076	0.101
43.500	29.124	0.101
43.600	19.852	0.101
43.700	19.832	0.101
43.800	31.412	0.101
43.900	29.846	0.101
44.000	26.571	0.101
44.100	22.408	0.101
44.200	31.588	0.101
44.300	19.819	0.101
44.400	32.339	0.101
44.500	21.760	0.101
44.600	17.399	0.101
44.700	24.216	0.101
44.800	18.660	0.101
44.900	26.896	0.101
45.000	26.153	0.101
45.100	32.126	0.101
45.200	46.039	0.101
45.300	10.537	0.101
45.400	15.653	0.101
45.500	24.031	0.101
45.600	21.580	0.101
45.700	33.593	0.101
45.800	16.730	0.101
45.900	20.935	0.101
46.000	30.285	0.101
46.100	15.153	0.101
46.200	7.437	0.101
46.300	33.842	0.101
46.400	22.842	0.101
46.500	27.854	0.101
46.600	24.454	0.101
46.700	17.592	0.101
46.800	25.279	0.101
46.900	22.316	0.101
47.000	20.599	0.101
47.100	19.822	0.101
47.200	24.844	0.101
47.300	18.689	0.101
47.400	18.347	0.101
47.500	17.665	0.101
47.600	32.633	0.101
47.700	23.656	0.101
47.800	20.247	0.101
47.900	25.444	0.101
48.000	21.154	0.101
48.100	22.936	0.101
48.200	10.987	0.101
48.300	29.710	0.101
48.400	23.024	0.101
48.500	26.334	0.101
48.600	22.255	0.101
48.700	18.747	0.101
48.800	23.725	0.101
48.900	21.187	0.101
49.000	15.481	0.101
49.100	25.936	0.101
49.200	19.813	0.101
49.300	31.255	0.101
49.400	42.513	0.101
49.500	9.769	0.101
49.600	23.769	0.101
49.700	24.443	0.101
49.800	13.265	0.101
49.900	18.769	0.101
50.000	17.153	0.101
50.100	35.423	0.101
50.200	36.826	0.101
50.300	15.963	0.101
50.400	24.204	0.101
50.500	41.748	0.101
50.600	24.056	0.101
50.700	20.206	0.101
50.800	35.317	0.101
50.900	17.951	0.101
51.000	33.711	0.101
51.100	23.561	0.101
51.200	11.562	0.101
51.300	13.203	0.101
51.400	36.678	0.101
51.500	20.025	0.101
51.600	38.851	0.101
51.700	14.569	0.101
51.800	18.632	0.101
51.900	26.827	0.101
52.000	27.315	0.101
52.100	14.897	0.101
52.200	15.753	0.101
52.300	17.738	0.101
52.400	22.630	0.101
52.500	24.008	0.101
52.600	33.543	0.101
52.700	28.391	0.101
52.800	18.573	0.101
52.900	12.754	0.101
53.000	18.035	0.101
53.100	31.679	0.101
53.200	30.529	0.101
53.300	26.959	0.101
53.400	29.461	0.101
53.500	19.017	0.101
53.600	13.776	0.101
53.700	18.001	0.101
53.800	14.379	0.101
53.900	26.077	0.101
54.000	28.134	0.101
54.100	29.015	0.101
54.200	20.726	0.101
54.300	25.660	0.101
54.400	21.949	0.101
54.500	30.995	0.101
54.600	24.560	0.101
54.700	40.682	0.101
54.800	24.116	0.101
54.900	25.092	0.101
55.000	17.215	0.101
55.100	39.234	0.101
55.200	14.223	0.101
55.300	20.069	0.101
55.400	21.244	0.101
55.500	24.259	0.101
55.600	26.630	0.101
55.700	27.115	0.101
55.800	13.757	0.101
55.900	33.869	0.101
56.000	12.205	0.101
56.100	15.818	0.101
56.200	21.718	0.101
56.300	16.865	0.101
56.400	26.155	0.101
56.500	27.283	0.101
56.600	28.540	0.101
56.700	19.734	0.101
56.800	35.398	0.101
56.900	30.686	0.101
57.000	14.888	0.101
57.100	27.658	0.101
57.200	13.556	0.101
57.300	21.551	0.101
57.400	27.866	0.101
57.500	13.968	0.101
57.600	25.193	0.101
57.700	29.075	0.101
57.800	17.704	0.101
57.900	25.519	0.101
58.000	17.682	0.101
58.100	24.433	0.101
58.200	25.997	0.101
58.300	19.380	0.101
58.400	23.485	0.101
58.500	22.925	0.101
58.600	19.886	0.101
58.700	22.052	0.101
58.800	23.336	0.101
58.900	29.267	0.101
59.000	33.530	0.101
59.100	25.387	0.101
59.200	26.608	0.101
59.300	16.352	0.101
59.400	16.517	0.101
59.500	25.244	0.101
59.600	15.624	0.101
59.700	32.114	0.101
59.800	18.840	0.101
59.900	21.544	0.101
60.000	28.411	0.101
60.100	23.442	0.101
60.200	16.200	0.101
60.300	14.159	0.101
60.400	19.818	0.101
60.500	32.032	0.101
60.600	18.748	0.101
60.700	12.591	0.101
60.800	26.024	0.101
60.900	19.134	0.101
61.000	29.396	0.101
61.100	36.289	0.101
61.200	24.307	0.101
61.300	18.596	0.101
61.400	39.317	0.101
61.500	25.248	0.101
61.600	36.964	0.101
61.700	23.377	0.101
61.800	33.218	0.101
61.900	24.773	0.101
62.000	19.327	0.101
62.100	23.926	0.101
62.200	28.465	0.101
62.300	12.099	0.101
62.400	23.130	0.101
62.500	17.021	0.101
62.600	18.339	0.101
62.700	8.007	0.101
62.800	21.269	0.101
62.900	33.583	0.101
63.000	29.981	0.101
63.100	30.202	0.101
63.200	24.304	0.101
63.300	28.385	0.101
63.400	22.404	0.101
63.500	34.704	0.101
63.600	34.210	0.101
63.700	14.025	0.101
63.800	28.820	0.101
63.900	34.092	0.101
64.000	33.989	0.101
64.100	31.318	0.101
64.200	38.014	0.101
64.300	22.890	0.101
64.400	29.883	0.101
64.500	21.365	0.101
64.600	26.742	0.101
64.700	21.700	0.101
64.800	18.941	0.101
64.900	23.843	0.101
65.000	16.783	0.101
65.100	20.176	0.101
65.200	20.464	0.101
65.300	26.469	0.101
65.400	11.984	0.101
65.500	30.906	0.101
65.600	29.240	0.101
65.700	31.388	0.101
65.800	9.651	0.101
65.900	38.031	0.101
66.000	20.240	0.101
66.100	34.942	0.101
66.200	26.807	0.101
66.300	24.002	0.101
66.400	32.740	0.101
66.500	22.836	0.101
66.600	14.000	0.101
66.700	28.723	0.101
66.800	16.713	0.101
66.900	18.249	0.101
67.000	26.905	0.101
67.100	29.339	0.101
67.200	22.301	0.101
67.300	16.822	0.101
67.400	21.446	0.101
67.500	31.085	0.101
67.600	29.437	0.101
67.700	16.163	0.101
67.800	15.076	0.101
67.900	25.945	0.101
68.000	26.793	0.101
68.100	20.155	0.101
68.200	25.640	0.101
68.300	30.632	0.101
68.400	27.770	0.101
68.500	15.035	0.101
68.600	20.386	0.101
68.700	31.005	0.101
68.800	21.688	0.101
68.900	26.881	0.101
69.000	21.302	0.101
69.100	30.478	0.101
69.200	30.148	0.101
69.300	20.436	0.101
69.400	17.746	0.101
69.500	29.724	0.101
69.600	15.485	0.101
69.700	28.354	0.101
69.800	27.244	0.101
69.900	37.384	0.101
70.000	38.652	0.101
70.100	27.917	0.101
70.200	26.204	0.101
70.300	16.166	0.101
70.400	30.589	0.101
70.500	15.350	0.101
70.600	24.076	0.101
70.700	24.694	0.101
70.800	23.490	0.101
70.900	30.436	0.101
71.000	24.900	0.101
71.100	18.864	0.101
71.200	22.923	0.101
71.300	30.363	0.101
71.400	6.491	0.101
71.500	26.321	0.101
71.600	28.099	0.101
71.700	23.732	0.101
71.800	26.390	0.101
71.900	33.843	0.101
72.000	26.715	0.101
72.100	16.202	0.101
72.200	10.328	0.101
72.300	27.023	0.101
72.400	29.426	0.101
72.500	28.388	0.101
72.600	29.051	0.101
72.700	22.345	0.101
72.800	21.956	0.101
72.900	28.720	0.101
73.000	17.304	0.101
73.100	12.295	0.101
73.200	23.372	0.101
73.300	29.105	0.101
73.400	21.571	0.101
73.500	34.505	0.101
73.600	27.310	0.101
73.700	22.187	0.101
73.800	25.460	0.101
73.900	18.587	0.101
74.000	30.030	0.101
74.100	24.635	0.101
74.200	25.180	0.101
74.300	26.818	0.101
74.400	23.072	0.101
74.500	21.067	0.101
74.600	34.812	0.101
74.700	19.856	0.101
74.800	21.999	0.101
74.900	31.352	0.101
75.000	32.840	0.101
75.100	33.882	0.101
75.200	18.583	0.101
75.300	21.397	0.101
75.400	23.861	0.101
75.500	43.157	0.101
75.600	25.065	0.101
75.700	18.840	0.101
75.800	30.453	0.101
75.900	41.372	0.101
76.000	12.393	0.101
76.100	25.747	0.101
76.200	20.308	0.101
76.300	15.751	0.101
76.400	12.122	0.101
76.500	30.846	0.101
76.600	27.470	0.101
76.700	23.060	0.101
76.800	39.308	0.101
76.900	33.961	0.101
77.000	32.524	0.101
77.100	16.651	0.101
77.200	30.535	0.101
77.300	14.592	0.101
77.400	13.187	0.101
77.500	26.181	0.101
77.600	21.044	0.101
77.700	38.132	0.101
77.800	30.948	0.101
77.900	40.158	0.101
78.000	33.797	0.101
78.100	31.120	0.101
78.200	22.267	0.101
78.300	16.375	0.101
78.400	30.843	0.101
78.500	18.800	0.101
78.600	30.511	0.101
78.700	29.210	0.101
78.800	24.295	0.101
78.900	28.528	0.101
79.000	26.522	0.101
79.100	21.244	0.101
79.200	29.358	0.101
79.300	34.696	0.101
79.400	17.001	0.101
79.500	21.811	0.101
79.600	21.463	0.101
79.700	34.244	0.101
79.800	20.868	0.101
79.900	29.195	0.101
80.000	20.629	0.101
80.100	36.344	0.101
80.200	11.422	0.101
80.300	28.930	0.101
80.400	32.461	0.101
80.500	40.319	0.101
80.600	11.949	0.101
80.700	22.271	0.101
80.800	35.866	0.101
80.900	39.280	0.101
81.000	18.881	0.101
81.100	24.064	0.101
81.200	26.831	0.101
81.300	21.140	0.101
81.400	28.488	0.101
81.500	23.765	0.101
81.600	38.323	0.101
81.700	31.292	0.101
81.800	21.806	0.101
81.900	1.913	0.101
82.000	25.021	0.101
82.100	26.948	0.101
82.200	35.860	0.101
82.300	17.893	0.101
82.400	14.096	0.101
82.500	14.694	0.101
82.600	31.437	0.101
82.700	33.705	0.101
82.800	28.192	0.101
82.900	23.030	0.101
83.000	32.682	0.101
83.100	29.102	0.101
83.200	22.963	0.101
83.300	21.474	0.101
83.400	19.215	0.101
83.500	30.512	0.101
83.600	24.364	0.101
83.700	23.651	0.101
83.800	20.078	0.101
83.900	16.675	0.101
84.000	16.721	0.101
84.100	19.374	0.101
84.200	24.279	0.101
84.300	30.437	0.101
84.400	33.752	0.101
84.500	12.224	0.101
84.600	33.222	0.101
84.700	15.500	0.101
84.800	32.515	0.101
84.900	38.126	0.101
85.000	33.372	0.101
85.100	24.302	0.101
85.200	25.119	0.101
85.300	20.803	0.101
85.400	34.427	0.101
85.500	34.049	0.101
85.600	22.393	0.101
85.700	29.272	0.101
85.800	47.328	0.101
85.900	33.565	0.101
86.000	17.959	0.101
86.100	22.469	0.101
86.200	23.006	0.101
86.300	23.849	0.101
86.400	23.046	0.101
86.500	39.699	0.101
86.600	28.059	0.101
86.700	20.923	0.101
86.800	16.892	0.101
86.900	18.195	0.101
87.000	30.523	0.101
87.100	38.429	0.101
87.200	20.376	0.101
87.300	21.776	0.101
87.400	31.561	0.101
87.500	30.638	0.101
87.600	31.042	0.101
87.700	42.562	0.101
87.800	20.252	0.101
87.900	28.004	0.101
88.000	19.046	0.101
88.100	28.186	0.101
88.200	21.002	0.101
88.300	16.931	0.101
88.400	21.834	0.101
88.500	28.241	0.101
88.600	35.049	0.101
88.700	30.044	0.101
88.800	27.832	0.101
88.900	31.160	0.101
89.000	17.102	0.101
89.100	25.523	0.101
89.200	24.140	0.101
89.300	36.514	0.101
89.400	13.045	0.101
89.500	34.199	0.101
89.600	21.419	0.101
89.700	21.558	0.101
89.800	25.145	0.101
89.900	26.769	0.101
90.000	32.128	0.101
90.100	30.711	0.101
90.200	21.442	0.101
90.300	25.203	0.101
90.400	31.431	0.101
90.500	26.789	0.101
90.600	31.494	0.101
90.700	24.907	0.101
90.800	15.461	0.101
90.900	13.091	0.101
91.000	11.315	0.101
91.100	19.470	0.101
91.200	2.332	0.101
91.300	27.741	0.101
91.400	21.070	0.101
91.500	17.609	0.101
91.600	17.341	0.101
91.700	8.901	0.101
91.800	21.160	0.101
91.900	10.146	0.101
92.000	12.731	0.101
92.100	16.294	0.101
92.200	10.416	0.101
92.300	4.431	0.101
92.400	0.807	0.101
92.500	4.792	0.101
92.600	10.926	0.101
92.700	6.572	0.101
92.800	16.901	0.101
92.900	12.324	0.101
93.000	8.460	0.101
93.100	-8.227	0.101
93.200	22.582	0.101
93.300	7.667	0.101
93.400	7.804	0.101
93.500	7.869	0.101
93.600	3.765	0.101
93.700	11.092	0.101
93.800	-6.900	0.101
93.900	-2.235	0.101
94.000	-2.824	0.101
94.100	3.734	0.101
94.200	-5.188	0.101
94.300	-0.061	0.101
94.400	-7.965	0.101
94.500	-3.684	0.101
94.600	1.484	0.101
94.700	-3.539	0.101
94.800	1.371	0.101
94.900	0.819	0.101
95.000	3.918	0.101
95.100	16.027	0.101
95.200	-1.048	0.101
95.300	-4.229	0.101
95.400	4.980	0.101
95.500	9.564	0.101
95.600	12.029	0.101
95.700	1.173	0.101
95.800	10.232	0.101
95.900	-0.647	0.101
96.000	1.488	0.101
96.100	-1.512	0.101
96.200	12.767	0.101
96.300	-8.119	0.101
96.400	5.921	0.101
96.500	-7.923	0.101
96.600	3.476	0.101
96.700	6.629	0.101
96.800	6.102	0.101
96.900	-8.050	0.101
97.000	4.787	0.101
97.100	1.234	0.101
97.200	5.718	0.101
97.300	-3.092	0.101
97.400	-6.601	0.101
97.500	0.516	0.101
97.600	3.504	0.101
97.700	6.098	0.101
97.800	-6.177	0.101
97.900	14.345	0.101
98.000	-10.288	0.101
98.100	7.797	0.101
98.200	7.214	0.101
98.300	-4.693	0.101
98.400	0.971	0.101
98.500	14.757	0.101
98.600	-5.613	0.101
98.700	6.136	0.101
98.800	5.789	0.101
98.900	-8.079	0.101
99.000	2.590	0.101
99.100	15.515	0.101
99.200	1.469	0.101
99.300	1.008	0.101
99.400	5.210	0.101
99.500	-14.540	0.101
99.600	0.514	0.101
99.700	13.019	0.101
99.800	5.603	0.101
99.900	-7.543	0.101
100.000	-0.946	0.101
100.100	-7.836	0.101
100.200	-2.243	0.101
100.300	-13.287	0.101
100.400	4.283	0.101
100.500	3.933	0.101
100.600	3.822	0.101
100.700	-0.964	0.101
100.800	1.296	0.101
100.900	14.471	0.101
101.000	5.952	0.101
101.100	17.511	0.101
101.200	13.564	0.101
101.300	1.194	0.101
101.400	11.621	0.101
101.500	-3.889	0.101
101.600	-9.894	0.101
101.700	0.206	0.101
101.800	8.519	0.101
101.900	10.999	0.101
102.000	-11.672	0.101
102.100	-9.032	0.101
102.200	0.406	0.101
102.300	0.848	0.101
102.400	11.256	0.101
102.500	11.662	0.101
102.600	3.861	0.101
102.700	-5.369	0.101
102.800	10.173	0.101
102.900	2.732	0.101
103.000	-5.587	0.101
103.100	15.430	0.101
103.200	-14.060	0.101
103.300	-9.760	0.101
103.400	-4.256	0.101
103.500	3.429	0.101
103.600	14.657	0.101
103.700	-3.141	0.101
103.800	14.446	0.101
103.900	3.136	0.101
104.000	-13.464	0.101
104.100	-5.716	0.101
104.200	1.566	0.101
104.300	-2.717	0.101
104.400	4.113	0.101
104.500	7.816	0.101
104.600	6.178	0.101
104.700	-2.772	0.101
104.800	9.764	0.101
104.900	-6.375	0.101
105.000	18.925	0.101
105.100	2.292	0.101
105.200	5.061	0.101
105.300	-15.355	0.101
105.400	-6.522	0.101
105.500	-5.981	0.101
105.600	2.565	0.101
105.700	-1.824	0.101
105.800	4.023	0.101
105.900	4.928	0.101
106.000	-2.334	0.101
106.100	2.133	0.101
106.200	4.082	0.101
106.300	-7.092	0.101
106.400	0.682	0.101
106.500	-1.190	0.101
106.600	-3.462	0.101
106.700	15.145	0.101
106.800	-4.033	0.101
106.900	-2.058	0.101
107.000	6.349	0.101
107.100	-16.400	0.101
107.200	-12.371	0.101
107.300	15.393	0.101
107.400	-2.268	0.101
107.500	-3.163	0.101
107.600	-3.404	0.101
107.700	10.972	0.101
107.800	-7.895	0.101
107.900	11.859	0.101
108.000	-0.787	0.101
108.100	1.358	0.101
108.200	10.175	0.101
108.300	-4.938	0.101
108.400	-18.253	0.101
108.500	5.022	0.101
108.600	-9.379	0.101
108.700	4.339	0.101
108.800	0.441	0.101
108.900	16.219	0.101
109.000	4.040	0.101
109.100	-10.916	0.101
109.200	-3.606	0.101
109.300	-0.206	0.101
109.400	6.348	0.101
109.500	-1.369	0.101
109.600	-5.365	0.101
109.700	-4.270	0.101
109.800	-0.169	0.101
109.900	-2.945	0.101
110.000	-4.988	0.101
110.100	-9.058	0.101
110.200	-5.540	0.101
110.300	9.938	0.101
110.400	-0.529	0.101
110.500	0.311	0.101
110.600	4.135	0.101
110.700	2.830	0.101
110.800	-1.076	0.101
110.900	4.723	0.101
111.000	3.648	0.101
111.100	-2.403	0.101
111.200	2.077	0.101
111.300	-23.018	0.101
111.400	-4.109	0.101
111.500	14.813	0.101
111.600	-0.576	0.101
111.700	2.679	0.101
111.800	-6.806	0.101
111.900	-4.040	0.101
112.000	0.291	0.101
112.100	-4.317	0.101
112.200	-1.773	0.101
112.300	-0.346	0.101
112.400	4.043	0.101
112.500	-2.269	0.101
112.600	-9.545	0.101
112.700	4.851	0.101
112.800	-8.616	0.101
112.900	2.148	0.101
113.000	-6.791	0.101
113.100	-0.068	0.101
113.200	-1.689	0.101
113.300	-2.300	0.101
113.400	-7.862	0.101
113.500	0.258	0.101
113.600	-3.083	0.101
113.700	-6.312	0.101
113.800	-10.432	0.101
113.900	-5.670	0.101
114.000	11.249	0.101
114.100	14.814	0.101
114.200	-1.039	0.101
114.300	-5.601	0.101
114.400	-8.469	0.101
114.500	-0.059	0.101
114.600	3.264	0.101
114.700	-9.217	0.101
114.800	-16.124	0.101
114.900	-0.517	0.101
115.000	0.619	0.101
115.100	1.043	0.101
115.200	-8.143	0.101
115.300	-1.285	0.101
115.400	-1.833	0.101
115.500	2.760	0.101
115.600	-1.419	0.101
115.700	-0.029	0.101
115.800	-4.264	0.101
115.900	-0.889	0.101
116.000	3.260	0.101
116.100	-10.628	0.101
116.200	9.764	0.101
116.300	3.018	0.101
116.400	3.989	0.101
116.500	6.297	0.101
116.600	3.533	0.101
116.700	-10.337	0.101
116.800	3.169	0.101
116.900	-6.088	0.101
117.000	-6.820	0.101
117.100	-6.491	0.101
117.200	10.544	0.101
117.300	-10.567	0.101
117.400	-8.000	0.101
117.500	1.547	0.101
117.600	-5.613	0.101
117.700	-9.083	0.101
117.800	0.803	0.101
117.900	1.415	0.101
118.000	-7.873	0.101
118.100	-4.580	0.101
118.200	-2.723	0.101
118.300	-14.398	0.101
118.400	-1.732	0.101
118.500	-5.187	0.101
118.600	-1.266	0.101
118.700	-16.227	0.101
118.800	-13.276	0.101
118.900	5.309	0.101
119.000	2.888	0.101
119.100	-6.866	0.101
119.200	8.639	0.101
119.300	-7.998	0.101
119.400	3.880	0.101
119.500	-3.552	0.101
119.600	-15.763	0.101
119.700	-9.383	0.101
119.800	-4.138	0.101
119.900	-7.998	0.101
120.000	-2.093	0.101
120.100	-1.228	0.101
120.200	-2.095	0.101
120.300	-4.181	0.101
120.400	-5.645	0.101
120.500	-2.495	0.101
120.600	-12.813	0.101
120.700	-8.729	0.101
120.800	8.384	0.101
120.900	1.043	0.101
121.000	5.171	0.101
121.100	-9.896	0.101
121.200	-4.790	0.101
121.300	-12.828	0.101
121.400	-2.292	0.101
121.500	-8.630	0.101
121.600	-8.686	0.101
121.700	-11.336	0.101
121.800	3.752	0.101
121.900	12.931	0.101
122.000	-6.122	0.101
122.100	8.112	0.101
122.200	-6.591	0.101
122.300	8.091	0.101
122.400	-8.595	0.101
122.500	-4.642	0.101
122.600	-13.378	0.101
122.700	-13.645	0.101
122.800	-2.470	0.101
122.900	-3.015	0.101
123.000	-0.144	0.101
123.100	-10.446	0.101
123.200	-1.038	0.101
123.300	-7.671	0.101
123.400	-4.389	0.101
123.500	-10.954	0.101
123.600	-0.965	0.101
123.700	-5.212	0.101
123.800	1.350	0.101
123.900	-5.371	0.101
124.000	-6.222	0.101
124.100	0.719	0.101
124.200	1.625	0.101
124.300	-3.662	0.101
124.400	-30.532	0.101
124.500	-3.001	0.101
124.600	-9.923	0.101
124.700	-0.980	0.101
124.800	13.700	0.101
124.900	-7.989	0.101
125.000	-6.078	0.101
125.100	-14.743	0.101
125.200	-5.544	0.101
125.300	6.277	0.101
125.400	-5.598	0.101
125.500	-20.878	0.101
125.600	-5.641	0.101
125.700	-1.299	0.101
125.800	-6.597	0.101
125.900	-10.763	0.101
126.000	1.609	0.101
126.100	-12.320	0.101
126.200	-9.833	0.101
126.300	-16.207	0.101
126.400	4.474	0.101
126.500	-20.602	0.101
126.600	-1.485	0.101
126.700	-1.327	0.101
126.800	-7.663	0.101
126.900	-12.151	0.101
127.000	-11.254	0.101
127.100	2.962	0.101
127.200	-7.063	0.101
127.300	-7.042	0.101
127.400	2.752	0.101
127.500	-4.380	0.101
127.600	-6.856	0.101
127.700	-10.897	0.101
127.800	-10.926	0.101
127.900	-13.268	0.101
128.000	-7.097	0.101
128.100	-11.779	0.101
128.200	-6.597	0.101
128.300	10.326	0.101
128.400	-18.590	0.101
128.500	-2.698	0.101
128.600	-9.298	0.101
128.700	-9.919	0.101
128.800	-9.075	0.101
128.900	-13.438	0.101
129.000	1.781	0.101
129.100	-6.823	0.101
129.200	5.775	0.101
129.300	-10.117	0.101
129.400	6.241	0.101
129.500	-4.179	0.101
129.600	-16.817	0.101
129.700	-4.763	0.101
129.800	-6.692	0.101
129.900	-11.636	0.101
130.000	-18.005	0.101
130.100	-2.879	0.101
130.200	12.888	0.101
130.300	8.502	0.101
130.400	-2.039	0.101
130.500	-2.296	0.101
130.600	-2.225	0.101
130.700	-14.433	0.101
130.800	-20.686	0.101
130.900	-14.125	0.101
131.000	-8.401	0.101
131.100	-13.972	0.101
131.200	-12.570	0.101
131.300	-1.275	0.101
131.400	-7.998	0.101
131.500	-6.794	0.101
131.600	-3.443	0.101
131.700	5.861	0.101
131.800	-15.506	0.101
131.900	-13.187	0.101
132.000	-6.684	0.101
132.100	-7.593	0.101
132.200	-19.988	0.101
132.300	-2.917	0.101
132.400	-1.141	0.101
132.500	-10.110	0.101
132.600	-7.589	0.101
132.700	2.505	0.101
132.800	-10.046	0.101
132.900	-17.494	0.101
133.000	6.369	0.101
133.100	10.973	0.101
133.200	-10.144	0.101
133.300	-6.475	0.101
133.400	-12.422	0.101
133.500	-16.080	0.101
133.600	-24.445	0.101
133.700	-8.864	0.101
133.800	1.057	0.101
133.900	-11.289	0.101
134.000	-11.340	0.101
134.100	-2.888	0.101
134.200	-0.416	0.101
134.300	-7.906	0.101
134.400	-12.693	0.101
134.500	-2.556	0.101
134.600	-9.661	0.101
134.700	-17.596	0.101
134.800	-2.840	0.101
134.900	-8.916	0.101
135.000	-18.911	0.101
135.100	1.578	0.101
135.200	-6.856	0.101
135.300	-8.092	0.101
135.400	-0.910	0.101
135.500	-3.064	0.101
135.600	-18.484	0.101
135.700	-9.393	0.101
135.800	-2.761	0.101
135.900	-1.060	0.101
136.000	-15.327	0.101
136.100	-1.111	0.101
136.200	2.172	0.101
136.300	-20.833	0.101
136.400	-2.771	0.101
136.500	-16.783	0.101
136.600	-7.225	0.101
136.700	-18.303	0.101
136.800	-22.507	0.101
136.900	-6.246	0.101
137.000	1.505	0.101
137.100	-6.315	0.101
137.200	-8.877	0.101
137.300	-4.663	0.101
137.400	-11.405	0.101
137.500	-10.268	0.101
137.600	-14.350	0.101
137.700	-13.071	0.101
137.800	-8.623	0.101
137.900	-17.287	0.101
138.000	-13.366	0.101
138.100	-1.599	0.101
138.200	-11.540	0.101
138.300	-4.475	0.101
138.400	-0.840	0.101
138.500	-12.628	0.101
138.600	-12.285	0.101
138.700	-5.587	0.101
138.800	-7.726	0.101
138.900	-9.722	0.101
139.000	-6.364	0.101
139.100	2.106	0.101
139.200	-12.952	0.101
139.300	-13.737	0.101
139.400	2.338	0.101
139.500	1.601	0.101
139.600	-12.794	0.101
139.700	-6.452	0.101
139.800	-7.457	0.101
139.900	-17.502	0.101
140.000	1.820	0.101
140.100	-8.515	0.101
140.200	-19.189	0.101
140.300	-10.202	0.101
140.400	-10.529	0.101
140.500	-7.964	0.101
140.600	-11.950	0.101
140.700	1.085	0.101
140.800	-0.775	0.101
140.900	-3.144	0.101
141.000	-10.636	0.101
141.100	-15.374	0.101
141.200	2.227	0.101
141.300	-12.440	0.101
141.400	-9.069	0.101
141.500	-2.952	0.101
141.600	-16.302	0.101
141.700	-14.489	0.101
141.800	-8.361	0.101
141.900	5.481	0.101
142.000	-4.518	0.101
142.100	-6.703	0.101
142.200	-9.464	0.101
142.300	-18.627	0.101
142.400	-13.427	0.101
142.500	-1.838	0.101
142.600	-0.263	0.101
142.700	-10.613	0.101
142.800	-22.333	0.101
142.900	-14.217	0.101
143.000	-6.018	0.101
143.100	-21.386	0.101
143.200	-13.579	0.101
143.300	0.327	0.101
143.400	4.713	0.101
143.500	-9.712	0.101
143.600	-6.981	0.101
143.700	-14.423	0.101
143.800	-12.606	0.101
143.900	3.759	0.101
144.000	-1.774	0.101
144.100	-12.784	0.101
144.200	-8.980	0.101
144.300	-18.469	0.101
144.400	-12.800	0.101
144.500	-17.084	0.101
144.600	-13.251	0.101
144.700	-4.523	0.101
144.800	-5.018	0.101
144.900	-4.974	0.101
145.000	-4.309	0.101
145.100	-20.646	0.101
145.200	-15.825	0.101
145.300	-12.415	0.101
145.400	8.012	0.101
145.500	-18.325	0.101
145.600	-9.413	0.101
145.700	-14.518	0.101
145.800	-13.929	0.101
145.900	-1.575	0.101
146.000	-10.304	0.101
146.100	-1.877	0.101
146.200	13.777	0.101
146.300	-5.476	0.101
146.400	-12.044	0.101
146.500	-12.329	0.101
146.600	-12.278	0.101
146.700	-4.166	0.101
146.800	-11.149	0.101
146.900	-16.938	0.101
147.000	-7.899	0.101
147.100	4.499	0.101
147.200	2.260	0.101
147.300	-3.137	0.101
147.400	-2.242	0.101
147.500	-10.618	0.101
147.600	-13.990	0.101
147.700	-6.069	0.101
147.800	-15.034	0.101
147.900	-18.614	0.101
148.000	-5.102	0.101
148.100	-6.546	0.101
148.200	5.262	0.101
148.300	-14.448	0.101
148.400	-7.308	0.101
148.500	-8.323	0.101
148.600	-5.267	0.101
148.700	1.020	0.101
148.800	-1.172	0.101
148.900	-1.987	0.101
149.000	-7.868	0.101
149.100	-5.214	0.101
149.200	-14.450	0.101
149.300	-20.572	0.101
149.400	-8.934	0.101
149.500	0.911	0.101
149.600	-1.102	0.101
149.700	-11.819	0.101
149.800	-7.342	0.101
149.900	-15.372	0.101
150.000	-12.810	0.101
150.100	-8.388	0.101
150.200	-2.658	0.101
150.300	-7.774	0.101
150.400	-11.937	0.101
150.500	-8.453	0.101
150.600	-11.701	0.101
150.700	-16.947	0.101
150.800	-6.405	0.101
150.900	-14.196	0.101
151.000	-11.495	0.101
151.100	-12.181	0.101
151.200	-16.813	0.101
151.300	-0.930	0.101
151.400	-30.221	0.101
151.500	-7.843	0.101
151.600	2.085	0.101
151.700	-14.472	0.101
151.800	-16.789	0.101
151.900	-5.612	0.101
152.000	-24.530	0.101
152.100	-7.808	0.101
152.200	-16.189	0.101
152.300	4.700	0.101
152.400	-6.959	0.101
152.500	-7.665	0.101
152.600	-1.565	0.101
152.700	6.635	0.101
152.800	-10.080	0.101
152.900	-12.460	0.101
153.000	-10.551	0.101
153.100	-6.033	0.101
153.200	-6.965	0.101
153.300	-8.992	0.101
153.400	-11.591	0.101
153.500	-16.036	0.101
153.600	-3.486	0.101
153.700	-10.322	0.101
153.800	1.032	0.101
153.900	-5.133	0.101
154.000	-16.336	0.101
154.100	-17.754	0.101
154.200	-17.605	0.101
154.300	-18.592	0.101
154.400	-3.421	0.101
154.500	-6.124	0.101
154.600	-4.230	0.101
154.700	-15.160	0.101
154.800	-10.943	0.101
154.900	-18.901	0.101
155.000	-11.656	0.101
155.100	-6.282	0.101
155.200	-15.421	0.101
155.300	-4.598	0.101
155.400	-16.388	0.101
155.500	1.954	0.101
155.600	-10.092	0.101
155.700	-7.026	0.101
155.800	0.240	0.101
155.900	-10.798	0.101
156.000	-20.420	0.101
156.100	-12.786	0.101
156.200	-18.136	0.101
156.300	-16.048	0.101
156.400	-3.290	0.101
156.500	-9.413	0.101
156.600	-16.357	0.101
156.700	-4.832	0.101
156.800	-13.647	0.101
156.900	3.074	0.101
157.000	-5.723	0.101
157.100	-2.409	0.101
157.200	-15.547	0.101
157.300	-14.583	0.101
157.400	-1.964	0.101
157.500	-7.446	0.101
157.600	0.088	0.101
157.700	-6.082	0.101
157.800	-5.643	0.101
157.900	-11.021	0.101
158.000	-4.878	0.101
158.100	-9.922	0.101
158.200	-3.414	0.101
158.300	-1.117	0.101
158.400	-18.494	0.101
158.500	0.635	0.101
158.600	-6.975	0.101
158.700	-9.659	0.101
158.800	-8.313	0.101
158.900	-5.364	0.101
159.000	-7.927	0.101
159.100	0.455	0.101
159.200	-3.861	0.101
159.300	-16.258	0.101
159.400	-17.929	0.101
159.500	-0.403	0.101
159.600	-20.076	0.101
159.700	-2.848	0.101
159.800	-5.043	0.101
159.900	3.119	0.101
160.000	-21.995	0.101
160.100	-8.825	0.101
160.200	-16.989	0.101
160.300	-4.448	0.101
160.400	1.155	0.101
160.500	1.996	0.101
160.600	-2.680	0.101
160.700	-4.122	0.101
160.800	-17.175	0.101
160.900	-8.115	0.101
161.000	-17.203	0.101
161.100	-6.225	0.101
161.200	-5.213	0.101
161.300	-9.561	0.101
161.400	-13.666	0.101
161.500	-1.130	0.101
161.600	-28.731	0.101
161.700	-11.193	0.101
161.800	7.101	0.101
161.900	-4.478	0.101
162.000	-19.293	0.101
162.100	-6.538	0.101
162.200	1.621	0.101
162.300	-15.592	0.101
162.400	-19.227	0.101
162.500	-5.443	0.101
162.600	-5.662	0.101
162.700	-1.315	0.101
162.800	-3.141	0.101
162.900	-0.356	0.101
163.000	-14.829	0.101
163.100	-21.836	0.101
163.200	-4.177	0.101
163.300	-6.313	0.101
163.400	-9.488	0.101
163.500	-2.653	0.101
163.600	-10.070	0.101
163.700	-15.260	0.101
163.800	-21.866	0.101
163.900	-15.468	0.101
164.000	-0.608	0.101
164.100	-5.935	0.101
164.200	-6.217	0.101
164.300	-13.109	0.101
164.400	-11.532	0.101
164.500	-6.727	0.101
164.600	-14.504	0.101
164.700	-18.603	0.101
164.800	-13.948	0.101
164.900	6.558	0.101
165.000	-12.141	0.101
165.100	-14.658	0.101
165.200	-11.859	0.101
165.300	-3.734	0.101
165.400	-1.770	0.101
165.500	-9.734	0.101
165.600	-7.583	0.101
165.700	-11.464	0.101
165.800	-8.866	0.101
165.900	-14.738	0.101
166.000	-9.400	0.101
166.100	-10.748	0.101
166.200	-6.850	0.101
166.300	-6.284	0.101
166.400	-5.613	0.101
166.500	-23.009	0.101
166.600	-19.110	0.101
166.700	-17.612	0.101
166.800	-6.409	0.101
166.900	5.246	0.101
167.000	2.270	0.101
167.100	-4.259	0.101
167.200	-11.070	0.101
167.300	-10.799	0.101
167.400	-4.932	0.101
167.500	-11.331	0.101
167.600	-10.163	0.101
167.700	0.314	0.101
167.800	-16.600	0.101
167.900	2.298	0.101
168.000	-0.968	0.101
168.100	-1.684	0.101
168.200	-14.582	0.101
168.300	-7.210	0.101
168.400	-9.973	0.101
168.500	-19.916	0.101
168.600	-12.590	0.101
168.700	-10.774	0.101
168.800	0.408	0.101
168.900	-11.203	0.101
169.000	3.210	0.101
169.100	-14.422	0.101
169.200	-4.843	0.101
169.300	-0.351	0.101
169.400	-18.795	0.101
169.500	-10.193	0.101
169.600	-9.701	0.101
169.700	-8.893	0.101
169.800	-11.859	0.101
169.900	-2.828	0.101
170.000	-5.746	0.101
170.100	5.991	0.101
170.200	-10.922	0.101
170.300	-7.744	0.101
170.400	-1.964	0.101
170.500	-8.390	0.101
170.600	6.463	0.101
170.700	-25.758	0.101
170.800	-8.583	0.101
170.900	-3.281	0.101
171.000	-16.581	0.101
171.100	-5.636	0.101
171.200	-1.192	0.101
171.300	-9.945	0.101
171.400	-10.811	0.101
171.500	-4.924	0.101
171.600	-6.259	0.101
171.700	-1.508	0.101
171.800	-10.014	0.101
171.900	6.468	0.101
172.000	-8.779	0.101
172.100	-23.612	0.101
172.200	-9.678	0.101
172.300	-5.561	0.101
172.400	-6.009	0.101
172.500	-4.028	0.101
172.600	-19.050	0.101
172.700	-18.142	0.101
172.800	-0.237	0.101
172.900	0.196	0.101
173.000	-15.164	0.101
173.100	5.025	0.101
173.200	-9.271	0.101
173.300	-10.038	0.101
173.400	-10.318	0.101
173.500	-8.931	0.101
173.600	0.661	0.101
173.700	6.492	0.101
173.800	1.592	0.101
173.900	-10.639	0.101
174.000	-25.220	0.101
174.100	-7.321	0.101
174.200	-4.647	0.101
174.300	0.243	0.101
174.400	-9.213	0.101
174.500	1.232	0.101
174.600	-7.057	0.101
174.700	-13.462	0.101
174.800	-8.778	0.101
174.900	-0.857	0.101
175.000	-3.055	0.101
175.100	-8.119	0.101
175.200	-10.509	0.101
175.300	-4.520	0.101
175.400	-9.694	0.101
175.500	-7.585	0.101
175.600	-12.584	0.101
175.700	-9.896	0.101
175.800	-26.955	0.101
175.900	-12.122	0.101
176.000	-13.252	0.101
176.100	-10.291	0.101
176.200	-8.354	0.101
176.300	-13.456	0.101
176.400	-4.169	0.101
176.500	-4.555	0.101
176.600	-2.353	0.101
176.700	-15.564	0.101
176.800	-14.301	0.101
176.900	-17.476	0.101
177.000	-10.164	0.101
177.100	-0.490	0.101
177.200	6.245	0.101
177.300	-22.850	0.101
177.400	-7.684	0.101
177.500	-8.049	0.101
177.600	-8.114	0.101
177.700	-9.670	0.101
177.800	5.316	0.101
177.900	-6.032	0.101
178.000	-5.029	0.101
178.100	-8.095	0.101
178.200	-1.950	0.101
178.300	-8.435	0.101
178.400	-5.612	0.101
178.500	-17.955	0.101
178.600	-11.491	0.101
178.700	-9.575	0.101
178.800	-4.503	0.101
178.900	0.580	0.101
179.000	3.851	0.101
179.100	-3.065	0.101
179.200	9.030	0.101
179.300	-17.502	0.101
179.400	-3.903	0.101
179.500	-11.511	0.101
179.600	-8.184	0.101
179.700	-12.719	0.101
179.800	-4.129	0.101
179.900	-8.853	0.101
180.000	-6.298	0.101
180.100	-9.139	0.101
180.200	6.577	0.101
180.300	-14.187	0.101
180.400	-15.389	0.101
180.500	-10.851	0.101
180.600	-3.878	0.101
180.700	-1.726	0.101
180.800	6.406	0.101
180.900	-1.100	0.101
181.000	4.124	0.101
181.100	-8.005	0.101
181.200	3.172	0.101
181.300	-5.490	0.101
181.400	9.569	0.101
181.500	7.047	0.101
181.600	3.883	0.101
181.700	5.892	0.101
181.800	-2.451	0.101
181.900	2.001	0.101
182.000	4.821	0.101
182.100	13.283	0.101
182.200	8.435	0.101
182.300	3.869	0.101
182.400	22.805	0.101
182.500	8.264	0.101
182.600	4.432	0.101
182.700	17.370	0.101
182.800	7.071	0.101
182.900	21.486	0.101
183.000	21.809	0.101
183.100	5.755	0.101
183.200	5.004	0.101
183.300	17.198	0.101
183.400	12.700	0.101
183.500	20.110	0.101
183.600	19.344	0.101
183.700	17.420	0.101
183.800	12.596	0.101
183.900	17.128	0.101
184.000	15.187	0.101
184.100	-0.196	0.101
184.200	12.979	0.101
184.300	8.796	0.101
184.400	19.722	0.101
184.500	9.392	0.101
184.600	4.724	0.101
184.700	13.776	0.101
184.800	14.392	0.101
184.900	15.798	0.101
185.000	5.733	0.101
185.100	20.016	0.101
185.200	11.229	0.101
185.300	13.856	0.101
185.400	9.850	0.101
185.500	18.135	0.101
185.600	15.832	0.101
185.700	18.330	0.101
185.800	9.775	0.101
185.900	7.195	0.101
186.000	-18.303	0.101
186.100	21.416	0.101
186.200	15.499	0.101
186.300	25.794	0.101
186.400	8.818	0.101
186.500	12.425	0.101
186.600	7.875	0.101
186.700	6.120	0.101
186.800	13.215	0.101
186.900	26.290	0.101
187.000	24.622	0.101
187.100	11.063	0.101
187.200	23.254	0.101
187.300	8.414	0.101
187.400	16.882	0.101
187.500	22.258	0.101
187.600	9.075	0.101
187.700	34.665	0.101
187.800	8.306	0.101
187.900	17.097	0.101
188.000	12.138	0.101
188.100	18.872	0.101
188.200	17.336	0.101
188.300	9.136	0.101
188.400	18.913	0.101
188.500	6.968	0.101
188.600	19.373	0.101
188.700	22.756	0.101
188.800	21.267	0.101
188.900	19.155	0.101
189.000	23.026	0.101
189.100	12.423	0.101
189.200	19.090	0.101
189.300	20.913	0.101
189.400	10.536	0.101
189.500	9.108	0.101
189.600	15.278	0.101
189.700	13.188	0.101
189.800	18.696	0.101
189.900	24.297	0.101
190.000	12.728	0.101
190.100	17.111	0.101
190.200	20.458	0.101
190.300	15.336	0.101
190.400	31.346	0.101
190.500	24.283	0.101
190.600	34.296	0.101
190.700	23.130	0.101
190.800	16.052	0.101
190.900	26.196	0.101
191.000	23.614	0.101
191.100	16.645	0.101
191.200	19.540	0.101
191.300	9.670	0.101
191.400	19.775	0.101
191.500	11.514	0.101
191.600	19.946	0.101
191.700	24.717	0.101
191.800	32.525	0.101
191.900	38.869	0.101
192.000	25.560	0.101
192.100	17.156	0.101
192.200	7.806	0.101
192.300	25.895	0.101
192.400	27.831	0.101
192.500	36.166	0.101
192.600	23.183	0.101
192.700	18.002	0.101
192.800	26.989	0.101
192.900	33.810	0.101
193.000	33.617	0.101
193.100	26.259	0.101
193.200	17.375	0.101
193.300	35.073	0.101
193.400	25.962	0.101
193.500	10.195	0.101
193.600	17.045	0.101
193.700	42.998	0.101
193.800	14.014	0.101
193.900	27.633	0.101
194.000	32.773	0.101
194.100	29.802	0.101
194.200	25.056	0.101
194.300	28.651	0.101
194.400	23.312	0.101
194.500	14.451	0.101
194.600	22.609	0.101
194.700	28.162	0.101
194.800	18.279	0.101
194.900	19.085	0.101
195.000	39.196	0.101
195.100	20.614	0.101
195.200	34.242	0.101
195.300	32.736	0.101
195.400	44.862	0.101
195.500	22.455	0.101
195.600	21.258	0.101
195.700	23.287	0.101
195.800	30.335	0.101
195.900	27.166	0.101
196.000	23.361	0.101
196.100	19.848	0.101
196.200	17.772	0.101
196.300	34.137	0.101
196.400	25.271	0.101
196.500	31.097	0.101
196.600	25.547	0.101
196.700	26.049	0.101
196.800	31.139	0.101
196.900	19.385	0.101
197.000	27.569	0.101
197.100	17.394	0.101
197.200	27.997	0.101
197.300	29.556	0.101
197.400	32.026	0.101
197.500	24.644	0.101
197.600	31.854	0.101
197.700	30.276	0.101
197.800	47.426	0.101
197.900	27.327	0.101
198.000	22.370	0.101
198.100	28.065	0.101
198.200	27.654	0.101
198.300	24.458	0.101
198.400	35.599	0.101
198.500	39.114	0.101
198.600	29.078	0.101
198.700	21.357	0.101
198.800	24.580	0.101
198.900	35.453	0.101
199.000	25.326	0.101
199.100	25.054	0.101
199.200	25.657	0.101
199.300	25.421	0.101
199.400	24.164	0.101
199.500	39.923	0.101
199.600	27.574	0.101
199.700	29.950	0.101
199.800	21.571	0.101
199.900	29.507	0.101
200.000	33.641	0.101
200.100	37.588	0.101
200.200	40.077	0.101
200.300	33.631	0.101
200.400	26.925	0.101
200.500	35.118	0.101
200.600	43.156	0.101
200.700	0.218	0.101
200.800	28.344	0.101
200.900	27.614	0.101
201.000	40.973	0.101
201.100	17.979	0.101
201.200	18.318	0.101
201.300	20.364	0.101
201.400	20.351	0.101
201.500	40.697	0.101
201.600	44.186	0.101
201.700	33.114	0.101
201.800	31.077	0.101
201.900	16.128	0.101
202.000	29.114	0.101
202.100	33.988	0.101
202.200	33.677	0.101
202.300	28.449	0.101
202.400	29.608	0.101
202.500	21.619	0.101
202.600	23.156	0.101
202.700	37.374	0.101
202.800	31.082	0.101
202.900	28.090	0.101
203.000	33.320	0.101
203.100	41.324	0.101
203.200	29.830	0.101
203.300	36.753	0.101
203.400	37.451	0.101
203.500	28.090	0.101
203.600	38.341	0.101
203.700	21.769	0.101
203.800	30.555	0.101
203.900	40.199	0.101
204.000	20.596	0.101
204.100	47.173	0.101
204.200	41.000	0.101
204.300	34.345	0.101
204.400	21.370	0.101
204.500	15.767	0.101
204.600	32.227	0.101
204.700	41.904	0.101
204.800	35.314	0.101
204.900	27.964	0.101
205.000	34.974	0.101
205.100	35.912	0.101
205.200	31.879	0.101
205.300	34.958	0.101
205.400	27.106	0.101
205.500	25.411	0.101
205.600	30.794	0.101
205.700	32.305	0.101
205.800	24.014	0.101
205.900	32.318	0.101
206.000	34.040	0.101
206.100	28.711	0.101
206.200	43.247	0.101
206.300	35.738	0.101
206.400	43.194	0.101
206.500	26.731	0.101
206.600	36.479	0.101
206.700	26.752	0.101
206.800	46.570	0.101
206.900	17.148	0.101
207.000	24.364	0.101
207.100	23.560	0.101
207.200	37.158	0.101
207.300	38.769	0.101
207.400	29.492	0.101
207.500	29.434	0.101
207.600	33.528	0.101
207.700	30.720	0.101
207.800	34.782	0.101
207.900	26.105	0.101
208.000	19.466	0.101
208.100	36.616	0.101
208.200	23.127	0.101
208.300	31.420	0.101
208.400	36.057	0.101
208.500	32.367	0.101
208.600	13.748	0.101
208.700	45.093	0.101
208.800	21.838	0.101
208.900	34.198	0.101
209.000	24.867	0.101
209.100	26.852	0.101
209.200	39.405	0.101
209.300	40.199	0.101
209.400	39.221	0.101
209.500	34.821	0.101
209.600	43.330	0.101
209.700	42.514	0.101
209.800	27.328	0.101
209.900	20.896	0.101
210.000	23.108	0.101
210.100	23.345	0.101
210.200	16.722	0.101
210.300	19.727	0.101
210.400	21.086	0.101
210.500	37.406	0.101
210.600	36.511	0.101
210.700	38.856	0.101
210.800	26.082	0.101
210.900	33.139	0.101
211.000	35.332	0.101
211.100	31.820	0.101
211.200	28.475	0.101
211.300	29.521	0.101
211.400	37.100	0.101
211.500	23.297	0.101
211.600	40.478	0.101
211.700	45.295	0.101
211.800	34.805	0.101
211.900	21.148	0.101
212.000	11.029	0.101
212.100	34.784	0.101
212.200	36.933	0.101
212.300	19.161	0.101
212.400	42.538	0.101
212.500	18.792	0.101
212.600	29.783	0.101
212.700	42.223	0.101
212.800	20.451	0.101
212.900	19.195	0.101
213.000	30.550	0.101
213.100	46.138	0.101
213.200	41.770	0.101
213.300	28.659	0.101
213.400	44.633	0.101
213.500	20.242	0.101
213.600	34.237	0.101
213.700	25.160	0.101
213.800	37.993	0.101
213.900	33.509	0.101
214.000	25.058	0.101
214.100	39.845	0.101
214.200	43.383	0.101
214.300	33.571	0.101
214.400	37.614	0.101
214.500	32.583	0.101
214.600	39.098	0.101
214.700	32.378	0.101
214.800	20.299	0.101
214.900	22.033	0.101
215.000	38.494	0.101
215.100	43.163	0.101
215.200	49.613	0.101
215.300	25.817	0.101
215.400	48.436	0.101
215.500	28.946	0.101
215.600	29.377	0.101
215.700	26.070	0.101
215.800	26.779	0.101
215.900	21.397	0.101
216.000	31.362	0.101
216.100	33.027	0.101
216.200	40.810	0.101
216.300	23.848	0.101
216.400	24.029	0.101
216.500	21.176	0.101
216.600	33.898	0.101
216.700	33.120	0.101
216.800	29.872	0.101
216.900	32.260	0.101
217.000	32.876	0.101
217.100	36.349	0.101
217.200	31.434	0.101
217.300	22.631	0.101
217.400	20.227	0.101
217.500	33.476	0.101
217.600	29.025	0.101
217.700	30.750	0.101
217.800	28.240	0.101
217.900	31.748	0.101
218.000	34.007	0.101
218.100	34.213	0.101
218.200	25.033	0.101
218.300	36.714	0.101
218.400	25.655	0.101
218.500	29.415	0.101
218.600	26.647	0.101
218.700	35.668	0.101
218.800	29.105	0.101
218.900	56.416	0.101
219.000	37.311	0.101
219.100	22.864	0.101
219.200	28.620	0.101
219.300	30.825	0.101
219.400	31.205	0.101
219.500	37.685	0.101
219.600	34.881	0.101
219.700	27.094	0.101
219.800	29.023	0.101
219.900	22.620	0.101
220.000	32.129	0.101
220.100	34.101	0.101
220.200	26.970	0.101
220.300	29.464	0.101
220.400	30.265	0.101
220.500	26.095	0.101
220.600	30.543	0.101
220.700	16.534	0.101
220.800	32.299	0.101
220.900	43.104	0.101
221.000	25.841	0.101
221.100	31.604	0.101
221.200	27.421	0.101
221.300	30.264	0.101
221.400	30.307	0.101
221.500	43.012	0.101
221.600	35.533	0.101
221.700	21.455	0.101
221.800	17.308	0.101
221.900	36.758	0.101
222.000	30.518	0.101
222.100	21.152	0.101
222.200	31.785	0.101
222.300	35.669	0.101
222.400	35.236	0.101
222.500	31.997	0.101
222.600	30.693	0.101
222.700	38.410	0.101
222.800	31.190	0.101
222.900	22.975	0.101
223.000	29.893	0.101
223.100	26.059	0.101
223.200	22.024	0.101
223.300	26.290	0.101
223.400	28.714	0.101
223.500	32.963	0.101
223.600	44.574	0.101
223.700	37.620	0.101
223.800	28.136	0.101
223.900	28.124	0.101
224.000	37.062	0.101
224.100	28.981	0.101
224.200	15.514	0.101
224.300	26.435	0.101
224.400	31.759	0.101
224.500	34.716	0.101
224.600	43.237	0.101
224.700	30.347	0.101
224.800	39.492	0.101
224.900	32.746	0.101
225.000	17.634	0.101
225.100	32.649	0.101
225.200	33.845	0.101
225.300	26.863	0.101
225.400	22.317	0.101
225.500	29.222	0.101
225.600	27.296	0.101
225.700	28.324	0.101
225.800	31.164	0.101
225.900	36.636	0.101
226.000	21.013	0.101
226.100	27.168	0.101
226.200	34.782	0.101
226.300	34.432	0.101
226.400	24.931	0.101
226.500	19.124	0.101
226.600	30.286	0.101
226.700	40.410	0.101
226.800	31.968	0.101
226.900	30.663	0.101
227.000	22.186	0.101
227.100	31.314	0.101
227.200	26.869	0.101
227.300	51.353	0.101
227.400	24.760	0.101
227.500	35.187	0.101
227.600	30.075	0.101
227.700	32.819	0.101
227.800	23.526	0.101
227.900	39.371	0.101
228.000	25.569	0.101
228.100	30.335	0.101
228.200	31.251	0.101
228.300	36.041	0.101
228.400	41.296	0.101
228.500	21.678	0.101
228.600	35.539	0.101
228.700	40.352	0.101
228.800	32.071	0.101
228.900	30.013	0.101
229.000	26.425	0.101
229.100	23.466	0.101
229.200	31.147	0.101
229.300	23.645	0.101
229.400	18.276	0.101
229.500	27.276	0.101
229.600	33.224	0.101
229.700	27.504	0.101
229.800	41.294	0.101
229.900	27.492	0.101
230.000	42.281	0.101
230.100	36.016	0.101
230.200	23.654	0.101
230.300	42.365	0.101
230.400	19.978	0.101
230.500	32.580	0.101
230.600	33.014	0.101
230.700	33.824	0.101
230.800	34.625	0.101
230.900	29.865	0.101
231.000	30.437	0.101
231.100	26.980	0.101
231.200	24.938	0.101
231.300	40.527	0.101
231.400	38.109	0.101
231.500	32.689	0.101
231.600	18.456	0.101
231.700	22.635	0.101
231.800	33.440	0.101
231.900	34.841	0.101
232.000	30.071	0.101
232.100	44.000	0.101
232.200	28.184	0.101
232.300	27.907	0.101
232.400	27.856	0.101
232.500	37.209	0.101
232.600	30.618	0.101
232.700	38.476	0.101
232.800	24.101	0.101
232.900	26.585	0.101
233.000	19.705	0.101
233.100	39.825	0.101
233.200	35.139	0.101
233.300	43.669	0.101
233.400	40.220	0.101
233.500	24.155	0.101
233.600	28.629	0.101
233.700	34.972	0.101
233.800	40.740	0.101
233.900	24.187	0.101
234.000	33.253	0.101
234.100	32.547	0.101
234.200	27.500	0.101
234.300	38.857	0.101
234.400	36.572	0.101
234.500	29.157	0.101
234.600	30.355	0.101
234.700	29.381	0.101
234.800	27.263	0.101
234.900	29.500	0.101
235.000	27.800	0.101
235.100	34.394	0.101
235.200	31.968	0.101
235.300	20.774	0.101
235.400	24.319	0.101
235.500	47.590	0.101
235.600	25.665	0.101
235.700	37.315	0.101
235.800	19.320	0.101
235.900	33.724	0.101
236.000	34.319	0.101
236.100	35.014	0.101
236.200	39.371	0.101
236.300	45.431	0.101
236.400	33.976	0.101
236.500	28.918	0.101
236.600	21.496	0.101
236.700	37.013	0.101
236.800	41.833	0.101
236.900	32.709	0.101
237.000	21.965	0.101
237.100	13.801	0.101
237.200	29.875	0.101
237.300	26.898	0.101
237.400	23.848	0.101
237.500	44.047	0.101
237.600	38.187	0.101
237.700	31.822	0.101
237.800	25.842	0.101
237.900	24.359	0.101
238.000	37.349	0.101
238.100	51.894	0.101
238.200	26.324	0.101
238.300	45.332	0.101
238.400	24.629	0.101
238.500	28.375	0.101
238.600	21.022	0.101
238.700	40.684	0.101
238.800	27.793	0.101
238.900	29.287	0.101
239.000	37.214	0.101
239.100	43.832	0.101
239.200	35.445	0.101
239.300	38.755	0.101
239.400	33.412	0.101
239.500	38.021	0.101
239.600	24.006	0.101
239.700	32.540	0.101
239.800	26.809	0.101
239.900	28.306	0.101
240.000	36.879	0.101
240.100	26.949	0.101
240.200	29.657	0.101
240.300	37.267	0.101
240.400	24.946	0.101
240.500	10.282	0.101
240.600	19.207	0.101
240.700	24.737	0.101
240.800	37.498	0.101
240.900	24.081	0.101
241.000	32.551	0.101
241.100	5.264	0.101
241.200	22.332	0.101
241.300	23.911	0.101
241.400	20.606	0.101
241.500	18.814	0.101
241.600	28.907	0.101
241.700	12.577	0.101
241.800	19.171	0.101
241.900	22.009	0.101
242.000	19.422	0.101
242.100	2.808	0.101
242.200	14.852	0.101
242.300	16.764	0.101
242.400	17.156	0.101
242.500	13.485	0.101
242.600	3.461	0.101
242.700	15.826	0.101
242.800	3.231	0.101
242.900	10.247	0.101
243.000	17.691	0.101
243.100	-3.437	0.101
243.200	10.226	0.101
243.300	5.830	0.101
243.400	21.483	0.101
243.500	10.255	0.101
243.600	3.870	0.101
243.700	13.781	0.101
243.800	18.968	0.101
243.900	5.609	0.101
244.000	11.066	0.101
244.100	8.307	0.101
244.200	15.121	0.101
244.300	-0.232	0.101
244.400	5.938	0.101
244.500	-2.343	0.101
244.600	20.012	0.101
244.700	15.500	0.101
244.800	5.015	0.101
244.900	0.805	0.101
245.000	-5.973	0.101
245.100	1.258	0.101
245.200	6.623	0.101
245.300	9.771	0.101
245.400	-4.906	0.101
245.500	-4.530	0.101
245.600	0.114	0.101
245.700	3.125	0.101
245.800	9.421	0.101
245.900	11.814	0.101
246.000	-0.624	0.101
246.100	2.157	0.101
246.200	-0.101	0.101
246.300	3.058	0.101
246.400	1.919	0.101
246.500	-3.014	0.101
246.600	17.623	0.101
246.700	1.905	0.101
246.800	-9.552	0.101
246.900	7.777	0.101
247.000	16.026	0.101
247.100	19.621	0.101
247.200	-2.358	0.101
247.300	-1.764	0.101
247.400	10.018	0.101
247.500	-3.238	0.101
247.600	25.124	0.101
247.700	-9.060	0.101
247.800	2.698	0.101
247.900	9.110	0.101
248.000	6.887	0.101
248.100	10.179	0.101
248.200	10.301	0.101
248.300	10.189	0.101
248.400	8.170	0.101
248.500	5.795	0.101
248.600	9.916	0.101
248.700	4.349	0.101
248.800	7.741	0.101
248.900	0.001	0.101
249.000	5.187	0.101
249.100	2.760	0.101
249.200	8.915	0.101
249.300	4.170	0.101
249.400	6.455	0.101
249.500	12.253	0.101
249.600	-10.142	0.101
249.700	-10.925	0.101
249.800	5.991	0.101
249.900	12.374	0.101
250.000	9.480	0.101
250.100	21.210	0.101
250.200	16.772	0.101
250.300	-1.428	0.101
250.400	-7.476	0.101
250.500	-10.075	0.101
250.600	0.163	0.101
250.700	9.183	0.101
250.800	-0.015	0.101
250.900	3.030	0.101
251.000	11.967	0.101
251.100	4.331	0.101
251.200	15.977	0.101
251.300	-3.652	0.101
251.400	8.173	0.101
251.500	-17.907	0.101
251.600	-1.173	0.101
251.700	7.785	0.101
251.800	5.790	0.101
251.900	7.018	0.101
252.000	0.023	0.101
252.100	5.556	0.101
252.200	8.758	0.101
252.300	11.714	0.101
252.400	-5.642	0.101
252.500	5.492	0.101
252.600	14.857	0.101
252.700	-7.515	0.101
252.800	3.477	0.101
252.900	7.384	0.101
253.000	8.762	0.101
253.100	9.773	0.101
253.200	-12.546	0.101
253.300	-9.043	0.101
253.400	7.721	0.101
253.500	4.690	0.101
253.600	10.528	0.101
253.700	7.934	0.101
253.800	-0.695	0.101
253.900	-5.660	0.101
254.000	3.808	0.101
254.100	-9.290	0.101
254.200	15.378	0.101
254.300	8.774	0.101
254.400	7.353	0.101
254.500	-8.017	0.101
254.600	5.040	0.101
254.700	-0.626	0.101
254.800	7.975	0.101
254.900	-2.145	0.101
255.000	9.618	0.101
255.100	8.616	0.101
255.200	-4.865	0.101
255.300	-6.561	0.101
255.400	-0.138	0.101
255.500	0.713	0.101
255.600	-11.279	0.101
255.700	-4.463	0.101
255.800	0.950	0.101
255.900	-4.772	0.101
256.000	8.990	0.101
256.100	10.615	0.101
256.200	2.071	0.101
256.300	-3.645	0.101
256.400	8.660	0.101
256.500	12.366	0.101
256.600	-6.960	0.101
256.700	-0.662	0.101
256.800	-4.715	0.101
256.900	-10.776	0.101
257.000	-7.903	0.101
257.100	19.883	0.101
257.200	6.729	0.101
257.300	-13.320	0.101
257.400	-7.742	0.101
257.500	3.437	0.101
257.600	-5.910	0.101
257.700	-4.425	0.101
257.800	3.715	0.101
257.900	9.626	0.101
258.000	-7.649	0.101
258.100	7.243	0.101
258.200	1.280	0.101
258.300	3.820	0.101
258.400	-8.032	0.101
258.500	-1.957	0.101
258.600	-7.349	0.101
258.700	1.141	0.101
258.800	-9.843	0.101
258.900	-5.273	0.101
259.000	3.595	0.101
259.100	-1.813	0.101
259.200	-3.437	0.101
259.300	3.224	0.101
259.400	7.746	0.101
259.500	-6.791	0.101
259.600	-0.127	0.101
259.700	-1.097	0.101
259.800	3.646	0.101
259.900	-5.717	0.101
260.000	4.425	0.101
260.100	-4.454	0.101
260.200	-8.798	0.101
260.300	3.907	0.101
260.400	0.549	0.101
260.500	-5.107	0.101
260.600	14.155	0.101
260.700	2.217	0.101
260.800	-4.109	0.101
260.900	0.906	0.101
261.000	-0.752	0.101
261.100	1.887	0.101
261.200	3.343	0.101
261.300	-16.286	0.101
261.400	-2.289	0.101
261.500	0.140	0.101
261.600	-2.477	0.101
261.700	-0.814	0.101
261.800	2.940	0.101
261.900	0.096	0.101
262.000	3.904	0.101
262.100	-16.603	0.101
262.200	-17.471	0.101
262.300	-16.250	0.101
262.400	-1.138	0.101
262.500	0.003	0.101
262.600	-0.876	0.101
262.700	1.090	0.101
262.800	1.052	0.101
262.900	-13.955	0.101
263.000	-8.563	0.101
263.100	6.302	0.101
263.200	-7.421	0.101
263.300	-7.471	0.101
263.400	2.998	0.101
263.500	2.090	0.101
263.600	-8.732	0.101
263.700	-8.129	0.101
263.800	2.126	0.101
263.900	-2.247	0.101
264.000	-10.424	0.101
264.100	6.830	0.101
264.200	-5.279	0.101
264.300	0.882	0.101
264.400	0.996	0.101
264.500	-2.613	0.101
264.600	-12.622	0.101
264.700	-3.331	0.101
264.800	-5.726	0.101
264.900	-12.500	0.101
265.000	-23.530	0.101
265.100	6.568	0.101
265.200	-5.319	0.101
265.300	5.728	0.101
265.400	0.354	0.101
265.500	-7.698	0.101
265.600	1.582	0.101
265.700	-0.646	0.101
265.800	-13.968	0.101
265.900	-10.869	0.101
266.000	-7.454	0.101
266.100	-7.725	0.101
266.200	-0.423	0.101
266.300	-18.529	0.101
266.400	-4.753	0.101
266.500	-3.935	0.101
266.600	-1.512	0.101
266.700	-5.214	0.101
266.800	-7.166	0.101
266.900	-9.890	0.101
267.000	11.994	0.101
267.100	-16.154	0.101
267.200	-8.259	0.101
267.300	-0.203	0.101
267.400	-18.501	0.101
267.500	-11.354	0.101
267.600	5.327	0.101
267.700	2.613	0.101
267.800	-17.503	0.101
267.900	7.363	0.101
268.000	2.413	0.101
268.100	-5.006	0.101
268.200	-13.345	0.101
268.300	3.512	0.101
268.400	-8.480	0.101
268.500	-4.810	0.101
268.600	-13.102	0.101
268.700	-11.335	0.101
268.800	-10.829	0.101
268.900	1.024	0.101
269.000	-3.823	0.101
269.100	-3.967	0.101
269.200	-14.986	0.101
269.300	-8.181	0.101
269.400	2.182	0.101
269.500	-2.067	0.101
269.600	-16.947	0.101
269.700	-10.542	0.101
269.800	-21.214	0.101
269.900	-13.669	0.101
270.000	3.546	0.101
270.100	-8.314	0.101
270.200	6.849	0.101
270.300	-14.833	0.101
270.400	-10.189	0.101
270.500	-12.694	0.101
270.600	-6.600	0.101
270.700	-21.135	0.101
270.800	-16.073	0.101
270.900	-19.967	0.101
271.000	-10.986	0.101
271.100	-12.255	0.101
271.200	-1.845	0.101
271.300	-4.298	0.101
271.400	-11.739	0.101
271.500	-9.110	0.101
271.600	-12.274	0.101
271.700	-8.923	0.101
271.800	-10.656	0.101
271.900	-12.151	0.101
272.000	-6.615	0.101
272.100	-22.292	0.101
272.200	-15.873	0.101
272.300	3.789	0.101
272.400	-6.649	0.101
272.500	-4.093	0.101
272.600	-18.985	0.101
272.700	-14.693	0.101
272.800	-7.249	0.101
272.900	-6.089	0.101
273.000	-7.830	0.101
273.100	-8.229	0.101
273.200	-1.957	0.101
273.300	-24.226	0.101
273.400	-18.622	0.101
273.500	-8.560	0.101
273.600	-17.277	0.101
273.700	-2.635	0.101
273.800	-15.854	0.101
273.900	-3.584	0.101
274.000	-25.527	0.101
274.100	-12.541	0.101
274.200	-13.419	0.101
274.300	3.986	0.101
274.400	-9.800	0.101
274.500	0.267	0.101
274.600	-5.287	0.101
274.700	-13.625	0.101
274.800	2.003	0.101
274.900	-13.374	0.101
275.000	-11.370	0.101
275.100	-18.005	0.101
275.200	-10.148	0.101
275.300	-4.477	0.101
275.400	9.553	0.101
275.500	-14.908	0.101
275.600	0.181	0.101
275.700	-12.250	0.101
275.800	0.766	0.101
275.900	-9.267	0.101
276.000	-13.459	0.101
276.100	-13.650	0.101
276.200	-11.278	0.101
276.300	-12.198	0.101
276.400	-5.137	0.101
276.500	-2.658	0.101
276.600	-10.866	0.101
276.700	-15.703	0.101
276.800	-8.511	0.101
276.900	-1.799	0.101
277.000	-15.455	0.101
277.100	-13.022	0.101
277.200	-7.045	0.101
277.300	-8.468	0.101
277.400	-14.305	0.101
277.500	-3.291	0.101
277.600	-7.217	0.101
277.700	-12.108	0.101
277.800	-3.573	0.101
277.900	-13.322	0.101
278.000	-7.809	0.101
278.100	-15.904	0.101
278.200	-13.978	0.101
278.300	-7.036	0.101
278.400	-9.740	0.101
278.500	-9.448	0.101
278.600	-19.533	0.101
278.700	-11.685	0.101
278.800	-3.145	0.101
278.900	-0.746	0.101
279.000	-9.445	0.101
279.100	-22.861	0.101
279.200	-16.139	0.101
279.300	-10.041	0.101
279.400	-10.662	0.101
279.500	-2.715	0.101
279.600	-11.293	0.101
279.700	-21.987	0.101
279.800	-17.400	0.101
279.900	-10.571	0.101
280.000	-2.871	0.101
280.100	-0.381	0.101
280.200	1.205	0.101
280.300	-6.408	0.101
280.400	-16.943	0.101
280.500	-25.535	0.101
280.600	-7.344	0.101
280.700	-6.970	0.101
280.800	-3.024	0.101
280.900	-5.849	0.101
281.000	-19.089	0.101
281.100	-17.187	0.101
281.200	-11.958	0.101
281.300	4.248	0.101
281.400	-10.709	0.101
281.500	-11.016	0.101
281.600	-23.169	0.101
281.700	-19.976	0.101
281.800	-6.221	0.101
281.900	-19.290	0.101
282.000	-11.162	0.101
282.100	3.540	0.101
282.200	-10.784	0.101
282.300	-9.881	0.101
282.400	0.381	0.101
282.500	-18.409	0.101
282.600	-13.515	0.101
282.700	-0.785	0.101
282.800	-16.627	0.101
282.900	-0.610	0.101
283.000	-21.165	0.101
283.100	-2.349	0.101
283.200	-16.489	0.101
283.300	-4.080	0.101
283.400	-11.965	0.101
283.500	-23.197	0.101
283.600	-7.293	0.101
283.700	-19.276	0.101
283.800	-15.730	0.101
283.900	-14.477	0.101
284.000	-12.243	0.101
284.100	-5.876	0.101
284.200	3.257	0.101
284.300	-7.702	0.101
284.400	-10.128	0.101
284.500	-3.605	0.101
284.600	-15.983	0.101
284.700	-8.044	0.101
284.800	-9.474	0.101
284.900	-5.410	0.101
285.000	-8.624	0.101
285.100	3.521	0.101
285.200	-33.154	0.101
285.300	-3.561	0.101
285.400	-10.292	0.101
285.500	-7.066	0.101
285.600	-20.830	0.101
285.700	-21.359	0.101
285.800	-16.635	0.101
285.900	-14.765	0.101
286.000	-1.120	0.101
286.100	-15.571	0.101
286.200	-3.021	0.101
286.300	-7.906	0.101
286.400	-5.197	0.101
286.500	-15.641	0.101
286.600	-14.369	0.101
286.700	-11.034	0.101
286.800	-10.577	0.101
286.900	-7.863	0.101
287.000	-16.189	0.101
287.100	-22.148	0.101
287.200	-4.920	0.101
287.300	-3.532	0.101
287.400	-7.331	0.101
287.500	-3.131	0.101
287.600	-19.181	0.101
287.700	-21.259	0.101
287.800	-10.574	0.101
287.900	-11.780	0.101
288.000	-9.545	0.101
288.100	-4.726	0.101
288.200	-7.546	0.101
288.300	-3.175	0.101
288.400	-22.250	0.101
288.500	-15.756	0.101
288.600	-27.682	0.101
288.700	-2.639	0.101
288.800	-18.885	0.101
288.900	-0.109	0.101
289.000	-12.955	0.101
289.100	-7.291	0.101
289.200	-17.589	0.101
289.300	-14.467	0.101
289.400	-5.872	0.101
289.500	-8.400	0.101
289.600	-3.590	0.101
289.700	-8.195	0.101
289.800	-4.420	0.101
289.900	-3.738	0.101
290.000	-24.185	0.101
290.100	-19.692	0.101
290.200	-3.291	0.101
290.300	-10.886	0.101
290.400	-5.360	0.101
290.500	-15.101	0.101
290.600	-8.096	0.101
290.700	-11.331	0.101
290.800	-13.154	0.101
290.900	-7.420	0.101
291.000	-6.029	0.101
291.100	-26.759	0.101
291.200	0.489	0.101
291.300	-5.889	0.101
291.400	-24.157	0.101
291.500	10.186	0.101
291.600	-15.195	0.101
291.700	-6.654	0.101
291.800	-17.064	0.101
291.900	-7.075	0.101
292.000	-24.519	0.101
292.100	-2.395	0.101
292.200	-18.672	0.101
292.300	-15.906	0.101
292.400	-5.626	0.101
292.500	-15.858	0.101
292.600	-7.700	0.101
292.700	-19.937	0.101
292.800	-25.892	0.101
292.900	-19.953	0.101
293.000	-17.609	0.101
293.100	-1.020	0.101
293.200	-17.075	0.101
293.300	-15.669	0.101
293.400	-1.825	0.101
293.500	3.933	0.101
293.600	-9.918	0.101
293.700	-7.604	0.101
293.800	-24.323	0.101
293.900	-9.843	0.101
294.000	-5.447	0.101
294.100	-32.016	0.101
294.200	3.743	0.101
294.300	-14.088	0.101
294.400	-8.258	0.101
294.500	-13.451	0.101
294.600	-16.831	0.101
294.700	-6.636	0.101
294.800	-4.142	0.101
294.900	-17.490	0.101
295.000	-14.099	0.101
295.100	-15.897	0.101
295.200	-14.757	0.101
295.300	-16.697	0.101
295.400	-7.819	0.101
295.500	-13.455	0.101
295.600	-12.634	0.101
295.700	-10.084	0.101
295.800	-14.850	0.101
295.900	-2.324	0.101
296.000	-5.458	0.101
296.100	-13.373	0.101
296.200	-15.730	0.101
296.300	-23.442	0.101
296.400	-21.247	0.101
296.500	-3.053	0.101
296.600	-24.278	0.101
296.700	1.982	0.101
296.800	-4.870	0.101
296.900	-8.790	0.101
297.000	-18.645	0.101
297.100	-16.073	0.101
297.200	-18.124	0.101
297.300	-5.475	0.101
297.400	-2.039	0.101
297.500	-5.178	0.101
297.600	-11.237	0.101
297.700	-15.488	0.101
297.800	-6.792	0.101
297.900	-13.278	0.101
298.000	-15.631	0.101
298.100	-7.260	0.101
298.200	-19.265	0.101
298.300	-5.351	0.101
298.400	-19.669	0.101
298.500	-10.436	0.101
298.600	-16.602	0.101
298.700	-12.042	0.101
298.800	-23.930	0.101
298.900	-8.508	0.101
299.000	-15.183	0.101
299.100	-14.423	0.101
299.200	-6.956	0.101
299.300	-21.282	0.101
299.400	-15.624	0.101
299.500	-12.471	0.101
299.600	-16.610	0.101
299.700	-3.853	0.101
299.800	1.258	0.101
299.900	-8.691	0.101
300.000	-2.194	0.101
300.100	-19.340	0.101
300.200	-18.088	0.101
300.300	-18.759	0.101
300.400	-5.252	0.101
300.500	3.380	0.101
300.600	3.289	0.101
300.700	-0.110	0.101
300.800	-21.439	0.101
300.900	-12.045	0.101
301.000	-16.822	0.101
301.100	-0.253	0.101
301.200	-12.520	0.101
301.300	-19.883	0.101
301.400	-20.552	0.101
301.500	-14.264	0.101
301.600	-13.408	0.101
301.700	-0.312	0.101
301.800	-28.757	0.101
301.900	-5.222	0.101
302.000	-9.570	0.101
302.100	-7.765	0.101
302.200	-17.894	0.101
302.300	-10.783	0.101
302.400	-18.756	0.101
302.500	-9.132	0.101
302.600	-12.575	0.101
302.700	-15.482	0.101
302.800	-17.103	0.101
302.900	0.201	0.101
303.000	-4.404	0.101
303.100	-9.534	0.101
303.200	-19.780	0.101
303.300	-29.358	0.101
303.400	-1.505	0.101
303.500	-3.317	0.101
303.600	-5.102	0.101
303.700	-28.327	0.101
303.800	-9.162	0.101
303.900	-8.953	0.101
304.000	-9.268	0.101
304.100	-7.538	0.101
304.200	-24.441	0.101
304.300	-16.892	0.101
304.400	-12.861	0.101
304.500	-2.667	0.101
304.600	-6.670	0.101
304.700	-4.329	0.101
304.800	-7.345	0.101
304.900	-4.369	0.101
305.000	-19.289	0.101
305.100	-12.914	0.101
305.200	-1.275	0.101
305.300	-7.546	0.101
305.400	-16.330	0.101
305.500	-1.497	0.101
305.600	-2.799	0.101
305.700	-11.355	0.101
305.800	-15.051	0.101
305.900	-20.456	0.101
306.000	-15.313	0.101
306.100	-7.322	0.101
306.200	-12.468	0.101
306.300	-16.573	0.101
306.400	-8.336	0.101
306.500	-12.023	0.101
306.600	-17.425	0.101
306.700	-10.256	0.101
306.800	-10.548	0.101
306.900	-6.512	0.101
307.000	-12.282	0.101
307.100	-0.992	0.101
307.200	-10.630	0.101
307.300	-9.435	0.101
307.400	-8.439	0.101
307.500	-8.948	0.101
307.600	-8.478	0.101
307.700	-13.693	0.101
307.800	-10.392	0.101
307.900	-13.655	0.101
308.000	-10.254	0.101
308.100	-10.786	0.101
308.200	-11.229	0.101
308.300	-10.677	0.101
308.400	-5.965	0.101
308.500	-14.896	0.101
308.600	-19.327	0.101
308.700	-5.376	0.101
308.800	-3.863	0.101
308.900	-7.840	0.101
309.000	-6.237	0.101
309.100	-15.512	0.101
309.200	-16.476	0.101
309.300	-11.643	0.101
309.400	-3.396	0.101
309.500	2.382	0.101
309.600	-20.227	0.101
309.700	-10.676	0.101
309.800	1.348	0.101
309.900	-16.223	0.101
310.000	-7.163	0.101
310.100	-31.185	0.101
310.200	4.069	0.101
310.300	-20.260	0.101
310.400	-17.647	0.101
310.500	-6.946	0.101
310.600	-9.020	0.101
310.700	3.576	0.101
310.800	-0.777	0.101
310.900	-12.130	0.101
311.000	-14.317	0.101
311.100	-16.021	0.101
311.200	-1.613	0.101
311.300	-18.187	0.101
311.400	-14.185	0.101
311.500	-15.939	0.101
311.600	-19.044	0.101
311.700	-9.503	0.101
311.800	3.922	0.101
311.900	-9.748	0.101
312.000	-1.709	0.101
312.100	-17.531	0.101
312.200	-15.392	0.101
312.300	-8.623	0.101
312.400	-0.166	0.101
312.500	-10.699	0.101
312.600	-6.683	0.101
312.700	0.233	0.101
312.800	-13.278	0.101
312.900	-14.533	0.101
313.000	9.565	0.101
313.100	-10.568	0.101
313.200	-9.781	0.101
313.300	-17.898	0.101
313.400	-8.299	0.101
313.500	-10.245	0.101
313.600	-8.045	0.101
313.700	-2.083	0.101
313.800	-10.967	0.101
313.900	-12.332	0.101
314.000	-8.183	0.101
314.100	-5.265	0.101
314.200	-18.041	0.101
314.300	-1.617	0.101
314.400	-6.807	0.101
314.500	-15.132	0.101
314.600	-23.774	0.101
314.700	2.115	0.101
314.800	-15.169	0.101
314.900	-4.011	0.101
315.000	-10.513	0.101
315.100	-8.653	0.101
315.200	1.814	0.101
315.300	-7.007	0.101
315.400	-14.851	0.101
315.500	-24.718	0.101
315.600	-2.591	0.101
315.700	-23.422	0.101
315.800	-13.168	0.101
315.900	-12.255	0.101
316.000	-25.860	0.101
316.100	-15.506	0.101
316.200	-0.363	0.101
316.300	-13.380	0.101
316.400	-14.667	0.101
316.500	-3.195	0.101
316.600	-0.048	0.101
316.700	-4.093	0.101
316.800	-11.659	0.101
316.900	-6.112	0.101
317.000	-7.209	0.101
317.100	-7.470	0.101
317.200	-11.655	0.101
317.300	-18.489	0.101
317.400	-12.676	0.101
317.500	-16.014	0.101
317.600	-10.487	0.101
317.700	-20.765	0.101
317.800	-12.943	0.101
317.900	-7.231	0.101
318.000	-5.939	0.101
318.100	-11.339	0.101
318.200	-14.327	0.101
318.300	-17.150	0.101
318.400	-2.723	0.101
318.500	-2.447	0.101
318.600	-5.400	0.101
318.700	-3.477	0.101
318.800	-17.843	0.101
318.900	-13.258	0.101
319.000	-17.488	0.101
319.100	7.960	0.101
319.200	-5.887	0.101
319.300	-16.369	0.101
319.400	-7.194	0.101
319.500	-11.320	0.101
319.600	-17.368	0.101
319.700	-17.956	0.101
319.800	-16.143	0.101
319.900	-8.775	0.101
320.000	-12.334	0.101
320.100	-10.684	0.101
320.200	-11.694	0.101
320.300	-21.142	0.101
320.400	-12.828	0.101
320.500	-12.415	0.101
320.600	-7.055	0.101
320.700	-3.308	0.101
320.800	-10.314	0.101
320.900	0.525	0.101
321.000	-16.487	0.101
321.100	-19.181	0.101
321.200	-8.784	0.101
321.300	-3.102	0.101
321.400	-10.384	0.101
321.500	-7.932	0.101
321.600	-5.954	0.101
321.700	-10.404	0.101
321.800	-9.113	0.101
321.900	-10.501	0.101
322.000	-14.967	0.101
322.100	-13.777	0.101
322.200	-0.189	0.101
322.300	-13.162	0.101
322.400	-10.376	0.101
322.500	-18.795	0.101
322.600	-7.215	0.101
322.700	-17.422	0.101
322.800	-7.639	0.101
322.900	-11.860	0.101
323.000	-19.383	0.101
323.100	-21.349	0.101
323.200	1.679	0.101
323.300	-9.998	0.101
323.400	-5.136	0.101
323.500	-8.042	0.101
323.600	-2.829	0.101
323.700	7.419	0.101
323.800	-16.982	0.101
323.900	-14.719	0.101
324.000	-16.454	0.101
324.100	-14.112	0.101
324.200	-14.068	0.101
324.300	-17.438	0.101
324.400	-8.420	0.101
324.500	-11.358	0.101
324.600	-19.353	0.101
324.700	-12.247	0.101
324.800	-4.174	0.101
324.900	-6.937	0.101
325.000	-5.215	0.101
325.100	0.939	0.101
325.200	-8.046	0.101
325.300	-8.663	0.101
325.400	-14.784	0.101
325.500	-1.804	0.101
325.600	-21.833	0.101
325.700	-11.803	0.101
325.800	-4.471	0.101
325.900	-11.947	0.101
326.000	-10.565	0.101
326.100	-16.215	0.101
326.200	-23.034	0.101
326.300	-11.514	0.101
326.400	-19.394	0.101
326.500	-19.804	0.101
326.600	-17.892	0.101
326.700	-3.580	0.101
326.800	-10.542	0.101
326.900	-17.521	0.101
327.000	-8.017	0.101
327.100	-1.183	0.101
327.200	-8.911	0.101
327.300	-4.446	0.101
327.400	-15.021	0.101
327.500	-5.764	0.101
327.600	-3.633	0.101
327.700	-12.692	0.101
327.800	1.026	0.101
327.900	-16.611	0.101
328.000	-10.037	0.101
328.100	-13.642	0.101
328.200	-11.877	0.101
328.300	-13.704	0.101
328.400	-9.934	0.101
328.500	-8.670	0.101
328.600	1.521	0.101
328.700	-14.000	0.101
328.800	-7.452	0.101
328.900	0.897	0.101
329.000	-11.626	0.101
329.100	1.529	0.101
329.200	-21.089	0.101
329.300	-19.007	0.101
329.400	-4.622	0.101
329.500	-4.434	0.101
329.600	-15.638	0.101
329.700	-15.795	0.101
329.800	-2.525	0.101
329.900	-3.188	0.101
330.000	-13.288	0.101
330.100	-9.753	0.101
330.200	6.075	0.101
330.300	-1.471	0.101
330.400	-1.439	0.101
330.500	-13.523	0.101
330.600	-22.767	0.101
330.700	5.150	0.101
330.800	-14.062	0.101
330.900	-7.375	0.101
331.000	-0.571	0.101
331.100	13.491	0.101
331.200	-8.276	0.101
331.300	2.412	0.101
331.400	-0.706	0.101
331.500	5.786	0.101
331.600	5.121	0.101
331.700	6.500	0.101
331.800	12.998	0.101
331.900	4.050	0.101
332.000	7.204	0.101
332.100	0.321	0.101
332.200	12.834	0.101
332.300	-3.921	0.101
332.400	4.968	0.101
332.500	6.893	0.101
332.600	15.077	0.101
332.700	20.725	0.101
332.800	16.830	0.101
332.900	-5.694	0.101
333.000	16.579	0.101
333.100	6.027	0.101
333.200	10.220	0.101
333.300	28.076	0.101
333.400	4.857	0.101
333.500	7.392	0.101
333.600	12.219	0.101
333.700	13.518	0.101
333.800	16.179	0.101
333.900	18.903	0.101
334.000	28.679	0.101
334.100	15.238	0.101
334.200	18.987	0.101
334.300	17.618	0.101
334.400	15.373	0.101
334.500	-0.750	0.101
334.600	28.246	0.101
334.700	5.639	0.101
334.800	14.674	0.101
334.900	11.022	0.101
335.000	6.282	0.101
335.100	19.952	0.101
335.200	12.270	0.101
335.300	20.548	0.101
335.400	3.289	0.101
335.500	12.935	0.101
335.600	5.769	0.101
335.700	4.480	0.101
335.800	-2.811	0.101
335.900	21.716	0.101
336.000	12.325	0.101
336.100	17.498	0.101
336.200	2.904	0.101
336.300	20.283	0.101
336.400	15.636	0.101
336.500	12.859	0.101
336.600	16.288	0.101
336.700	5.259	0.101
336.800	5.534	0.101
336.900	13.710	0.101
337.000	0.568	0.101
337.100	7.289	0.101
337.200	5.155	0.101
337.300	17.902	0.101
337.400	15.533	0.101
337.500	12.828	0.101
337.600	5.974	0.101
337.700	10.774	0.101
337.800	10.658	0.101
337.900	30.870	0.101
338.000	15.109	0.101
338.100	16.178	0.101
338.200	4.199	0.101
338.300	17.429	0.101
338.400	26.750	0.101
338.500	-6.395	0.101
338.600	10.043	0.101
338.700	30.368	0.101
338.800	16.376	0.101
338.900	7.315	0.101
339.000	26.706	0.101
339.100	16.568	0.101
339.200	24.462	0.101
339.300	22.170	0.101
339.400	20.457	0.101
339.500	2.564	0.101
339.600	26.821	0.101
339.700	15.389	0.101
339.800	21.880	0.101
339.900	13.288	0.101
340.000	20.474	0.101
340.100	16.757	0.101
340.200	9.816	0.101
340.300	15.043	0.101
340.400	11.445	0.101
340.500	22.910	0.101
340.600	8.656	0.101
340.700	11.711	0.101
340.800	23.834	0.101
340.900	17.969	0.101
341.000	23.306	0.101
341.100	21.960	0.101
341.200	14.317	0.101
341.300	11.638	0.101
341.400	26.759	0.101
341.500	24.190	0.101
341.600	22.444	0.101
341.700	16.637	0.101
341.800	20.511	0.101
341.900	24.077	0.101
342.000	29.569	0.101
342.100	24.043	0.101
342.200	2.973	0.101
342.300	23.190	0.101
342.400	28.165	0.101
342.500	2.146	0.101
342.600	17.659	0.101
342.700	21.979	0.101
342.800	23.013	0.101
342.900	17.530	0.101
343.000	37.416	0.101
343.100	22.689	0.101
343.200	37.289	0.101
343.300	9.492	0.101
343.400	14.353	0.101
343.500	14.210	0.101
343.600	25.420	0.101
343.700	20.046	0.101
343.800	11.868	0.101
343.900	31.918	0.101
344.000	33.365	0.101
344.100	29.409	0.101
344.200	26.622	0.101
344.300	20.529	0.101
344.400	19.093	0.101
344.500	27.596	0.101
344.600	30.915	0.101
344.700	9.960	0.101
344.800	35.813	0.101
344.900	23.743	0.101
345.000	22.143	0.101
345.100	29.278	0.101
345.200	24.279	0.101
345.300	28.700	0.101
345.400	34.202	0.101
345.500	19.557	0.101
345.600	16.482	0.101
345.700	25.163	0.101
345.800	24.852	0.101
345.900	29.652	0.101
346.000	27.466	0.101
346.100	22.523	0.101
346.200	39.483	0.101
346.300	13.378	0.101
346.400	29.800	0.101
346.500	14.961	0.101
346.600	27.460	0.101
346.700	21.085	0.101
346.800	20.198	0.101
346.900	24.636	0.101
347.000	33.379	0.101
347.100	19.509	0.101
347.200	30.209	0.101
347.300	24.405	0.101
347.400	26.363	0.101
347.500	27.512	0.101
347.600	45.247	0.101
347.700	24.837	0.101
347.800	27.850	0.101
347.900	21.048	0.101
348.000	27.982	0.101
348.100	28.033	0.101
348.200	15.207	0.101
348.300	27.091	0.101
348.400	39.859	0.101
348.500	26.599	0.101
348.600	27.674	0.101
348.700	23.680	0.101
348.800	34.288	0.101
348.900	26.321	0.101
349.000	17.708	0.101
349.100	29.800	0.101
349.200	21.618	0.101
349.300	31.137	0.101
349.400	39.755	0.101
349.500	29.497	0.101
349.600	31.688	0.101
349.700	24.121	0.101
349.800	34.725	0.101
349.900	25.189	0.101
350.000	32.303	0.101
350.100	26.868	0.101
350.200	32.269	0.101
350.300	35.135	0.101
350.400	11.247	0.101
350.500	25.166	0.101
350.600	32.366	0.101
350.700	29.678	0.101
350.800	24.198	0.101
350.900	38.473	0.101
351.000	40.642	0.101
351.100	33.887	0.101
351.200	35.223	0.101
351.300	32.357	0.101
351.400	22.780	0.101
351.500	43.699	0.101
351.600	31.983	0.101
351.700	13.780	0.101
351.800	21.028	0.101
351.900	23.434	0.101
352.000	19.000	0.101
352.100	33.404	0.101
352.200	21.696	0.101
352.300	25.073	0.101
352.400	32.092	0.101
352.500	23.960	0.101
352.600	34.100	0.101
352.700	23.208	0.101
352.800	40.804	0.101
352.900	35.621	0.101
353.000	28.827	0.101
353.100	23.201	0.101
353.200	13.225	0.101
353.300	20.064	0.101
353.400	29.429	0.101
353.500	37.557	0.101
353.600	35.060	0.101
353.700	41.837	0.101
353.800	33.892	0.101
353.900	29.331	0.101
354.000	40.572	0.101
354.100	28.214	0.101
354.200	24.842	0.101
354.300	35.361	0.101
354.400	44.748	0.101
354.500	26.845	0.101
354.600	34.393	0.101
354.700	34.967	0.101
354.800	29.270	0.101
354.900	20.886	0.101
355.000	33.743	0.101
355.100	32.056	0.101
355.200	32.348	0.101
355.300	37.592	0.101
355.400	13.777	0.101
355.500	40.463	0.101
355.600	22.747	0.101
355.700	47.552	0.101
355.800	43.105	0.101
355.900	31.453	0.101
356.000	38.548	0.101
356.100	35.703	0.101
356.200	27.183	0.101
356.300	27.673	0.101
356.400	33.002	0.101
356.500	25.919	0.101
356.600	41.062	0.101
356.700	32.158	0.101
356.800	42.833	0.101
356.900	41.536	0.101
357.000	34.700	0.101
357.100	35.777	0.101
357.200	30.233	0.101
357.300	35.458	0.101
357.400	36.992	0.101
357.500	39.210	0.101
357.600	32.423	0.101
357.700	32.821	0.101
357.800	30.642	0.101
357.900	36.270	0.101
358.000	31.441	0.101
358.100	38.255	0.101
358.200	37.142	0.101
358.300	29.196	0.101
358.400	14.807	0.101
358.500	30.344	0.101
358.600	26.653	0.101
358.700	34.246	0.101
358.800	17.844	0.101
358.900	29.854	0.101
359.000	37.578	0.101
359.100	40.929	0.101
359.200	31.507	0.101
359.300	38.661	0.101
359.400	38.147	0.101
359.500	17.963	0.101
359.600	33.391	0.101
359.700	33.566	0.101
359.800	24.613	0.101
359.900	37.672	0.101
360.000	29.975	0.101
360.100	38.964	0.101
360.200	40.739	0.101
360.300	26.988	0.101
360.400	44.281	0.101
360.500	32.146	0.101
360.600	25.121	0.101
360.700	32.554	0.101
360.800	48.013	0.101
360.900	32.093	0.101
361.000	35.434	0.101
361.100	31.443	0.101
361.200	35.002	0.101
361.300	21.024	0.101
361.400	23.218	0.101
361.500	43.588	0.101
361.600	21.968	0.101
361.700	54.173	0.101
361.800	47.149	0.101
361.900	21.478	0.101
362.000	28.073	0.101
362.100	23.151	0.101
362.200	33.013	0.101
362.300	33.565	0.101
362.400	22.073	0.101
362.500	28.046	0.101
362.600	19.712	0.101
362.700	48.132	0.101
362.800	38.809	0.101
362.900	36.156	0.101
363.000	31.425	0.101
363.100	39.310	0.101
363.200	33.337	0.101
363.300	28.722	0.101
363.400	40.422	0.101
363.500	26.936	0.101
363.600	35.340	0.101
363.700	29.008	0.101
363.800	30.537	0.101
363.900	28.752	0.101
364.000	31.820	0.101
364.100	30.311	0.101
364.200	30.294	0.101
364.300	29.895	0.101
364.400	46.845	0.101
364.500	37.051	0.101
364.600	20.940	0.101
364.700	27.988	0.101
364.800	32.283	0.101
364.900	29.025	0.101
365.000	38.514	0.101
365.100	21.614	0.101
365.200	12.553	0.101
365.300	40.720	0.101
365.400	36.009	0.101
365.500	33.792	0.101
365.600	41.616	0.101
365.700	27.175	0.101
365.800	22.989	0.101
365.900	18.713	0.101
366.000	13.475	0.101
366.100	43.713	0.101
366.200	49.538	0.101
366.300	24.073	0.101
366.400	29.554	0.101
366.500	25.163	0.101
366.600	32.979	0.101
366.700	28.190	0.101
366.800	36.285	0.101
366.900	34.681	0.101
367.000	21.751	0.101
367.100	31.413	0.101
367.200	43.798	0.101
367.300	26.454	0.101
367.400	20.509	0.101
367.500	26.255	0.101
367.600	36.292	0.101
367.700	48.857	0.101
367.800	22.099	0.101
367.900	32.876	0.101
368.000	36.957	0.101
368.100	25.304	0.101
368.200	42.528	0.101
368.300	36.965	0.101
368.400	37.078	0.101
368.500	38.603	0.101
368.600	30.302	0.101
368.700	31.495	0.101
368.800	30.906	0.101
368.900	37.440	0.101
369.000	20.794	0.101
369.100	18.747	0.101
369.200	21.481	0.101
369.300	34.770	0.101
369.400	28.692	0.101
369.500	22.956	0.101
369.600	37.905	0.101
369.700	36.150	0.101
369.800	26.459	0.101
369.900	33.997	0.101
370.000	23.518	0.101
370.100	28.652	0.101
370.200	31.890	0.101
370.300	25.431	0.101
370.400	23.209	0.101
370.500	34.948	0.101
370.600	31.516	0.101
370.700	20.219	0.101
370.800	29.193	0.101
370.900	35.357	0.101
371.000	41.383	0.101
371.100	34.381	0.101
371.200	33.860	0.101
371.300	29.405	0.101
371.400	33.144	0.101
371.500	33.930	0.101
371.600	32.029	0.101
371.700	37.934	0.101
371.800	25.830	0.101
371.900	22.692	0.101
372.000	35.796	0.101
372.100	25.688	0.101
372.200	41.271	0.101
372.300	18.911	0.101
372.400	39.782	0.101
372.500	38.414	0.101
372.600	19.098	0.101
372.700	33.464	0.101
372.800	34.664	0.101
372.900	37.873	0.101
373.000	25.760	0.101
373.100	34.720	0.101
373.200	35.755	0.101
373.300	35.661	0.101
373.400	30.497	0.101
373.500	33.093	0.101
373.600	30.642	0.101
373.700	28.146	0.101
373.800	19.177	0.101
373.900	28.655	0.101
374.000	31.258	0.101
374.100	36.347	0.101
374.200	44.137	0.101
374.300	39.553	0.101
374.400	34.944	0.101
374.500	35.423	0.101
374.600	28.862	0.101
374.700	35.882	0.101
374.800	27.883	0.101
374.900	36.433	0.101
375.000	22.780	0.101
375.100	29.905	0.101
375.200	30.725	0.101
375.300	39.242	0.101
375.400	24.266	0.101
375.500	50.781	0.101
375.600	28.913	0.101
375.700	22.723	0.101
375.800	40.643	0.101
375.900	34.989	0.101
376.000	30.518	0.101
376.100	29.985	0.101
376.200	25.301	0.101
376.300	28.327	0.101
376.400	22.201	0.101
376.500	36.919	0.101
376.600	31.271	0.101
376.700	44.877	0.101
376.800	36.936	0.101
376.900	43.818	0.101
377.000	47.687	0.101
377.100	15.351	0.101
377.200	40.684	0.101
377.300	26.976	0.101
377.400	33.466	0.101
377.500	37.032	0.101
377.600	30.586	0.101
377.700	19.135	0.101
377.800	44.184	0.101
377.900	28.815	0.101
378.000	31.148	0.101
378.100	32.653	0.101
378.200	23.394	0.101
378.300	41.556	0.101
378.400	39.100	0.101
378.500	27.937	0.101
378.600	31.751	0.101
378.700	29.265	0.101
378.800	35.011	0.101
378.900	41.512	0.101
379.000	27.010	0.101
379.100	28.716	0.101
379.200	42.358	0.101
379.300	21.277	0.101
379.400	40.760	0.101
379.500	31.735	0.101
379.600	37.297	0.101
379.700	23.269	0.101
379.800	33.370	0.101
379.900	38.805	0.101
380.000	37.177	0.101
380.100	37.381	0.101
380.200	33.708	0.101
380.300	29.698	0.101
380.400	25.772	0.101
380.500	30.907	0.101
380.600	34.051	0.101
380.700	30.742	0.101
380.800	33.393	0.101
380.900	28.899	0.101
381.000	42.422	0.101
381.100	24.694	0.101
381.200	34.429	0.101
381.300	35.723	0.101
381.400	33.168	0.101
381.500	27.507	0.101
381.600	33.338	0.101
381.700	26.256	0.101
381.800	49.672	0.101
381.900	48.442	0.101
382.000	27.692	0.101
382.100	22.986	0.101
382.200	33.824	0.101
382.300	34.106	0.101
382.400	37.031	0.101
382.500	26.459	0.101
382.600	43.656	0.101
382.700	29.686	0.101
382.800	26.055	0.101
382.900	33.404	0.101
383.000	39.222	0.101
383.100	29.462	0.101
383.200	41.026	0.101
383.300	25.438	0.101
383.400	30.744	0.101
383.500	39.113	0.101
383.600	35.871	0.101
383.700	23.976	0.101
383.800	31.847	0.101
383.900	35.801	0.101
384.000	26.354	0.101
384.100	26.913	0.101
384.200	34.202	0.101
384.300	32.186	0.101
384.400	30.426	0.101
384.500	43.588	0.101
384.600	26.354	0.101
384.700	42.897	0.101
384.800	35.477	0.101
384.900	36.895	0.101
385.000	35.687	0.101
385.100	30.012	0.101
385.200	30.586	0.101
385.300	25.033	0.101
385.400	30.049	0.101
385.500	18.984	0.101
385.600	40.920	0.101
385.700	40.215	0.101
385.800	24.886	0.101
385.900	37.653	0.101
386.000	30.019	0.101
386.100	29.148	0.101
386.200	35.216	0.101
386.300	36.522	0.101
386.400	31.427	0.101
386.500	37.608	0.101
386.600	36.200	0.101
386.700	25.298	0.101
386.800	46.348	0.101
386.900	29.305	0.101
387.000	36.482	0.101
387.100	33.833	0.101
387.200	26.998	0.101
387.300	39.666	0.101
387.400	29.712	0.101
387.500	23.310	0.101
387.600	40.251	0.101
387.700	42.392	0.100
387.800	35.922	0.101
387.900	43.213	0.101
388.000	38.860	0.100
388.100	40.981	0.101
388.200	40.985	0.100
388.300	38.221	0.100
388.400	37.822	0.101
388.500	26.106	0.100
388.600	28.410	0.101
388.700	39.864	0.101
388.800	36.949	0.100
388.900	12.667	0.101
389.000	34.496	0.100
389.100	29.477	0.101
389.200	38.165	0.101
389.300	36.045	0.100
389.400	36.300	0.101
389.500	21.744	0.101
389.600	37.759	0.100
389.700	35.830	0.100
389.800	24.121	0.100
389.900	36.143	0.100
390.000	40.656	0.100
390.100	28.973	0.101
390.200	18.753	0.101
390.300	20.041	0.100
390.400	33.481	0.101
390.500	34.509	0.100
390.600	25.779	0.100
390.700	30.053	0.100
390.800	32.396	0.101
390.900	23.669	0.101
391.000	13.563	0.100
391.100	12.787	0.100
391.200	26.740	0.100
391.300	25.613	0.100
391.400	25.901	0.100
391.500	19.184	0.101
391.600	25.621	0.100
391.700	21.853	0.100
391.800	16.311	0.101
391.900	12.185	0.100
392.000	2.864	0.100
392.100	11.294	0.100
392.200	13.496	0.100
392.300	20.188	0.100
392.400	21.357	0.100
392.500	8.082	0.100
392.600	15.655	0.100
392.700	10.099	0.100
392.800	7.501	0.100
392.900	2.156	0.100
393.000	10.699	0.100
393.100	8.564	0.100
393.200	10.806	0.100
393.300	18.634	0.100
393.400	3.196	0.100
393.500	2.123	0.100
393.600	7.608	0.100
393.700	3.687	0.100
393.800	-3.844	0.100
393.900	16.469	0.100
394.000	2.630	0.100
394.100	0.012	0.100
394.200	10.211	0.100
394.300	6.019	0.100
394.400	-10.026	0.100
394.500	-5.629	0.100
394.600	1.945	0.100
394.700	17.152	0.100
394.800	4.146	0.100
394.900	-11.758	0.100
395.000	6.847	0.100
395.100	-5.744	0.100
395.200	-1.286	0.100
395.300	17.289	0.100
395.400	0.195	0.100
395.500	11.831	0.100
395.600	-5.112	0.100
395.700	13.307	0.100
395.800	-12.551	0.100
395.900	11.496	0.100
396.000	5.814	0.100
396.100	9.796	0.100
396.200	5.424	0.100
396.300	10.290	0.100
396.400	-3.230	0.100
396.500	-17.833	0.100
396.600	-7.866	0.100
396.700	0.784	0.100
396.800	-3.645	0.100
396.900	3.189	0.100
397.000	7.405	0.100
397.100	-6.614	0.100
397.200	-2.732	0.100
397.300	3.886	0.100
397.400	1.329	0.100
397.500	7.080	0.100
397.600	6.190	0.100
397.700	5.816	0.100
397.800	-2.012	0.100
397.900	-7.948	0.100
398.000	-7.705	0.100
398.100	1.546	0.100
398.200	-5.887	0.100
398.300	11.500	0.100
398.400	3.926	0.100
398.500	-5.729	0.100
398.600	-3.463	0.100
398.700	10.609	0.100
398.800	4.699	0.100
398.900	14.299	0.100
399.000	11.595	0.100
399.100	-4.475	0.100
399.200	-7.617	0.100
399.300	-7.590	0.100
399.400	9.930	0.100
399.500	9.734	0.100
399.600	6.005	0.100
399.700	5.902	0.100
399.800	-5.788	0.100
399.900	-6.065	0.100
400.000	-5.631	0.100
400.100	-8.921	0.100
400.200	-3.387	0.100
400.300	-2.705	0.100
400.400	5.364	0.100
400.500	10.671	0.100
400.600	5.618	0.100
400.700	-1.090	0.100
400.800	3.245	0.100
400.900	6.747	0.100
401.000	11.086	0.100
401.100	11.902	0.100
401.200	5.037	0.100
401.300	-6.875	0.100
401.400	2.185	0.100
401.500	-2.912	0.100
401.600	1.496	0.100
401.700	1.913	0.100
401.800	-8.692	0.100
401.900	12.981	0.100
402.000	-3.634	0.100
402.100	-3.584	0.100
402.200	-5.761	0.100
402.300	3.780	0.100
402.400	-2.910	0.100
402.500	-9.522	0.100
402.600	-5.123	0.100
402.700	6.796	0.100
402.800	4.798	0.100
402.900	-1.292	0.100
403.000	5.197	0.100
403.100	0.709	0.100
403.200	2.936	0.100
403.300	2.836	0.100
403.400	14.127	0.100
403.500	-9.364	0.100
403.600	-8.936	0.100
403.700	2.372	0.100
403.800	3.153	0.100
403.900	2.011	0.100
404.000	0.300	0.100
404.100	1.450	0.100
404.200	3.770	0.100
404.300	10.577	0.100
404.400	8.519	0.100
404.500	3.996	0.100
404.600	-18.856	0.100
404.700	1.282	0.100
404.800	-0.923	0.100
404.900	8.601	0.100
405.000	-4.637	0.100
405.100	5.422	0.100
405.200	-3.097	0.100
405.300	3.590	0.100
405.400	1.980	0.100
405.500	0.723	0.100
405.600	0.007	0.100
405.700	1.793	0.100
405.800	0.514	0.100
405.900	-6.191	0.100
406.000	4.116	0.100
406.100	-6.105	0.100
406.200	-4.356	0.100
406.300	1.665	0.100
406.400	6.388	0.100
406.500	-0.538	0.100
406.600	4.477	0.100
406.700	-9.365	0.100
406.800	5.284	0.100
406.900	-1.458	0.100
407.000	-3.057	0.100
407.100	6.165	0.100
407.200	-4.139	0.100
407.300	-8.212	0.100
407.400	4.736	0.100
407.500	-4.115	0.100
407.600	-16.221	0.100
407.700	-0.170	0.100
407.800	10.523	0.100
407.900	-6.630	0.100
408.000	-8.593	0.100
408.100	-10.518	0.100
408.200	0.284	0.100
408.300	-3.682	0.100
408.400	-9.153	0.100
408.500	-8.481	0.100
408.600	-8.176	0.100
408.700	9.654	0.100
408.800	-0.718	0.100
408.900	9.409	0.100
409.000	-7.302	0.100
409.100	-3.691	0.100
409.200	-7.791	0.100
409.300	-2.147	0.100
409.400	-1.406	0.100
409.500	-6.364	0.100
409.600	-7.557	0.100
409.700	3.843	0.100
409.800	10.106	0.100
409.900	0.627	0.100
410.000	-8.603	0.100
410.100	-10.789	0.100
410.200	-6.302	0.100
410.300	-16.475	0.100
410.400	0.450	0.100
410.500	-10.136	0.100
410.600	-6.071	0.100
410.700	-7.105	0.100
410.800	-10.581	0.100
410.900	-3.976	0.100
411.000	-10.543	0.100
411.100	18.005	0.100
411.200	-9.795	0.100
411.300	3.543	0.100
411.400	-12.726	0.100
411.500	-0.701	0.100
411.600	-7.161	0.100
411.700	-12.917	0.100
411.800	-6.722	0.100
411.900	2.707	0.100
412.000	12.500	0.100
412.100	-9.111	0.100
412.200	-3.305	0.100
412.300	0.655	0.100
412.400	-5.985	0.100
412.500	-6.677	0.100
412.600	-10.565	0.100
412.700	1.114	0.100
412.800	0.275	0.100
412.900	-6.026	0.100
413.000	-3.003	0.100
413.100	-7.139	0.100
413.200	-2.138	0.100
413.300	-3.830	0.100
413.400	-5.584	0.100
413.500	-5.661	0.100
413.600	-6.780	0.100
413.700	-12.841	0.100
413.800	-15.488	0.100
413.900	7.634	0.100
414.000	-4.263	0.100
414.100	-19.587	0.100
414.200	5.456	0.100
414.300	-9.005	0.100
414.400	-14.875	0.100
414.500	-4.587	0.100
414.600	2.277	0.100
414.700	-7.441	0.100
414.800	-17.451	0.100
414.900	-11.574	0.100
415.000	2.769	0.100
415.100	-4.484	0.100
415.200	-13.665	0.100
415.300	-3.554	0.100
415.400	-2.703	0.100
415.500	3.009	0.100
415.600	6.967	0.100
415.700	-8.287	0.100
415.800	-6.038	0.100
415.900	-6.556	0.100
416.000	-14.526	0.100
416.100	-13.302	0.100
416.200	7.582	0.100
416.300	-5.298	0.100
416.400	-7.071	0.100
416.500	-13.998	0.100
416.600	-7.473	0.100
416.700	-11.271	0.100
416.800	-11.633	0.100
416.900	-19.100	0.100
417.000	-8.626	0.100
417.100	-1.770	0.100
417.200	-14.862	0.100
417.300	-6.447	0.100
417.400	-24.743	0.100
417.500	-9.832	0.100
417.600	1.488	0.100
417.700	-3.751	0.100
417.800	-6.930	0.100
417.900	-13.285	0.100
418.000	-3.012	0.100
418.100	-16.320	0.100
418.200	0.099	0.100
418.300	-15.840	0.100
418.400	4.699	0.100
418.500	-10.050	0.100
418.600	-24.510	0.100
418.700	-18.492	0.100
418.800	-15.663	0.100
418.900	-0.541	0.100
419.000	-8.996	0.100
419.100	-9.297	0.100
419.200	-7.772	0.100
419.300	-21.444	0.100
419.400	-15.436	0.100
419.500	0.424	0.100
419.600	-13.182	0.100
419.700	-8.547	0.100
419.800	-11.418	0.100
419.900	-14.336	0.100
420.000	-2.062	0.101
420.100	-3.376	0.100
420.200	0.676	0.100
420.300	-21.920	0.100
420.400	-17.691	0.100
420.500	-6.177	0.101
420.600	-17.564	0.100
420.700	-9.741	0.100
420.800	-8.409	0.100
420.900	-7.904	0.100
421.000	-21.480	0.100
421.100	-13.987	0.100
421.200	-2.945	0.101
421.300	-20.151	0.100
421.400	-9.309	0.100
421.500	-1.708	0.101
421.600	-10.490	0.101
421.700	-9.653	0.101
421.800	-12.114	0.101
421.900	-11.697	0.101
422.000	-27.082	0.101
422.100	3.479	0.101
422.200	-24.178	0.101
422.300	-10.181	0.101
422.400	-6.484	0.101
422.500	-9.863	0.101
422.600	-13.434	0.101
422.700	-13.407	0.101
422.800	-9.494	0.101
422.900	-7.658	0.101
423.000	-14.875	0.101
423.100	-5.808	0.101
423.200	-3.755	0.101
423.300	-8.117	0.101
423.400	-7.716	0.101
423.500	-18.263	0.101
423.600	-15.947	0.101
423.700	-10.713	0.101
423.800	3.909	0.101
423.900	2.812	0.101
424.000	-21.926	0.101
424.100	-13.216	0.101
424.200	-3.273	0.101
424.300	-15.040	0.101
424.400	-17.402	0.101
424.500	-0.903	0.101
424.600	-15.914	0.101
424.700	-15.236	0.101
424.800	-7.926	0.101
424.900	-12.450	0.101
425.000	-16.361	0.101
425.100	-20.914	0.101
425.200	-9.602	0.101
425.300	0.147	0.101
425.400	-8.018	0.101
425.500	-3.375	0.101
425.600	-11.040	0.101
425.700	-26.808	0.101
425.800	-14.806	0.101
425.900	-0.915	0.101
426.000	-12.334	0.101
426.100	-2.264	0.101
426.200	-16.951	0.101
426.300	-13.760	0.101
426.400	-6.217	0.101
426.500	-6.090	0.101
426.600	-8.750	0.101
426.700	-12.614	0.101
426.800	-23.549	0.101
426.900	-14.622	0.101
427.000	-10.677	0.101
427.100	-9.802	0.101
427.200	-15.304	0.101
427.300	-9.209	0.101
427.400	-22.419	0.101
427.500	-9.464	0.101
427.600	-10.370	0.101
427.700	-7.717	0.101
427.800	-14.023	0.101
427.900	-15.609	0.101
428.000	-17.017	0.101
428.100	-13.868	0.101
428.200	-7.210	0.101
428.300	-6.541	0.101
428.400	-12.214	0.101
428.500	-4.773	0.101
428.600	-6.261	0.101
428.700	-18.096	0.101
428.800	-9.637	0.101
428.900	-6.802	0.101
429.000	-15.537	0.101
429.100	-3.866	0.101
429.200	-12.400	0.101
429.300	-5.075	0.101
429.400	-3.897	0.101
429.500	-22.017	0.101
429.600	-25.390	0.101
429.700	-11.145	0.101
429.800	-7.905	0.101
429.900	-4.962	0.101
430.000	-23.149	0.101
430.100	-12.138	0.101
430.200	-8.267	0.101
430.300	-20.066	0.101
430.400	-11.679	0.101
430.500	-17.348	0.101
430.600	-6.098	0.101
430.700	-17.753	0.101
430.800	-11.350	0.101
430.900	-8.332	0.101
431.000	-18.134	0.101
431.100	-20.065	0.101
431.200	-6.904	0.101
431.300	-12.422	0.101
431.400	-16.937	0.101
431.500	-24.162	0.101
431.600	-14.133	0.101
431.700	2.397	0.101
431.800	-20.705	0.101
431.900	-11.420	0.101
432.000	-13.444	0.101
432.100	-13.523	0.101
432.200	-14.064	0.101
432.300	-1.514	0.101
432.400	-10.878	0.101
432.500	-18.460	0.101
432.600	-16.266	0.101
432.700	-8.003	0.101
432.800	-0.279	0.101
432.900	-5.167	0.101
433.000	-5.294	0.101
433.100	-1.795	0.101
433.200	1.416	0.101
433.300	-9.532	0.101
433.400	-11.126	0.101
433.500	-11.404	0.101
433.600	-24.006	0.101
433.700	-12.842	0.101
433.800	-6.604	0.101
433.900	-27.056	0.101
434.000	-0.953	0.101
434.100	-28.366	0.101
434.200	-19.427	0.101
434.300	-13.487	0.101
434.400	-10.665	0.101
434.500	-6.248	0.101
434.600	-21.127	0.101
434.700	-13.815	0.101
434.800	-10.056	0.101
434.900	-19.462	0.101
435.000	-19.691	0.101
435.100	-12.028	0.101
435.200	-16.777	0.101
435.300	-5.864	0.101
435.400	-15.821	0.101
435.500	-12.172	0.101
435.600	3.242	0.101
435.700	-1.433	0.101
435.800	-8.807	0.101
435.900	-17.231	0.101
436.000	-22.734	0.101
436.100	-12.365	0.101
436.200	-13.898	0.101
436.300	-21.503	0.101
436.400	-6.946	0.101
436.500	-5.574	0.101
436.600	-14.429	0.101
436.700	-16.344	0.101
436.800	-22.458	0.101
436.900	-7.852	0.101
437.000	-24.767	0.101
437.100	-21.016	0.101
437.200	-5.260	0.101
437.300	-26.613	0.101
437.400	-19.473	0.101
437.500	-4.069	0.101
437.600	-25.730	0.101
437.700	-5.438	0.101
437.800	3.679	0.101
437.900	-11.275	0.101
438.000	-6.027	0.101
438.100	-21.651	0.101
438.200	-2.736	0.101
438.300	2.491	0.101
438.400	-24.283	0.101
438.500	-16.709	0.101
438.600	-5.297	0.101
438.700	-15.351	0.101
438.800	-12.646	0.101
438.900	-8.853	0.101
439.000	-2.264	0.101
439.100	-17.000	0.101
439.200	-12.842	0.101
439.300	-15.609	0.101
439.400	-10.897	0.101
439.500	-13.701	0.101
439.600	-10.942	0.101
439.700	-16.490	0.101
439.800	-4.965	0.101
439.900	-7.185	0.101
440.000	-13.568	0.101
440.100	-8.783	0.101
440.200	-0.473	0.101
440.300	-9.603	0.101
440.400	-12.141	0.101
440.500	-13.968	0.101
440.600	1.148	0.101
440.700	-18.706	0.101
440.800	-28.900	0.101
440.900	-12.155	0.101
441.000	-7.546	0.101
441.100	-4.410	0.101
441.200	-1.673	0.101
441.300	-9.811	0.101
441.400	-21.271	0.101
441.500	-11.585	0.101
441.600	-12.190	0.101
441.700	-11.396	0.101
441.800	-12.177	0.101
441.900	-16.268	0.101
442.000	-12.389	0.101
442.100	-16.473	0.101
442.200	-19.447	0.101
442.300	-11.548	0.101
442.400	-9.496	0.101
442.500	-18.542	0.101
442.600	-26.530	0.101
442.700	-2.675	0.101
442.800	-21.320	0.101
442.900	-9.460	0.101
443.000	-9.454	0.101
443.100	-11.679	0.101
443.200	-12.917	0.101
443.300	-20.839	0.101
443.400	-10.301	0.101
443.500	-31.895	0.101
443.600	-2.315	0.101
443.700	-7.113	0.101
443.800	-27.467	0.101
443.900	-14.085	0.101
444.000	-3.904	0.101
444.100	-13.828	0.101
444.200	-14.477	0.101
444.300	-4.136	0.101
444.400	-7.552	0.101
444.500	-10.175	0.101
444.600	-3.584	0.101
444.700	-9.972	0.101
444.800	-15.879	0.101
444.900	-3.250	0.101
445.000	-0.249	0.101
445.100	-12.496	0.101
445.200	-13.945	0.101
445.300	-25.580	0.101
445.400	-21.228	0.101
445.500	-17.828	0.101
445.600	-11.856	0.101
445.700	-21.413	0.101
445.800	-15.841	0.101
445.900	-2.726	0.101
446.000	-9.536	0.101
446.100	-19.605	0.101
446.200	-12.876	0.101
446.300	6.820	0.101
446.400	-20.487	0.101
446.500	-8.810	0.101
446.600	-13.587	0.101
446.700	-4.416	0.101
446.800	-4.360	0.101
446.900	-21.630	0.101
447.000	-19.260	0.101
447.100	-17.321	0.101
447.200	-4.121	0.101
447.300	-10.889	0.101
447.400	-17.906	0.101
447.500	-10.150	0.101
447.600	-6.524	0.101
447.700	-8.097	0.101
447.800	-14.964	0.101
447.900	-19.504	0.101
448.000	-12.838	0.101
448.100	-4.013	0.101
448.200	-15.810	0.101
448.300	3.178	0.101
448.400	-21.132	0.101
448.500	-2.564	0.101
448.600	-11.850	0.101
448.700	-13.004	0.101
448.800	-10.950	0.101
448.900	-13.842	0.101
449.000	-21.194	0.101
449.100	-10.015	0.101
449.200	-21.345	0.101
449.300	-10.604	0.101
449.400	-16.084	0.101
449.500	-13.333	0.101
449.600	-21.202	0.101
449.700	-6.982	0.101
449.800	-14.457	0.101
449.900	-20.296	0.101
450.000	-16.490	0.101
450.100	-11.179	0.101
450.200	-4.710	0.101
450.300	-17.815	0.101
450.400	-26.561	0.101
450.500	-3.837	0.101
450.600	-11.708	0.101
450.700	-15.961	0.101
450.800	-19.893	0.101
450.900	-9.403	0.101
451.000	-15.678	0.101
451.100	-6.627	0.101
451.200	-17.195	0.101
451.300	-10.346	0.101
451.400	-4.823	0.101
451.500	-10.748	0.101
451.600	-16.131	0.101
451.700	-12.412	0.101
451.800	-21.857	0.101
451.900	-12.257	0.101
452.000	-3.429	0.101
452.100	-10.509	0.101
452.200	-30.805	0.101
452.300	-11.488	0.101
452.400	-5.954	0.101
452.500	-17.223	0.101
452.600	-9.464	0.101
452.700	-13.099	0.101
452.800	-4.810	0.101
452.900	-14.211	0.101
453.000	-11.126	0.101
453.100	-11.063	0.101
453.200	-19.074	0.101
453.300	1.228	0.101
453.400	-17.854	0.101
453.500	-12.391	0.101
453.600	-9.902	0.101
453.700	-16.848	0.101
453.800	-6.714	0.101
453.900	-7.753	0.101
454.000	-8.014	0.101
454.100	-23.886	0.101
454.200	-25.066	0.101
454.300	-11.430	0.101
454.400	-1.708	0.101
454.500	-16.104	0.101
454.600	-21.209	0.101
454.700	-19.232	0.101
454.800	-17.571	0.101
454.900	-6.870	0.101
455.000	4.786	0.101
455.100	-10.669	0.101
455.200	-21.082	0.101
455.300	-13.590	0.101
455.400	-9.547	0.101
455.500	-27.799	0.101
455.600	-15.394	0.101
455.700	-16.371	0.101
455.800	-14.328	0.101
455.900	-11.467	0.101
456.000	-9.877	0.101
456.100	-27.260	0.101
456.200	-8.327	0.101
456.300	-23.098	0.101
456.400	-8.057	0.101
456.500	-18.796	0.101
456.600	-9.875	0.101
456.700	-6.845	0.101
456.800	-24.067	0.101
456.900	-10.599	0.101
457.000	-9.830	0.101
457.100	-2.476	0.101
457.200	-2.755	0.101
457.300	-16.288	0.101
457.400	-19.441	0.101
457.500	-13.773	0.101
457.600	-17.002	0.101
457.700	-2.719	0.101
457.800	-15.963	0.101
457.900	-9.796	0.101
458.000	-9.096	0.101
458.100	-14.518	0.101
458.200	-2.400	0.101
458.300	-13.827	0.101
458.400	-10.144	0.101
458.500	-15.197	0.101
458.600	-7.499	0.101
458.700	-5.804	0.101
458.800	-17.764	0.101
458.900	-24.826	0.101
459.000	-16.141	0.101
459.100	-2.612	0.101
459.200	-11.440	0.101
459.300	-22.710	0.101
459.400	-4.562	0.101
459.500	-5.297	0.101
459.600	-10.635	0.101
459.700	-11.383	0.101
459.800	-22.534	0.101
459.900	-14.516	0.101
460.000	-1.035	0.101
460.100	-25.623	0.101
460.200	-7.174	0.101
460.300	-2.645	0.101
460.400	-18.718	0.101
460.500	-19.055	0.101
460.600	-21.244	0.101
460.700	-15.644	0.101
460.800	-6.703	0.101
460.900	-20.329	0.101
461.000	-2.440	0.101
461.100	-3.709	0.101
461.200	-10.931	0.101
461.300	-11.521	0.101
461.400	-12.949	0.101
461.500	-20.011	0.101
461.600	-13.718	0.101
461.700	-7.812	0.101
461.800	-21.906	0.101
461.900	-11.891	0.101
462.000	-7.319	0.101
462.100	-11.494	0.101
462.200	-5.585	0.101
462.300	-6.430	0.101
462.400	-14.336	0.101
462.500	-8.397	0.101
462.600	-20.287	0.101
462.700	1.699	0.101
462.800	-9.780	0.101
462.900	-26.331	0.101
463.000	-11.224	0.101
463.100	-3.310	0.101
463.200	-3.446	0.101
463.300	-14.378	0.101
463.400	-12.687	0.101
463.500	-7.962	0.101
463.600	-14.537	0.101
463.700	-24.342	0.101
463.800	-17.204	0.101
463.900	-11.494	0.101
464.000	-8.585	0.101
464.100	-18.611	0.101
464.200	-14.778	0.101
464.300	-1.819	0.101
464.400	-14.349	0.101
464.500	-6.401	0.101
464.600	-13.103	0.101
464.700	-11.990	0.101
464.800	-17.765	0.101
464.900	-20.086	0.101
465.000	0.615	0.101
465.100	-18.945	0.101
465.200	-13.890	0.101
465.300	-6.288	0.101
465.400	-11.506	0.101
465.500	-7.629	0.101
465.600	-16.630	0.101
465.700	-22.859	0.101
465.800	-12.536	0.101
465.900	-8.644	0.101
466.000	-8.843	0.101
466.100	-8.807	0.101
466.200	-11.300	0.101
466.300	-17.694	0.101
466.400	-13.454	0.101
466.500	-26.370	0.101
466.600	-6.556	0.101
466.700	-11.821	0.101
466.800	-9.292	0.101
466.900	-6.181	0.101
467.000	-11.350	0.101
467.100	-6.947	0.101
467.200	-20.963	0.101
467.300	-13.676	0.101
467.400	2.690	0.101
467.500	-12.383	0.101
467.600	-25.658	0.101
467.700	-9.468	0.101
467.800	-24.979	0.101
467.900	-6.483	0.101
468.000	1.556	0.101
468.100	-15.316	0.101
468.200	0.279	0.101
468.300	-12.253	0.101
468.400	-14.494	0.101
468.500	-21.357	0.101
468.600	-20.250	0.101
468.700	-11.622	0.101
468.800	-7.582	0.101
468.900	-12.822	0.101
469.000	-16.137	0.101
469.100	-11.065	0.101
469.200	-13.407	0.101
469.300	-12.078	0.101
469.400	-8.216	0.101
469.500	-5.307	0.101
469.600	-23.127	0.101
469.700	-11.813	0.101
469.800	-11.231	0.101
469.900	-17.788	0.101
470.000	-13.797	0.101
470.100	-13.313	0.101
470.200	-11.171	0.101
470.300	-1.426	0.101
470.400	-12.543	0.101
470.500	-6.444	0.101
470.600	0.299	0.101
470.700	-1.551	0.101
470.800	-12.450	0.101
470.900	-3.871	0.101
471.000	-24.733	0.101
471.100	-19.089	0.101
471.200	-15.530	0.101
471.300	-16.644	0.101
471.400	1.389	0.101
471.500	-17.041	0.101
471.600	-14.736	0.101
471.700	-14.172	0.101
471.800	-13.155	0.101
471.900	-6.606	0.101
472.000	-15.590	0.101
472.100	-8.776	0.101
472.200	-12.813	0.101
472.300	-8.705	0.101
472.400	-8.132	0.101
472.500	3.207	0.101
472.600	-12.846	0.101
472.700	-9.172	0.101
472.800	-28.453	0.101
472.900	3.462	0.101
473.000	-16.635	0.101
473.100	-2.811	0.101
473.200	-14.884	0.101
473.300	-17.441	0.101
473.400	-17.011	0.101
473.500	-10.543	0.101
473.600	-21.189	0.101
473.700	-8.283	0.101
473.800	-15.302	0.101
473.900	2.562	0.101
474.000	-17.687	0.101
474.100	-8.928	0.101
474.200	1.306	0.101
474.300	-12.504	0.101
474.400	-9.771	0.101
474.500	-18.939	0.101
474.600	-9.181	0.101
474.700	-2.215	0.101
474.800	-11.204	0.101
474.900	-25.263	0.101
475.000	-15.011	0.101
475.100	-2.000	0.101
475.200	-10.229	0.101
475.300	-6.614	0.101
475.400	-29.802	0.101
475.500	-14.746	0.101
475.600	-26.185	0.101
475.700	-7.263	0.101
475.800	-4.332	0.101
475.900	-27.449	0.101
476.000	1.962	0.101
476.100	-8.692	0.101
476.200	-13.856	0.101
476.300	-20.516	0.101
476.400	-4.611	0.101
476.500	-1.870	0.101
476.600	-0.723	0.101
476.700	-8.926	0.101
476.800	-16.518	0.101
476.900	-21.412	0.101
477.000	-12.169	0.101
477.100	-14.424	0.101
477.200	-11.110	0.101
477.300	-17.817	0.101
477.400	-16.098	0.101
477.500	0.001	0.101
477.600	-0.037	0.101
477.700	-6.512	0.101
477.800	-25.265	0.101
477.900	-7.673	0.101
478.000	-4.691	0.101
478.100	-10.736	0.101
478.200	-2.988	0.101
478.300	-19.164	0.101
478.400	-15.695	0.101
478.500	-3.677	0.101
478.600	-21.148	0.101
478.700	-27.742	0.101
478.800	3.316	0.101
478.900	0.594	0.101
479.000	-8.661	0.101
479.100	-11.917	0.101
479.200	-17.367	0.101
479.300	-9.522	0.101
479.400	-10.481	0.101
479.500	-8.128	0.101
479.600	-14.809	0.101
479.700	-5.154	0.101
479.800	-7.660	0.101
479.900	-19.160	0.101
480.000	-2.757	0.101
480.100	-19.588	0.101
480.200	-8.697	0.101
480.300	-14.591	0.101
480.400	-2.781	0.101
480.500	-14.406	0.101
480.600	-4.408	0.101
480.700	-11.536	0.101
480.800	0.717	0.101
480.900	8.510	0.101
481.000	-2.407	0.101
481.100	-5.832	0.101
481.200	-3.540	0.101
481.300	-1.233	0.101
481.400	1.815	0.101
481.500	8.920	0.101
481.600	-5.104	0.101
481.700	18.429	0.101
481.800	12.722	0.101
481.900	15.991	0.101
482.000	-4.874	0.101
482.100	0.878	0.101
482.200	7.839	0.101
482.300	-6.245	0.101
482.400	1.435	0.101
482.500	5.642	0.101
482.600	10.518	0.101
482.700	17.636	0.101
482.800	13.362	0.101
482.900	7.981	0.101
483.000	14.363	0.101
483.100	25.523	0.101
483.200	13.793	0.101
483.300	8.603	0.101
483.400	3.497	0.101
483.500	17.061	0.101
483.600	8.920	0.101
483.700	8.783	0.101
483.800	15.587	0.101
483.900	18.179	0.101
484.000	19.119	0.101
484.100	22.214	0.101
484.200	15.167	0.101
484.300	10.119	0.101
484.400	8.393	0.101
484.500	7.910	0.101
484.600	12.988	0.101
484.700	13.022	0.101
484.800	-0.152	0.101
484.900	12.951	0.101
485.000	19.263	0.101
485.100	20.339	0.101
485.200	-2.566	0.101
485.300	15.960	0.101
485.400	13.720	0.101
485.500	23.249	0.101
485.600	-2.434	0.101
485.700	22.305	0.101
485.800	2.345	0.101
485.900	9.512	0.101
486.000	3.721	0.101
486.100	5.104	0.101
486.200	19.997	0.101
486.300	10.331	0.101
486.400	9.898	0.101
486.500	1.537	0.101
486.600	26.975	0.101
486.700	12.247	0.101
486.800	13.601	0.101
486.900	12.011	0.101
487.000	15.054	0.101
487.100	21.354	0.101
487.200	19.733	0.101
487.300	-2.627	0.101
487.400	7.045	0.101
487.500	22.409	0.101
487.600	6.818	0.101
487.700	23.150	0.101
487.800	-2.504	0.101
487.900	4.690	0.101
488.000	10.982	0.101
488.100	15.442	0.101
488.200	6.367	0.101
488.300	25.265	0.101
488.400	13.243	0.101
488.500	15.477	0.101
488.600	3.313	0.101
488.700	15.258	0.101
488.800	12.346	0.101
488.900	18.070	0.101
489.000	3.792	0.101
489.100	1.174	0.101
489.200	5.785	0.101
489.300	24.964	0.101
489.400	9.121	0.101
489.500	15.236	0.101
489.600	17.883	0.101
489.700	18.101	0.101
489.800	17.488	0.101
489.900	15.964	0.101
490.000	14.455	0.101
490.100	17.106	0.101
490.200	22.263	0.101
490.300	21.891	0.101
490.400	10.371	0.101
490.500	24.484	0.101
490.600	24.903	0.101
490.700	17.110	0.101
490.800	12.770	0.101
490.900	25.936	0.101
491.000	25.106	0.101
491.100	25.406	0.101
491.200	8.431	0.101
491.300	-4.209	0.101
491.400	10.002	0.101
491.500	12.802	0.101
491.600	11.566	0.101
491.700	28.355	0.101
491.800	18.921	0.101
491.900	25.397	0.101
492.000	19.748	0.101
492.100	22.919	0.101
492.200	20.598	0.101
492.300	13.384	0.101
492.400	22.370	0.101
492.500	18.812	0.101
492.600	22.890	0.101
492.700	26.891	0.101
492.800	20.171	0.101
492.900	15.140	0.101
493.000	14.665	0.101
493.100	12.732	0.101
493.200	0.787	0.101
493.300	5.655	0.101
493.400	14.689	0.101
493.500	18.218	0.101
493.600	25.343	0.101
493.700	27.068	0.101
493.800	16.315	0.101
493.900	24.196	0.101
494.000	5.853	0.101
494.100	21.939	0.101
494.200	11.232	0.101
494.300	22.015	0.101
494.400	17.930	0.101
494.500	17.878	0.101
494.600	28.793	0.101
494.700	15.858	0.101
494.800	34.821	0.101
494.900	22.734	0.101
495.000	17.095	0.101
495.100	23.547	0.101
495.200	34.612	0.101
495.300	18.349	0.101
495.400	14.985	0.101
495.500	25.842	0.101
495.600	22.572	0.101
495.700	18.079	0.101
495.800	19.120	0.101
495.900	29.192	0.101
496.000	16.000	0.101
496.100	14.528	0.101
496.200	29.996	0.101
496.300	28.997	0.101
496.400	26.090	0.101
496.500	15.293	0.101
496.600	13.225	0.101
496.700	29.998	0.101
496.800	25.985	0.101
496.900	23.610	0.101
497.000	19.388	0.101
497.100	26.238	0.101
497.200	20.658	0.101
497.300	24.765	0.101
497.400	26.154	0.101
497.500	16.575	0.101
497.600	16.394	0.101
497.700	38.321	0.101
497.800	23.227	0.101
497.900	14.793	0.101
498.000	33.856	0.101
498.100	20.208	0.101
498.200	28.104	0.101
498.300	24.770	0.101
498.400	32.559	0.101
498.500	41.029	0.101
498.600	24.076	0.101
498.700	21.087	0.101
498.800	38.224	0.101
498.900	23.195	0.101
499.000	26.635	0.101
499.100	31.556	0.101
499.200	30.157	0.101
499.300	19.013	0.101
499.400	26.404	0.101
499.500	31.642	0.101
499.600	16.662	0.101
499.700	19.314	0.101
499.800	29.355	0.101
499.900	29.412	0.101
500.000	34.054	0.101
500.100	30.023	0.101
500.200	16.527	0.101
500.300	27.795	0.101
500.400	31.666	0.101
500.500	47.429	0.101
500.600	34.890	0.101
500.700	30.433	0.101
500.800	15.167	0.101
500.900	28.677	0.101
501.000	37.109	0.101
501.100	26.630	0.101
501.200	34.122	0.101
501.300	33.296	0.101
501.400	24.433	0.101
501.500	17.448	0.101
501.600	46.428	0.101
501.700	31.011	0.101
501.800	28.844	0.101
501.900	30.751	0.101
502.000	25.256	0.101
502.100	20.539	0.101
502.200	25.521	0.101
502.300	35.632	0.101
502.400	32.133	0.101
502.500	23.644	0.101
502.600	44.784	0.101
502.700	29.388	0.101
502.800	45.169	0.101
502.900	32.971	0.101
503.000	25.386	0.101
503.100	28.869	0.101
503.200	29.109	0.101
503.300	26.977	0.101
503.400	29.203	0.101
503.500	25.729	0.101
503.600	21.874	0.101
503.700	30.869	0.101
503.800	23.672	0.101
503.900	38.375	0.101
504.000	43.860	0.101
504.100	34.659	0.101
504.200	36.373	0.101
504.300	15.165	0.101
504.400	42.073	0.101
504.500	34.303	0.101
504.600	30.761	0.101
504.700	29.231	0.101
504.800	33.626	0.101
504.900	37.336	0.101
505.000	32.413	0.101
505.100	35.641	0.101
505.200	25.312	0.101
505.300	39.287	0.101
505.400	41.996	0.101
505.500	28.460	0.101
505.600	36.651	0.101
505.700	30.862	0.101
505.800	33.701	0.101
505.900	19.199	0.101
506.000	35.320	0.101
506.100	34.956	0.101
506.200	35.971	0.101
506.300	27.968	0.101
506.400	31.767	0.101
506.500	35.352	0.101
506.600	31.121	0.101
506.700	22.320	0.101
506.800	36.758	0.101
506.900	38.813	0.101
507.000	28.253	0.101
507.100	21.614	0.101
507.200	40.439	0.101
507.300	32.716	0.101
507.400	31.816	0.101
507.500	31.427	0.101
507.600	34.332	0.101
507.700	37.392	0.101
507.800	30.312	0.101
507.900	30.662	0.101
508.000	34.599	0.101
508.100	42.448	0.101
508.200	25.447	0.101
508.300	33.223	0.101
508.400	31.565	0.101
508.500	40.210	0.101
508.600	27.908	0.101
508.700	24.482	0.101
508.800	29.439	0.101
508.900	24.540	0.101
509.000	17.278	0.101
509.100	30.428	0.101
509.200	38.616	0.101
509.300	29.713	0.101
509.400	31.647	0.101
509.500	28.354	0.101
509.600	29.134	0.101
509.700	42.397	0.101
509.800	34.336	0.101
509.900	26.968	0.101
510.000	35.367	0.101
510.100	28.956	0.101
510.200	34.337	0.101
510.300	37.060	0.101
510.400	26.907	0.101
510.500	33.386	0.101
510.600	19.809	0.101
510.700	27.123	0.101
510.800	35.523	0.101
510.900	36.770	0.101
511.000	37.084	0.101
511.100	20.421	0.101
511.200	34.337	0.101
511.300	40.035	0.101
511.400	33.617	0.101
511.500	34.201	0.101
511.600	35.175	0.101
511.700	45.119	0.101
511.800	28.252	0.101
511.900	33.753	0.101
512.000	35.734	0.101
512.100	41.782	0.101
512.200	32.260	0.101
512.300	41.351	0.101
512.400	25.063	0.101
512.500	19.093	0.101
512.600	26.220	0.101
512.700	33.729	0.101
512.800	35.195	0.101
512.900	27.854	0.101
513.000	46.419	0.101
513.100	43.869	0.101
513.200	28.045	0.101
513.300	38.776	0.101
513.400	31.309	0.101
513.500	28.247	0.101
513.600	20.101	0.101
513.700	26.477	0.101
513.800	28.509	0.101
513.900	24.305	0.101
514.000	29.284	0.101
514.100	37.674	0.101
514.200	34.589	0.101
514.300	45.672	0.101
514.400	30.399	0.101
514.500	22.886	0.101
514.600	30.814	0.101
514.700	28.842	0.101
514.800	33.157	0.101
514.900	28.568	0.101
515.000	28.426	0.101
515.100	35.405	0.101
515.200	40.545	0.101
515.300	47.588	0.101
515.400	34.757	0.101
515.500	34.542	0.101
515.600	23.054	0.101
515.700	29.222	0.101
515.800	33.969	0.101
515.900	41.057	0.101
516.000	28.871	0.101
516.100	30.126	0.101
516.200	38.246	0.101
516.300	31.189	0.101
516.400	20.492	0.101
516.500	27.968	0.101
516.600	40.465	0.101
516.700	35.777	0.101
516.800	22.940	0.101
516.900	37.810	0.101
517.000	43.536	0.101
517.100	35.083	0.101
517.200	25.306	0.101
517.300	28.293	0.101
517.400	36.687	0.101
517.500	24.538	0.101
517.600	26.337	0.101
517.700	35.364	0.101
517.800	38.601	0.101
517.900	29.852	0.101
518.000	27.669	0.101
518.100	24.422	0.101
518.200	16.265	0.101
518.300	34.473	0.101
518.400	44.856	0.101
518.500	23.326	0.101
518.600	40.226	0.101
518.700	23.628	0.101
518.800	33.852	0.101
518.900	39.237	0.101
519.000	25.064	0.101
519.100	34.708	0.101
519.200	40.650	0.101
519.300	38.658	0.101
519.400	14.149	0.101
519.500	26.022	0.101
519.600	39.589	0.101
519.700	37.920	0.101
519.800	34.379	0.101
519.900	31.226	0.101
520.000	37.499	0.101
520.100	32.178	0.101
520.200	36.672	0.101
520.300	36.033	0.101
520.400	22.916	0.101
520.500	27.705	0.101
520.600	29.504	0.101
520.700	33.291	0.101
520.800	32.165	0.101
520.900	39.547	0.101
521.000	38.214	0.101
521.100	36.126	0.101
521.200	41.972	0.101
521.300	29.341	0.101
521.400	36.342	0.101
521.500	35.810	0.101
521.600	41.341	0.101
521.700	15.515	0.101
521.800	22.435	0.101
521.900	22.195	0.101
522.000	24.705	0.101
522.100	45.554	0.101
522.200	25.778	0.101
522.300	44.826	0.101
522.400	32.155	0.101
522.500	34.605	0.101
522.600	28.255	0.101
522.700	23.307	0.101
522.800	37.123	0.101
522.900	35.060	0.101
523.000	33.622	0.101
523.100	28.389	0.101
523.200	36.422	0.101
523.300	29.513	0.101
523.400	45.968	0.101
523.500	34.923	0.101
523.600	34.078	0.101
523.700	24.083	0.101
523.800	36.839	0.101
523.900	30.098	0.101
524.000	32.714	0.101
524.100	32.743	0.101
524.200	30.727	0.101
524.300	32.745	0.101
524.400	30.463	0.101
524.500	35.072	0.101
524.600	38.718	0.101
524.700	11.575	0.101
524.800	31.684	0.101
524.900	20.490	0.101
525.000	38.317	0.101
525.100	34.906	0.101
525.200	37.155	0.101
525.300	41.344	0.101
525.400	34.763	0.101
525.500	25.535	0.101
525.600	24.861	0.101
525.700	35.636	0.101
525.800	31.098	0.101
525.900	39.862	0.101
526.000	26.975	0.101
526.100	31.267	0.101
526.200	33.347	0.101
526.300	27.552	0.101
526.400	35.878	0.101
526.500	40.430	0.101
526.600	28.624	0.101
526.700	31.030	0.101
526.800	31.251	0.101
526.900	21.089	0.101
527.000	45.765	0.101
527.100	26.436	0.101
527.200	23.801	0.101
527.300	43.469	0.101
527.400	29.858	0.101
527.500	36.903	0.101
527.600	36.669	0.101
527.700	41.874	0.101
527.800	36.842	0.101
527.900	20.023	0.101
528.000	26.635	0.101
528.100	29.162	0.101
528.200	31.496	0.101
528.300	33.143	0.101
528.400	36.077	0.101
528.500	50.972	0.101
528.600	29.742	0.101
528.700	28.561	0.101
528.800	25.200	0.101
528.900	35.717	0.101
529.000	38.508	0.101
529.100	32.097	0.101
529.200	17.754	0.101
529.300	23.854	0.101
529.400	36.953	0.101
529.500	30.057	0.101
529.600	38.192	0.101
529.700	40.925	0.101
529.800	40.229	0.101
529.900	31.091	0.101
530.000	35.119	0.101
530.100	35.294	0.101
530.200	35.480	0.101
530.300	41.822	0.101
530.400	36.758	0.101
530.500	21.975	0.101
530.600	37.176	0.101
530.700	31.861	0.101
530.800	26.219	0.101
530.900	21.651	0.101
531.000	32.981	0.101
531.100	31.740	0.101
531.200	36.287	0.101
531.300	24.682	0.101
531.400	24.121	0.101
531.500	35.700	0.101
531.600	19.864	0.101
531.700	27.217	0.101
531.800	35.952	0.101
531.900	45.225	0.101
532.000	40.995	0.101
532.100	25.817	0.101
532.200	26.458	0.101
532.300	17.790	0.101
532.400	37.793	0.101
532.500	49.096	0.101
532.600	34.391	0.101
532.700	26.378	0.101
532.800	22.982	0.101
532.900	38.155	0.101
533.000	26.508	0.101
533.100	47.064	0.101
533.200	33.751	0.101
533.300	40.890	0.101
533.400	42.126	0.101
533.500	40.183	0.101
533.600	28.758	0.101
533.700	33.141	0.101
533.800	26.535	0.101
533.900	40.181	0.101
534.000	43.738	0.101
534.100	29.765	0.101
534.200	35.853	0.101
534.300	40.749	0.101
534.400	35.493	0.101
534.500	33.213	0.101
534.600	40.771	0.101
534.700	23.776	0.101
534.800	25.220	0.101
534.900	36.499	0.101
535.000	32.733	0.101
535.100	38.901	0.101
535.200	43.254	0.101
535.300	28.684	0.101
535.400	30.765	0.101
535.500	37.569	0.101
535.600	28.669	0.101
535.700	26.032	0.101
535.800	43.349	0.101
535.900	20.298	0.101
536.000	36.396	0.101
536.100	31.854	0.101
536.200	50.267	0.101
536.300	22.613	0.101
536.400	35.058	0.101
536.500	31.474	0.101
536.600	29.239	0.101
536.700	34.190	0.101
536.800	42.212	0.101
536.900	36.685	0.101
537.000	32.092	0.101
537.100	40.914	0.101
537.200	34.455	0.101
537.300	35.004	0.101
537.400	43.437	0.101
537.500	25.087	0.101
537.600	41.659	0.101
537.700	28.857	0.101
537.800	26.157	0.101
537.900	32.724	0.101
538.000	38.012	0.101
538.100	47.898	0.101
538.200	43.669	0.101
538.300	25.552	0.101
538.400	29.309	0.101
538.500	36.226	0.101
538.600	35.503	0.101
538.700	32.187	0.101
538.800	30.789	0.101
538.900	27.866	0.101
539.000	29.774	0.101
539.100	47.294	0.101
539.200	36.437	0.101
539.300	29.143	0.101
539.400	36.726	0.101
539.500	36.831	0.101
539.600	22.082	0.101
539.700	39.437	0.101
539.800	33.103	0.101
539.900	39.961	0.101
540.000	25.286	0.101
540.100	37.268	0.101
540.200	45.807	0.101
540.300	37.151	0.101
540.400	26.435	0.101
540.500	44.161	0.101
540.600	17.240	0.101
540.700	15.151	0.101
540.800	23.402	0.101
540.900	26.414	0.101
541.000	24.881	0.101
541.100	35.079	0.101
541.200	7.392	0.101
541.300	23.616	0.101
541.400	21.787	0.101
541.500	24.829	0.101
541.600	27.248	0.101
541.700	12.632	0.101
541.800	8.852	0.101
541.900	20.157	0.101
542.000	-4.502	0.101
542.100	17.684	0.101
542.200	14.998	0.101
542.300	2.687	0.101
542.400	8.199	0.101
542.500	12.074	0.101
542.600	13.054	0.101
542.700	15.057	0.101
542.800	4.659	0.101
542.900	1.694	0.101
543.000	5.053	0.101
543.100	-2.771	0.101
543.200	8.567	0.101
543.300	6.102	0.101
543.400	12.587	0.101
543.500	9.246	0.101
543.600	-0.682	0.101
543.700	-2.126	0.101
543.800	0.958	0.101
543.900	2.567	0.101
544.000	-12.191	0.101
544.100	12.171	0.101
544.200	1.575	0.101
544.300	1.951	0.101
544.400	9.355	0.101
544.500	14.584	0.101
544.600	10.698	0.101
544.700	0.806	0.101
544.800	-2.362	0.101
544.900	-3.309	0.101
545.000	-5.919	0.101
545.100	-1.188	0.101
545.200	17.068	0.101
545.300	7.449	0.101
545.400	-8.983	0.101
545.500	0.477	0.101
545.600	6.932	0.101
545.700	7.678	0.101
545.800	0.147	0.101
545.900	-10.251	0.101
546.000	1.306	0.101
546.100	2.198	0.101
546.200	1.191	0.101
546.300	2.776	0.101
546.400	7.599	0.101
546.500	13.145	0.101
546.600	-2.114	0.101
546.700	-5.944	0.101
546.800	-12.424	0.101
546.900	-3.962	0.101
547.000	4.635	0.101
547.100	4.294	0.101
547.200	-1.952	0.101
547.300	1.998	0.101
547.400	-4.486	0.101
547.500	9.921	0.101
547.600	-5.448	0.101
547.700	4.638	0.101
547.800	16.388	0.101
547.900	3.692	0.101
548.000	-7.854	0.101
548.100	9.764	0.101
548.200	0.078	0.101
548.300	11.411	0.101
548.400	-7.401	0.101
548.500	6.981	0.101
548.600	3.911	0.101
548.700	-11.948	0.101
548.800	-3.247	0.101
548.900	5.398	0.101
549.000	3.831	0.101
549.100	-1.796	0.101
549.200	-6.485	0.101
549.300	2.243	0.101
549.400	0.320	0.101
549.500	1.211	0.101
549.600	8.831	0.101
549.700	-9.723	0.101
549.800	3.373	0.101
549.900	-5.170	0.101
550.000	2.461	0.101
550.100	2.503	0.101
550.200	3.874	0.101
550.300	9.924	0.101
550.400	-3.067	0.101
550.500	9.117	0.101
550.600	1.701	0.101
550.700	-7.286	0.101
550.800	8.675	0.101
550.900	6.799	0.101
551.000	0.228	0.101
551.100	1.178	0.101
551.200	-2.288	0.101
551.300	-6.904	0.101
551.400	3.265	0.101
551.500	-2.213	0.101
551.600	-4.306	0.101
551.700	-10.274	0.101
551.800	-2.883	0.101
551.900	10.779	0.101
552.000	5.773	0.101
552.100	10.983	0.101
552.200	-8.333	0.101
552.300	3.055	0.101
552.400	-1.544	0.101
552.500	-7.729	0.101
552.600	7.551	0.101
552.700	-4.016	0.101
552.800	3.824	0.101
552.900	10.615	0.101
553.000	-8.104	0.101
553.100	-8.346	0.101
553.200	-0.847	0.101
553.300	-3.399	0.101
553.400	1.331	0.101
553.500	-8.268	0.101
553.600	4.872	0.101
553.700	-9.045	0.101
553.800	-12.384	0.101
553.900	-2.690	0.101
554.000	-4.968	0.101
554.100	5.784	0.101
554.200	0.643	0.101
554.300	0.993	0.101
554.400	16.477	0.101
554.500	-8.750	0.101
554.600	-0.572	0.101
554.700	-6.102	0.101
554.800	-12.939	0.101
554.900	3.217	0.101
555.000	-10.174	0.101
555.100	7.962	0.101
555.200	2.899	0.101
555.300	-0.762	0.101
555.400	0.782	0.101
555.500	-12.095	0.101
555.600	1.765	0.101
555.700	4.344	0.101
555.800	-10.725	0.101
555.900	3.435	0.101
556.000	-7.141	0.101
556.100	-3.566	0.101
556.200	-20.853	0.101
556.300	-0.938	0.101
556.400	-10.146	0.101
556.500	4.817	0.101
556.600	9.452	0.101
556.700	8.485	0.101
556.800	-7.538	0.101
556.900	0.142	0.101
557.000	2.069	0.101
557.100	-10.425	0.101
557.200	-2.337	0.101
557.300	-9.847	0.101
557.400	4.117	0.101
557.500	1.285	0.101
557.600	0.750	0.101
557.700	1.278	0.101
557.800	-3.772	0.101
557.900	-13.072	0.101
558.000	0.156	0.101
558.100	0.016	0.101
558.200	-1.859	0.101
558.300	4.114	0.101
558.400	-7.945	0.101
558.500	-4.430	0.101
558.600	-20.461	0.101
558.700	4.014	0.101
558.800	-8.181	0.101
558.900	-16.963	0.101
559.000	11.338	0.101
559.100	-0.425	0.101
559.200	-13.116	0.101
559.300	-8.847	0.101
559.400	-12.675	0.101
559.500	-2.754	0.101
559.600	-1.315	0.101
559.700	-7.466	0.101
559.800	-13.376	0.101
559.900	8.059	0.101
560.000	-20.013	0.101
560.100	8.195	0.101
560.200	4.546	0.101
560.300	-8.053	0.101
560.400	-9.982	0.101
560.500	-12.054	0.101
560.600	-3.492	0.101
560.700	-9.149	0.101
560.800	-3.778	0.101
560.900	2.320	0.101
561.000	-7.661	0.101
561.100	-3.736	0.101
561.200	-12.987	0.101
561.300	-8.447	0.101
561.400	-0.590	0.101
561.500	-9.530	0.101
561.600	-3.232	0.101
561.700	-4.570	0.101
561.800	-2.449	0.101
561.900	-6.239	0.101
562.000	-7.001	0.101
562.100	1.878	0.101
562.200	-15.391	0.101
562.300	-1.142	0.101
562.400	-6.664	0.101
562.500	0.923	0.101
562.600	-8.374	0.101
562.700	-4.199	0.101
562.800	-7.515	0.101
562.900	-11.262	0.101
563.000	6.323	0.101
563.100	-9.822	0.101
563.200	-4.824	0.101
563.300	-7.851	0.101
563.400	-6.682	0.101
563.500	-8.452	0.101
563.600	4.460	0.101
563.700	-16.661	0.101
563.800	3.243	0.101
563.900	-7.061	0.101
564.000	-23.542	0.101
564.100	-1.891	0.101
564.200	-1.772	0.101
564.300	-16.437	0.101
564.400	-0.326	0.101
564.500	-16.731	0.101
564.600	-7.544	0.101
564.700	-5.795	0.101
564.800	5.397	0.101
564.900	-3.713	0.101
565.000	-10.395	0.101
565.100	-21.703	0.101
565.200	-21.351	0.101
565.300	-1.358	0.101
565.400	-17.367	0.101
565.500	2.047	0.101
565.600	-16.109	0.101
565.700	-10.019	0.101
565.800	-8.063	0.101
565.900	-14.034	0.101
566.000	3.243	0.101
566.100	-9.395	0.101
566.200	-13.498	0.101
566.300	-2.958	0.101
566.400	-9.858	0.101
566.500	-14.121	0.101
566.600	8.582	0.101
566.700	-17.608	0.101
566.800	-27.008	0.101
566.900	-4.183	0.101
567.000	-7.599	0.101
567.100	-14.288	0.101
567.200	-4.027	0.101
567.300	-18.648	0.101
567.400	-14.909	0.101
567.500	-11.239	0.101
567.600	5.691	0.101
567.700	-3.261	0.101
567.800	-16.926	0.101
567.900	-13.698	0.101
568.000	0.176	0.101
568.100	-11.100	0.101
568.200	-12.788	0.101
568.300	-5.917	0.101
568.400	-21.319	0.101
568.500	-13.309	0.101
568.600	-10.468	0.101
568.700	-17.731	0.101
568.800	-7.655	0.101
568.900	-13.232	0.101
569.000	-10.134	0.101
569.100	-35.424	0.101
569.200	-14.608	0.101
569.300	-3.237	0.101
569.400	3.850	0.101
569.500	-13.049	0.101
569.600	-13.322	0.101
569.700	-11.581	0.101
569.800	-8.083	0.101
569.900	-16.315	0.101
570.000	-10.506	0.101
570.100	-2.007	0.101
570.200	-18.039	0.101
570.300	-3.927	0.101
570.400	-12.735	0.101
570.500	-13.180	0.101
570.600	-12.248	0.101
570.700	-9.482	0.101
570.800	-23.205	0.101
570.900	-13.575	0.101
571.000	-0.402	0.101
571.100	-12.188	0.101
571.200	-13.911	0.101
571.300	-10.044	0.101
571.400	-3.226	0.101
571.500	-12.700	0.101
571.600	-12.920	0.101
571.700	-4.950	0.101
571.800	-9.657	0.101
571.900	-15.969	0.101
572.000	-17.871	0.101
572.100	-26.787	0.101
572.200	4.547	0.101
572.300	-13.717	0.101
572.400	-11.536	0.101
572.500	-18.063	0.101
572.600	-11.277	0.101
572.700	-12.037	0.101
572.800	-17.318	0.101
572.900	-25.249	0.101
573.000	-14.299	0.101
573.100	-6.933	0.101
573.200	-6.064	0.101
573.300	-11.453	0.101
573.400	-8.909	0.101
573.500	-10.858	0.101
573.600	-6.392	0.101
573.700	-5.878	0.101
573.800	-21.066	0.101
573.900	-15.047	0.101
574.000	-3.940	0.101
574.100	-22.678	0.101
574.200	-21.767	0.101
574.300	-13.189	0.101
574.400	-10.768	0.101
574.500	-8.146	0.101
574.600	-11.507	0.101
574.700	-13.689	0.101
574.800	-20.332	0.101
574.900	-7.732	0.101
575.000	-1.429	0.101
575.100	-9.650	0.101
575.200	-7.649	0.101
575.300	-12.723	0.101
575.400	-14.176	0.101
575.500	-13.498	0.101
575.600	-14.175	0.101
575.700	-0.481	0.101
575.800	-15.819	0.101
575.900	-10.609	0.101
576.000	-17.924	0.101
576.100	-11.076	0.101
576.200	-15.030	0.101
576.300	-8.726	0.101
576.400	-22.333	0.101
576.500	-6.533	0.101
576.600	-5.835	0.101
576.700	-13.405	0.101
576.800	-27.632	0.101
576.900	-16.110	0.101
577.000	-4.602	0.101
577.100	-16.322	0.101
577.200	-12.676	0.101
577.300	-10.056	0.101
577.400	-7.431	0.101
577.500	-22.155	0.101
577.600	-15.531	0.101
577.700	-4.513	0.101
577.800	-6.084	0.101
577.900	-13.488	0.101
578.000	-11.053	0.101
578.100	-15.416	0.101
578.200	-19.560	0.101
578.300	-23.905	0.101
578.400	-9.303	0.101
578.500	-1.460	0.101
578.600	-17.452	0.101
578.700	-11.703	0.101
578.800	-14.370	0.101
578.900	-1.721	0.101
579.000	-18.840	0.101
579.100	-10.769	0.101
579.200	-17.754	0.101
579.300	-20.778	0.101
579.400	-2.478	0.101
579.500	-15.072	0.101
579.600	-16.999	0.101
579.700	-3.894	0.101
579.800	-14.963	0.101
579.900	-2.939	0.101
580.000	-21.072	0.101
580.100	-0.825	0.101
580.200	-14.905	0.101
580.300	-26.675	0.101
580.400	-17.188	0.101
580.500	-15.526	0.101
580.600	-7.343	0.101
580.700	-19.236	0.101
580.800	-4.352	0.101
580.900	-23.600	0.101
581.000	-9.544	0.101
581.100	-20.862	0.101
581.200	-8.313	0.101
581.300	-10.232	0.101
581.400	-20.016	0.101
581.500	-16.916	0.101
581.600	-21.437	0.101
581.700	-22.231	0.101
581.800	-15.838	0.101
581.900	-14.234	0.101
582.000	-15.380	0.101
582.100	-24.111	0.101
582.200	-13.294	0.101
582.300	-3.489	0.101
582.400	4.376	0.101
582.500	3.774	0.101
582.600	-20.376	0.101
582.700	-30.635	0.101
582.800	-21.003	0.101
582.900	-10.916	0.101
583.000	-17.509	0.101
583.100	-26.212	0.101
583.200	-3.225	0.101
583.300	-23.510	0.101
583.400	-21.696	0.101
583.500	-13.875	0.101
583.600	-6.177	0.101
583.700	-21.205	0.101
583.800	-17.171	0.101
583.900	-11.008	0.101
584.000	-19.409	0.101
584.100	-25.959	0.101
584.200	-20.494	0.101
584.300	-21.855	0.101
584.400	-16.518	0.101
584.500	-17.568	0.101
584.600	-15.068	0.101
584.700	-18.146	0.101
584.800	-8.527	0.101
584.900	-8.501	0.101
585.000	-7.874	0.101
585.100	-12.575	0.101
585.200	-30.213	0.101
585.300	-14.231	0.101
585.400	-3.959	0.101
585.500	-17.485	0.101
585.600	-17.998	0.101
585.700	-6.799	0.101
585.800	-4.181	0.101
585.900	-13.569	0.101
586.000	-21.858	0.101
586.100	-3.812	0.101
586.200	-19.071	0.101
586.300	-18.917	0.101
586.400	-13.713	0.101
586.500	-6.839	0.101
586.600	-13.005	0.101
586.700	-30.388	0.101
586.800	-24.236	0.101
586.900	5.361	0.101
587.000	-18.148	0.101
587.100	-6.362	0.101
587.200	-20.904	0.101
587.300	-21.388	0.101
587.400	-19.352	0.101
587.500	-15.581	0.101
587.600	-23.949	0.101
587.700	-14.037	0.101
587.800	-12.507	0.101
587.900	-8.335	0.101
588.000	-6.292	0.101
588.100	-24.845	0.101
588.200	-19.785	0.101
588.300	-15.698	0.101
588.400	-7.129	0.101
588.500	-18.582	0.101
588.600	-10.063	0.101
588.700	-12.998	0.101
588.800	-9.579	0.101
588.900	-12.472	0.101
589.000	-5.441	0.101
589.100	-16.202	0.101
589.200	-9.510	0.101
589.300	-18.555	0.101
589.400	-20.160	0.101
589.500	-13.351	0.101
589.600	-10.932	0.101
589.700	-14.765	0.101
589.800	-17.596	0.101
589.900	-16.159	0.101
590.000	-10.427	0.101
590.100	-7.017	0.101
590.200	-15.685	0.101
590.300	-5.365	0.101
590.400	-20.100	0.101
590.500	-15.272	0.101
590.600	-24.616	0.101
590.700	1.143	0.101
590.800	-8.398	0.101
590.900	-10.369	0.101
591.000	-27.853	0.101
591.100	-20.880	0.101
591.200	-19.476	0.101
591.300	-8.485	0.101
591.400	-17.107	0.101
591.500	-25.213	0.101
591.600	-14.114	0.101
591.700	-13.147	0.101
591.800	-1.960	0.101
591.900	-18.501	0.101
592.000	-14.950	0.101
592.100	-9.083	0.101
592.200	-22.563	0.101
592.300	-17.595	0.101
592.400	-10.995	0.101
592.500	-16.500	0.101
592.600	-15.967	0.101
592.700	-11.637	0.101
592.800	-15.955	0.101
592.900	-18.570	0.101
593.000	-7.666	0.101
593.100	-6.672	0.101
593.200	-10.876	0.101
593.300	-12.609	0.101
593.400	-15.495	0.101
593.500	-15.119	0.101
593.600	-25.655	0.101
593.700	-18.318	0.101
593.800	-11.589	0.101
593.900	-1.614	0.101
594.000	-21.342	0.101
594.100	-17.566	0.101
594.200	-0.725	0.101
594.300	-7.737	0.101
594.400	-15.182	0.101
594.500	-4.774	0.101
594.600	-22.401	0.101
594.700	-16.609	0.101
594.800	-13.903	0.101
594.900	-11.477	0.101
595.000	-11.106	0.101
595.100	-5.551	0.101
595.200	-10.154	0.101
595.300	-23.174	0.101
595.400	-16.828	0.101
595.500	-11.586	0.101
595.600	-4.449	0.101
595.700	-16.139	0.101
595.800	-17.190	0.101
595.900	-15.356	0.101
596.000	-13.545	0.101
596.100	-12.791	0.101
596.200	-4.714	0.101
596.300	-25.400	0.101
596.400	-16.313	0.101
596.500	-7.987	0.101
596.600	-13.764	0.101
596.700	-30.717	0.101
596.800	-5.113	0.101
596.900	-7.758	0.101
597.000	-11.423	0.101
597.100	-19.227	0.101
597.200	3.909	0.101
597.300	-10.675	0.101
597.400	-8.634	0.101
597.500	-20.120	0.101
597.600	-10.588	0.101
597.700	-16.111	0.101
597.800	-25.249	0.101
597.900	-11.713	0.101
598.000	-13.464	0.101
598.100	-18.412	0.101
598.200	-6.453	0.101
598.300	-7.338	0.101
598.400	-6.381	0.101
598.500	-25.447	0.101
598.600	-11.285	0.101
598.700	-14.166	0.101
598.800	-42.846	0.101
598.900	-18.582	0.101
599.000	-4.805	0.101
599.100	-12.211	0.101
599.200	-2.861	0.101
599.300	-6.976	0.101
599.400	-22.098	0.101
599.500	-18.238	0.101
599.600	-20.686	0.101
599.700	-6.758	0.101
599.800	-12.964	0.101
599.900	-17.698	0.101
600.000	-8.596	0.101
600.100	-11.964	0.101
600.200	-27.158	0.101
600.300	-11.923	0.101
600.400	-15.980	0.101
600.500	-7.191	0.101
600.600	-3.893	0.101
600.700	-24.698	0.101
600.800	-4.722	0.101
600.900	-14.784	0.101
601.000	-28.904	0.101
601.100	-16.894	0.101
601.200	2.444	0.101
601.300	-22.433	0.101
601.400	-25.543	0.101
601.500	-15.116	0.101
601.600	-22.450	0.101
601.700	-10.815	0.101
601.800	-20.819	0.101
601.900	-12.413	0.101
602.000	-16.016	0.101
602.100	-12.359	0.101
602.200	-2.056	0.101
602.300	-16.315	0.101
602.400	-1.091	0.101
602.500	-6.637	0.101
602.600	-1.742	0.101
602.700	-28.088	0.101
602.800	-17.953	0.101
602.900	-7.289	0.101
603.000	-9.088	0.101
603.100	-25.009	0.101
603.200	-24.665	0.101
603.300	-3.171	0.101
603.400	-14.398	0.101
603.500	-21.167	0.101
603.600	-13.334	0.101
603.700	-5.771	0.101
603.800	-3.793	0.101
603.900	-10.744	0.101
604.000	-17.828	0.101
604.100	-7.297	0.101
604.200	-23.538	0.101
604.300	-7.086	0.101
604.400	-10.846	0.101
604.500	-7.262	0.101
604.600	-14.027	0.101
604.700	-32.449	0.101
604.800	-5.778	0.101
604.900	-8.320	0.101
605.000	-9.049	0.101
605.100	-10.710	0.101
605.200	-11.448	0.101
605.300	-8.377	0.101
605.400	-25.485	0.101
605.500	-10.861	0.101
605.600	-11.872	0.101
605.700	-7.979	0.101
605.800	-11.665	0.101
605.900	-16.458	0.101
606.000	-8.821	0.101
606.100	-12.281	0.101
606.200	-4.446	0.101
606.300	-14.138	0.101
606.400	-8.938	0.101
606.500	-17.940	0.101
606.600	-14.597	0.101
606.700	-21.217	0.101
606.800	-7.307	0.101
606.900	-17.850	0.101
607.000	-16.221	0.101
607.100	-13.001	0.101
607.200	-7.349	0.101
607.300	-16.864	0.101
607.400	-7.195	0.101
607.500	-11.026	0.101
607.600	-8.031	0.101
607.700	-17.530	0.101
607.800	-1.668	0.101
607.900	-15.377	0.101
608.000	-11.998	0.101
608.100	1.263	0.101
608.200	-13.239	0.101
608.300	-29.603	0.101
608.400	-18.475	0.101
608.500	-1.201	0.101
608.600	-18.440	0.101
608.700	-13.943	0.101
608.800	-7.070	0.101
608.900	-2.157	0.101
609.000	-8.287	0.101
609.100	-20.853	0.101
609.200	-18.145	0.101
609.300	-17.171	0.101
609.400	-13.529	0.101
609.500	-17.929	0.101
609.600	-13.290	0.101
609.700	-7.881	0.101
609.800	2.638	0.101
609.900	-13.214	0.101
610.000	-6.048	0.101
610.100	-11.192	0.101
610.200	-5.002	0.101
610.300	-19.020	0.101
610.400	-5.537	0.101
610.500	-18.398	0.101
610.600	-7.625	0.101
610.700	-12.723	0.101
610.800	-11.996	0.101
610.900	-8.659	0.101
611.000	-28.932	0.101
611.100	-23.035	0.101
611.200	-23.519	0.101
611.300	-19.731	0.101
611.400	-9.975	0.101
611.500	-8.314	0.101
611.600	-7.749	0.101
611.700	-1.878	0.101
611.800	-10.857	0.101
611.900	-16.091	0.101
612.000	-11.485	0.101
612.100	-10.474	0.101
612.200	-19.243	0.101
612.300	-17.448	0.101
612.400	-5.783	0.101
612.500	-6.861	0.101
612.600	-3.051	0.101
612.700	-14.252	0.101
612.800	-19.974	0.101
612.900	-18.252	0.101
613.000	-8.456	0.101
613.100	-17.573	0.101
613.200	-21.161	0.101
613.300	-7.582	0.101
613.400	-20.450	0.101
613.500	-13.586	0.101
613.600	-5.646	0.101
613.700	-2.158	0.101
613.800	-23.241	0.101
613.900	-28.308	0.101
614.000	-5.464	0.101
614.100	-12.685	0.101
614.200	-11.578	0.101
614.300	-25.402	0.101
614.400	-11.038	0.101
614.500	-4.713	0.101
614.600	-19.679	0.101
614.700	-10.450	0.101
614.800	-13.029	0.101
614.900	-6.915	0.101
615.000	-10.247	0.101
615.100	-7.965	0.101
615.200	-18.276	0.101
615.300	-13.964	0.101
615.400	-10.292	0.101
615.500	-19.737	0.101
615.600	-14.342	0.101
615.700	-7.721	0.101
615.800	-20.097	0.101
615.900	-8.076	0.101
616.000	-12.166	0.101
616.100	-19.401	0.101
616.200	-11.903	0.101
616.300	-7.981	0.101
616.400	-6.274	0.101
616.500	-1.416	0.101
616.600	-18.720	0.101
616.700	-16.237	0.101
616.800	-18.246	0.101
616.900	-14.252	0.101
617.000	-7.560	0.101
617.100	-14.144	0.101
617.200	-13.716	0.101
617.300	-6.191	0.101
617.400	-14.812	0.101
617.500	-10.981	0.101
617.600	-20.191	0.101
617.700	-17.880	0.101
617.800	-17.214	0.101
617.900	-7.827	0.101
618.000	-13.361	0.101
618.100	-11.191	0.101
618.200	-5.087	0.101
618.300	-9.115	0.101
618.400	-27.949	0.101
618.500	-13.211	0.101
618.600	-8.383	0.101
618.700	-12.946	0.101
618.800	-28.252	0.101
618.900	-20.385	0.101
619.000	-19.897	0.101
619.100	-10.496	0.101
619.200	-1.791	0.101
619.300	5.528	0.101
619.400	-28.321	0.101
619.500	-13.442	0.101
619.600	-13.731	0.101
619.700	-19.416	0.101
619.800	-20.452	0.101
619.900	-4.045	0.101
620.000	-17.787	0.101
620.100	-16.693	0.101
620.200	-16.858	0.101
620.300	-15.478	0.101
620.400	-19.427	0.101
620.500	6.781	0.101
620.600	-12.588	0.101
620.700	-15.796	0.101
620.800	-16.518	0.101
620.900	-12.184	0.101
621.000	0.275	0.101
621.100	-13.326	0.101
621.200	-20.057	0.101
621.300	-23.815	0.101
621.400	-16.672	0.101
621.500	-16.678	0.101
621.600	-12.882	0.101
621.700	-11.378	0.101
621.800	-11.323	0.101
621.900	-13.638	0.101
622.000	-23.934	0.101
622.100	-26.147	0.101
622.200	-5.018	0.101
622.300	-9.233	0.101
622.400	-12.820	0.101
622.500	-28.264	0.101
622.600	-15.101	0.101
622.700	-10.811	0.101
622.800	-15.362	0.101
622.900	-10.810	0.101
623.000	-12.667	0.101
623.100	-16.627	0.101
623.200	-7.007	0.101
623.300	-2.482	0.101
623.400	-16.093	0.101
623.500	-10.928	0.101
623.600	-4.207	0.101
623.700	-12.380	0.101
623.800	-0.454	0.101
623.900	-16.362	0.101
624.000	-5.412	0.101
624.100	-15.765	0.101
624.200	-15.603	0.101
624.300	-15.641	0.101
624.400	-15.202	0.101
624.500	-19.415	0.101
624.600	-6.932	0.101
624.700	-5.459	0.101
624.800	-17.735	0.101
624.900	3.126	0.101
625.000	-18.040	0.101
625.100	-24.592	0.101
625.200	-8.466	0.101
625.300	-13.010	0.101
625.400	-3.244	0.101
625.500	-7.357	0.101
625.600	-23.584	0.101
625.700	-23.756	0.101
625.800	-8.537	0.101
625.900	-13.376	0.101
626.000	-12.158	0.101
626.100	-24.562	0.101
626.200	-11.589	0.101
626.300	-18.431	0.101
626.400	-28.145	0.101
626.500	-18.237	0.101
626.600	-11.988	0.101
626.700	-23.586	0.101
626.800	-2.591	0.101
626.900	-11.741	0.101
627.000	-13.605	0.101
627.100	-24.115	0.101
627.200	2.295	0.101
627.300	-2.231	0.101
627.400	-12.105	0.101
627.500	-14.251	0.101
627.600	-9.413	0.101
627.700	-29.804	0.101
627.800	-12.419	0.101
627.900	-1.080	0.101
628.000	-4.946	0.101
628.100	-14.683	0.101
628.200	-17.506	0.101
628.300	-11.231	0.101
628.400	-7.229	0.101
628.500	-27.253	0.101
628.600	-16.325	0.101
628.700	-15.542	0.101
628.800	-12.113	0.101
628.900	-21.469	0.101
629.000	-19.175	0.101
629.100	-3.285	0.101
629.200	-12.086	0.101
629.300	-8.904	0.101
629.400	-8.169	0.101
629.500	-24.805	0.101
629.600	-13.334	0.101
629.700	-10.374	0.101
629.800	-11.459	0.101
629.900	-10.206	0.101
630.000	-5.914	0.101
630.100	-24.955	0.101
630.200	-8.704	0.101
630.300	-8.320	0.101
630.400	-20.140	0.101
630.500	-8.850	0.101
630.600	-11.814	0.101
630.700	-22.645	0.101
630.800	-3.294	0.101
630.900	5.263	0.101
631.000	-0.663	0.101
631.100	12.291	0.101
631.200	14.093	0.101
631.300	-7.277	0.101
631.400	3.323	0.101
631.500	0.739	0.101
631.600	10.161	0.101
631.700	4.337	0.101
631.800	12.245	0.101
631.900	4.190	0.101
632.000	-2.780	0.101
632.100	-5.808	0.101
632.200	16.637	0.101
632.300	4.895	0.101
632.400	7.891	0.101
632.500	19.975	0.101
632.600	-1.350	0.101
632.700	13.736	0.101
632.800	14.755	0.101
632.900	17.424	0.101
633.000	11.685	0.101
633.100	7.234	0.101
633.200	21.498	0.101
633.300	-10.318	0.101
633.400	1.091	0.101
633.500	9.311	0.101
633.600	22.656	0.101
633.700	20.398	0.101
633.800	20.368	0.101
633.900	15.324	0.101
634.000	8.184	0.101
634.100	8.251	0.101
634.200	15.603	0.101
634.300	16.761	0.101
634.400	16.798	0.101
634.500	14.998	0.101
634.600	18.677	0.101
634.700	18.984	0.101
634.800	10.532	0.101
634.900	8.290	0.101
635.000	5.276	0.101
635.100	23.867	0.101
635.200	1.929	0.101
635.300	9.175	0.101
635.400	14.175	0.101
635.500	4.750	0.101
635.600	20.480	0.101
635.700	3.702	0.101
635.800	9.696	0.101
635.900	9.728	0.101
636.000	5.892	0.101
636.100	10.088	0.101
636.200	20.103	0.101
636.300	11.924	0.101
636.400	10.604	0.101
636.500	14.071	0.101
636.600	15.101	0.101
636.700	6.909	0.101
636.800	1.433	0.101
636.900	17.245	0.101
637.000	24.148	0.101
637.100	4.103	0.101
637.200	11.071	0.101
637.300	-10.289	0.101
637.400	24.315	0.101
637.500	4.487	0.101
637.600	10.325	0.101
637.700	6.775	0.101
637.800	18.306	0.101
637.900	18.078	0.101
638.000	8.075	0.101
638.100	17.924	0.101
638.200	15.147	0.101
638.300	6.386	0.101
638.400	10.807	0.101
638.500	15.967	0.101
638.600	17.820	0.101
638.700	4.701	0.101
638.800	0.408	0.101
638.900	6.318	0.101
639.000	11.889	0.101
639.100	9.960	0.101
639.200	11.871	0.101
639.300	2.503	0.101
639.400	26.715	0.101
639.500	11.706	0.101
639.600	27.156	0.101
639.700	3.499	0.101
639.800	20.478	0.101
639.900	14.653	0.101
640.000	4.578	0.101
640.100	14.973	0.101
640.200	8.128	0.101
640.300	11.730	0.101
640.400	25.132	0.101
640.500	-1.258	0.101
640.600	12.943	0.101
640.700	11.359	0.101
640.800	19.007	0.101
640.900	10.352	0.101
641.000	7.797	0.101
641.100	13.613	0.101
641.200	14.309	0.101
641.300	14.023	0.101
641.400	24.756	0.101
641.500	12.394	0.101
641.600	15.487	0.101
641.700	6.649	0.101
641.800	13.098	0.101
641.900	20.627	0.101
642.000	24.644	0.101
642.100	10.519	0.101
642.200	16.548	0.101
642.300	7.167	0.101
642.400	19.382	0.101
642.500	3.757	0.101
642.600	17.950	0.101
642.700	8.081	0.101
642.800	18.799	0.101
642.900	11.701	0.101
643.000	24.222	0.101
643.100	5.869	0.101
643.200	6.410	0.101
643.300	27.377	0.101
643.400	26.052	0.101
643.500	10.942	0.101
643.600	24.492	0.101
643.700	16.338	0.101
643.800	30.179	0.101
643.900	23.163	0.101
644.000	11.163	0.101
644.100	19.624	0.101
644.200	21.994	0.101
644.300	14.961	0.101
644.400	28.794	0.101
644.500	12.562	0.101
644.600	27.238	0.101
644.700	23.276	0.101
644.800	10.162	0.101
644.900	10.280	0.101
645.000	22.991	0.101
645.100	27.322	0.101
645.200	24.442	0.101
645.300	10.142	0.101
645.400	21.458	0.101
645.500	11.795	0.101
645.600	30.429	0.101
645.700	22.058	0.101
645.800	12.973	0.101
645.900	29.490	0.101
646.000	30.345	0.101
646.100	21.835	0.101
646.200	18.083	0.101
646.300	18.986	0.101
646.400	17.468	0.101
646.500	11.296	0.101
646.600	27.203	0.101
646.700	12.769	0.101
646.800	29.677	0.101
646.900	24.390	0.101
647.000	12.315	0.101
647.100	15.813	0.101
647.200	19.953	0.101
647.300	23.495	0.101
647.400	8.246	0.101
647.500	24.395	0.101
647.600	34.536	0.101
647.700	25.824	0.101
647.800	20.380	0.101
647.900	31.874	0.101
648.000	26.793	0.101
648.100	26.799	0.101
648.200	22.177	0.101
648.300	21.261	0.101
648.400	22.919	0.101
648.500	28.776	0.101
648.600	33.991	0.101
648.700	22.961	0.101
648.800	11.648	0.101
648.900	26.821	0.101
649.000	32.471	0.101
649.100	26.349	0.101
649.200	25.771	0.101
649.300	33.804	0.101
649.400	22.522	0.101
649.500	35.856	0.101
649.600	27.094	0.101
649.700	36.955	0.101
649.800	25.989	0.101
649.900	25.380	0.101
650.000	4.917	0.101
650.100	25.813	0.101
650.200	38.986	0.101
650.300	37.370	0.101
650.400	31.464	0.101
650.500	34.181	0.101
650.600	19.301	0.101
650.700	41.611	0.101
650.800	28.874	0.101
650.900	33.767	0.101
651.000	30.513	0.101
651.100	35.230	0.101
651.200	20.095	0.101
651.300	35.483	0.101
651.400	16.198	0.101
651.500	36.052	0.101
651.600	33.107	0.101
651.700	19.465	0.101
651.800	24.984	0.101
651.900	24.789	0.101
652.000	23.649	0.101
652.100	33.172	0.101
652.200	20.262	0.101
652.300	42.184	0.101
652.400	30.117	0.101
652.500	21.082	0.101
652.600	30.422	0.101
652.700	38.000	0.101
652.800	27.743	0.101
652.900	35.053	0.101
653.000	32.142	0.101
653.100	37.802	0.101
653.200	33.871	0.101
653.300	20.471	0.101
653.400	25.312	0.101
653.500	23.564	0.101
653.600	17.485	0.101
653.700	24.612	0.101
653.800	24.270	0.101
653.900	31.920	0.101
654.000	31.192	0.101
654.100	15.567	0.101
654.200	39.648	0.101
654.300	24.141	0.101
654.400	35.006	0.101
654.500	32.743	0.101
654.600	37.071	0.101
654.700	22.105	0.101
654.800	31.893	0.101
654.900	12.324	0.101
655.000	40.579	0.101
655.100	32.877	0.101
655.200	42.552	0.101
655.300	37.784	0.101
655.400	24.202	0.101
655.500	31.820	0.101
655.600	33.648	0.101
655.700	42.176	0.101
655.800	30.583	0.101
655.900	41.817	0.101
656.000	16.704	0.101
656.100	31.034	0.101
656.200	18.843	0.101
656.300	20.837	0.101
656.400	44.900	0.101
656.500	36.019	0.101
656.600	24.362	0.101
656.700	18.866	0.101
656.800	30.734	0.101
656.900	28.547	0.101
657.000	38.842	0.101
657.100	41.330	0.101
657.200	35.708	0.101
657.300	36.489	0.101
657.400	28.502	0.101
657.500	35.515	0.101
657.600	36.726	0.101
657.700	29.949	0.101
657.800	32.006	0.101
657.900	27.418	0.101
658.000	23.584	0.101
658.100	40.530	0.101
658.200	33.309	0.101
658.300	30.533	0.101
658.400	39.517	0.101
658.500	31.782	0.101
658.600	28.808	0.101
658.700	23.248	0.101
658.800	22.469	0.101
658.900	33.657	0.101
659.000	32.854	0.101
659.100	32.405	0.101
659.200	31.787	0.101
659.300	24.666	0.101
659.400	34.348	0.101
659.500	32.722	0.101
659.600	30.162	0.101
659.700	26.195	0.101
659.800	26.989	0.101
659.900	25.239	0.101
660.000	34.829	0.101
660.100	30.812	0.101
660.200	31.926	0.101
660.300	32.525	0.101
660.400	36.763	0.101
660.500	36.417	0.101
660.600	32.783	0.101
660.700	26.477	0.101
660.800	29.726	0.101
660.900	37.538	0.101
661.000	30.333	0.101
661.100	23.030	0.101
661.200	31.812	0.101
661.300	17.313	0.101
661.400	39.818	0.101
661.500	43.048	0.101
661.600	33.847	0.101
661.700	23.701	0.101
661.800	34.999	0.101
661.900	28.735	0.101
662.000	36.089	0.101
662.100	32.280	0.101
662.200	16.975	0.101
662.300	45.592	0.101
662.400	33.091	0.101
662.500	21.317	0.101
662.600	37.301	0.101
662.700	43.306	0.101
662.800	32.977	0.101
662.900	28.114	0.101
663.000	43.115	0.101
663.100	29.081	0.101
663.200	37.444	0.101
663.300	30.652	0.101
663.400	24.689	0.101
663.500	38.670	0.101
663.600	29.248	0.101
663.700	28.164	0.101
663.800	31.063	0.101
663.900	32.037	0.101
664.000	24.410	0.101
664.100	41.193	0.101
664.200	26.485	0.101
664.300	39.802	0.101
664.400	33.913	0.101
664.500	17.689	0.101
664.600	26.429	0.101
664.700	39.386	0.101
664.800	36.633	0.101
664.900	17.307	0.101
665.000	31.897	0.101
665.100	31.463	0.101
665.200	19.217	0.101
665.300	38.561	0.101
665.400	44.224	0.101
665.500	19.566	0.101
665.600	17.231	0.101
665.700	36.357	0.101
665.800	34.346	0.101
665.900	31.365	0.101
666.000	38.000	0.101
666.100	25.696	0.101
666.200	35.090	0.101
666.300	32.470	0.101
666.400	25.474	0.101
666.500	31.722	0.101
666.600	22.274	0.101
666.700	22.593	0.101
666.800	43.633	0.101
666.900	26.621	0.101
667.000	40.977	0.101
667.100	31.700	0.101
667.200	36.641	0.101
667.300	29.064	0.101
667.400	32.563	0.101
667.500	22.240	0.101
667.600	47.207	0.101
667.700	26.712	0.101
667.800	36.143	0.101
667.900	30.701	0.101
668.000	13.818	0.101
668.100	29.212	0.101
668.200	41.378	0.101
668.300	26.939	0.101
668.400	30.106	0.101
668.500	31.944	0.101
668.600	30.538	0.101
668.700	36.704	0.101
668.800	45.867	0.101
668.900	23.319	0.101
669.000	26.419	0.101
669.100	22.629	0.101
669.200	36.159	0.101
669.300	52.459	0.101
669.400	22.772	0.101
669.500	36.796	0.101
669.600	42.180	0.101
669.700	41.153	0.101
669.800	36.983	0.101
669.900	26.084	0.101
670.000	37.930	0.101
670.100	23.589	0.101
670.200	43.309	0.101
670.300	35.601	0.101
670.400	19.401	0.101
670.500	36.500	0.101
670.600	36.501	0.101
670.700	38.683	0.101
670.800	23.930	0.101
670.900	33.236	0.101
671.000	28.454	0.101
671.100	35.866	0.101
671.200	32.173	0.101
671.300	31.950	0.101
671.400	36.633	0.101
671.500	35.289	0.101
671.600	44.071	0.101
671.700	34.356	0.101
671.800	34.520	0.101
671.900	31.349	0.101
672.000	32.288	0.101
672.100	37.620	0.101
672.200	30.745	0.101
672.300	19.905	0.101
672.400	28.934	0.101
672.500	28.466	0.101
672.600	27.061	0.101
672.700	20.669	0.101
672.800	43.064	0.101
672.900	42.422	0.101
673.000	32.339	0.101
673.100	37.390	0.101
673.200	32.676	0.101
673.300	26.232	0.101
673.400	25.368	0.101
673.500	37.642	0.101
673.600	28.317	0.101
673.700	31.404	0.101
673.800	33.018	0.101
673.900	36.990	0.101
674.000	36.215	0.101
674.100	22.435	0.101
674.200	34.243	0.101
674.300	39.108	0.101
674.400	32.760	0.101
674.500	40.405	0.101
674.600	26.108	0.101
674.700	22.503	0.101
674.800	24.810	0.101
674.900	30.323	0.101
675.000	45.803	0.101
675.100	25.778	0.101
675.200	37.941	0.101
675.300	33.406	0.101
675.400	26.333	0.101
675.500	29.699	0.101
675.600	33.328	0.101
675.700	22.099	0.101
675.800	35.191	0.101
675.900	48.868	0.101
676.000	39.821	0.101
676.100	30.354	0.101
676.200	21.776	0.101
676.300	39.782	0.101
676.400	25.655	0.101
676.500	17.611	0.101
676.600	44.337	0.101
676.700	44.657	0.101
676.800	35.043	0.101
676.900	30.858	0.101
677.000	37.386	0.101
677.100	40.735	0.101
677.200	33.690	0.101
677.300	34.198	0.101
677.400	32.548	0.101
677.500	33.881	0.101
677.600	34.091	0.101
677.700	26.033	0.101
677.800	42.569	0.101
677.900	16.512	0.101
678.000	14.593	0.101
678.100	31.852	0.101
678.200	23.739	0.101
678.300	39.391	0.101
678.400	34.219	0.101
678.500	55.798	0.101
678.600	39.992	0.101
678.700	38.798	0.101
678.800	13.094	0.101
678.900	35.099	0.101
679.000	23.428	0.101
679.100	42.242	0.101
679.200	38.029	0.101
679.300	25.497	0.101
679.400	40.473	0.101
679.500	35.918	0.101
679.600	35.115	0.101
679.700	23.547	0.101
679.800	30.041	0.101
679.900	45.921	0.101
680.000	43.598	0.101
680.100	33.592	0.101
680.200	20.594	0.101
680.300	33.129	0.101
680.400	38.751	0.101
680.500	43.312	0.101
680.600	29.405	0.101
680.700	28.096	0.101
680.800	39.190	0.101
680.900	30.326	0.101
681.000	29.340	0.101
681.100	50.088	0.101
681.200	36.167	0.101
681.300	23.199	0.101
681.400	27.670	0.101
681.500	33.783	0.101
681.600	24.257	0.101
681.700	35.379	0.101
681.800	34.103	0.101
681.900	36.388	0.101
682.000	33.016	0.101
682.100	20.279	0.101
682.200	33.348	0.101
682.300	36.659	0.101
682.400	43.585	0.101
682.500	32.291	0.101
682.600	34.787	0.101
682.700	32.917	0.101
682.800	10.444	0.101
682.900	32.955	0.101
683.000	22.261	0.101
683.100	32.496	0.101
683.200	52.054	0.101
683.300	30.818	0.101
683.400	35.103	0.101
683.500	24.426	0.101
683.600	27.603	0.101
683.700	46.786	0.101
683.800	26.127	0.101
683.900	47.324	0.101
684.000	36.757	0.101
684.100	31.346	0.101
684.200	25.244	0.101
684.300	33.125	0.101
684.400	35.145	0.101
684.500	25.470	0.101
684.600	42.252	0.101
684.700	32.863	0.101
684.800	30.510	0.101
684.900	35.380	0.101
685.000	22.289	0.101
685.100	33.866	0.101
685.200	36.279	0.101
685.300	37.258	0.101
685.400	33.597	0.101
685.500	38.142	0.101
685.600	31.476	0.101
685.700	21.075	0.101
685.800	31.603	0.101
685.900	40.788	0.101
686.000	32.848	0.101
686.100	43.760	0.101
686.200	38.985	0.101
686.300	49.372	0.101
686.400	30.140	0.101
686.500	22.826	0.101
686.600	38.472	0.101
686.700	36.812	0.101
686.800	35.883	0.101
686.900	35.206	0.101
687.000	41.193	0.101
687.100	42.996	0.101
687.200	36.155	0.101
687.300	24.630	0.101
687.400	32.596	0.101
687.500	26.710	0.101
687.600	42.424	0.101
687.700	40.583	0.101
687.800	42.260	0.101
687.900	40.543	0.101
688.000	35.365	0.101
688.100	31.997	0.101
688.200	32.736	0.101
688.300	36.345	0.101
688.400	25.494	0.101
688.500	31.012	0.101
688.600	42.350	0.101
688.700	22.160	0.101
688.800	37.714	0.101
688.900	39.135	0.101
689.000	26.166	0.101
689.100	30.190	0.101
689.200	28.940	0.101
689.300	34.585	0.101
689.400	46.188	0.101
689.500	32.999	0.101
689.600	20.297	0.101
689.700	40.910	0.101
689.800	29.613	0.101
689.900	36.960	0.101
690.000	37.947	0.101
690.100	35.680	0.101
690.200	30.812	0.101
690.300	32.918	0.101
690.400	22.002	0.101
690.500	33.475	0.101
690.600	47.184	0.101
690.700	12.526	0.101
690.800	19.376	0.101
690.900	28.679	0.101
691.000	28.439	0.101
691.100	19.246	0.101
691.200	15.285	0.101
691.300	26.839	0.101
691.400	19.714	0.101
691.500	15.294	0.101
691.600	10.235	0.101
691.700	22.257	0.101
691.800	7.212	0.101
691.900	18.295	0.101
692.000	31.806	0.101
692.100	9.362	0.101
692.200	11.244	0.101
692.300	11.148	0.101
692.400	3.936	0.101
692.500	11.791	0.101
692.600	10.368	0.101
692.700	13.561	0.101
692.800	9.732	0.101
692.900	6.632	0.101
693.000	-4.886	0.101
693.100	8.409	0.101
693.200	13.933	0.101
693.300	9.285	0.101
693.400	8.320	0.101
693.500	-1.765	0.101
693.600	3.333	0.101
693.700	8.951	0.101
693.800	4.935	0.101
693.900	-2.467	0.101
694.000	-3.778	0.101
694.100	8.976	0.101
694.200	7.874	0.101
694.300	-2.510	0.101
694.400	-3.399	0.101
694.500	-5.206	0.101
694.600	-9.027	0.101
694.700	2.852	0.101
694.800	-2.832	0.101
694.900	8.899	0.101
695.000	-0.940	0.101
695.100	8.036	0.101
695.200	3.065	0.101
695.300	-6.979	0.101
695.400	-4.534	0.101
695.500	8.795	0.101
695.600	-2.378	0.101
695.700	5.794	0.101
695.800	-7.250	0.101
695.900	1.343	0.101
696.000	-2.963	0.101
696.100	3.482	0.101
696.200	-0.784	0.101
696.300	1.569	0.101
696.400	1.666	0.101
696.500	-0.970	0.101
696.600	8.802	0.101
696.700	-10.296	0.101
696.800	11.834	0.101
696.900	8.263	0.101
697.000	-5.955	0.101
697.100	1.214	0.101
697.200	12.692	0.101
697.300	13.264	0.101
697.400	5.866	0.101
697.500	9.822	0.101
697.600	-1.188	0.101
697.700	-6.158	0.101
697.800	-0.951	0.101
697.900	0.107	0.101
698.000	14.997	0.101
698.100	-3.931	0.101
698.200	5.730	0.101
698.300	-10.613	0.101
698.400	4.983	0.101
698.500	1.203	0.101
698.600	9.289	0.101
698.700	11.671	0.101
698.800	2.822	0.101
698.900	2.529	0.101
699.000	-3.668	0.101
699.100	-5.304	0.101
699.200	4.473	0.101
699.300	-11.512	0.101
699.400	7.533	0.101
699.500	7.715	0.101
699.600	-11.447	0.101
699.700	18.188	0.101
699.800	-5.278	0.101
699.900	13.249	0.101
700.000	-3.622	0.101
700.100	-11.522	0.101
700.200	1.510	0.101
700.300	5.209	0.101
700.400	9.239	0.101
700.500	-7.646	0.101
700.600	2.597	0.101
700.700	-1.549	0.101
700.800	-2.878	0.101
700.900	5.842	0.101
701.000	-6.128	0.101
701.100	14.210	0.101
701.200	5.648	0.101
701.300	-1.398	0.101
701.400	-9.662	0.101
701.500	-5.099	0.101
701.600	8.015	0.101
701.700	-7.941	0.101
701.800	6.767	0.101
701.900	3.297	0.101
702.000	4.787	0.101
702.100	-5.451	0.101
702.200	-6.314	0.101
702.300	-9.777	0.101
702.400	-5.274	0.101
702.500	-0.092	0.101
702.600	-11.157	0.101
702.700	1.708	0.101
702.800	-8.517	0.101
702.900	10.583	0.101
703.000	-12.038	0.101
703.100	15.732	0.101
703.200	-8.442	0.101
703.300	-0.878	0.101
703.400	0.765	0.101
703.500	-8.310	0.101
703.600	1.551	0.101
703.700	4.018	0.101
703.800	-2.295	0.101
703.900	-16.180	0.101
704.000	-4.814	0.101
704.100	-11.601	0.101
704.200	-9.133	0.101
704.300	-0.273	0.101
704.400	7.255	0.101
704.500	-3.947	0.101
704.600	9.040	0.101
704.700	6.254	0.101
704.800	-2.041	0.101
704.900	-3.788	0.101
705.000	-7.851	0.101
705.100	-4.747	0.101
705.200	14.980	0.101
705.300	-12.878	0.101
705.400	-12.018	0.101
705.500	6.436	0.101
705.600	-5.827	0.101
705.700	-4.068	0.101
705.800	-12.305	0.101
705.900	-1.710	0.101
706.000	4.405	0.101
706.100	1.131	0.101
706.200	-12.787	0.101
706.300	-1.237	0.101
706.400	7.094	0.101
706.500	-5.239	0.101
706.600	2.213	0.101
706.700	-0.794	0.101
706.800	-4.986	0.101
706.900	0.470	0.101
707.000	9.024	0.101
707.100	-4.173	0.101
707.200	-11.430	0.101
707.300	-17.416	0.101
707.400	-1.218	0.101
707.500	-9.129	0.101
707.600	7.718	0.101
707.700	-4.215	0.101
707.800	-8.137	0.101
707.900	-2.436	0.101
708.000	-6.858	0.101
708.100	3.870	0.101
708.200	4.761	0.101
708.300	-9.364	0.101
708.400	5.958	0.101
708.500	-15.036	0.101
708.600	6.774	0.101
708.700	8.841	0.101
708.800	1.545	0.101
708.900	-10.192	0.101
709.000	-21.562	0.101
709.100	-9.060	0.101
709.200	-8.322	0.101
709.300	0.331	0.101
709.400	4.285	0.101
709.500	-12.427	0.101
709.600	-10.879	0.101
709.700	3.167	0.101
709.800	-11.785	0.101
709.900	-2.369	0.101
710.000	0.746	0.101
710.100	-17.034	0.101
710.200	-3.050	0.101
710.300	-3.417	0.101
710.400	-1.299	0.101
710.500	8.574	0.101
710.600	-5.308	0.101
710.700	-2.886	0.101
710.800	-17.390	0.101
710.900	-5.024	0.101
711.000	3.925	0.101
711.100	0.633	0.101
711.200	-18.418	0.101
711.300	-4.501	0.101
711.400	-11.923	0.101
711.500	-7.234	0.101
711.600	-17.857	0.101
711.700	-3.985	0.101
711.800	-0.675	0.101
711.900	-5.590	0.101
712.000	-13.325	0.101
712.100	-13.895	0.101
712.200	-7.491	0.101
712.300	-1.222	0.101
712.400	-0.746	0.101
712.500	2.110	0.101
712.600	7.254	0.101
712.700	-18.344	0.101
712.800	5.752	0.101
712.900	1.005	0.101
713.000	-5.654	0.101
713.100	-9.573	0.101
713.200	-12.313	0.101
713.300	6.862	0.101
713.400	-14.132	0.101
713.500	-13.579	0.101
713.600	-7.205	0.101
713.700	-13.112	0.101
713.800	-11.798	0.101
713.900	-19.140	0.101
714.000	-10.667	0.101
714.100	6.807	0.101
714.200	-13.941	0.101
714.300	-8.357	0.101
714.400	1.609	0.101
714.500	-5.379	0.101
714.600	-15.820	0.101
714.700	-23.134	0.101
714.800	-5.210	0.101
714.900	1.056	0.101
715.000	-19.117	0.101
715.100	-7.388	0.101
715.200	-19.779	0.101
715.300	-19.981	0.101
715.400	-6.641	0.101
715.500	-3.051	0.101
715.600	-25.165	0.101
715.700	-7.338	0.101
715.800	-16.630	0.101
715.900	-8.651	0.101
716.000	-8.104	0.101
716.100	-2.831	0.101
716.200	-17.594	0.101
716.300	-5.065	0.101
716.400	-4.380	0.101
716.500	-10.033	0.101
716.600	4.055	0.101
716.700	-4.896	0.101
716.800	-14.753	0.101
716.900	-15.790	0.101
717.000	-16.879	0.101
717.100	-13.810	0.101
717.200	-17.286	0.101
717.300	-8.585	0.101
717.400	-14.860	0.101
717.500	-21.040	0.101
717.600	-2.199	0.101
717.700	-15.142	0.101
717.800	-21.714	0.101
717.900	-21.727	0.101
718.000	-18.394	0.101
718.100	-17.226	0.101
718.200	-8.564	0.101
718.300	-19.687	0.101
718.400	-13.821	0.101
718.500	-3.966	0.101
718.600	-5.872	0.101
718.700	-11.220	0.101
718.800	-16.313	0.101
718.900	-14.109	0.101
719.000	-9.781	0.101
719.100	-19.412	0.101
719.200	-2.703	0.101
719.300	-5.000	0.101
719.400	-17.675	0.101
719.500	-13.241	0.101
719.600	-17.914	0.101
719.700	-15.067	0.101
719.800	-22.393	0.101
719.900	-4.653	0.101
720.000	-17.998	0.101
720.100	-11.262	0.101
720.200	-10.883	0.101
720.300	-15.521	0.101
720.400	-18.970	0.101
720.500	-17.555	0.101
720.600	-14.219	0.101
720.700	-12.100	0.101
720.800	-10.181	0.101
720.900	-7.543	0.101
721.000	-22.358	0.101
721.100	-4.037	0.101
721.200	-17.263	0.101
721.300	-13.951	0.101
721.400	-13.649	0.101
721.500	-9.771	0.101
721.600	4.943	0.101
721.700	-16.817	0.101
721.800	-14.064	0.101
721.900	-16.163	0.101
722.000	-21.373	0.101
722.100	-14.418	0.101
722.200	-12.159	0.101
722.300	-13.950	0.101
722.400	-10.181	0.101
722.500	-6.991	0.101
722.600	-22.178	0.101
722.700	-10.991	0.101
722.800	-10.466	0.101
722.900	-13.452	0.101
723.000	-16.369	0.101
723.100	-21.162	0.101
723.200	-7.633	0.101
723.300	-19.073	0.101
723.400	-28.780	0.101
723.500	-12.470	0.101
723.600	-13.845	0.101
723.700	1.642	0.101
723.800	-13.182	0.101
723.900	-5.366	0.101
724.000	-18.947	0.101
724.100	-17.166	0.101
724.200	-13.407	0.101
724.300	-24.768	0.101
724.400	-12.855	0.101
724.500	-4.871	0.101
724.600	-18.640	0.101
724.700	-11.450	0.101
724.800	-6.286	0.101
724.900	-7.617	0.101
725.000	-7.918	0.101
725.100	-9.758	0.101
725.200	-15.188	0.101
725.300	-1.272	0.101
725.400	-15.595	0.101
725.500	-16.168	0.101
725.600	-15.924	0.101
725.700	-12.397	0.101
725.800	-2.784	0.101
725.900	-22.548	0.101
726.000	-36.337	0.101
726.100	-12.512	0.101
726.200	-12.097	0.101
726.300	-13.818	0.101
726.400	-4.931	0.101
726.500	-21.725	0.101
726.600	-10.775	0.101
726.700	-15.330	0.101
726.800	-12.866	0.101
726.900	-12.157	0.101
727.000	-19.646	0.101
727.100	-7.816	0.101
727.200	-12.589	0.101
727.300	-9.574	0.101
727.400	-9.993	0.101
727.500	-22.446	0.101
727.600	-9.402	0.101
727.700	-21.101	0.101
727.800	-7.169	0.101
727.900	-8.137	0.101
728.000	-12.970	0.101
728.100	-19.834	0.101
728.200	-19.532	0.101
728.300	-10.845	0.101
728.400	-18.359	0.101
728.500	-15.757	0.101
728.600	-22.270	0.101
728.700	-17.422	0.101
728.800	-2.612	0.101
728.900	-7.159	0.101
729.000	-16.515	0.101
729.100	-17.506	0.101
729.200	-9.151	0.101
729.300	-16.015	0.101
729.400	-28.885	0.101
729.500	-29.573	0.101
729.600	-11.861	0.101
729.700	-17.728	0.101
729.800	-11.264	0.101
729.900	-19.968	0.101
730.000	-14.509	0.101
730.100	0.894	0.101
730.200	-19.967	0.101
730.300	-12.314	0.101
730.400	-12.264	0.101
730.500	-27.938	0.101
730.600	-13.956	0.101
730.700	-23.276	0.101
730.800	-2.892	0.101
730.900	-14.999	0.101
731.000	-14.737	0.101
731.100	-11.718	0.101
731.200	-27.617	0.101
731.300	-18.574	0.101
731.400	-17.221	0.101
731.500	-18.802	0.101
731.600	-19.166	0.101
731.700	-11.983	0.101
731.800	-16.690	0.101
731.900	-17.692	0.101
732.000	-22.909	0.101
732.100	-10.710	0.101
732.200	-20.380	0.101
732.300	-18.615	0.101
732.400	-15.208	0.101
732.500	-15.511	0.101
732.600	-9.094	0.101
732.700	-11.842	0.101
732.800	-16.995	0.101
732.900	-21.340	0.101
733.000	-10.565	0.101
733.100	-16.919	0.101
733.200	-9.075	0.101
733.300	-8.167	0.101
733.400	-12.760	0.101
733.500	-19.461	0.101
733.600	-9.560	0.101
733.700	-17.995	0.101
733.800	-12.588	0.101
733.900	-7.789	0.101
734.000	-12.994	0.101
734.100	-14.860	0.101
734.200	-11.367	0.101
734.300	-12.089	0.101
734.400	-21.180	0.101
734.500	-18.167	0.101
734.600	-16.026	0.101
734.700	-13.872	0.101
734.800	-14.325	0.101
734.900	-20.347	0.101
735.000	-15.589	0.101
735.100	-23.423	0.101
735.200	-11.693	0.101
735.300	-3.408	0.101
735.400	-19.433	0.101
735.500	-0.934	0.101
735.600	-16.605	0.101
735.700	-7.409	0.101
735.800	-21.662	0.101
735.900	-19.836	0.101
736.000	-5.715	0.101
736.100	-6.992	0.101
736.200	-17.508	0.101
736.300	-19.291	0.101
736.400	-18.899	0.101
736.500	-21.740	0.101
736.600	-11.093	0.101
736.700	-12.339	0.101
736.800	-17.121	0.101
736.900	-16.884	0.101
737.000	-12.661	0.101
737.100	-23.559	0.101
737.200	-16.892	0.101
737.300	-4.127	0.101
737.400	-10.693	0.101
737.500	-17.945	0.101
737.600	-14.312	0.101
737.700	-13.864	0.101
737.800	-12.330	0.101
737.900	-21.727	0.101
738.000	-18.473	0.101
738.100	-15.250	0.101
738.200	-21.316	0.101
738.300	-8.830	0.101
738.400	-3.379	0.101
738.500	-9.563	0.101
738.600	-16.928	0.101
738.700	-3.052	0.101
738.800	-23.140	0.101
738.900	-23.044	0.101
739.000	-10.552	0.101
739.100	-18.122	0.101
739.200	-8.657	0.101
739.300	-20.683	0.101
739.400	-20.455	0.101
739.500	-12.617	0.101
739.600	-16.943	0.101
739.700	-7.009	0.101
739.800	-17.943	0.101
739.900	-8.902	0.101
740.000	-14.578	0.101
740.100	-20.336	0.101
740.200	-18.248	0.101
740.300	-7.665	0.101
740.400	-21.866	0.101
740.500	-21.323	0.101
740.600	-1.265	0.101
740.700	-24.199	0.101
740.800	-11.392	0.101
740.900	-16.322	0.101
741.000	-19.147	0.101
741.100	-28.993	0.101
741.200	-30.941	0.101
741.300	0.616	0.101
741.400	-11.111	0.101
741.500	-20.872	0.101
741.600	-11.548	0.101
741.700	-26.517	0.101
741.800	-8.431	0.101
741.900	-14.673	0.101
742.000	-20.121	0.101
742.100	-10.471	0.101
742.200	-25.581	0.101
742.300	-8.914	0.101
742.400	-5.339	0.101
742.500	-13.004	0.101
742.600	-14.856	0.101
742.700	-18.740	0.101
742.800	-18.894	0.101
742.900	-6.730	0.101
743.000	-25.020	0.101
743.100	-1.397	0.101
743.200	-20.634	0.101
743.300	-0.299	0.101
743.400	-25.714	0.101
743.500	-25.898	0.101
743.600	-10.886	0.101
743.700	-2.866	0.101
743.800	-26.948	0.101
743.900	-13.896	0.101
744.000	-17.106	0.101
744.100	-19.109	0.101
744.200	-14.011	0.101
744.300	-14.381	0.101
744.400	-26.871	0.101
744.500	-16.926	0.101
744.600	-12.655	0.101
744.700	-4.437	0.101
744.800	-20.095	0.101
744.900	-17.060	0.101
745.000	-17.893	0.101
745.100	-18.845	0.101
745.200	-9.353	0.101
745.300	-8.671	0.101
745.400	-3.024	0.101
745.500	-17.643	0.101
745.600	-20.471	0.101
745.700	-10.754	0.101
745.800	-12.465	0.101
745.900	-15.456	0.101
746.000	-17.963	0.101
746.100	-12.500	0.101
746.200	-21.071	0.101
746.300	-30.816	0.101
746.400	-4.882	0.101
746.500	-17.357	0.101
746.600	-6.030	0.101
746.700	-14.546	0.101
746.800	-9.937	0.101
746.900	-20.907	0.101
747.000	-10.558	0.101
747.100	-9.835	0.101
747.200	-11.615	0.101
747.300	-16.650	0.101
747.400	-31.931	0.101
747.500	-13.204	0.101
747.600	-19.568	0.101
747.700	-7.134	0.101
747.800	-11.355	0.101
747.900	-14.398	0.101
748.000	-7.998	0.101
748.100	-11.818	0.101
748.200	-5.711	0.101
748.300	-14.968	0.101
748.400	-8.660	0.101
748.500	-10.125	0.101
748.600	-10.092	0.101
748.700	-26.836	0.101
748.800	-12.954	0.101
748.900	-14.255	0.101
749.000	-18.490	0.101
749.100	-14.827	0.101
749.200	-8.831	0.101
749.300	-9.021	0.101
749.400	-19.379	0.101
749.500	-10.684	0.101
749.600	-10.436	0.101
749.700	-13.357	0.101
749.800	-25.196	0.101
749.900	-3.789	0.101
750.000	-11.366	0.101
750.100	-30.632	0.101
750.200	-16.372	0.101
750.300	-2.533	0.101
750.400	-28.712	0.101
750.500	-4.038	0.101
750.600	-21.341	0.101
750.700	-20.295	0.101
750.800	5.105	0.101
750.900	-10.254	0.101
751.000	-10.857	0.101
751.100	-11.003	0.101
751.200	-5.186	0.101
751.300	-21.720	0.101
751.400	-20.678	0.101
751.500	-18.870	0.101
751.600	-23.187	0.101
751.700	-19.203	0.101
751.800	-1.260	0.101
751.900	-11.902	0.101
752.000	-13.168	0.101
752.100	-12.302	0.101
752.200	-4.227	0.101
752.300	-18.782	0.101
752.400	-25.234	0.101
752.500	-12.549	0.101
752.600	-14.936	0.101
752.700	-21.415	0.101
752.800	-15.858	0.101
752.900	-6.197	0.101
753.000	-7.560	0.101
753.100	-14.847	0.101
753.200	-19.922	0.101
753.300	-14.032	0.101
753.400	-23.390	0.101
753.500	-9.636	0.101
753.600	-21.671	0.101
753.700	-5.633	0.101
753.800	-24.137	0.101
753.900	-18.963	0.101
754.000	-6.784	0.101
754.100	-12.546	0.101
754.200	-2.225	0.101
754.300	-18.651	0.101
754.400	-26.188	0.101
754.500	-17.105	0.101
754.600	-8.554	0.101
754.700	-12.408	0.101
754.800	-13.337	0.101
754.900	-17.736	0.101
755.000	-28.138	0.101
755.100	-18.575	0.101
755.200	-20.994	0.101
755.300	-8.951	0.101
755.400	-8.192	0.101
755.500	-25.212	0.101
755.600	-8.817	0.101
755.700	-20.334	0.101
755.800	-7.138	0.101
755.900	-18.980	0.101
756.000	-16.401	0.101
756.100	-26.440	0.101
756.200	3.482	0.101
756.300	-18.664	0.101
756.400	-25.578	0.101
756.500	-16.958	0.101
756.600	-15.198	0.101
756.700	-18.642	0.101
756.800	-18.536	0.101
756.900	-5.923	0.101
757.000	-12.585	0.101
757.100	-1.024	0.101
757.200	-14.024	0.101
757.300	-14.629	0.101
757.400	-20.511	0.101
757.500	-24.833	0.101
757.600	-6.411	0.101
757.700	-15.735	0.101
757.800	-22.761	0.101
757.900	-17.574	0.101
758.000	-16.456	0.101
758.100	-18.758	0.101
758.200	-7.262	0.101
758.300	-15.433	0.101
758.400	-20.735	0.101
758.500	-9.702	0.101
758.600	-16.058	0.101
758.700	-13.197	0.101
758.800	-16.953	0.101
758.900	-6.587	0.101
759.000	-15.133	0.101
759.100	-9.188	0.101
759.200	-13.568	0.101
759.300	-5.962	0.101
759.400	-7.232	0.101
759.500	-15.619	0.101
759.600	-9.645	0.101
759.700	-2.721	0.101
759.800	-16.815	0.101
759.900	-18.118	0.101
760.000	-18.078	0.101
760.100	-16.830	0.101
760.200	-14.267	0.101
760.300	-10.922	0.101
760.400	-15.669	0.101
760.500	-12.315	0.101
760.600	-6.294	0.101
760.700	-4.636	0.101
760.800	-27.292	0.101
760.900	-18.539	0.101
761.000	-2.906	0.101
761.100	-3.625	0.101
761.200	-30.264	0.101
761.300	1.851	0.101
761.400	-4.546	0.101
761.500	-12.207	0.101
761.600	-18.659	0.101
761.700	-11.014	0.101
761.800	-12.733	0.101
761.900	-16.066	0.101
762.000	-17.631	0.101
762.100	-7.774	0.101
762.200	-2.765	0.101
762.300	-13.854	0.101
762.400	-8.565	0.101
762.500	-3.602	0.101
762.600	-16.273	0.101
762.700	-15.706	0.101
762.800	-32.300	0.101
762.900	-19.231	0.101
763.000	-14.974	0.101
763.100	-26.039	0.101
763.200	-11.179	0.101
763.300	-9.825	0.101
763.400	-17.163	0.101
763.500	-14.008	0.101
763.600	-11.289	0.101
763.700	-9.003	0.101
763.800	-23.127	0.101
763.900	-22.523	0.101
764.000	-10.063	0.101
764.100	1.195	0.101
764.200	-22.068	0.101
764.300	-8.242	0.101
764.400	-21.320	0.101
764.500	-19.213	0.101
764.600	-20.362	0.101
764.700	-18.372	0.101
764.800	6.787	0.101
764.900	-2.691	0.101
765.000	-17.811	0.101
765.100	-23.840	0.101
765.200	-14.343	0.101
765.300	-16.139	0.101
765.400	-9.978	0.101
765.500	-12.810	0.101
765.600	-22.590	0.101
765.700	-18.398	0.101
765.800	-22.565	0.101
765.900	-8.935	0.101
766.000	-1.783	0.101
766.100	-5.665	0.101
766.200	-12.235	0.101
766.300	-21.380	0.101
766.400	-21.585	0.101
766.500	-7.120	0.101
766.600	-18.406	0.101
766.700	-29.038	0.101
766.800	-16.263	0.101
766.900	-17.326	0.101
767.000	-10.490	0.101
767.100	-9.034	0.101
767.200	-12.082	0.101
767.300	-14.982	0.101
767.400	-18.561	0.101
767.500	-16.726	0.101
767.600	-18.367	0.101
767.700	-16.034	0.101
767.800	-6.736	0.101
767.900	-11.718	0.101
768.000	-18.076	0.101
768.100	-23.144	0.101
768.200	-9.315	0.101
768.300	-13.010	0.101
768.400	-11.716	0.101
768.500	-1.357	0.101
768.600	-20.573	0.101
768.700	-16.748	0.101
768.800	-4.780	0.101
768.900	-12.382	0.101
769.000	-20.468	0.101
769.100	-15.367	0.101
769.200	-27.737	0.101
769.300	-14.693	0.101
769.400	-12.743	0.101
769.500	-12.505	0.101
769.600	-13.156	0.101
769.700	-2.791	0.101
769.800	-17.494	0.101
769.900	-13.009	0.101
770.000	-7.573	0.101
770.100	-6.996	0.101
770.200	-9.924	0.101
770.300	-10.424	0.101
770.400	-12.882	0.101
770.500	-29.314	0.101
770.600	-4.990	0.101
770.700	-6.868	0.101
770.800	-12.863	0.101
770.900	-9.980	0.101
771.000	-10.925	0.101
771.100	-26.272	0.101
771.200	-25.136	0.101
771.300	12.121	0.101
771.400	-8.812	0.101
771.500	-21.721	0.101
771.600	-17.002	0.101
771.700	-32.099	0.101
771.800	-8.963	0.101
771.900	-3.911	0.101
772.000	-12.097	0.101
772.100	-11.203	0.101
772.200	-22.144	0.101
772.300	-9.282	0.101
772.400	-11.872	0.101
772.500	-22.476	0.101
772.600	-14.158	0.101
772.700	-15.960	0.101
772.800	-17.468	0.101
772.900	-4.354	0.101
773.000	-10.937	0.101
773.100	-11.455	0.101
773.200	-6.596	0.101
773.300	-11.486	0.101
773.400	-25.168	0.101
773.500	-8.888	0.101
773.600	-5.882	0.101
773.700	-25.449	0.101
773.800	-25.155	0.101
773.900	-5.102	0.101
774.000	-3.538	0.101
774.100	0.935	0.101
774.200	-19.886	0.101
774.300	-22.470	0.101
774.400	-16.972	0.101
774.500	-15.631	0.101
774.600	-9.644	0.101
774.700	-13.155	0.101
774.800	-15.322	0.101
774.900	-22.032	0.101
775.000	3.770	0.101
775.100	-4.219	0.101
775.200	-21.089	0.101
775.300	-17.027	0.101
775.400	-10.713	0.101
775.500	0.237	0.101
775.600	-27.369	0.101
775.700	-18.900	0.101
775.800	-14.534	0.101
775.900	1.004	0.101
776.000	-14.596	0.101
776.100	-24.362	0.101
776.200	-18.566	0.101
776.300	-18.615	0.101
776.400	-8.463	0.101
776.500	-14.059	0.101
776.600	-11.335	0.101
776.700	-15.300	0.101
776.800	-9.015	0.101
776.900	-10.614	0.101
777.000	-9.788	0.101
777.100	-2.535	0.101
777.200	-10.573	0.101
777.300	-20.242	0.101
777.400	-3.752	0.101
777.500	-12.647	0.101
777.600	-14.306	0.101
777.700	-1.063	0.101
777.800	-7.345	0.101
777.900	-25.498	0.101
778.000	-4.757	0.101
778.100	-30.741	0.101
778.200	-18.867	0.101
778.300	-15.717	0.101
778.400	-23.624	0.101
778.500	-8.517	0.101
778.600	-2.757	0.101
778.700	-23.416	0.101
778.800	-17.442	0.101
778.900	-1.473	0.101
779.000	-3.945	0.101
779.100	-24.545	0.101
779.200	-12.200	0.101
779.300	-2.707	0.101
779.400	-16.187	0.101
779.500	-19.341	0.101
779.600	-14.863	0.101
779.700	-22.328	0.101
779.800	-10.974	0.101
779.900	-17.755	0.101
780.000	-13.121	0.101
780.100	1.043	0.101
780.200	-9.952	0.101
780.300	-19.561	0.101
780.400	-4.396	0.101
780.500	-15.709	0.101
780.600	-12.434	0.101
780.700	-4.425	0.101
780.800	-15.519	0.101
780.900	-14.496	0.101
781.000	-5.202	0.101
781.100	-5.383	0.101
781.200	1.667	0.101
781.300	1.652	0.101
781.400	18.586	0.101
781.500	-0.594	0.101
781.600	-5.939	0.101
781.700	17.432	0.101
781.800	8.857	0.101
781.900	8.761	0.101
782.000	-4.337	0.101
782.100	6.910	0.101
782.200	4.977	0.101
782.300	-2.389	0.101
782.400	11.792	0.101
782.500	10.975	0.101
782.600	15.238	0.101
782.700	3.278	0.101
782.800	6.896	0.101
782.900	4.588	0.101
783.000	-2.470	0.101
783.100	24.735	0.101
783.200	16.534	0.101
783.300	6.085	0.101
783.400	10.288	0.101
783.500	17.732	0.101
783.600	15.239	0.101
783.700	15.870	0.101
783.800	20.489	0.101
783.900	2.601	0.101
784.000	15.350	0.101
784.100	15.477	0.101
784.200	13.287	0.101
784.300	6.944	0.101
784.400	7.241	0.101
784.500	9.976	0.101
784.600	25.715	0.101
784.700	23.738	0.101
784.800	17.756	0.101
784.900	11.960	0.101
785.000	-0.670	0.101
785.100	-8.696	0.101
785.200	22.375	0.101
785.300	25.555	0.101
785.400	3.087	0.101
785.500	4.315	0.101
785.600	20.948	0.101
785.700	11.122	0.101
785.800	33.939	0.101
785.900	3.181	0.101
786.000	0.414	0.101
786.100	14.700	0.101
786.200	21.756	0.101
786.300	14.980	0.101
786.400	13.765	0.101
786.500	1.206	0.101
786.600	9.707	0.101
786.700	16.584	0.101
786.800	1.680	0.101
786.900	5.489	0.101
787.000	16.455	0.101
787.100	2.483	0.101
787.200	21.415	0.101
787.300	7.202	0.101
787.400	21.313	0.101
787.500	10.938	0.101
787.600	12.647	0.101
787.700	9.652	0.101
787.800	15.318	0.101
787.900	5.805	0.101
788.000	-0.963	0.101
788.100	9.615	0.101
788.200	15.067	0.101
788.300	5.028	0.101
788.400	6.182	0.101
788.500	14.835	0.101
788.600	4.162	0.101
788.700	14.486	0.101
788.800	5.333	0.101
788.900	16.863	0.101
789.000	25.311	0.101
789.100	-3.428	0.101
789.200	15.249	0.101
789.300	4.085	0.101
789.400	17.715	0.101
789.500	-1.633	0.101
789.600	12.638	0.101
789.700	7.716	0.101
789.800	6.529	0.101
789.900	10.585	0.101
790.000	18.260	0.101
790.100	12.989	0.101
790.200	10.269	0.101
790.300	17.862	0.101
790.400	13.320	0.101
790.500	12.493	0.101
790.600	27.610	0.101
790.700	7.720	0.101
790.800	12.818	0.101
790.900	10.952	0.101
791.000	12.464	0.101
791.100	8.055	0.101
791.200	12.999	0.101
791.300	13.596	0.101
791.400	10.422	0.101
791.500	4.874	0.101
791.600	5.963	0.101
791.700	24.590	0.101
791.800	18.476	0.101
791.900	-5.839	0.101
792.000	16.428	0.101
792.100	11.611	0.101
792.200	25.058	0.101
792.300	11.563	0.101
792.400	5.213	0.101
792.500	10.519	0.101
792.600	28.023	0.101
792.700	16.931	0.101
792.800	12.076	0.101
792.900	13.132	0.101
793.000	6.853	0.101
793.100	5.141	0.101
793.200	17.426	0.101
793.300	23.219	0.101
793.400	22.533	0.101
793.500	21.350	0.101
793.600	25.110	0.101
793.700	16.021	0.101
793.800	18.021	0.101
793.900	17.249	0.101
794.000	15.774	0.101
794.100	19.469	0.101
794.200	14.685	0.101
794.300	18.802	0.101
794.400	17.030	0.101
794.500	26.469	0.101
794.600	19.447	0.101
794.700	14.275	0.101
794.800	16.910	0.101
794.900	19.072	0.101
795.000	10.768	0.101
795.100	6.558	0.101
795.200	-5.025	0.101
795.300	17.261	0.101
795.400	14.476	0.101
795.500	9.155	0.101
795.600	26.810	0.101
795.700	22.142	0.101
795.800	17.520	0.101
795.900	2.411	0.101
796.000	21.305	0.101
796.100	13.017	0.101
796.200	32.616	0.101
796.300	15.159	0.101
796.400	21.779	0.101
796.500	17.149	0.101
796.600	5.704	0.101
796.700	32.034	0.101
796.800	17.334	0.101
796.900	22.926	0.101
797.000	23.523	0.101
797.100	23.222	0.101
797.200	24.784	0.101
797.300	18.942	0.101
797.400	17.404	0.101
797.500	16.036	0.101
797.600	24.451	0.101
797.700	29.262	0.101
797.800	25.392	0.101
797.900	31.900	0.101
798.000	15.513	0.101
798.100	14.479	0.101
798.200	26.282	0.101
798.300	24.312	0.101
798.400	28.212	0.101
798.500	15.107	0.101
798.600	22.785	0.101
798.700	25.357	0.101
798.800	28.264	0.101
798.900	27.377	0.101
799.000	22.995	0.101
799.100	12.372	0.101
799.200	29.872	0.101
799.300	18.993	0.101
799.400	40.000	0.101
799.500	19.510	0.101
799.600	15.753	0.101
799.700	31.344	0.101
799.800	29.339	0.101
799.900	27.754	0.101
800.000	19.316	0.101
