time /s	I /nA	E /V
0.100	-15.851	0.101
0.200	-13.953	0.101
0.300	-7.354	0.101
0.400	-19.506	0.101
0.500	-8.065	0.101
0.600	-6.273	0.101
0.700	-9.771	0.101
0.800	-18.639	0.101
0.900	-12.423	0.101
1.000	-17.579	0.101
1.100	-16.191	0.101
1.200	3.752	0.101
1.300	-1.588	0.101
1.400	-19.399	0.101
1.500	-18.692	0.101
1.600	-21.783	0.101
1.700	-12.883	0.101
1.800	-15.396	0.101
1.900	-3.708	0.101
2.000	-10.620	0.101
2.100	-12.958	0.101
2.200	-10.756	0.101
2.300	-6.341	0.101
2.400	-12.688	0.101
2.500	-18.968	0.101
2.600	0.548	0.101
2.700	-18.023	0.101
2.800	0.196	0.101
2.900	-9.065	0.101
3.000	-17.717	0.101
3.100	-15.067	0.101
3.200	-11.830	0.101
3.300	-30.243	0.101
3.400	-7.420	0.101
3.500	-6.562	0.101
3.600	-12.362	0.101
3.700	-9.900	0.101
3.800	-11.895	0.101
3.900	-14.077	0.101
4.000	-11.246	0.101
4.100	-3.572	0.101
4.200	-13.896	0.101
4.300	-10.176	0.101
4.400	-14.742	0.101
4.500	-21.123	0.101
4.600	-6.692	0.101
4.700	-3.318	0.101
4.800	-3.535	0.101
4.900	-11.334	0.101
5.000	-4.281	0.101
5.100	-3.578	0.101
5.200	-7.983	0.101
5.300	-10.559	0.101
5.400	-4.976	0.101
5.500	-2.002	0.101
5.600	0.319	0.101
5.700	-6.054	0.101
5.800	-9.042	0.101
5.900	-8.086	0.101
6.000	-20.740	0.101
6.100	-3.609	0.101
6.200	-14.712	0.101
6.300	-8.358	0.101
6.400	-9.947	0.101
6.500	-8.509	0.101
6.600	0.791	0.101
6.700	-9.900	0.101
6.800	-20.477	0.101
6.900	-11.071	0.101
7.000	-9.349	0.101
7.100	-32.198	0.101
7.200	-10.096	0.101
7.300	-8.107	0.101
7.400	-7.033	0.101
7.500	-13.222	0.101
7.600	-8.909	0.101
7.700	-11.686	0.101
7.800	-21.249	0.101
7.900	-8.729	0.101
8.000	-25.066	0.101
8.100	-1.426	0.101
8.200	-7.119	0.101
8.300	-19.044	0.101
8.400	-21.843	0.101
8.500	-2.949	0.101
8.600	-3.303	0.101
8.700	-8.677	0.101
8.800	-6.486	0.101
8.900	-4.603	0.101
9.000	-11.360	0.101
9.100	-24.214	0.101
9.200	-11.495	0.101
9.300	-3.468	0.101
9.400	-13.302	0.101
9.500	-2.589	0.101
9.600	-11.795	0.101
9.700	-9.970	0.101
9.800	-17.245	0.101
9.900	3.715	0.101
10.000	-14.218	0.101
10.100	-3.906	0.101
10.200	-17.044	0.101
10.300	6.141	0.101
10.400	-8.850	0.101
10.500	-4.075	0.101
10.600	-14.767	0.101
10.700	3.596	0.101
10.800	-9.676	0.101
10.900	-7.734	0.101
11.000	-13.182	0.101
11.100	-6.671	0.101
11.200	-11.624	0.101
11.300	-7.852	0.101
11.400	1.451	0.101
11.500	-9.060	0.101
11.600	-3.644	0.101
11.700	-9.429	0.101
11.800	-1.459	0.101
11.900	-6.082	0.101
12.000	-13.787	0.101
12.100	0.922	0.101
12.200	-8.045	0.101
12.300	-9.755	0.101
12.400	-11.093	0.101
12.500	-7.215	0.101
12.600	-12.379	0.101
12.700	-24.043	0.101
12.800	-2.153	0.101
12.900	-12.462	0.101
13.000	-4.884	0.101
13.100	-4.001	0.101
13.200	-14.699	0.101
13.300	-16.122	0.101
13.400	2.976	0.101
13.500	-14.825	0.101
13.600	-5.260	0.101
13.700	-27.519	0.101
13.800	-13.473	0.101
13.900	-7.833	0.101
14.000	-13.162	0.101
14.100	-7.186	0.101
14.200	-8.743	0.101
14.300	-4.006	0.101
14.400	-13.848	0.101
14.500	-8.422	0.101
14.600	-9.816	0.101
14.700	-1.793	0.101
14.800	-6.258	0.101
14.900	-0.872	0.101
15.000	-5.369	0.101
15.100	-7.610	0.101
15.200	-26.310	0.101
15.300	-20.297	0.101
15.400	0.017	0.101
15.500	-8.293	0.101
15.600	-12.670	0.101
15.700	-13.574	0.101
15.800	-20.585	0.101
15.900	-19.410	0.101
16.000	-20.545	0.101
16.100	-7.906	0.101
16.200	3.127	0.101
16.300	-6.112	0.101
16.400	-12.629	0.101
16.500	-5.398	0.101
16.600	-9.984	0.101
16.700	-23.843	0.101
16.800	-7.840	0.101
16.900	-10.236	0.101
17.000	7.869	0.101
17.100	-6.274	0.101
17.200	-24.820	0.101
17.300	-10.565	0.101
17.400	-17.186	0.101
17.500	-23.727	0.101
17.600	-10.141	0.101
17.700	-20.206	0.101
17.800	0.539	0.101
17.900	-3.568	0.101
18.000	-22.175	0.101
18.100	-17.042	0.101
18.200	-10.796	0.101
18.300	-17.180	0.101
18.400	-14.672	0.101
18.500	13.017	0.101
18.600	-12.032	0.101
18.700	-8.166	0.101
18.800	-25.482	0.101
18.900	-11.102	0.101
19.000	-3.741	0.101
19.100	-1.552	0.101
19.200	-3.399	0.101
19.300	-13.228	0.101
19.400	-14.014	0.101
19.500	-5.754	0.101
19.600	-0.997	0.101
19.700	-9.160	0.101
19.800	-5.866	0.101
19.900	-8.838	0.101
20.000	-5.330	0.101
20.100	-11.641	0.101
20.200	-12.467	0.101
20.300	-2.469	0.101
20.400	-14.907	0.101
20.500	-8.395	0.101
20.600	-11.439	0.101
20.700	-13.360	0.101
20.800	-17.739	0.101
20.900	-3.769	0.101
21.000	-4.814	0.101
21.100	-2.213	0.101
21.200	-9.780	0.101
21.300	-14.964	0.101
21.400	-19.615	0.101
21.500	2.406	0.101
21.600	-6.828	0.101
21.700	-12.388	0.101
21.800	-4.389	0.101
21.900	-10.596	0.101
22.000	-13.602	0.101
22.100	-6.903	0.101
22.200	-15.299	0.101
22.300	2.908	0.101
22.400	-3.658	0.101
22.500	-12.115	0.101
22.600	-6.679	0.101
22.700	-2.907	0.101
22.800	-11.337	0.101
22.900	-13.754	0.101
23.000	-4.111	0.101
23.100	-16.410	0.101
23.200	-20.322	0.101
23.300	-9.272	0.101
23.400	-13.553	0.101
23.500	-10.538	0.101
23.600	-11.905	0.101
23.700	-9.314	0.101
23.800	-5.393	0.101
23.900	-11.231	0.101
24.000	-17.300	0.101
24.100	-2.599	0.101
24.200	-9.475	0.101
24.300	-9.379	0.101
24.400	-4.444	0.101
24.500	-16.384	0.101
24.600	1.927	0.101
24.700	-18.182	0.101
24.800	-3.929	0.101
24.900	-11.425	0.101
25.000	-15.525	0.101
25.100	-2.668	0.101
25.200	-8.335	0.101
25.300	-19.729	0.101
25.400	-8.767	0.101
25.500	-2.545	0.101
25.600	-16.280	0.101
25.700	-15.519	0.101
25.800	-16.768	0.101
25.900	8.293	0.101
26.000	-11.831	0.101
26.100	-21.430	0.101
26.200	-7.309	0.101
26.300	-15.640	0.101
26.400	-15.525	0.101
26.500	-6.535	0.101
26.600	-8.175	0.101
26.700	-1.993	0.101
26.800	-21.453	0.101
26.900	-12.270	0.101
27.000	-23.324	0.101
27.100	2.605	0.101
27.200	-12.318	0.101
27.300	-0.475	0.101
27.400	-14.955	0.101
27.500	-0.798	0.101
27.600	-13.749	0.101
27.700	-7.727	0.101
27.800	-13.977	0.101
27.900	-2.396	0.101
28.000	-7.981	0.101
28.100	-10.111	0.101
28.200	-11.935	0.101
28.300	-22.977	0.101
28.400	-7.876	0.101
28.500	-8.954	0.101
28.600	-8.647	0.101
28.700	-10.031	0.101
28.800	-1.158	0.101
28.900	-6.628	0.101
29.000	-8.045	0.101
29.100	-19.917	0.101
29.200	-15.213	0.101
29.300	-14.919	0.101
29.400	-13.344	0.101
29.500	-3.516	0.101
29.600	2.933	0.101
29.700	-6.542	0.101
29.800	-19.148	0.101
29.900	-20.377	0.101
30.000	-1.370	0.101
30.100	5.124	0.101
30.200	-7.667	0.101
30.300	-13.087	0.101
30.400	-3.392	0.101
30.500	-1.761	0.101
30.600	0.326	0.101
30.700	2.457	0.101
30.800	-2.244	0.101
30.900	-13.225	0.101
31.000	-11.116	0.101
31.100	1.978	0.101
31.200	4.143	0.101
31.300	4.103	0.101
31.400	6.189	0.101
31.500	6.291	0.101
31.600	1.039	0.101
31.700	14.489	0.101
31.800	-1.849	0.101
31.900	6.961	0.101
32.000	1.632	0.101
32.100	5.672	0.101
32.200	2.774	0.101
32.300	15.469	0.101
32.400	13.781	0.101
32.500	24.057	0.101
32.600	0.356	0.101
32.700	20.432	0.101
32.800	13.803	0.101
32.900	5.494	0.101
33.000	7.279	0.101
33.100	18.786	0.101
33.200	4.270	0.101
33.300	16.380	0.101
33.400	8.309	0.101
33.500	17.970	0.101
33.600	15.672	0.101
33.700	19.270	0.101
33.800	5.843	0.101
33.900	17.119	0.101
34.000	-0.776	0.101
34.100	6.216	0.101
34.200	30.145	0.101
34.300	13.993	0.101
34.400	18.862	0.101
34.500	0.567	0.101
34.600	6.044	0.101
34.700	5.041	0.101
34.800	15.269	0.101
34.900	4.279	0.101
35.000	17.840	0.101
35.100	14.041	0.101
35.200	14.085	0.101
35.300	0.608	0.101
35.400	-6.438	0.101
35.500	-7.458	0.101
35.600	12.342	0.101
35.700	28.438	0.101
35.800	9.324	0.101
35.900	14.843	0.101
36.000	2.044	0.101
36.100	7.976	0.101
36.200	17.740	0.101
36.300	18.966	0.101
36.400	10.379	0.101
36.500	1.197	0.101
36.600	12.046	0.101
36.700	6.993	0.101
36.800	15.753	0.101
36.900	24.522	0.101
37.000	16.417	0.101
37.100	1.289	0.101
37.200	9.171	0.101
37.300	12.120	0.101
37.400	2.413	0.101
37.500	-1.308	0.101
37.600	5.650	0.101
37.700	4.918	0.101
37.800	19.507	0.101
37.900	16.047	0.101
38.000	23.691	0.101
38.100	11.891	0.101
38.200	22.653	0.101
38.300	5.227	0.101
38.400	11.507	0.101
38.500	0.582	0.101
38.600	-0.996	0.101
38.700	6.786	0.101
38.800	16.838	0.101
38.900	8.834	0.101
39.000	7.430	0.101
39.100	13.015	0.101
39.200	8.146	0.101
39.300	0.784	0.101
39.400	1.254	0.101
39.500	29.861	0.101
39.600	28.004	0.101
39.700	23.867	0.101
39.800	16.510	0.101
39.900	0.026	0.101
40.000	19.412	0.101
40.100	18.570	0.101
40.200	25.285	0.101
40.300	7.620	0.101
40.400	6.110	0.101
40.500	9.029	0.101
40.600	17.877	0.101
40.700	10.425	0.101
40.800	16.578	0.101
40.900	19.321	0.101
41.000	10.839	0.101
41.100	14.171	0.101
41.200	11.842	0.101
41.300	-2.143	0.101
41.400	17.540	0.101
41.500	23.809	0.101
41.600	6.725	0.101
41.700	18.673	0.101
41.800	20.487	0.101
41.900	2.512	0.101
42.000	5.796	0.101
42.100	0.910	0.101
42.200	2.534	0.101
42.300	16.557	0.101
42.400	4.343	0.101
42.500	15.769	0.101
42.600	28.106	0.101
42.700	8.137	0.101
42.800	14.628	0.101
42.900	20.186	0.101
43.000	22.989	0.101
43.100	15.053	0.101
43.200	17.686	0.101
43.300	19.010	0.101
43.400	14.762	0.101
43.500	19.978	0.101
43.600	19.897	0.101
43.700	18.181	0.101
43.800	12.434	0.101
43.900	24.707	0.101
44.000	15.666	0.101
44.100	10.962	0.101
44.200	26.374	0.101
44.300	14.959	0.101
44.400	10.927	0.101
44.500	25.466	0.101
44.600	25.228	0.101
44.700	10.932	0.101
44.800	14.501	0.101
44.900	8.356	0.101
45.000	2.269	0.101
45.100	33.175	0.101
45.200	24.598	0.101
45.300	17.570	0.101
45.400	27.243	0.101
45.500	15.886	0.101
45.600	16.695	0.101
45.700	25.806	0.101
45.800	11.109	0.101
45.900	10.742	0.101
46.000	24.397	0.101
46.100	14.258	0.101
46.200	24.375	0.101
46.300	18.891	0.101
46.400	14.268	0.101
46.500	16.421	0.101
46.600	24.038	0.101
46.700	13.800	0.101
46.800	16.569	0.101
46.900	27.296	0.101
47.000	23.525	0.101
47.100	13.534	0.101
47.200	21.308	0.101
47.300	9.801	0.101
47.400	26.105	0.101
47.500	9.259	0.101
47.600	17.869	0.101
47.700	23.973	0.101
47.800	12.379	0.101
47.900	23.452	0.101
48.000	14.968	0.101
48.100	20.871	0.101
48.200	22.025	0.101
48.300	21.082	0.101
48.400	22.856	0.101
48.500	9.997	0.101
48.600	9.979	0.101
48.700	15.703	0.101
48.800	25.875	0.101
48.900	9.669	0.101
49.000	27.512	0.101
49.100	16.109	0.101
49.200	10.240	0.101
49.300	25.576	0.101
49.400	34.990	0.101
49.500	26.920	0.101
49.600	26.207	0.101
49.700	20.783	0.101
49.800	14.174	0.101
49.900	12.375	0.101
50.000	32.600	0.101
50.100	17.637	0.101
50.200	24.386	0.101
50.300	19.575	0.101
50.400	17.008	0.101
50.500	16.123	0.101
50.600	31.032	0.101
50.700	27.624	0.101
50.800	21.813	0.101
50.900	17.639	0.101
51.000	29.013	0.101
51.100	33.702	0.101
51.200	22.144	0.101
51.300	22.690	0.101
51.400	26.090	0.101
51.500	16.848	0.101
51.600	21.181	0.101
51.700	13.052	0.101
51.800	26.779	0.101
51.900	25.384	0.101
52.000	22.662	0.101
52.100	24.274	0.101
52.200	34.105	0.101
52.300	25.238	0.101
52.400	13.718	0.101
52.500	20.031	0.101
52.600	22.898	0.101
52.700	31.072	0.101
52.800	25.769	0.101
52.900	33.146	0.101
53.000	14.275	0.101
53.100	8.965	0.101
53.200	13.670	0.101
53.300	34.086	0.101
53.400	32.324	0.101
53.500	13.188	0.101
53.600	22.202	0.101
53.700	23.047	0.101
53.800	20.800	0.101
53.900	29.378	0.101
54.000	40.188	0.101
54.100	23.446	0.101
54.200	25.066	0.101
54.300	14.743	0.101
54.400	18.031	0.101
54.500	30.741	0.101
54.600	25.312	0.101
54.700	26.976	0.101
54.800	22.711	0.101
54.900	25.823	0.101
55.000	35.591	0.101
55.100	29.258	0.101
55.200	26.372	0.101
55.300	28.943	0.101
55.400	22.196	0.101
55.500	20.751	0.101
55.600	24.051	0.101
55.700	35.359	0.101
55.800	25.875	0.101
55.900	23.582	0.101
56.000	21.711	0.101
56.100	45.863	0.101
56.200	17.669	0.101
56.300	14.722	0.101
56.400	28.382	0.101
56.500	33.881	0.101
56.600	14.052	0.101
56.700	26.582	0.101
56.800	24.750	0.101
56.900	20.570	0.101
57.000	15.504	0.101
57.100	31.078	0.101
57.200	25.926	0.101
57.300	25.593	0.101
57.400	24.551	0.101
57.500	23.948	0.101
57.600	28.838	0.101
57.700	26.503	0.101
57.800	38.341	0.101
57.900	27.530	0.101
58.000	16.321	0.101
58.100	38.165	0.101
58.200	36.307	0.101
58.300	22.437	0.101
58.400	17.169	0.101
58.500	20.075	0.101
58.600	27.680	0.101
58.700	29.860	0.101
58.800	23.985	0.101
58.900	24.103	0.101
59.000	22.479	0.101
59.100	23.403	0.101
59.200	31.288	0.101
59.300	51.648	0.101
59.400	35.889	0.101
59.500	34.165	0.101
59.600	24.815	0.101
59.700	25.604	0.101
59.800	26.751	0.101
59.900	29.147	0.101
60.000	22.420	0.101
60.100	29.278	0.101
60.200	35.913	0.101
60.300	26.715	0.101
60.400	13.091	0.101
60.500	26.592	0.101
60.600	31.106	0.101
60.700	38.888	0.101
60.800	32.114	0.101
60.900	24.704	0.101
61.000	25.716	0.101
61.100	30.623	0.101
61.200	37.424	0.101
61.300	36.087	0.101
61.400	46.646	0.101
61.500	32.030	0.101
61.600	18.835	0.101
61.700	27.001	0.101
61.800	30.056	0.101
61.900	24.197	0.101
62.000	43.709	0.101
62.100	39.839	0.101
62.200	31.143	0.101
62.300	19.498	0.101
62.400	22.187	0.101
62.500	26.168	0.101
62.600	35.461	0.101
62.700	38.244	0.101
62.800	39.561	0.101
62.900	28.735	0.101
63.000	27.026	0.101
63.100	30.886	0.101
63.200	26.228	0.101
63.300	26.379	0.101
63.400	37.210	0.101
63.500	36.333	0.101
63.600	28.800	0.101
63.700	23.344	0.101
63.800	27.436	0.101
63.900	27.509	0.101
64.000	39.095	0.101
64.100	27.543	0.101
64.200	21.053	0.101
64.300	30.712	0.101
64.400	34.284	0.101
64.500	38.114	0.101
64.600	20.889	0.101
64.700	29.038	0.101
64.800	48.851	0.101
64.900	39.457	0.101
65.000	25.898	0.101
65.100	24.950	0.101
65.200	44.028	0.101
65.300	36.419	0.101
65.400	34.419	0.101
65.500	29.325	0.101
65.600	25.067	0.101
65.700	33.004	0.101
65.800	35.919	0.101
65.900	21.775	0.101
66.000	39.511	0.101
66.100	31.098	0.101
66.200	43.536	0.101
66.300	32.399	0.101
66.400	39.360	0.101
66.500	38.025	0.101
66.600	32.308	0.101
66.700	32.843	0.101
66.800	22.875	0.101
66.900	19.402	0.101
67.000	37.904	0.101
67.100	46.164	0.101
67.200	34.689	0.101
67.300	33.565	0.101
67.400	37.947	0.101
67.500	44.589	0.101
67.600	27.362	0.101
67.700	31.135	0.101
67.800	43.076	0.101
67.900	33.435	0.101
68.000	21.238	0.101
68.100	34.066	0.101
68.200	34.247	0.101
68.300	24.494	0.101
68.400	35.896	0.101
68.500	32.944	0.101
68.600	34.260	0.101
68.700	38.837	0.101
68.800	27.041	0.101
68.900	26.339	0.101
69.000	30.242	0.101
69.100	30.720	0.101
69.200	30.764	0.101
69.300	42.520	0.101
69.400	19.043	0.101
69.500	35.087	0.101
69.600	27.203	0.101
69.700	36.934	0.101
69.800	28.238	0.101
69.900	29.640	0.101
70.000	44.481	0.101
70.100	41.476	0.101
70.200	37.778	0.101
70.300	37.101	0.101
70.400	39.413	0.101
70.500	36.124	0.101
70.600	28.505	0.101
70.700	39.323	0.101
70.800	28.089	0.101
70.900	26.982	0.101
71.000	30.878	0.101
71.100	19.744	0.101
71.200	42.059	0.101
71.300	41.386	0.101
71.400	21.600	0.101
71.500	32.280	0.101
71.600	35.954	0.101
71.700	36.274	0.101
71.800	27.145	0.101
71.900	32.011	0.101
72.000	38.317	0.101
72.100	31.383	0.101
72.200	20.250	0.101
72.300	34.125	0.101
72.400	36.771	0.101
72.500	37.629	0.101
72.600	35.653	0.101
72.700	44.457	0.101
72.800	38.561	0.101
72.900	33.536	0.101
73.000	32.527	0.101
73.100	37.199	0.101
73.200	30.076	0.101
73.300	29.247	0.101
73.400	30.975	0.101
73.500	16.117	0.101
73.600	36.202	0.101
73.700	30.713	0.101
73.800	40.434	0.101
73.900	38.926	0.101
74.000	26.183	0.101
74.100	39.676	0.101
74.200	35.333	0.101
74.300	27.164	0.101
74.400	29.901	0.101
74.500	31.392	0.101
74.600	44.778	0.101
74.700	37.244	0.101
74.800	47.541	0.101
74.900	25.729	0.101
75.000	29.149	0.101
75.100	33.009	0.101
75.200	32.692	0.101
75.300	31.562	0.101
75.400	32.956	0.101
75.500	29.785	0.101
75.600	27.925	0.101
75.700	40.069	0.101
75.800	34.164	0.101
75.900	39.193	0.101
76.000	47.896	0.101
76.100	26.083	0.101
76.200	28.020	0.101
76.300	43.712	0.101
76.400	27.618	0.101
76.500	33.283	0.101
76.600	26.673	0.101
76.700	29.131	0.101
76.800	33.911	0.101
76.900	29.922	0.101
77.000	37.808	0.101
77.100	37.557	0.101
77.200	30.747	0.101
77.300	29.142	0.101
77.400	36.418	0.101
77.500	27.275	0.101
77.600	36.177	0.101
77.700	26.904	0.101
77.800	24.421	0.101
77.900	46.480	0.101
78.000	43.889	0.101
78.100	29.311	0.101
78.200	36.410	0.101
78.300	45.563	0.101
78.400	38.148	0.101
78.500	38.063	0.101
78.600	32.380	0.101
78.700	22.538	0.101
78.800	32.102	0.101
78.900	29.194	0.101
79.000	22.547	0.101
79.100	37.387	0.101
79.200	31.191	0.101
79.300	39.444	0.101
79.400	40.847	0.101
79.500	28.266	0.101
79.600	22.858	0.101
79.700	35.542	0.101
79.800	28.337	0.101
79.900	32.144	0.101
80.000	48.566	0.101
80.100	39.622	0.101
80.200	37.654	0.101
80.300	28.583	0.101
80.400	42.580	0.101
80.500	38.039	0.101
80.600	42.938	0.101
80.700	32.124	0.101
80.800	31.468	0.101
80.900	31.524	0.101
81.000	35.150	0.101
81.100	33.708	0.101
81.200	37.535	0.101
81.300	44.968	0.101
81.400	43.478	0.101
81.500	31.681	0.101
81.600	34.135	0.101
81.700	36.935	0.101
81.800	33.548	0.101
81.900	24.555	0.101
82.000	32.270	0.101
82.100	23.965	0.101
82.200	40.912	0.101
82.300	28.212	0.101
82.400	39.524	0.101
82.500	32.749	0.101
82.600	27.049	0.101
82.700	29.028	0.101
82.800	19.513	0.101
82.900	27.360	0.101
83.000	47.903	0.101
83.100	19.166	0.101
83.200	36.935	0.101
83.300	37.574	0.101
83.400	38.003	0.101
83.500	40.668	0.101
83.600	31.956	0.101
83.700	32.531	0.101
83.800	33.861	0.101
83.900	26.104	0.101
84.000	45.110	0.101
84.100	38.242	0.101
84.200	45.748	0.101
84.300	20.958	0.101
84.400	34.362	0.101
84.500	30.201	0.101
84.600	40.876	0.101
84.700	31.532	0.101
84.800	35.716	0.101
84.900	31.963	0.101
85.000	20.860	0.101
85.100	32.794	0.101
85.200	44.008	0.101
85.300	38.444	0.101
85.400	32.512	0.101
85.500	44.513	0.101
85.600	36.458	0.101
85.700	42.713	0.101
85.800	31.658	0.101
85.900	39.044	0.101
86.000	24.414	0.101
86.100	29.659	0.101
86.200	37.004	0.101
86.300	30.205	0.101
86.400	44.729	0.101
86.500	37.945	0.101
86.600	41.127	0.101
86.700	24.615	0.101
86.800	39.232	0.101
86.900	36.667	0.101
87.000	41.569	0.101
87.100	28.909	0.101
87.200	33.927	0.101
87.300	34.772	0.101
87.400	31.706	0.101
87.500	36.555	0.101
87.600	31.136	0.101
87.700	36.168	0.101
87.800	31.977	0.101
87.900	32.720	0.101
88.000	39.150	0.101
88.100	48.879	0.101
88.200	29.189	0.101
88.300	33.107	0.101
88.400	39.014	0.101
88.500	32.242	0.101
88.600	43.686	0.101
88.700	33.530	0.101
88.800	40.023	0.101
88.900	33.883	0.101
89.000	30.699	0.101
89.100	28.855	0.101
89.200	41.652	0.101
89.300	43.244	0.101
89.400	33.507	0.101
89.500	40.416	0.101
89.600	34.580	0.101
89.700	21.833	0.101
89.800	25.467	0.101
89.900	38.559	0.101
90.000	40.482	0.101
90.100	40.069	0.101
90.200	36.152	0.101
90.300	14.755	0.101
90.400	25.828	0.101
90.500	38.430	0.101
90.600	33.435	0.101
90.700	27.511	0.101
90.800	29.846	0.101
90.900	26.673	0.101
91.000	22.874	0.101
91.100	30.031	0.101
91.200	40.280	0.101
91.300	18.202	0.101
91.400	19.560	0.101
91.500	9.370	0.101
91.600	23.140	0.101
91.700	31.250	0.101
91.800	28.016	0.101
91.900	26.282	0.101
92.000	32.938	0.101
92.100	8.636	0.101
92.200	38.789	0.101
92.300	22.928	0.101
92.400	16.791	0.101
92.500	8.637	0.101
92.600	14.492	0.101
92.700	11.960	0.101
92.800	16.179	0.101
92.900	12.979	0.101
93.000	21.582	0.101
93.100	18.721	0.101
93.200	22.066	0.101
93.300	28.570	0.101
93.400	22.025	0.101
93.500	16.775	0.101
93.600	15.002	0.101
93.700	15.281	0.101
93.800	6.154	0.101
93.900	-1.187	0.101
94.000	29.140	0.101
94.100	16.962	0.101
94.200	23.916	0.101
94.300	14.395	0.101
94.400	1.639	0.101
94.500	17.820	0.101
94.600	14.868	0.101
94.700	18.460	0.101
94.800	19.870	0.101
94.900	7.804	0.101
95.000	5.775	0.101
95.100	13.990	0.101
95.200	19.702	0.101
95.300	11.261	0.101
95.400	4.322	0.101
95.500	13.040	0.101
95.600	0.450	0.101
95.700	29.401	0.101
95.800	1.951	0.101
95.900	11.949	0.101
96.000	22.592	0.101
96.100	0.555	0.101
96.200	14.066	0.101
96.300	15.120	0.101
96.400	7.984	0.101
96.500	9.464	0.101
96.600	6.327	0.101
96.700	8.155	0.101
96.800	12.293	0.101
96.900	12.256	0.101
97.000	6.905	0.101
97.100	8.661	0.101
97.200	15.433	0.101
97.300	-7.799	0.101
97.400	14.174	0.101
97.500	9.465	0.101
97.600	15.829	0.101
97.700	2.742	0.101
97.800	11.211	0.101
97.900	-1.255	0.101
98.000	17.392	0.101
98.100	13.578	0.101
98.200	16.885	0.101
98.300	-0.729	0.101
98.400	4.226	0.101
98.500	6.408	0.101
98.600	9.130	0.101
98.700	18.694	0.101
98.800	16.981	0.101
98.900	6.588	0.101
99.000	15.046	0.101
99.100	12.432	0.101
99.200	9.427	0.101
99.300	15.171	0.101
99.400	8.237	0.101
99.500	7.042	0.101
99.600	8.032	0.101
99.700	12.139	0.101
99.800	1.528	0.101
99.900	19.729	0.101
100.000	12.372	0.101
100.100	3.683	0.101
100.200	10.391	0.101
100.300	8.122	0.101
100.400	8.642	0.101
100.500	13.610	0.101
100.600	17.266	0.101
100.700	18.705	0.101
100.800	10.488	0.101
100.900	17.212	0.101
101.000	12.159	0.101
101.100	5.897	0.101
101.200	13.342	0.101
101.300	20.847	0.101
101.400	14.261	0.101
101.500	11.322	0.101
101.600	11.847	0.101
101.700	-1.325	0.101
101.800	11.397	0.101
101.900	5.087	0.101
102.000	6.705	0.101
102.100	14.979	0.101
102.200	6.432	0.101
102.300	17.155	0.101
102.400	11.763	0.101
102.500	-18.036	0.101
102.600	-7.794	0.101
102.700	13.624	0.101
102.800	9.298	0.101
102.900	10.147	0.101
103.000	9.620	0.101
103.100	4.736	0.101
103.200	-2.772	0.101
103.300	11.867	0.101
103.400	5.342	0.101
103.500	3.938	0.101
103.600	9.786	0.101
103.700	10.096	0.101
103.800	0.983	0.101
103.900	6.344	0.101
104.000	4.831	0.101
104.100	-0.632	0.101
104.200	11.249	0.101
104.300	9.167	0.101
104.400	15.239	0.101
104.500	7.840	0.101
104.600	-4.616	0.101
104.700	5.967	0.101
104.800	-0.743	0.101
104.900	5.040	0.101
105.000	10.755	0.101
105.100	3.636	0.101
105.200	21.868	0.101
105.300	-6.932	0.101
105.400	-2.116	0.101
105.500	6.838	0.101
105.600	-0.385	0.101
105.700	5.835	0.101
105.800	10.116	0.101
105.900	3.909	0.101
106.000	6.820	0.101
106.100	8.295	0.101
106.200	-3.207	0.101
106.300	8.106	0.101
106.400	6.806	0.101
106.500	6.143	0.101
106.600	7.000	0.101
106.700	-2.340	0.101
106.800	0.507	0.101
106.900	4.899	0.101
107.000	8.960	0.101
107.100	7.680	0.101
107.200	2.119	0.101
107.300	11.086	0.101
107.400	2.877	0.101
107.500	7.491	0.101
107.600	-5.866	0.101
107.700	-10.591	0.101
107.800	0.009	0.101
107.900	7.924	0.101
108.000	9.178	0.101
108.100	14.172	0.101
108.200	9.343	0.101
108.300	3.182	0.101
108.400	5.430	0.101
108.500	-0.808	0.101
108.600	-6.145	0.101
108.700	2.704	0.101
108.800	0.097	0.101
108.900	-10.061	0.101
109.000	-0.978	0.101
109.100	10.490	0.101
109.200	0.069	0.101
109.300	14.927	0.101
109.400	14.401	0.101
109.500	-1.121	0.101
109.600	-0.771	0.101
109.700	6.802	0.101
109.800	8.049	0.101
109.900	1.209	0.101
110.000	-6.675	0.101
110.100	-1.776	0.101
110.200	-0.995	0.101
110.300	2.993	0.101
110.400	6.470	0.101
110.500	-3.342	0.101
110.600	12.716	0.101
110.700	-9.775	0.101
110.800	3.920	0.101
110.900	-0.861	0.101
111.000	4.521	0.101
111.100	11.220	0.101
111.200	-7.008	0.101
111.300	-2.910	0.101
111.400	-1.684	0.101
111.500	7.769	0.101
111.600	7.275	0.101
111.700	-0.088	0.101
111.800	-14.975	0.101
111.900	6.754	0.101
112.000	-5.603	0.101
112.100	0.459	0.101
112.200	3.232	0.101
112.300	-8.760	0.101
112.400	-1.841	0.101
112.500	4.925	0.101
112.600	8.908	0.101
112.700	-0.635	0.101
112.800	-5.186	0.101
112.900	12.037	0.101
113.000	-6.134	0.101
113.100	-13.893	0.101
113.200	5.051	0.101
113.300	9.937	0.101
113.400	9.272	0.101
113.500	-0.165	0.101
113.600	-15.691	0.101
113.700	-4.685	0.101
113.800	0.632	0.101
113.900	-3.069	0.101
114.000	3.831	0.101
114.100	-6.995	0.101
114.200	-5.782	0.101
114.300	-1.072	0.101
114.400	21.414	0.101
114.500	-2.161	0.101
114.600	4.483	0.101
114.700	3.073	0.101
114.800	3.803	0.101
114.900	-2.472	0.101
115.000	6.333	0.101
115.100	2.396	0.101
115.200	7.088	0.101
115.300	8.959	0.101
115.400	7.099	0.101
115.500	-5.347	0.101
115.600	2.917	0.101
115.700	-6.044	0.101
115.800	7.461	0.101
115.900	-7.658	0.101
116.000	-5.132	0.101
116.100	1.900	0.101
116.200	-7.403	0.101
116.300	-11.374	0.101
116.400	16.736	0.101
116.500	10.658	0.101
116.600	1.090	0.101
116.700	-0.323	0.101
116.800	1.499	0.101
116.900	-1.856	0.101
117.000	6.280	0.101
117.100	8.964	0.101
117.200	-9.292	0.101
117.300	-9.176	0.101
117.400	-6.202	0.101
117.500	4.742	0.101
117.600	-9.795	0.101
117.700	-7.769	0.101
117.800	-7.682	0.101
117.900	4.118	0.101
118.000	6.548	0.101
118.100	-1.421	0.101
118.200	3.452	0.101
118.300	3.116	0.101
118.400	-1.667	0.101
118.500	3.026	0.101
118.600	-20.834	0.101
118.700	3.945	0.101
118.800	-3.523	0.101
118.900	10.425	0.101
119.000	2.071	0.101
119.100	1.671	0.101
119.200	-5.099	0.101
119.300	-9.947	0.101
119.400	-8.462	0.101
119.500	-6.387	0.101
119.600	11.362	0.101
119.700	-2.331	0.101
119.800	-4.834	0.101
119.900	-4.124	0.101
120.000	2.217	0.101
120.100	-8.475	0.101
120.200	-12.604	0.101
120.300	3.868	0.101
120.400	-4.784	0.101
120.500	7.933	0.101
120.600	-4.466	0.101
120.700	-10.129	0.101
120.800	-2.564	0.101
120.900	11.117	0.101
121.000	6.025	0.101
121.100	-18.982	0.101
121.200	-14.234	0.101
121.300	-10.100	0.101
121.400	-3.206	0.101
121.500	-4.287	0.101
121.600	-15.117	0.101
121.700	6.608	0.101
121.800	-3.805	0.101
121.900	4.195	0.101
122.000	-13.900	0.101
122.100	-1.968	0.101
122.200	-5.961	0.101
122.300	-6.451	0.101
122.400	-22.319	0.101
122.500	-4.941	0.101
122.600	-6.766	0.101
122.700	-6.185	0.101
122.800	5.233	0.101
122.900	11.812	0.101
123.000	-1.070	0.101
123.100	-10.111	0.101
123.200	6.420	0.101
123.300	-16.223	0.101
123.400	-14.811	0.101
123.500	2.101	0.101
123.600	-2.919	0.101
123.700	-4.489	0.101
123.800	-13.496	0.101
123.900	-0.472	0.101
124.000	-8.995	0.101
124.100	1.463	0.101
124.200	0.846	0.101
124.300	-14.335	0.101
124.400	-9.996	0.101
124.500	-13.679	0.101
124.600	-12.344	0.101
124.700	-5.669	0.101
124.800	-10.806	0.101
124.900	-1.755	0.101
125.000	0.562	0.101
125.100	-21.876	0.101
125.200	-3.011	0.101
125.300	-3.217	0.101
125.400	-3.561	0.101
125.500	-5.731	0.101
125.600	-8.748	0.101
125.700	-10.901	0.101
125.800	-6.907	0.101
125.900	0.786	0.101
126.000	7.781	0.101
126.100	-11.179	0.101
126.200	-2.863	0.101
126.300	-2.076	0.101
126.400	-2.444	0.101
126.500	-17.260	0.101
126.600	3.915	0.101
126.700	-5.530	0.101
126.800	-15.917	0.101
126.900	-7.225	0.101
127.000	-11.417	0.101
127.100	-2.281	0.101
127.200	3.219	0.101
127.300	-3.724	0.101
127.400	-16.229	0.101
127.500	-0.823	0.101
127.600	-4.359	0.101
127.700	-11.034	0.101
127.800	-11.804	0.101
127.900	-12.354	0.101
128.000	-21.772	0.101
128.100	-2.105	0.101
128.200	-10.924	0.101
128.300	-1.566	0.101
128.400	0.265	0.101
128.500	-6.171	0.101
128.600	-8.919	0.101
128.700	8.462	0.101
128.800	-3.579	0.101
128.900	-8.604	0.101
129.000	11.681	0.101
129.100	-12.572	0.101
129.200	-8.062	0.101
129.300	-15.839	0.101
129.400	-8.998	0.101
129.500	-9.423	0.101
129.600	-6.247	0.101
129.700	-8.057	0.101
129.800	-19.175	0.101
129.900	-10.395	0.101
130.000	-7.929	0.101
130.100	-16.881	0.101
130.200	-10.530	0.101
130.300	-11.070	0.101
130.400	-11.954	0.101
130.500	5.272	0.101
130.600	-9.412	0.101
130.700	-13.746	0.101
130.800	-17.417	0.101
130.900	1.615	0.101
131.000	-5.295	0.101
131.100	2.071	0.101
131.200	-3.033	0.101
131.300	-13.686	0.101
131.400	-11.244	0.101
131.500	-10.503	0.101
131.600	-19.976	0.101
131.700	-15.238	0.101
131.800	-5.531	0.101
131.900	-6.191	0.101
132.000	-3.605	0.101
132.100	-8.525	0.101
132.200	-26.054	0.101
132.300	-16.958	0.101
132.400	-10.170	0.101
132.500	-11.321	0.101
132.600	-4.949	0.101
132.700	-14.993	0.101
132.800	4.277	0.101
132.900	-4.055	0.101
133.000	-17.847	0.101
133.100	-20.090	0.101
133.200	-3.155	0.101
133.300	-17.933	0.101
133.400	-15.419	0.101
133.500	-6.186	0.101
133.600	-4.950	0.101
133.700	-5.033	0.101
133.800	-14.711	0.101
133.900	0.792	0.101
134.000	-12.306	0.101
134.100	-1.925	0.101
134.200	-8.859	0.101
134.300	-18.467	0.101
134.400	-7.298	0.101
134.500	-13.508	0.101
134.600	-12.019	0.101
134.700	-18.902	0.101
134.800	-6.457	0.101
134.900	-4.146	0.101
135.000	-11.672	0.101
135.100	-17.464	0.101
135.200	-13.013	0.101
135.300	-26.628	0.101
135.400	-8.428	0.101
135.500	10.853	0.101
135.600	-18.987	0.101
135.700	-7.095	0.101
135.800	-27.081	0.101
135.900	3.407	0.101
136.000	-10.610	0.101
136.100	-7.899	0.101
136.200	-15.306	0.101
136.300	-24.229	0.101
136.400	-1.159	0.101
136.500	-8.450	0.101
136.600	-15.716	0.101
136.700	-8.315	0.101
136.800	-9.632	0.101
136.900	-16.243	0.100
137.000	-9.161	0.101
137.100	-8.157	0.101
137.200	2.985	0.101
137.300	2.693	0.101
137.400	-10.936	0.101
137.500	-9.734	0.101
137.600	-18.897	0.101
137.700	-6.025	0.101
137.800	-3.944	0.101
137.900	-8.741	0.101
138.000	-4.459	0.100
138.100	-5.589	0.101
138.200	-20.364	0.101
138.300	-12.104	0.101
138.400	-12.212	0.100
138.500	-37.812	0.101
138.600	6.007	0.101
138.700	-13.133	0.101
138.800	-5.903	0.101
138.900	-15.156	0.101
139.000	-3.276	0.101
139.100	-7.894	0.101
139.200	-18.479	0.101
139.300	-7.041	0.101
139.400	-11.031	0.101
139.500	-1.320	0.101
139.600	-13.215	0.100
139.700	-13.721	0.100
139.800	-2.600	0.100
139.900	-15.913	0.101
140.000	-15.112	0.101
140.100	-11.984	0.101
140.200	-5.209	0.101
140.300	-16.367	0.101
140.400	-15.413	0.101
140.500	-8.961	0.101
140.600	-12.179	0.101
140.700	-3.757	0.101
140.800	-22.177	0.101
140.900	7.560	0.101
141.000	-22.402	0.101
141.100	3.271	0.100
141.200	-4.016	0.100
141.300	-10.762	0.101
141.400	-12.255	0.101
141.500	-18.521	0.101
141.600	-5.997	0.101
141.700	-6.316	0.101
141.800	-8.645	0.100
141.900	-21.978	0.100
142.000	-10.337	0.100
142.100	-16.575	0.100
142.200	-5.561	0.101
142.300	-20.685	0.100
142.400	-13.155	0.100
142.500	-15.330	0.100
142.600	-18.447	0.101
142.700	-11.485	0.100
142.800	-5.555	0.100
142.900	-7.154	0.100
143.000	-3.614	0.100
143.100	-13.485	0.100
143.200	-12.871	0.100
143.300	-5.884	0.101
143.400	-8.388	0.100
143.500	-11.314	0.100
143.600	-2.757	0.100
143.700	-15.901	0.100
143.800	-17.117	0.100
143.900	0.399	0.101
144.000	-15.017	0.100
144.100	-17.637	0.100
144.200	-29.945	0.100
144.300	-16.670	0.100
144.400	-9.339	0.100
144.500	-12.914	0.100
144.600	-14.973	0.100
144.700	-11.494	0.100
144.800	-15.336	0.100
144.900	-7.502	0.100
145.000	-20.836	0.100
145.100	-5.836	0.100
145.200	-1.835	0.100
145.300	-6.699	0.100
145.400	-9.179	0.100
145.500	-10.504	0.100
145.600	-23.058	0.100
145.700	-15.651	0.100
145.800	-8.794	0.100
145.900	-18.340	0.100
146.000	-11.012	0.100
146.100	-8.038	0.100
146.200	-10.212	0.100
146.300	-3.072	0.100
146.400	-5.539	0.100
146.500	-14.448	0.100
146.600	-5.960	0.100
146.700	-22.669	0.100
146.800	-8.788	0.100
146.900	-13.355	0.100
147.000	-21.171	0.100
147.100	-13.081	0.100
147.200	-13.226	0.100
147.300	-9.936	0.100
147.400	-11.545	0.100
147.500	-8.977	0.100
147.600	-11.273	0.100
147.700	-13.865	0.100
147.800	-1.359	0.100
147.900	1.351	0.100
148.000	-1.745	0.100
148.100	-12.301	0.100
148.200	-17.077	0.100
148.300	-21.517	0.100
148.400	-12.623	0.100
148.500	-14.190	0.100
148.600	-27.591	0.100
148.700	-9.430	0.100
148.800	-13.737	0.100
148.900	-14.192	0.100
149.000	-11.889	0.100
149.100	-21.631	0.100
149.200	-4.985	0.100
149.300	-7.961	0.100
149.400	-10.274	0.100
149.500	-20.953	0.100
149.600	-10.724	0.100
149.700	-7.217	0.100
149.800	-18.252	0.100
149.900	-8.708	0.100
150.000	-13.509	0.100
150.100	-20.919	0.100
150.200	-7.426	0.100
150.300	-9.590	0.100
150.400	-5.614	0.100
150.500	-8.995	0.100
150.600	-0.306	0.100
150.700	-15.178	0.100
150.800	-4.596	0.100
150.900	-6.424	0.100
151.000	-23.738	0.100
151.100	-7.261	0.100
151.200	-6.026	0.100
151.300	-16.445	0.100
151.400	-8.285	0.100
151.500	-7.198	0.100
151.600	-7.526	0.100
151.700	-16.950	0.100
151.800	-12.115	0.100
151.900	3.918	0.100
152.000	-7.581	0.100
152.100	-22.560	0.100
152.200	-11.765	0.100
152.300	-1.678	0.100
152.400	-21.568	0.100
152.500	1.093	0.100
152.600	-14.624	0.100
152.700	-12.079	0.100
152.800	-14.156	0.100
152.900	-20.013	0.100
153.000	-20.167	0.100
153.100	-13.433	0.100
153.200	-9.138	0.100
153.300	-15.779	0.100
153.400	-15.981	0.100
153.500	-18.821	0.100
153.600	1.846	0.100
153.700	-9.794	0.100
153.800	-0.792	0.100
153.900	-7.996	0.100
154.000	-17.518	0.100
154.100	-4.066	0.100
154.200	-15.378	0.100
154.300	-19.465	0.100
154.400	-7.378	0.100
154.500	-14.245	0.100
154.600	-12.180	0.100
154.700	-16.202	0.100
154.800	-12.750	0.100
154.900	-20.615	0.100
155.000	-8.736	0.100
155.100	-7.857	0.100
155.200	-4.496	0.100
155.300	-4.513	0.100
155.400	-16.741	0.100
155.500	-10.705	0.100
155.600	7.371	0.100
155.700	-13.477	0.100
155.800	-13.140	0.100
155.900	-2.333	0.100
156.000	-6.874	0.100
156.100	-10.240	0.100
156.200	-17.568	0.100
156.300	-5.081	0.100
156.400	-13.293	0.100
156.500	-14.807	0.100
156.600	-7.662	0.100
156.700	-7.432	0.100
156.800	-8.078	0.100
156.900	-15.094	0.100
157.000	-24.908	0.100
157.100	-16.173	0.100
157.200	-15.781	0.100
157.300	-21.951	0.100
157.400	-17.598	0.100
157.500	-14.246	0.100
157.600	3.231	0.100
157.700	2.064	0.100
157.800	-11.086	0.100
157.900	-7.744	0.100
158.000	-14.777	0.100
158.100	-11.822	0.100
158.200	-9.738	0.100
158.300	-2.699	0.100
158.400	-12.780	0.100
158.500	3.588	0.100
158.600	-20.362	0.100
158.700	-16.650	0.100
158.800	-27.617	0.100
158.900	-14.431	0.100
159.000	-16.779	0.100
159.100	-14.162	0.100
159.200	-4.434	0.100
159.300	-5.373	0.100
159.400	-12.696	0.100
159.500	-13.050	0.100
159.600	-12.266	0.100
159.700	-8.976	0.100
159.800	-10.570	0.100
159.900	-12.809	0.100
160.000	-15.154	0.100
160.100	-20.351	0.100
160.200	-15.920	0.100
160.300	-10.871	0.100
160.400	-12.886	0.100
160.500	-9.278	0.100
160.600	-11.889	0.100
160.700	-11.230	0.100
160.800	-20.106	0.100
160.900	-8.947	0.100
161.000	-8.237	0.100
161.100	-20.690	0.100
161.200	-3.823	0.100
161.300	-15.465	0.100
161.400	-1.713	0.100
161.500	-20.017	0.100
161.600	-14.904	0.100
161.700	-0.147	0.100
161.800	-5.492	0.100
161.900	-17.051	0.100
162.000	-10.256	0.100
162.100	-8.592	0.100
162.200	-7.071	0.100
162.300	-14.949	0.100
162.400	-6.551	0.100
162.500	-17.231	0.100
162.600	-20.775	0.100
162.700	-8.927	0.100
162.800	-21.240	0.100
162.900	-23.339	0.100
163.000	-13.933	0.100
163.100	9.101	0.100
163.200	-7.284	0.100
163.300	-12.037	0.100
163.400	-5.365	0.100
163.500	-11.974	0.100
163.600	-21.744	0.100
163.700	-12.308	0.100
163.800	-5.703	0.100
163.900	-9.607	0.100
164.000	-13.091	0.100
164.100	-20.531	0.100
164.200	-6.133	0.100
164.300	-1.140	0.100
164.400	-27.332	0.100
164.500	-6.264	0.100
164.600	-12.386	0.100
164.700	-1.494	0.100
164.800	-17.280	0.100
164.900	-7.722	0.100
165.000	-11.405	0.100
165.100	-6.106	0.100
165.200	-15.350	0.100
165.300	-20.416	0.100
165.400	-14.152	0.100
165.500	-6.688	0.100
165.600	-13.613	0.100
165.700	-5.557	0.100
165.800	-9.847	0.100
165.900	-15.592	0.100
166.000	-3.468	0.100
166.100	-15.157	0.100
166.200	-4.189	0.100
166.300	-30.055	0.100
166.400	-3.808	0.100
166.500	-22.114	0.100
166.600	-21.973	0.100
166.700	-7.027	0.100
166.800	-8.187	0.100
166.900	-19.323	0.100
167.000	-16.065	0.100
167.100	-13.770	0.100
167.200	-9.753	0.100
167.300	-9.786	0.100
167.400	-24.852	0.100
167.500	-15.512	0.100
167.600	-20.473	0.100
167.700	4.913	0.100
167.800	-8.988	0.100
167.900	6.327	0.100
168.000	-11.669	0.100
168.100	-18.204	0.100
168.200	-1.914	0.100
168.300	-8.996	0.100
168.400	-2.939	0.100
168.500	-7.866	0.100
168.600	-9.331	0.100
168.700	-18.272	0.100
168.800	-2.654	0.100
168.900	-16.635	0.100
169.000	-16.972	0.100
169.100	-15.748	0.100
169.200	-16.626	0.100
169.300	-4.296	0.100
169.400	-19.938	0.100
169.500	-6.479	0.100
169.600	-15.986	0.100
169.700	-4.829	0.100
169.800	-15.126	0.100
169.900	-17.739	0.100
170.000	-17.567	0.100
170.100	-7.494	0.100
170.200	-1.355	0.100
170.300	0.663	0.100
170.400	-8.875	0.100
170.500	-4.256	0.100
170.600	-16.788	0.100
170.700	-12.575	0.100
170.800	-13.504	0.100
170.900	0.109	0.100
171.000	-15.730	0.100
171.100	-22.358	0.100
171.200	-8.351	0.100
171.300	-4.659	0.100
171.400	-1.350	0.100
171.500	-28.765	0.100
171.600	-13.622	0.100
171.700	-11.278	0.100
171.800	-22.628	0.100
171.900	-16.280	0.100
172.000	-0.389	0.100
172.100	-27.502	0.100
172.200	-9.251	0.100
172.300	-10.888	0.100
172.400	-17.414	0.100
172.500	-21.442	0.100
172.600	-20.615	0.100
172.700	5.132	0.100
172.800	-4.310	0.100
172.900	-5.117	0.100
173.000	-8.252	0.100
173.100	-10.998	0.100
173.200	-9.339	0.100
173.300	-20.376	0.100
173.400	4.252	0.100
173.500	-6.324	0.100
173.600	-13.486	0.100
173.700	2.778	0.100
173.800	-17.261	0.100
173.900	-12.505	0.100
174.000	-7.589	0.100
174.100	-20.748	0.100
174.200	-15.051	0.100
174.300	-19.148	0.100
174.400	-18.793	0.100
174.500	-19.755	0.100
174.600	-22.479	0.100
174.700	-15.748	0.100
174.800	-11.098	0.100
174.900	4.548	0.100
175.000	-4.705	0.100
175.100	1.505	0.100
175.200	-9.975	0.100
175.300	-16.481	0.100
175.400	-5.509	0.100
175.500	-10.116	0.100
175.600	-12.121	0.100
175.700	-18.374	0.100
175.800	-6.587	0.100
175.900	-5.338	0.100
176.000	-1.415	0.100
176.100	-10.823	0.100
176.200	-15.355	0.100
176.300	-10.133	0.100
176.400	-17.838	0.100
176.500	-22.310	0.100
176.600	-12.702	0.100
176.700	-4.915	0.100
176.800	-8.007	0.100
176.900	-10.322	0.100
177.000	-10.934	0.100
177.100	-5.049	0.100
177.200	-4.500	0.100
177.300	-13.176	0.100
177.400	-9.813	0.100
177.500	-26.550	0.100
177.600	-3.445	0.100
177.700	-2.464	0.100
177.800	-15.461	0.100
177.900	-8.014	0.100
178.000	-6.654	0.100
178.100	-0.077	0.100
178.200	-11.300	0.100
178.300	-0.188	0.100
178.400	-8.710	0.100
178.500	-14.051	0.100
178.600	-18.148	0.100
178.700	-7.084	0.100
178.800	-8.233	0.100
178.900	-12.383	0.100
179.000	-6.043	0.100
179.100	-22.673	0.100
179.200	-11.191	0.100
179.300	-6.761	0.100
179.400	-20.812	0.100
179.500	-14.778	0.100
179.600	-17.967	0.100
179.700	-2.917	0.100
179.800	-2.392	0.100
179.900	-6.203	0.100
180.000	-20.563	0.100
180.100	-14.413	0.100
180.200	-4.492	0.100
180.300	-11.164	0.100
180.400	-0.525	0.100
180.500	-22.066	0.100
180.600	-2.836	0.100
180.700	9.411	0.100
180.800	-0.637	0.100
180.900	-28.297	0.100
181.000	-2.371	0.100
181.100	-6.142	0.100
181.200	16.733	0.100
181.300	2.328	0.100
181.400	-12.439	0.100
181.500	-1.693	0.100
181.600	2.472	0.100
181.700	1.650	0.100
181.800	7.868	0.100
181.900	1.260	0.100
182.000	-7.538	0.100
182.100	-10.391	0.100
182.200	10.085	0.100
182.300	7.094	0.100
182.400	17.995	0.100
182.500	11.252	0.100
182.600	2.093	0.101
182.700	11.794	0.101
182.800	1.346	0.101
182.900	3.355	0.101
183.000	23.113	0.101
183.100	12.066	0.101
183.200	11.927	0.101
183.300	0.505	0.101
183.400	1.163	0.101
183.500	0.032	0.101
183.600	14.144	0.101
183.700	5.507	0.101
183.800	7.256	0.101
183.900	10.737	0.101
184.000	23.217	0.101
184.100	5.114	0.101
184.200	-0.694	0.101
184.300	26.297	0.101
184.400	6.555	0.101
184.500	26.559	0.101
184.600	-6.964	0.101
184.700	10.844	0.101
184.800	10.976	0.101
184.900	4.859	0.101
185.000	3.500	0.101
185.100	11.667	0.101
185.200	9.245	0.101
185.300	11.177	0.101
185.400	11.511	0.101
185.500	5.984	0.101
185.600	13.098	0.101
185.700	-2.440	0.101
185.800	15.596	0.101
185.900	7.784	0.101
186.000	10.384	0.101
186.100	2.376	0.101
186.200	12.058	0.101
186.300	10.934	0.101
186.400	15.064	0.101
186.500	9.496	0.101
186.600	13.046	0.101
186.700	7.917	0.101
186.800	19.909	0.101
186.900	15.147	0.101
187.000	13.196	0.101
187.100	11.194	0.101
187.200	13.409	0.101
187.300	-7.737	0.101
187.400	0.842	0.101
187.500	14.217	0.101
187.600	0.414	0.101
187.700	10.514	0.101
187.800	24.469	0.101
187.900	19.044	0.101
188.000	13.396	0.101
188.100	12.282	0.101
188.200	20.822	0.101
188.300	22.776	0.101
188.400	7.083	0.101
188.500	15.523	0.101
188.600	13.700	0.101
188.700	20.563	0.101
188.800	17.438	0.101
188.900	6.224	0.101
189.000	10.295	0.101
189.100	12.135	0.101
189.200	9.806	0.101
189.300	5.255	0.101
189.400	14.749	0.101
189.500	16.247	0.101
189.600	11.970	0.101
189.700	9.852	0.101
189.800	14.627	0.101
189.900	10.095	0.101
190.000	12.788	0.101
190.100	22.829	0.101
190.200	19.278	0.101
190.300	17.320	0.101
190.400	8.444	0.101
190.500	20.438	0.101
190.600	3.152	0.101
190.700	11.070	0.101
190.800	20.526	0.101
190.900	20.682	0.101
191.000	11.554	0.101
191.100	9.967	0.101
191.200	16.457	0.101
191.300	11.823	0.101
191.400	17.207	0.101
191.500	12.860	0.101
191.600	21.677	0.101
191.700	10.858	0.101
191.800	21.875	0.101
191.900	6.437	0.101
192.000	19.518	0.101
192.100	12.092	0.101
192.200	18.749	0.101
192.300	12.187	0.101
192.400	9.544	0.101
192.500	21.573	0.101
192.600	15.074	0.101
192.700	26.383	0.101
192.800	12.054	0.101
192.900	20.496	0.101
193.000	11.585	0.101
193.100	21.492	0.101
193.200	7.990	0.101
193.300	15.443	0.101
193.400	17.821	0.101
193.500	26.567	0.101
193.600	19.780	0.101
193.700	14.358	0.101
193.800	19.582	0.101
193.900	20.227	0.101
194.000	14.207	0.101
194.100	8.641	0.101
194.200	17.827	0.101
194.300	16.166	0.101
194.400	35.832	0.101
194.500	24.452	0.101
194.600	23.115	0.101
194.700	12.981	0.101
194.800	15.790	0.101
194.900	22.214	0.101
195.000	39.700	0.101
195.100	24.184	0.101
195.200	18.460	0.101
195.300	27.268	0.101
195.400	29.156	0.101
195.500	11.690	0.101
195.600	21.685	0.101
195.700	25.022	0.101
195.800	24.137	0.101
195.900	23.531	0.101
196.000	25.686	0.101
196.100	17.736	0.101
196.200	26.317	0.101
196.300	22.423	0.101
196.400	17.348	0.101
196.500	16.871	0.101
196.600	27.539	0.101
196.700	34.840	0.101
196.800	16.742	0.101
196.900	29.397	0.101
197.000	16.356	0.101
197.100	14.172	0.101
197.200	6.704	0.101
197.300	20.509	0.101
197.400	43.945	0.101
197.500	35.363	0.101
197.600	30.009	0.101
197.700	21.170	0.101
197.800	22.000	0.101
197.900	25.785	0.101
198.000	20.752	0.101
198.100	21.339	0.101
198.200	34.141	0.101
198.300	14.497	0.101
198.400	41.615	0.101
198.500	24.705	0.101
198.600	19.816	0.101
198.700	32.214	0.101
198.800	14.390	0.101
198.900	28.517	0.101
199.000	32.690	0.101
199.100	20.591	0.101
199.200	29.169	0.101
199.300	21.461	0.101
199.400	17.860	0.101
199.500	12.604	0.101
199.600	20.504	0.101
199.700	28.715	0.101
199.800	24.429	0.101
199.900	32.802	0.101
200.000	28.504	0.101
200.100	14.740	0.101
200.200	29.926	0.101
200.300	30.372	0.101
200.400	35.814	0.101
200.500	28.948	0.101
200.600	15.812	0.101
200.700	24.217	0.101
200.800	12.587	0.101
200.900	21.784	0.101
201.000	30.919	0.101
201.100	14.900	0.101
201.200	37.632	0.101
201.300	38.207	0.101
201.400	35.858	0.101
201.500	23.426	0.101
201.600	20.100	0.101
201.700	33.316	0.101
201.800	24.752	0.101
201.900	34.891	0.101
202.000	26.431	0.101
202.100	12.811	0.101
202.200	34.144	0.101
202.300	14.893	0.101
202.400	22.746	0.101
202.500	36.357	0.101
202.600	34.035	0.101
202.700	46.862	0.101
202.800	29.769	0.101
202.900	42.836	0.101
203.000	46.158	0.101
203.100	30.281	0.101
203.200	28.613	0.101
203.300	36.800	0.101
203.400	19.340	0.101
203.500	16.972	0.101
203.600	43.413	0.101
203.700	30.962	0.101
203.800	39.102	0.101
203.900	28.931	0.101
204.000	28.105	0.101
204.100	30.105	0.101
204.200	21.749	0.101
204.300	34.081	0.101
204.400	30.862	0.101
204.500	35.579	0.101
204.600	32.217	0.101
204.700	31.236	0.101
204.800	33.851	0.101
204.900	34.131	0.101
205.000	25.467	0.101
205.100	34.283	0.101
205.200	24.535	0.101
205.300	35.883	0.101
205.400	47.120	0.101
205.500	33.489	0.101
205.600	27.808	0.101
205.700	31.623	0.101
205.800	28.082	0.101
205.900	25.855	0.101
206.000	29.311	0.101
206.100	37.797	0.101
206.200	36.836	0.101
206.300	35.534	0.101
206.400	19.683	0.101
206.500	41.699	0.101
206.600	25.913	0.101
206.700	30.596	0.101
206.800	34.208	0.101
206.900	33.513	0.101
207.000	34.349	0.101
207.100	25.999	0.101
207.200	24.897	0.101
207.300	41.516	0.101
207.400	35.247	0.101
207.500	38.122	0.101
207.600	44.034	0.101
207.700	31.212	0.101
207.800	27.474	0.101
207.900	28.408	0.101
208.000	29.786	0.101
208.100	24.697	0.101
208.200	45.937	0.101
208.300	33.173	0.101
208.400	43.093	0.101
208.500	31.838	0.101
208.600	33.640	0.101
208.700	47.451	0.101
208.800	39.023	0.101
208.900	35.121	0.101
209.000	29.628	0.101
209.100	35.248	0.101
209.200	27.994	0.101
209.300	37.405	0.101
209.400	34.639	0.101
209.500	25.800	0.101
209.600	27.797	0.101
209.700	28.333	0.101
209.800	40.974	0.101
209.900	38.146	0.101
210.000	43.758	0.101
210.100	27.797	0.101
210.200	47.854	0.101
210.300	24.177	0.101
210.400	34.090	0.101
210.500	24.852	0.101
210.600	42.901	0.101
210.700	44.937	0.101
210.800	27.782	0.101
210.900	36.863	0.101
211.000	34.467	0.101
211.100	36.875	0.101
211.200	32.572	0.101
211.300	42.279	0.101
211.400	51.304	0.101
211.500	37.545	0.101
211.600	50.281	0.101
211.700	23.202	0.101
211.800	27.905	0.101
211.900	26.132	0.101
212.000	38.112	0.101
212.100	42.609	0.101
212.200	43.829	0.101
212.300	29.006	0.101
212.400	47.072	0.101
212.500	48.091	0.101
212.600	32.960	0.101
212.700	46.289	0.101
212.800	33.669	0.101
212.900	28.814	0.101
213.000	35.054	0.101
213.100	31.727	0.101
213.200	30.740	0.101
213.300	46.359	0.101
213.400	36.858	0.101
213.500	35.942	0.101
213.600	44.190	0.101
213.700	44.328	0.101
213.800	39.768	0.101
213.900	24.956	0.101
214.000	35.878	0.101
214.100	55.838	0.101
214.200	34.561	0.101
214.300	29.074	0.101
214.400	34.084	0.101
214.500	40.566	0.101
214.600	44.540	0.101
214.700	42.502	0.101
214.800	49.473	0.101
214.900	30.583	0.101
215.000	44.886	0.101
215.100	43.779	0.101
215.200	37.406	0.101
215.300	37.159	0.101
215.400	37.982	0.101
215.500	30.515	0.101
215.600	33.834	0.101
215.700	31.067	0.101
215.800	48.678	0.101
215.900	40.908	0.101
216.000	33.931	0.101
216.100	43.682	0.101
216.200	38.350	0.101
216.300	26.892	0.101
216.400	33.734	0.101
216.500	41.388	0.101
216.600	33.447	0.101
216.700	34.939	0.101
216.800	38.949	0.101
216.900	35.554	0.101
217.000	40.478	0.101
217.100	43.418	0.101
217.200	50.668	0.101
217.300	36.138	0.101
217.400	48.418	0.101
217.500	43.420	0.101
217.600	39.558	0.101
217.700	48.262	0.101
217.800	29.350	0.101
217.900	45.103	0.101
218.000	41.781	0.101
218.100	31.915	0.101
218.200	26.595	0.101
218.300	26.529	0.101
218.400	40.738	0.101
218.500	45.958	0.101
218.600	41.801	0.101
218.700	41.265	0.101
218.800	30.162	0.101
218.900	34.446	0.101
219.000	46.558	0.101
219.100	29.901	0.101
219.200	47.603	0.101
219.300	41.237	0.101
219.400	40.387	0.101
219.500	35.607	0.101
219.600	27.241	0.101
219.700	42.406	0.101
219.800	34.232	0.101
219.900	36.919	0.101
220.000	36.601	0.101
220.100	43.185	0.101
220.200	42.613	0.101
220.300	34.068	0.101
220.400	34.509	0.101
220.500	30.071	0.101
220.600	43.927	0.101
220.700	43.937	0.101
220.800	32.702	0.101
220.900	31.744	0.101
221.000	32.595	0.101
221.100	34.467	0.101
221.200	43.057	0.101
221.300	48.411	0.101
221.400	47.936	0.101
221.500	41.362	0.101
221.600	43.399	0.101
221.700	33.165	0.101
221.800	39.628	0.101
221.900	38.107	0.101
222.000	34.782	0.101
222.100	30.349	0.101
222.200	43.183	0.101
222.300	51.606	0.101
222.400	42.185	0.101
222.500	35.349	0.101
222.600	37.387	0.101
222.700	38.720	0.101
222.800	35.691	0.101
222.900	35.747	0.101
223.000	35.272	0.101
223.100	36.182	0.101
223.200	39.285	0.101
223.300	54.490	0.101
223.400	39.976	0.101
223.500	41.291	0.101
223.600	41.183	0.101
223.700	45.871	0.101
223.800	26.469	0.101
223.900	42.873	0.101
224.000	39.279	0.101
224.100	36.770	0.101
224.200	46.194	0.101
224.300	34.027	0.101
224.400	58.001	0.101
224.500	31.580	0.101
224.600	37.802	0.101
224.700	34.556	0.101
224.800	40.205	0.101
224.900	43.553	0.101
225.000	39.224	0.101
225.100	34.787	0.101
225.200	41.653	0.101
225.300	52.723	0.101
225.400	45.038	0.101
225.500	39.204	0.101
225.600	48.704	0.101
225.700	35.196	0.101
225.800	31.509	0.101
225.900	43.571	0.101
226.000	36.829	0.101
226.100	37.972	0.101
226.200	43.042	0.101
226.300	20.234	0.101
226.400	24.489	0.101
226.500	38.247	0.101
226.600	41.964	0.101
226.700	38.153	0.101
226.800	52.626	0.101
226.900	50.572	0.101
227.000	40.701	0.101
227.100	31.953	0.101
227.200	45.032	0.101
227.300	43.584	0.101
227.400	36.712	0.101
227.500	34.774	0.101
227.600	33.067	0.101
227.700	36.470	0.101
227.800	47.568	0.101
227.900	43.429	0.101
228.000	46.402	0.101
228.100	41.393	0.101
228.200	44.481	0.101
228.300	39.752	0.101
228.400	26.448	0.101
228.500	46.449	0.101
228.600	36.051	0.101
228.700	30.341	0.101
228.800	40.771	0.101
228.900	49.840	0.101
229.000	33.912	0.101
229.100	38.004	0.101
229.200	29.741	0.101
229.300	43.166	0.101
229.400	39.809	0.101
229.500	51.547	0.101
229.600	38.348	0.101
229.700	39.857	0.101
229.800	41.823	0.101
229.900	36.888	0.101
230.000	40.135	0.101
230.100	49.163	0.101
230.200	40.242	0.101
230.300	30.873	0.101
230.400	51.135	0.101
230.500	36.875	0.101
230.600	40.779	0.101
230.700	36.713	0.101
230.800	36.285	0.101
230.900	42.150	0.101
231.000	47.056	0.101
231.100	34.827	0.101
231.200	35.258	0.101
231.300	38.558	0.101
231.400	52.305	0.101
231.500	36.766	0.101
231.600	39.945	0.101
231.700	41.521	0.101
231.800	41.137	0.101
231.900	35.742	0.101
232.000	34.967	0.101
232.100	34.868	0.101
232.200	41.596	0.101
232.300	46.702	0.101
232.400	29.497	0.101
232.500	44.233	0.101
232.600	45.964	0.101
232.700	33.634	0.101
232.800	37.993	0.101
232.900	40.163	0.101
233.000	34.515	0.101
233.100	44.784	0.101
233.200	46.035	0.101
233.300	41.137	0.101
233.400	33.316	0.101
233.500	46.647	0.101
233.600	43.736	0.101
233.700	38.320	0.101
233.800	40.799	0.101
233.900	43.411	0.101
234.000	38.217	0.101
234.100	34.759	0.101
234.200	38.429	0.101
234.300	34.151	0.101
234.400	47.574	0.101
234.500	53.574	0.101
234.600	46.148	0.101
234.700	43.087	0.101
234.800	36.334	0.101
234.900	38.229	0.101
235.000	33.718	0.101
235.100	41.227	0.101
235.200	41.507	0.101
235.300	41.361	0.101
235.400	42.560	0.101
235.500	35.579	0.101
235.600	48.109	0.101
235.700	26.109	0.101
235.800	52.800	0.101
235.900	42.599	0.101
236.000	42.614	0.101
236.100	35.267	0.101
236.200	31.846	0.101
236.300	44.476	0.101
236.400	39.471	0.101
236.500	33.656	0.101
236.600	42.215	0.101
236.700	24.715	0.101
236.800	35.709	0.101
236.900	53.146	0.101
237.000	28.462	0.101
237.100	46.885	0.101
237.200	42.944	0.101
237.300	39.917	0.101
237.400	47.306	0.101
237.500	44.192	0.101
237.600	21.448	0.101
237.700	36.737	0.101
237.800	51.911	0.101
237.900	32.145	0.101
238.000	35.532	0.101
238.100	42.848	0.101
238.200	49.006	0.101
238.300	43.943	0.101
238.400	32.087	0.101
238.500	33.493	0.101
238.600	47.542	0.101
238.700	35.308	0.101
238.800	32.606	0.101
238.900	54.355	0.101
239.000	41.550	0.101
239.100	38.841	0.101
239.200	53.881	0.101
239.300	50.615	0.101
239.400	48.190	0.101
239.500	53.078	0.101
239.600	36.940	0.101
239.700	39.284	0.101
239.800	43.968	0.101
239.900	48.498	0.101
240.000	25.950	0.101
240.100	39.996	0.101
240.200	45.515	0.101
240.300	44.542	0.101
240.400	42.639	0.101
240.500	44.420	0.101
240.600	21.689	0.101
240.700	41.081	0.101
240.800	24.605	0.101
240.900	27.665	0.101
241.000	18.955	0.101
241.100	31.233	0.101
241.200	38.392	0.101
241.300	32.436	0.101
241.400	24.422	0.101
241.500	29.758	0.101
241.600	25.515	0.101
241.700	27.008	0.101
241.800	25.331	0.101
241.900	15.622	0.101
242.000	23.481	0.101
242.100	24.085	0.101
242.200	28.417	0.101
242.300	20.272	0.101
242.400	20.619	0.101
242.500	20.435	0.101
242.600	18.386	0.101
242.700	12.229	0.101
242.800	18.685	0.101
242.900	25.334	0.101
243.000	14.824	0.101
243.100	13.849	0.101
243.200	16.198	0.101
243.300	15.012	0.101
243.400	20.256	0.101
243.500	11.164	0.101
243.600	22.322	0.101
243.700	19.053	0.101
243.800	24.582	0.101
243.900	16.860	0.101
244.000	25.134	0.101
244.100	18.858	0.101
244.200	15.584	0.101
244.300	7.858	0.101
244.400	13.401	0.101
244.500	10.024	0.101
244.600	18.940	0.101
244.700	27.424	0.101
244.800	16.067	0.101
244.900	20.221	0.101
245.000	2.343	0.101
245.100	18.025	0.101
245.200	16.306	0.101
245.300	10.740	0.101
245.400	15.173	0.101
245.500	12.615	0.101
245.600	5.267	0.101
245.700	16.627	0.101
245.800	12.580	0.101
245.900	8.856	0.101
246.000	9.246	0.101
246.100	12.513	0.101
246.200	9.359	0.101
246.300	7.117	0.101
246.400	8.382	0.101
246.500	20.080	0.101
246.600	8.975	0.101
246.700	14.353	0.101
246.800	9.325	0.101
246.900	6.244	0.101
247.000	11.991	0.101
247.100	25.372	0.101
247.200	12.878	0.101
247.300	8.575	0.101
247.400	9.616	0.101
247.500	18.700	0.101
247.600	1.029	0.101
247.700	5.496	0.101
247.800	21.135	0.101
247.900	7.144	0.101
248.000	14.043	0.101
248.100	11.877	0.101
248.200	17.029	0.101
248.300	2.183	0.101
248.400	0.560	0.101
248.500	13.525	0.101
248.600	-2.959	0.101
248.700	13.709	0.101
248.800	-7.737	0.101
248.900	6.642	0.101
249.000	20.017	0.101
249.100	-1.485	0.101
249.200	-0.769	0.101
249.300	11.280	0.101
249.400	-0.789	0.101
249.500	8.313	0.101
249.600	15.721	0.101
249.700	7.177	0.101
249.800	6.960	0.101
249.900	4.883	0.101
250.000	6.091	0.101
250.100	2.696	0.101
250.200	14.540	0.101
250.300	21.936	0.101
250.400	16.339	0.101
250.500	5.211	0.101
250.600	8.430	0.101
250.700	10.899	0.101
250.800	6.435	0.101
250.900	16.981	0.101
251.000	3.192	0.101
251.100	11.635	0.101
251.200	11.428	0.101
251.300	-0.309	0.101
251.400	6.241	0.101
251.500	22.589	0.101
251.600	8.264	0.101
251.700	-0.648	0.101
251.800	8.572	0.101
251.900	0.857	0.101
252.000	5.454	0.101
252.100	15.198	0.101
252.200	24.321	0.101
252.300	17.930	0.101
252.400	4.471	0.101
252.500	-8.379	0.101
252.600	10.316	0.101
252.700	12.820	0.101
252.800	-0.352	0.101
252.900	3.503	0.101
253.000	18.708	0.101
253.100	10.671	0.101
253.200	4.977	0.101
253.300	11.753	0.101
253.400	4.165	0.101
253.500	6.509	0.101
253.600	5.227	0.101
253.700	0.580	0.101
253.800	13.271	0.101
253.900	4.688	0.101
254.000	2.727	0.101
254.100	10.866	0.101
254.200	22.528	0.101
254.300	7.937	0.101
254.400	3.530	0.101
254.500	3.280	0.101
254.600	-0.259	0.101
254.700	12.735	0.101
254.800	15.446	0.101
254.900	4.675	0.101
255.000	-0.004	0.101
255.100	6.908	0.101
255.200	8.600	0.101
255.300	14.861	0.101
255.400	1.225	0.101
255.500	-1.346	0.101
255.600	-6.700	0.101
255.700	12.028	0.101
255.800	16.935	0.101
255.900	21.732	0.101
256.000	3.815	0.101
256.100	-1.207	0.101
256.200	9.705	0.101
256.300	-6.544	0.101
256.400	-4.721	0.101
256.500	11.930	0.101
256.600	1.961	0.101
256.700	12.014	0.101
256.800	-11.528	0.101
256.900	4.338	0.101
257.000	-4.435	0.101
257.100	1.868	0.101
257.200	2.942	0.101
257.300	5.381	0.101
257.400	9.548	0.101
257.500	-4.357	0.101
257.600	1.262	0.101
257.700	0.804	0.101
257.800	3.462	0.101
257.900	7.255	0.101
258.000	7.949	0.101
258.100	0.263	0.101
258.200	-1.993	0.101
258.300	12.204	0.101
258.400	1.316	0.101
258.500	-8.338	0.101
258.600	2.066	0.101
258.700	11.010	0.101
258.800	-3.594	0.101
258.900	-14.014	0.101
259.000	11.399	0.101
259.100	1.598	0.101
259.200	8.567	0.101
259.300	10.295	0.101
259.400	-7.997	0.101
259.500	9.016	0.101
259.600	0.745	0.101
259.700	-6.412	0.101
259.800	-3.408	0.101
259.900	-2.042	0.101
260.000	7.613	0.101
260.100	7.615	0.101
260.200	-6.395	0.101
260.300	-2.850	0.101
260.400	4.061	0.101
260.500	-6.065	0.101
260.600	7.642	0.101
260.700	4.389	0.101
260.800	-3.275	0.101
260.900	-4.869	0.101
261.000	-5.298	0.101
261.100	-7.344	0.101
261.200	-0.155	0.101
261.300	8.079	0.101
261.400	8.545	0.101
261.500	11.948	0.101
261.600	1.541	0.101
261.700	-7.744	0.101
261.800	-0.171	0.101
261.900	-5.313	0.101
262.000	-0.237	0.101
262.100	23.455	0.101
262.200	6.191	0.101
262.300	3.812	0.101
262.400	-7.921	0.101
262.500	-5.285	0.101
262.600	6.637	0.101
262.700	-6.908	0.101
262.800	-0.230	0.101
262.900	9.560	0.101
263.000	-9.494	0.101
263.100	3.610	0.101
263.200	-2.786	0.101
263.300	-7.456	0.101
263.400	-4.347	0.101
263.500	-10.727	0.101
263.600	5.495	0.101
263.700	-3.970	0.101
263.800	-7.219	0.101
263.900	9.232	0.101
264.000	0.247	0.101
264.100	-3.855	0.101
264.200	-6.774	0.101
264.300	-7.327	0.101
264.400	-11.939	0.101
264.500	-4.786	0.101
264.600	10.377	0.101
264.700	-9.445	0.101
264.800	0.393	0.101
264.900	4.740	0.101
265.000	-5.222	0.101
265.100	-6.781	0.101
265.200	-2.607	0.101
265.300	6.662	0.101
265.400	-0.775	0.101
265.500	-16.268	0.101
265.600	-17.779	0.101
265.700	-12.383	0.101
265.800	1.186	0.101
265.900	1.225	0.101
266.000	6.666	0.101
266.100	-0.105	0.101
266.200	4.099	0.101
266.300	-2.145	0.101
266.400	6.835	0.101
266.500	0.898	0.101
266.600	-12.330	0.101
266.700	-10.262	0.101
266.800	-8.809	0.101
266.900	-4.536	0.101
267.000	12.972	0.101
267.100	-1.446	0.101
267.200	-1.456	0.101
267.300	-18.963	0.101
267.400	-9.684	0.101
267.500	-13.717	0.101
267.600	-9.791	0.101
267.700	3.309	0.101
267.800	5.052	0.101
267.900	-7.682	0.101
268.000	4.575	0.101
268.100	-5.863	0.101
268.200	-6.239	0.101
268.300	-4.756	0.101
268.400	-10.027	0.101
268.500	-8.172	0.101
268.600	1.081	0.101
268.700	3.609	0.101
268.800	-7.017	0.101
268.900	-16.806	0.101
269.000	-4.859	0.101
269.100	4.343	0.101
269.200	-15.925	0.101
269.300	-20.952	0.101
269.400	-8.132	0.101
269.500	-0.349	0.101
269.600	-7.990	0.101
269.700	3.809	0.101
269.800	-11.042	0.101
269.900	-11.985	0.101
270.000	-0.443	0.101
270.100	-8.088	0.101
270.200	9.883	0.101
270.300	-1.964	0.101
270.400	-9.342	0.101
270.500	-6.519	0.101
270.600	-8.144	0.101
270.700	-3.498	0.101
270.800	-2.732	0.101
270.900	-8.343	0.101
271.000	-6.206	0.101
271.100	-5.219	0.101
271.200	-21.321	0.101
271.300	-16.990	0.101
271.400	-2.670	0.101
271.500	-4.640	0.101
271.600	-10.646	0.101
271.700	-18.226	0.101
271.800	1.618	0.101
271.900	1.936	0.101
272.000	-3.593	0.101
272.100	-6.070	0.101
272.200	-12.404	0.101
272.300	-18.450	0.101
272.400	-20.195	0.101
272.500	-4.991	0.101
272.600	-6.483	0.101
272.700	-20.561	0.101
272.800	-10.576	0.101
272.900	-21.672	0.101
273.000	-5.695	0.101
273.100	-0.491	0.101
273.200	-8.961	0.101
273.300	-20.609	0.101
273.400	-24.598	0.101
273.500	3.855	0.101
273.600	-16.136	0.101
273.700	-12.601	0.101
273.800	-6.938	0.101
273.900	0.588	0.101
274.000	-5.218	0.101
274.100	0.503	0.101
274.200	-21.605	0.101
274.300	-15.260	0.101
274.400	2.496	0.101
274.500	-5.705	0.101
274.600	-14.132	0.101
274.700	-1.021	0.101
274.800	-14.915	0.101
274.900	-17.700	0.101
275.000	-2.212	0.101
275.100	-1.945	0.101
275.200	-12.817	0.101
275.300	-11.456	0.101
275.400	-15.091	0.101
275.500	-8.306	0.101
275.600	-2.726	0.101
275.700	-17.452	0.101
275.800	2.210	0.101
275.900	-7.211	0.101
276.000	-16.845	0.101
276.100	-16.460	0.101
276.200	-5.198	0.101
276.300	-6.263	0.101
276.400	-16.058	0.101
276.500	-10.246	0.101
276.600	-11.218	0.101
276.700	0.255	0.101
276.800	-10.515	0.101
276.900	-21.526	0.101
277.000	-1.845	0.101
277.100	-1.887	0.101
277.200	-9.313	0.101
277.300	-8.584	0.101
277.400	-7.796	0.101
277.500	3.953	0.101
277.600	-13.543	0.101
277.700	-10.645	0.101
277.800	-2.611	0.101
277.900	-20.736	0.101
278.000	-8.114	0.101
278.100	-14.201	0.101
278.200	-7.733	0.101
278.300	-17.881	0.101
278.400	-23.855	0.101
278.500	-10.835	0.101
278.600	-10.586	0.101
278.700	-15.683	0.101
278.800	-7.236	0.101
278.900	-7.292	0.101
279.000	-16.764	0.101
279.100	-20.822	0.101
279.200	-20.328	0.101
279.300	-7.012	0.101
279.400	-10.548	0.101
279.500	-0.187	0.101
279.600	-10.507	0.101
279.700	-21.835	0.101
279.800	-14.114	0.101
279.900	-14.933	0.101
280.000	-8.071	0.101
280.100	-3.017	0.101
280.200	-24.543	0.101
280.300	-2.974	0.101
280.400	-8.753	0.101
280.500	-28.745	0.101
280.600	-18.183	0.101
280.700	-7.187	0.101
280.800	-17.838	0.101
280.900	-17.129	0.101
281.000	-12.817	0.101
281.100	-18.544	0.101
281.200	-11.784	0.101
281.300	0.426	0.101
281.400	-9.159	0.101
281.500	-16.447	0.101
281.600	-3.506	0.101
281.700	-5.142	0.101
281.800	-21.580	0.101
281.900	-7.488	0.101
282.000	-12.245	0.101
282.100	-10.969	0.101
282.200	-16.801	0.101
282.300	-15.223	0.101
282.400	-21.203	0.101
282.500	-12.228	0.101
282.600	-3.875	0.101
282.700	-17.810	0.101
282.800	-20.139	0.101
282.900	-15.329	0.101
283.000	-15.508	0.101
283.100	-10.210	0.101
283.200	-3.291	0.101
283.300	-18.784	0.101
283.400	-19.262	0.101
283.500	-12.358	0.101
283.600	-10.478	0.101
283.700	-14.087	0.101
283.800	-23.481	0.101
283.900	-1.305	0.101
284.000	-12.613	0.101
284.100	-13.803	0.101
284.200	-7.713	0.101
284.300	-11.245	0.101
284.400	-15.442	0.101
284.500	-20.866	0.101
284.600	-9.117	0.101
284.700	-4.617	0.101
284.800	-7.496	0.101
284.900	-8.510	0.101
285.000	-12.007	0.101
285.100	-12.383	0.101
285.200	-4.137	0.101
285.300	-1.142	0.101
285.400	-21.845	0.101
285.500	-17.209	0.101
285.600	-12.999	0.101
285.700	-19.197	0.101
285.800	-7.536	0.101
285.900	-20.437	0.101
286.000	-14.890	0.101
286.100	-16.791	0.101
286.200	4.876	0.101
286.300	-17.189	0.101
286.400	-13.360	0.101
286.500	-10.166	0.101
286.600	-6.499	0.101
286.700	-14.790	0.101
286.800	-8.612	0.101
286.900	-14.164	0.101
287.000	-14.636	0.101
287.100	-3.071	0.101
287.200	-13.768	0.101
287.300	-13.253	0.101
287.400	-17.761	0.101
287.500	-10.295	0.101
287.600	-10.941	0.101
287.700	-30.359	0.101
287.800	-7.892	0.101
287.900	-18.036	0.101
288.000	1.007	0.101
288.100	-19.859	0.101
288.200	-0.105	0.101
288.300	-18.864	0.101
288.400	-19.325	0.101
288.500	-20.494	0.101
288.600	-8.036	0.101
288.700	-3.508	0.101
288.800	-17.438	0.101
288.900	-19.543	0.101
289.000	-24.216	0.101
289.100	-13.707	0.101
289.200	-11.705	0.101
289.300	-9.994	0.101
289.400	-15.483	0.101
289.500	-27.657	0.101
289.600	-14.938	0.101
289.700	-15.630	0.101
289.800	2.372	0.101
289.900	-10.153	0.101
290.000	-6.240	0.101
290.100	-10.208	0.101
290.200	-12.578	0.101
290.300	-10.757	0.101
290.400	-19.331	0.101
290.500	-8.991	0.101
290.600	-27.294	0.101
290.700	-12.878	0.101
290.800	-10.475	0.101
290.900	-26.363	0.101
291.000	-6.527	0.101
291.100	-0.313	0.101
291.200	-6.294	0.101
291.300	-20.073	0.101
291.400	-11.651	0.101
291.500	-15.938	0.101
291.600	-15.481	0.101
291.700	-13.824	0.101
291.800	-25.888	0.101
291.900	-18.060	0.101
292.000	-10.240	0.101
292.100	-5.376	0.101
292.200	-10.209	0.101
292.300	-26.194	0.101
292.400	-15.811	0.101
292.500	-19.192	0.101
292.600	-5.343	0.101
292.700	-8.148	0.101
292.800	-18.484	0.101
292.900	-27.716	0.101
293.000	-16.456	0.101
293.100	-2.384	0.101
293.200	-13.512	0.101
293.300	-22.180	0.101
293.400	-18.541	0.101
293.500	-5.512	0.101
293.600	-17.159	0.101
293.700	-15.836	0.101
293.800	-9.765	0.101
293.900	-10.138	0.101
294.000	-16.281	0.101
294.100	-15.392	0.101
294.200	-12.700	0.101
294.300	-13.172	0.101
294.400	-13.924	0.101
294.500	0.679	0.101
294.600	-8.159	0.101
294.700	-8.823	0.101
294.800	-19.749	0.101
294.900	-24.316	0.101
295.000	-14.620	0.101
295.100	-2.969	0.101
295.200	1.367	0.101
295.300	-20.870	0.101
295.400	-14.770	0.101
295.500	-8.824	0.101
295.600	-13.604	0.101
295.700	-13.680	0.101
295.800	-23.084	0.101
295.900	-11.443	0.101
296.000	-19.112	0.101
296.100	-8.758	0.101
296.200	-8.194	0.101
296.300	-18.346	0.101
296.400	-8.081	0.101
296.500	-19.769	0.101
296.600	-12.663	0.101
296.700	-11.866	0.101
296.800	-20.774	0.101
296.900	-10.122	0.101
297.000	-13.230	0.101
297.100	-9.955	0.101
297.200	-10.446	0.101
297.300	-15.220	0.101
297.400	-17.659	0.101
297.500	-8.854	0.101
297.600	-16.383	0.101
297.700	-16.163	0.101
297.800	-8.466	0.101
297.900	-23.638	0.101
298.000	-19.412	0.101
298.100	-9.741	0.101
298.200	-33.242	0.101
298.300	-12.916	0.101
298.400	-15.773	0.101
298.500	-2.157	0.101
298.600	-11.220	0.101
298.700	-20.926	0.101
298.800	-11.082	0.101
298.900	-14.587	0.101
299.000	-23.190	0.101
299.100	-10.218	0.101
299.200	-12.686	0.101
299.300	-2.968	0.101
299.400	-12.055	0.101
299.500	-10.598	0.101
299.600	-9.071	0.101
299.700	-0.666	0.101
299.800	-17.445	0.101
299.900	-19.336	0.101
300.000	-32.658	0.101
300.100	-8.400	0.101
300.200	-24.271	0.101
300.300	-16.634	0.101
300.400	-16.490	0.101
300.500	-3.196	0.101
300.600	-25.256	0.101
300.700	-21.299	0.101
300.800	9.735	0.101
300.900	-16.857	0.101
301.000	-20.029	0.101
301.100	-14.667	0.101
301.200	-13.020	0.101
301.300	-15.258	0.101
301.400	-21.946	0.101
301.500	-4.455	0.101
301.600	-6.715	0.101
301.700	-9.522	0.101
301.800	-18.418	0.101
301.900	-24.566	0.101
302.000	-14.180	0.101
302.100	-11.437	0.101
302.200	-23.320	0.101
302.300	-21.537	0.101
302.400	-15.392	0.101
302.500	-13.881	0.101
302.600	-20.114	0.101
302.700	-12.032	0.101
302.800	-11.067	0.101
302.900	-23.570	0.101
303.000	-20.743	0.101
303.100	-5.717	0.101
303.200	-16.123	0.101
303.300	-6.377	0.101
303.400	-17.523	0.101
303.500	-14.920	0.101
303.600	-15.371	0.101
303.700	-2.284	0.101
303.800	-10.455	0.101
303.900	-4.617	0.101
304.000	-19.126	0.101
304.100	-4.322	0.101
304.200	-15.523	0.101
304.300	-21.704	0.101
304.400	-0.619	0.101
304.500	-2.600	0.101
304.600	-28.402	0.101
304.700	-30.463	0.101
304.800	-19.516	0.101
304.900	-16.723	0.101
305.000	-5.599	0.101
305.100	-24.347	0.101
305.200	-3.801	0.101
305.300	-4.811	0.101
305.400	-16.390	0.101
305.500	-10.938	0.101
305.600	-15.037	0.101
305.700	-18.900	0.101
305.800	-12.141	0.101
305.900	-5.028	0.101
306.000	-16.174	0.101
306.100	-6.606	0.101
306.200	-3.288	0.101
306.300	-16.066	0.101
306.400	-24.733	0.101
306.500	-17.834	0.101
306.600	-15.545	0.101
306.700	-7.963	0.101
306.800	-0.160	0.101
306.900	-24.551	0.101
307.000	-14.955	0.101
307.100	-18.895	0.101
307.200	-22.085	0.101
307.300	-26.250	0.101
307.400	-16.834	0.101
307.500	-13.555	0.101
307.600	-20.800	0.101
307.700	-10.553	0.101
307.800	-18.519	0.101
307.900	-12.815	0.101
308.000	-16.855	0.101
308.100	-4.932	0.101
308.200	-10.461	0.101
308.300	-24.238	0.101
308.400	-19.646	0.101
308.500	-12.984	0.101
308.600	-0.142	0.101
308.700	-14.293	0.101
308.800	-14.227	0.101
308.900	-13.735	0.101
309.000	-14.418	0.101
309.100	-13.227	0.101
309.200	-16.627	0.101
309.300	-23.806	0.101
309.400	-28.075	0.101
309.500	-10.567	0.101
309.600	-5.561	0.101
309.700	-4.815	0.101
309.800	-10.236	0.101
309.900	-3.369	0.101
310.000	-18.103	0.101
310.100	-24.581	0.101
310.200	-19.856	0.101
310.300	-22.383	0.101
310.400	-24.033	0.101
310.500	-5.620	0.101
310.600	-16.733	0.101
310.700	-9.345	0.101
310.800	-14.153	0.101
310.900	-9.118	0.101
311.000	0.734	0.101
311.100	-13.319	0.101
311.200	-14.561	0.101
311.300	-22.040	0.101
311.400	0.827	0.101
311.500	-7.504	0.101
311.600	-16.410	0.101
311.700	-11.821	0.101
311.800	-11.097	0.101
311.900	-13.784	0.101
312.000	-8.426	0.101
312.100	-19.400	0.101
312.200	-10.084	0.101
312.300	-19.661	0.101
312.400	-5.672	0.101
312.500	-12.107	0.101
312.600	-8.549	0.101
312.700	-10.365	0.101
312.800	-20.281	0.101
312.900	-22.662	0.101
313.000	-15.583	0.101
313.100	1.131	0.101
313.200	-10.424	0.101
313.300	-16.578	0.101
313.400	-21.402	0.101
313.500	-10.134	0.101
313.600	-14.576	0.101
313.700	-14.591	0.101
313.800	-14.785	0.101
313.900	-10.082	0.101
314.000	-13.222	0.101
314.100	2.371	0.101
314.200	-23.243	0.101
314.300	3.756	0.101
314.400	-16.782	0.101
314.500	-3.004	0.101
314.600	-4.992	0.101
314.700	-18.082	0.101
314.800	-26.614	0.101
314.900	-25.810	0.101
315.000	-16.228	0.101
315.100	-15.307	0.101
315.200	-8.670	0.101
315.300	-1.288	0.101
315.400	3.297	0.101
315.500	-9.713	0.101
315.600	-0.112	0.101
315.700	0.884	0.101
315.800	-12.087	0.101
315.900	-11.226	0.101
316.000	-6.659	0.101
316.100	-15.667	0.101
316.200	-24.962	0.101
316.300	-28.522	0.101
316.400	-12.036	0.101
316.500	-21.857	0.101
316.600	-21.906	0.101
316.700	-9.589	0.101
316.800	-8.245	0.101
316.900	-22.176	0.101
317.000	-15.376	0.101
317.100	-18.470	0.101
317.200	-12.115	0.101
317.300	-7.673	0.101
317.400	-10.645	0.101
317.500	-10.506	0.101
317.600	-21.151	0.101
317.700	-16.378	0.101
317.800	-11.367	0.101
317.900	-10.610	0.101
318.000	0.177	0.101
318.100	-6.370	0.101
318.200	-18.306	0.101
318.300	-32.330	0.101
318.400	-17.890	0.101
318.500	-3.937	0.101
318.600	-16.368	0.101
318.700	-7.130	0.101
318.800	-15.530	0.101
318.900	-11.521	0.101
319.000	-8.078	0.101
319.100	-11.954	0.101
319.200	-18.343	0.101
319.300	-8.525	0.101
319.400	-20.128	0.101
319.500	-10.820	0.101
319.600	-19.911	0.101
319.700	-9.016	0.101
319.800	-30.812	0.101
319.900	-3.349	0.101
320.000	-8.982	0.101
320.100	-22.674	0.101
320.200	-18.629	0.101
320.300	-27.952	0.101
320.400	-19.683	0.101
320.500	-16.993	0.101
320.600	-4.678	0.101
320.700	-26.196	0.101
320.800	-2.049	0.101
320.900	-19.520	0.101
321.000	-16.076	0.101
321.100	-22.211	0.101
321.200	-19.539	0.101
321.300	-4.409	0.101
321.400	-14.087	0.101
321.500	-15.660	0.101
321.600	-8.747	0.101
321.700	-9.057	0.101
321.800	-12.121	0.101
321.900	-6.364	0.101
322.000	-13.762	0.101
322.100	-8.284	0.101
322.200	-7.270	0.101
322.300	-19.905	0.101
322.400	-15.994	0.101
322.500	-16.237	0.101
322.600	-13.427	0.101
322.700	-21.375	0.101
322.800	-10.862	0.101
322.900	-3.756	0.101
323.000	-7.262	0.101
323.100	-15.772	0.101
323.200	-20.556	0.101
323.300	-12.399	0.101
323.400	-12.672	0.101
323.500	-2.160	0.101
323.600	-11.975	0.101
323.700	-14.181	0.101
323.800	-13.626	0.101
323.900	-14.544	0.101
324.000	-12.110	0.101
324.100	-18.110	0.101
324.200	-18.867	0.101
324.300	0.663	0.101
324.400	-10.017	0.101
324.500	-22.527	0.101
324.600	-15.013	0.101
324.700	-11.062	0.101
324.800	-13.636	0.101
324.900	-10.833	0.101
325.000	-18.395	0.101
325.100	-2.371	0.101
325.200	-21.273	0.101
325.300	-14.083	0.101
325.400	-7.689	0.101
325.500	-18.918	0.101
325.600	-8.076	0.101
325.700	-28.885	0.101
325.800	-16.039	0.101
325.900	-21.290	0.101
326.000	-7.585	0.101
326.100	-11.736	0.101
326.200	-4.941	0.101
326.300	-7.811	0.101
326.400	-8.984	0.101
326.500	-5.801	0.101
326.600	-12.093	0.101
326.700	-14.971	0.101
326.800	-31.744	0.101
326.900	-10.407	0.101
327.000	-10.630	0.101
327.100	-10.746	0.101
327.200	-18.375	0.101
327.300	-15.004	0.101
327.400	-5.631	0.101
327.500	-4.418	0.101
327.600	-18.694	0.101
327.700	-22.109	0.101
327.800	-12.338	0.101
327.900	-14.160	0.101
328.000	-18.056	0.101
328.100	-11.246	0.101
328.200	-19.111	0.101
328.300	-20.013	0.101
328.400	-1.895	0.101
328.500	-9.821	0.101
328.600	-2.458	0.101
328.700	-17.531	0.101
328.800	-20.781	0.101
328.900	-16.555	0.101
329.000	1.530	0.101
329.100	-17.598	0.101
329.200	-11.204	0.101
329.300	-14.372	0.101
329.400	-10.356	0.101
329.500	-7.437	0.101
329.600	-17.869	0.101
329.700	-16.113	0.101
329.800	-13.096	0.101
329.900	-14.015	0.101
330.000	-4.647	0.101
330.100	-10.418	0.101
330.200	-9.878	0.101
330.300	-21.581	0.101
330.400	-8.886	0.101
330.500	-17.322	0.101
330.600	-6.111	0.101
330.700	-5.681	0.101
330.800	-12.051	0.101
330.900	-8.524	0.101
331.000	11.306	0.101
331.100	-4.636	0.101
331.200	-15.701	0.101
331.300	0.081	0.101
331.400	-1.543	0.101
331.500	7.908	0.101
331.600	3.764	0.101
331.700	0.557	0.101
331.800	-4.702	0.101
331.900	5.160	0.101
332.000	-0.141	0.101
332.100	17.556	0.101
332.200	16.435	0.101
332.300	-9.156	0.101
332.400	0.905	0.101
332.500	7.616	0.101
332.600	-1.031	0.101
332.700	10.518	0.101
332.800	2.428	0.101
332.900	14.744	0.101
333.000	8.462	0.101
333.100	6.922	0.101
333.200	1.513	0.101
333.300	-1.059	0.101
333.400	13.477	0.101
333.500	17.083	0.101
333.600	18.183	0.101
333.700	8.085	0.101
333.800	1.908	0.101
333.900	-18.678	0.101
334.000	10.816	0.101
334.100	26.510	0.101
334.200	17.326	0.101
334.300	8.937	0.101
334.400	2.959	0.101
334.500	-3.951	0.101
334.600	18.280	0.101
334.700	15.323	0.101
334.800	6.014	0.101
334.900	5.091	0.101
335.000	4.875	0.101
335.100	-1.710	0.101
335.200	9.093	0.101
335.300	2.558	0.101
335.400	8.862	0.101
335.500	23.490	0.101
335.600	19.415	0.101
335.700	14.691	0.101
335.800	7.860	0.101
335.900	10.877	0.101
336.000	2.827	0.101
336.100	-0.027	0.101
336.200	16.494	0.101
336.300	0.889	0.101
336.400	9.642	0.101
336.500	4.118	0.101
336.600	10.575	0.101
336.700	8.486	0.101
336.800	6.311	0.101
336.900	14.581	0.101
337.000	-2.295	0.101
337.100	-1.928	0.101
337.200	17.161	0.101
337.300	13.147	0.101
337.400	22.531	0.101
337.500	5.434	0.101
337.600	0.798	0.101
337.700	3.198	0.101
337.800	11.519	0.101
337.900	16.018	0.101
338.000	12.120	0.101
338.100	3.165	0.101
338.200	0.232	0.101
338.300	3.795	0.101
338.400	14.711	0.101
338.500	18.693	0.101
338.600	1.437	0.101
338.700	9.067	0.101
338.800	10.728	0.101
338.900	5.134	0.101
339.000	16.300	0.101
339.100	20.166	0.101
339.200	11.313	0.101
339.300	5.974	0.101
339.400	0.034	0.101
339.500	16.507	0.101
339.600	18.236	0.101
339.700	8.231	0.101
339.800	-2.257	0.101
339.900	17.593	0.101
340.000	10.831	0.101
340.100	6.391	0.101
340.200	12.746	0.101
340.300	20.622	0.101
340.400	19.741	0.101
340.500	18.476	0.101
340.600	-0.260	0.101
340.700	10.014	0.101
340.800	22.011	0.101
340.900	10.926	0.101
341.000	3.291	0.101
341.100	22.218	0.101
341.200	21.016	0.101
341.300	15.402	0.101
341.400	21.965	0.101
341.500	19.864	0.101
341.600	2.809	0.101
341.700	14.799	0.101
341.800	24.531	0.101
341.900	17.444	0.101
342.000	12.762	0.101
342.100	17.873	0.101
342.200	10.776	0.101
342.300	23.322	0.101
342.400	6.788	0.101
342.500	17.721	0.101
342.600	9.878	0.101
342.700	6.096	0.101
342.800	17.694	0.101
342.900	17.709	0.101
343.000	13.939	0.101
343.100	4.387	0.101
343.200	24.043	0.101
343.300	16.711	0.101
343.400	26.101	0.101
343.500	16.400	0.101
343.600	4.863	0.101
343.700	23.831	0.101
343.800	19.846	0.101
343.900	13.411	0.101
344.000	10.635	0.101
344.100	10.364	0.101
344.200	6.235	0.101
344.300	22.359	0.101
344.400	25.445	0.101
344.500	17.358	0.101
344.600	25.287	0.101
344.700	21.974	0.101
344.800	13.224	0.101
344.900	18.951	0.101
345.000	19.183	0.101
345.100	27.788	0.101
345.200	24.083	0.101
345.300	26.128	0.101
345.400	24.889	0.101
345.500	24.401	0.101
345.600	14.024	0.101
345.700	21.101	0.101
345.800	26.410	0.101
345.900	16.309	0.101
346.000	22.709	0.101
346.100	10.841	0.101
346.200	27.013	0.101
346.300	14.654	0.101
346.400	36.279	0.101
346.500	20.934	0.101
346.600	21.462	0.101
346.700	30.775	0.101
346.800	22.074	0.101
346.900	17.927	0.101
347.000	11.025	0.101
347.100	25.328	0.101
347.200	14.305	0.101
347.300	27.062	0.101
347.400	23.150	0.101
347.500	20.101	0.101
347.600	24.193	0.101
347.700	7.776	0.101
347.800	29.441	0.101
347.900	28.296	0.101
348.000	23.908	0.101
348.100	10.383	0.101
348.200	19.624	0.101
348.300	30.604	0.101
348.400	15.809	0.101
348.500	41.857	0.101
348.600	27.171	0.101
348.700	12.332	0.101
348.800	23.032	0.101
348.900	13.963	0.101
349.000	11.935	0.101
349.100	25.327	0.101
349.200	29.597	0.101
349.300	25.375	0.101
349.400	19.836	0.101
349.500	28.466	0.101
349.600	35.955	0.101
349.700	30.432	0.101
349.800	23.603	0.101
349.900	33.034	0.101
350.000	36.999	0.101
350.100	23.471	0.101
350.200	30.353	0.101
350.300	18.840	0.101
350.400	21.481	0.101
350.500	32.205	0.101
350.600	19.869	0.101
350.700	28.551	0.101
350.800	30.582	0.101
350.900	31.755	0.101
351.000	29.688	0.101
351.100	29.113	0.101
351.200	28.535	0.101
351.300	29.081	0.101
351.400	26.417	0.101
351.500	29.167	0.101
351.600	27.578	0.101
351.700	25.450	0.101
351.800	30.859	0.101
351.900	31.067	0.101
352.000	27.543	0.101
352.100	26.017	0.101
352.200	34.326	0.101
352.300	42.914	0.101
352.400	27.959	0.101
352.500	35.038	0.101
352.600	35.712	0.101
352.700	24.283	0.101
352.800	31.697	0.101
352.900	31.084	0.101
353.000	28.090	0.101
353.100	31.536	0.101
353.200	17.696	0.101
353.300	32.317	0.101
353.400	32.234	0.101
353.500	39.914	0.101
353.600	11.648	0.101
353.700	33.538	0.101
353.800	37.778	0.101
353.900	23.643	0.101
354.000	43.903	0.101
354.100	28.927	0.101
354.200	26.285	0.101
354.300	41.893	0.101
354.400	39.549	0.101
354.500	24.162	0.101
354.600	35.164	0.101
354.700	30.021	0.101
354.800	28.071	0.101
354.900	38.268	0.101
355.000	14.762	0.101
355.100	25.341	0.101
355.200	31.065	0.101
355.300	44.358	0.101
355.400	37.141	0.101
355.500	37.185	0.101
355.600	26.677	0.101
355.700	40.861	0.101
355.800	32.332	0.101
355.900	30.829	0.101
356.000	41.126	0.101
356.100	30.426	0.101
356.200	25.023	0.101
356.300	25.293	0.101
356.400	35.950	0.101
356.500	37.612	0.101
356.600	48.820	0.101
356.700	27.118	0.101
356.800	35.019	0.101
356.900	51.251	0.101
357.000	44.914	0.101
357.100	30.395	0.101
357.200	41.234	0.101
357.300	26.251	0.101
357.400	29.630	0.101
357.500	30.109	0.101
357.600	37.523	0.101
357.700	42.650	0.101
357.800	49.613	0.101
357.900	38.715	0.101
358.000	12.803	0.101
358.100	29.222	0.101
358.200	41.408	0.101
358.300	35.357	0.101
358.400	21.491	0.101
358.500	26.793	0.101
358.600	38.778	0.101
358.700	34.689	0.101
358.800	46.623	0.101
358.900	36.491	0.101
359.000	35.691	0.101
359.100	43.293	0.101
359.200	42.741	0.101
359.300	31.346	0.101
359.400	37.520	0.101
359.500	27.228	0.101
359.600	38.889	0.101
359.700	48.545	0.101
359.800	27.960	0.101
359.900	46.044	0.101
360.000	32.245	0.101
360.100	45.617	0.101
360.200	37.322	0.101
360.300	34.417	0.101
360.400	21.238	0.101
360.500	35.277	0.101
360.600	30.128	0.101
360.700	40.892	0.101
360.800	32.836	0.101
360.900	44.940	0.101
361.000	40.003	0.101
361.100	27.306	0.101
361.200	42.831	0.101
361.300	39.935	0.101
361.400	44.435	0.101
361.500	38.517	0.101
361.600	31.534	0.101
361.700	29.753	0.101
361.800	51.545	0.101
361.900	28.423	0.101
362.000	27.690	0.101
362.100	43.469	0.101
362.200	44.429	0.101
362.300	40.024	0.101
362.400	47.227	0.101
362.500	42.313	0.101
362.600	39.401	0.101
362.700	43.788	0.101
362.800	17.152	0.101
362.900	29.853	0.101
363.000	45.272	0.101
363.100	36.348	0.101
363.200	30.084	0.101
363.300	38.524	0.101
363.400	36.196	0.101
363.500	45.036	0.101
363.600	42.613	0.101
363.700	33.478	0.101
363.800	46.974	0.101
363.900	49.593	0.101
364.000	36.896	0.101
364.100	29.775	0.101
364.200	46.077	0.101
364.300	28.121	0.101
364.400	43.521	0.101
364.500	36.365	0.101
364.600	44.083	0.101
364.700	32.147	0.101
364.800	34.560	0.101
364.900	44.954	0.101
365.000	37.471	0.101
365.100	39.360	0.101
365.200	33.174	0.101
365.300	31.061	0.101
365.400	36.716	0.101
365.500	36.108	0.101
365.600	36.737	0.101
365.700	44.059	0.101
365.800	58.002	0.101
365.900	39.498	0.101
366.000	40.360	0.101
366.100	41.981	0.101
366.200	36.387	0.101
366.300	32.623	0.101
366.400	40.194	0.101
366.500	39.810	0.101
366.600	60.585	0.101
366.700	44.648	0.101
366.800	42.406	0.101
366.900	35.316	0.101
367.000	35.939	0.101
367.100	36.296	0.101
367.200	49.288	0.101
367.300	35.823	0.101
367.400	23.483	0.101
367.500	43.271	0.101
367.600	48.132	0.101
367.700	40.418	0.101
367.800	39.034	0.101
367.900	31.145	0.101
368.000	42.845	0.101
368.100	42.897	0.101
368.200	37.842	0.101
368.300	51.433	0.101
368.400	35.394	0.101
368.500	35.927	0.101
368.600	36.175	0.101
368.700	42.892	0.101
368.800	42.231	0.101
368.900	26.851	0.101
369.000	35.896	0.101
369.100	31.849	0.101
369.200	49.201	0.101
369.300	39.337	0.101
369.400	43.839	0.101
369.500	41.179	0.101
369.600	33.616	0.101
369.700	34.391	0.101
369.800	52.767	0.101
369.900	30.751	0.101
370.000	39.911	0.101
370.100	40.381	0.101
370.200	38.875	0.101
370.300	34.459	0.101
370.400	38.952	0.101
370.500	21.004	0.101
370.600	32.446	0.101
370.700	46.266	0.101
370.800	45.544	0.101
370.900	36.741	0.101
371.000	46.023	0.101
371.100	47.160	0.101
371.200	30.715	0.101
371.300	25.153	0.101
371.400	44.838	0.101
371.500	37.997	0.101
371.600	40.546	0.101
371.700	40.665	0.101
371.800	36.717	0.101
371.900	34.869	0.101
372.000	36.862	0.101
372.100	39.113	0.101
372.200	37.829	0.101
372.300	57.961	0.101
372.400	47.613	0.101
372.500	30.099	0.101
372.600	33.350	0.101
372.700	60.574	0.101
372.800	32.220	0.101
372.900	29.825	0.101
373.000	43.862	0.101
373.100	44.122	0.101
373.200	29.871	0.101
373.300	54.058	0.101
373.400	37.062	0.101
373.500	33.209	0.101
373.600	37.527	0.101
373.700	53.338	0.101
373.800	36.888	0.101
373.900	43.628	0.101
374.000	32.615	0.101
374.100	39.094	0.101
374.200	35.072	0.101
374.300	54.774	0.101
374.400	43.746	0.101
374.500	31.338	0.101
374.600	34.199	0.101
374.700	52.481	0.101
374.800	41.139	0.101
374.900	37.242	0.101
375.000	38.331	0.101
375.100	32.598	0.101
375.200	35.264	0.101
375.300	52.674	0.101
375.400	48.896	0.101
375.500	33.341	0.101
375.600	51.833	0.101
375.700	37.999	0.101
375.800	38.514	0.101
375.900	42.769	0.101
376.000	38.248	0.101
376.100	50.090	0.101
376.200	40.209	0.101
376.300	42.429	0.101
376.400	48.647	0.101
376.500	52.087	0.101
376.600	47.068	0.101
376.700	32.252	0.101
376.800	45.901	0.101
376.900	45.854	0.101
377.000	42.081	0.101
377.100	39.949	0.101
377.200	33.460	0.101
377.300	42.531	0.101
377.400	39.338	0.101
377.500	29.292	0.101
377.600	34.670	0.101
377.700	32.056	0.101
377.800	55.338	0.101
377.900	42.850	0.101
378.000	40.108	0.101
378.100	40.743	0.101
378.200	50.611	0.101
378.300	40.525	0.101
378.400	41.193	0.101
378.500	48.987	0.101
378.600	42.751	0.101
378.700	36.391	0.101
378.800	41.498	0.101
378.900	60.446	0.101
379.000	48.995	0.101
379.100	30.295	0.101
379.200	39.251	0.101
379.300	43.764	0.101
379.400	45.394	0.101
379.500	41.679	0.101
379.600	27.297	0.101
379.700	43.926	0.101
379.800	37.506	0.101
379.900	36.499	0.101
380.000	39.751	0.101
380.100	32.545	0.101
380.200	38.948	0.101
380.300	24.825	0.101
380.400	39.621	0.101
380.500	40.746	0.101
380.600	58.264	0.101
380.700	37.339	0.101
380.800	36.853	0.101
380.900	38.320	0.101
381.000	28.530	0.101
381.100	44.125	0.101
381.200	46.607	0.101
381.300	33.138	0.101
381.400	43.266	0.101
381.500	36.348	0.101
381.600	45.974	0.101
381.700	41.271	0.101
381.800	34.924	0.101
381.900	40.825	0.101
382.000	45.021	0.101
382.100	48.196	0.101
382.200	32.859	0.101
382.300	45.728	0.101
382.400	43.168	0.101
382.500	31.041	0.101
382.600	44.514	0.101
382.700	37.098	0.101
382.800	41.604	0.101
382.900	42.876	0.101
383.000	41.166	0.101
383.100	37.088	0.101
383.200	32.935	0.101
383.300	45.704	0.101
383.400	44.475	0.101
383.500	46.863	0.101
383.600	42.102	0.101
383.700	35.531	0.101
383.800	42.940	0.101
383.900	29.573	0.101
384.000	48.541	0.101
384.100	33.310	0.101
384.200	35.608	0.101
384.300	35.046	0.101
384.400	41.095	0.101
384.500	52.624	0.101
384.600	48.364	0.101
384.700	39.327	0.101
384.800	38.607	0.101
384.900	28.531	0.101
385.000	28.558	0.101
385.100	49.562	0.101
385.200	42.993	0.101
385.300	38.126	0.101
385.400	41.789	0.101
385.500	43.148	0.101
385.600	53.902	0.101
385.700	42.763	0.101
385.800	49.425	0.101
385.900	35.403	0.101
386.000	42.904	0.101
386.100	37.452	0.101
386.200	39.225	0.101
386.300	53.200	0.101
386.400	36.429	0.101
386.500	44.932	0.101
386.600	47.676	0.101
386.700	27.300	0.101
386.800	36.108	0.101
386.900	35.534	0.101
387.000	35.233	0.101
387.100	37.753	0.101
387.200	44.521	0.101
387.300	46.694	0.101
387.400	42.994	0.101
387.500	36.041	0.101
387.600	35.576	0.101
387.700	48.070	0.101
387.800	30.603	0.101
387.900	38.287	0.101
388.000	48.316	0.101
388.100	43.369	0.101
388.200	38.558	0.101
388.300	42.110	0.101
388.400	34.550	0.101
388.500	34.316	0.101
388.600	38.610	0.101
388.700	46.742	0.101
388.800	38.363	0.101
388.900	30.975	0.101
389.000	39.165	0.101
389.100	35.960	0.101
389.200	42.206	0.101
389.300	36.308	0.101
389.400	38.159	0.101
389.500	20.452	0.101
389.600	60.367	0.101
389.700	52.971	0.101
389.800	42.143	0.101
389.900	29.991	0.101
390.000	44.949	0.101
390.100	37.133	0.101
390.200	37.204	0.101
390.300	33.553	0.101
390.400	50.879	0.101
390.500	50.306	0.101
390.600	29.555	0.101
390.700	36.436	0.101
390.800	39.388	0.101
390.900	27.468	0.101
391.000	30.516	0.101
391.100	23.839	0.101
391.200	33.189	0.101
391.300	41.746	0.101
391.400	46.131	0.101
391.500	22.883	0.101
391.600	28.215	0.101
391.700	23.380	0.101
391.800	21.239	0.101
391.900	21.845	0.101
392.000	22.008	0.101
392.100	22.031	0.101
392.200	25.863	0.101
392.300	15.775	0.101
392.400	15.992	0.101
392.500	15.569	0.101
392.600	7.295	0.101
392.700	3.832	0.101
392.800	30.957	0.101
392.900	15.154	0.101
393.000	28.351	0.101
393.100	12.088	0.101
393.200	25.834	0.101
393.300	18.613	0.101
393.400	26.137	0.101
393.500	9.582	0.101
393.600	22.432	0.101
393.700	12.144	0.101
393.800	19.704	0.101
393.900	17.756	0.101
394.000	10.616	0.101
394.100	8.942	0.101
394.200	6.695	0.101
394.300	14.979	0.101
394.400	3.755	0.101
394.500	12.105	0.101
394.600	12.864	0.101
394.700	9.426	0.101
394.800	11.304	0.101
394.900	11.517	0.101
395.000	16.380	0.101
395.100	9.497	0.101
395.200	8.024	0.101
395.300	10.385	0.101
395.400	17.320	0.101
395.500	14.578	0.101
395.600	-3.660	0.101
395.700	16.291	0.101
395.800	1.429	0.101
395.900	10.780	0.101
396.000	19.734	0.101
396.100	14.363	0.101
396.200	1.067	0.101
396.300	16.771	0.101
396.400	2.090	0.101
396.500	12.779	0.101
396.600	10.302	0.101
396.700	9.007	0.101
396.800	12.217	0.101
396.900	2.636	0.101
397.000	-2.931	0.101
397.100	7.111	0.101
397.200	10.767	0.101
397.300	13.049	0.101
397.400	12.211	0.101
397.500	11.439	0.101
397.600	13.056	0.101
397.700	11.731	0.101
397.800	17.810	0.101
397.900	17.117	0.101
398.000	5.585	0.101
398.100	12.115	0.101
398.200	4.262	0.101
398.300	7.205	0.101
398.400	6.761	0.101
398.500	4.703	0.101
398.600	3.466	0.101
398.700	16.272	0.101
398.800	2.771	0.101
398.900	21.465	0.101
399.000	14.157	0.101
399.100	-3.490	0.101
399.200	12.246	0.101
399.300	10.672	0.101
399.400	10.315	0.101
399.500	10.118	0.101
399.600	-1.147	0.101
399.700	-1.257	0.101
399.800	19.115	0.101
399.900	3.695	0.101
400.000	-1.190	0.101
400.100	16.090	0.101
400.200	12.534	0.101
400.300	4.618	0.101
400.400	4.295	0.101
400.500	3.457	0.101
400.600	8.549	0.101
400.700	12.183	0.101
400.800	16.562	0.101
400.900	11.922	0.101
401.000	5.347	0.101
401.100	7.344	0.101
401.200	9.515	0.101
401.300	-6.295	0.101
401.400	11.442	0.101
401.500	23.227	0.101
401.600	5.969	0.101
401.700	1.277	0.101
401.800	-7.355	0.101
401.900	5.244	0.101
402.000	12.408	0.101
402.100	13.501	0.101
402.200	10.567	0.101
402.300	18.807	0.101
402.400	-2.295	0.101
402.500	-6.276	0.101
402.600	5.099	0.101
402.700	5.705	0.101
402.800	14.120	0.101
402.900	3.141	0.101
403.000	2.444	0.101
403.100	3.112	0.101
403.200	-7.127	0.101
403.300	12.701	0.101
403.400	21.640	0.101
403.500	-0.427	0.101
403.600	9.814	0.101
403.700	6.414	0.101
403.800	-2.656	0.101
403.900	8.917	0.101
404.000	2.253	0.101
404.100	5.740	0.101
404.200	1.248	0.101
404.300	7.831	0.101
404.400	7.204	0.101
404.500	15.524	0.101
404.600	8.436	0.101
404.700	7.127	0.101
404.800	0.283	0.101
404.900	6.543	0.101
405.000	2.525	0.101
405.100	-6.824	0.101
405.200	1.445	0.101
405.300	0.329	0.101
405.400	-0.647	0.101
405.500	2.397	0.101
405.600	16.268	0.101
405.700	-10.095	0.101
405.800	6.575	0.101
405.900	4.828	0.101
406.000	12.385	0.101
406.100	8.963	0.101
406.200	-2.259	0.101
406.300	4.535	0.101
406.400	6.658	0.101
406.500	0.798	0.101
406.600	-9.713	0.101
406.700	-3.592	0.101
406.800	8.811	0.101
406.900	4.217	0.101
407.000	2.442	0.101
407.100	-1.392	0.101
407.200	5.666	0.101
407.300	15.179	0.101
407.400	6.702	0.101
407.500	-2.257	0.101
407.600	8.576	0.101
407.700	-6.743	0.101
407.800	-0.727	0.101
407.900	9.536	0.101
408.000	0.815	0.101
408.100	-0.272	0.101
408.200	4.601	0.101
408.300	2.232	0.101
408.400	0.767	0.101
408.500	-9.880	0.101
408.600	-2.187	0.101
408.700	-5.517	0.101
408.800	-2.410	0.101
408.900	-3.829	0.101
409.000	-10.224	0.101
409.100	6.110	0.101
409.200	-3.673	0.101
409.300	8.259	0.101
409.400	-5.376	0.101
409.500	11.823	0.101
409.600	5.046	0.101
409.700	-7.663	0.101
409.800	-2.323	0.101
409.900	12.599	0.101
410.000	3.543	0.101
410.100	-5.026	0.101
410.200	-13.161	0.101
410.300	5.274	0.101
410.400	4.292	0.101
410.500	2.412	0.101
410.600	-7.553	0.101
410.700	4.002	0.101
410.800	-5.655	0.101
410.900	-12.753	0.101
411.000	-2.872	0.101
411.100	-9.575	0.101
411.200	4.365	0.101
411.300	2.702	0.101
411.400	-7.015	0.101
411.500	-2.905	0.101
411.600	-9.969	0.101
411.700	-0.750	0.101
411.800	9.708	0.101
411.900	-4.706	0.101
412.000	7.560	0.101
412.100	-5.147	0.101
412.200	-5.054	0.101
412.300	-0.692	0.101
412.400	-5.666	0.101
412.500	-1.989	0.101
412.600	5.537	0.101
412.700	2.028	0.101
412.800	-4.531	0.101
412.900	-7.454	0.101
413.000	2.846	0.101
413.100	-7.529	0.101
413.200	2.383	0.101
413.300	-7.380	0.101
413.400	-1.996	0.101
413.500	-4.806	0.101
413.600	4.342	0.101
413.700	3.424	0.101
413.800	5.055	0.101
413.900	-5.522	0.101
414.000	-5.132	0.101
414.100	2.406	0.101
414.200	-7.340	0.101
414.300	-4.333	0.101
414.400	-1.622	0.101
414.500	-1.237	0.101
414.600	-3.630	0.101
414.700	-7.039	0.101
414.800	-3.119	0.101
414.900	-6.180	0.101
415.000	-10.508	0.101
415.100	-6.172	0.101
415.200	-13.565	0.101
415.300	-10.354	0.101
415.400	-13.492	0.101
415.500	-7.390	0.101
415.600	2.297	0.101
415.700	-9.745	0.101
415.800	-5.541	0.101
415.900	-15.337	0.101
416.000	-11.883	0.101
416.100	-8.882	0.101
416.200	-9.722	0.101
416.300	-2.570	0.101
416.400	1.140	0.101
416.500	-5.179	0.101
416.600	-11.147	0.101
416.700	-6.641	0.101
416.800	-2.719	0.101
416.900	-6.287	0.101
417.000	-12.009	0.101
417.100	-2.994	0.101
417.200	-3.542	0.101
417.300	-11.248	0.101
417.400	-18.263	0.101
417.500	-6.286	0.101
417.600	-1.029	0.101
417.700	2.095	0.101
417.800	-9.743	0.101
417.900	-1.302	0.101
418.000	-4.070	0.101
418.100	-14.958	0.101
418.200	-16.228	0.101
418.300	-4.462	0.101
418.400	-6.940	0.101
418.500	-2.888	0.101
418.600	-14.373	0.101
418.700	-10.913	0.101
418.800	-9.692	0.101
418.900	-4.711	0.101
419.000	-12.163	0.101
419.100	-5.158	0.101
419.200	-1.585	0.101
419.300	-19.374	0.101
419.400	-1.929	0.101
419.500	1.051	0.101
419.600	-11.720	0.101
419.700	-7.954	0.101
419.800	-5.286	0.101
419.900	-6.063	0.101
420.000	-1.669	0.101
420.100	-6.039	0.101
420.200	-17.578	0.101
420.300	-11.794	0.101
420.400	-14.301	0.101
420.500	-5.946	0.101
420.600	-5.544	0.101
420.700	-20.493	0.101
420.800	-10.341	0.101
420.900	-12.182	0.101
421.000	-16.512	0.101
421.100	-15.603	0.101
421.200	5.841	0.101
421.300	-9.652	0.101
421.400	-11.108	0.101
421.500	2.277	0.101
421.600	-9.840	0.101
421.700	-16.355	0.101
421.800	-24.603	0.101
421.900	-13.202	0.101
422.000	-19.548	0.101
422.100	-14.044	0.101
422.200	-11.417	0.101
422.300	-4.781	0.101
422.400	-14.740	0.101
422.500	-9.841	0.101
422.600	-9.736	0.101
422.700	-18.050	0.101
422.800	14.683	0.101
422.900	-12.235	0.101
423.000	-11.190	0.101
423.100	-5.607	0.101
423.200	-16.643	0.101
423.300	-19.937	0.101
423.400	-9.945	0.101
423.500	-9.390	0.101
423.600	-6.434	0.101
423.700	-13.923	0.101
423.800	-21.137	0.101
423.900	-7.804	0.101
424.000	-9.824	0.101
424.100	-18.077	0.101
424.200	-13.055	0.101
424.300	-9.901	0.101
424.400	-15.966	0.101
424.500	-18.757	0.101
424.600	-12.218	0.101
424.700	-17.839	0.101
424.800	-12.834	0.101
424.900	5.118	0.101
425.000	-14.115	0.101
425.100	-13.633	0.101
425.200	-6.490	0.101
425.300	-7.148	0.101
425.400	-22.302	0.101
425.500	-13.223	0.101
425.600	-22.838	0.101
425.700	-11.875	0.101
425.800	-17.630	0.101
425.900	-16.389	0.101
426.000	-21.287	0.101
426.100	-9.719	0.101
426.200	-5.971	0.101
426.300	-24.568	0.101
426.400	-7.208	0.101
426.500	-17.308	0.101
426.600	-1.126	0.101
426.700	-17.727	0.101
426.800	-10.088	0.101
426.900	-15.266	0.101
427.000	-23.734	0.101
427.100	-30.168	0.101
427.200	-6.062	0.101
427.300	-18.297	0.101
427.400	-16.342	0.101
427.500	-8.898	0.101
427.600	-6.214	0.101
427.700	-16.420	0.101
427.800	-17.525	0.101
427.900	-8.591	0.101
428.000	-22.216	0.101
428.100	-22.144	0.101
428.200	-17.733	0.101
428.300	-22.927	0.101
428.400	-16.421	0.101
428.500	-21.755	0.101
428.600	-13.466	0.101
428.700	-8.329	0.101
428.800	-22.999	0.101
428.900	-20.252	0.101
429.000	-4.647	0.101
429.100	-13.042	0.101
429.200	-15.488	0.101
429.300	-17.291	0.101
429.400	-20.256	0.101
429.500	-24.695	0.101
429.600	-16.307	0.101
429.700	-10.329	0.101
429.800	-5.112	0.101
429.900	-14.743	0.101
430.000	-3.981	0.101
430.100	-21.082	0.101
430.200	-4.999	0.101
430.300	-0.606	0.101
430.400	-11.924	0.101
430.500	-19.977	0.101
430.600	-17.921	0.101
430.700	-21.097	0.101
430.800	-2.809	0.101
430.900	-15.207	0.101
431.000	-16.836	0.101
431.100	-12.379	0.101
431.200	-15.456	0.101
431.300	-16.234	0.101
431.400	-16.568	0.101
431.500	-16.818	0.101
431.600	-10.881	0.101
431.700	-14.342	0.101
431.800	-21.125	0.101
431.900	-5.967	0.101
432.000	-9.919	0.101
432.100	-25.629	0.101
432.200	-17.907	0.101
432.300	-16.558	0.101
432.400	-18.002	0.101
432.500	-8.081	0.101
432.600	-6.856	0.101
432.700	-20.206	0.101
432.800	-21.339	0.101
432.900	-9.296	0.101
433.000	-15.656	0.101
433.100	-16.639	0.101
433.200	-19.075	0.101
433.300	-20.952	0.101
433.400	-12.498	0.101
433.500	-19.434	0.101
433.600	-14.172	0.101
433.700	-10.875	0.101
433.800	-1.789	0.101
433.900	-8.002	0.101
434.000	-17.451	0.101
434.100	-23.611	0.101
434.200	-16.146	0.101
434.300	-12.784	0.101
434.400	-17.742	0.101
434.500	-19.124	0.101
434.600	-32.805	0.101
434.700	0.875	0.101
434.800	-17.677	0.101
434.900	-22.411	0.101
435.000	-10.136	0.101
435.100	-16.716	0.101
435.200	-11.534	0.101
435.300	-24.925	0.101
435.400	-22.355	0.101
435.500	-5.077	0.101
435.600	-4.430	0.101
435.700	-16.779	0.101
435.800	-17.515	0.101
435.900	-12.695	0.101
436.000	-18.238	0.101
436.100	-8.446	0.101
436.200	-6.290	0.101
436.300	-13.909	0.101
436.400	-13.303	0.101
436.500	-6.248	0.101
436.600	-25.566	0.101
436.700	-24.232	0.101
436.800	-15.807	0.101
436.900	-8.997	0.101
437.000	-8.912	0.101
437.100	-17.492	0.101
437.200	-19.556	0.101
437.300	-0.918	0.101
437.400	-17.335	0.101
437.500	-22.816	0.101
437.600	-20.935	0.101
437.700	-21.469	0.101
437.800	-5.874	0.101
437.900	-14.511	0.101
438.000	-25.788	0.101
438.100	-17.061	0.101
438.200	-29.134	0.101
438.300	-19.863	0.101
438.400	-31.282	0.101
438.500	-18.114	0.101
438.600	-2.900	0.101
438.700	-18.643	0.101
438.800	-3.128	0.101
438.900	-18.764	0.101
439.000	-22.397	0.101
439.100	-22.438	0.101
439.200	-14.023	0.101
439.300	-19.672	0.101
439.400	-18.180	0.101
439.500	-17.065	0.101
439.600	-13.059	0.101
439.700	-18.525	0.101
439.800	-19.776	0.101
439.900	-19.360	0.101
440.000	-11.627	0.101
440.100	-9.716	0.101
440.200	-13.963	0.101
440.300	-22.878	0.101
440.400	-4.559	0.101
440.500	-26.525	0.101
440.600	-17.224	0.101
440.700	-25.360	0.101
440.800	-12.087	0.101
440.900	-12.490	0.101
441.000	-21.983	0.101
441.100	-31.674	0.101
441.200	-14.869	0.101
441.300	-5.432	0.101
441.400	-17.906	0.101
441.500	-27.038	0.101
441.600	-2.054	0.101
441.700	-15.238	0.101
441.800	-22.597	0.101
441.900	-11.362	0.101
442.000	-16.600	0.101
442.100	-11.551	0.101
442.200	-22.500	0.101
442.300	-19.041	0.101
442.400	-17.726	0.101
442.500	-15.429	0.101
442.600	-20.464	0.101
442.700	-13.220	0.101
442.800	-23.094	0.101
442.900	-14.420	0.101
443.000	-17.274	0.101
443.100	-16.202	0.101
443.200	-15.386	0.101
443.300	-28.189	0.101
443.400	-19.030	0.101
443.500	-11.429	0.101
443.600	-20.742	0.101
443.700	-10.994	0.101
443.800	-16.080	0.101
443.900	-16.891	0.101
444.000	-18.645	0.101
444.100	-17.242	0.101
444.200	-15.178	0.101
444.300	-14.058	0.101
444.400	-4.040	0.101
444.500	-21.161	0.101
444.600	-9.216	0.101
444.700	-5.075	0.101
444.800	-20.049	0.101
444.900	-17.332	0.101
445.000	-15.646	0.101
445.100	-18.042	0.101
445.200	-20.869	0.101
445.300	-6.280	0.101
445.400	-12.312	0.101
445.500	-21.924	0.101
445.600	-18.285	0.101
445.700	-15.173	0.101
445.800	-22.836	0.101
445.900	-17.464	0.101
446.000	-15.197	0.101
446.100	-19.888	0.101
446.200	-16.127	0.101
446.300	-17.535	0.101
446.400	-8.108	0.101
446.500	-12.564	0.101
446.600	-18.125	0.101
446.700	-11.082	0.101
446.800	-20.201	0.101
446.900	-10.099	0.101
447.000	-11.301	0.101
447.100	-21.281	0.101
447.200	-8.077	0.101
447.300	-24.624	0.101
447.400	-9.688	0.101
447.500	-24.712	0.101
447.600	-14.605	0.101
447.700	-12.117	0.101
447.800	-8.324	0.101
447.900	-31.425	0.101
448.000	-8.125	0.101
448.100	-14.924	0.101
448.200	-24.675	0.101
448.300	-1.937	0.101
448.400	-8.957	0.101
448.500	-21.669	0.101
448.600	-35.646	0.101
448.700	-14.195	0.101
448.800	-21.437	0.101
448.900	-14.032	0.101
449.000	-36.563	0.101
449.100	-10.590	0.101
449.200	-18.979	0.101
449.300	-26.310	0.101
449.400	-20.020	0.101
449.500	-13.529	0.101
449.600	-4.993	0.101
449.700	-9.555	0.101
449.800	-22.510	0.101
449.900	-15.265	0.101
450.000	-30.118	0.101
450.100	-18.980	0.101
450.200	-15.490	0.101
450.300	-19.899	0.101
450.400	-26.294	0.101
450.500	-1.644	0.101
450.600	-0.729	0.101
450.700	-14.738	0.101
450.800	-19.625	0.101
450.900	-13.403	0.101
451.000	-18.087	0.101
451.100	-13.008	0.101
451.200	-26.390	0.101
451.300	-16.031	0.101
451.400	3.157	0.101
451.500	-9.955	0.101
451.600	-5.149	0.101
451.700	-21.854	0.101
451.800	-8.616	0.101
451.900	-0.804	0.101
452.000	-27.192	0.101
452.100	-26.212	0.101
452.200	-14.716	0.101
452.300	-11.488	0.101
452.400	-10.600	0.101
452.500	-24.455	0.101
452.600	-13.367	0.101
452.700	-20.170	0.101
452.800	-21.056	0.101
452.900	-22.141	0.101
453.000	-7.645	0.101
453.100	-17.736	0.101
453.200	-15.329	0.101
453.300	-5.805	0.101
453.400	-10.879	0.101
453.500	-15.078	0.101
453.600	-10.342	0.101
453.700	-10.953	0.101
453.800	-9.971	0.101
453.900	-23.380	0.101
454.000	-11.362	0.101
454.100	-16.117	0.101
454.200	-10.308	0.101
454.300	-16.718	0.101
454.400	-13.327	0.101
454.500	-14.897	0.101
454.600	-13.288	0.101
454.700	-11.077	0.101
454.800	-25.434	0.101
454.900	-12.833	0.101
455.000	-12.722	0.101
455.100	-17.508	0.101
455.200	-14.340	0.101
455.300	-22.050	0.101
455.400	-10.768	0.101
455.500	-29.926	0.101
455.600	-18.635	0.101
455.700	-20.480	0.101
455.800	-31.165	0.101
455.900	-12.755	0.101
456.000	-3.482	0.101
456.100	-22.763	0.101
456.200	-10.187	0.101
456.300	-18.326	0.101
456.400	-16.828	0.101
456.500	-3.841	0.101
456.600	-5.838	0.101
456.700	-16.826	0.101
456.800	-21.786	0.101
456.900	-29.058	0.101
457.000	-17.131	0.101
457.100	-15.210	0.101
457.200	-17.125	0.101
457.300	-22.242	0.101
457.400	-17.542	0.101
457.500	-17.198	0.101
457.600	-17.605	0.101
457.700	-15.859	0.101
457.800	-10.286	0.101
457.900	-25.190	0.101
458.000	-13.348	0.101
458.100	-5.196	0.101
458.200	-11.659	0.101
458.300	-19.647	0.101
458.400	-24.310	0.101
458.500	-11.474	0.101
458.600	-4.969	0.101
458.700	-21.291	0.101
458.800	-20.821	0.101
458.900	-7.574	0.101
459.000	2.294	0.101
459.100	-15.787	0.101
459.200	-11.805	0.101
459.300	-10.853	0.101
459.400	-10.982	0.101
459.500	-20.160	0.101
459.600	-19.337	0.101
459.700	-16.149	0.101
459.800	-28.089	0.101
459.900	-18.859	0.101
460.000	-13.313	0.101
460.100	-24.661	0.101
460.200	-14.626	0.101
460.300	-17.271	0.101
460.400	-11.646	0.101
460.500	-18.794	0.101
460.600	-10.653	0.101
460.700	-29.089	0.101
460.800	-13.572	0.101
460.900	-9.785	0.101
461.000	-14.075	0.101
461.100	-21.362	0.101
461.200	-20.080	0.101
461.300	-18.669	0.101
461.400	-11.743	0.101
461.500	-22.812	0.101
461.600	-15.908	0.101
461.700	-21.265	0.101
461.800	9.697	0.101
461.900	-18.677	0.101
462.000	-19.244	0.101
462.100	-14.483	0.101
462.200	-17.485	0.101
462.300	-8.921	0.101
462.400	-6.767	0.101
462.500	-10.806	0.101
462.600	-13.362	0.101
462.700	-15.369	0.101
462.800	-12.540	0.101
462.900	-8.914	0.101
463.000	-25.201	0.101
463.100	-23.292	0.101
463.200	-14.958	0.101
463.300	-16.112	0.101
463.400	-12.272	0.101
463.500	-15.652	0.101
463.600	-6.008	0.101
463.700	-23.732	0.101
463.800	-24.786	0.101
463.900	-8.241	0.101
464.000	-19.222	0.101
464.100	1.545	0.101
464.200	-9.036	0.101
464.300	-22.006	0.101
464.400	-29.038	0.101
464.500	-16.433	0.101
464.600	-28.839	0.101
464.700	-10.586	0.101
464.800	-14.043	0.101
464.900	-2.375	0.101
465.000	-19.916	0.101
465.100	-19.595	0.101
465.200	-4.295	0.101
465.300	-8.476	0.101
465.400	-23.696	0.101
465.500	-4.936	0.101
465.600	-19.151	0.101
465.700	-22.731	0.101
465.800	-15.795	0.101
465.900	-15.271	0.101
466.000	-9.001	0.101
466.100	-18.821	0.101
466.200	-18.694	0.101
466.300	-14.440	0.101
466.400	-19.245	0.101
466.500	-21.670	0.101
466.600	-12.401	0.101
466.700	-24.738	0.101
466.800	-21.739	0.101
466.900	-20.522	0.101
467.000	-14.496	0.101
467.100	-10.654	0.101
467.200	-11.319	0.101
467.300	-13.945	0.101
467.400	-12.858	0.101
467.500	-19.948	0.101
467.600	-3.983	0.101
467.700	-20.262	0.101
467.800	-24.564	0.101
467.900	-8.809	0.101
468.000	-6.452	0.101
468.100	-19.373	0.101
468.200	-8.685	0.101
468.300	-4.840	0.101
468.400	-13.050	0.101
468.500	-25.020	0.101
468.600	-19.955	0.101
468.700	-20.400	0.101
468.800	-6.806	0.101
468.900	-14.814	0.101
469.000	-5.624	0.101
469.100	-17.755	0.101
469.200	-9.578	0.101
469.300	-21.788	0.101
469.400	-8.922	0.101
469.500	-5.569	0.101
469.600	-19.656	0.101
469.700	-17.601	0.101
469.800	-23.053	0.101
469.900	-14.825	0.101
470.000	-18.626	0.101
470.100	-11.356	0.101
470.200	-25.274	0.101
470.300	-33.115	0.101
470.400	-11.709	0.101
470.500	-24.687	0.101
470.600	-18.955	0.101
470.700	-16.390	0.101
470.800	-10.765	0.101
470.900	-13.654	0.101
471.000	-17.426	0.101
471.100	-5.387	0.101
471.200	-22.086	0.101
471.300	-25.989	0.101
471.400	-9.208	0.101
471.500	-18.239	0.101
471.600	-18.608	0.101
471.700	-12.453	0.101
471.800	-10.109	0.101
471.900	-24.909	0.101
472.000	-17.859	0.101
472.100	3.825	0.101
472.200	-27.661	0.101
472.300	-11.392	0.101
472.400	-15.917	0.101
472.500	-24.896	0.101
472.600	-28.131	0.101
472.700	-8.375	0.101
472.800	-9.157	0.101
472.900	-14.564	0.101
473.000	-15.308	0.101
473.100	-8.569	0.101
473.200	-11.597	0.101
473.300	-12.786	0.101
473.400	-16.460	0.101
473.500	3.084	0.101
473.600	-21.124	0.101
473.700	-14.606	0.101
473.800	-26.651	0.101
473.900	-23.287	0.101
474.000	-8.538	0.101
474.100	-19.789	0.101
474.200	-14.178	0.101
474.300	-14.099	0.101
474.400	-12.915	0.101
474.500	-7.956	0.101
474.600	-12.013	0.101
474.700	-15.224	0.101
474.800	-19.608	0.101
474.900	-20.908	0.101
475.000	-5.508	0.101
475.100	-12.971	0.101
475.200	-8.761	0.101
475.300	-13.059	0.101
475.400	-14.260	0.101
475.500	-9.893	0.101
475.600	-12.930	0.101
475.700	-20.112	0.101
475.800	-14.575	0.101
475.900	-13.811	0.101
476.000	2.818	0.101
476.100	-5.620	0.101
476.200	-17.513	0.101
476.300	-10.562	0.101
476.400	-6.841	0.101
476.500	-15.288	0.101
476.600	-19.257	0.101
476.700	-3.871	0.101
476.800	-27.266	0.101
476.900	-16.824	0.101
477.000	-8.236	0.101
477.100	-19.338	0.101
477.200	-12.771	0.101
477.300	-23.669	0.101
477.400	-12.879	0.101
477.500	-19.852	0.101
477.600	-16.626	0.101
477.700	-10.394	0.101
477.800	-18.728	0.101
477.900	-16.196	0.101
478.000	-10.782	0.101
478.100	2.619	0.101
478.200	-5.234	0.101
478.300	-31.011	0.101
478.400	-22.029	0.101
478.500	-7.501	0.101
478.600	-11.263	0.101
478.700	-3.233	0.101
478.800	-18.910	0.101
478.900	-4.582	0.101
479.000	-24.905	0.101
479.100	-15.672	0.101
479.200	-14.495	0.101
479.300	-12.673	0.101
479.400	-28.460	0.101
479.500	-17.687	0.101
479.600	-8.200	0.101
479.700	-7.630	0.101
479.800	-14.607	0.101
479.900	-24.919	0.101
480.000	-25.457	0.101
480.100	-7.637	0.101
480.200	-12.016	0.101
480.300	-19.704	0.101
480.400	-17.921	0.101
480.500	-22.271	0.101
480.600	-8.856	0.101
480.700	-17.753	0.101
480.800	-17.098	0.101
480.900	-1.569	0.101
481.000	3.719	0.101
481.100	-2.723	0.101
481.200	-6.994	0.101
481.300	-2.501	0.101
481.400	0.478	0.101
481.500	4.765	0.101
481.600	-5.664	0.101
481.700	2.334	0.101
481.800	1.955	0.101
481.900	0.072	0.101
482.000	-2.985	0.101
482.100	7.766	0.101
482.200	13.835	0.101
482.300	14.432	0.101
482.400	-1.726	0.101
482.500	-0.967	0.101
482.600	-0.329	0.101
482.700	10.865	0.101
482.800	-1.836	0.101
482.900	-1.753	0.101
483.000	9.058	0.101
483.100	18.804	0.101
483.200	3.572	0.101
483.300	7.756	0.101
483.400	9.229	0.101
483.500	5.878	0.101
483.600	21.343	0.101
483.700	10.317	0.101
483.800	3.961	0.101
483.900	9.511	0.101
484.000	6.215	0.101
484.100	4.872	0.101
484.200	12.050	0.101
484.300	13.583	0.101
484.400	4.931	0.101
484.500	0.786	0.101
484.600	16.009	0.101
484.700	4.400	0.101
484.800	0.159	0.101
484.900	7.981	0.101
485.000	-0.217	0.101
485.100	7.641	0.101
485.200	16.323	0.101
485.300	15.170	0.101
485.400	10.808	0.101
485.500	8.712	0.101
485.600	6.409	0.101
485.700	7.575	0.101
485.800	6.231	0.101
485.900	2.930	0.101
486.000	7.941	0.101
486.100	15.861	0.101
486.200	-3.508	0.101
486.300	23.753	0.101
486.400	6.924	0.101
486.500	5.241	0.101
486.600	11.889	0.101
486.700	-0.911	0.101
486.800	6.381	0.101
486.900	7.654	0.101
487.000	14.637	0.101
487.100	0.442	0.101
487.200	14.068	0.101
487.300	11.186	0.101
487.400	1.132	0.101
487.500	9.983	0.101
487.600	6.486	0.101
487.700	4.891	0.101
487.800	12.508	0.101
487.900	14.337	0.101
488.000	8.831	0.101
488.100	10.277	0.101
488.200	12.961	0.101
488.300	21.743	0.101
488.400	13.965	0.101
488.500	4.097	0.101
488.600	-1.472	0.101
488.700	10.353	0.101
488.800	5.203	0.101
488.900	-1.279	0.101
489.000	14.382	0.101
489.100	6.069	0.101
489.200	7.894	0.101
489.300	19.293	0.101
489.400	4.605	0.101
489.500	8.890	0.101
489.600	20.241	0.101
489.700	8.373	0.101
489.800	8.132	0.101
489.900	1.786	0.101
490.000	7.021	0.101
490.100	14.423	0.101
490.200	11.015	0.101
490.300	7.660	0.101
490.400	8.261	0.101
490.500	10.875	0.101
490.600	5.136	0.101
490.700	13.088	0.101
490.800	7.222	0.101
490.900	22.150	0.101
491.000	10.592	0.101
491.100	10.402	0.101
491.200	28.488	0.101
491.300	18.685	0.101
491.400	23.514	0.101
491.500	15.450	0.101
491.600	6.813	0.101
491.700	3.232	0.101
491.800	6.725	0.101
491.900	11.813	0.101
492.000	21.708	0.101
492.100	4.823	0.101
492.200	7.106	0.101
492.300	4.161	0.101
492.400	9.656	0.101
492.500	11.385	0.101
492.600	2.057	0.101
492.700	15.475	0.101
492.800	27.672	0.101
492.900	4.578	0.101
493.000	10.571	0.101
493.100	14.878	0.101
493.200	24.247	0.101
493.300	4.581	0.101
493.400	8.516	0.101
493.500	10.111	0.101
493.600	18.609	0.101
493.700	25.699	0.101
493.800	20.015	0.101
493.900	13.575	0.101
494.000	11.939	0.101
494.100	8.138	0.101
494.200	14.001	0.101
494.300	9.445	0.101
494.400	21.099	0.101
494.500	27.775	0.101
494.600	13.670	0.101
494.700	20.930	0.101
494.800	5.174	0.101
494.900	24.594	0.101
495.000	15.281	0.101
495.100	15.155	0.101
495.200	22.173	0.101
495.300	11.170	0.101
495.400	22.076	0.101
495.500	15.156	0.101
495.600	15.746	0.101
495.700	14.523	0.101
495.800	15.740	0.101
495.900	16.564	0.101
496.000	20.144	0.101
496.100	36.697	0.101
496.200	17.826	0.101
496.300	13.914	0.101
496.400	22.319	0.101
496.500	15.286	0.101
496.600	25.334	0.101
496.700	15.617	0.101
496.800	10.887	0.101
496.900	20.237	0.101
497.000	29.249	0.101
497.100	16.703	0.101
497.200	18.997	0.101
497.300	12.782	0.101
497.400	24.783	0.101
497.500	27.862	0.101
497.600	23.563	0.101
497.700	17.905	0.101
497.800	14.834	0.101
497.900	11.282	0.101
498.000	16.137	0.101
498.100	24.491	0.101
498.200	11.341	0.101
498.300	35.517	0.101
498.400	24.028	0.101
498.500	20.064	0.101
498.600	18.916	0.101
498.700	15.477	0.101
498.800	23.381	0.101
498.900	28.334	0.101
499.000	8.623	0.101
499.100	27.898	0.101
499.200	20.005	0.101
499.300	22.826	0.101
499.400	17.903	0.101
499.500	19.943	0.101
499.600	30.195	0.101
499.700	32.969	0.101
499.800	19.729	0.101
499.900	15.695	0.101
500.000	22.709	0.101
500.100	25.737	0.101
500.200	24.278	0.101
500.300	23.402	0.101
500.400	26.116	0.101
500.500	31.674	0.101
500.600	28.198	0.101
500.700	23.212	0.101
500.800	22.491	0.101
500.900	35.185	0.101
501.000	38.770	0.101
501.100	31.237	0.101
501.200	24.344	0.101
501.300	30.354	0.101
501.400	32.902	0.101
501.500	33.017	0.101
501.600	21.269	0.101
501.700	20.373	0.101
501.800	37.201	0.101
501.900	18.465	0.101
502.000	26.833	0.101
502.100	31.606	0.101
502.200	32.212	0.101
502.300	30.783	0.101
502.400	33.055	0.101
502.500	38.686	0.101
502.600	30.147	0.101
502.700	29.408	0.101
502.800	31.886	0.101
502.900	26.229	0.101
503.000	34.246	0.101
503.100	31.688	0.101
503.200	32.668	0.101
503.300	21.539	0.101
503.400	32.099	0.101
503.500	39.318	0.101
503.600	38.014	0.101
503.700	43.234	0.101
503.800	23.580	0.101
503.900	35.558	0.101
504.000	39.835	0.101
504.100	37.402	0.101
504.200	23.657	0.101
504.300	41.153	0.101
504.400	36.378	0.101
504.500	31.278	0.101
504.600	41.130	0.101
504.700	36.597	0.101
504.800	35.797	0.101
504.900	36.956	0.101
505.000	24.661	0.101
505.100	33.313	0.101
505.200	35.747	0.101
505.300	28.870	0.101
505.400	23.940	0.101
505.500	31.006	0.101
505.600	32.348	0.101
505.700	23.207	0.101
505.800	27.787	0.101
505.900	51.044	0.101
506.000	25.974	0.101
506.100	35.032	0.101
506.200	30.577	0.101
506.300	36.506	0.101
506.400	29.010	0.101
506.500	39.038	0.101
506.600	47.554	0.101
506.700	45.047	0.101
506.800	39.450	0.101
506.900	33.611	0.101
507.000	36.107	0.101
507.100	30.298	0.101
507.200	41.107	0.101
507.300	30.938	0.101
507.400	32.563	0.101
507.500	45.259	0.101
507.600	23.309	0.101
507.700	45.728	0.101
507.800	44.100	0.101
507.900	39.676	0.101
508.000	46.858	0.101
508.100	35.446	0.101
508.200	35.481	0.101
508.300	40.465	0.101
508.400	42.899	0.101
508.500	38.550	0.101
508.600	38.411	0.101
508.700	27.371	0.101
508.800	41.039	0.101
508.900	46.204	0.101
509.000	45.986	0.101
509.100	45.507	0.101
509.200	36.569	0.101
509.300	33.717	0.101
509.400	34.250	0.101
509.500	36.733	0.101
509.600	25.754	0.101
509.700	31.650	0.101
509.800	45.978	0.101
509.900	45.915	0.101
510.000	43.914	0.101
510.100	34.546	0.101
510.200	37.762	0.101
510.300	42.274	0.101
510.400	30.980	0.101
510.500	31.695	0.101
510.600	45.625	0.101
510.700	46.390	0.101
510.800	42.901	0.101
510.900	55.690	0.101
511.000	35.230	0.101
511.100	22.888	0.101
511.200	39.124	0.101
511.300	36.997	0.101
511.400	46.766	0.101
511.500	44.016	0.101
511.600	28.824	0.101
511.700	37.026	0.101
511.800	29.895	0.101
511.900	26.006	0.101
512.000	33.236	0.101
512.100	43.964	0.101
512.200	41.402	0.101
512.300	32.432	0.101
512.400	49.290	0.101
512.500	17.387	0.101
512.600	28.128	0.101
512.700	25.120	0.101
512.800	49.893	0.101
512.900	31.621	0.101
513.000	33.322	0.101
513.100	39.509	0.101
513.200	51.342	0.101
513.300	37.844	0.101
513.400	41.709	0.101
513.500	31.278	0.101
513.600	33.927	0.101
513.700	47.570	0.101
513.800	39.045	0.101
513.900	18.418	0.101
514.000	33.845	0.101
514.100	48.234	0.101
514.200	29.451	0.101
514.300	35.032	0.101
514.400	47.367	0.101
514.500	45.779	0.101
514.600	35.429	0.101
514.700	37.239	0.101
514.800	44.020	0.101
514.900	42.981	0.101
515.000	41.725	0.101
515.100	62.481	0.101
515.200	32.296	0.101
515.300	45.487	0.101
515.400	41.384	0.101
515.500	34.042	0.101
515.600	38.946	0.101
515.700	34.191	0.101
515.800	41.425	0.101
515.900	25.701	0.101
516.000	42.190	0.101
516.100	34.601	0.101
516.200	44.481	0.101
516.300	50.193	0.101
516.400	43.142	0.101
516.500	30.703	0.101
516.600	44.997	0.101
516.700	37.190	0.101
516.800	49.282	0.101
516.900	32.426	0.101
517.000	35.618	0.101
517.100	41.276	0.101
517.200	29.304	0.101
517.300	29.657	0.101
517.400	41.336	0.101
517.500	41.615	0.101
517.600	27.903	0.101
517.700	43.190	0.101
517.800	51.927	0.101
517.900	41.030	0.101
518.000	44.883	0.101
518.100	52.587	0.101
518.200	37.104	0.101
518.300	31.228	0.101
518.400	39.827	0.101
518.500	39.280	0.101
518.600	46.515	0.101
518.700	45.633	0.101
518.800	43.089	0.101
518.900	31.381	0.101
519.000	35.242	0.101
519.100	40.845	0.101
519.200	56.302	0.101
519.300	36.635	0.101
519.400	36.525	0.101
519.500	42.864	0.101
519.600	28.374	0.101
519.700	53.311	0.101
519.800	42.082	0.101
519.900	50.217	0.101
520.000	37.638	0.101
520.100	58.710	0.101
520.200	39.439	0.101
520.300	32.865	0.101
520.400	30.136	0.101
520.500	49.963	0.101
520.600	19.179	0.101
520.700	44.329	0.101
520.800	46.203	0.101
520.900	40.525	0.101
521.000	45.116	0.101
521.100	29.235	0.101
521.200	39.011	0.101
521.300	41.188	0.101
521.400	31.656	0.101
521.500	39.846	0.101
521.600	37.986	0.101
521.700	26.259	0.101
521.800	22.644	0.101
521.900	34.213	0.101
522.000	39.578	0.101
522.100	42.122	0.101
522.200	52.624	0.101
522.300	34.335	0.101
522.400	34.794	0.101
522.500	40.970	0.101
522.600	34.029	0.101
522.700	26.622	0.101
522.800	33.390	0.101
522.900	41.062	0.101
523.000	37.032	0.101
523.100	25.345	0.101
523.200	47.499	0.101
523.300	50.561	0.101
523.400	41.791	0.101
523.500	36.222	0.101
523.600	36.823	0.101
523.700	41.301	0.101
523.800	35.455	0.101
523.900	43.539	0.101
524.000	40.414	0.101
524.100	32.991	0.101
524.200	31.356	0.101
524.300	42.543	0.101
524.400	53.345	0.101
524.500	44.984	0.101
524.600	36.121	0.101
524.700	56.610	0.101
524.800	35.209	0.101
524.900	46.991	0.101
525.000	23.598	0.101
525.100	38.834	0.101
525.200	35.173	0.101
525.300	34.946	0.101
525.400	48.261	0.101
525.500	44.088	0.101
525.600	49.784	0.101
525.700	46.601	0.101
525.800	31.019	0.101
525.900	35.476	0.101
526.000	43.979	0.101
526.100	41.083	0.101
526.200	35.926	0.101
526.300	37.351	0.101
526.400	56.147	0.101
526.500	24.339	0.101
526.600	33.404	0.101
526.700	28.206	0.101
526.800	37.934	0.101
526.900	43.835	0.101
527.000	39.875	0.101
527.100	36.595	0.101
527.200	41.912	0.101
527.300	39.700	0.101
527.400	47.118	0.101
527.500	42.920	0.101
527.600	35.455	0.101
527.700	55.125	0.101
527.800	35.757	0.101
527.900	39.012	0.101
528.000	48.993	0.101
528.100	27.032	0.101
528.200	41.570	0.101
528.300	32.655	0.101
528.400	31.145	0.101
528.500	36.502	0.101
528.600	61.558	0.101
528.700	45.493	0.101
528.800	49.594	0.101
528.900	32.467	0.101
529.000	41.423	0.101
529.100	38.267	0.101
529.200	36.439	0.101
529.300	49.993	0.101
529.400	40.661	0.101
529.500	44.188	0.101
529.600	39.881	0.101
529.700	35.876	0.101
529.800	48.698	0.101
529.900	55.278	0.101
530.000	32.692	0.101
530.100	36.777	0.101
530.200	49.422	0.101
530.300	43.136	0.101
530.400	37.584	0.101
530.500	41.337	0.101
530.600	54.800	0.101
530.700	33.585	0.101
530.800	44.993	0.101
530.900	47.799	0.101
531.000	48.000	0.101
531.100	41.499	0.101
531.200	36.776	0.101
531.300	45.111	0.101
531.400	52.549	0.101
531.500	29.852	0.101
531.600	43.729	0.101
531.700	35.236	0.101
531.800	48.168	0.101
531.900	27.376	0.101
532.000	37.551	0.101
532.100	31.336	0.101
532.200	49.545	0.101
532.300	50.806	0.101
532.400	30.578	0.101
532.500	21.057	0.101
532.600	48.739	0.101
532.700	44.121	0.101
532.800	40.936	0.101
532.900	40.917	0.101
533.000	41.717	0.101
533.100	42.155	0.101
533.200	40.918	0.101
533.300	39.884	0.101
533.400	40.189	0.101
533.500	35.870	0.101
533.600	36.053	0.101
533.700	41.084	0.101
533.800	41.385	0.101
533.900	36.053	0.101
534.000	39.485	0.101
534.100	36.207	0.101
534.200	45.558	0.101
534.300	42.342	0.101
534.400	39.454	0.101
534.500	27.774	0.101
534.600	42.593	0.101
534.700	39.355	0.101
534.800	43.844	0.101
534.900	48.532	0.101
535.000	39.659	0.101
535.100	30.306	0.101
535.200	38.592	0.101
535.300	47.176	0.101
535.400	41.734	0.101
535.500	47.163	0.101
535.600	45.114	0.101
535.700	38.269	0.101
535.800	42.918	0.101
535.900	34.288	0.101
536.000	32.777	0.101
536.100	56.325	0.101
536.200	42.506	0.101
536.300	44.248	0.101
536.400	29.109	0.101
536.500	37.578	0.101
536.600	35.491	0.101
536.700	39.005	0.101
536.800	29.209	0.101
536.900	46.005	0.101
537.000	35.275	0.101
537.100	52.283	0.101
537.200	36.772	0.101
537.300	31.515	0.101
537.400	37.817	0.101
537.500	50.542	0.101
537.600	39.603	0.101
537.700	42.181	0.101
537.800	37.234	0.101
537.900	43.949	0.101
538.000	36.013	0.101
538.100	44.731	0.101
538.200	46.018	0.101
538.300	37.478	0.101
538.400	41.684	0.101
538.500	30.893	0.101
538.600	38.863	0.101
538.700	28.662	0.101
538.800	40.232	0.101
538.900	38.809	0.101
539.000	47.676	0.101
539.100	39.791	0.101
539.200	43.416	0.101
539.300	42.575	0.101
539.400	36.374	0.101
539.500	38.605	0.101
539.600	43.713	0.101
539.700	45.826	0.101
539.800	23.223	0.101
539.900	45.247	0.101
540.000	50.131	0.101
540.100	55.256	0.101
540.200	50.718	0.101
540.300	37.450	0.101
540.400	50.011	0.101
540.500	34.876	0.101
540.600	43.381	0.101
540.700	29.853	0.101
540.800	35.724	0.101
540.900	25.609	0.101
541.000	20.899	0.101
541.100	35.376	0.101
541.200	40.380	0.101
541.300	23.073	0.101
541.400	17.665	0.101
541.500	35.573	0.101
541.600	30.997	0.101
541.700	34.498	0.101
541.800	17.505	0.101
541.900	10.355	0.101
542.000	18.934	0.101
542.100	11.492	0.101
542.200	9.357	0.101
542.300	25.568	0.101
542.400	22.000	0.101
542.500	28.299	0.101
542.600	24.698	0.101
542.700	9.324	0.101
542.800	28.308	0.101
542.900	15.573	0.101
543.000	4.443	0.101
543.100	24.538	0.101
543.200	10.060	0.101
543.300	14.347	0.101
543.400	17.223	0.101
543.500	10.769	0.101
543.600	10.931	0.101
543.700	8.801	0.101
543.800	12.446	0.101
543.900	18.259	0.101
544.000	6.216	0.101
544.100	16.373	0.101
544.200	8.226	0.101
544.300	11.159	0.101
544.400	23.308	0.101
544.500	16.992	0.101
544.600	10.955	0.101
544.700	12.220	0.101
544.800	16.281	0.101
544.900	4.930	0.101
545.000	6.834	0.101
545.100	9.812	0.101
545.200	2.864	0.101
545.300	24.465	0.101
545.400	18.146	0.101
545.500	-3.171	0.101
545.600	10.790	0.101
545.700	2.472	0.101
545.800	3.016	0.101
545.900	19.061	0.101
546.000	18.704	0.101
546.100	8.789	0.101
546.200	10.352	0.101
546.300	2.294	0.101
546.400	-7.193	0.101
546.500	9.126	0.101
546.600	11.107	0.101
546.700	8.956	0.101
546.800	15.165	0.101
546.900	-2.357	0.101
547.000	-2.330	0.101
547.100	18.081	0.101
547.200	4.947	0.101
547.300	13.697	0.101
547.400	27.516	0.101
547.500	-1.969	0.101
547.600	-1.429	0.101
547.700	16.129	0.101
547.800	1.096	0.101
547.900	10.714	0.101
548.000	12.531	0.101
548.100	5.854	0.101
548.200	8.404	0.101
548.300	5.586	0.101
548.400	1.343	0.101
548.500	5.164	0.101
548.600	10.271	0.101
548.700	13.543	0.101
548.800	7.213	0.101
548.900	1.099	0.101
549.000	3.928	0.101
549.100	11.705	0.101
549.200	3.475	0.101
549.300	4.340	0.101
549.400	12.560	0.101
549.500	-0.150	0.101
549.600	4.689	0.101
549.700	12.393	0.101
549.800	10.274	0.101
549.900	0.606	0.101
550.000	7.544	0.101
550.100	18.399	0.101
550.200	-0.047	0.101
550.300	7.887	0.101
550.400	-1.836	0.101
550.500	-10.700	0.101
550.600	1.268	0.101
550.700	1.181	0.101
550.800	11.981	0.101
550.900	12.771	0.101
551.000	6.519	0.101
551.100	3.605	0.101
551.200	12.268	0.101
551.300	15.787	0.101
551.400	3.909	0.101
551.500	6.326	0.101
551.600	9.177	0.101
551.700	1.208	0.101
551.800	12.403	0.101
551.900	7.254	0.101
552.000	-1.951	0.101
552.100	5.387	0.101
552.200	12.320	0.101
552.300	1.241	0.101
552.400	4.627	0.101
552.500	-8.969	0.101
552.600	-8.309	0.101
552.700	4.280	0.101
552.800	0.859	0.101
552.900	17.144	0.101
553.000	12.445	0.101
553.100	-0.995	0.101
553.200	-4.327	0.101
553.300	-0.852	0.101
553.400	8.818	0.101
553.500	3.910	0.101
553.600	8.968	0.101
553.700	1.282	0.101
553.800	-1.501	0.101
553.900	13.684	0.101
554.000	-4.364	0.101
554.100	1.629	0.101
554.200	4.616	0.101
554.300	5.264	0.101
554.400	0.441	0.101
554.500	-1.931	0.101
554.600	-11.736	0.101
554.700	3.086	0.101
554.800	15.467	0.101
554.900	3.265	0.101
555.000	2.749	0.101
555.100	8.128	0.101
555.200	3.895	0.101
555.300	5.066	0.101
555.400	1.413	0.101
555.500	-4.801	0.101
555.600	0.124	0.101
555.700	8.523	0.101
555.800	1.333	0.101
555.900	11.930	0.101
556.000	1.399	0.101
556.100	-6.469	0.101
556.200	5.708	0.101
556.300	-8.934	0.101
556.400	12.735	0.101
556.500	7.808	0.101
556.600	-7.213	0.101
556.700	0.454	0.101
556.800	-4.648	0.101
556.900	-9.146	0.101
557.000	1.544	0.101
557.100	-10.817	0.101
557.200	1.019	0.101
557.300	-3.887	0.101
557.400	0.835	0.101
557.500	-13.777	0.101
557.600	-8.002	0.101
557.700	4.921	0.101
557.800	10.447	0.101
557.900	-7.447	0.101
558.000	-2.950	0.101
558.100	-9.432	0.101
558.200	-0.938	0.101
558.300	-1.750	0.101
558.400	-6.772	0.101
558.500	0.093	0.101
558.600	-10.474	0.101
558.700	1.584	0.101
558.800	0.793	0.101
558.900	-8.004	0.101
559.000	8.171	0.101
559.100	-0.358	0.101
559.200	11.703	0.101
559.300	2.207	0.101
559.400	-3.577	0.101
559.500	-2.091	0.101
559.600	-0.086	0.101
559.700	-3.521	0.101
559.800	-16.509	0.101
559.900	-11.733	0.101
560.000	-1.754	0.101
560.100	-5.011	0.101
560.200	-9.358	0.101
560.300	-6.366	0.101
560.400	-2.180	0.101
560.500	12.124	0.101
560.600	-2.898	0.101
560.700	-2.174	0.101
560.800	-9.210	0.101
560.900	4.574	0.101
561.000	-14.035	0.101
561.100	-12.739	0.101
561.200	-9.583	0.101
561.300	9.601	0.101
561.400	-2.188	0.101
561.500	-9.371	0.101
561.600	9.269	0.101
561.700	-13.659	0.101
561.800	-11.790	0.101
561.900	-3.217	0.101
562.000	-12.826	0.101
562.100	-7.898	0.101
562.200	2.305	0.101
562.300	0.372	0.101
562.400	-12.639	0.101
562.500	-0.632	0.101
562.600	-0.158	0.101
562.700	2.618	0.101
562.800	-5.922	0.101
562.900	4.298	0.101
563.000	-7.155	0.101
563.100	2.772	0.101
563.200	-16.432	0.101
563.300	-6.867	0.101
563.400	4.538	0.101
563.500	-10.319	0.101
563.600	-1.081	0.101
563.700	-6.605	0.101
563.800	-13.499	0.101
563.900	-2.467	0.101
564.000	4.888	0.101
564.100	0.397	0.101
564.200	-13.534	0.101
564.300	-17.749	0.101
564.400	-8.337	0.101
564.500	-0.896	0.101
564.600	-2.295	0.101
564.700	-9.953	0.101
564.800	1.684	0.101
564.900	-11.214	0.101
565.000	-14.561	0.101
565.100	-8.660	0.101
565.200	-1.297	0.101
565.300	-12.327	0.101
565.400	-6.305	0.101
565.500	-14.289	0.101
565.600	-19.649	0.101
565.700	-9.608	0.101
565.800	-0.036	0.101
565.900	-8.684	0.101
566.000	-10.079	0.101
566.100	3.206	0.101
566.200	-19.553	0.101
566.300	-7.181	0.101
566.400	-5.555	0.101
566.500	-10.734	0.101
566.600	-13.719	0.101
566.700	-7.966	0.101
566.800	-22.939	0.101
566.900	3.215	0.101
567.000	1.330	0.101
567.100	-7.893	0.101
567.200	-12.175	0.101
567.300	-6.638	0.101
567.400	-5.948	0.101
567.500	-5.809	0.101
567.600	-23.673	0.101
567.700	-19.469	0.101
567.800	12.117	0.101
567.900	-10.884	0.101
568.000	-10.172	0.101
568.100	-5.950	0.101
568.200	-11.793	0.101
568.300	-6.500	0.101
568.400	-9.778	0.101
568.500	-7.416	0.101
568.600	-12.315	0.101
568.700	-18.390	0.101
568.800	-2.200	0.101
568.900	-12.555	0.101
569.000	1.882	0.101
569.100	-13.627	0.101
569.200	-2.169	0.101
569.300	-17.902	0.101
569.400	5.295	0.101
569.500	-14.972	0.101
569.600	-11.219	0.101
569.700	-3.008	0.101
569.800	-11.964	0.101
569.900	-14.865	0.101
570.000	-13.002	0.101
570.100	-14.621	0.101
570.200	-0.305	0.101
570.300	-11.722	0.101
570.400	3.637	0.101
570.500	-16.295	0.101
570.600	-4.578	0.101
570.700	-13.658	0.101
570.800	-6.948	0.101
570.900	-26.449	0.101
571.000	-7.019	0.101
571.100	-13.395	0.101
571.200	-14.856	0.101
571.300	0.257	0.101
571.400	-5.654	0.101
571.500	-7.976	0.101
571.600	-20.115	0.101
571.700	-2.153	0.101
571.800	-21.117	0.101
571.900	-24.306	0.101
572.000	0.729	0.101
572.100	-3.763	0.101
572.200	-10.955	0.101
572.300	-1.968	0.101
572.400	-16.075	0.101
572.500	-26.446	0.101
572.600	-12.163	0.101
572.700	-21.933	0.101
572.800	-8.881	0.101
572.900	-19.516	0.101
573.000	-13.361	0.101
573.100	-14.560	0.101
573.200	-14.235	0.101
573.300	-15.058	0.101
573.400	-18.786	0.101
573.500	-15.806	0.101
573.600	-30.898	0.101
573.700	-16.708	0.101
573.800	-13.191	0.101
573.900	-7.850	0.101
574.000	-13.303	0.101
574.100	-17.020	0.101
574.200	-16.990	0.101
574.300	-25.425	0.101
574.400	-20.720	0.101
574.500	-23.882	0.101
574.600	-4.714	0.101
574.700	-9.773	0.101
574.800	-20.890	0.101
574.900	-18.242	0.101
575.000	-8.122	0.101
575.100	-10.493	0.101
575.200	-13.598	0.101
575.300	-10.707	0.101
575.400	-14.344	0.101
575.500	-24.721	0.101
575.600	-16.733	0.101
575.700	-7.922	0.101
575.800	-4.978	0.101
575.900	-10.121	0.101
576.000	-8.006	0.101
576.100	-13.523	0.101
576.200	-16.642	0.101
576.300	-0.550	0.101
576.400	-19.607	0.101
576.500	-12.493	0.101
576.600	-12.487	0.101
576.700	-22.252	0.101
576.800	-26.170	0.101
576.900	-15.459	0.101
577.000	-16.288	0.101
577.100	-18.275	0.101
577.200	-11.289	0.101
577.300	-9.293	0.101
577.400	-37.712	0.101
577.500	-8.481	0.101
577.600	-10.868	0.101
577.700	-3.334	0.101
577.800	-12.231	0.101
577.900	-17.105	0.101
578.000	-19.485	0.101
578.100	-6.409	0.101
578.200	-15.449	0.101
578.300	-0.056	0.101
578.400	-11.456	0.101
578.500	-17.501	0.101
578.600	-20.293	0.101
578.700	-24.126	0.101
578.800	-19.789	0.101
578.900	-14.804	0.101
579.000	-17.953	0.101
579.100	-6.343	0.101
579.200	-20.498	0.101
579.300	-20.976	0.101
579.400	-7.812	0.101
579.500	-11.897	0.101
579.600	-25.378	0.101
579.700	-26.576	0.101
579.800	-24.075	0.101
579.900	-22.653	0.101
580.000	-15.396	0.101
580.100	1.760	0.101
580.200	-10.449	0.101
580.300	-19.157	0.101
580.400	-15.277	0.101
580.500	-13.922	0.101
580.600	-13.141	0.101
580.700	-9.389	0.101
580.800	-15.655	0.101
580.900	-28.036	0.101
581.000	-9.655	0.101
581.100	-19.543	0.101
581.200	-14.227	0.101
581.300	-21.104	0.101
581.400	-16.271	0.101
581.500	-20.581	0.101
581.600	-8.482	0.101
581.700	-20.407	0.101
581.800	-13.050	0.101
581.900	-11.833	0.101
582.000	-19.455	0.101
582.100	-13.279	0.101
582.200	-8.151	0.101
582.300	-24.482	0.101
582.400	-28.321	0.101
582.500	-15.308	0.101
582.600	-16.820	0.101
582.700	-8.822	0.101
582.800	-20.735	0.101
582.900	-15.512	0.101
583.000	-25.276	0.101
583.100	-17.375	0.101
583.200	-10.082	0.101
583.300	0.652	0.101
583.400	-18.777	0.101
583.500	-7.452	0.101
583.600	-16.534	0.101
583.700	-15.927	0.101
583.800	-27.892	0.101
583.900	-7.813	0.101
584.000	-10.765	0.101
584.100	-23.850	0.101
584.200	-22.394	0.101
584.300	-9.608	0.101
584.400	-28.898	0.101
584.500	-15.009	0.101
584.600	-21.522	0.101
584.700	-14.869	0.101
584.800	-11.983	0.101
584.900	-9.814	0.101
585.000	-13.440	0.101
585.100	-19.540	0.101
585.200	-8.336	0.101
585.300	-22.038	0.101
585.400	-16.995	0.101
585.500	-18.695	0.101
585.600	-6.766	0.101
585.700	-17.304	0.101
585.800	-23.675	0.101
585.900	-17.069	0.101
586.000	-20.588	0.101
586.100	-25.036	0.101
586.200	-4.509	0.101
586.300	-18.306	0.101
586.400	-13.288	0.101
586.500	-29.864	0.101
586.600	-11.245	0.101
586.700	-28.902	0.101
586.800	-22.702	0.101
586.900	-22.734	0.101
587.000	-14.924	0.101
587.100	-15.434	0.101
587.200	-13.020	0.101
587.300	-18.310	0.101
587.400	-8.596	0.101
587.500	-13.811	0.101
587.600	-25.584	0.101
587.700	-8.656	0.101
587.800	-14.116	0.101
587.900	-18.690	0.101
588.000	-12.775	0.101
588.100	-17.069	0.101
588.200	-20.630	0.101
588.300	-18.655	0.101
588.400	-8.287	0.101
588.500	-16.656	0.101
588.600	-25.394	0.101
588.700	-21.907	0.101
588.800	-22.080	0.101
588.900	-13.786	0.101
589.000	-17.360	0.101
589.100	-17.716	0.101
589.200	-16.798	0.101
589.300	-27.414	0.101
589.400	-16.166	0.101
589.500	-10.316	0.101
589.600	-15.211	0.101
589.700	-16.720	0.101
589.800	-10.891	0.101
589.900	-11.234	0.101
590.000	-17.827	0.101
590.100	-34.684	0.101
590.200	-15.957	0.101
590.300	-20.710	0.101
590.400	-6.647	0.101
590.500	1.904	0.101
590.600	-15.189	0.101
590.700	-19.601	0.101
590.800	-36.969	0.101
590.900	-19.569	0.101
591.000	-7.176	0.101
591.100	-15.150	0.101
591.200	-29.099	0.101
591.300	-24.223	0.101
591.400	-13.712	0.101
591.500	-19.664	0.101
591.600	-18.196	0.101
591.700	-12.715	0.101
591.800	-17.697	0.101
591.900	-14.180	0.101
592.000	-12.922	0.101
592.100	-24.576	0.101
592.200	-16.382	0.101
592.300	-22.362	0.101
592.400	-33.222	0.101
592.500	-11.378	0.101
592.600	-10.505	0.101
592.700	-20.890	0.101
592.800	-15.188	0.101
592.900	-25.059	0.101
593.000	-13.990	0.101
593.100	-18.020	0.101
593.200	-17.473	0.101
593.300	-16.298	0.101
593.400	-13.350	0.101
593.500	-28.375	0.101
593.600	-14.282	0.101
593.700	-17.960	0.101
593.800	-15.323	0.101
593.900	-11.925	0.101
594.000	-23.856	0.101
594.100	-26.280	0.101
594.200	-29.330	0.101
594.300	-15.341	0.101
594.400	-25.646	0.101
594.500	-12.883	0.101
594.600	-14.856	0.101
594.700	-8.176	0.101
594.800	-27.684	0.101
594.900	-20.394	0.101
595.000	-9.669	0.101
595.100	-12.119	0.101
595.200	-22.660	0.101
595.300	-13.637	0.101
595.400	-23.501	0.101
595.500	-13.350	0.101
595.600	-22.282	0.101
595.700	-14.298	0.101
595.800	-18.903	0.101
595.900	-22.951	0.101
596.000	-9.543	0.101
596.100	-24.459	0.101
596.200	-21.818	0.101
596.300	-9.828	0.101
596.400	-16.925	0.101
596.500	-5.345	0.101
596.600	-25.122	0.101
596.700	-23.209	0.101
596.800	-10.276	0.101
596.900	-6.690	0.101
597.000	-12.990	0.101
597.100	-22.425	0.101
597.200	-19.180	0.101
597.300	-16.975	0.101
597.400	-11.669	0.101
597.500	-16.026	0.101
597.600	-2.678	0.101
597.700	-18.584	0.101
597.800	-17.750	0.101
597.900	-19.283	0.101
598.000	-11.951	0.101
598.100	-22.448	0.101
598.200	-22.692	0.101
598.300	-25.599	0.101
598.400	-7.164	0.101
598.500	-24.143	0.101
598.600	-6.301	0.101
598.700	-10.409	0.101
598.800	-9.558	0.101
598.900	-18.177	0.101
599.000	-27.032	0.101
599.100	-6.916	0.101
599.200	-14.912	0.101
599.300	-21.926	0.101
599.400	-16.600	0.101
599.500	-6.497	0.101
599.600	-24.350	0.101
599.700	-21.520	0.101
599.800	-27.318	0.101
599.900	-15.000	0.101
600.000	-21.110	0.101
600.100	-9.041	0.101
600.200	-17.966	0.101
600.300	-5.617	0.101
600.400	-22.045	0.101
600.500	-23.682	0.101
600.600	-34.968	0.101
600.700	-6.639	0.101
600.800	-17.371	0.101
600.900	-1.639	0.101
601.000	-18.939	0.101
601.100	-20.941	0.101
601.200	-22.402	0.101
601.300	-22.255	0.101
601.400	-25.470	0.101
601.500	-20.330	0.101
601.600	-4.604	0.101
601.700	-21.234	0.101
601.800	-11.316	0.101
601.900	-20.608	0.101
602.000	-20.482	0.101
602.100	-11.793	0.101
602.200	-14.113	0.101
602.300	-14.118	0.101
602.400	-4.906	0.101
602.500	-24.502	0.101
602.600	-14.683	0.101
602.700	-17.328	0.101
602.800	-8.402	0.101
602.900	-28.993	0.101
603.000	-19.331	0.101
603.100	-16.850	0.101
603.200	-12.577	0.101
603.300	-10.204	0.101
603.400	-23.181	0.101
603.500	-11.345	0.101
603.600	-6.905	0.101
603.700	-4.281	0.101
603.800	-20.303	0.101
603.900	-18.368	0.101
604.000	-14.767	0.101
604.100	-23.087	0.101
604.200	-13.683	0.101
604.300	-10.753	0.101
604.400	-14.532	0.101
604.500	-7.730	0.101
604.600	-20.055	0.101
604.700	-10.363	0.101
604.800	-12.661	0.101
604.900	-23.334	0.101
605.000	-21.419	0.101
605.100	-21.667	0.101
605.200	-11.088	0.101
605.300	-18.669	0.101
605.400	-15.341	0.101
605.500	-22.276	0.101
605.600	-22.035	0.101
605.700	-10.846	0.101
605.800	-16.641	0.101
605.900	-13.628	0.101
606.000	-24.325	0.101
606.100	-15.503	0.101
606.200	-11.542	0.101
606.300	-16.894	0.101
606.400	-13.056	0.101
606.500	-15.419	0.101
606.600	-29.414	0.101
606.700	-11.679	0.101
606.800	-22.662	0.101
606.900	-13.053	0.101
607.000	-18.027	0.101
607.100	-22.577	0.101
607.200	-12.510	0.101
607.300	-11.231	0.101
607.400	-18.185	0.101
607.500	-12.872	0.101
607.600	-18.461	0.101
607.700	-12.057	0.101
607.800	-21.481	0.101
607.900	-16.384	0.101
608.000	-15.840	0.101
608.100	-23.712	0.101
608.200	-16.335	0.101
608.300	-37.276	0.101
608.400	-22.892	0.101
608.500	-17.235	0.101
608.600	-10.539	0.101
608.700	-11.882	0.101
608.800	-12.790	0.101
608.900	-23.547	0.101
609.000	-18.795	0.101
609.100	-21.347	0.101
609.200	-15.989	0.101
609.300	-14.172	0.101
609.400	-20.099	0.101
609.500	-16.108	0.101
609.600	-14.629	0.101
609.700	-25.367	0.101
609.800	-6.058	0.101
609.900	-20.631	0.101
610.000	-12.540	0.101
610.100	-17.436	0.101
610.200	-24.003	0.101
610.300	-14.216	0.101
610.400	-13.357	0.101
610.500	-23.962	0.101
610.600	-16.054	0.101
610.700	-30.198	0.101
610.800	-22.152	0.101
610.900	-9.320	0.101
611.000	-19.467	0.101
611.100	-25.947	0.101
611.200	-5.634	0.101
611.300	-16.010	0.101
611.400	-12.610	0.101
611.500	-9.630	0.101
611.600	-26.356	0.101
611.700	-17.228	0.101
611.800	-20.478	0.101
611.900	-18.406	0.101
612.000	-21.547	0.101
612.100	-11.262	0.101
612.200	-14.356	0.101
612.300	-24.193	0.101
612.400	-13.969	0.101
612.500	-27.529	0.101
612.600	-11.075	0.101
612.700	-21.165	0.101
612.800	-11.701	0.101
612.900	-18.871	0.101
613.000	-14.859	0.101
613.100	1.505	0.101
613.200	-18.259	0.101
613.300	-14.955	0.101
613.400	-31.299	0.101
613.500	-28.224	0.101
613.600	-21.060	0.101
613.700	-10.330	0.101
613.800	-0.963	0.101
613.900	-22.785	0.101
614.000	-15.339	0.101
614.100	-22.333	0.101
614.200	-26.524	0.101
614.300	-25.122	0.101
614.400	-20.380	0.101
614.500	-20.305	0.101
614.600	-18.390	0.101
614.700	-7.943	0.101
614.800	-9.413	0.101
614.900	-10.657	0.101
615.000	-17.871	0.101
615.100	-22.419	0.101
615.200	-15.735	0.101
615.300	-20.552	0.101
615.400	-21.996	0.101
615.500	-25.696	0.101
615.600	-15.970	0.101
615.700	-22.290	0.101
615.800	-15.776	0.101
615.900	-3.386	0.101
616.000	-19.456	0.101
616.100	-12.549	0.101
616.200	-27.030	0.101
616.300	-8.929	0.101
616.400	-12.968	0.101
616.500	-13.048	0.101
616.600	-34.336	0.101
616.700	-2.449	0.101
616.800	-6.638	0.101
616.900	-13.240	0.101
617.000	-31.232	0.101
617.100	-22.815	0.101
617.200	-16.120	0.101
617.300	-12.823	0.101
617.400	-25.068	0.101
617.500	-15.175	0.101
617.600	-21.205	0.101
617.700	-21.519	0.101
617.800	-17.476	0.101
617.900	-13.218	0.101
618.000	-21.242	0.101
618.100	-19.984	0.101
618.200	-20.372	0.101
618.300	-22.715	0.101
618.400	-14.487	0.101
618.500	-23.992	0.101
618.600	-18.051	0.101
618.700	-8.745	0.101
618.800	-16.028	0.101
618.900	-32.486	0.101
619.000	-15.240	0.101
619.100	-18.527	0.101
619.200	-17.225	0.101
619.300	-6.805	0.101
619.400	-17.774	0.101
619.500	-14.954	0.101
619.600	-17.791	0.101
619.700	-17.418	0.101
619.800	-17.226	0.101
619.900	-9.425	0.101
620.000	-16.633	0.101
620.100	-18.989	0.101
620.200	-11.653	0.101
620.300	-32.382	0.101
620.400	-25.236	0.101
620.500	-19.896	0.101
620.600	-14.888	0.101
620.700	-11.283	0.101
620.800	-17.525	0.101
620.900	-22.083	0.101
621.000	-17.676	0.101
621.100	-13.810	0.101
621.200	-26.480	0.101
621.300	-19.356	0.101
621.400	-10.538	0.101
621.500	-14.829	0.101
621.600	-22.989	0.101
621.700	-28.825	0.101
621.800	-12.677	0.101
621.900	-10.282	0.101
622.000	-20.326	0.101
622.100	-20.606	0.101
622.200	-26.492	0.101
622.300	-18.752	0.101
622.400	-1.639	0.101
622.500	-25.455	0.101
622.600	-18.853	0.101
622.700	-3.760	0.101
622.800	-14.870	0.101
622.900	-13.645	0.101
623.000	-14.897	0.101
623.100	-9.525	0.101
623.200	-14.616	0.101
623.300	-24.480	0.101
623.400	-13.190	0.101
623.500	-12.441	0.101
623.600	-25.493	0.101
623.700	-3.957	0.101
623.800	-17.253	0.101
623.900	-14.873	0.101
624.000	-28.059	0.101
624.100	-18.356	0.101
624.200	-18.985	0.101
624.300	-11.172	0.101
624.400	-10.213	0.101
624.500	-1.771	0.101
624.600	-17.610	0.101
624.700	-33.116	0.101
624.800	-22.314	0.101
624.900	-15.501	0.101
625.000	1.896	0.101
625.100	-12.725	0.101
625.200	-31.733	0.101
625.300	-16.928	0.101
625.400	-4.351	0.101
625.500	-18.125	0.101
625.600	8.599	0.101
625.700	-21.789	0.101
625.800	-14.193	0.101
625.900	-10.505	0.101
626.000	-32.506	0.101
626.100	-12.575	0.101
626.200	-8.906	0.101
626.300	-16.359	0.101
626.400	-10.758	0.101
626.500	-16.686	0.101
626.600	-33.207	0.101
626.700	-10.996	0.101
626.800	-22.274	0.101
626.900	-15.434	0.101
627.000	-11.396	0.101
627.100	-11.886	0.101
627.200	-21.949	0.101
627.300	-13.887	0.101
627.400	-14.814	0.101
627.500	-19.027	0.101
627.600	-15.038	0.101
627.700	-25.646	0.101
627.800	-23.602	0.101
627.900	-21.050	0.101
628.000	-21.175	0.101
628.100	-24.787	0.101
628.200	-6.356	0.101
628.300	-21.648	0.101
628.400	-12.787	0.101
628.500	-16.898	0.101
628.600	-11.910	0.101
628.700	-15.609	0.101
628.800	-28.284	0.101
628.900	-18.168	0.101
629.000	-18.215	0.101
629.100	-9.553	0.101
629.200	-20.933	0.101
629.300	-13.628	0.101
629.400	-7.585	0.101
629.500	-21.110	0.101
629.600	-21.496	0.101
629.700	-5.991	0.101
629.800	-12.492	0.101
629.900	-6.544	0.101
630.000	-21.739	0.101
630.100	-13.175	0.101
630.200	-24.794	0.101
630.300	-28.955	0.101
630.400	9.794	0.101
630.500	-14.375	0.101
630.600	-21.897	0.101
630.700	-14.633	0.101
630.800	-18.086	0.101
630.900	-12.904	0.101
631.000	-15.781	0.101
631.100	-1.469	0.101
631.200	-9.073	0.101
631.300	1.947	0.101
631.400	13.741	0.101
631.500	10.935	0.101
631.600	-6.169	0.101
631.700	-12.656	0.101
631.800	12.190	0.101
631.900	5.673	0.101
632.000	1.080	0.101
632.100	7.735	0.101
632.200	-0.693	0.101
632.300	11.318	0.101
632.400	6.416	0.101
632.500	8.251	0.101
632.600	2.991	0.101
632.700	3.491	0.101
632.800	14.091	0.101
632.900	16.390	0.101
633.000	-1.070	0.101
633.100	1.631	0.101
633.200	10.054	0.101
633.300	12.783	0.101
633.400	7.935	0.101
633.500	1.849	0.101
633.600	11.426	0.101
633.700	22.685	0.101
633.800	-2.181	0.101
633.900	11.701	0.101
634.000	5.519	0.101
634.100	15.620	0.101
634.200	10.982	0.101
634.300	13.572	0.101
634.400	0.128	0.101
634.500	1.261	0.101
634.600	2.215	0.101
634.700	1.605	0.101
634.800	16.316	0.101
634.900	13.054	0.101
635.000	19.642	0.101
635.100	12.575	0.101
635.200	2.000	0.101
635.300	11.399	0.101
635.400	5.512	0.101
635.500	20.121	0.101
635.600	-2.907	0.101
635.700	1.481	0.101
635.800	-1.395	0.101
635.900	8.619	0.101
636.000	6.288	0.101
636.100	-3.220	0.101
636.200	-0.446	0.101
636.300	7.993	0.101
636.400	-1.579	0.101
636.500	12.792	0.101
636.600	14.508	0.101
636.700	10.005	0.101
636.800	1.560	0.101
636.900	-0.470	0.101
637.000	7.603	0.101
637.100	18.399	0.101
637.200	5.234	0.101
637.300	14.760	0.101
637.400	10.996	0.101
637.500	15.410	0.101
637.600	0.221	0.101
637.700	9.549	0.101
637.800	2.156	0.101
637.900	8.041	0.101
638.000	6.113	0.101
638.100	11.644	0.101
638.200	17.086	0.101
638.300	0.661	0.101
638.400	1.486	0.101
638.500	9.050	0.101
638.600	14.694	0.101
638.700	5.340	0.101
638.800	1.779	0.101
638.900	8.497	0.101
639.000	-3.293	0.101
639.100	1.355	0.101
639.200	23.569	0.101
639.300	25.351	0.101
639.400	8.234	0.101
639.500	2.832	0.101
639.600	10.512	0.101
639.700	19.898	0.101
639.800	19.115	0.101
639.900	2.863	0.101
640.000	11.831	0.101
640.100	11.572	0.101
640.200	10.290	0.101
640.300	7.918	0.101
640.400	12.913	0.101
640.500	14.049	0.101
640.600	14.594	0.101
640.700	23.686	0.101
640.800	13.691	0.101
640.900	12.956	0.101
641.000	21.951	0.101
641.100	9.936	0.101
641.200	15.229	0.101
641.300	3.727	0.101
641.400	22.458	0.101
641.500	14.247	0.101
641.600	5.131	0.101
641.700	8.335	0.101
641.800	1.357	0.101
641.900	-1.395	0.101
642.000	15.423	0.101
642.100	22.394	0.101
642.200	18.617	0.101
642.300	19.372	0.101
642.400	8.446	0.101
642.500	16.682	0.101
642.600	8.360	0.101
642.700	7.061	0.101
642.800	17.808	0.101
642.900	17.086	0.101
643.000	3.401	0.101
643.100	5.138	0.101
643.200	20.183	0.101
643.300	16.503	0.101
643.400	15.808	0.101
643.500	11.413	0.101
643.600	2.780	0.101
643.700	19.133	0.101
643.800	13.861	0.101
643.900	20.042	0.101
644.000	-4.613	0.101
644.100	26.763	0.101
644.200	8.718	0.101
644.300	10.801	0.101
644.400	16.966	0.101
644.500	23.324	0.101
644.600	17.748	0.101
644.700	2.874	0.101
644.800	3.862	0.101
644.900	16.183	0.101
645.000	18.453	0.101
645.100	12.177	0.101
645.200	18.397	0.101
645.300	17.496	0.101
645.400	27.751	0.101
645.500	28.659	0.101
645.600	13.939	0.101
645.700	22.743	0.101
645.800	19.422	0.101
645.900	1.762	0.101
646.000	5.243	0.101
646.100	6.518	0.101
646.200	20.576	0.101
646.300	15.940	0.101
646.400	9.011	0.101
646.500	27.766	0.101
646.600	25.714	0.101
646.700	8.506	0.101
646.800	19.114	0.101
646.900	15.746	0.101
647.000	24.119	0.101
647.100	20.114	0.101
647.200	22.701	0.101
647.300	21.371	0.101
647.400	23.750	0.101
647.500	18.539	0.101
647.600	11.387	0.101
647.700	39.171	0.101
647.800	15.706	0.101
647.900	15.237	0.101
648.000	15.223	0.101
648.100	7.215	0.101
648.200	16.584	0.101
648.300	27.683	0.101
648.400	21.735	0.101
648.500	17.927	0.101
648.600	16.001	0.101
648.700	22.383	0.101
648.800	23.725	0.101
648.900	29.314	0.101
649.000	25.530	0.101
649.100	24.144	0.101
649.200	20.784	0.101
649.300	22.494	0.101
649.400	16.340	0.101
649.500	19.264	0.101
649.600	27.112	0.101
649.700	17.984	0.101
649.800	37.282	0.101
649.900	20.837	0.101
650.000	27.526	0.101
650.100	17.125	0.101
650.200	30.147	0.101
650.300	24.815	0.101
650.400	26.427	0.101
650.500	24.207	0.101
650.600	36.324	0.101
650.700	29.597	0.101
650.800	28.158	0.101
650.900	25.837	0.101
651.000	22.083	0.101
651.100	31.864	0.101
651.200	30.864	0.101
651.300	22.582	0.101
651.400	28.679	0.101
651.500	20.311	0.101
651.600	23.555	0.101
651.700	19.803	0.101
651.800	23.404	0.101
651.900	41.339	0.101
652.000	30.109	0.101
652.100	26.397	0.101
652.200	20.229	0.101
652.300	31.220	0.101
652.400	18.344	0.101
652.500	27.402	0.101
652.600	31.402	0.101
652.700	29.138	0.101
652.800	25.757	0.101
652.900	27.848	0.101
653.000	31.927	0.101
653.100	38.046	0.101
653.200	27.432	0.101
653.300	35.868	0.101
653.400	41.294	0.101
653.500	34.242	0.101
653.600	30.389	0.101
653.700	43.954	0.101
653.800	40.738	0.101
653.900	47.956	0.101
654.000	22.122	0.101
654.100	33.586	0.101
654.200	34.839	0.101
654.300	27.905	0.101
654.400	32.818	0.101
654.500	38.150	0.101
654.600	48.366	0.101
654.700	35.890	0.101
654.800	33.786	0.101
654.900	31.735	0.101
655.000	25.634	0.101
655.100	27.870	0.101
655.200	35.763	0.101
655.300	23.703	0.101
655.400	41.087	0.101
655.500	38.086	0.101
655.600	50.460	0.101
655.700	24.028	0.101
655.800	23.914	0.101
655.900	37.242	0.101
656.000	42.044	0.101
656.100	24.334	0.101
656.200	26.446	0.101
656.300	41.974	0.101
656.400	29.282	0.101
656.500	30.430	0.101
656.600	28.570	0.101
656.700	33.247	0.101
656.800	40.600	0.101
656.900	46.044	0.101
657.000	38.051	0.101
657.100	28.383	0.101
657.200	39.043	0.101
657.300	39.039	0.101
657.400	29.197	0.101
657.500	39.207	0.101
657.600	46.696	0.101
657.700	42.769	0.101
657.800	37.573	0.101
657.900	36.072	0.101
658.000	51.640	0.101
658.100	30.540	0.101
658.200	33.191	0.101
658.300	36.588	0.101
658.400	36.208	0.101
658.500	38.916	0.101
658.600	42.945	0.101
658.700	38.738	0.101
658.800	34.057	0.101
658.900	38.845	0.101
659.000	40.011	0.101
659.100	37.822	0.101
659.200	54.368	0.101
659.300	33.841	0.101
659.400	28.859	0.101
659.500	24.429	0.101
659.600	38.865	0.101
659.700	39.029	0.101
659.800	47.231	0.101
659.900	46.075	0.101
660.000	35.267	0.101
660.100	45.563	0.101
660.200	41.542	0.101
660.300	30.416	0.101
660.400	50.337	0.101
660.500	32.473	0.101
660.600	41.708	0.101
660.700	50.940	0.101
660.800	32.078	0.101
660.900	31.367	0.101
661.000	45.763	0.101
661.100	41.599	0.101
661.200	44.161	0.101
661.300	35.036	0.101
661.400	35.323	0.101
661.500	41.825	0.101
661.600	37.995	0.101
661.700	38.106	0.101
661.800	49.351	0.101
661.900	31.921	0.101
662.000	41.383	0.101
662.100	41.155	0.101
662.200	37.832	0.101
662.300	56.582	0.101
662.400	37.725	0.101
662.500	30.464	0.101
662.600	27.106	0.101
662.700	36.925	0.101
662.800	29.260	0.101
662.900	48.321	0.101
663.000	39.222	0.101
663.100	42.386	0.101
663.200	28.140	0.101
663.300	48.949	0.101
663.400	36.016	0.101
663.500	32.938	0.101
663.600	34.743	0.101
663.700	35.742	0.101
663.800	40.664	0.101
663.900	34.221	0.101
664.000	36.568	0.101
664.100	56.463	0.101
664.200	31.981	0.101
664.300	41.300	0.101
664.400	27.373	0.101
664.500	39.675	0.101
664.600	39.279	0.101
664.700	46.854	0.101
664.800	32.416	0.101
664.900	42.121	0.101
665.000	29.100	0.101
665.100	52.045	0.101
665.200	28.818	0.101
665.300	33.524	0.101
665.400	43.805	0.101
665.500	41.456	0.101
665.600	45.657	0.101
665.700	40.383	0.101
665.800	38.280	0.101
665.900	35.303	0.101
666.000	43.558	0.101
666.100	40.899	0.101
666.200	20.813	0.101
666.300	47.116	0.101
666.400	41.517	0.101
666.500	45.842	0.101
666.600	34.555	0.101
666.700	36.238	0.101
666.800	42.115	0.101
666.900	35.970	0.101
667.000	27.380	0.101
667.100	47.091	0.101
667.200	34.029	0.101
667.300	47.268	0.101
667.400	38.312	0.101
667.500	41.721	0.101
667.600	45.070	0.101
667.700	28.925	0.101
667.800	29.416	0.101
667.900	42.822	0.101
668.000	47.904	0.101
668.100	45.258	0.101
668.200	44.605	0.101
668.300	36.492	0.101
668.400	33.293	0.101
668.500	35.965	0.101
668.600	50.732	0.101
668.700	38.688	0.101
668.800	39.256	0.101
668.900	28.789	0.101
669.000	44.603	0.101
669.100	33.954	0.101
669.200	46.630	0.101
669.300	28.696	0.101
669.400	48.463	0.101
669.500	42.816	0.101
669.600	15.667	0.101
669.700	30.180	0.101
669.800	36.780	0.101
669.900	31.232	0.101
670.000	34.618	0.101
670.100	43.380	0.101
670.200	43.216	0.101
670.300	34.105	0.101
670.400	47.061	0.101
670.500	32.509	0.101
670.600	41.983	0.101
670.700	40.800	0.101
670.800	45.274	0.101
670.900	42.488	0.101
671.000	26.968	0.101
671.100	40.665	0.101
671.200	40.760	0.101
671.300	36.731	0.101
671.400	35.738	0.101
671.500	32.065	0.101
671.600	34.984	0.101
671.700	38.554	0.101
671.800	40.982	0.101
671.900	51.959	0.101
672.000	22.219	0.101
672.100	42.459	0.101
672.200	45.597	0.101
672.300	33.043	0.101
672.400	42.633	0.101
672.500	33.270	0.101
672.600	34.057	0.101
672.700	49.962	0.101
672.800	37.294	0.101
672.900	40.853	0.101
673.000	51.759	0.101
673.100	53.307	0.101
673.200	46.284	0.101
673.300	32.018	0.101
673.400	38.756	0.101
673.500	46.325	0.101
673.600	32.459	0.101
673.700	43.624	0.101
673.800	37.495	0.101
673.900	40.030	0.101
674.000	28.218	0.101
674.100	40.227	0.101
674.200	35.621	0.101
674.300	44.151	0.101
674.400	46.696	0.101
674.500	56.439	0.101
674.600	36.235	0.101
674.700	42.030	0.101
674.800	35.552	0.101
674.900	35.964	0.101
675.000	57.796	0.101
675.100	38.784	0.101
675.200	36.506	0.101
675.300	42.765	0.101
675.400	35.494	0.101
675.500	49.081	0.101
675.600	36.766	0.101
675.700	42.354	0.101
675.800	39.962	0.101
675.900	43.291	0.101
676.000	31.840	0.101
676.100	36.227	0.101
676.200	35.822	0.101
676.300	36.174	0.101
676.400	40.174	0.101
676.500	49.966	0.101
676.600	44.928	0.101
676.700	49.145	0.101
676.800	47.711	0.101
676.900	46.238	0.101
677.000	44.272	0.101
677.100	43.315	0.101
677.200	26.255	0.101
677.300	48.175	0.101
677.400	38.595	0.101
677.500	49.091	0.101
677.600	47.020	0.101
677.700	43.149	0.101
677.800	28.040	0.101
677.900	36.130	0.101
678.000	38.836	0.101
678.100	41.541	0.101
678.200	37.924	0.101
678.300	41.253	0.101
678.400	46.958	0.101
678.500	32.560	0.101
678.600	33.991	0.101
678.700	38.785	0.101
678.800	35.075	0.101
678.900	28.686	0.101
679.000	30.315	0.101
679.100	56.769	0.101
679.200	46.563	0.101
679.300	53.153	0.101
679.400	37.208	0.101
679.500	33.294	0.101
679.600	43.102	0.101
679.700	40.087	0.101
679.800	31.784	0.101
679.900	36.351	0.101
680.000	36.959	0.101
680.100	41.570	0.101
680.200	39.239	0.101
680.300	40.298	0.101
680.400	41.325	0.101
680.500	29.248	0.101
680.600	50.671	0.101
680.700	41.714	0.101
680.800	31.705	0.101
680.900	45.657	0.101
681.000	55.985	0.101
681.100	49.931	0.101
681.200	29.921	0.101
681.300	30.974	0.101
681.400	33.648	0.101
681.500	30.423	0.101
681.600	41.079	0.101
681.700	48.021	0.101
681.800	30.417	0.101
681.900	43.792	0.101
682.000	54.495	0.101
682.100	33.254	0.101
682.200	46.910	0.101
682.300	46.065	0.101
682.400	42.296	0.101
682.500	45.313	0.101
682.600	43.135	0.101
682.700	41.715	0.101
682.800	37.971	0.101
682.900	45.062	0.101
683.000	34.530	0.101
683.100	41.256	0.101
683.200	45.699	0.101
683.300	41.211	0.101
683.400	33.283	0.101
683.500	38.011	0.101
683.600	34.178	0.101
683.700	32.355	0.101
683.800	52.252	0.101
683.900	43.118	0.101
684.000	26.644	0.101
684.100	36.582	0.101
684.200	43.940	0.101
684.300	38.299	0.101
684.400	42.780	0.101
684.500	32.007	0.101
684.600	42.274	0.101
684.700	42.279	0.101
684.800	41.969	0.101
684.900	38.166	0.101
685.000	37.412	0.101
685.100	39.314	0.101
685.200	28.531	0.101
685.300	30.681	0.101
685.400	48.369	0.101
685.500	49.712	0.101
685.600	46.333	0.101
685.700	44.608	0.101
685.800	42.837	0.101
685.900	37.630	0.101
686.000	49.934	0.101
686.100	45.666	0.101
686.200	38.958	0.101
686.300	42.262	0.101
686.400	39.316	0.101
686.500	47.891	0.101
686.600	31.374	0.101
686.700	42.887	0.101
686.800	43.227	0.101
686.900	50.033	0.101
687.000	39.219	0.101
687.100	42.450	0.101
687.200	37.516	0.101
687.300	38.016	0.101
687.400	35.336	0.100
687.500	29.048	0.100
687.600	44.045	0.101
687.700	42.694	0.100
687.800	41.653	0.100
687.900	50.172	0.100
688.000	42.594	0.100
688.100	42.930	0.100
688.200	37.143	0.100
688.300	32.720	0.100
688.400	43.341	0.100
688.500	41.181	0.100
688.600	38.811	0.100
688.700	40.470	0.100
688.800	48.740	0.100
688.900	42.094	0.100
689.000	43.703	0.100
689.100	45.440	0.100
689.200	36.997	0.100
689.300	44.958	0.100
689.400	35.941	0.100
689.500	46.781	0.100
689.600	33.415	0.100
689.700	25.718	0.100
689.800	44.343	0.100
689.900	36.885	0.100
690.000	34.482	0.100
690.100	43.459	0.100
690.200	32.809	0.100
690.300	52.656	0.100
690.400	36.961	0.100
690.500	42.385	0.100
690.600	35.123	0.100
690.700	38.757	0.100
690.800	29.107	0.100
690.900	32.862	0.100
691.000	24.945	0.100
691.100	23.815	0.100
691.200	22.496	0.100
691.300	30.294	0.100
691.400	27.592	0.100
691.500	32.416	0.100
691.600	21.786	0.100
691.700	29.878	0.100
691.800	30.478	0.100
691.900	25.120	0.100
692.000	12.825	0.100
692.100	22.438	0.100
692.200	18.514	0.100
692.300	9.749	0.100
692.400	34.961	0.100
692.500	27.875	0.100
692.600	24.010	0.100
692.700	12.441	0.100
692.800	12.819	0.100
692.900	12.734	0.100
693.000	24.387	0.100
693.100	7.242	0.100
693.200	7.851	0.100
693.300	14.858	0.100
693.400	25.648	0.100
693.500	19.112	0.100
693.600	13.413	0.100
693.700	13.429	0.100
693.800	-1.054	0.100
693.900	8.769	0.100
694.000	10.298	0.100
694.100	21.273	0.100
694.200	16.125	0.100
694.300	1.149	0.100
694.400	-4.902	0.100
694.500	16.651	0.100
694.600	12.301	0.100
694.700	7.229	0.100
694.800	13.296	0.100
694.900	0.624	0.100
695.000	5.309	0.100
695.100	11.274	0.100
695.200	1.787	0.100
695.300	15.146	0.100
695.400	0.865	0.100
695.500	5.746	0.100
695.600	-2.034	0.100
695.700	3.183	0.100
695.800	21.887	0.100
695.900	7.926	0.100
696.000	6.338	0.100
696.100	7.624	0.100
696.200	3.303	0.100
696.300	14.364	0.100
696.400	0.970	0.100
696.500	10.457	0.100
696.600	10.725	0.100
696.700	10.020	0.100
696.800	19.161	0.100
696.900	0.785	0.100
697.000	6.827	0.100
697.100	13.702	0.100
697.200	-2.303	0.100
697.300	5.335	0.100
697.400	2.792	0.100
697.500	2.801	0.100
697.600	10.632	0.100
697.700	6.380	0.100
697.800	-11.906	0.100
697.900	9.511	0.100
698.000	-8.648	0.100
698.100	4.911	0.100
698.200	3.546	0.100
698.300	9.017	0.100
698.400	6.368	0.100
698.500	6.655	0.100
698.600	8.917	0.100
698.700	12.255	0.100
698.800	20.016	0.100
698.900	15.617	0.100
699.000	18.499	0.100
699.100	3.383	0.100
699.200	7.287	0.100
699.300	8.526	0.100
699.400	4.254	0.100
699.500	2.497	0.100
699.600	2.912	0.100
699.700	8.697	0.100
699.800	7.001	0.100
699.900	4.287	0.100
700.000	16.117	0.100
700.100	8.758	0.100
700.200	-7.499	0.100
700.300	17.246	0.100
700.400	2.062	0.100
700.500	20.341	0.100
700.600	-6.186	0.100
700.700	2.761	0.100
700.800	1.118	0.100
700.900	10.703	0.100
701.000	11.463	0.100
701.100	-0.999	0.100
701.200	11.166	0.100
701.300	-2.136	0.100
701.400	1.627	0.100
701.500	3.561	0.100
701.600	0.012	0.100
701.700	5.490	0.100
701.800	-2.634	0.100
701.900	0.032	0.100
702.000	-0.834	0.100
702.100	16.834	0.100
702.200	-8.923	0.100
702.300	2.018	0.100
702.400	11.191	0.100
702.500	9.732	0.100
702.600	4.440	0.100
702.700	2.552	0.100
702.800	-6.300	0.100
702.900	-13.380	0.100
703.000	-1.119	0.100
703.100	2.569	0.100
703.200	13.788	0.100
703.300	10.549	0.100
703.400	0.145	0.100
703.500	-6.852	0.100
703.600	-10.862	0.100
703.700	1.758	0.100
703.800	10.235	0.100
703.900	13.497	0.100
704.000	11.472	0.100
704.100	3.519	0.100
704.200	-14.781	0.101
704.300	-8.928	0.101
704.400	6.350	0.100
704.500	0.595	0.101
704.600	-1.289	0.101
704.700	-10.540	0.101
704.800	5.051	0.101
704.900	8.761	0.101
705.000	8.484	0.101
705.100	-8.536	0.101
705.200	-1.195	0.101
705.300	11.552	0.101
705.400	-4.973	0.101
705.500	-6.142	0.101
705.600	-10.220	0.101
705.700	-7.277	0.101
705.800	-12.665	0.101
705.900	-2.540	0.101
706.000	-2.945	0.101
706.100	4.548	0.101
706.200	-2.496	0.101
706.300	14.802	0.101
706.400	-7.811	0.101
706.500	10.083	0.101
706.600	-4.733	0.101
706.700	-14.377	0.101
706.800	14.003	0.101
706.900	-11.080	0.101
707.000	13.811	0.101
707.100	-4.301	0.101
707.200	-2.150	0.101
707.300	4.222	0.101
707.400	-6.422	0.101
707.500	-5.516	0.101
707.600	3.014	0.101
707.700	-8.713	0.101
707.800	10.432	0.101
707.900	-3.967	0.101
708.000	-0.641	0.101
708.100	-7.220	0.101
708.200	8.155	0.101
708.300	7.850	0.101
708.400	2.977	0.101
708.500	-4.062	0.101
708.600	-0.033	0.101
708.700	-7.940	0.101
708.800	-3.857	0.101
708.900	6.677	0.101
709.000	-4.608	0.101
709.100	-16.169	0.101
709.200	-1.331	0.101
709.300	6.162	0.101
709.400	1.293	0.101
709.500	-7.980	0.101
709.600	-15.465	0.101
709.700	9.087	0.101
709.800	-5.998	0.101
709.900	10.433	0.101
710.000	-13.135	0.101
710.100	-1.725	0.101
710.200	-10.267	0.101
710.300	-1.776	0.101
710.400	2.746	0.101
710.500	-10.815	0.101
710.600	-9.559	0.101
710.700	-16.997	0.101
710.800	-16.127	0.101
710.900	7.111	0.101
711.000	-21.241	0.101
711.100	-7.917	0.101
711.200	6.932	0.101
711.300	-10.603	0.101
711.400	-2.630	0.101
711.500	0.178	0.101
711.600	-21.514	0.101
711.700	-6.989	0.101
711.800	-21.768	0.101
711.900	-2.562	0.101
712.000	-14.782	0.101
712.100	1.098	0.101
712.200	-6.511	0.101
712.300	-6.240	0.101
712.400	-6.639	0.101
712.500	-0.669	0.101
712.600	-3.359	0.101
712.700	-12.508	0.101
712.800	0.935	0.101
712.900	-7.351	0.101
713.000	-9.410	0.101
713.100	-18.179	0.101
713.200	-1.385	0.101
713.300	3.039	0.101
713.400	-10.734	0.101
713.500	1.929	0.101
713.600	-3.501	0.101
713.700	-6.976	0.101
713.800	-0.532	0.101
713.900	-13.435	0.101
714.000	3.986	0.101
714.100	-17.893	0.101
714.200	-13.530	0.101
714.300	-0.261	0.101
714.400	-10.298	0.101
714.500	0.013	0.101
714.600	-2.272	0.101
714.700	-5.883	0.101
714.800	-4.269	0.101
714.900	-17.105	0.101
715.000	-0.835	0.101
715.100	-5.372	0.101
715.200	-15.922	0.101
715.300	-3.479	0.101
715.400	3.936	0.101
715.500	-12.864	0.101
715.600	-8.560	0.101
715.700	3.140	0.101
715.800	-9.366	0.101
715.900	-6.968	0.101
716.000	-6.046	0.101
716.100	-11.754	0.101
716.200	-0.935	0.101
716.300	-18.536	0.101
716.400	-14.394	0.101
716.500	-16.752	0.101
716.600	-19.852	0.101
716.700	-6.667	0.101
716.800	-4.726	0.101
716.900	-19.346	0.101
717.000	-10.239	0.101
717.100	-8.108	0.101
717.200	-14.935	0.101
717.300	-16.584	0.101
717.400	-11.497	0.101
717.500	-7.690	0.101
717.600	-13.660	0.101
717.700	-12.079	0.101
717.800	-6.343	0.101
717.900	-9.832	0.101
718.000	-0.056	0.101
718.100	-13.858	0.101
718.200	-9.315	0.101
718.300	-2.885	0.101
718.400	-21.555	0.101
718.500	-18.476	0.101
718.600	-13.688	0.101
718.700	-7.046	0.101
718.800	-15.446	0.101
718.900	-11.732	0.101
719.000	-18.814	0.101
719.100	-11.660	0.101
719.200	-10.734	0.101
719.300	-8.006	0.101
719.400	-4.575	0.101
719.500	-14.938	0.101
719.600	-15.655	0.101
719.700	-15.025	0.101
719.800	-22.721	0.101
719.900	-5.075	0.101
720.000	-6.428	0.101
720.100	-17.367	0.101
720.200	-16.944	0.101
720.300	-14.031	0.101
720.400	0.827	0.101
720.500	-18.095	0.101
720.600	-13.574	0.101
720.700	-3.934	0.101
720.800	-22.125	0.101
720.900	-9.661	0.101
721.000	-13.314	0.101
721.100	-13.280	0.101
721.200	-26.702	0.101
721.300	-0.523	0.101
721.400	-12.802	0.101
721.500	-17.744	0.101
721.600	-11.523	0.101
721.700	-11.862	0.101
721.800	-10.847	0.101
721.900	-15.443	0.101
722.000	-15.653	0.101
722.100	-9.738	0.101
722.200	-27.995	0.101
722.300	-15.067	0.101
722.400	-10.693	0.101
722.500	-4.381	0.101
722.600	-7.315	0.101
722.700	-18.721	0.101
722.800	-11.593	0.101
722.900	-0.477	0.101
723.000	-18.498	0.101
723.100	-12.840	0.101
723.200	-18.355	0.101
723.300	-9.780	0.101
723.400	-1.550	0.101
723.500	-24.417	0.101
723.600	-23.497	0.101
723.700	0.112	0.101
723.800	-19.154	0.101
723.900	-8.335	0.101
724.000	-1.159	0.101
724.100	-8.924	0.101
724.200	-32.434	0.101
724.300	1.605	0.101
724.400	-30.837	0.101
724.500	-19.420	0.101
724.600	-1.256	0.101
724.700	-20.193	0.101
724.800	-25.482	0.101
724.900	-14.266	0.101
725.000	-25.073	0.101
725.100	-16.835	0.101
725.200	-20.171	0.101
725.300	-15.503	0.101
725.400	1.910	0.101
725.500	-12.834	0.101
725.600	-5.833	0.101
725.700	-18.576	0.101
725.800	-24.125	0.101
725.900	-28.556	0.101
726.000	-22.124	0.101
726.100	-6.700	0.101
726.200	2.082	0.101
726.300	-16.775	0.101
726.400	-13.703	0.101
726.500	-16.580	0.101
726.600	-17.839	0.101
726.700	-21.248	0.101
726.800	1.645	0.101
726.900	-13.728	0.101
727.000	-18.961	0.101
727.100	-20.296	0.101
727.200	-17.365	0.101
727.300	-22.967	0.101
727.400	-18.218	0.101
727.500	-4.102	0.101
727.600	-2.339	0.101
727.700	-16.880	0.101
727.800	-25.022	0.101
727.900	-23.259	0.101
728.000	-22.910	0.101
728.100	-16.828	0.101
728.200	-5.880	0.101
728.300	-21.406	0.101
728.400	-15.401	0.101
728.500	-15.294	0.101
728.600	-20.388	0.101
728.700	-28.066	0.101
728.800	-17.705	0.101
728.900	-14.281	0.101
729.000	-15.701	0.101
729.100	-8.739	0.101
729.200	-27.354	0.101
729.300	-26.703	0.101
729.400	-23.580	0.101
729.500	-8.394	0.101
729.600	-10.128	0.101
729.700	-15.221	0.101
729.800	-26.019	0.101
729.900	-2.815	0.101
730.000	-21.136	0.101
730.100	-8.304	0.101
730.200	-18.864	0.101
730.300	-19.495	0.101
730.400	-19.082	0.101
730.500	-20.822	0.101
730.600	-19.314	0.101
730.700	-22.276	0.101
730.800	-24.897	0.101
730.900	-33.046	0.101
731.000	-21.499	0.101
731.100	-19.887	0.101
731.200	-10.432	0.101
731.300	-18.498	0.101
731.400	-23.957	0.101
731.500	-11.143	0.101
731.600	-13.833	0.101
731.700	-20.468	0.101
731.800	-11.553	0.101
731.900	-18.272	0.101
732.000	-12.605	0.101
732.100	-29.606	0.101
732.200	-16.181	0.101
732.300	-9.349	0.101
732.400	-29.185	0.101
732.500	-17.150	0.101
732.600	-19.167	0.101
732.700	-26.046	0.101
732.800	-22.012	0.101
732.900	-15.919	0.101
733.000	-23.311	0.101
733.100	-19.268	0.101
733.200	-18.731	0.101
733.300	-24.584	0.101
733.400	-21.507	0.101
733.500	-16.066	0.101
733.600	-19.450	0.101
733.700	-13.993	0.101
733.800	-14.285	0.101
733.900	-20.329	0.101
734.000	-21.798	0.101
734.100	-13.118	0.101
734.200	-18.237	0.101
734.300	-19.813	0.101
734.400	-15.958	0.101
734.500	-16.079	0.101
734.600	-17.594	0.101
734.700	-13.252	0.101
734.800	-23.404	0.101
734.900	-14.295	0.101
735.000	-10.136	0.101
735.100	-21.026	0.101
735.200	-25.210	0.101
735.300	-17.761	0.101
735.400	-27.134	0.101
735.500	-11.111	0.101
735.600	-13.289	0.101
735.700	-22.901	0.101
735.800	-18.463	0.101
735.900	-11.128	0.101
736.000	-13.476	0.101
736.100	-4.459	0.101
736.200	-33.548	0.101
736.300	-21.477	0.101
736.400	-19.806	0.101
736.500	-24.481	0.101
736.600	-23.711	0.101
736.700	-13.399	0.101
736.800	-12.841	0.101
736.900	-21.599	0.101
737.000	-13.392	0.101
737.100	-25.663	0.101
737.200	-18.261	0.101
737.300	-32.230	0.101
737.400	-29.838	0.101
737.500	-26.524	0.101
737.600	-19.081	0.101
737.700	-19.617	0.101
737.800	-7.189	0.101
737.900	-12.747	0.101
738.000	-19.603	0.101
738.100	-12.085	0.101
738.200	-7.991	0.101
738.300	-26.452	0.101
738.400	-20.476	0.101
738.500	-15.417	0.101
738.600	-11.295	0.101
738.700	-16.763	0.101
738.800	-11.056	0.101
738.900	-24.956	0.101
739.000	-16.654	0.101
739.100	-24.539	0.101
739.200	-22.728	0.101
739.300	-23.135	0.101
739.400	-6.841	0.101
739.500	-21.342	0.101
739.600	-16.223	0.101
739.700	-14.293	0.101
739.800	-18.302	0.101
739.900	-19.313	0.101
740.000	-21.986	0.101
740.100	-22.804	0.101
740.200	-20.228	0.101
740.300	-24.045	0.101
740.400	-20.495	0.101
740.500	-4.972	0.101
740.600	-20.996	0.101
740.700	-17.905	0.101
740.800	-16.820	0.101
740.900	-33.042	0.101
741.000	-21.750	0.101
741.100	-13.070	0.101
741.200	-19.179	0.101
741.300	-16.536	0.101
741.400	-4.968	0.101
741.500	-25.146	0.101
741.600	-32.611	0.101
741.700	-25.745	0.101
741.800	-10.377	0.101
741.900	-19.254	0.101
742.000	-15.342	0.101
742.100	-20.340	0.101
742.200	-24.665	0.101
742.300	-18.928	0.101
742.400	-18.573	0.101
742.500	-28.162	0.101
742.600	-11.624	0.101
742.700	-24.672	0.101
742.800	-11.888	0.101
742.900	-24.809	0.101
743.000	-19.773	0.101
743.100	-14.880	0.101
743.200	-21.834	0.101
743.300	-23.120	0.101
743.400	-19.067	0.101
743.500	-19.854	0.101
743.600	-16.936	0.101
743.700	-19.202	0.101
743.800	-20.793	0.101
743.900	-20.850	0.101
744.000	-17.371	0.101
744.100	-28.370	0.101
744.200	-11.457	0.101
744.300	-13.288	0.101
744.400	-18.129	0.101
744.500	-18.333	0.101
744.600	-21.597	0.101
744.700	-22.195	0.101
744.800	-17.882	0.101
744.900	-6.010	0.101
745.000	-13.211	0.101
745.100	-22.063	0.101
745.200	-29.091	0.101
745.300	-28.515	0.101
745.400	-26.709	0.101
745.500	-8.830	0.101
745.600	-10.705	0.101
745.700	-22.122	0.101
745.800	-5.451	0.101
745.900	-27.149	0.101
746.000	-26.290	0.101
746.100	-22.008	0.101
746.200	-16.141	0.101
746.300	-20.748	0.101
746.400	-5.872	0.101
746.500	-19.480	0.101
746.600	-27.365	0.101
746.700	-17.023	0.101
746.800	-15.267	0.101
746.900	-28.025	0.101
747.000	-7.014	0.101
747.100	-29.577	0.101
747.200	-14.705	0.101
747.300	-12.137	0.101
747.400	-28.133	0.101
747.500	-19.594	0.101
747.600	-8.524	0.101
747.700	-16.641	0.101
747.800	-23.313	0.101
747.900	-32.695	0.101
748.000	-19.029	0.101
748.100	-16.990	0.101
748.200	-14.787	0.101
748.300	-20.419	0.101
748.400	-24.911	0.101
748.500	-39.534	0.101
748.600	-23.269	0.101
748.700	-7.678	0.101
748.800	-22.626	0.101
748.900	-17.993	0.100
749.000	-15.557	0.100
749.100	-14.767	0.100
749.200	-23.476	0.100
749.300	-14.872	0.100
749.400	1.459	0.100
749.500	-7.490	0.100
749.600	-16.408	0.100
749.700	-22.343	0.100
749.800	-18.905	0.100
749.900	-18.843	0.100
750.000	-19.104	0.100
750.100	-24.098	0.100
750.200	-14.626	0.100
750.300	-11.024	0.100
750.400	-24.937	0.100
750.500	-10.917	0.100
750.600	-22.088	0.100
750.700	-7.247	0.100
750.800	-13.719	0.100
750.900	-15.847	0.100
751.000	-13.086	0.100
751.100	-2.202	0.100
751.200	-8.317	0.100
751.300	-22.792	0.100
751.400	-18.215	0.100
751.500	-26.160	0.100
751.600	-32.974	0.100
751.700	-13.693	0.100
751.800	-16.471	0.100
751.900	-22.644	0.100
752.000	-19.850	0.100
752.100	-22.664	0.100
752.200	-16.872	0.100
752.300	-15.856	0.100
752.400	-22.260	0.100
752.500	-34.771	0.100
752.600	-20.667	0.100
752.700	-23.391	0.100
752.800	-24.019	0.100
752.900	-17.005	0.100
753.000	-9.695	0.100
753.100	-16.421	0.100
753.200	-16.183	0.100
753.300	-22.794	0.100
753.400	-12.872	0.100
753.500	-20.693	0.100
753.600	-23.648	0.100
753.700	-14.963	0.100
753.800	-23.302	0.100
753.900	-30.437	0.100
754.000	0.763	0.100
754.100	-11.998	0.100
754.200	-24.186	0.100
754.300	-20.519	0.100
754.400	-10.076	0.100
754.500	-10.680	0.100
754.600	-24.293	0.100
754.700	-13.367	0.100
754.800	-19.440	0.100
754.900	-23.798	0.100
755.000	-18.653	0.100
755.100	-19.752	0.100
755.200	-12.052	0.100
755.300	-14.461	0.100
755.400	-15.759	0.100
755.500	-25.010	0.100
755.600	-12.142	0.100
755.700	-9.806	0.100
755.800	-28.339	0.100
755.900	-18.566	0.100
756.000	-17.656	0.100
756.100	-25.406	0.101
756.200	-15.907	0.100
756.300	-20.549	0.100
756.400	-15.112	0.100
756.500	-9.477	0.100
756.600	-14.189	0.100
756.700	-15.750	0.100
756.800	-29.331	0.100
756.900	-36.429	0.101
757.000	-16.888	0.100
757.100	-16.217	0.100
757.200	-15.546	0.100
757.300	-20.114	0.100
757.400	-13.395	0.100
757.500	-19.466	0.100
757.600	-24.184	0.100
757.700	-19.626	0.100
757.800	-15.454	0.100
757.900	-20.938	0.100
758.000	-21.104	0.100
758.100	-22.766	0.100
758.200	-13.041	0.100
758.300	-24.644	0.100
758.400	-28.056	0.100
758.500	-14.080	0.100
758.600	-7.345	0.100
758.700	-27.966	0.100
758.800	-11.557	0.100
758.900	-16.504	0.100
759.000	-18.768	0.100
759.100	-11.563	0.100
759.200	-31.879	0.100
759.300	-23.754	0.100
759.400	-23.383	0.100
759.500	-3.635	0.100
759.600	-11.857	0.100
759.700	-13.340	0.100
759.800	-13.897	0.100
759.900	-13.274	0.100
760.000	-11.189	0.100
760.100	-32.881	0.101
760.200	-23.408	0.101
760.300	-8.376	0.100
760.400	-26.534	0.101
760.500	-14.312	0.101
760.600	-28.678	0.101
760.700	-12.475	0.101
760.800	-13.232	0.101
760.900	-31.709	0.101
761.000	-19.946	0.101
761.100	-23.071	0.101
761.200	-7.666	0.101
761.300	-27.281	0.101
761.400	-20.231	0.101
761.500	-6.138	0.101
761.600	-22.222	0.101
761.700	-20.526	0.101
761.800	-17.288	0.101
761.900	-17.065	0.101
762.000	-31.183	0.101
762.100	-17.485	0.101
762.200	-12.007	0.101
762.300	-19.721	0.101
762.400	-18.290	0.101
762.500	-14.236	0.101
762.600	-19.254	0.101
762.700	-16.565	0.101
762.800	-15.863	0.101
762.900	-17.656	0.101
763.000	-17.043	0.101
763.100	-34.898	0.101
763.200	-21.268	0.101
763.300	-15.552	0.101
763.400	-9.234	0.101
763.500	-16.380	0.101
763.600	-16.378	0.101
763.700	-20.490	0.101
763.800	-19.249	0.101
763.900	-13.529	0.101
764.000	-21.244	0.101
764.100	-20.146	0.101
764.200	-4.569	0.101
764.300	-24.122	0.101
764.400	-13.356	0.101
764.500	-30.523	0.101
764.600	-24.421	0.101
764.700	-7.923	0.101
764.800	-9.835	0.101
764.900	-23.610	0.101
765.000	-26.051	0.101
765.100	-4.670	0.101
765.200	-4.537	0.101
765.300	-23.823	0.101
765.400	-10.466	0.101
765.500	-16.075	0.101
765.600	-26.540	0.101
765.700	-7.688	0.101
765.800	-10.773	0.101
765.900	-17.230	0.101
766.000	-11.829	0.101
766.100	-24.060	0.101
766.200	-15.192	0.101
766.300	-11.318	0.101
766.400	-24.676	0.101
766.500	-30.137	0.101
766.600	-11.293	0.101
766.700	-14.647	0.101
766.800	-29.707	0.101
766.900	-9.782	0.101
767.000	-24.095	0.101
767.100	-20.178	0.101
767.200	-25.729	0.101
767.300	-11.733	0.101
767.400	-18.306	0.101
767.500	3.490	0.101
767.600	-18.304	0.101
767.700	-17.494	0.101
767.800	-4.626	0.101
767.900	-18.199	0.101
768.000	-20.700	0.101
768.100	-28.839	0.101
768.200	-18.178	0.101
768.300	-16.358	0.101
768.400	-19.526	0.101
768.500	-27.451	0.101
768.600	-17.517	0.101
768.700	-12.810	0.101
768.800	-25.647	0.101
768.900	-36.689	0.101
769.000	-27.173	0.101
769.100	-11.723	0.101
769.200	-15.830	0.101
769.300	-25.298	0.101
769.400	-9.250	0.101
769.500	-19.434	0.101
769.600	-6.731	0.101
769.700	-23.556	0.101
769.800	-19.140	0.101
769.900	-31.065	0.101
770.000	-16.040	0.101
770.100	-12.924	0.101
770.200	-8.539	0.101
770.300	-13.960	0.101
770.400	-16.046	0.101
770.500	-12.650	0.101
770.600	-20.809	0.101
770.700	-25.446	0.101
770.800	-15.492	0.101
770.900	-18.372	0.101
771.000	-21.114	0.101
771.100	-15.659	0.101
771.200	-18.199	0.101
771.300	-27.405	0.101
771.400	-21.118	0.101
771.500	-22.082	0.101
771.600	-20.768	0.101
771.700	-16.031	0.101
771.800	-5.483	0.101
771.900	-8.781	0.101
772.000	-15.738	0.101
772.100	-12.578	0.101
772.200	-19.312	0.101
772.300	-16.565	0.101
772.400	-16.143	0.101
772.500	-18.464	0.101
772.600	-16.930	0.101
772.700	-22.305	0.101
772.800	-20.050	0.101
772.900	-30.676	0.101
773.000	-14.033	0.101
773.100	-25.180	0.101
773.200	-19.312	0.101
773.300	-11.378	0.101
773.400	-19.471	0.101
773.500	-13.470	0.101
773.600	-36.216	0.101
773.700	-13.436	0.101
773.800	-16.710	0.101
773.900	-14.063	0.101
774.000	-7.285	0.101
774.100	-20.974	0.101
774.200	-22.181	0.101
774.300	-16.010	0.101
774.400	-21.611	0.101
774.500	-15.348	0.101
774.600	-16.136	0.101
774.700	-11.294	0.101
774.800	-9.106	0.101
774.900	-20.531	0.101
775.000	-14.115	0.101
775.100	-16.445	0.101
775.200	-6.722	0.101
775.300	-19.488	0.101
775.400	-16.640	0.101
775.500	-25.318	0.101
775.600	-14.265	0.101
775.700	-23.104	0.101
775.800	-15.209	0.101
775.900	-8.777	0.101
776.000	-9.324	0.101
776.100	-31.245	0.101
776.200	-21.117	0.101
776.300	-22.244	0.101
776.400	-0.676	0.101
776.500	-20.159	0.101
776.600	-10.570	0.101
776.700	-21.579	0.101
776.800	-14.763	0.101
776.900	-0.230	0.100
777.000	-20.572	0.101
777.100	-3.941	0.101
777.200	-23.226	0.101
777.300	-12.889	0.101
777.400	-18.543	0.100
777.500	-32.443	0.100
777.600	-14.506	0.101
777.700	-19.516	0.101
777.800	-14.149	0.101
777.900	-19.867	0.101
778.000	-22.147	0.101
778.100	-7.206	0.100
778.200	-31.811	0.101
778.300	-15.857	0.100
778.400	-5.793	0.100
778.500	-16.537	0.100
778.600	-13.899	0.101
778.700	-7.120	0.101
778.800	-20.425	0.101
778.900	-22.179	0.101
779.000	-16.407	0.100
779.100	-19.895	0.101
779.200	-10.083	0.100
779.300	-24.697	0.101
779.400	-16.135	0.101
779.500	-15.110	0.101
779.600	-28.542	0.100
779.700	-18.298	0.100
779.800	-11.357	0.100
779.900	-11.750	0.100
780.000	-7.931	0.100
780.100	-7.639	0.100
780.200	-27.813	0.101
780.300	-14.065	0.101
780.400	-21.633	0.100
780.500	-14.092	0.101
780.600	-15.981	0.101
780.700	-22.714	0.101
780.800	-19.030	0.101
780.900	-4.648	0.100
781.000	-6.354	0.100
781.100	0.761	0.100
781.200	-17.597	0.100
781.300	-8.741	0.100
781.400	5.271	0.100
781.500	10.735	0.100
781.600	-1.775	0.100
781.700	-6.230	0.100
781.800	-4.551	0.100
781.900	6.167	0.100
782.000	-6.559	0.100
782.100	-0.782	0.100
782.200	4.449	0.100
782.300	4.720	0.100
782.400	8.192	0.100
782.500	-12.362	0.100
782.600	17.217	0.100
782.700	6.635	0.100
782.800	2.218	0.100
782.900	12.476	0.100
783.000	-9.027	0.100
783.100	1.806	0.100
783.200	-1.200	0.100
783.300	5.642	0.100
783.400	14.575	0.100
783.500	12.428	0.100
783.600	3.889	0.100
783.700	7.386	0.100
783.800	2.455	0.100
783.900	0.334	0.100
784.000	13.755	0.100
784.100	14.888	0.100
784.200	8.994	0.100
784.300	-2.372	0.100
784.400	6.078	0.100
784.500	14.373	0.100
784.600	12.063	0.100
784.700	1.155	0.100
784.800	7.915	0.100
784.900	8.945	0.100
785.000	-0.320	0.100
785.100	9.653	0.100
785.200	10.153	0.100
785.300	8.810	0.100
785.400	7.510	0.100
785.500	14.407	0.100
785.600	7.591	0.100
785.700	0.636	0.100
785.800	1.205	0.100
785.900	1.354	0.100
786.000	13.447	0.100
786.100	20.286	0.100
786.200	1.664	0.100
786.300	13.605	0.100
786.400	2.628	0.100
786.500	7.501	0.100
786.600	5.267	0.100
786.700	-4.231	0.100
786.800	3.538	0.100
786.900	1.020	0.100
787.000	19.323	0.100
787.100	7.372	0.100
787.200	14.570	0.100
787.300	0.513	0.100
787.400	14.570	0.100
787.500	7.583	0.100
787.600	19.202	0.100
787.700	11.374	0.100
787.800	12.126	0.100
787.900	-9.246	0.100
788.000	9.496	0.100
788.100	10.806	0.100
788.200	0.562	0.100
788.300	23.288	0.100
788.400	-2.473	0.100
788.500	13.879	0.100
788.600	5.827	0.100
788.700	-1.103	0.100
788.800	17.946	0.100
788.900	22.101	0.100
789.000	5.533	0.100
789.100	2.404	0.100
789.200	13.767	0.100
789.300	8.680	0.100
789.400	18.354	0.100
789.500	4.073	0.100
789.600	12.777	0.100
789.700	18.223	0.100
789.800	-3.156	0.100
789.900	16.047	0.100
790.000	11.614	0.100
790.100	5.457	0.100
790.200	5.138	0.100
790.300	18.316	0.100
790.400	17.024	0.100
790.500	3.768	0.100
790.600	9.468	0.100
790.700	-2.972	0.100
790.800	18.261	0.100
790.900	6.360	0.100
791.000	11.789	0.100
791.100	14.913	0.100
791.200	12.217	0.100
791.300	3.906	0.100
791.400	14.431	0.100
791.500	4.240	0.100
791.600	6.724	0.100
791.700	15.024	0.100
791.800	20.410	0.100
791.900	15.168	0.100
792.000	6.735	0.100
792.100	26.962	0.100
792.200	11.767	0.100
792.300	10.154	0.100
792.400	13.639	0.100
792.500	6.117	0.100
792.600	2.563	0.100
792.700	14.347	0.100
792.800	20.051	0.100
792.900	10.128	0.100
793.000	12.621	0.100
793.100	22.938	0.100
793.200	13.395	0.100
793.300	18.567	0.100
793.400	18.620	0.100
793.500	16.270	0.100
793.600	4.051	0.100
793.700	20.106	0.101
793.800	14.917	0.101
793.900	23.408	0.100
794.000	11.833	0.101
794.100	22.447	0.101
794.200	13.849	0.101
794.300	16.258	0.101
794.400	16.099	0.101
794.500	15.959	0.101
794.600	18.967	0.101
794.700	22.302	0.101
794.800	21.049	0.101
794.900	13.514	0.101
795.000	17.256	0.101
795.100	5.693	0.101
795.200	19.245	0.101
795.300	8.059	0.101
795.400	29.241	0.101
795.500	7.226	0.101
795.600	23.236	0.101
795.700	15.837	0.101
795.800	20.741	0.101
795.900	18.935	0.101
796.000	7.289	0.101
796.100	6.754	0.101
796.200	8.201	0.101
796.300	19.576	0.101
796.400	17.408	0.101
796.500	24.858	0.101
796.600	18.769	0.101
796.700	14.521	0.101
796.800	21.207	0.101
796.900	8.678	0.101
797.000	11.712	0.101
797.100	21.186	0.101
797.200	22.306	0.101
797.300	24.989	0.101
797.400	15.985	0.101
797.500	25.833	0.101
797.600	17.943	0.101
797.700	11.252	0.101
797.800	8.954	0.101
797.900	14.056	0.101
798.000	-0.199	0.101
798.100	29.052	0.101
798.200	24.788	0.101
798.300	29.257	0.101
798.400	21.688	0.101
798.500	20.034	0.101
798.600	28.513	0.101
798.700	9.464	0.101
798.800	22.970	0.101
798.900	18.778	0.101
799.000	24.923	0.101
799.100	22.731	0.101
799.200	23.239	0.101
799.300	13.576	0.101
799.400	33.283	0.101
799.500	24.071	0.101
799.600	24.094	0.101
799.700	18.517	0.101
799.800	41.456	0.101
799.900	31.205	0.101
800.000	27.564	0.101
