time /s	I /nA	E /V
0.100	4.182	0.101
0.200	-0.788	0.101
0.300	-12.577	0.101
0.400	-15.545	0.101
0.500	-9.745	0.101
0.600	-15.384	0.101
0.700	-9.366	0.101
0.800	-6.645	0.101
0.900	-16.952	0.101
1.000	-21.128	0.101
1.100	-1.790	0.101
1.200	-12.724	0.101
1.300	2.653	0.101
1.400	-4.942	0.101
1.500	-6.439	0.101
1.600	-17.884	0.101
1.700	-16.049	0.101
1.800	-23.215	0.101
1.900	-14.435	0.101
2.000	-6.362	0.101
2.100	-4.101	0.101
2.200	-24.573	0.101
2.300	-13.613	0.101
2.400	3.383	0.101
2.500	-9.948	0.101
2.600	-9.594	0.101
2.700	-23.051	0.101
2.800	-17.278	0.101
2.900	-19.532	0.101
3.000	-10.419	0.101
3.100	-1.542	0.101
3.200	-10.593	0.101
3.300	-17.216	0.101
3.400	-6.933	0.101
3.500	-11.236	0.101
3.600	-1.349	0.101
3.700	-18.541	0.101
3.800	-18.841	0.101
3.900	-17.691	0.101
4.000	-7.749	0.101
4.100	-1.976	0.101
4.200	-21.796	0.101
4.300	-17.288	0.101
4.400	-9.908	0.101
4.500	-11.012	0.101
4.600	-5.499	0.101
4.700	-6.281	0.101
4.800	-8.490	0.101
4.900	-11.272	0.101
5.000	-8.570	0.101
5.100	-10.918	0.101
5.200	-4.951	0.101
5.300	-6.919	0.101
5.400	-15.854	0.101
5.500	-12.098	0.101
5.600	-16.059	0.101
5.700	-20.225	0.101
5.800	-19.567	0.101
5.900	-13.078	0.101
6.000	-2.026	0.101
6.100	-22.089	0.101
6.200	-12.557	0.101
6.300	-10.839	0.101
6.400	-2.614	0.101
6.500	-14.688	0.101
6.600	-10.550	0.101
6.700	-7.405	0.101
6.800	-8.235	0.101
6.900	-5.463	0.101
7.000	-14.618	0.101
7.100	2.158	0.101
7.200	-32.058	0.101
7.300	-15.321	0.101
7.400	-12.290	0.101
7.500	-9.236	0.101
7.600	-12.845	0.101
7.700	-8.223	0.101
7.800	-14.312	0.101
7.900	-13.483	0.101
8.000	-12.403	0.101
8.100	-3.192	0.101
8.200	-10.504	0.101
8.300	-20.303	0.101
8.400	-7.312	0.101
8.500	-1.342	0.101
8.600	-9.688	0.101
8.700	-2.383	0.101
8.800	-13.313	0.101
8.900	-17.686	0.101
9.000	-10.225	0.101
9.100	-9.673	0.101
9.200	-11.140	0.101
9.300	-4.684	0.101
9.400	-15.464	0.101
9.500	-11.419	0.101
9.600	-14.296	0.101
9.700	-9.690	0.101
9.800	-11.953	0.101
9.900	-6.798	0.101
10.000	-19.378	0.101
10.100	-12.730	0.101
10.200	-8.486	0.101
10.300	-18.766	0.101
10.400	-15.910	0.101
10.500	-8.331	0.101
10.600	-4.653	0.101
10.700	-23.357	0.101
10.800	-3.669	0.101
10.900	-24.517	0.101
11.000	-10.106	0.101
11.100	-8.279	0.101
11.200	-27.130	0.101
11.300	-5.191	0.101
11.400	-4.409	0.101
11.500	-24.108	0.101
11.600	-17.142	0.101
11.700	-4.653	0.101
11.800	-9.501	0.101
11.900	-15.955	0.101
12.000	-6.897	0.101
12.100	-14.384	0.101
12.200	-11.962	0.101
12.300	-17.937	0.101
12.400	-13.156	0.101
12.500	-4.426	0.101
12.600	-5.437	0.101
12.700	2.401	0.101
12.800	-22.311	0.101
12.900	-8.650	0.101
13.000	-5.056	0.101
13.100	-6.048	0.101
13.200	-11.081	0.101
13.300	-15.118	0.101
13.400	-22.177	0.101
13.500	-11.101	0.101
13.600	-6.005	0.101
13.700	-1.317	0.101
13.800	-22.742	0.101
13.900	-5.950	0.101
14.000	1.859	0.101
14.100	-13.276	0.101
14.200	-16.345	0.101
14.300	-11.817	0.101
14.400	-20.516	0.101
14.500	-15.885	0.101
14.600	-9.804	0.101
14.700	-10.187	0.101
14.800	-11.747	0.101
14.900	-11.758	0.101
15.000	-11.588	0.101
15.100	-14.232	0.101
15.200	-5.933	0.101
15.300	-8.776	0.101
15.400	-1.470	0.101
15.500	-7.147	0.101
15.600	-11.605	0.101
15.700	-23.416	0.101
15.800	-10.719	0.101
15.900	-21.162	0.101
16.000	-12.951	0.101
16.100	-13.569	0.101
16.200	-4.956	0.101
16.300	-11.504	0.101
16.400	-6.195	0.101
16.500	-8.499	0.101
16.600	-15.467	0.101
16.700	-20.403	0.101
16.800	-10.840	0.101
16.900	0.805	0.101
17.000	-10.573	0.101
17.100	-10.033	0.101
17.200	-12.473	0.101
17.300	-20.019	0.101
17.400	-8.763	0.101
17.500	-12.938	0.101
17.600	-4.847	0.101
17.700	-3.649	0.101
17.800	-13.232	0.101
17.900	-9.785	0.101
18.000	-9.345	0.101
18.100	-10.215	0.101
18.200	-12.224	0.101
18.300	-5.289	0.101
18.400	-15.047	0.101
18.500	-17.405	0.101
18.600	-16.319	0.101
18.700	-13.086	0.101
18.800	-8.885	0.101
18.900	-18.273	0.101
19.000	-18.947	0.101
19.100	-9.564	0.101
19.200	-10.264	0.101
19.300	-4.783	0.101
19.400	-0.832	0.101
19.500	-14.147	0.101
19.600	-6.018	0.101
19.700	-7.380	0.101
19.800	-6.688	0.101
19.900	-13.166	0.101
20.000	-19.279	0.101
20.100	-15.895	0.101
20.200	-5.655	0.101
20.300	12.906	0.101
20.400	-4.322	0.101
20.500	-15.972	0.101
20.600	-4.897	0.101
20.700	-10.994	0.101
20.800	-21.776	0.101
20.900	-11.546	0.101
21.000	-14.715	0.101
21.100	-20.816	0.101
21.200	-11.239	0.101
21.300	-7.347	0.101
21.400	-11.576	0.101
21.500	-22.224	0.101
21.600	-2.432	0.101
21.700	-10.092	0.101
21.800	-8.994	0.101
21.900	-13.194	0.101
22.000	-6.673	0.101
22.100	0.658	0.101
22.200	-27.304	0.101
22.300	-13.447	0.101
22.400	-13.214	0.101
22.500	-13.805	0.101
22.600	-5.144	0.101
22.700	-14.531	0.101
22.800	-11.684	0.101
22.900	0.133	0.101
23.000	-2.349	0.101
23.100	-15.796	0.101
23.200	-15.503	0.101
23.300	0.415	0.101
23.400	-17.477	0.101
23.500	-14.667	0.101
23.600	-6.439	0.101
23.700	-5.860	0.101
23.800	-19.421	0.101
23.900	-11.447	0.101
24.000	-10.192	0.101
24.100	-6.495	0.101
24.200	-6.187	0.101
24.300	-14.421	0.101
24.400	3.106	0.101
24.500	-10.247	0.101
24.600	-4.476	0.101
24.700	-15.471	0.101
24.800	-17.383	0.101
24.900	-16.520	0.101
25.000	-7.413	0.101
25.100	-4.963	0.101
25.200	3.456	0.101
25.300	-7.073	0.101
25.400	-5.943	0.101
25.500	-12.415	0.101
25.600	-14.811	0.101
25.700	-8.508	0.101
25.800	-2.134	0.101
25.900	-2.985	0.101
26.000	-18.505	0.101
26.100	-21.106	0.101
26.200	9.485	0.101
26.300	-10.535	0.101
26.400	-11.704	0.101
26.500	-24.360	0.101
26.600	-19.086	0.101
26.700	-3.544	0.101
26.800	-7.581	0.101
26.900	-2.773	0.101
27.000	-30.840	0.101
27.100	0.938	0.101
27.200	6.707	0.101
27.300	-11.200	0.101
27.400	-23.866	0.101
27.500	-34.129	0.101
27.600	-14.869	0.101
27.700	-7.879	0.101
27.800	-23.580	0.101
27.900	-13.292	0.101
28.000	0.323	0.101
28.100	-19.296	0.101
28.200	-1.834	0.101
28.300	-9.212	0.101
28.400	-18.272	0.101
28.500	-9.995	0.101
28.600	-4.155	0.101
28.700	-10.883	0.101
28.800	-9.083	0.101
28.900	2.936	0.101
29.000	-15.053	0.101
29.100	-18.599	0.101
29.200	-12.934	0.101
29.300	-6.232	0.101
29.400	7.706	0.101
29.500	-6.926	0.101
29.600	-23.613	0.101
29.700	-19.338	0.101
29.800	-9.951	0.101
29.900	-25.070	0.101
30.000	-9.925	0.101
30.100	-15.892	0.101
30.200	-8.915	0.101
30.300	-11.515	0.101
30.400	-6.112	0.101
30.500	1.111	0.101
30.600	-12.829	0.101
30.700	-6.793	0.101
30.800	-4.589	0.101
30.900	-3.432	0.101
31.000	12.981	0.101
31.100	18.535	0.101
31.200	-7.559	0.101
31.300	-2.202	0.101
31.400	-4.958	0.101
31.500	-2.000	0.101
31.600	8.191	0.101
31.700	0.374	0.101
31.800	5.068	0.101
31.900	7.795	0.101
32.000	12.534	0.101
32.100	3.585	0.101
32.200	2.015	0.101
32.300	0.358	0.101
32.400	7.319	0.101
32.500	8.047	0.101
32.600	3.466	0.101
32.700	-3.948	0.101
32.800	-2.115	0.101
32.900	1.159	0.101
33.000	3.427	0.101
33.100	-1.742	0.101
33.200	6.232	0.101
33.300	14.278	0.101
33.400	7.983	0.101
33.500	4.633	0.101
33.600	6.931	0.101
33.700	-0.367	0.101
33.800	9.580	0.101
33.900	7.181	0.101
34.000	17.485	0.101
34.100	4.070	0.101
34.200	19.620	0.101
34.300	11.265	0.101
34.400	9.353	0.101
34.500	15.772	0.101
34.600	3.618	0.101
34.700	5.899	0.101
34.800	18.912	0.101
34.900	0.038	0.101
35.000	5.616	0.101
35.100	5.308	0.101
35.200	8.877	0.101
35.300	15.276	0.101
35.400	-3.590	0.101
35.500	6.713	0.101
35.600	0.445	0.101
35.700	6.606	0.101
35.800	7.229	0.101
35.900	2.188	0.101
36.000	3.307	0.101
36.100	5.779	0.101
36.200	9.831	0.101
36.300	7.308	0.101
36.400	16.129	0.101
36.500	0.720	0.101
36.600	-5.917	0.101
36.700	7.129	0.101
36.800	3.297	0.101
36.900	23.680	0.101
37.000	8.971	0.101
37.100	6.412	0.101
37.200	12.966	0.101
37.300	-4.384	0.101
37.400	9.390	0.101
37.500	7.564	0.101
37.600	11.125	0.101
37.700	-2.008	0.101
37.800	1.027	0.101
37.900	6.420	0.101
38.000	-0.326	0.101
38.100	19.672	0.101
38.200	18.188	0.101
38.300	13.333	0.101
38.400	6.649	0.101
38.500	8.919	0.101
38.600	7.126	0.101
38.700	21.248	0.101
38.800	6.640	0.101
38.900	0.045	0.101
39.000	9.254	0.101
39.100	19.730	0.101
39.200	16.172	0.101
39.300	19.341	0.101
39.400	16.162	0.101
39.500	5.798	0.101
39.600	14.392	0.101
39.700	19.670	0.101
39.800	15.308	0.101
39.900	7.959	0.101
40.000	-0.048	0.101
40.100	14.287	0.101
40.200	4.937	0.101
40.300	17.514	0.101
40.400	3.257	0.101
40.500	7.740	0.101
40.600	16.913	0.101
40.700	23.127	0.101
40.800	15.804	0.101
40.900	-4.754	0.101
41.000	22.069	0.101
41.100	15.262	0.101
41.200	10.864	0.101
41.300	19.508	0.101
41.400	4.237	0.101
41.500	6.391	0.101
41.600	16.879	0.101
41.700	12.476	0.101
41.800	22.128	0.101
41.900	15.112	0.101
42.000	21.805	0.101
42.100	24.473	0.101
42.200	18.704	0.101
42.300	15.300	0.101
42.400	13.896	0.101
42.500	12.428	0.101
42.600	14.774	0.101
42.700	-1.206	0.101
42.800	0.029	0.101
42.900	-1.291	0.101
43.000	16.704	0.101
43.100	20.501	0.101
43.200	9.670	0.101
43.300	9.928	0.101
43.400	20.706	0.101
43.500	26.015	0.101
43.600	8.987	0.101
43.700	15.266	0.101
43.800	12.111	0.101
43.900	12.346	0.101
44.000	21.627	0.101
44.100	21.315	0.101
44.200	7.969	0.101
44.300	10.046	0.101
44.400	17.489	0.101
44.500	28.196	0.101
44.600	19.150	0.101
44.700	2.655	0.101
44.800	6.219	0.101
44.900	13.027	0.101
45.000	5.328	0.101
45.100	20.813	0.101
45.200	24.762	0.101
45.300	6.093	0.101
45.400	13.801	0.101
45.500	17.495	0.101
45.600	19.692	0.101
45.700	20.698	0.101
45.800	15.917	0.101
45.900	19.195	0.101
46.000	15.706	0.101
46.100	17.079	0.101
46.200	31.427	0.101
46.300	17.939	0.101
46.400	14.174	0.101
46.500	4.065	0.101
46.600	25.950	0.101
46.700	14.579	0.101
46.800	20.369	0.101
46.900	4.806	0.101
47.000	10.625	0.101
47.100	20.180	0.101
47.200	18.733	0.101
47.300	20.099	0.101
47.400	8.279	0.101
47.500	15.291	0.101
47.600	16.315	0.101
47.700	4.374	0.101
47.800	25.285	0.101
47.900	20.059	0.101
48.000	16.061	0.101
48.100	6.901	0.101
48.200	18.443	0.101
48.300	14.751	0.101
48.400	11.867	0.101
48.500	18.645	0.101
48.600	15.787	0.101
48.700	22.473	0.101
48.800	13.634	0.101
48.900	29.123	0.101
49.000	25.177	0.101
49.100	10.226	0.101
49.200	12.070	0.101
49.300	30.728	0.101
49.400	13.515	0.101
49.500	17.679	0.101
49.600	29.557	0.101
49.700	18.715	0.101
49.800	13.846	0.101
49.900	15.724	0.101
50.000	32.649	0.101
50.100	18.222	0.101
50.200	19.910	0.101
50.300	11.374	0.101
50.400	15.919	0.101
50.500	20.664	0.101
50.600	31.564	0.101
50.700	15.076	0.101
50.800	17.622	0.101
50.900	37.284	0.101
51.000	16.077	0.101
51.100	28.430	0.101
51.200	14.074	0.101
51.300	35.968	0.101
51.400	18.774	0.101
51.500	17.462	0.101
51.600	27.132	0.101
51.700	21.271	0.101
51.800	12.814	0.101
51.900	29.926	0.101
52.000	3.244	0.101
52.100	25.713	0.101
52.200	8.628	0.101
52.300	40.972	0.101
52.400	28.176	0.101
52.500	23.929	0.101
52.600	26.180	0.101
52.700	14.005	0.101
52.800	32.361	0.101
52.900	7.416	0.101
53.000	10.021	0.101
53.100	18.126	0.101
53.200	19.367	0.101
53.300	24.418	0.101
53.400	18.052	0.101
53.500	27.085	0.101
53.600	27.737	0.101
53.700	26.854	0.101
53.800	22.519	0.101
53.900	15.170	0.101
54.000	26.328	0.101
54.100	26.400	0.101
54.200	16.334	0.101
54.300	21.626	0.101
54.400	23.839	0.101
54.500	20.904	0.101
54.600	16.388	0.101
54.700	15.897	0.101
54.800	43.853	0.101
54.900	27.758	0.101
55.000	28.506	0.101
55.100	19.211	0.101
55.200	19.441	0.101
55.300	35.252	0.101
55.400	29.518	0.101
55.500	14.769	0.101
55.600	35.402	0.101
55.700	9.812	0.101
55.800	22.959	0.101
55.900	24.613	0.101
56.000	22.864	0.101
56.100	28.518	0.101
56.200	14.277	0.101
56.300	21.600	0.101
56.400	27.777	0.101
56.500	29.772	0.101
56.600	15.558	0.101
56.700	32.722	0.101
56.800	15.201	0.101
56.900	31.813	0.101
57.000	32.586	0.101
57.100	20.041	0.101
57.200	35.101	0.101
57.300	12.626	0.101
57.400	41.912	0.101
57.500	32.752	0.101
57.600	24.365	0.101
57.700	27.574	0.101
57.800	16.604	0.101
57.900	26.429	0.101
58.000	19.685	0.101
58.100	21.817	0.101
58.200	30.886	0.101
58.300	19.686	0.101
58.400	34.098	0.101
58.500	28.323	0.101
58.600	21.395	0.101
58.700	16.944	0.101
58.800	26.302	0.101
58.900	24.777	0.101
59.000	35.138	0.101
59.100	19.851	0.101
59.200	32.512	0.101
59.300	25.038	0.101
59.400	33.750	0.101
59.500	23.494	0.101
59.600	22.877	0.101
59.700	28.713	0.101
59.800	23.578	0.101
59.900	17.124	0.101
60.000	24.374	0.101
60.100	19.058	0.101
60.200	24.110	0.101
60.300	33.882	0.101
60.400	29.647	0.101
60.500	30.757	0.101
60.600	10.873	0.101
60.700	25.986	0.101
60.800	26.600	0.101
60.900	31.270	0.101
61.000	17.976	0.101
61.100	21.289	0.101
61.200	34.873	0.101
61.300	34.367	0.101
61.400	38.955	0.101
61.500	33.112	0.101
61.600	20.835	0.101
61.700	29.566	0.101
61.800	40.595	0.101
61.900	29.491	0.101
62.000	17.756	0.101
62.100	22.609	0.101
62.200	29.934	0.101
62.300	31.618	0.101
62.400	39.126	0.101
62.500	24.800	0.101
62.600	23.931	0.101
62.700	36.504	0.101
62.800	28.967	0.101
62.900	27.849	0.101
63.000	37.877	0.101
63.100	39.695	0.101
63.200	27.673	0.101
63.300	18.066	0.101
63.400	35.379	0.101
63.500	33.373	0.101
63.600	32.094	0.101
63.700	38.500	0.101
63.800	33.657	0.101
63.900	25.858	0.101
64.000	25.315	0.101
64.100	31.656	0.101
64.200	22.873	0.101
64.300	32.381	0.101
64.400	32.309	0.101
64.500	28.393	0.101
64.600	45.473	0.101
64.700	21.959	0.101
64.800	26.623	0.101
64.900	35.399	0.101
65.000	23.716	0.101
65.100	24.595	0.101
65.200	28.762	0.101
65.300	30.083	0.101
65.400	41.483	0.101
65.500	30.065	0.101
65.600	39.006	0.101
65.700	29.279	0.101
65.800	26.329	0.101
65.900	24.861	0.101
66.000	41.869	0.101
66.100	32.136	0.101
66.200	21.272	0.101
66.300	40.644	0.101
66.400	39.877	0.101
66.500	31.080	0.101
66.600	34.031	0.101
66.700	27.943	0.101
66.800	8.293	0.101
66.900	31.964	0.101
67.000	24.592	0.101
67.100	31.379	0.101
67.200	25.969	0.101
67.300	26.644	0.101
67.400	29.826	0.101
67.500	41.666	0.101
67.600	41.315	0.101
67.700	34.387	0.101
67.800	23.283	0.101
67.900	30.025	0.101
68.000	28.868	0.101
68.100	35.431	0.101
68.200	25.220	0.101
68.300	26.878	0.101
68.400	41.707	0.101
68.500	22.005	0.101
68.600	39.340	0.101
68.700	31.997	0.101
68.800	32.691	0.101
68.900	34.239	0.101
69.000	26.533	0.101
69.100	26.777	0.101
69.200	43.009	0.101
69.300	31.799	0.101
69.400	35.635	0.101
69.500	22.774	0.101
69.600	23.775	0.101
69.700	36.963	0.101
69.800	25.110	0.101
69.900	43.964	0.101
70.000	40.383	0.101
70.100	18.527	0.101
70.200	38.870	0.101
70.300	26.246	0.101
70.400	32.908	0.101
70.500	37.967	0.101
70.600	35.836	0.101
70.700	39.353	0.101
70.800	30.638	0.101
70.900	36.844	0.101
71.000	45.365	0.101
71.100	35.518	0.101
71.200	39.619	0.101
71.300	27.782	0.101
71.400	34.080	0.101
71.500	43.279	0.101
71.600	36.929	0.101
71.700	26.745	0.101
71.800	35.306	0.101
71.900	41.044	0.101
72.000	28.738	0.101
72.100	46.318	0.101
72.200	45.525	0.101
72.300	44.998	0.101
72.400	40.080	0.101
72.500	25.066	0.101
72.600	45.198	0.101
72.700	39.120	0.101
72.800	29.315	0.101
72.900	26.225	0.101
73.000	36.901	0.101
73.100	40.648	0.101
73.200	42.641	0.101
73.300	28.888	0.101
73.400	30.942	0.101
73.500	28.783	0.101
73.600	22.768	0.101
73.700	34.322	0.101
73.800	33.802	0.101
73.900	38.140	0.101
74.000	26.260	0.101
74.100	34.132	0.101
74.200	39.755	0.101
74.300	37.600	0.101
74.400	41.819	0.101
74.500	32.254	0.101
74.600	38.929	0.101
74.700	40.361	0.101
74.800	37.237	0.101
74.900	36.463	0.101
75.000	25.261	0.101
75.100	44.422	0.101
75.200	40.688	0.101
75.300	38.454	0.101
75.400	24.891	0.101
75.500	31.838	0.101
75.600	39.130	0.101
75.700	34.808	0.101
75.800	18.666	0.101
75.900	36.515	0.101
76.000	34.667	0.101
76.100	50.587	0.101
76.200	39.251	0.101
76.300	37.192	0.101
76.400	47.430	0.101
76.500	29.044	0.101
76.600	36.596	0.101
76.700	31.672	0.101
76.800	33.751	0.101
76.900	40.338	0.101
77.000	40.496	0.101
77.100	31.212	0.101
77.200	39.517	0.101
77.300	42.804	0.101
77.400	34.479	0.101
77.500	40.907	0.101
77.600	33.775	0.101
77.700	42.236	0.101
77.800	25.664	0.101
77.900	32.595	0.101
78.000	31.649	0.101
78.100	38.937	0.101
78.200	40.188	0.101
78.300	30.176	0.101
78.400	27.582	0.101
78.500	36.283	0.101
78.600	42.704	0.101
78.700	38.290	0.101
78.800	41.769	0.101
78.900	30.748	0.101
79.000	38.169	0.101
79.100	26.404	0.101
79.200	41.940	0.101
79.300	38.685	0.101
79.400	37.896	0.101
79.500	39.527	0.101
79.600	20.151	0.101
79.700	43.879	0.101
79.800	55.794	0.101
79.900	28.988	0.101
80.000	37.455	0.101
80.100	33.574	0.101
80.200	36.044	0.101
80.300	31.976	0.101
80.400	35.739	0.101
80.500	32.988	0.101
80.600	28.561	0.101
80.700	28.914	0.101
80.800	47.469	0.101
80.900	26.788	0.101
81.000	36.540	0.101
81.100	36.872	0.101
81.200	33.364	0.101
81.300	37.693	0.101
81.400	36.621	0.101
81.500	35.766	0.101
81.600	53.172	0.101
81.700	29.935	0.101
81.800	28.519	0.101
81.900	52.068	0.101
82.000	43.669	0.101
82.100	37.323	0.101
82.200	36.810	0.101
82.300	32.174	0.101
82.400	39.748	0.101
82.500	38.923	0.101
82.600	30.615	0.101
82.700	28.417	0.101
82.800	50.115	0.101
82.900	40.275	0.101
83.000	26.509	0.101
83.100	37.302	0.101
83.200	44.991	0.101
83.300	31.739	0.101
83.400	41.321	0.101
83.500	41.969	0.101
83.600	25.090	0.101
83.700	42.951	0.101
83.800	34.711	0.101
83.900	42.187	0.101
84.000	41.390	0.101
84.100	37.761	0.101
84.200	39.281	0.101
84.300	40.858	0.101
84.400	36.497	0.101
84.500	41.829	0.101
84.600	40.929	0.101
84.700	36.159	0.101
84.800	38.925	0.101
84.900	40.151	0.101
85.000	37.575	0.101
85.100	23.207	0.101
85.200	28.141	0.101
85.300	40.321	0.101
85.400	28.874	0.101
85.500	32.607	0.101
85.600	43.033	0.101
85.700	37.665	0.101
85.800	29.531	0.101
85.900	36.050	0.101
86.000	41.765	0.101
86.100	32.906	0.101
86.200	37.684	0.101
86.300	35.670	0.101
86.400	22.386	0.101
86.500	46.289	0.101
86.600	51.803	0.101
86.700	30.852	0.101
86.800	52.675	0.101
86.900	43.217	0.101
87.000	38.201	0.101
87.100	31.482	0.101
87.200	32.697	0.101
87.300	37.026	0.101
87.400	26.444	0.101
87.500	31.606	0.101
87.600	40.949	0.101
87.700	36.718	0.101
87.800	26.153	0.101
87.900	42.071	0.101
88.000	32.988	0.101
88.100	45.402	0.101
88.200	27.864	0.101
88.300	45.260	0.101
88.400	41.517	0.101
88.500	38.873	0.101
88.600	38.582	0.101
88.700	49.500	0.101
88.800	33.595	0.101
88.900	35.194	0.101
89.000	32.969	0.101
89.100	27.850	0.101
89.200	33.201	0.101
89.300	44.309	0.101
89.400	23.021	0.101
89.500	40.951	0.101
89.600	25.526	0.101
89.700	32.676	0.101
89.800	41.083	0.101
89.900	35.705	0.101
90.000	40.470	0.101
90.100	40.308	0.101
90.200	30.513	0.101
90.300	52.888	0.101
90.400	30.192	0.101
90.500	41.372	0.101
90.600	33.990	0.101
90.700	20.608	0.101
90.800	37.693	0.101
90.900	45.901	0.101
91.000	34.816	0.101
91.100	35.212	0.101
91.200	30.312	0.101
91.300	34.111	0.101
91.400	20.372	0.101
91.500	19.673	0.101
91.600	30.466	0.101
91.700	25.804	0.101
91.800	31.430	0.101
91.900	17.822	0.101
92.000	26.812	0.101
92.100	11.660	0.101
92.200	30.581	0.101
92.300	14.766	0.101
92.400	19.550	0.101
92.500	23.147	0.101
92.600	8.516	0.101
92.700	23.853	0.101
92.800	20.227	0.101
92.900	15.910	0.101
93.000	16.046	0.101
93.100	14.915	0.101
93.200	3.660	0.101
93.300	13.020	0.101
93.400	15.690	0.101
93.500	18.469	0.101
93.600	25.936	0.101
93.700	22.662	0.101
93.800	23.201	0.101
93.900	10.571	0.101
94.000	12.074	0.101
94.100	14.621	0.101
94.200	-2.427	0.101
94.300	6.023	0.101
94.400	24.255	0.101
94.500	16.844	0.101
94.600	9.716	0.101
94.700	14.932	0.101
94.800	6.721	0.101
94.900	20.034	0.101
95.000	25.341	0.101
95.100	10.901	0.101
95.200	16.770	0.101
95.300	24.952	0.101
95.400	15.667	0.101
95.500	16.446	0.101
95.600	11.057	0.101
95.700	7.496	0.101
95.800	16.826	0.101
95.900	21.949	0.101
96.000	18.475	0.101
96.100	15.135	0.101
96.200	9.138	0.101
96.300	6.885	0.101
96.400	20.000	0.101
96.500	12.751	0.101
96.600	10.346	0.101
96.700	13.125	0.101
96.800	9.696	0.101
96.900	1.362	0.101
97.000	20.243	0.101
97.100	19.132	0.101
97.200	9.550	0.101
97.300	6.776	0.101
97.400	17.536	0.101
97.500	10.686	0.101
97.600	8.687	0.101
97.700	19.905	0.101
97.800	7.422	0.101
97.900	18.515	0.101
98.000	13.759	0.101
98.100	-2.411	0.101
98.200	7.316	0.101
98.300	13.197	0.101
98.400	9.442	0.101
98.500	13.791	0.101
98.600	12.370	0.101
98.700	4.158	0.101
98.800	18.362	0.101
98.900	4.682	0.101
99.000	23.950	0.101
99.100	19.176	0.101
99.200	10.429	0.101
99.300	7.156	0.101
99.400	2.485	0.101
99.500	7.122	0.101
99.600	15.090	0.101
99.700	1.840	0.101
99.800	18.450	0.101
99.900	6.059	0.101
100.000	13.035	0.101
100.100	14.861	0.101
100.200	12.070	0.101
100.300	16.524	0.101
100.400	3.888	0.101
100.500	2.366	0.101
100.600	12.641	0.101
100.700	13.295	0.101
100.800	14.539	0.101
100.900	5.393	0.101
101.000	8.587	0.101
101.100	2.142	0.101
101.200	5.076	0.101
101.300	15.311	0.101
101.400	15.219	0.101
101.500	12.384	0.101
101.600	3.402	0.101
101.700	12.293	0.101
101.800	6.331	0.101
101.900	10.814	0.101
102.000	-1.232	0.101
102.100	7.001	0.101
102.200	26.486	0.101
102.300	17.091	0.101
102.400	3.061	0.101
102.500	16.181	0.101
102.600	13.623	0.101
102.700	9.211	0.101
102.800	14.164	0.101
102.900	19.371	0.101
103.000	3.282	0.101
103.100	6.683	0.101
103.200	8.861	0.101
103.300	12.154	0.101
103.400	8.360	0.101
103.500	12.401	0.101
103.600	14.718	0.101
103.700	-0.007	0.101
103.800	2.813	0.101
103.900	11.598	0.101
104.000	5.176	0.101
104.100	22.143	0.101
104.200	4.162	0.101
104.300	-0.328	0.101
104.400	9.353	0.101
104.500	16.802	0.101
104.600	4.476	0.101
104.700	7.840	0.101
104.800	3.244	0.101
104.900	10.159	0.101
105.000	20.577	0.101
105.100	13.922	0.101
105.200	0.376	0.101
105.300	3.910	0.101
105.400	20.021	0.101
105.500	-0.906	0.101
105.600	2.208	0.101
105.700	14.839	0.101
105.800	11.278	0.101
105.900	7.931	0.101
106.000	4.368	0.101
106.100	10.807	0.101
106.200	7.669	0.101
106.300	10.920	0.101
106.400	18.182	0.101
106.500	-4.253	0.101
106.600	1.121	0.101
106.700	9.568	0.101
106.800	8.837	0.101
106.900	19.328	0.101
107.000	2.029	0.101
107.100	11.434	0.101
107.200	12.154	0.101
107.300	10.567	0.101
107.400	3.039	0.101
107.500	10.600	0.101
107.600	9.038	0.101
107.700	22.741	0.101
107.800	8.273	0.101
107.900	9.222	0.101
108.000	4.800	0.101
108.100	9.368	0.101
108.200	2.910	0.101
108.300	6.845	0.101
108.400	5.769	0.101
108.500	6.983	0.101
108.600	-2.431	0.101
108.700	13.126	0.101
108.800	-1.667	0.101
108.900	22.828	0.101
109.000	1.256	0.101
109.100	-0.912	0.101
109.200	3.826	0.101
109.300	2.583	0.101
109.400	-3.486	0.101
109.500	2.959	0.101
109.600	15.809	0.101
109.700	15.552	0.101
109.800	8.471	0.101
109.900	0.917	0.101
110.000	-2.071	0.101
110.100	20.837	0.101
110.200	10.714	0.101
110.300	9.006	0.101
110.400	-1.522	0.101
110.500	1.874	0.101
110.600	4.806	0.101
110.700	8.282	0.101
110.800	5.056	0.101
110.900	6.593	0.101
111.000	0.563	0.101
111.100	12.069	0.101
111.200	10.351	0.101
111.300	1.809	0.101
111.400	-9.018	0.101
111.500	12.084	0.101
111.600	-7.942	0.101
111.700	14.761	0.101
111.800	3.371	0.101
111.900	4.036	0.101
112.000	11.453	0.101
112.100	11.813	0.101
112.200	-5.381	0.101
112.300	17.400	0.101
112.400	16.975	0.101
112.500	11.893	0.101
112.600	3.943	0.101
112.700	4.323	0.101
112.800	-12.012	0.101
112.900	-0.875	0.101
113.000	8.395	0.101
113.100	-3.263	0.101
113.200	-2.210	0.101
113.300	5.064	0.101
113.400	11.729	0.101
113.500	11.495	0.101
113.600	-5.344	0.101
113.700	-1.648	0.101
113.800	-10.169	0.101
113.900	8.776	0.101
114.000	12.470	0.101
114.100	4.087	0.101
114.200	6.077	0.101
114.300	-4.652	0.101
114.400	0.889	0.101
114.500	19.950	0.101
114.600	-1.798	0.101
114.700	3.216	0.101
114.800	6.023	0.101
114.900	1.530	0.101
115.000	11.544	0.101
115.100	-0.379	0.101
115.200	1.762	0.101
115.300	-1.997	0.101
115.400	11.665	0.101
115.500	-7.291	0.101
115.600	-2.752	0.101
115.700	-0.771	0.101
115.800	11.317	0.101
115.900	7.513	0.101
116.000	6.915	0.101
116.100	-1.861	0.101
116.200	7.004	0.101
116.300	-12.865	0.101
116.400	2.801	0.101
116.500	-7.218	0.101
116.600	11.033	0.101
116.700	1.126	0.101
116.800	-5.882	0.101
116.900	-0.178	0.101
117.000	9.233	0.101
117.100	-6.134	0.101
117.200	3.726	0.101
117.300	11.607	0.101
117.400	-2.787	0.101
117.500	-1.582	0.101
117.600	-10.775	0.101
117.700	9.348	0.101
117.800	19.576	0.101
117.900	-3.136	0.101
118.000	-2.861	0.101
118.100	1.517	0.101
118.200	15.189	0.101
118.300	5.188	0.101
118.400	-3.244	0.101
118.500	17.254	0.101
118.600	4.451	0.101
118.700	3.996	0.101
118.800	-11.274	0.101
118.900	10.148	0.101
119.000	-15.529	0.101
119.100	6.309	0.101
119.200	-9.308	0.101
119.300	11.330	0.101
119.400	12.029	0.101
119.500	-5.102	0.101
119.600	-11.381	0.101
119.700	-0.510	0.101
119.800	6.624	0.101
119.900	-11.015	0.101
120.000	9.641	0.101
120.100	-4.231	0.101
120.200	-5.920	0.101
120.300	1.334	0.101
120.400	-2.579	0.101
120.500	-16.205	0.101
120.600	9.284	0.101
120.700	-2.098	0.101
120.800	-5.188	0.101
120.900	6.149	0.101
121.000	6.165	0.101
121.100	-7.284	0.101
121.200	-3.777	0.101
121.300	-17.332	0.101
121.400	17.829	0.101
121.500	3.713	0.101
121.600	8.519	0.101
121.700	-1.437	0.101
121.800	-10.957	0.101
121.900	-2.676	0.101
122.000	-2.137	0.101
122.100	2.902	0.101
122.200	6.196	0.101
122.300	2.005	0.101
122.400	-17.681	0.101
122.500	3.691	0.101
122.600	-0.211	0.101
122.700	1.709	0.101
122.800	1.558	0.101
122.900	-12.650	0.101
123.000	8.951	0.101
123.100	-14.299	0.101
123.200	-8.313	0.101
123.300	-13.129	0.101
123.400	-8.643	0.101
123.500	12.720	0.101
123.600	2.371	0.101
123.700	-13.723	0.101
123.800	-8.614	0.101
123.900	2.248	0.101
124.000	4.949	0.101
124.100	-0.427	0.101
124.200	-11.876	0.101
124.300	3.169	0.101
124.400	2.495	0.101
124.500	4.181	0.101
124.600	-12.174	0.101
124.700	-1.029	0.101
124.800	-10.101	0.101
124.900	-7.421	0.101
125.000	0.293	0.101
125.100	-8.556	0.101
125.200	-7.102	0.101
125.300	12.823	0.101
125.400	-11.776	0.101
125.500	9.526	0.101
125.600	-5.484	0.101
125.700	-0.599	0.101
125.800	-5.524	0.101
125.900	-1.822	0.101
126.000	6.640	0.101
126.100	-5.403	0.101
126.200	-6.685	0.101
126.300	5.949	0.101
126.400	-5.645	0.101
126.500	-14.495	0.101
126.600	-12.717	0.101
126.700	-5.058	0.101
126.800	5.186	0.101
126.900	-2.068	0.101
127.000	-4.900	0.101
127.100	-16.563	0.101
127.200	-6.555	0.101
127.300	-14.540	0.101
127.400	9.840	0.101
127.500	-13.365	0.101
127.600	-14.318	0.101
127.700	-13.702	0.101
127.800	-10.259	0.101
127.900	-8.501	0.101
128.000	-16.824	0.101
128.100	4.779	0.101
128.200	-9.140	0.101
128.300	-0.738	0.101
128.400	-6.298	0.101
128.500	-19.293	0.101
128.600	-14.090	0.101
128.700	-10.989	0.101
128.800	-14.459	0.101
128.900	-8.730	0.101
129.000	-0.031	0.101
129.100	4.774	0.101
129.200	3.472	0.101
129.300	-20.195	0.101
129.400	-11.886	0.101
129.500	8.431	0.101
129.600	-1.102	0.101
129.700	-15.452	0.101
129.800	-13.683	0.101
129.900	3.536	0.101
130.000	5.245	0.101
130.100	-4.924	0.101
130.200	-8.563	0.101
130.300	-5.716	0.101
130.400	-16.718	0.101
130.500	-5.817	0.101
130.600	-5.227	0.101
130.700	-1.809	0.101
130.800	3.811	0.101
130.900	-13.103	0.101
131.000	-1.545	0.101
131.100	-1.559	0.101
131.200	-12.900	0.101
131.300	-10.145	0.101
131.400	-0.335	0.101
131.500	-11.164	0.101
131.600	-5.371	0.101
131.700	-0.532	0.101
131.800	-6.688	0.101
131.900	-17.075	0.101
132.000	-3.556	0.101
132.100	-1.892	0.101
132.200	-7.047	0.101
132.300	-1.049	0.101
132.400	-7.523	0.101
132.500	-14.744	0.101
132.600	-7.806	0.101
132.700	-5.455	0.101
132.800	-3.992	0.101
132.900	-5.514	0.101
133.000	-14.578	0.101
133.100	-20.153	0.101
133.200	-14.886	0.101
133.300	-12.817	0.101
133.400	-7.430	0.101
133.500	-6.046	0.101
133.600	-17.388	0.101
133.700	-11.597	0.101
133.800	0.655	0.101
133.900	4.551	0.101
134.000	-3.173	0.101
134.100	-5.533	0.101
134.200	-5.485	0.101
134.300	-21.351	0.101
134.400	-10.955	0.101
134.500	-19.333	0.101
134.600	-21.380	0.101
134.700	10.987	0.101
134.800	-9.717	0.101
134.900	-16.223	0.101
135.000	-14.302	0.101
135.100	-11.691	0.101
135.200	6.543	0.101
135.300	-3.664	0.101
135.400	-14.160	0.101
135.500	7.986	0.101
135.600	-15.359	0.101
135.700	-11.740	0.101
135.800	-4.712	0.101
135.900	-17.166	0.101
136.000	-11.398	0.101
136.100	-17.608	0.101
136.200	-7.445	0.101
136.300	-15.596	0.101
136.400	-8.848	0.101
136.500	-13.727	0.101
136.600	-10.025	0.101
136.700	-1.936	0.101
136.800	-4.882	0.101
136.900	-16.559	0.101
137.000	-11.255	0.101
137.100	-15.627	0.101
137.200	-0.703	0.101
137.300	0.775	0.101
137.400	-19.803	0.101
137.500	-9.804	0.101
137.600	-5.031	0.101
137.700	-4.935	0.101
137.800	-8.318	0.101
137.900	-19.300	0.101
138.000	-12.393	0.101
138.100	-6.269	0.101
138.200	-12.341	0.101
138.300	1.841	0.101
138.400	-7.598	0.101
138.500	-19.638	0.101
138.600	-17.234	0.101
138.700	-8.522	0.101
138.800	-15.114	0.101
138.900	-8.171	0.101
139.000	-9.842	0.101
139.100	-8.235	0.101
139.200	-4.612	0.101
139.300	-21.624	0.101
139.400	-15.625	0.101
139.500	-15.425	0.101
139.600	-7.924	0.101
139.700	-5.631	0.101
139.800	1.376	0.101
139.900	-14.462	0.101
140.000	-2.294	0.101
140.100	-20.333	0.101
140.200	-23.120	0.101
140.300	-17.209	0.101
140.400	-15.641	0.101
140.500	-13.330	0.101
140.600	4.826	0.101
140.700	-14.883	0.101
140.800	-8.883	0.101
140.900	-12.047	0.101
141.000	-4.024	0.101
141.100	-14.270	0.101
141.200	-9.902	0.101
141.300	-5.343	0.101
141.400	-12.315	0.101
141.500	-5.496	0.101
141.600	3.443	0.101
141.700	-12.645	0.101
141.800	-10.501	0.101
141.900	0.737	0.101
142.000	-10.212	0.101
142.100	-16.146	0.101
142.200	-12.447	0.101
142.300	-21.392	0.101
142.400	1.685	0.101
142.500	-1.655	0.101
142.600	-7.728	0.101
142.700	-12.214	0.101
142.800	-10.224	0.101
142.900	-21.082	0.101
143.000	-24.271	0.101
143.100	-12.783	0.101
143.200	3.629	0.101
143.300	-2.637	0.101
143.400	-11.192	0.101
143.500	-7.628	0.101
143.600	-23.094	0.101
143.700	-5.134	0.101
143.800	-13.135	0.101
143.900	-12.089	0.101
144.000	-13.750	0.101
144.100	-8.175	0.101
144.200	-2.447	0.101
144.300	-7.271	0.101
144.400	-6.760	0.101
144.500	-9.475	0.101
144.600	-11.154	0.101
144.700	-5.276	0.101
144.800	-9.222	0.101
144.900	-6.981	0.101
145.000	0.151	0.101
145.100	-16.070	0.101
145.200	-29.907	0.101
145.300	-24.969	0.101
145.400	-3.191	0.101
145.500	-15.955	0.101
145.600	-8.580	0.101
145.700	-10.958	0.101
145.800	-8.879	0.101
145.900	-7.729	0.101
146.000	-9.393	0.101
146.100	-3.018	0.101
146.200	-15.735	0.101
146.300	-10.053	0.101
146.400	-0.275	0.101
146.500	-5.146	0.101
146.600	-5.560	0.101
146.700	-17.822	0.101
146.800	-19.407	0.101
146.900	-7.331	0.101
147.000	-14.791	0.101
147.100	-12.893	0.101
147.200	-6.147	0.101
147.300	-14.056	0.101
147.400	-18.595	0.101
147.500	3.015	0.101
147.600	-13.348	0.101
147.700	-11.592	0.101
147.800	-7.755	0.101
147.900	-13.818	0.101
148.000	1.195	0.101
148.100	-7.939	0.101
148.200	5.149	0.101
148.300	-18.277	0.101
148.400	-10.300	0.101
148.500	-13.783	0.101
148.600	-11.787	0.101
148.700	-1.036	0.101
148.800	-7.879	0.101
148.900	-10.092	0.101
149.000	-22.427	0.101
149.100	-16.753	0.101
149.200	-19.338	0.101
149.300	-14.582	0.101
149.400	-3.398	0.101
149.500	9.092	0.101
149.600	-18.992	0.101
149.700	-3.880	0.101
149.800	-15.681	0.101
149.900	-15.744	0.101
150.000	-7.937	0.101
150.100	4.717	0.101
150.200	-17.857	0.101
150.300	-7.176	0.101
150.400	-9.972	0.101
150.500	-13.985	0.101
150.600	-2.795	0.101
150.700	-0.451	0.101
150.800	-24.856	0.101
150.900	-11.368	0.101
151.000	-4.126	0.101
151.100	3.752	0.101
151.200	-15.045	0.101
151.300	-7.231	0.101
151.400	-12.807	0.101
151.500	-13.550	0.101
151.600	-11.247	0.101
151.700	-4.624	0.101
151.800	-5.210	0.101
151.900	-9.375	0.101
152.000	-12.924	0.101
152.100	-9.753	0.101
152.200	-13.803	0.101
152.300	-18.263	0.101
152.400	-17.722	0.101
152.500	-6.776	0.101
152.600	-3.766	0.101
152.700	-21.947	0.101
152.800	-18.472	0.101
152.900	-7.013	0.101
153.000	-10.805	0.101
153.100	0.962	0.101
153.200	-21.641	0.101
153.300	-32.376	0.101
153.400	-13.979	0.101
153.500	-3.663	0.101
153.600	-12.886	0.101
153.700	-3.807	0.101
153.800	-12.691	0.101
153.900	-10.856	0.101
154.000	-8.494	0.101
154.100	-12.331	0.101
154.200	-17.035	0.101
154.300	-24.273	0.101
154.400	3.179	0.101
154.500	-1.535	0.101
154.600	-13.650	0.101
154.700	-11.618	0.101
154.800	-12.203	0.101
154.900	-8.662	0.101
155.000	-8.005	0.101
155.100	-9.922	0.100
155.200	-5.939	0.100
155.300	-16.925	0.101
155.400	-8.291	0.100
155.500	-15.450	0.101
155.600	-8.550	0.101
155.700	-9.219	0.101
155.800	-11.032	0.101
155.900	-14.160	0.101
156.000	-10.822	0.101
156.100	-5.632	0.101
156.200	-7.414	0.101
156.300	-21.753	0.101
156.400	-13.003	0.101
156.500	-10.989	0.101
156.600	-19.852	0.100
156.700	-10.280	0.100
156.800	-9.350	0.101
156.900	-13.166	0.101
157.000	-6.828	0.101
157.100	-15.847	0.101
157.200	-10.410	0.101
157.300	-7.722	0.101
157.400	-6.009	0.101
157.500	-19.034	0.101
157.600	-10.858	0.101
157.700	-6.020	0.101
157.800	-12.872	0.100
157.900	-10.888	0.100
158.000	-12.930	0.101
158.100	-0.999	0.101
158.200	-5.839	0.101
158.300	-9.494	0.101
158.400	-14.581	0.101
158.500	-10.967	0.101
158.600	-17.292	0.100
158.700	6.830	0.101
158.800	-9.864	0.101
158.900	-8.225	0.100
159.000	-2.981	0.101
159.100	-15.686	0.101
159.200	-19.784	0.101
159.300	-11.991	0.100
159.400	-1.860	0.101
159.500	-13.147	0.101
159.600	-12.531	0.100
159.700	-8.000	0.100
159.800	-20.852	0.101
159.900	-21.588	0.101
160.000	-11.033	0.101
160.100	-0.981	0.101
160.200	-8.842	0.100
160.300	-19.520	0.101
160.400	-16.039	0.101
160.500	-6.599	0.101
160.600	-11.146	0.101
160.700	-3.836	0.100
160.800	-13.862	0.101
160.900	-7.553	0.100
161.000	-4.535	0.100
161.100	-4.943	0.100
161.200	-6.958	0.100
161.300	-25.262	0.100
161.400	-17.657	0.101
161.500	-1.012	0.100
161.600	-23.172	0.100
161.700	-13.066	0.100
161.800	-10.124	0.101
161.900	-18.362	0.100
162.000	-9.013	0.100
162.100	3.285	0.100
162.200	-6.603	0.101
162.300	-17.437	0.100
162.400	-10.047	0.100
162.500	-10.085	0.100
162.600	-18.981	0.100
162.700	-11.654	0.100
162.800	-3.432	0.100
162.900	-10.351	0.100
163.000	2.705	0.100
163.100	-10.984	0.100
163.200	9.379	0.100
163.300	-20.359	0.100
163.400	-14.125	0.100
163.500	-10.848	0.100
163.600	-7.653	0.100
163.700	-6.666	0.100
163.800	-11.184	0.100
163.900	-10.727	0.100
164.000	-10.266	0.100
164.100	-3.956	0.100
164.200	-17.643	0.100
164.300	-14.296	0.100
164.400	-2.054	0.100
164.500	-10.695	0.100
164.600	-16.693	0.100
164.700	-12.657	0.100
164.800	-4.970	0.100
164.900	-12.047	0.100
165.000	-15.935	0.100
165.100	3.374	0.100
165.200	-21.217	0.100
165.300	-6.190	0.100
165.400	-16.465	0.100
165.500	-20.441	0.100
165.600	-3.935	0.100
165.700	-12.425	0.100
165.800	-3.397	0.100
165.900	-8.409	0.100
166.000	-10.413	0.100
166.100	-12.143	0.100
166.200	0.870	0.100
166.300	-12.304	0.100
166.400	-21.423	0.100
166.500	-13.991	0.100
166.600	2.831	0.100
166.700	-30.196	0.100
166.800	-14.624	0.100
166.900	-14.980	0.100
167.000	1.013	0.100
167.100	-17.667	0.100
167.200	-3.353	0.100
167.300	-15.456	0.100
167.400	-17.269	0.100
167.500	-2.129	0.100
167.600	-12.493	0.100
167.700	-1.524	0.100
167.800	-24.182	0.100
167.900	-12.319	0.100
168.000	5.521	0.100
168.100	-15.364	0.100
168.200	-15.532	0.100
168.300	-6.342	0.100
168.400	-3.343	0.100
168.500	-20.840	0.100
168.600	-11.433	0.100
168.700	-10.914	0.100
168.800	-8.750	0.100
168.900	-11.865	0.100
169.000	-8.859	0.100
169.100	-8.327	0.100
169.200	4.299	0.100
169.300	-4.049	0.100
169.400	-7.352	0.100
169.500	-5.164	0.100
169.600	-15.820	0.100
169.700	-7.217	0.100
169.800	3.257	0.100
169.900	-4.294	0.100
170.000	-19.640	0.100
170.100	-4.812	0.100
170.200	-18.621	0.100
170.300	-9.430	0.100
170.400	-12.693	0.100
170.500	0.072	0.100
170.600	-12.078	0.100
170.700	-12.691	0.100
170.800	-1.136	0.100
170.900	-2.456	0.100
171.000	-16.875	0.100
171.100	-17.444	0.100
171.200	-13.246	0.100
171.300	-14.394	0.100
171.400	-16.241	0.100
171.500	-6.252	0.100
171.600	-11.561	0.100
171.700	-12.978	0.100
171.800	-7.740	0.100
171.900	-11.937	0.100
172.000	-0.091	0.100
172.100	-13.666	0.100
172.200	-7.470	0.100
172.300	-19.210	0.100
172.400	1.439	0.100
172.500	-5.457	0.100
172.600	-10.875	0.100
172.700	-20.114	0.100
172.800	-10.264	0.100
172.900	-10.516	0.100
173.000	-19.937	0.100
173.100	-13.682	0.100
173.200	-3.651	0.100
173.300	-7.881	0.100
173.400	-11.165	0.100
173.500	-16.929	0.100
173.600	-5.829	0.100
173.700	-18.570	0.100
173.800	-1.468	0.100
173.900	-11.709	0.100
174.000	-9.598	0.100
174.100	-16.566	0.100
174.200	-3.641	0.100
174.300	-9.484	0.100
174.400	-10.537	0.100
174.500	-15.014	0.100
174.600	-7.770	0.100
174.700	-9.459	0.100
174.800	-9.454	0.100
174.900	-11.612	0.100
175.000	-3.151	0.100
175.100	-16.017	0.100
175.200	-12.481	0.100
175.300	-15.252	0.100
175.400	3.839	0.100
175.500	-11.397	0.100
175.600	-18.989	0.100
175.700	-27.985	0.100
175.800	-5.736	0.100
175.900	-18.739	0.100
176.000	-2.843	0.100
176.100	-6.246	0.100
176.200	-6.837	0.100
176.300	-5.733	0.100
176.400	-7.540	0.100
176.500	-7.487	0.100
176.600	-21.355	0.100
176.700	-20.235	0.100
176.800	-23.934	0.100
176.900	-16.192	0.100
177.000	-19.080	0.100
177.100	-8.871	0.100
177.200	-10.538	0.100
177.300	-4.860	0.100
177.400	-7.563	0.100
177.500	-5.393	0.100
177.600	-16.466	0.100
177.700	-5.524	0.100
177.800	-9.938	0.100
177.900	-13.052	0.100
178.000	-12.134	0.100
178.100	-14.705	0.100
178.200	-1.884	0.100
178.300	-16.020	0.100
178.400	-14.355	0.100
178.500	-5.700	0.100
178.600	-9.131	0.100
178.700	-15.258	0.100
178.800	3.316	0.100
178.900	-16.239	0.100
179.000	-17.203	0.100
179.100	-19.350	0.100
179.200	-17.736	0.100
179.300	-5.193	0.100
179.400	-15.727	0.100
179.500	-8.592	0.100
179.600	-4.381	0.100
179.700	-11.002	0.100
179.800	-7.130	0.100
179.900	-25.209	0.100
180.000	-5.826	0.100
180.100	-20.086	0.100
180.200	-16.475	0.100
180.300	7.459	0.100
180.400	-6.095	0.100
180.500	-7.875	0.100
180.600	-6.739	0.100
180.700	-10.491	0.100
180.800	-1.816	0.100
180.900	1.195	0.100
181.000	-0.263	0.100
181.100	4.480	0.100
181.200	-3.675	0.100
181.300	1.527	0.100
181.400	-11.569	0.100
181.500	0.053	0.100
181.600	-0.430	0.100
181.700	-7.596	0.100
181.800	20.125	0.100
181.900	15.606	0.100
182.000	-0.057	0.100
182.100	-0.530	0.100
182.200	-0.370	0.100
182.300	9.754	0.100
182.400	1.179	0.100
182.500	3.116	0.100
182.600	1.028	0.100
182.700	2.359	0.100
182.800	2.326	0.100
182.900	9.593	0.100
183.000	12.091	0.100
183.100	1.250	0.100
183.200	0.888	0.100
183.300	-0.127	0.100
183.400	15.626	0.100
183.500	6.821	0.100
183.600	3.348	0.100
183.700	2.245	0.100
183.800	22.016	0.100
183.900	15.639	0.100
184.000	6.355	0.100
184.100	21.207	0.100
184.200	16.350	0.100
184.300	2.329	0.100
184.400	4.815	0.100
184.500	9.201	0.100
184.600	13.658	0.100
184.700	10.400	0.100
184.800	19.821	0.100
184.900	3.735	0.100
185.000	19.131	0.100
185.100	5.277	0.100
185.200	12.350	0.100
185.300	21.847	0.100
185.400	32.083	0.100
185.500	-0.086	0.100
185.600	5.556	0.100
185.700	10.650	0.100
185.800	10.959	0.100
185.900	23.848	0.100
186.000	10.993	0.100
186.100	11.517	0.100
186.200	1.651	0.100
186.300	7.476	0.100
186.400	35.582	0.100
186.500	-2.799	0.100
186.600	7.852	0.100
186.700	3.093	0.100
186.800	11.748	0.100
186.900	13.047	0.100
187.000	10.821	0.100
187.100	22.913	0.100
187.200	17.845	0.100
187.300	11.542	0.100
187.400	5.703	0.100
187.500	3.584	0.100
187.600	17.183	0.100
187.700	10.803	0.100
187.800	5.915	0.100
187.900	5.978	0.100
188.000	19.865	0.100
188.100	7.181	0.100
188.200	18.701	0.100
188.300	-2.220	0.100
188.400	10.520	0.100
188.500	14.668	0.100
188.600	16.703	0.100
188.700	12.833	0.100
188.800	12.348	0.100
188.900	5.242	0.100
189.000	24.382	0.100
189.100	5.167	0.100
189.200	1.403	0.100
189.300	11.544	0.100
189.400	13.134	0.100
189.500	8.371	0.100
189.600	17.006	0.100
189.700	16.689	0.100
189.800	19.922	0.100
189.900	9.617	0.100
190.000	21.771	0.100
190.100	1.309	0.100
190.200	24.989	0.100
190.300	0.930	0.100
190.400	11.586	0.100
190.500	10.747	0.100
190.600	14.336	0.100
190.700	3.516	0.100
190.800	11.579	0.100
190.900	17.671	0.100
191.000	21.012	0.100
191.100	7.507	0.100
191.200	5.606	0.100
191.300	16.435	0.100
191.400	19.687	0.100
191.500	4.945	0.100
191.600	20.290	0.100
191.700	19.446	0.100
191.800	5.863	0.100
191.900	0.029	0.100
192.000	22.773	0.100
192.100	4.114	0.100
192.200	21.650	0.100
192.300	23.106	0.100
192.400	10.113	0.100
192.500	21.982	0.100
192.600	4.466	0.100
192.700	17.855	0.100
192.800	10.259	0.100
192.900	9.979	0.100
193.000	29.180	0.100
193.100	20.528	0.100
193.200	14.893	0.100
193.300	15.723	0.100
193.400	21.573	0.100
193.500	10.580	0.100
193.600	21.125	0.100
193.700	21.701	0.100
193.800	20.716	0.100
193.900	13.843	0.100
194.000	14.104	0.100
194.100	23.226	0.100
194.200	18.359	0.100
194.300	28.414	0.100
194.400	9.467	0.100
194.500	20.575	0.100
194.600	14.758	0.100
194.700	15.968	0.100
194.800	10.797	0.100
194.900	21.832	0.100
195.000	14.429	0.100
195.100	19.473	0.100
195.200	16.733	0.100
195.300	24.608	0.100
195.400	12.350	0.100
195.500	27.521	0.100
195.600	27.340	0.100
195.700	21.756	0.100
195.800	25.431	0.100
195.900	22.793	0.100
196.000	12.812	0.100
196.100	23.548	0.100
196.200	14.059	0.101
196.300	8.094	0.100
196.400	29.171	0.100
196.500	11.152	0.101
196.600	21.965	0.101
196.700	27.445	0.101
196.800	28.111	0.101
196.900	11.162	0.101
197.000	27.909	0.101
197.100	20.432	0.101
197.200	20.892	0.101
197.300	24.757	0.101
197.400	9.346	0.101
197.500	22.915	0.101
197.600	15.481	0.101
197.700	13.285	0.101
197.800	26.466	0.101
197.900	19.085	0.101
198.000	27.352	0.101
198.100	26.272	0.101
198.200	10.233	0.101
198.300	16.001	0.101
198.400	40.513	0.101
198.500	20.993	0.101
198.600	20.731	0.101
198.700	25.006	0.101
198.800	34.217	0.101
198.900	20.896	0.101
199.000	27.008	0.101
199.100	31.134	0.101
199.200	20.951	0.101
199.300	32.392	0.101
199.400	20.111	0.101
199.500	19.409	0.101
199.600	17.548	0.101
199.700	20.961	0.101
199.800	27.294	0.101
199.900	18.407	0.101
200.000	36.802	0.101
200.100	15.327	0.101
200.200	20.960	0.101
200.300	18.292	0.101
200.400	26.438	0.101
200.500	31.589	0.101
200.600	23.466	0.101
200.700	25.533	0.101
200.800	21.625	0.101
200.900	32.413	0.101
201.000	17.785	0.101
201.100	18.560	0.101
201.200	27.383	0.101
201.300	26.534	0.101
201.400	14.066	0.101
201.500	27.552	0.101
201.600	35.672	0.101
201.700	34.082	0.101
201.800	43.700	0.101
201.900	34.835	0.101
202.000	36.835	0.101
202.100	18.379	0.101
202.200	26.220	0.101
202.300	22.153	0.101
202.400	19.576	0.101
202.500	23.800	0.101
202.600	33.584	0.101
202.700	25.152	0.101
202.800	34.230	0.101
202.900	33.842	0.101
203.000	30.350	0.101
203.100	21.851	0.101
203.200	24.885	0.101
203.300	18.450	0.101
203.400	33.889	0.101
203.500	23.138	0.101
203.600	19.560	0.101
203.700	21.541	0.101
203.800	31.682	0.101
203.900	17.465	0.101
204.000	31.031	0.101
204.100	32.173	0.101
204.200	36.326	0.101
204.300	22.389	0.101
204.400	34.755	0.101
204.500	40.716	0.101
204.600	44.542	0.101
204.700	37.448	0.101
204.800	10.478	0.101
204.900	37.539	0.101
205.000	26.804	0.101
205.100	23.473	0.101
205.200	28.208	0.101
205.300	42.613	0.101
205.400	19.637	0.101
205.500	36.266	0.101
205.600	32.118	0.101
205.700	32.508	0.101
205.800	38.337	0.101
205.900	30.332	0.101
206.000	27.931	0.101
206.100	31.541	0.101
206.200	17.512	0.101
206.300	27.732	0.101
206.400	25.368	0.101
206.500	32.084	0.101
206.600	38.139	0.101
206.700	37.224	0.101
206.800	31.128	0.101
206.900	26.717	0.101
207.000	33.019	0.101
207.100	21.142	0.101
207.200	28.494	0.101
207.300	37.589	0.101
207.400	51.030	0.101
207.500	39.411	0.101
207.600	26.491	0.101
207.700	31.064	0.101
207.800	19.010	0.101
207.900	37.438	0.101
208.000	30.986	0.101
208.100	30.805	0.101
208.200	32.292	0.101
208.300	34.026	0.101
208.400	32.032	0.101
208.500	24.936	0.101
208.600	23.979	0.101
208.700	30.934	0.101
208.800	36.308	0.101
208.900	27.915	0.101
209.000	36.762	0.101
209.100	35.295	0.101
209.200	39.764	0.101
209.300	28.064	0.101
209.400	28.456	0.101
209.500	28.021	0.101
209.600	41.042	0.101
209.700	38.117	0.101
209.800	31.333	0.101
209.900	39.061	0.101
210.000	26.405	0.101
210.100	26.324	0.101
210.200	43.985	0.101
210.300	46.810	0.101
210.400	41.925	0.101
210.500	41.846	0.101
210.600	4.909	0.101
210.700	33.603	0.101
210.800	32.361	0.101
210.900	30.427	0.101
211.000	51.754	0.101
211.100	25.515	0.101
211.200	34.083	0.101
211.300	33.185	0.101
211.400	29.730	0.101
211.500	40.441	0.101
211.600	34.602	0.101
211.700	39.270	0.101
211.800	39.330	0.101
211.900	35.573	0.101
212.000	35.601	0.101
212.100	33.908	0.101
212.200	37.731	0.101
212.300	34.250	0.101
212.400	40.789	0.101
212.500	26.798	0.101
212.600	33.800	0.101
212.700	38.345	0.101
212.800	39.120	0.101
212.900	37.386	0.101
213.000	33.925	0.101
213.100	29.442	0.101
213.200	45.550	0.101
213.300	42.423	0.101
213.400	32.830	0.101
213.500	33.143	0.101
213.600	43.140	0.101
213.700	43.184	0.101
213.800	27.249	0.101
213.900	41.537	0.101
214.000	37.028	0.101
214.100	42.294	0.101
214.200	36.245	0.101
214.300	34.877	0.101
214.400	35.407	0.101
214.500	45.016	0.101
214.600	47.052	0.101
214.700	44.829	0.101
214.800	32.612	0.101
214.900	28.431	0.101
215.000	47.808	0.101
215.100	39.354	0.101
215.200	34.843	0.101
215.300	42.512	0.101
215.400	33.681	0.101
215.500	44.078	0.101
215.600	52.228	0.101
215.700	23.918	0.101
215.800	34.608	0.101
215.900	25.651	0.101
216.000	53.101	0.101
216.100	34.006	0.101
216.200	29.996	0.101
216.300	45.512	0.101
216.400	32.053	0.101
216.500	35.519	0.101
216.600	36.158	0.101
216.700	42.866	0.101
216.800	33.516	0.101
216.900	40.796	0.101
217.000	50.771	0.101
217.100	33.644	0.101
217.200	35.040	0.101
217.300	22.036	0.101
217.400	31.917	0.101
217.500	45.517	0.101
217.600	46.780	0.101
217.700	48.223	0.101
217.800	45.747	0.101
217.900	33.686	0.101
218.000	39.823	0.101
218.100	47.674	0.101
218.200	24.348	0.101
218.300	32.698	0.101
218.400	33.987	0.101
218.500	32.595	0.101
218.600	50.707	0.101
218.700	46.151	0.101
218.800	44.912	0.101
218.900	39.014	0.101
219.000	35.896	0.101
219.100	37.743	0.101
219.200	33.319	0.101
219.300	39.420	0.101
219.400	36.684	0.101
219.500	25.398	0.101
219.600	47.682	0.101
219.700	41.570	0.101
219.800	29.827	0.101
219.900	33.718	0.101
220.000	59.862	0.101
220.100	43.734	0.101
220.200	32.256	0.101
220.300	42.597	0.101
220.400	39.824	0.101
220.500	34.234	0.101
220.600	44.342	0.101
220.700	36.228	0.101
220.800	35.692	0.101
220.900	39.621	0.101
221.000	42.533	0.101
221.100	43.419	0.101
221.200	47.657	0.101
221.300	38.471	0.101
221.400	35.192	0.101
221.500	48.000	0.101
221.600	38.542	0.101
221.700	38.826	0.101
221.800	37.331	0.101
221.900	46.354	0.101
222.000	41.761	0.101
222.100	36.573	0.101
222.200	51.096	0.101
222.300	19.229	0.101
222.400	34.055	0.101
222.500	49.048	0.101
222.600	45.933	0.101
222.700	53.615	0.101
222.800	41.167	0.101
222.900	46.904	0.101
223.000	44.318	0.101
223.100	61.542	0.101
223.200	32.192	0.101
223.300	41.129	0.101
223.400	38.142	0.101
223.500	34.014	0.101
223.600	43.320	0.101
223.700	33.546	0.101
223.800	44.484	0.101
223.900	43.631	0.101
224.000	39.530	0.101
224.100	35.665	0.101
224.200	43.563	0.101
224.300	42.671	0.101
224.400	50.191	0.101
224.500	33.698	0.101
224.600	49.502	0.101
224.700	36.464	0.101
224.800	44.219	0.101
224.900	40.178	0.101
225.000	36.498	0.101
225.100	30.209	0.101
225.200	41.529	0.101
225.300	31.063	0.101
225.400	32.970	0.101
225.500	43.630	0.101
225.600	43.177	0.101
225.700	36.619	0.101
225.800	34.273	0.101
225.900	44.944	0.101
226.000	37.902	0.101
226.100	34.261	0.101
226.200	36.265	0.101
226.300	51.903	0.101
226.400	41.713	0.101
226.500	38.340	0.101
226.600	36.182	0.101
226.700	38.514	0.101
226.800	46.145	0.101
226.900	37.530	0.101
227.000	42.804	0.101
227.100	41.259	0.101
227.200	39.346	0.101
227.300	31.677	0.101
227.400	46.610	0.101
227.500	37.295	0.101
227.600	28.056	0.101
227.700	54.783	0.101
227.800	38.314	0.101
227.900	34.744	0.101
228.000	48.532	0.101
228.100	42.559	0.101
228.200	37.852	0.101
228.300	30.646	0.101
228.400	39.669	0.101
228.500	43.549	0.101
228.600	49.484	0.101
228.700	45.656	0.101
228.800	28.117	0.101
228.900	47.665	0.101
229.000	38.633	0.101
229.100	49.211	0.101
229.200	40.616	0.101
229.300	38.946	0.101
229.400	45.947	0.101
229.500	40.545	0.101
229.600	37.158	0.101
229.700	55.530	0.101
229.800	40.383	0.101
229.900	44.456	0.101
230.000	42.046	0.101
230.100	40.021	0.101
230.200	37.313	0.101
230.300	45.106	0.101
230.400	51.091	0.101
230.500	37.953	0.101
230.600	43.864	0.101
230.700	38.612	0.101
230.800	51.654	0.101
230.900	35.927	0.101
231.000	43.197	0.101
231.100	36.977	0.101
231.200	36.678	0.101
231.300	45.313	0.101
231.400	47.320	0.101
231.500	29.289	0.101
231.600	40.701	0.101
231.700	31.897	0.101
231.800	46.450	0.101
231.900	51.317	0.101
232.000	47.302	0.101
232.100	50.215	0.101
232.200	40.811	0.101
232.300	37.449	0.101
232.400	41.980	0.101
232.500	41.982	0.101
232.600	48.315	0.101
232.700	41.344	0.101
232.800	32.009	0.101
232.900	44.482	0.101
233.000	35.258	0.101
233.100	44.531	0.101
233.200	47.807	0.101
233.300	43.238	0.101
233.400	44.486	0.101
233.500	42.272	0.101
233.600	37.016	0.101
233.700	50.927	0.101
233.800	44.140	0.101
233.900	51.898	0.101
234.000	40.091	0.101
234.100	54.851	0.101
234.200	41.191	0.101
234.300	40.706	0.101
234.400	48.493	0.101
234.500	47.989	0.101
234.600	40.566	0.101
234.700	38.933	0.101
234.800	45.789	0.101
234.900	41.554	0.101
235.000	43.085	0.101
235.100	41.687	0.101
235.200	57.518	0.101
235.300	37.606	0.101
235.400	48.140	0.101
235.500	38.978	0.101
235.600	36.653	0.101
235.700	34.845	0.101
235.800	40.697	0.101
235.900	40.972	0.101
236.000	36.301	0.101
236.100	51.471	0.101
236.200	40.397	0.101
236.300	44.178	0.101
236.400	43.125	0.101
236.500	45.772	0.101
236.600	28.345	0.101
236.700	45.944	0.101
236.800	37.864	0.101
236.900	45.051	0.101
237.000	52.834	0.101
237.100	43.685	0.101
237.200	35.766	0.101
237.300	35.438	0.101
237.400	26.177	0.101
237.500	45.861	0.101
237.600	51.994	0.101
237.700	33.812	0.101
237.800	53.138	0.101
237.900	49.482	0.101
238.000	45.712	0.101
238.100	42.604	0.101
238.200	51.635	0.101
238.300	40.036	0.101
238.400	45.503	0.101
238.500	45.496	0.101
238.600	27.532	0.101
238.700	33.322	0.101
238.800	64.792	0.101
238.900	38.487	0.101
239.000	38.565	0.101
239.100	47.170	0.101
239.200	37.712	0.101
239.300	42.614	0.101
239.400	33.077	0.101
239.500	55.873	0.101
239.600	27.086	0.101
239.700	37.608	0.101
239.800	55.312	0.101
239.900	42.996	0.101
240.000	33.525	0.101
240.100	47.767	0.101
240.200	37.564	0.101
240.300	48.633	0.101
240.400	32.890	0.101
240.500	32.828	0.101
240.600	39.774	0.101
240.700	46.206	0.101
240.800	36.605	0.101
240.900	30.915	0.101
241.000	32.927	0.101
241.100	32.441	0.101
241.200	32.539	0.101
241.300	34.669	0.101
241.400	31.367	0.101
241.500	32.494	0.101
241.600	37.419	0.101
241.700	27.372	0.101
241.800	31.119	0.101
241.900	29.642	0.101
242.000	31.438	0.101
242.100	19.841	0.101
242.200	10.095	0.101
242.300	33.695	0.101
242.400	32.280	0.101
242.500	15.034	0.101
242.600	30.100	0.101
242.700	19.556	0.101
242.800	18.909	0.101
242.900	23.137	0.101
243.000	15.405	0.101
243.100	16.463	0.101
243.200	15.085	0.101
243.300	27.386	0.101
243.400	5.473	0.101
243.500	16.219	0.101
243.600	24.555	0.101
243.700	19.628	0.101
243.800	25.508	0.101
243.900	10.837	0.101
244.000	28.193	0.101
244.100	19.467	0.101
244.200	14.272	0.101
244.300	18.988	0.101
244.400	17.672	0.101
244.500	13.476	0.101
244.600	32.524	0.101
244.700	15.624	0.101
244.800	11.429	0.101
244.900	28.197	0.101
245.000	12.378	0.101
245.100	13.392	0.101
245.200	15.038	0.101
245.300	3.799	0.101
245.400	10.165	0.101
245.500	15.195	0.101
245.600	27.484	0.101
245.700	21.850	0.101
245.800	17.880	0.101
245.900	9.829	0.101
246.000	28.553	0.101
246.100	19.131	0.101
246.200	11.168	0.101
246.300	12.802	0.101
246.400	9.062	0.101
246.500	11.433	0.101
246.600	21.063	0.101
246.700	19.276	0.101
246.800	10.319	0.101
246.900	15.364	0.101
247.000	10.626	0.101
247.100	9.053	0.101
247.200	9.089	0.101
247.300	18.867	0.101
247.400	20.551	0.101
247.500	15.325	0.101
247.600	20.380	0.101
247.700	9.617	0.101
247.800	18.390	0.101
247.900	18.501	0.101
248.000	14.089	0.101
248.100	14.130	0.101
248.200	22.847	0.101
248.300	12.907	0.101
248.400	0.099	0.101
248.500	11.272	0.101
248.600	10.280	0.101
248.700	19.504	0.101
248.800	17.273	0.101
248.900	9.889	0.101
249.000	29.600	0.101
249.100	15.717	0.101
249.200	2.587	0.101
249.300	13.286	0.101
249.400	3.851	0.101
249.500	28.835	0.101
249.600	18.806	0.101
249.700	7.171	0.101
249.800	12.280	0.101
249.900	10.764	0.101
250.000	23.068	0.101
250.100	12.155	0.101
250.200	28.835	0.101
250.300	8.440	0.101
250.400	5.292	0.101
250.500	9.298	0.101
250.600	26.171	0.101
250.700	12.696	0.101
250.800	17.811	0.101
250.900	5.037	0.101
251.000	14.889	0.101
251.100	21.587	0.101
251.200	7.108	0.101
251.300	-1.532	0.101
251.400	21.541	0.101
251.500	5.634	0.101
251.600	13.509	0.101
251.700	-0.228	0.101
251.800	15.409	0.101
251.900	17.516	0.101
252.000	11.129	0.101
252.100	7.212	0.101
252.200	21.925	0.101
252.300	12.209	0.101
252.400	9.595	0.101
252.500	8.109	0.101
252.600	4.517	0.101
252.700	26.895	0.101
252.800	9.143	0.101
252.900	13.558	0.101
253.000	20.733	0.101
253.100	15.241	0.101
253.200	21.618	0.101
253.300	10.947	0.101
253.400	9.275	0.101
253.500	-2.338	0.101
253.600	4.050	0.101
253.700	16.622	0.101
253.800	25.873	0.101
253.900	3.525	0.101
254.000	-7.309	0.101
254.100	-3.149	0.101
254.200	20.237	0.101
254.300	10.324	0.101
254.400	22.360	0.101
254.500	11.169	0.101
254.600	8.832	0.101
254.700	-1.497	0.101
254.800	12.156	0.101
254.900	16.089	0.101
255.000	14.597	0.101
255.100	-0.749	0.101
255.200	11.998	0.101
255.300	1.472	0.101
255.400	15.510	0.101
255.500	12.147	0.101
255.600	14.640	0.101
255.700	6.731	0.101
255.800	0.269	0.101
255.900	6.931	0.101
256.000	5.626	0.101
256.100	4.856	0.101
256.200	9.218	0.101
256.300	2.890	0.101
256.400	11.314	0.101
256.500	3.084	0.101
256.600	5.775	0.101
256.700	3.669	0.101
256.800	10.245	0.101
256.900	9.123	0.101
257.000	-1.660	0.101
257.100	0.149	0.101
257.200	14.888	0.101
257.300	7.128	0.101
257.400	8.075	0.101
257.500	15.377	0.101
257.600	-3.866	0.101
257.700	18.579	0.101
257.800	10.991	0.101
257.900	8.023	0.101
258.000	5.945	0.101
258.100	2.823	0.101
258.200	3.970	0.101
258.300	4.798	0.101
258.400	0.293	0.101
258.500	3.854	0.101
258.600	1.072	0.101
258.700	-4.948	0.101
258.800	10.598	0.101
258.900	9.909	0.101
259.000	7.833	0.101
259.100	-2.674	0.101
259.200	5.468	0.101
259.300	16.451	0.101
259.400	4.495	0.101
259.500	20.381	0.101
259.600	2.146	0.101
259.700	19.495	0.101
259.800	-12.673	0.101
259.900	6.837	0.101
260.000	0.768	0.101
260.100	11.434	0.101
260.200	11.479	0.101
260.300	3.867	0.101
260.400	1.422	0.101
260.500	14.638	0.101
260.600	-1.493	0.101
260.700	-0.879	0.101
260.800	8.156	0.101
260.900	-4.217	0.101
261.000	-1.844	0.101
261.100	6.398	0.101
261.200	14.946	0.101
261.300	1.330	0.101
261.400	-1.489	0.101
261.500	5.003	0.101
261.600	-7.023	0.101
261.700	9.417	0.101
261.800	18.197	0.101
261.900	7.633	0.101
262.000	4.356	0.101
262.100	-2.768	0.101
262.200	1.326	0.101
262.300	0.256	0.101
262.400	6.947	0.101
262.500	-11.458	0.101
262.600	4.104	0.101
262.700	-8.173	0.101
262.800	-4.763	0.101
262.900	6.035	0.101
263.000	3.062	0.101
263.100	11.153	0.101
263.200	11.367	0.101
263.300	8.473	0.101
263.400	5.541	0.101
263.500	6.432	0.101
263.600	8.823	0.101
263.700	2.223	0.101
263.800	2.692	0.101
263.900	0.656	0.101
264.000	-5.232	0.101
264.100	-8.903	0.101
264.200	11.766	0.101
264.300	18.746	0.101
264.400	-4.583	0.101
264.500	-9.553	0.101
264.600	-4.549	0.101
264.700	15.939	0.101
264.800	-9.034	0.101
264.900	4.925	0.101
265.000	0.893	0.101
265.100	-1.279	0.101
265.200	-6.440	0.101
265.300	7.234	0.101
265.400	15.369	0.101
265.500	-8.604	0.101
265.600	4.256	0.101
265.700	-10.438	0.101
265.800	2.194	0.101
265.900	-1.699	0.101
266.000	-13.569	0.101
266.100	-14.667	0.101
266.200	6.512	0.101
266.300	-5.490	0.101
266.400	-16.123	0.101
266.500	-2.198	0.101
266.600	-0.025	0.101
266.700	-4.153	0.101
266.800	7.692	0.101
266.900	-4.406	0.101
267.000	0.293	0.101
267.100	2.000	0.101
267.200	-6.400	0.101
267.300	-1.304	0.101
267.400	-3.578	0.101
267.500	-4.259	0.101
267.600	-2.568	0.101
267.700	2.661	0.101
267.800	6.391	0.101
267.900	-8.788	0.101
268.000	-3.233	0.101
268.100	-5.398	0.101
268.200	0.286	0.101
268.300	-2.688	0.101
268.400	-10.271	0.101
268.500	-10.242	0.101
268.600	-3.417	0.101
268.700	2.600	0.101
268.800	2.169	0.101
268.900	-3.655	0.101
269.000	-18.559	0.101
269.100	-12.446	0.101
269.200	-13.493	0.101
269.300	-8.167	0.101
269.400	-10.204	0.101
269.500	1.565	0.101
269.600	-2.934	0.101
269.700	0.033	0.101
269.800	-2.328	0.101
269.900	7.566	0.101
270.000	2.159	0.101
270.100	-7.334	0.101
270.200	2.190	0.101
270.300	8.683	0.101
270.400	0.468	0.101
270.500	-8.452	0.101
270.600	3.118	0.101
270.700	5.948	0.101
270.800	-13.913	0.101
270.900	-0.607	0.101
271.000	-5.341	0.101
271.100	-3.636	0.101
271.200	-10.343	0.101
271.300	-11.626	0.101
271.400	-11.220	0.101
271.500	-7.891	0.101
271.600	-4.017	0.101
271.700	-4.872	0.101
271.800	-2.978	0.101
271.900	1.030	0.101
272.000	-8.181	0.101
272.100	-15.127	0.101
272.200	-3.662	0.101
272.300	-3.924	0.101
272.400	-1.741	0.101
272.500	-0.445	0.101
272.600	-14.928	0.101
272.700	-20.304	0.101
272.800	0.520	0.101
272.900	-13.257	0.101
273.000	-5.495	0.101
273.100	-4.804	0.101
273.200	-15.049	0.101
273.300	-10.314	0.101
273.400	2.858	0.101
273.500	1.399	0.101
273.600	-15.245	0.101
273.700	2.337	0.101
273.800	-8.319	0.101
273.900	-6.005	0.101
274.000	-15.022	0.101
274.100	-12.741	0.101
274.200	-10.238	0.101
274.300	-7.086	0.101
274.400	-0.950	0.101
274.500	15.171	0.101
274.600	-16.356	0.101
274.700	2.204	0.101
274.800	-11.309	0.101
274.900	-6.824	0.101
275.000	-3.650	0.101
275.100	-15.702	0.101
275.200	-11.741	0.101
275.300	-8.715	0.101
275.400	-7.344	0.101
275.500	-3.912	0.101
275.600	-4.864	0.101
275.700	-9.007	0.101
275.800	-20.203	0.101
275.900	-1.802	0.101
276.000	-12.935	0.101
276.100	-7.654	0.101
276.200	-0.975	0.101
276.300	-10.488	0.101
276.400	-5.158	0.101
276.500	4.110	0.101
276.600	-13.932	0.101
276.700	-16.521	0.101
276.800	-19.223	0.101
276.900	-7.750	0.101
277.000	-12.300	0.101
277.100	-6.225	0.101
277.200	-1.601	0.101
277.300	-6.885	0.101
277.400	-25.574	0.101
277.500	-13.927	0.101
277.600	-6.736	0.101
277.700	-11.717	0.101
277.800	-4.109	0.101
277.900	-2.491	0.101
278.000	-2.974	0.101
278.100	-10.472	0.101
278.200	-11.466	0.101
278.300	-17.919	0.101
278.400	-9.740	0.101
278.500	-14.561	0.101
278.600	-3.370	0.101
278.700	-2.601	0.101
278.800	-6.104	0.101
278.900	-19.056	0.101
279.000	-5.005	0.101
279.100	0.052	0.101
279.200	-8.170	0.101
279.300	-14.909	0.101
279.400	-20.623	0.101
279.500	-14.500	0.101
279.600	-3.781	0.101
279.700	-11.825	0.101
279.800	-5.214	0.101
279.900	-9.821	0.101
280.000	-11.884	0.101
280.100	-4.590	0.101
280.200	-11.356	0.101
280.300	-0.688	0.101
280.400	-11.813	0.101
280.500	-16.074	0.101
280.600	-5.024	0.101
280.700	-17.370	0.101
280.800	-9.246	0.101
280.900	-12.673	0.101
281.000	-14.368	0.101
281.100	1.685	0.101
281.200	-8.068	0.101
281.300	-16.697	0.101
281.400	-10.367	0.101
281.500	-19.372	0.101
281.600	-8.296	0.101
281.700	-2.240	0.101
281.800	-17.937	0.101
281.900	-9.010	0.101
282.000	-4.025	0.101
282.100	-10.654	0.101
282.200	-14.676	0.101
282.300	-28.777	0.101
282.400	-6.422	0.101
282.500	-3.747	0.101
282.600	-7.729	0.101
282.700	-25.269	0.101
282.800	-17.807	0.101
282.900	-5.596	0.101
283.000	-18.685	0.101
283.100	-2.743	0.101
283.200	-5.565	0.101
283.300	-16.236	0.101
283.400	-13.114	0.101
283.500	-3.104	0.101
283.600	-22.171	0.101
283.700	-8.978	0.101
283.800	-9.989	0.101
283.900	-10.808	0.101
284.000	-11.261	0.101
284.100	-8.553	0.101
284.200	-14.470	0.101
284.300	-5.390	0.101
284.400	-4.614	0.101
284.500	-3.440	0.101
284.600	-14.310	0.101
284.700	-22.812	0.101
284.800	-7.303	0.101
284.900	-10.233	0.101
285.000	-22.954	0.101
285.100	-12.694	0.101
285.200	-15.848	0.101
285.300	-3.543	0.101
285.400	-9.877	0.101
285.500	-5.801	0.101
285.600	-12.049	0.101
285.700	-16.392	0.101
285.800	-6.088	0.101
285.900	-16.829	0.101
286.000	-2.863	0.101
286.100	-10.478	0.101
286.200	-20.530	0.101
286.300	-17.026	0.101
286.400	-15.600	0.101
286.500	-2.652	0.101
286.600	-15.760	0.101
286.700	-21.647	0.101
286.800	-11.334	0.101
286.900	-6.831	0.101
287.000	-5.669	0.101
287.100	-12.714	0.101
287.200	-19.802	0.101
287.300	-14.113	0.101
287.400	-7.633	0.101
287.500	2.927	0.101
287.600	-12.118	0.101
287.700	-18.626	0.101
287.800	-0.716	0.101
287.900	-17.442	0.101
288.000	-21.442	0.101
288.100	2.143	0.101
288.200	-1.803	0.101
288.300	-15.891	0.101
288.400	-15.168	0.101
288.500	-10.732	0.101
288.600	-6.623	0.101
288.700	-11.903	0.101
288.800	-8.748	0.101
288.900	-13.505	0.101
289.000	-8.460	0.101
289.100	-17.554	0.101
289.200	-13.307	0.101
289.300	-9.880	0.101
289.400	-1.420	0.101
289.500	-24.437	0.101
289.600	-14.527	0.101
289.700	-15.819	0.101
289.800	-17.706	0.101
289.900	-9.968	0.101
290.000	-18.879	0.101
290.100	-16.775	0.101
290.200	-11.304	0.101
290.300	-10.321	0.101
290.400	-0.865	0.101
290.500	-6.640	0.101
290.600	-7.570	0.101
290.700	-22.403	0.101
290.800	-6.790	0.101
290.900	-21.541	0.101
291.000	-14.066	0.101
291.100	-18.234	0.101
291.200	0.073	0.101
291.300	-7.210	0.101
291.400	-12.477	0.101
291.500	-23.182	0.101
291.600	-5.094	0.101
291.700	-12.112	0.101
291.800	-11.176	0.101
291.900	-4.076	0.101
292.000	-9.082	0.101
292.100	-14.854	0.101
292.200	-7.653	0.101
292.300	-4.729	0.101
292.400	-8.653	0.101
292.500	-17.893	0.101
292.600	-9.637	0.101
292.700	-3.473	0.101
292.800	-15.316	0.101
292.900	-24.414	0.101
293.000	-15.426	0.101
293.100	-7.666	0.101
293.200	-22.442	0.101
293.300	-7.032	0.101
293.400	-15.220	0.101
293.500	-10.008	0.101
293.600	-6.525	0.101
293.700	-12.025	0.101
293.800	-5.528	0.101
293.900	-13.492	0.101
294.000	-8.964	0.101
294.100	-13.265	0.101
294.200	-14.832	0.101
294.300	2.535	0.101
294.400	-17.487	0.101
294.500	-33.071	0.101
294.600	-13.310	0.101
294.700	-11.242	0.101
294.800	-19.105	0.101
294.900	-27.024	0.101
295.000	-13.800	0.101
295.100	1.881	0.101
295.200	-5.434	0.101
295.300	-9.833	0.101
295.400	-13.115	0.101
295.500	-19.490	0.101
295.600	-0.792	0.101
295.700	-18.033	0.101
295.800	-21.538	0.101
295.900	-9.692	0.101
296.000	-9.197	0.101
296.100	-19.287	0.101
296.200	-9.017	0.101
296.300	-32.044	0.101
296.400	-10.057	0.101
296.500	-4.813	0.101
296.600	-5.317	0.101
296.700	-19.668	0.101
296.800	-25.041	0.101
296.900	-0.261	0.101
297.000	-16.277	0.101
297.100	-17.086	0.101
297.200	-7.261	0.101
297.300	-15.632	0.101
297.400	-14.074	0.101
297.500	3.259	0.101
297.600	-22.943	0.101
297.700	-22.755	0.101
297.800	-13.559	0.101
297.900	-5.972	0.101
298.000	-19.315	0.101
298.100	-23.449	0.101
298.200	-7.716	0.101
298.300	-17.692	0.101
298.400	-13.700	0.101
298.500	-13.396	0.101
298.600	-4.429	0.101
298.700	-20.096	0.101
298.800	-19.882	0.101
298.900	-14.557	0.101
299.000	1.728	0.101
299.100	-4.330	0.101
299.200	-1.757	0.101
299.300	-11.003	0.101
299.400	-20.398	0.101
299.500	-15.183	0.101
299.600	-25.056	0.101
299.700	-16.937	0.101
299.800	-13.253	0.101
299.900	-23.723	0.101
300.000	-13.318	0.101
300.100	-12.706	0.101
300.200	-8.580	0.101
300.300	-9.693	0.101
300.400	-28.961	0.101
300.500	-26.273	0.101
300.600	-18.790	0.101
300.700	-9.124	0.101
300.800	-16.335	0.101
300.900	-11.604	0.101
301.000	-16.153	0.101
301.100	-4.648	0.101
301.200	-13.987	0.101
301.300	-9.572	0.101
301.400	-2.775	0.101
301.500	-24.618	0.101
301.600	-13.460	0.101
301.700	-11.755	0.101
301.800	-15.730	0.101
301.900	-5.698	0.101
302.000	-12.796	0.101
302.100	-11.334	0.101
302.200	-12.416	0.101
302.300	4.593	0.101
302.400	-9.380	0.101
302.500	-9.790	0.101
302.600	-13.875	0.101
302.700	-21.906	0.101
302.800	-10.716	0.101
302.900	-3.063	0.101
303.000	-27.602	0.101
303.100	-7.101	0.101
303.200	-19.051	0.101
303.300	-16.285	0.101
303.400	0.347	0.101
303.500	-17.157	0.101
303.600	-13.175	0.101
303.700	-27.474	0.101
303.800	-1.651	0.101
303.900	-17.383	0.101
304.000	4.735	0.101
304.100	-18.100	0.101
304.200	-12.200	0.101
304.300	-13.028	0.101
304.400	-25.609	0.101
304.500	-5.349	0.101
304.600	0.078	0.101
304.700	-19.077	0.101
304.800	-5.384	0.101
304.900	-6.631	0.101
305.000	-17.646	0.101
305.100	-24.009	0.101
305.200	-22.888	0.101
305.300	-5.393	0.101
305.400	6.566	0.101
305.500	-15.819	0.101
305.600	-22.162	0.101
305.700	-25.718	0.101
305.800	0.297	0.101
305.900	-11.962	0.101
306.000	-7.841	0.101
306.100	-21.082	0.101
306.200	-13.709	0.101
306.300	-9.773	0.101
306.400	-24.418	0.101
306.500	-13.921	0.101
306.600	-11.741	0.101
306.700	-9.615	0.101
306.800	-12.993	0.101
306.900	-7.834	0.101
307.000	-16.201	0.101
307.100	-4.348	0.101
307.200	-15.877	0.101
307.300	-34.545	0.101
307.400	-1.861	0.101
307.500	-23.017	0.101
307.600	-13.396	0.101
307.700	-27.568	0.101
307.800	-5.741	0.101
307.900	-13.022	0.101
308.000	-9.380	0.101
308.100	-14.568	0.101
308.200	-13.821	0.101
308.300	-19.630	0.101
308.400	-0.736	0.101
308.500	-22.519	0.101
308.600	-17.378	0.101
308.700	-15.681	0.101
308.800	-20.638	0.101
308.900	-7.662	0.101
309.000	-2.397	0.101
309.100	-3.183	0.101
309.200	-5.523	0.101
309.300	-8.668	0.101
309.400	-14.328	0.101
309.500	-6.878	0.101
309.600	-31.651	0.101
309.700	-16.096	0.101
309.800	-16.536	0.101
309.900	-19.321	0.101
310.000	-20.245	0.101
310.100	-23.719	0.101
310.200	-17.109	0.101
310.300	-3.534	0.101
310.400	-14.261	0.101
310.500	1.328	0.101
310.600	-11.882	0.101
310.700	-22.632	0.101
310.800	-8.189	0.101
310.900	-30.530	0.101
311.000	-14.100	0.101
311.100	-12.919	0.101
311.200	-13.494	0.101
311.300	-21.607	0.101
311.400	-11.072	0.101
311.500	-15.123	0.101
311.600	-7.572	0.101
311.700	-4.591	0.101
311.800	-4.059	0.101
311.900	-15.291	0.101
312.000	-20.737	0.101
312.100	-20.007	0.101
312.200	-10.926	0.101
312.300	-14.507	0.101
312.400	-27.129	0.101
312.500	-18.155	0.101
312.600	-10.116	0.101
312.700	-11.849	0.101
312.800	-18.299	0.101
312.900	-9.257	0.101
313.000	-27.785	0.101
313.100	-8.812	0.101
313.200	-12.733	0.101
313.300	-11.336	0.101
313.400	-9.380	0.101
313.500	-23.597	0.101
313.600	-26.444	0.101
313.700	-13.828	0.101
313.800	-9.624	0.101
313.900	-10.388	0.101
314.000	-6.481	0.101
314.100	-13.182	0.101
314.200	-20.203	0.101
314.300	-6.703	0.101
314.400	-15.998	0.101
314.500	-1.993	0.101
314.600	-5.469	0.101
314.700	-21.683	0.101
314.800	-20.841	0.101
314.900	-11.105	0.101
315.000	-23.507	0.101
315.100	-11.510	0.101
315.200	-10.954	0.101
315.300	-2.376	0.101
315.400	-11.045	0.101
315.500	-11.636	0.101
315.600	-27.491	0.101
315.700	-19.691	0.101
315.800	-12.079	0.101
315.900	-16.961	0.101
316.000	-13.728	0.101
316.100	-10.168	0.101
316.200	-11.764	0.101
316.300	-20.936	0.101
316.400	-19.072	0.101
316.500	-22.647	0.101
316.600	-0.069	0.101
316.700	-1.307	0.101
316.800	-17.988	0.101
316.900	-15.700	0.101
317.000	-12.057	0.101
317.100	-13.392	0.101
317.200	-13.583	0.101
317.300	-26.048	0.101
317.400	-15.623	0.101
317.500	-26.059	0.101
317.600	-13.337	0.101
317.700	-17.381	0.101
317.800	-13.807	0.101
317.900	4.348	0.101
318.000	-5.698	0.101
318.100	-19.840	0.101
318.200	-12.645	0.101
318.300	-20.032	0.101
318.400	-27.192	0.101
318.500	-3.091	0.101
318.600	-8.386	0.101
318.700	-5.819	0.101
318.800	-13.377	0.101
318.900	-27.036	0.101
319.000	-2.384	0.101
319.100	-18.033	0.101
319.200	-16.138	0.101
319.300	-16.689	0.101
319.400	-8.674	0.101
319.500	-7.193	0.101
319.600	-26.826	0.101
319.700	-10.636	0.101
319.800	-9.975	0.101
319.900	-13.629	0.101
320.000	-16.348	0.101
320.100	-9.400	0.101
320.200	-18.653	0.101
320.300	-5.037	0.101
320.400	-20.843	0.101
320.500	-6.917	0.101
320.600	-21.390	0.101
320.700	-14.417	0.101
320.800	-10.624	0.101
320.900	-11.421	0.101
321.000	-16.646	0.101
321.100	-17.547	0.101
321.200	-11.929	0.101
321.300	-9.185	0.101
321.400	-2.411	0.101
321.500	-4.140	0.101
321.600	-7.171	0.101
321.700	-5.332	0.101
321.800	-19.820	0.101
321.900	-9.001	0.101
322.000	-22.896	0.101
322.100	-13.434	0.101
322.200	-12.320	0.101
322.300	-7.830	0.101
322.400	-25.391	0.101
322.500	-9.549	0.101
322.600	-0.296	0.101
322.700	-20.069	0.101
322.800	-16.405	0.101
322.900	-20.905	0.101
323.000	-10.307	0.101
323.100	-8.435	0.101
323.200	-27.781	0.101
323.300	-7.717	0.101
323.400	-7.209	0.101
323.500	-15.903	0.101
323.600	-10.099	0.101
323.700	-23.218	0.101
323.800	-13.777	0.101
323.900	-18.303	0.101
324.000	-17.528	0.101
324.100	-5.748	0.101
324.200	-11.084	0.101
324.300	-18.988	0.101
324.400	-6.250	0.101
324.500	-3.635	0.101
324.600	-19.401	0.101
324.700	-15.589	0.101
324.800	-19.367	0.101
324.900	-21.452	0.101
325.000	-5.738	0.101
325.100	-11.943	0.101
325.200	-10.357	0.101
325.300	-14.034	0.101
325.400	-21.707	0.101
325.500	-20.378	0.101
325.600	-18.132	0.101
325.700	-19.982	0.101
325.800	-5.127	0.101
325.900	-3.923	0.101
326.000	-8.605	0.101
326.100	-13.265	0.101
326.200	-11.170	0.101
326.300	-27.688	0.101
326.400	-0.082	0.101
326.500	-12.481	0.101
326.600	-5.942	0.101
326.700	-13.692	0.101
326.800	-18.225	0.101
326.900	-20.743	0.101
327.000	-4.008	0.101
327.100	-11.122	0.101
327.200	-12.078	0.101
327.300	-12.807	0.101
327.400	-3.074	0.101
327.500	-7.697	0.101
327.600	-10.523	0.101
327.700	-9.473	0.101
327.800	-12.525	0.101
327.900	-9.295	0.101
328.000	-10.490	0.101
328.100	-14.538	0.101
328.200	-18.387	0.101
328.300	-16.668	0.101
328.400	-16.707	0.101
328.500	-5.661	0.101
328.600	-11.179	0.101
328.700	-19.002	0.101
328.800	-16.752	0.101
328.900	-11.676	0.101
329.000	-13.317	0.101
329.100	-7.768	0.101
329.200	-13.939	0.101
329.300	-0.084	0.101
329.400	0.647	0.101
329.500	-11.948	0.101
329.600	-20.803	0.101
329.700	-20.079	0.101
329.800	-12.588	0.101
329.900	-12.708	0.101
330.000	-10.404	0.101
330.100	4.423	0.101
330.200	-8.967	0.101
330.300	-28.755	0.101
330.400	-22.371	0.101
330.500	-8.333	0.101
330.600	0.380	0.101
330.700	-3.556	0.101
330.800	4.402	0.101
330.900	-4.760	0.101
331.000	-14.863	0.101
331.100	-5.545	0.101
331.200	-1.552	0.101
331.300	-1.752	0.101
331.400	2.386	0.101
331.500	-0.660	0.101
331.600	0.797	0.101
331.700	-0.477	0.101
331.800	-5.120	0.101
331.900	8.527	0.101
332.000	1.368	0.101
332.100	1.366	0.101
332.200	7.983	0.101
332.300	2.977	0.101
332.400	4.550	0.101
332.500	-1.403	0.101
332.600	7.196	0.101
332.700	4.518	0.101
332.800	4.212	0.101
332.900	9.321	0.101
333.000	13.983	0.101
333.100	8.364	0.101
333.200	1.331	0.101
333.300	3.663	0.101
333.400	9.521	0.101
333.500	-12.130	0.101
333.600	10.917	0.101
333.700	-3.956	0.101
333.800	18.125	0.101
333.900	17.450	0.101
334.000	3.524	0.101
334.100	16.833	0.101
334.200	3.499	0.101
334.300	18.020	0.101
334.400	19.745	0.101
334.500	15.696	0.101
334.600	5.152	0.101
334.700	4.017	0.101
334.800	21.886	0.101
334.900	16.164	0.101
335.000	17.776	0.101
335.100	10.456	0.101
335.200	0.114	0.101
335.300	15.958	0.101
335.400	6.820	0.101
335.500	-1.481	0.101
335.600	14.676	0.101
335.700	-0.840	0.101
335.800	17.512	0.101
335.900	16.180	0.101
336.000	9.598	0.101
336.100	17.116	0.101
336.200	7.531	0.101
336.300	5.343	0.101
336.400	8.575	0.101
336.500	7.737	0.101
336.600	-5.354	0.101
336.700	6.111	0.101
336.800	18.368	0.101
336.900	7.509	0.101
337.000	12.507	0.101
337.100	6.925	0.101
337.200	11.523	0.101
337.300	-1.627	0.101
337.400	-6.371	0.101
337.500	11.128	0.101
337.600	-0.719	0.101
337.700	7.026	0.101
337.800	10.625	0.101
337.900	-0.340	0.101
338.000	-1.250	0.101
338.100	17.021	0.101
338.200	6.374	0.101
338.300	18.273	0.101
338.400	21.690	0.101
338.500	2.648	0.101
338.600	-1.571	0.101
338.700	10.582	0.101
338.800	10.101	0.101
338.900	5.466	0.101
339.000	15.324	0.101
339.100	16.532	0.101
339.200	10.290	0.101
339.300	6.397	0.101
339.400	6.837	0.101
339.500	19.336	0.101
339.600	19.454	0.101
339.700	14.925	0.101
339.800	12.017	0.101
339.900	16.444	0.101
340.000	14.249	0.101
340.100	19.236	0.101
340.200	16.333	0.101
340.300	9.849	0.101
340.400	11.934	0.101
340.500	-2.186	0.101
340.600	21.687	0.101
340.700	13.194	0.101
340.800	15.723	0.101
340.900	8.294	0.101
341.000	7.926	0.101
341.100	26.569	0.101
341.200	15.998	0.101
341.300	11.569	0.101
341.400	6.560	0.101
341.500	19.341	0.101
341.600	7.762	0.101
341.700	14.840	0.101
341.800	23.203	0.101
341.900	12.244	0.101
342.000	11.739	0.101
342.100	1.446	0.101
342.200	19.723	0.101
342.300	15.377	0.101
342.400	5.942	0.101
342.500	10.025	0.101
342.600	22.447	0.101
342.700	15.542	0.101
342.800	14.852	0.101
342.900	8.218	0.101
343.000	11.600	0.101
343.100	23.467	0.101
343.200	11.152	0.101
343.300	5.829	0.101
343.400	3.907	0.101
343.500	6.914	0.101
343.600	24.564	0.101
343.700	13.127	0.101
343.800	19.365	0.101
343.900	13.025	0.101
344.000	24.378	0.101
344.100	5.745	0.101
344.200	19.073	0.101
344.300	22.730	0.101
344.400	24.143	0.101
344.500	18.691	0.101
344.600	9.543	0.101
344.700	19.698	0.101
344.800	18.192	0.101
344.900	0.632	0.101
345.000	30.026	0.101
345.100	28.375	0.101
345.200	19.587	0.101
345.300	13.344	0.101
345.400	17.208	0.101
345.500	8.691	0.101
345.600	11.882	0.101
345.700	27.856	0.101
345.800	30.229	0.101
345.900	16.317	0.101
346.000	15.977	0.101
346.100	19.304	0.101
346.200	18.181	0.101
346.300	24.372	0.101
346.400	26.101	0.101
346.500	23.069	0.101
346.600	14.811	0.101
346.700	8.444	0.101
346.800	24.231	0.101
346.900	24.503	0.101
347.000	15.246	0.101
347.100	14.294	0.101
347.200	39.867	0.101
347.300	24.722	0.101
347.400	23.744	0.101
347.500	24.143	0.101
347.600	21.193	0.101
347.700	15.563	0.101
347.800	21.288	0.101
347.900	11.261	0.101
348.000	17.248	0.101
348.100	13.541	0.101
348.200	32.994	0.101
348.300	17.777	0.101
348.400	24.786	0.101
348.500	34.230	0.101
348.600	19.373	0.101
348.700	26.782	0.101
348.800	25.933	0.101
348.900	8.857	0.101
349.000	31.010	0.101
349.100	12.138	0.101
349.200	19.836	0.101
349.300	12.404	0.101
349.400	25.239	0.101
349.500	32.655	0.101
349.600	39.479	0.101
349.700	28.265	0.101
349.800	23.242	0.101
349.900	10.704	0.101
350.000	11.382	0.101
350.100	30.700	0.101
350.200	34.628	0.101
350.300	35.563	0.101
350.400	22.093	0.101
350.500	24.280	0.101
350.600	11.398	0.101
350.700	28.198	0.101
350.800	20.902	0.101
350.900	31.607	0.101
351.000	31.374	0.101
351.100	20.048	0.101
351.200	34.326	0.101
351.300	19.776	0.101
351.400	24.405	0.101
351.500	26.596	0.101
351.600	20.199	0.101
351.700	27.998	0.101
351.800	23.751	0.101
351.900	24.642	0.101
352.000	21.335	0.101
352.100	39.806	0.101
352.200	32.248	0.101
352.300	20.454	0.101
352.400	33.134	0.101
352.500	27.133	0.101
352.600	28.765	0.101
352.700	15.847	0.101
352.800	36.026	0.101
352.900	37.149	0.101
353.000	23.399	0.101
353.100	28.621	0.101
353.200	22.507	0.101
353.300	39.716	0.101
353.400	18.132	0.101
353.500	30.899	0.101
353.600	18.372	0.101
353.700	23.803	0.101
353.800	23.909	0.101
353.900	36.505	0.101
354.000	25.959	0.101
354.100	31.585	0.101
354.200	33.202	0.101
354.300	20.915	0.101
354.400	36.457	0.101
354.500	30.190	0.101
354.600	20.891	0.101
354.700	34.516	0.101
354.800	47.452	0.101
354.900	23.525	0.101
355.000	27.515	0.101
355.100	46.951	0.101
355.200	36.964	0.101
355.300	26.184	0.101
355.400	23.792	0.101
355.500	18.946	0.101
355.600	36.874	0.101
355.700	44.019	0.101
355.800	36.084	0.101
355.900	22.346	0.101
356.000	27.803	0.101
356.100	42.517	0.101
356.200	27.617	0.101
356.300	38.667	0.101
356.400	24.819	0.101
356.500	37.408	0.101
356.600	35.681	0.101
356.700	38.792	0.101
356.800	39.920	0.101
356.900	38.192	0.101
357.000	31.993	0.101
357.100	39.550	0.101
357.200	33.197	0.101
357.300	33.552	0.101
357.400	41.611	0.101
357.500	36.946	0.101
357.600	32.480	0.101
357.700	26.052	0.101
357.800	36.527	0.101
357.900	28.588	0.101
358.000	24.851	0.101
358.100	34.222	0.101
358.200	25.082	0.101
358.300	41.241	0.101
358.400	36.545	0.101
358.500	36.434	0.101
358.600	51.731	0.101
358.700	29.607	0.101
358.800	30.177	0.101
358.900	41.850	0.101
359.000	37.158	0.101
359.100	31.380	0.101
359.200	35.972	0.101
359.300	26.227	0.101
359.400	33.064	0.101
359.500	33.115	0.101
359.600	37.159	0.101
359.700	39.885	0.101
359.800	37.193	0.101
359.900	39.962	0.101
360.000	43.194	0.101
360.100	36.839	0.101
360.200	29.049	0.101
360.300	25.765	0.101
360.400	24.411	0.101
360.500	48.050	0.101
360.600	34.875	0.101
360.700	37.956	0.101
360.800	38.124	0.101
360.900	29.437	0.101
361.000	28.357	0.101
361.100	31.855	0.101
361.200	39.506	0.101
361.300	39.044	0.101
361.400	42.290	0.101
361.500	41.181	0.101
361.600	33.595	0.101
361.700	51.364	0.101
361.800	25.823	0.101
361.900	31.773	0.101
362.000	30.030	0.101
362.100	35.664	0.101
362.200	37.918	0.101
362.300	32.356	0.101
362.400	33.544	0.101
362.500	40.446	0.101
362.600	40.648	0.101
362.700	38.743	0.101
362.800	27.376	0.101
362.900	32.236	0.101
363.000	31.456	0.101
363.100	44.176	0.101
363.200	39.002	0.101
363.300	37.541	0.101
363.400	38.160	0.101
363.500	32.119	0.101
363.600	47.811	0.101
363.700	39.818	0.101
363.800	31.950	0.101
363.900	36.972	0.101
364.000	55.217	0.101
364.100	33.537	0.101
364.200	33.741	0.101
364.300	37.611	0.101
364.400	34.929	0.101
364.500	40.911	0.101
364.600	46.792	0.101
364.700	43.965	0.101
364.800	32.311	0.101
364.900	46.225	0.101
365.000	39.362	0.101
365.100	38.631	0.101
365.200	48.081	0.101
365.300	47.849	0.101
365.400	38.337	0.101
365.500	36.551	0.101
365.600	34.954	0.101
365.700	41.018	0.101
365.800	42.052	0.101
365.900	29.658	0.101
366.000	43.475	0.101
366.100	34.111	0.101
366.200	44.131	0.101
366.300	50.152	0.101
366.400	37.156	0.101
366.500	32.406	0.101
366.600	33.707	0.101
366.700	46.427	0.101
366.800	26.400	0.101
366.900	51.571	0.101
367.000	38.720	0.101
367.100	48.662	0.101
367.200	36.119	0.101
367.300	49.202	0.101
367.400	35.145	0.101
367.500	46.122	0.101
367.600	36.202	0.101
367.700	30.105	0.101
367.800	46.825	0.101
367.900	48.932	0.101
368.000	40.644	0.101
368.100	39.689	0.101
368.200	37.254	0.101
368.300	36.513	0.101
368.400	44.218	0.101
368.500	48.805	0.101
368.600	36.954	0.101
368.700	37.045	0.101
368.800	38.048	0.101
368.900	44.231	0.101
369.000	28.962	0.101
369.100	41.052	0.101
369.200	41.096	0.101
369.300	41.119	0.101
369.400	44.462	0.101
369.500	53.582	0.101
369.600	36.959	0.101
369.700	43.556	0.101
369.800	39.136	0.101
369.900	56.666	0.101
370.000	32.401	0.101
370.100	43.124	0.101
370.200	34.140	0.101
370.300	45.310	0.101
370.400	46.859	0.101
370.500	47.052	0.101
370.600	41.482	0.101
370.700	56.562	0.101
370.800	36.895	0.101
370.900	34.863	0.101
371.000	37.085	0.101
371.100	41.699	0.101
371.200	55.558	0.101
371.300	50.838	0.101
371.400	51.503	0.101
371.500	35.258	0.101
371.600	32.925	0.101
371.700	34.301	0.101
371.800	47.284	0.101
371.900	42.395	0.101
372.000	52.528	0.101
372.100	39.944	0.101
372.200	33.582	0.101
372.300	32.012	0.101
372.400	33.765	0.101
372.500	46.087	0.101
372.600	47.386	0.101
372.700	40.353	0.101
372.800	45.709	0.101
372.900	38.494	0.101
373.000	47.893	0.101
373.100	41.824	0.101
373.200	33.222	0.101
373.300	46.507	0.101
373.400	37.323	0.101
373.500	50.206	0.101
373.600	41.738	0.101
373.700	40.798	0.101
373.800	34.193	0.101
373.900	36.091	0.101
374.000	42.624	0.101
374.100	51.333	0.101
374.200	43.117	0.101
374.300	43.526	0.101
374.400	32.340	0.101
374.500	40.403	0.101
374.600	36.406	0.101
374.700	41.415	0.101
374.800	42.031	0.101
374.900	31.836	0.101
375.000	41.414	0.101
375.100	58.501	0.101
375.200	36.407	0.101
375.300	50.234	0.101
375.400	48.313	0.101
375.500	48.717	0.101
375.600	65.612	0.101
375.700	34.567	0.101
375.800	41.846	0.101
375.900	33.459	0.101
376.000	48.332	0.101
376.100	58.649	0.101
376.200	52.638	0.101
376.300	51.185	0.101
376.400	42.433	0.101
376.500	41.490	0.101
376.600	40.070	0.101
376.700	42.743	0.101
376.800	46.175	0.101
376.900	25.576	0.101
377.000	38.384	0.101
377.100	43.774	0.101
377.200	45.734	0.101
377.300	39.897	0.101
377.400	38.802	0.101
377.500	39.391	0.101
377.600	53.321	0.101
377.700	34.368	0.101
377.800	50.832	0.101
377.900	39.288	0.101
378.000	34.412	0.101
378.100	49.816	0.101
378.200	43.149	0.101
378.300	47.307	0.101
378.400	50.560	0.101
378.500	41.372	0.101
378.600	48.522	0.101
378.700	48.651	0.101
378.800	53.900	0.101
378.900	47.103	0.101
379.000	32.198	0.101
379.100	44.363	0.101
379.200	39.420	0.101
379.300	44.542	0.101
379.400	41.818	0.101
379.500	43.940	0.101
379.600	48.594	0.101
379.700	28.215	0.101
379.800	43.682	0.101
379.900	48.570	0.101
380.000	53.913	0.101
380.100	42.217	0.101
380.200	41.240	0.101
380.300	45.837	0.101
380.400	42.635	0.101
380.500	45.073	0.101
380.600	42.891	0.101
380.700	40.056	0.101
380.800	29.815	0.101
380.900	41.542	0.101
381.000	53.113	0.101
381.100	50.841	0.101
381.200	37.850	0.101
381.300	53.936	0.101
381.400	37.642	0.101
381.500	31.283	0.101
381.600	54.973	0.101
381.700	52.257	0.101
381.800	48.293	0.101
381.900	33.888	0.101
382.000	30.420	0.101
382.100	47.981	0.101
382.200	55.791	0.101
382.300	44.624	0.101
382.400	29.724	0.101
382.500	46.868	0.101
382.600	30.802	0.101
382.700	51.349	0.101
382.800	37.396	0.101
382.900	58.440	0.101
383.000	50.482	0.101
383.100	42.120	0.101
383.200	48.277	0.101
383.300	37.743	0.101
383.400	38.852	0.101
383.500	53.380	0.101
383.600	53.744	0.101
383.700	41.384	0.101
383.800	46.447	0.101
383.900	53.470	0.101
384.000	39.923	0.101
384.100	40.728	0.101
384.200	35.805	0.101
384.300	48.209	0.101
384.400	45.376	0.101
384.500	41.382	0.101
384.600	40.901	0.101
384.700	39.454	0.101
384.800	46.287	0.101
384.900	44.818	0.101
385.000	42.358	0.101
385.100	34.496	0.101
385.200	42.655	0.101
385.300	45.659	0.101
385.400	46.448	0.101
385.500	50.101	0.101
385.600	37.823	0.101
385.700	36.975	0.101
385.800	39.546	0.101
385.900	46.927	0.101
386.000	32.619	0.101
386.100	58.078	0.101
386.200	38.900	0.101
386.300	41.092	0.101
386.400	50.451	0.101
386.500	37.520	0.101
386.600	46.988	0.101
386.700	45.245	0.101
386.800	42.861	0.101
386.900	35.145	0.101
387.000	40.558	0.101
387.100	45.090	0.101
387.200	52.258	0.101
387.300	50.554	0.101
387.400	60.361	0.101
387.500	55.222	0.101
387.600	34.138	0.101
387.700	43.367	0.101
387.800	50.365	0.101
387.900	45.410	0.101
388.000	45.761	0.101
388.100	42.120	0.101
388.200	36.844	0.101
388.300	39.318	0.101
388.400	36.165	0.101
388.500	40.858	0.101
388.600	43.291	0.101
388.700	48.050	0.101
388.800	54.191	0.101
388.900	43.361	0.101
389.000	42.620	0.101
389.100	38.129	0.101
389.200	53.859	0.101
389.300	54.240	0.101
389.400	51.799	0.101
389.500	29.098	0.101
389.600	41.816	0.101
389.700	46.569	0.101
389.800	48.998	0.101
389.900	52.165	0.101
390.000	36.057	0.101
390.100	43.929	0.101
390.200	40.581	0.101
390.300	45.451	0.101
390.400	43.220	0.101
390.500	31.101	0.101
390.600	44.420	0.101
390.700	45.232	0.101
390.800	49.359	0.101
390.900	26.664	0.101
391.000	39.398	0.101
391.100	32.308	0.101
391.200	37.046	0.101
391.300	35.077	0.101
391.400	19.775	0.101
391.500	28.612	0.101
391.600	17.327	0.101
391.700	27.805	0.101
391.800	36.063	0.101
391.900	22.660	0.101
392.000	22.943	0.101
392.100	26.153	0.101
392.200	32.697	0.101
392.300	6.492	0.101
392.400	14.655	0.101
392.500	20.981	0.101
392.600	21.172	0.101
392.700	21.206	0.101
392.800	27.367	0.101
392.900	29.553	0.101
393.000	20.321	0.101
393.100	28.230	0.101
393.200	6.226	0.101
393.300	19.087	0.101
393.400	15.505	0.101
393.500	10.258	0.101
393.600	12.984	0.101
393.700	5.391	0.101
393.800	23.672	0.101
393.900	14.902	0.101
394.000	15.573	0.101
394.100	6.204	0.101
394.200	12.049	0.101
394.300	27.583	0.101
394.400	29.570	0.101
394.500	22.188	0.101
394.600	9.426	0.101
394.700	16.759	0.101
394.800	17.031	0.101
394.900	10.986	0.101
395.000	6.683	0.101
395.100	18.311	0.101
395.200	2.411	0.101
395.300	21.117	0.101
395.400	5.616	0.101
395.500	15.893	0.101
395.600	12.082	0.101
395.700	10.149	0.101
395.800	17.617	0.101
395.900	13.803	0.101
396.000	17.917	0.101
396.100	22.378	0.101
396.200	23.424	0.101
396.300	14.485	0.101
396.400	13.165	0.101
396.500	8.157	0.101
396.600	13.861	0.101
396.700	24.524	0.101
396.800	1.305	0.101
396.900	9.258	0.101
397.000	8.050	0.101
397.100	22.156	0.101
397.200	9.864	0.101
397.300	7.940	0.101
397.400	10.452	0.101
397.500	27.323	0.101
397.600	8.406	0.101
397.700	11.495	0.101
397.800	19.918	0.101
397.900	18.931	0.101
398.000	6.962	0.101
398.100	16.344	0.101
398.200	10.865	0.101
398.300	2.867	0.101
398.400	9.048	0.101
398.500	12.152	0.101
398.600	2.006	0.101
398.700	13.207	0.101
398.800	14.999	0.101
398.900	3.791	0.101
399.000	12.217	0.101
399.100	21.506	0.101
399.200	6.115	0.101
399.300	13.775	0.101
399.400	14.033	0.101
399.500	5.491	0.101
399.600	9.725	0.101
399.700	14.692	0.101
399.800	15.554	0.101
399.900	13.103	0.101
400.000	11.836	0.101
400.100	25.511	0.101
400.200	-4.542	0.101
400.300	2.773	0.101
400.400	12.201	0.101
400.500	8.763	0.101
400.600	13.495	0.101
400.700	8.053	0.101
400.800	3.545	0.101
400.900	-2.152	0.101
401.000	12.894	0.101
401.100	11.545	0.101
401.200	10.895	0.101
401.300	7.785	0.101
401.400	14.207	0.101
401.500	17.586	0.101
401.600	9.872	0.101
401.700	0.044	0.101
401.800	19.232	0.101
401.900	3.574	0.101
402.000	11.398	0.101
402.100	1.940	0.101
402.200	12.871	0.101
402.300	15.803	0.101
402.400	8.210	0.101
402.500	15.565	0.101
402.600	5.163	0.101
402.700	7.838	0.101
402.800	-0.003	0.101
402.900	10.809	0.101
403.000	4.987	0.101
403.100	9.452	0.101
403.200	0.437	0.101
403.300	14.731	0.101
403.400	8.784	0.101
403.500	14.038	0.101
403.600	11.268	0.101
403.700	2.810	0.101
403.800	10.811	0.101
403.900	4.051	0.101
404.000	1.480	0.101
404.100	9.010	0.101
404.200	18.002	0.101
404.300	9.667	0.101
404.400	10.294	0.101
404.500	15.050	0.101
404.600	12.760	0.101
404.700	-2.258	0.101
404.800	13.520	0.101
404.900	2.794	0.101
405.000	6.706	0.101
405.100	2.671	0.101
405.200	9.827	0.101
405.300	-5.010	0.101
405.400	15.273	0.101
405.500	18.472	0.101
405.600	12.892	0.101
405.700	4.172	0.101
405.800	11.943	0.101
405.900	-9.785	0.101
406.000	1.216	0.101
406.100	2.680	0.101
406.200	0.048	0.101
406.300	5.367	0.101
406.400	3.361	0.101
406.500	14.642	0.101
406.600	2.411	0.101
406.700	16.848	0.101
406.800	8.426	0.101
406.900	5.364	0.101
407.000	1.595	0.101
407.100	17.696	0.101
407.200	3.728	0.101
407.300	0.992	0.101
407.400	2.895	0.101
407.500	-4.681	0.101
407.600	7.392	0.101
407.700	7.381	0.101
407.800	4.437	0.101
407.900	6.687	0.101
408.000	3.233	0.101
408.100	-6.010	0.101
408.200	-0.882	0.101
408.300	1.507	0.101
408.400	13.464	0.101
408.500	5.054	0.101
408.600	0.880	0.101
408.700	8.940	0.101
408.800	-1.549	0.101
408.900	7.641	0.101
409.000	1.642	0.101
409.100	12.493	0.101
409.200	-13.594	0.101
409.300	-0.216	0.101
409.400	6.969	0.101
409.500	4.969	0.101
409.600	-1.161	0.101
409.700	6.416	0.101
409.800	4.738	0.101
409.900	1.766	0.101
410.000	7.186	0.101
410.100	15.636	0.101
410.200	-4.757	0.101
410.300	7.708	0.101
410.400	7.682	0.101
410.500	-3.381	0.101
410.600	10.514	0.101
410.700	-10.767	0.101
410.800	4.092	0.101
410.900	10.032	0.101
411.000	15.215	0.101
411.100	11.135	0.101
411.200	9.452	0.101
411.300	-3.133	0.101
411.400	-2.149	0.101
411.500	4.117	0.101
411.600	5.544	0.101
411.700	-1.623	0.101
411.800	-9.288	0.101
411.900	-14.093	0.101
412.000	-6.605	0.101
412.100	9.103	0.101
412.200	6.333	0.101
412.300	6.401	0.101
412.400	-1.275	0.101
412.500	4.502	0.101
412.600	4.346	0.101
412.700	-2.108	0.101
412.800	2.153	0.101
412.900	6.271	0.101
413.000	-2.048	0.101
413.100	-12.031	0.101
413.200	-0.208	0.101
413.300	-4.636	0.101
413.400	11.497	0.101
413.500	-5.656	0.101
413.600	-2.133	0.101
413.700	6.801	0.101
413.800	-21.203	0.101
413.900	-14.312	0.101
414.000	10.352	0.101
414.100	9.268	0.101
414.200	5.854	0.101
414.300	-2.803	0.101
414.400	-11.913	0.101
414.500	-1.398	0.101
414.600	-5.558	0.101
414.700	-13.015	0.101
414.800	9.551	0.101
414.900	-7.995	0.101
415.000	-10.462	0.101
415.100	0.650	0.101
415.200	9.677	0.101
415.300	17.044	0.101
415.400	-13.305	0.101
415.500	-11.648	0.101
415.600	-1.518	0.101
415.700	-5.670	0.101
415.800	-2.041	0.101
415.900	-4.709	0.101
416.000	-4.738	0.101
416.100	-4.791	0.101
416.200	1.161	0.101
416.300	1.349	0.101
416.400	-2.541	0.101
416.500	-13.178	0.101
416.600	-14.269	0.101
416.700	12.871	0.101
416.800	1.005	0.101
416.900	-9.478	0.101
417.000	-2.561	0.101
417.100	-4.500	0.101
417.200	-11.089	0.101
417.300	-17.778	0.101
417.400	4.155	0.101
417.500	-5.119	0.101
417.600	-18.589	0.101
417.700	2.795	0.101
417.800	2.988	0.101
417.900	4.898	0.101
418.000	-3.643	0.101
418.100	-2.985	0.101
418.200	-4.177	0.101
418.300	-15.041	0.101
418.400	-13.220	0.101
418.500	-16.115	0.101
418.600	-3.754	0.101
418.700	-2.937	0.101
418.800	-3.496	0.101
418.900	-7.442	0.101
419.000	6.070	0.101
419.100	-13.462	0.101
419.200	-11.897	0.101
419.300	-6.419	0.101
419.400	-17.738	0.101
419.500	-5.982	0.101
419.600	0.985	0.101
419.700	-5.866	0.101
419.800	-18.747	0.101
419.900	3.431	0.101
420.000	-12.751	0.101
420.100	0.736	0.101
420.200	-3.685	0.101
420.300	1.732	0.101
420.400	-8.703	0.101
420.500	-8.379	0.101
420.600	-8.028	0.101
420.700	-0.246	0.101
420.800	-8.124	0.101
420.900	-10.468	0.101
421.000	-5.235	0.101
421.100	-14.619	0.101
421.200	5.869	0.101
421.300	6.319	0.101
421.400	-3.584	0.101
421.500	-7.138	0.101
421.600	-9.575	0.101
421.700	-16.292	0.101
421.800	-12.135	0.101
421.900	6.385	0.101
422.000	-0.914	0.101
422.100	5.412	0.101
422.200	-9.046	0.101
422.300	-5.845	0.101
422.400	-17.094	0.101
422.500	-3.619	0.101
422.600	-15.231	0.101
422.700	-19.467	0.101
422.800	-26.684	0.101
422.900	4.338	0.101
423.000	0.313	0.101
423.100	-13.042	0.101
423.200	-12.331	0.101
423.300	3.783	0.101
423.400	-8.854	0.101
423.500	-8.362	0.101
423.600	-8.707	0.101
423.700	-11.510	0.101
423.800	-21.641	0.101
423.900	-10.674	0.101
424.000	-1.736	0.101
424.100	-24.908	0.101
424.200	-12.461	0.101
424.300	-2.863	0.101
424.400	-3.835	0.101
424.500	-7.259	0.101
424.600	-4.842	0.101
424.700	-20.978	0.101
424.800	-1.232	0.101
424.900	-14.585	0.101
425.000	-8.637	0.101
425.100	-11.540	0.101
425.200	-5.323	0.101
425.300	-10.786	0.101
425.400	-10.790	0.101
425.500	-15.590	0.101
425.600	-5.982	0.101
425.700	0.990	0.101
425.800	-8.849	0.101
425.900	-15.285	0.101
426.000	-14.055	0.101
426.100	-15.177	0.101
426.200	-10.617	0.101
426.300	-22.377	0.101
426.400	-6.123	0.101
426.500	-5.621	0.101
426.600	-15.547	0.101
426.700	-3.377	0.101
426.800	-15.906	0.101
426.900	-6.089	0.101
427.000	-11.109	0.101
427.100	-24.334	0.101
427.200	-9.305	0.101
427.300	-6.425	0.101
427.400	-12.194	0.101
427.500	-11.309	0.101
427.600	-12.859	0.101
427.700	-6.095	0.101
427.800	-1.575	0.101
427.900	-8.418	0.101
428.000	-29.885	0.101
428.100	-8.992	0.101
428.200	-11.114	0.101
428.300	-20.745	0.101
428.400	-1.798	0.101
428.500	-7.193	0.101
428.600	-18.894	0.101
428.700	-9.904	0.101
428.800	-17.070	0.101
428.900	-5.579	0.101
429.000	-7.339	0.101
429.100	-30.229	0.101
429.200	-22.270	0.101
429.300	-10.892	0.101
429.400	-4.506	0.101
429.500	-21.090	0.101
429.600	-14.144	0.101
429.700	-4.534	0.101
429.800	0.957	0.101
429.900	-24.374	0.101
430.000	-26.575	0.101
430.100	-21.707	0.101
430.200	-14.507	0.101
430.300	-9.957	0.101
430.400	-2.254	0.101
430.500	-20.950	0.101
430.600	-33.173	0.101
430.700	-10.501	0.101
430.800	-11.023	0.101
430.900	-10.936	0.101
431.000	-18.653	0.101
431.100	-6.134	0.101
431.200	-14.755	0.101
431.300	-3.308	0.101
431.400	9.076	0.101
431.500	-16.834	0.101
431.600	-18.485	0.101
431.700	-10.772	0.101
431.800	-16.078	0.101
431.900	-15.311	0.101
432.000	-25.482	0.101
432.100	-11.619	0.101
432.200	-3.925	0.101
432.300	-9.817	0.101
432.400	-14.373	0.101
432.500	-19.707	0.101
432.600	-14.362	0.101
432.700	-7.457	0.101
432.800	-18.351	0.101
432.900	-11.486	0.101
433.000	-16.057	0.101
433.100	-13.036	0.101
433.200	-11.518	0.101
433.300	-3.115	0.101
433.400	-12.605	0.101
433.500	-21.647	0.101
433.600	-12.278	0.101
433.700	-14.529	0.101
433.800	-8.506	0.101
433.900	-13.409	0.101
434.000	-14.703	0.101
434.100	-19.382	0.101
434.200	-28.858	0.101
434.300	-17.267	0.101
434.400	-1.704	0.101
434.500	-4.783	0.101
434.600	-18.318	0.101
434.700	-8.361	0.101
434.800	-19.543	0.101
434.900	-20.800	0.101
435.000	-15.017	0.101
435.100	1.545	0.101
435.200	-19.509	0.101
435.300	-18.603	0.101
435.400	-33.482	0.101
435.500	-10.227	0.101
435.600	-21.748	0.101
435.700	-8.557	0.101
435.800	-12.565	0.101
435.900	-8.857	0.101
436.000	-0.809	0.101
436.100	-13.173	0.101
436.200	-12.350	0.101
436.300	-13.059	0.101
436.400	-5.917	0.101
436.500	-6.146	0.101
436.600	-15.055	0.101
436.700	-16.854	0.101
436.800	-15.068	0.101
436.900	-22.133	0.101
437.000	-17.772	0.101
437.100	-1.500	0.101
437.200	-19.528	0.101
437.300	-11.308	0.101
437.400	-21.572	0.101
437.500	-3.727	0.101
437.600	-27.133	0.101
437.700	-7.540	0.101
437.800	-21.463	0.101
437.900	-18.322	0.101
438.000	-20.356	0.101
438.100	-28.358	0.101
438.200	-6.487	0.101
438.300	2.093	0.101
438.400	-19.300	0.101
438.500	-15.484	0.101
438.600	-1.326	0.101
438.700	-14.713	0.101
438.800	-15.749	0.101
438.900	-13.302	0.101
439.000	-25.783	0.101
439.100	-24.025	0.101
439.200	-20.802	0.101
439.300	-6.771	0.101
439.400	-2.309	0.101
439.500	-16.568	0.101
439.600	-22.984	0.101
439.700	-15.619	0.101
439.800	-10.520	0.101
439.900	-6.414	0.101
440.000	-15.695	0.101
440.100	-5.009	0.101
440.200	-12.055	0.101
440.300	-12.347	0.101
440.400	-29.070	0.101
440.500	-16.414	0.101
440.600	-18.698	0.101
440.700	-4.028	0.101
440.800	-21.713	0.101
440.900	-9.094	0.101
441.000	-15.358	0.101
441.100	-0.150	0.101
441.200	-20.448	0.101
441.300	-13.836	0.101
441.400	-19.414	0.101
441.500	-13.889	0.101
441.600	-19.324	0.101
441.700	-15.254	0.101
441.800	-26.528	0.101
441.900	-12.679	0.101
442.000	-19.950	0.101
442.100	-20.396	0.101
442.200	-13.351	0.101
442.300	-20.257	0.101
442.400	-6.429	0.101
442.500	-26.012	0.101
442.600	-9.266	0.101
442.700	-19.955	0.101
442.800	-9.915	0.101
442.900	-24.486	0.101
443.000	-4.523	0.101
443.100	-21.307	0.101
443.200	0.826	0.101
443.300	-3.879	0.101
443.400	-21.772	0.101
443.500	-15.533	0.101
443.600	-8.984	0.101
443.700	-13.599	0.101
443.800	-13.985	0.101
443.900	-22.977	0.101
444.000	-16.301	0.101
444.100	-19.687	0.101
444.200	-19.368	0.101
444.300	-16.439	0.101
444.400	-5.008	0.101
444.500	-6.249	0.101
444.600	-20.619	0.101
444.700	-15.080	0.101
444.800	-15.250	0.101
444.900	-17.245	0.101
445.000	-5.727	0.101
445.100	-10.778	0.101
445.200	-2.680	0.101
445.300	-21.679	0.101
445.400	-10.390	0.101
445.500	-12.896	0.101
445.600	-16.536	0.101
445.700	-7.468	0.101
445.800	-17.441	0.101
445.900	-31.091	0.101
446.000	-24.824	0.101
446.100	-21.917	0.101
446.200	-20.085	0.101
446.300	-21.663	0.101
446.400	-25.939	0.101
446.500	-16.880	0.101
446.600	0.913	0.101
446.700	-8.320	0.101
446.800	-26.906	0.101
446.900	-23.582	0.101
447.000	-16.290	0.101
447.100	-1.472	0.101
447.200	-20.558	0.101
447.300	-23.856	0.101
447.400	-4.551	0.101
447.500	-26.749	0.101
447.600	-15.145	0.101
447.700	-22.875	0.101
447.800	-6.527	0.101
447.900	-8.679	0.101
448.000	-12.351	0.101
448.100	-11.440	0.101
448.200	-14.726	0.101
448.300	-11.887	0.101
448.400	-15.913	0.101
448.500	-13.747	0.101
448.600	-23.177	0.101
448.700	-12.305	0.101
448.800	-4.301	0.101
448.900	-16.859	0.101
449.000	-16.497	0.101
449.100	-17.203	0.101
449.200	-7.696	0.101
449.300	-28.801	0.101
449.400	-20.765	0.101
449.500	-19.500	0.101
449.600	-13.456	0.101
449.700	-23.407	0.101
449.800	-10.123	0.101
449.900	-21.723	0.101
450.000	-13.187	0.101
450.100	-2.803	0.101
450.200	-18.447	0.101
450.300	1.702	0.101
450.400	-13.351	0.101
450.500	-16.871	0.101
450.600	-26.658	0.101
450.700	-19.347	0.101
450.800	-7.454	0.101
450.900	-10.244	0.101
451.000	-5.965	0.101
451.100	-19.954	0.101
451.200	-21.980	0.101
451.300	-15.406	0.101
451.400	-19.179	0.101
451.500	-18.660	0.101
451.600	-19.719	0.101
451.700	-4.822	0.101
451.800	-19.644	0.101
451.900	-14.428	0.101
452.000	-17.807	0.101
452.100	-8.938	0.101
452.200	-29.550	0.101
452.300	-16.997	0.101
452.400	-32.629	0.101
452.500	-15.033	0.101
452.600	-16.742	0.101
452.700	-0.735	0.101
452.800	-6.398	0.101
452.900	-23.931	0.101
453.000	-22.942	0.101
453.100	-15.924	0.101
453.200	-12.016	0.101
453.300	0.816	0.101
453.400	-20.556	0.101
453.500	-23.496	0.101
453.600	-21.331	0.101
453.700	-19.173	0.101
453.800	0.271	0.101
453.900	-17.705	0.101
454.000	-11.855	0.101
454.100	-19.530	0.101
454.200	-17.853	0.101
454.300	-13.834	0.101
454.400	-13.676	0.101
454.500	-11.200	0.101
454.600	-11.486	0.101
454.700	-18.791	0.101
454.800	-8.554	0.101
454.900	-18.715	0.101
455.000	-27.529	0.101
455.100	-17.032	0.101
455.200	-8.742	0.101
455.300	-21.352	0.101
455.400	-13.075	0.101
455.500	-33.254	0.101
455.600	-11.764	0.101
455.700	0.198	0.101
455.800	-13.439	0.101
455.900	-15.549	0.101
456.000	-32.291	0.101
456.100	-15.728	0.101
456.200	-8.827	0.101
456.300	-22.443	0.101
456.400	-22.271	0.101
456.500	-4.347	0.101
456.600	-12.000	0.101
456.700	-21.632	0.101
456.800	-10.176	0.101
456.900	-11.510	0.101
457.000	-17.458	0.101
457.100	-11.468	0.101
457.200	-19.493	0.101
457.300	-15.235	0.101
457.400	-22.386	0.101
457.500	-12.440	0.101
457.600	-14.309	0.101
457.700	-30.712	0.101
457.800	-3.120	0.101
457.900	-24.132	0.101
458.000	-3.485	0.101
458.100	-19.791	0.101
458.200	-19.679	0.101
458.300	-5.749	0.101
458.400	-18.245	0.101
458.500	-10.907	0.101
458.600	-13.845	0.101
458.700	-20.311	0.101
458.800	-14.910	0.101
458.900	-32.568	0.101
459.000	-20.450	0.101
459.100	-12.727	0.101
459.200	-18.139	0.101
459.300	-7.827	0.101
459.400	-13.289	0.101
459.500	-24.775	0.101
459.600	-23.561	0.101
459.700	-8.259	0.101
459.800	-21.128	0.101
459.900	-15.314	0.101
460.000	-11.597	0.101
460.100	-13.917	0.101
460.200	-2.098	0.101
460.300	-22.961	0.101
460.400	-22.573	0.101
460.500	-22.230	0.101
460.600	-9.490	0.101
460.700	-13.386	0.101
460.800	-11.297	0.101
460.900	-9.050	0.101
461.000	-28.363	0.101
461.100	-9.329	0.101
461.200	-24.785	0.101
461.300	-6.880	0.101
461.400	-9.466	0.101
461.500	-20.817	0.101
461.600	-20.876	0.101
461.700	-20.469	0.101
461.800	-19.401	0.101
461.900	-16.132	0.101
462.000	-12.329	0.101
462.100	-12.638	0.101
462.200	-9.807	0.101
462.300	-23.670	0.101
462.400	-7.914	0.101
462.500	-16.374	0.101
462.600	-15.809	0.101
462.700	-11.767	0.101
462.800	-17.821	0.101
462.900	-21.589	0.101
463.000	-14.491	0.101
463.100	-19.750	0.101
463.200	-10.215	0.101
463.300	-17.549	0.101
463.400	-6.692	0.101
463.500	-17.133	0.101
463.600	-5.061	0.101
463.700	-27.603	0.101
463.800	-18.322	0.101
463.900	-18.424	0.101
464.000	-14.578	0.101
464.100	-16.002	0.101
464.200	-14.530	0.101
464.300	-18.348	0.101
464.400	-15.713	0.101
464.500	-19.937	0.101
464.600	-11.885	0.101
464.700	-9.685	0.101
464.800	-27.308	0.101
464.900	-11.313	0.101
465.000	-12.827	0.101
465.100	-19.735	0.101
465.200	-20.045	0.101
465.300	-15.602	0.101
465.400	-16.006	0.101
465.500	-5.173	0.101
465.600	-17.973	0.101
465.700	-11.551	0.101
465.800	-15.520	0.101
465.900	-33.128	0.101
466.000	-13.505	0.101
466.100	-6.725	0.101
466.200	-19.255	0.101
466.300	-14.964	0.101
466.400	-28.333	0.101
466.500	-11.427	0.101
466.600	-26.351	0.101
466.700	-7.487	0.101
466.800	-15.953	0.101
466.900	-5.605	0.101
467.000	-12.002	0.101
467.100	-12.995	0.101
467.200	-10.746	0.101
467.300	-16.752	0.101
467.400	-3.113	0.101
467.500	-25.521	0.101
467.600	-24.406	0.101
467.700	-3.607	0.101
467.800	-18.209	0.101
467.900	-23.120	0.101
468.000	-10.015	0.101
468.100	-20.951	0.101
468.200	-16.985	0.101
468.300	-20.392	0.101
468.400	-15.615	0.101
468.500	-11.894	0.101
468.600	-8.494	0.101
468.700	-26.651	0.101
468.800	-12.682	0.101
468.900	-15.196	0.101
469.000	-7.820	0.101
469.100	-28.312	0.101
469.200	-11.196	0.101
469.300	-9.201	0.101
469.400	-16.831	0.101
469.500	-21.590	0.101
469.600	-25.849	0.101
469.700	-1.793	0.101
469.800	-19.401	0.101
469.900	-5.421	0.101
470.000	-23.656	0.101
470.100	-17.559	0.101
470.200	-3.393	0.101
470.300	-20.642	0.101
470.400	-8.469	0.101
470.500	-14.925	0.101
470.600	-12.646	0.101
470.700	-14.951	0.101
470.800	-24.987	0.101
470.900	-2.230	0.101
471.000	-20.516	0.101
471.100	-22.263	0.101
471.200	-13.952	0.101
471.300	-21.163	0.101
471.400	-23.973	0.101
471.500	-20.725	0.101
471.600	-11.050	0.101
471.700	-15.440	0.101
471.800	-11.518	0.101
471.900	-19.219	0.101
472.000	-8.395	0.101
472.100	-23.647	0.101
472.200	-24.438	0.101
472.300	3.163	0.101
472.400	-6.282	0.101
472.500	-30.493	0.101
472.600	-15.024	0.101
472.700	-15.999	0.101
472.800	-19.987	0.101
472.900	-25.028	0.101
473.000	-16.713	0.101
473.100	-15.825	0.101
473.200	-16.293	0.101
473.300	-9.407	0.101
473.400	-8.010	0.101
473.500	-19.516	0.101
473.600	-23.812	0.101
473.700	-13.440	0.101
473.800	-17.006	0.101
473.900	-11.572	0.101
474.000	-14.546	0.101
474.100	-11.723	0.101
474.200	-12.987	0.101
474.300	-21.029	0.101
474.400	-19.100	0.101
474.500	-14.370	0.101
474.600	-13.097	0.101
474.700	-13.750	0.101
474.800	-18.006	0.101
474.900	-29.377	0.101
475.000	-9.889	0.101
475.100	-20.476	0.101
475.200	-18.261	0.101
475.300	-7.767	0.101
475.400	-10.405	0.101
475.500	-15.766	0.101
475.600	-15.187	0.101
475.700	-15.924	0.101
475.800	-29.172	0.101
475.900	-11.300	0.101
476.000	-3.691	0.101
476.100	-15.056	0.101
476.200	-34.479	0.101
476.300	-22.349	0.101
476.400	-21.302	0.101
476.500	-12.410	0.101
476.600	-14.379	0.101
476.700	-19.268	0.101
476.800	-15.008	0.101
476.900	-13.408	0.101
477.000	-23.127	0.101
477.100	-10.652	0.101
477.200	-18.237	0.101
477.300	-14.605	0.101
477.400	-22.513	0.101
477.500	-18.058	0.101
477.600	-10.933	0.101
477.700	-18.283	0.101
477.800	-25.132	0.101
477.900	-20.853	0.101
478.000	-12.235	0.101
478.100	-16.842	0.101
478.200	-22.432	0.101
478.300	-14.609	0.101
478.400	-14.804	0.101
478.500	-11.703	0.101
478.600	-5.850	0.101
478.700	-21.389	0.101
478.800	-13.073	0.101
478.900	-25.002	0.101
479.000	-16.370	0.101
479.100	-11.211	0.101
479.200	-16.606	0.101
479.300	-5.988	0.101
479.400	-8.696	0.101
479.500	-14.725	0.101
479.600	-26.199	0.101
479.700	-10.260	0.101
479.800	-26.575	0.101
479.900	-8.190	0.101
480.000	-9.592	0.101
480.100	-20.905	0.101
480.200	-22.536	0.101
480.300	-27.830	0.101
480.400	-10.349	0.101
480.500	-24.672	0.101
480.600	-15.696	0.101
480.700	-4.456	0.101
480.800	-10.120	0.101
480.900	-25.848	0.101
481.000	-1.392	0.101
481.100	-11.592	0.101
481.200	4.945	0.101
481.300	-3.059	0.101
481.400	12.877	0.101
481.500	3.638	0.101
481.600	1.299	0.101
481.700	11.492	0.101
481.800	11.082	0.101
481.900	-14.370	0.101
482.000	0.036	0.101
482.100	-1.836	0.101
482.200	4.707	0.101
482.300	5.470	0.101
482.400	4.971	0.101
482.500	-3.794	0.101
482.600	3.303	0.101
482.700	-3.401	0.101
482.800	0.722	0.101
482.900	0.142	0.101
483.000	3.966	0.101
483.100	-3.640	0.101
483.200	5.410	0.101
483.300	-1.107	0.101
483.400	6.698	0.101
483.500	9.725	0.101
483.600	-2.518	0.101
483.700	11.817	0.101
483.800	14.601	0.101
483.900	9.253	0.101
484.000	-5.516	0.101
484.100	13.741	0.101
484.200	8.911	0.101
484.300	9.529	0.101
484.400	-3.019	0.101
484.500	12.835	0.101
484.600	4.535	0.101
484.700	0.951	0.101
484.800	12.940	0.101
484.900	15.282	0.101
485.000	8.255	0.101
485.100	5.446	0.101
485.200	3.893	0.101
485.300	4.853	0.101
485.400	20.070	0.101
485.500	-2.263	0.101
485.600	16.029	0.101
485.700	7.980	0.101
485.800	6.176	0.101
485.900	10.533	0.101
486.000	4.880	0.101
486.100	-1.437	0.101
486.200	3.909	0.101
486.300	10.369	0.101
486.400	2.475	0.101
486.500	-17.620	0.101
486.600	-3.236	0.101
486.700	3.711	0.101
486.800	17.862	0.101
486.900	9.169	0.101
487.000	21.157	0.101
487.100	1.518	0.101
487.200	-2.347	0.101
487.300	5.718	0.101
487.400	-0.210	0.101
487.500	2.931	0.101
487.600	-3.005	0.101
487.700	14.246	0.101
487.800	5.403	0.101
487.900	21.722	0.101
488.000	8.058	0.101
488.100	12.208	0.101
488.200	8.119	0.101
488.300	20.077	0.101
488.400	15.913	0.101
488.500	6.618	0.101
488.600	5.058	0.101
488.700	10.040	0.101
488.800	5.677	0.101
488.900	-1.455	0.101
489.000	5.801	0.101
489.100	11.499	0.101
489.200	-1.800	0.101
489.300	14.984	0.101
489.400	3.101	0.101
489.500	11.080	0.101
489.600	8.773	0.101
489.700	13.030	0.101
489.800	11.305	0.101
489.900	17.275	0.101
490.000	20.226	0.101
490.100	9.939	0.101
490.200	4.827	0.101
490.300	11.940	0.101
490.400	9.938	0.101
490.500	20.097	0.101
490.600	18.555	0.101
490.700	2.295	0.101
490.800	-4.140	0.101
490.900	5.601	0.101
491.000	10.550	0.101
491.100	24.007	0.101
491.200	23.230	0.101
491.300	-3.673	0.101
491.400	11.542	0.101
491.500	2.956	0.101
491.600	16.921	0.101
491.700	20.684	0.101
491.800	3.997	0.101
491.900	20.683	0.101
492.000	9.688	0.101
492.100	6.408	0.101
492.200	17.278	0.101
492.300	12.422	0.101
492.400	9.457	0.101
492.500	11.512	0.101
492.600	9.365	0.101
492.700	-3.645	0.101
492.800	18.936	0.101
492.900	10.147	0.101
493.000	7.631	0.101
493.100	10.978	0.101
493.200	7.987	0.101
493.300	13.712	0.101
493.400	26.946	0.101
493.500	17.603	0.101
493.600	16.431	0.101
493.700	12.361	0.101
493.800	12.129	0.101
493.900	11.949	0.101
494.000	15.690	0.101
494.100	-3.683	0.101
494.200	9.283	0.101
494.300	12.917	0.101
494.400	6.830	0.101
494.500	18.556	0.101
494.600	17.397	0.101
494.700	22.144	0.101
494.800	3.762	0.101
494.900	19.832	0.101
495.000	5.390	0.101
495.100	10.327	0.101
495.200	11.266	0.101
495.300	20.033	0.101
495.400	18.534	0.101
495.500	11.704	0.101
495.600	22.944	0.101
495.700	5.163	0.101
495.800	8.145	0.101
495.900	12.012	0.101
496.000	19.964	0.101
496.100	20.256	0.101
496.200	23.196	0.101
496.300	15.701	0.101
496.400	17.297	0.101
496.500	26.491	0.101
496.600	10.810	0.101
496.700	21.709	0.101
496.800	8.464	0.101
496.900	10.328	0.101
497.000	21.225	0.101
497.100	12.258	0.101
497.200	22.994	0.101
497.300	14.928	0.101
497.400	12.213	0.101
497.500	16.616	0.101
497.600	15.062	0.101
497.700	31.567	0.101
497.800	18.790	0.101
497.900	21.565	0.101
498.000	16.452	0.101
498.100	9.603	0.101
498.200	28.010	0.101
498.300	12.358	0.101
498.400	25.281	0.101
498.500	26.692	0.101
498.600	17.994	0.101
498.700	19.981	0.101
498.800	11.359	0.101
498.900	25.744	0.101
499.000	20.775	0.101
499.100	6.850	0.101
499.200	19.927	0.101
499.300	35.346	0.101
499.400	20.312	0.101
499.500	15.402	0.101
499.600	27.935	0.101
499.700	15.699	0.101
499.800	28.172	0.101
499.900	35.889	0.101
500.000	20.569	0.101
500.100	14.089	0.101
500.200	35.947	0.101
500.300	31.238	0.101
500.400	19.102	0.101
500.500	20.965	0.101
500.600	36.902	0.101
500.700	23.448	0.101
500.800	19.967	0.101
500.900	41.059	0.101
501.000	19.804	0.101
501.100	16.941	0.101
501.200	37.589	0.101
501.300	25.070	0.101
501.400	14.600	0.101
501.500	37.645	0.101
501.600	21.519	0.101
501.700	23.405	0.101
501.800	23.451	0.101
501.900	18.329	0.101
502.000	24.575	0.101
502.100	19.363	0.101
502.200	41.926	0.101
502.300	36.932	0.101
502.400	15.919	0.101
502.500	18.624	0.101
502.600	29.951	0.101
502.700	26.423	0.101
502.800	33.382	0.101
502.900	26.316	0.101
503.000	26.772	0.101
503.100	19.286	0.101
503.200	27.455	0.101
503.300	36.188	0.101
503.400	23.416	0.101
503.500	32.720	0.101
503.600	32.187	0.101
503.700	21.341	0.101
503.800	31.913	0.101
503.900	18.078	0.101
504.000	31.863	0.101
504.100	36.286	0.101
504.200	22.058	0.101
504.300	38.343	0.101
504.400	22.210	0.101
504.500	44.220	0.101
504.600	36.169	0.101
504.700	39.737	0.101
504.800	35.654	0.101
504.900	22.980	0.101
505.000	30.289	0.101
505.100	32.700	0.101
505.200	36.095	0.101
505.300	31.179	0.101
505.400	27.882	0.101
505.500	34.613	0.101
505.600	35.907	0.101
505.700	25.838	0.101
505.800	36.746	0.101
505.900	25.291	0.101
506.000	31.149	0.101
506.100	31.882	0.101
506.200	36.359	0.101
506.300	36.828	0.101
506.400	40.456	0.101
506.500	33.937	0.101
506.600	35.213	0.101
506.700	28.849	0.101
506.800	42.890	0.101
506.900	25.455	0.101
507.000	31.685	0.101
507.100	26.888	0.101
507.200	28.902	0.101
507.300	37.878	0.101
507.400	22.099	0.101
507.500	35.636	0.101
507.600	32.169	0.101
507.700	39.411	0.101
507.800	36.802	0.101
507.900	40.292	0.101
508.000	39.596	0.101
508.100	36.820	0.101
508.200	33.389	0.101
508.300	19.465	0.101
508.400	30.085	0.101
508.500	35.798	0.101
508.600	34.332	0.101
508.700	28.994	0.101
508.800	37.480	0.101
508.900	28.608	0.101
509.000	48.200	0.101
509.100	41.559	0.101
509.200	32.442	0.101
509.300	40.659	0.101
509.400	42.318	0.101
509.500	15.716	0.101
509.600	33.120	0.101
509.700	37.882	0.101
509.800	51.670	0.101
509.900	39.050	0.101
510.000	33.007	0.101
510.100	33.443	0.101
510.200	44.832	0.101
510.300	38.489	0.101
510.400	30.227	0.101
510.500	41.512	0.101
510.600	36.823	0.101
510.700	24.929	0.101
510.800	40.041	0.101
510.900	39.932	0.101
511.000	48.498	0.101
511.100	25.610	0.101
511.200	33.364	0.101
511.300	30.882	0.101
511.400	42.400	0.101
511.500	51.604	0.101
511.600	36.302	0.101
511.700	56.949	0.101
511.800	35.600	0.101
511.900	41.464	0.101
512.000	38.425	0.101
512.100	45.682	0.101
512.200	35.071	0.101
512.300	35.228	0.101
512.400	43.561	0.101
512.500	41.335	0.101
512.600	30.307	0.101
512.700	25.723	0.101
512.800	42.074	0.101
512.900	47.447	0.101
513.000	51.021	0.101
513.100	40.975	0.101
513.200	24.717	0.101
513.300	24.999	0.101
513.400	31.699	0.101
513.500	41.824	0.101
513.600	32.107	0.101
513.700	40.580	0.101
513.800	27.755	0.101
513.900	37.412	0.101
514.000	37.740	0.101
514.100	53.878	0.101
514.200	40.701	0.101
514.300	46.914	0.101
514.400	35.975	0.101
514.500	42.767	0.101
514.600	40.477	0.101
514.700	45.432	0.101
514.800	38.551	0.101
514.900	37.685	0.101
515.000	52.039	0.101
515.100	44.420	0.101
515.200	37.670	0.101
515.300	51.781	0.101
515.400	29.555	0.101
515.500	33.068	0.101
515.600	40.945	0.101
515.700	44.791	0.101
515.800	45.457	0.101
515.900	34.226	0.101
516.000	51.504	0.101
516.100	54.456	0.101
516.200	35.461	0.101
516.300	41.486	0.101
516.400	40.136	0.101
516.500	34.127	0.101
516.600	40.162	0.101
516.700	31.330	0.101
516.800	47.526	0.101
516.900	48.363	0.101
517.000	42.064	0.101
517.100	52.838	0.101
517.200	36.594	0.101
517.300	53.966	0.101
517.400	37.950	0.101
517.500	41.669	0.101
517.600	40.087	0.101
517.700	36.997	0.101
517.800	30.341	0.101
517.900	51.566	0.101
518.000	40.308	0.101
518.100	51.597	0.101
518.200	44.413	0.101
518.300	42.050	0.101
518.400	42.760	0.101
518.500	40.959	0.101
518.600	51.496	0.101
518.700	39.078	0.101
518.800	36.157	0.101
518.900	45.772	0.101
519.000	40.865	0.101
519.100	38.960	0.101
519.200	34.910	0.101
519.300	48.924	0.101
519.400	30.540	0.101
519.500	30.045	0.101
519.600	48.157	0.101
519.700	46.070	0.101
519.800	43.665	0.101
519.900	54.196	0.101
520.000	50.403	0.101
520.100	47.077	0.101
520.200	45.145	0.101
520.300	52.985	0.101
520.400	45.838	0.101
520.500	38.101	0.101
520.600	35.352	0.101
520.700	33.615	0.101
520.800	45.766	0.101
520.900	39.426	0.101
521.000	25.046	0.101
521.100	42.793	0.101
521.200	42.828	0.101
521.300	46.424	0.101
521.400	44.378	0.101
521.500	32.740	0.101
521.600	37.431	0.101
521.700	45.510	0.101
521.800	54.120	0.101
521.900	26.132	0.101
522.000	50.238	0.101
522.100	35.963	0.101
522.200	41.315	0.101
522.300	51.803	0.101
522.400	49.104	0.101
522.500	29.692	0.101
522.600	47.272	0.101
522.700	37.690	0.101
522.800	37.513	0.101
522.900	55.611	0.101
523.000	48.409	0.101
523.100	26.466	0.101
523.200	50.568	0.101
523.300	44.764	0.101
523.400	51.242	0.101
523.500	30.405	0.101
523.600	54.733	0.101
523.700	32.200	0.101
523.800	33.262	0.101
523.900	48.018	0.101
524.000	38.217	0.101
524.100	54.218	0.101
524.200	59.735	0.101
524.300	46.072	0.101
524.400	47.893	0.101
524.500	41.175	0.101
524.600	42.095	0.101
524.700	35.684	0.101
524.800	50.214	0.101
524.900	50.291	0.101
525.000	46.966	0.101
525.100	44.676	0.101
525.200	47.868	0.101
525.300	37.824	0.101
525.400	33.922	0.101
525.500	54.062	0.101
525.600	36.104	0.101
525.700	35.265	0.101
525.800	39.643	0.101
525.900	50.432	0.101
526.000	45.186	0.101
526.100	31.726	0.101
526.200	41.872	0.101
526.300	44.312	0.101
526.400	51.827	0.101
526.500	42.250	0.101
526.600	39.929	0.101
526.700	43.047	0.101
526.800	43.580	0.101
526.900	36.862	0.101
527.000	44.547	0.101
527.100	51.875	0.101
527.200	57.204	0.101
527.300	34.963	0.101
527.400	26.568	0.101
527.500	29.565	0.101
527.600	49.405	0.101
527.700	44.586	0.101
527.800	46.798	0.101
527.900	41.169	0.101
528.000	37.683	0.101
528.100	53.588	0.101
528.200	40.404	0.101
528.300	29.706	0.101
528.400	39.084	0.101
528.500	56.684	0.101
528.600	37.183	0.101
528.700	43.447	0.101
528.800	46.770	0.101
528.900	45.286	0.101
529.000	35.854	0.101
529.100	52.472	0.101
529.200	32.505	0.101
529.300	45.331	0.101
529.400	42.597	0.101
529.500	42.654	0.101
529.600	41.961	0.101
529.700	46.654	0.101
529.800	45.794	0.101
529.900	33.231	0.101
530.000	30.792	0.101
530.100	47.709	0.101
530.200	49.567	0.101
530.300	53.368	0.101
530.400	30.715	0.101
530.500	46.566	0.101
530.600	39.547	0.101
530.700	35.908	0.101
530.800	42.694	0.101
530.900	45.959	0.101
531.000	48.618	0.101
531.100	45.660	0.101
531.200	50.202	0.101
531.300	32.362	0.101
531.400	49.433	0.101
531.500	43.092	0.101
531.600	35.457	0.101
531.700	36.604	0.101
531.800	44.822	0.101
531.900	43.256	0.101
532.000	40.931	0.101
532.100	42.760	0.101
532.200	29.273	0.101
532.300	42.293	0.101
532.400	47.250	0.101
532.500	46.928	0.101
532.600	39.311	0.101
532.700	46.415	0.101
532.800	59.465	0.101
532.900	35.366	0.101
533.000	28.494	0.101
533.100	58.856	0.101
533.200	52.857	0.101
533.300	53.731	0.101
533.400	26.990	0.101
533.500	36.973	0.101
533.600	42.498	0.101
533.700	43.359	0.101
533.800	35.723	0.101
533.900	45.516	0.101
534.000	43.475	0.101
534.100	59.717	0.101
534.200	34.831	0.101
534.300	53.899	0.101
534.400	48.805	0.101
534.500	41.667	0.101
534.600	47.769	0.101
534.700	54.839	0.101
534.800	51.386	0.101
534.900	41.240	0.101
535.000	42.528	0.101
535.100	40.784	0.101
535.200	44.893	0.101
535.300	41.305	0.101
535.400	38.816	0.101
535.500	43.601	0.101
535.600	43.657	0.101
535.700	54.835	0.101
535.800	51.107	0.101
535.900	42.041	0.101
536.000	48.598	0.101
536.100	48.251	0.101
536.200	20.055	0.101
536.300	38.120	0.101
536.400	48.789	0.101
536.500	47.737	0.101
536.600	47.793	0.101
536.700	37.992	0.101
536.800	37.543	0.101
536.900	53.964	0.101
537.000	45.432	0.101
537.100	60.537	0.101
537.200	45.516	0.101
537.300	49.712	0.101
537.400	46.063	0.101
537.500	55.798	0.101
537.600	29.934	0.101
537.700	50.636	0.101
537.800	41.854	0.101
537.900	42.665	0.101
538.000	38.659	0.101
538.100	40.261	0.101
538.200	54.618	0.101
538.300	48.461	0.101
538.400	42.428	0.101
538.500	41.128	0.101
538.600	52.382	0.101
538.700	43.545	0.101
538.800	40.984	0.101
538.900	37.078	0.101
539.000	40.382	0.101
539.100	52.205	0.101
539.200	51.013	0.101
539.300	53.450	0.101
539.400	40.520	0.101
539.500	58.422	0.101
539.600	57.735	0.101
539.700	41.093	0.101
539.800	43.433	0.101
539.900	52.686	0.101
540.000	44.113	0.101
540.100	46.853	0.101
540.200	31.681	0.101
540.300	43.761	0.101
540.400	53.473	0.101
540.500	40.696	0.101
540.600	38.615	0.101
540.700	36.483	0.101
540.800	44.703	0.101
540.900	35.936	0.101
541.000	44.862	0.101
541.100	26.727	0.101
541.200	36.155	0.101
541.300	28.771	0.101
541.400	25.540	0.101
541.500	33.824	0.101
541.600	34.470	0.101
541.700	32.064	0.101
541.800	17.081	0.101
541.900	37.463	0.101
542.000	18.369	0.101
542.100	27.917	0.101
542.200	21.552	0.101
542.300	17.933	0.101
542.400	12.160	0.101
542.500	12.492	0.101
542.600	19.289	0.101
542.700	30.730	0.101
542.800	17.739	0.101
542.900	5.911	0.101
543.000	30.975	0.101
543.100	33.402	0.101
543.200	17.477	0.101
543.300	22.573	0.101
543.400	21.935	0.101
543.500	5.796	0.101
543.600	3.358	0.101
543.700	25.292	0.101
543.800	0.321	0.101
543.900	15.912	0.101
544.000	29.107	0.101
544.100	15.079	0.101
544.200	-5.203	0.101
544.300	1.103	0.101
544.400	5.167	0.101
544.500	10.043	0.101
544.600	10.667	0.101
544.700	21.658	0.101
544.800	11.308	0.101
544.900	21.791	0.101
545.000	10.548	0.101
545.100	12.756	0.101
545.200	12.163	0.101
545.300	15.529	0.101
545.400	7.995	0.101
545.500	5.770	0.101
545.600	6.406	0.101
545.700	-0.348	0.101
545.800	9.123	0.101
545.900	24.401	0.101
546.000	14.856	0.101
546.100	12.857	0.101
546.200	17.567	0.101
546.300	19.163	0.101
546.400	-1.755	0.101
546.500	7.358	0.101
546.600	2.139	0.101
546.700	12.924	0.101
546.800	11.861	0.101
546.900	17.301	0.101
547.000	6.668	0.101
547.100	17.828	0.101
547.200	1.336	0.101
547.300	-0.585	0.101
547.400	6.414	0.101
547.500	9.630	0.101
547.600	20.521	0.101
547.700	8.152	0.101
547.800	8.053	0.101
547.900	7.621	0.101
548.000	21.049	0.101
548.100	7.652	0.101
548.200	5.074	0.101
548.300	1.633	0.101
548.400	12.806	0.101
548.500	11.011	0.101
548.600	14.097	0.101
548.700	9.105	0.101
548.800	12.436	0.101
548.900	14.681	0.101
549.000	10.654	0.101
549.100	4.966	0.101
549.200	16.082	0.101
549.300	8.451	0.101
549.400	14.641	0.101
549.500	18.739	0.101
549.600	14.225	0.101
549.700	13.683	0.101
549.800	5.492	0.101
549.900	4.921	0.101
550.000	18.656	0.101
550.100	5.635	0.101
550.200	18.573	0.101
550.300	-0.450	0.101
550.400	15.692	0.101
550.500	2.417	0.101
550.600	21.047	0.101
550.700	15.875	0.101
550.800	1.497	0.101
550.900	12.329	0.101
551.000	0.409	0.101
551.100	9.046	0.101
551.200	3.204	0.101
551.300	-9.094	0.101
551.400	14.694	0.101
551.500	17.265	0.101
551.600	11.437	0.101
551.700	-9.444	0.101
551.800	0.911	0.101
551.900	11.378	0.101
552.000	3.882	0.101
552.100	9.785	0.101
552.200	12.093	0.101
552.300	9.097	0.101
552.400	3.358	0.101
552.500	8.820	0.101
552.600	19.928	0.101
552.700	10.959	0.101
552.800	7.994	0.101
552.900	1.665	0.101
553.000	6.564	0.101
553.100	-4.386	0.101
553.200	6.731	0.101
553.300	12.479	0.101
553.400	-0.548	0.101
553.500	14.427	0.101
553.600	-0.410	0.101
553.700	5.883	0.101
553.800	5.979	0.101
553.900	-8.688	0.101
554.000	8.062	0.101
554.100	6.447	0.101
554.200	7.953	0.101
554.300	8.090	0.101
554.400	4.335	0.101
554.500	11.603	0.101
554.600	4.094	0.101
554.700	0.559	0.101
554.800	8.402	0.101
554.900	-4.881	0.101
555.000	3.160	0.101
555.100	14.756	0.101
555.200	10.613	0.101
555.300	18.007	0.101
555.400	4.626	0.101
555.500	8.637	0.101
555.600	-1.114	0.101
555.700	12.187	0.101
555.800	6.880	0.101
555.900	1.444	0.101
556.000	4.227	0.101
556.100	9.556	0.101
556.200	7.340	0.101
556.300	2.584	0.101
556.400	3.082	0.101
556.500	5.894	0.101
556.600	7.211	0.101
556.700	-16.278	0.101
556.800	14.705	0.101
556.900	-6.670	0.101
557.000	-0.398	0.101
557.100	1.153	0.101
557.200	4.682	0.101
557.300	3.423	0.101
557.400	-7.261	0.101
557.500	10.777	0.101
557.600	14.234	0.101
557.700	5.978	0.101
557.800	1.586	0.101
557.900	11.658	0.101
558.000	4.633	0.101
558.100	2.343	0.101
558.200	1.265	0.101
558.300	5.659	0.101
558.400	-1.754	0.101
558.500	2.829	0.101
558.600	-5.316	0.101
558.700	3.836	0.101
558.800	-4.994	0.101
558.900	11.625	0.101
559.000	4.801	0.101
559.100	0.435	0.101
559.200	-8.221	0.101
559.300	7.544	0.101
559.400	6.174	0.101
559.500	-5.492	0.101
559.600	-8.717	0.101
559.700	10.156	0.101
559.800	-0.263	0.101
559.900	-6.134	0.101
560.000	-3.422	0.101
560.100	4.310	0.101
560.200	10.057	0.101
560.300	-7.259	0.101
560.400	-2.028	0.101
560.500	12.682	0.101
560.600	-4.988	0.101
560.700	18.807	0.101
560.800	2.826	0.101
560.900	7.371	0.101
561.000	1.130	0.101
561.100	3.400	0.101
561.200	2.018	0.101
561.300	-4.634	0.101
561.400	-15.347	0.101
561.500	-7.154	0.101
561.600	-0.800	0.101
561.700	-4.762	0.101
561.800	7.001	0.101
561.900	-9.338	0.101
562.000	-6.792	0.101
562.100	1.442	0.101
562.200	-15.307	0.101
562.300	-1.819	0.101
562.400	-5.312	0.101
562.500	8.875	0.101
562.600	-6.850	0.101
562.700	3.481	0.101
562.800	-0.158	0.101
562.900	1.844	0.101
563.000	-0.288	0.101
563.100	5.028	0.101
563.200	11.167	0.101
563.300	5.311	0.101
563.400	1.520	0.101
563.500	-5.235	0.101
563.600	-3.549	0.101
563.700	0.328	0.101
563.800	-1.445	0.101
563.900	-8.400	0.101
564.000	0.813	0.101
564.100	-3.249	0.101
564.200	-1.730	0.101
564.300	-15.130	0.101
564.400	1.551	0.101
564.500	-1.993	0.101
564.600	-4.712	0.101
564.700	-6.837	0.101
564.800	-8.203	0.101
564.900	-12.705	0.101
565.000	-4.267	0.101
565.100	-12.103	0.101
565.200	4.083	0.101
565.300	6.128	0.101
565.400	5.525	0.101
565.500	-4.672	0.101
565.600	-17.247	0.101
565.700	-6.507	0.101
565.800	-0.595	0.101
565.900	-17.593	0.101
566.000	-2.667	0.101
566.100	-11.861	0.101
566.200	-11.242	0.101
566.300	16.428	0.101
566.400	-6.854	0.101
566.500	-10.407	0.101
566.600	-5.297	0.101
566.700	-8.071	0.101
566.800	-6.021	0.101
566.900	-11.488	0.101
567.000	-12.105	0.101
567.100	-13.919	0.101
567.200	-11.628	0.101
567.300	-6.961	0.101
567.400	-3.463	0.101
567.500	-6.889	0.101
567.600	-3.419	0.101
567.700	0.754	0.101
567.800	-9.527	0.101
567.900	-0.790	0.101
568.000	-11.702	0.101
568.100	-3.336	0.101
568.200	-16.741	0.101
568.300	-8.583	0.101
568.400	-16.815	0.101
568.500	-6.971	0.101
568.600	-10.986	0.101
568.700	-5.736	0.101
568.800	0.579	0.101
568.900	7.661	0.101
569.000	-1.449	0.101
569.100	-12.469	0.101
569.200	-0.463	0.101
569.300	-13.157	0.101
569.400	-20.539	0.101
569.500	-18.470	0.101
569.600	-6.167	0.101
569.700	-19.023	0.101
569.800	-4.383	0.101
569.900	-22.561	0.101
570.000	-20.737	0.101
570.100	-11.635	0.101
570.200	-8.306	0.101
570.300	-0.167	0.101
570.400	-7.522	0.101
570.500	5.845	0.101
570.600	-11.753	0.101
570.700	-7.901	0.101
570.800	-9.008	0.101
570.900	-7.140	0.101
571.000	-4.151	0.101
571.100	-0.457	0.101
571.200	-10.164	0.101
571.300	-5.962	0.101
571.400	-15.107	0.101
571.500	-11.999	0.101
571.600	-21.246	0.101
571.700	-3.699	0.101
571.800	-16.510	0.101
571.900	-14.956	0.101
572.000	0.020	0.101
572.100	-21.131	0.101
572.200	-3.847	0.101
572.300	-0.649	0.101
572.400	-3.953	0.101
572.500	4.994	0.101
572.600	-4.117	0.101
572.700	-5.961	0.101
572.800	-27.802	0.101
572.900	-11.158	0.101
573.000	-4.861	0.101
573.100	-13.591	0.101
573.200	-11.536	0.101
573.300	-15.035	0.101
573.400	-20.222	0.101
573.500	-10.719	0.101
573.600	-2.454	0.101
573.700	-3.194	0.101
573.800	-14.547	0.101
573.900	-8.715	0.101
574.000	-19.832	0.101
574.100	-7.415	0.101
574.200	-0.245	0.101
574.300	-11.425	0.101
574.400	-21.859	0.101
574.500	-10.287	0.101
574.600	-10.880	0.101
574.700	-17.175	0.101
574.800	-0.590	0.101
574.900	-3.784	0.101
575.000	-4.862	0.101
575.100	-24.376	0.101
575.200	-12.761	0.101
575.300	-12.319	0.101
575.400	-22.785	0.101
575.500	-10.344	0.101
575.600	-11.250	0.101
575.700	-6.826	0.101
575.800	-16.053	0.101
575.900	-11.556	0.101
576.000	-22.951	0.101
576.100	-13.341	0.101
576.200	-25.102	0.101
576.300	-9.469	0.101
576.400	-17.599	0.101
576.500	-9.187	0.101
576.600	-7.031	0.101
576.700	-16.828	0.101
576.800	-21.307	0.101
576.900	-16.385	0.101
577.000	-10.420	0.101
577.100	-12.898	0.101
577.200	-16.788	0.101
577.300	-15.305	0.101
577.400	-10.519	0.101
577.500	-15.719	0.101
577.600	-19.634	0.101
577.700	-7.030	0.101
577.800	-14.177	0.101
577.900	-23.986	0.101
578.000	-15.847	0.101
578.100	-5.524	0.101
578.200	-21.942	0.101
578.300	-16.169	0.101
578.400	-25.785	0.101
578.500	-9.660	0.101
578.600	-26.524	0.101
578.700	-18.913	0.101
578.800	0.041	0.101
578.900	-2.549	0.101
579.000	-12.957	0.101
579.100	-23.193	0.101
579.200	-11.085	0.101
579.300	-7.219	0.101
579.400	-9.500	0.101
579.500	-14.757	0.101
579.600	-19.582	0.101
579.700	-20.645	0.101
579.800	-7.321	0.101
579.900	-12.268	0.101
580.000	-10.434	0.101
580.100	-15.952	0.101
580.200	-20.304	0.101
580.300	-25.282	0.101
580.400	-12.085	0.101
580.500	-13.998	0.101
580.600	-25.964	0.101
580.700	-15.566	0.101
580.800	-2.437	0.101
580.900	-8.411	0.101
581.000	-4.117	0.101
581.100	-8.511	0.101
581.200	-23.094	0.101
581.300	-7.348	0.101
581.400	-33.350	0.101
581.500	-16.377	0.101
581.600	-25.318	0.101
581.700	-10.512	0.101
581.800	-16.981	0.101
581.900	-28.848	0.101
582.000	-20.038	0.101
582.100	-19.973	0.101
582.200	-17.154	0.101
582.300	-10.373	0.101
582.400	-14.926	0.101
582.500	-12.365	0.101
582.600	-21.204	0.101
582.700	-23.814	0.101
582.800	-11.087	0.101
582.900	-8.487	0.101
583.000	-15.261	0.101
583.100	-3.940	0.101
583.200	-4.244	0.101
583.300	-24.029	0.101
583.400	-11.899	0.101
583.500	-30.359	0.101
583.600	1.690	0.101
583.700	-15.255	0.101
583.800	-23.302	0.101
583.900	-14.034	0.101
584.000	-17.369	0.101
584.100	-5.477	0.101
584.200	-17.270	0.101
584.300	-22.193	0.101
584.400	-19.540	0.101
584.500	-11.399	0.101
584.600	-32.744	0.101
584.700	-9.820	0.101
584.800	-29.458	0.101
584.900	-22.979	0.101
585.000	-17.754	0.101
585.100	-8.609	0.101
585.200	-19.188	0.101
585.300	-22.656	0.101
585.400	-8.566	0.101
585.500	-17.861	0.101
585.600	-15.689	0.101
585.700	-21.715	0.101
585.800	-12.803	0.101
585.900	-18.190	0.101
586.000	-25.053	0.101
586.100	-13.384	0.101
586.200	-11.880	0.101
586.300	-10.079	0.101
586.400	-16.946	0.101
586.500	-16.870	0.101
586.600	-17.652	0.101
586.700	-28.744	0.101
586.800	-4.767	0.101
586.900	-25.168	0.101
587.000	-15.468	0.101
587.100	-27.461	0.101
587.200	-14.423	0.101
587.300	-8.318	0.101
587.400	-17.843	0.101
587.500	-10.936	0.101
587.600	-16.854	0.101
587.700	-22.554	0.101
587.800	-7.187	0.101
587.900	-13.034	0.101
588.000	-22.835	0.101
588.100	-18.775	0.101
588.200	-17.403	0.101
588.300	-17.228	0.101
588.400	-15.646	0.101
588.500	-30.507	0.101
588.600	-27.879	0.101
588.700	-3.488	0.101
588.800	-3.016	0.101
588.900	-14.531	0.101
589.000	-20.665	0.101
589.100	-11.320	0.101
589.200	-11.641	0.101
589.300	-12.561	0.101
589.400	-5.136	0.101
589.500	-26.244	0.101
589.600	-17.521	0.101
589.700	-17.109	0.101
589.800	-4.617	0.101
589.900	-24.278	0.101
590.000	-18.940	0.101
590.100	-21.573	0.101
590.200	-20.260	0.101
590.300	-15.423	0.101
590.400	-20.917	0.101
590.500	-15.245	0.101
590.600	-13.272	0.101
590.700	-16.016	0.101
590.800	-7.059	0.101
590.900	-23.457	0.101
591.000	-12.754	0.101
591.100	-16.956	0.101
591.200	-15.075	0.101
591.300	-26.774	0.101
591.400	-5.183	0.101
591.500	-17.314	0.101
591.600	-17.148	0.101
591.700	-24.580	0.101
591.800	-16.673	0.101
591.900	-26.902	0.101
592.000	-18.612	0.101
592.100	-11.994	0.101
592.200	-24.417	0.101
592.300	-4.764	0.101
592.400	-14.987	0.101
592.500	-18.816	0.101
592.600	-23.948	0.101
592.700	-29.611	0.101
592.800	-21.965	0.101
592.900	-12.357	0.101
593.000	-20.856	0.101
593.100	-16.647	0.101
593.200	-10.055	0.101
593.300	-17.596	0.101
593.400	-18.977	0.101
593.500	-12.568	0.101
593.600	-0.340	0.101
593.700	-21.496	0.101
593.800	-18.439	0.101
593.900	-20.026	0.101
594.000	-29.880	0.101
594.100	-15.825	0.101
594.200	-8.604	0.101
594.300	-11.221	0.101
594.400	-24.813	0.101
594.500	-16.443	0.101
594.600	-7.932	0.101
594.700	-12.937	0.101
594.800	-8.646	0.101
594.900	-21.212	0.101
595.000	-23.650	0.101
595.100	-14.186	0.101
595.200	-10.106	0.101
595.300	-21.914	0.101
595.400	-7.290	0.101
595.500	-17.812	0.101
595.600	-18.801	0.101
595.700	-8.292	0.101
595.800	-22.049	0.101
595.900	-10.967	0.101
596.000	-16.247	0.101
596.100	-8.395	0.101
596.200	-19.844	0.101
596.300	-4.079	0.101
596.400	-13.157	0.101
596.500	-23.865	0.101
596.600	-21.460	0.101
596.700	-11.173	0.101
596.800	-18.363	0.101
596.900	-14.536	0.101
597.000	-23.333	0.101
597.100	-23.468	0.101
597.200	2.116	0.101
597.300	-17.058	0.101
597.400	-26.825	0.101
597.500	-27.410	0.101
597.600	-19.162	0.101
597.700	-15.124	0.101
597.800	-18.259	0.101
597.900	-3.967	0.101
598.000	-24.771	0.101
598.100	-9.211	0.101
598.200	-25.798	0.101
598.300	-16.185	0.101
598.400	-9.319	0.101
598.500	-18.863	0.101
598.600	-16.259	0.101
598.700	-15.769	0.101
598.800	-3.934	0.101
598.900	-19.738	0.101
599.000	-28.078	0.101
599.100	-19.070	0.101
599.200	-19.539	0.101
599.300	-9.563	0.101
599.400	-8.162	0.101
599.500	-19.021	0.101
599.600	-36.299	0.101
599.700	-12.903	0.101
599.800	-14.869	0.101
599.900	-23.855	0.101
600.000	-13.040	0.101
600.100	-28.381	0.101
600.200	-2.693	0.101
600.300	-16.902	0.101
600.400	-8.791	0.101
600.500	-9.241	0.101
600.600	-11.139	0.101
600.700	-14.497	0.101
600.800	-33.504	0.101
600.900	-10.065	0.101
601.000	-18.081	0.101
601.100	-6.852	0.101
601.200	-11.458	0.101
601.300	-6.173	0.101
601.400	-23.144	0.101
601.500	-18.525	0.101
601.600	-16.690	0.101
601.700	-27.622	0.101
601.800	-13.269	0.101
601.900	-15.403	0.101
602.000	-24.738	0.101
602.100	-10.544	0.101
602.200	-9.745	0.101
602.300	-17.060	0.101
602.400	-19.088	0.101
602.500	-11.431	0.101
602.600	-20.019	0.101
602.700	-4.785	0.101
602.800	-32.789	0.101
602.900	-23.214	0.101
603.000	-16.627	0.101
603.100	-14.710	0.101
603.200	-21.020	0.101
603.300	-8.416	0.101
603.400	-24.253	0.101
603.500	-17.397	0.101
603.600	-12.862	0.101
603.700	-17.331	0.101
603.800	-16.984	0.101
603.900	-10.367	0.101
604.000	-27.342	0.101
604.100	-17.262	0.101
604.200	-22.644	0.101
604.300	-9.274	0.101
604.400	-15.108	0.101
604.500	-18.411	0.101
604.600	-15.287	0.101
604.700	-6.869	0.101
604.800	-12.051	0.101
604.900	-33.060	0.101
605.000	-14.423	0.101
605.100	-13.519	0.101
605.200	-18.160	0.101
605.300	-19.387	0.101
605.400	-8.254	0.101
605.500	-16.789	0.101
605.600	-25.098	0.101
605.700	-11.920	0.101
605.800	-9.150	0.101
605.900	-24.214	0.101
606.000	-16.567	0.101
606.100	-14.195	0.101
606.200	-21.816	0.101
606.300	-2.805	0.101
606.400	-27.129	0.101
606.500	-15.557	0.101
606.600	-9.058	0.101
606.700	-26.101	0.101
606.800	-29.297	0.101
606.900	-1.245	0.101
607.000	-17.365	0.101
607.100	-28.443	0.101
607.200	-7.920	0.101
607.300	-9.336	0.101
607.400	-0.052	0.101
607.500	-29.910	0.101
607.600	-26.781	0.101
607.700	-22.518	0.101
607.800	-13.547	0.101
607.900	-24.364	0.101
608.000	-15.472	0.101
608.100	-29.105	0.101
608.200	-22.689	0.101
608.300	-15.315	0.101
608.400	-17.596	0.101
608.500	-26.991	0.101
608.600	-4.772	0.101
608.700	-19.885	0.101
608.800	-20.060	0.101
608.900	-13.132	0.101
609.000	-22.822	0.101
609.100	-19.437	0.101
609.200	-16.237	0.101
609.300	-14.798	0.101
609.400	-24.618	0.101
609.500	-16.433	0.101
609.600	-23.499	0.101
609.700	-15.601	0.101
609.800	-16.883	0.101
609.900	-9.118	0.101
610.000	-29.729	0.101
610.100	-11.547	0.101
610.200	-5.449	0.101
610.300	-9.842	0.101
610.400	-10.525	0.101
610.500	-25.091	0.101
610.600	-15.170	0.101
610.700	-21.705	0.101
610.800	-17.761	0.101
610.900	-20.311	0.101
611.000	-5.447	0.101
611.100	-16.106	0.101
611.200	-36.948	0.101
611.300	-10.645	0.101
611.400	-16.277	0.101
611.500	-1.265	0.101
611.600	-16.747	0.101
611.700	-9.326	0.101
611.800	-13.590	0.101
611.900	-20.793	0.101
612.000	-20.342	0.101
612.100	-31.503	0.101
612.200	-13.940	0.101
612.300	-6.801	0.101
612.400	-16.067	0.101
612.500	-15.796	0.101
612.600	-15.816	0.101
612.700	-21.635	0.101
612.800	-21.563	0.101
612.900	-22.037	0.101
613.000	-1.254	0.101
613.100	-9.684	0.101
613.200	-28.845	0.101
613.300	-26.529	0.101
613.400	-15.882	0.101
613.500	-21.394	0.101
613.600	-18.532	0.101
613.700	-23.124	0.101
613.800	-17.883	0.101
613.900	-5.408	0.101
614.000	-26.099	0.101
614.100	-24.639	0.101
614.200	-13.362	0.101
614.300	-22.378	0.101
614.400	-20.803	0.101
614.500	-16.332	0.101
614.600	-10.083	0.101
614.700	-12.135	0.101
614.800	-2.568	0.101
614.900	-19.830	0.101
615.000	-17.723	0.101
615.100	-10.524	0.101
615.200	-17.982	0.101
615.300	-24.614	0.101
615.400	-15.807	0.101
615.500	-13.379	0.101
615.600	-15.015	0.101
615.700	-19.484	0.101
615.800	-25.978	0.101
615.900	-23.663	0.101
616.000	-11.097	0.101
616.100	-23.579	0.101
616.200	-10.544	0.101
616.300	-5.830	0.101
616.400	1.413	0.101
616.500	-15.461	0.101
616.600	-21.510	0.101
616.700	-22.190	0.101
616.800	-9.791	0.101
616.900	-17.473	0.101
617.000	-18.848	0.101
617.100	-11.350	0.101
617.200	-21.637	0.101
617.300	-20.117	0.101
617.400	-14.900	0.101
617.500	-20.147	0.101
617.600	-17.695	0.101
617.700	-12.471	0.101
617.800	-15.468	0.101
617.900	-11.135	0.101
618.000	-7.083	0.101
618.100	-23.681	0.101
618.200	-11.268	0.101
618.300	-12.808	0.101
618.400	-22.662	0.101
618.500	-34.994	0.101
618.600	-8.931	0.101
618.700	-9.366	0.101
618.800	-23.826	0.101
618.900	-21.037	0.101
619.000	-21.424	0.101
619.100	-33.927	0.101
619.200	-18.624	0.101
619.300	-22.151	0.101
619.400	-21.551	0.101
619.500	-4.155	0.101
619.600	-17.397	0.101
619.700	-17.777	0.101
619.800	-26.195	0.101
619.900	-9.224	0.101
620.000	-13.888	0.101
620.100	-18.373	0.101
620.200	-18.923	0.101
620.300	-13.834	0.101
620.400	-13.676	0.101
620.500	-17.290	0.101
620.600	-19.815	0.101
620.700	-12.911	0.101
620.800	-15.842	0.101
620.900	-18.411	0.101
621.000	-19.658	0.101
621.100	-22.105	0.101
621.200	-15.763	0.101
621.300	-11.982	0.101
621.400	-13.823	0.101
621.500	-11.140	0.101
621.600	-10.265	0.101
621.700	-13.087	0.101
621.800	-29.127	0.101
621.900	-11.888	0.101
622.000	-13.480	0.101
622.100	-6.223	0.101
622.200	-19.957	0.101
622.300	-19.636	0.101
622.400	-19.434	0.101
622.500	-17.021	0.101
622.600	-21.608	0.101
622.700	-16.855	0.101
622.800	-9.233	0.101
622.900	-23.623	0.101
623.000	-5.433	0.101
623.100	-18.068	0.101
623.200	-6.387	0.101
623.300	-15.794	0.101
623.400	-27.212	0.101
623.500	-22.004	0.101
623.600	-16.190	0.101
623.700	-18.749	0.101
623.800	-19.202	0.101
623.900	-10.505	0.101
624.000	-11.452	0.101
624.100	-36.785	0.101
624.200	-10.888	0.101
624.300	-22.828	0.101
624.400	-12.915	0.101
624.500	-26.047	0.101
624.600	-19.829	0.101
624.700	-2.561	0.101
624.800	-11.029	0.101
624.900	-26.948	0.101
625.000	-19.462	0.101
625.100	-9.235	0.101
625.200	-13.274	0.101
625.300	-16.381	0.101
625.400	-24.132	0.101
625.500	-13.996	0.101
625.600	-11.708	0.101
625.700	-18.673	0.101
625.800	-15.698	0.101
625.900	-30.338	0.101
626.000	-19.960	0.101
626.100	-14.191	0.101
626.200	-13.100	0.101
626.300	-24.239	0.101
626.400	-18.036	0.101
626.500	-14.415	0.101
626.600	-21.304	0.101
626.700	-18.749	0.101
626.800	-9.950	0.101
626.900	-28.493	0.101
627.000	-16.177	0.101
627.100	-12.907	0.101
627.200	-15.620	0.101
627.300	-23.686	0.101
627.400	-14.660	0.101
627.500	-20.643	0.101
627.600	-4.877	0.101
627.700	-18.780	0.101
627.800	-13.283	0.101
627.900	-14.745	0.101
628.000	-16.595	0.101
628.100	-10.605	0.101
628.200	-13.960	0.101
628.300	-14.652	0.101
628.400	-22.181	0.101
628.500	-21.069	0.101
628.600	-30.067	0.101
628.700	-15.152	0.101
628.800	1.887	0.101
628.900	-15.213	0.101
629.000	-17.019	0.101
629.100	-28.065	0.101
629.200	-14.624	0.101
629.300	-27.708	0.101
629.400	-28.165	0.101
629.500	-9.951	0.101
629.600	-14.304	0.101
629.700	-0.325	0.101
629.800	-6.915	0.101
629.900	-20.174	0.101
630.000	-15.738	0.101
630.100	-12.676	0.101
630.200	-23.484	0.101
630.300	-25.005	0.101
630.400	-7.152	0.101
630.500	-9.757	0.101
630.600	-20.257	0.101
630.700	-20.699	0.101
630.800	-15.674	0.101
630.900	-18.099	0.101
631.000	1.918	0.101
631.100	-6.279	0.101
631.200	-19.601	0.101
631.300	-4.222	0.101
631.400	-6.858	0.101
631.500	5.885	0.101
631.600	4.761	0.101
631.700	1.125	0.101
631.800	-2.489	0.101
631.900	2.474	0.101
632.000	-2.286	0.101
632.100	-8.056	0.101
632.200	8.209	0.101
632.300	4.200	0.101
632.400	13.321	0.101
632.500	1.935	0.101
632.600	12.299	0.101
632.700	1.522	0.101
632.800	-1.348	0.101
632.900	12.798	0.101
633.000	12.747	0.101
633.100	1.411	0.101
633.200	-3.962	0.101
633.300	7.061	0.101
633.400	15.428	0.101
633.500	11.290	0.101
633.600	18.370	0.101
633.700	2.983	0.101
633.800	1.377	0.101
633.900	12.654	0.101
634.000	15.208	0.101
634.100	10.608	0.101
634.200	7.586	0.101
634.300	-3.021	0.101
634.400	7.722	0.101
634.500	-3.670	0.101
634.600	11.472	0.101
634.700	13.577	0.101
634.800	9.524	0.101
634.900	17.765	0.101
635.000	3.160	0.101
635.100	-9.793	0.101
635.200	3.113	0.101
635.300	14.645	0.101
635.400	18.251	0.101
635.500	13.313	0.101
635.600	-3.747	0.101
635.700	0.621	0.101
635.800	10.977	0.101
635.900	0.511	0.101
636.000	16.924	0.101
636.100	-1.318	0.101
636.200	7.549	0.101
636.300	8.817	0.101
636.400	-4.249	0.101
636.500	13.482	0.101
636.600	3.559	0.101
636.700	1.177	0.101
636.800	5.960	0.101
636.900	2.045	0.101
637.000	1.715	0.101
637.100	5.030	0.101
637.200	15.672	0.101
637.300	1.373	0.101
637.400	1.159	0.101
637.500	11.122	0.101
637.600	-7.085	0.101
637.700	2.125	0.101
637.800	-2.467	0.101
637.900	9.454	0.101
638.000	7.982	0.101
638.100	1.790	0.101
638.200	13.824	0.101
638.300	-3.744	0.101
638.400	5.220	0.101
638.500	8.174	0.101
638.600	4.881	0.101
638.700	2.346	0.101
638.800	17.481	0.101
638.900	8.390	0.101
639.000	12.657	0.101
639.100	5.517	0.101
639.200	10.333	0.101
639.300	8.191	0.101
639.400	5.296	0.101
639.500	19.056	0.101
639.600	16.410	0.101
639.700	3.329	0.101
639.800	8.663	0.101
639.900	4.346	0.101
640.000	10.345	0.101
640.100	12.158	0.101
640.200	19.133	0.101
640.300	-0.656	0.101
640.400	1.072	0.101
640.500	4.084	0.101
640.600	-0.721	0.101
640.700	5.872	0.101
640.800	13.850	0.101
640.900	9.611	0.101
641.000	14.564	0.101
641.100	21.031	0.101
641.200	5.403	0.101
641.300	11.701	0.101
641.400	20.790	0.101
641.500	5.587	0.101
641.600	13.494	0.101
641.700	6.040	0.101
641.800	-0.466	0.101
641.900	17.322	0.101
642.000	17.849	0.101
642.100	17.969	0.101
642.200	3.660	0.101
642.300	15.119	0.101
642.400	-3.099	0.101
642.500	16.354	0.101
642.600	4.892	0.101
642.700	18.048	0.101
642.800	17.038	0.101
642.900	19.071	0.101
643.000	14.540	0.101
643.100	-1.836	0.101
643.200	-6.981	0.101
643.300	18.115	0.101
643.400	20.581	0.101
643.500	16.371	0.101
643.600	12.715	0.101
643.700	4.173	0.101
643.800	22.427	0.101
643.900	14.915	0.101
644.000	8.566	0.101
644.100	21.648	0.101
644.200	10.771	0.101
644.300	16.333	0.101
644.400	20.904	0.101
644.500	19.413	0.101
644.600	7.670	0.101
644.700	11.233	0.101
644.800	10.429	0.101
644.900	26.332	0.101
645.000	6.889	0.101
645.100	15.867	0.101
645.200	19.010	0.101
645.300	17.578	0.101
645.400	21.953	0.101
645.500	21.650	0.101
645.600	20.515	0.101
645.700	22.142	0.101
645.800	25.971	0.101
645.900	9.111	0.101
646.000	12.903	0.101
646.100	0.975	0.101
646.200	19.133	0.101
646.300	13.740	0.101
646.400	14.100	0.101
646.500	23.758	0.101
646.600	25.999	0.101
646.700	2.122	0.101
646.800	14.476	0.101
646.900	18.657	0.101
647.000	20.840	0.101
647.100	9.857	0.101
647.200	15.827	0.101
647.300	16.511	0.101
647.400	14.662	0.101
647.500	11.282	0.101
647.600	24.340	0.101
647.700	23.276	0.101
647.800	15.171	0.101
647.900	25.164	0.101
648.000	19.168	0.101
648.100	20.737	0.101
648.200	13.068	0.101
648.300	17.904	0.101
648.400	31.028	0.101
648.500	14.123	0.101
648.600	17.638	0.101
648.700	21.145	0.101
648.800	7.897	0.101
648.900	16.973	0.101
649.000	18.667	0.101
649.100	16.621	0.101
649.200	24.169	0.101
649.300	38.728	0.101
649.400	18.423	0.101
649.500	27.996	0.101
649.600	12.538	0.101
649.700	22.216	0.101
649.800	8.657	0.101
649.900	15.851	0.101
650.000	28.962	0.101
650.100	5.966	0.101
650.200	30.649	0.101
650.300	28.284	0.101
650.400	28.124	0.101
650.500	19.273	0.101
650.600	21.825	0.101
650.700	4.051	0.101
650.800	40.428	0.101
650.900	32.442	0.101
651.000	16.894	0.101
651.100	18.405	0.101
651.200	37.339	0.101
651.300	29.443	0.101
651.400	27.262	0.101
651.500	13.153	0.101
651.600	25.318	0.101
651.700	21.951	0.101
651.800	30.475	0.101
651.900	25.996	0.101
652.000	35.000	0.101
652.100	22.211	0.101
652.200	19.209	0.101
652.300	33.112	0.101
652.400	23.586	0.101
652.500	30.877	0.101
652.600	19.352	0.101
652.700	29.989	0.101
652.800	40.416	0.101
652.900	46.344	0.101
653.000	35.292	0.101
653.100	32.352	0.101
653.200	21.778	0.101
653.300	22.612	0.101
653.400	26.721	0.101
653.500	36.213	0.101
653.600	22.401	0.101
653.700	29.632	0.101
653.800	23.027	0.101
653.900	22.793	0.101
654.000	39.023	0.101
654.100	33.883	0.101
654.200	21.512	0.101
654.300	39.068	0.101
654.400	33.079	0.101
654.500	29.011	0.101
654.600	27.966	0.101
654.700	24.758	0.101
654.800	23.755	0.101
654.900	35.120	0.101
655.000	23.515	0.101
655.100	30.786	0.101
655.200	31.445	0.101
655.300	32.494	0.101
655.400	29.847	0.101
655.500	33.376	0.101
655.600	27.405	0.101
655.700	34.523	0.101
655.800	33.272	0.101
655.900	29.740	0.101
656.000	41.697	0.101
656.100	31.293	0.101
656.200	26.377	0.101
656.300	22.851	0.101
656.400	17.773	0.101
656.500	39.174	0.101
656.600	38.286	0.101
656.700	33.452	0.101
656.800	33.899	0.101
656.900	27.816	0.101
657.000	34.106	0.101
657.100	26.689	0.101
657.200	38.918	0.101
657.300	41.801	0.101
657.400	38.161	0.101
657.500	30.855	0.101
657.600	21.838	0.101
657.700	48.331	0.101
657.800	36.836	0.101
657.900	30.590	0.101
658.000	16.498	0.101
658.100	39.803	0.101
658.200	38.354	0.101
658.300	35.177	0.101
658.400	32.897	0.101
658.500	31.320	0.101
658.600	43.317	0.101
658.700	40.801	0.101
658.800	42.890	0.101
658.900	33.048	0.101
659.000	50.932	0.101
659.100	29.786	0.101
659.200	44.609	0.101
659.300	37.623	0.101
659.400	40.357	0.101
659.500	40.535	0.101
659.600	42.711	0.101
659.700	34.927	0.101
659.800	24.985	0.101
659.900	25.441	0.101
660.000	31.141	0.101
660.100	37.963	0.101
660.200	32.585	0.101
660.300	48.806	0.101
660.400	35.279	0.101
660.500	31.220	0.101
660.600	26.274	0.101
660.700	43.582	0.101
660.800	41.008	0.101
660.900	49.025	0.101
661.000	41.766	0.101
661.100	41.012	0.101
661.200	23.709	0.101
661.300	37.440	0.101
661.400	38.606	0.101
661.500	28.377	0.101
661.600	39.736	0.101
661.700	47.262	0.101
661.800	34.786	0.101
661.900	35.949	0.101
662.000	37.336	0.101
662.100	33.774	0.101
662.200	42.519	0.101
662.300	45.244	0.101
662.400	32.231	0.101
662.500	54.782	0.101
662.600	38.071	0.101
662.700	53.687	0.101
662.800	50.126	0.101
662.900	45.266	0.101
663.000	45.196	0.101
663.100	34.179	0.101
663.200	40.175	0.101
663.300	42.151	0.101
663.400	31.812	0.101
663.500	27.577	0.101
663.600	35.408	0.101
663.700	35.533	0.101
663.800	29.778	0.101
663.900	42.609	0.101
664.000	36.140	0.101
664.100	50.736	0.101
664.200	49.053	0.101
664.300	42.730	0.101
664.400	37.119	0.101
664.500	39.315	0.101
664.600	38.636	0.101
664.700	49.602	0.101
664.800	43.501	0.101
664.900	43.495	0.101
665.000	31.490	0.101
665.100	45.550	0.101
665.200	38.360	0.101
665.300	26.372	0.101
665.400	58.176	0.101
665.500	44.100	0.101
665.600	45.177	0.101
665.700	41.519	0.101
665.800	51.706	0.101
665.900	38.850	0.101
666.000	29.013	0.101
666.100	37.611	0.101
666.200	42.779	0.101
666.300	35.097	0.101
666.400	34.438	0.101
666.500	38.550	0.101
666.600	45.458	0.101
666.700	45.302	0.101
666.800	41.478	0.101
666.900	42.910	0.101
667.000	28.802	0.101
667.100	39.975	0.101
667.200	31.043	0.101
667.300	43.345	0.101
667.400	53.053	0.101
667.500	47.680	0.101
667.600	36.868	0.101
667.700	33.450	0.101
667.800	27.093	0.101
667.900	41.005	0.101
668.000	47.637	0.101
668.100	39.138	0.101
668.200	38.508	0.101
668.300	58.760	0.101
668.400	42.779	0.101
668.500	46.989	0.101
668.600	46.564	0.101
668.700	45.136	0.101
668.800	42.398	0.101
668.900	34.473	0.101
669.000	48.666	0.101
669.100	33.662	0.101
669.200	54.846	0.101
669.300	31.358	0.101
669.400	40.943	0.101
669.500	40.855	0.101
669.600	42.264	0.101
669.700	34.778	0.101
669.800	32.731	0.101
669.900	32.113	0.101
670.000	43.914	0.101
670.100	41.470	0.101
670.200	51.662	0.101
670.300	52.146	0.101
670.400	28.490	0.101
670.500	29.949	0.101
670.600	45.952	0.101
670.700	38.810	0.101
670.800	46.380	0.101
670.900	39.653	0.101
671.000	49.706	0.101
671.100	37.912	0.101
671.200	41.684	0.101
671.300	30.026	0.101
671.400	44.683	0.101
671.500	45.809	0.101
671.600	37.083	0.101
671.700	34.793	0.101
671.800	47.358	0.101
671.900	46.960	0.101
672.000	45.305	0.101
672.100	45.668	0.101
672.200	46.328	0.101
672.300	36.874	0.101
672.400	41.965	0.101
672.500	54.731	0.101
672.600	40.422	0.101
672.700	39.225	0.101
672.800	45.249	0.101
672.900	34.730	0.101
673.000	30.796	0.101
673.100	37.410	0.101
673.200	44.311	0.101
673.300	47.737	0.101
673.400	30.914	0.101
673.500	42.979	0.101
673.600	46.136	0.101
673.700	47.105	0.101
673.800	37.999	0.101
673.900	40.235	0.101
674.000	38.920	0.101
674.100	49.555	0.101
674.200	39.997	0.101
674.300	47.083	0.101
674.400	28.339	0.101
674.500	39.330	0.101
674.600	40.699	0.101
674.700	42.282	0.101
674.800	41.595	0.101
674.900	52.750	0.101
675.000	42.116	0.101
675.100	39.999	0.101
675.200	49.279	0.101
675.300	45.115	0.101
675.400	38.539	0.101
675.500	38.633	0.101
675.600	42.066	0.101
675.700	46.547	0.101
675.800	28.225	0.101
675.900	43.937	0.101
676.000	44.490	0.101
676.100	45.867	0.101
676.200	36.520	0.101
676.300	51.971	0.101
676.400	35.536	0.101
676.500	48.515	0.101
676.600	41.175	0.101
676.700	34.266	0.101
676.800	30.231	0.101
676.900	45.587	0.101
677.000	37.617	0.101
677.100	44.277	0.101
677.200	37.316	0.101
677.300	34.505	0.101
677.400	41.841	0.101
677.500	43.538	0.101
677.600	46.747	0.101
677.700	43.079	0.101
677.800	40.202	0.101
677.900	33.544	0.101
678.000	49.967	0.101
678.100	49.373	0.101
678.200	39.184	0.101
678.300	34.073	0.101
678.400	47.032	0.101
678.500	35.281	0.101
678.600	47.063	0.101
678.700	41.100	0.101
678.800	54.167	0.101
678.900	44.085	0.101
679.000	35.421	0.101
679.100	35.609	0.101
679.200	53.044	0.101
679.300	46.871	0.101
679.400	48.578	0.101
679.500	50.080	0.101
679.600	41.591	0.101
679.700	40.498	0.101
679.800	43.287	0.101
679.900	28.139	0.101
680.000	52.017	0.101
680.100	43.616	0.101
680.200	38.716	0.101
680.300	45.484	0.101
680.400	46.580	0.101
680.500	37.187	0.101
680.600	42.029	0.101
680.700	43.790	0.101
680.800	36.298	0.101
680.900	28.233	0.101
681.000	42.259	0.101
681.100	38.558	0.101
681.200	58.257	0.101
681.300	50.267	0.101
681.400	42.816	0.101
681.500	40.405	0.101
681.600	50.678	0.101
681.700	45.619	0.101
681.800	32.105	0.101
681.900	37.368	0.101
682.000	44.999	0.101
682.100	32.802	0.101
682.200	57.192	0.101
682.300	47.766	0.101
682.400	30.204	0.101
682.500	61.139	0.101
682.600	39.666	0.101
682.700	32.813	0.101
682.800	60.961	0.101
682.900	31.955	0.101
683.000	36.192	0.101
683.100	53.170	0.101
683.200	48.323	0.101
683.300	33.636	0.101
683.400	44.492	0.101
683.500	41.742	0.101
683.600	42.620	0.101
683.700	57.693	0.101
683.800	47.371	0.101
683.900	39.700	0.101
684.000	45.829	0.101
684.100	41.066	0.101
684.200	41.922	0.101
684.300	47.028	0.101
684.400	40.757	0.101
684.500	48.469	0.101
684.600	47.251	0.101
684.700	33.209	0.101
684.800	41.522	0.101
684.900	46.095	0.101
685.000	50.220	0.101
685.100	53.638	0.101
685.200	41.138	0.101
685.300	40.235	0.101
685.400	35.218	0.101
685.500	21.913	0.101
685.600	43.989	0.101
685.700	59.786	0.101
685.800	49.194	0.101
685.900	46.242	0.101
686.000	31.357	0.101
686.100	42.131	0.101
686.200	34.010	0.101
686.300	39.859	0.101
686.400	50.521	0.101
686.500	39.848	0.101
686.600	38.629	0.101
686.700	41.314	0.101
686.800	41.887	0.101
686.900	44.941	0.101
687.000	39.538	0.101
687.100	34.924	0.101
687.200	49.607	0.101
687.300	53.128	0.101
687.400	38.418	0.101
687.500	34.856	0.101
687.600	45.951	0.101
687.700	43.209	0.101
687.800	48.285	0.101
687.900	59.290	0.101
688.000	23.509	0.101
688.100	54.161	0.101
688.200	50.379	0.101
688.300	38.273	0.101
688.400	42.449	0.101
688.500	45.115	0.101
688.600	55.214	0.101
688.700	57.990	0.101
688.800	46.348	0.101
688.900	43.055	0.101
689.000	26.672	0.101
689.100	52.418	0.101
689.200	57.333	0.101
689.300	47.426	0.101
689.400	46.963	0.101
689.500	40.440	0.101
689.600	39.607	0.101
689.700	31.563	0.101
689.800	48.104	0.101
689.900	37.896	0.101
690.000	48.533	0.101
690.100	34.160	0.101
690.200	36.318	0.101
690.300	48.258	0.101
690.400	42.174	0.101
690.500	29.766	0.101
690.600	30.957	0.101
690.700	36.166	0.101
690.800	38.896	0.101
690.900	27.297	0.101
691.000	49.423	0.101
691.100	41.121	0.101
691.200	26.918	0.101
691.300	24.622	0.101
691.400	35.907	0.101
691.500	22.912	0.101
691.600	31.642	0.101
691.700	32.278	0.101
691.800	31.086	0.101
691.900	29.172	0.101
692.000	22.813	0.101
692.100	5.083	0.101
692.200	19.945	0.101
692.300	11.820	0.101
692.400	23.367	0.101
692.500	14.319	0.101
692.600	20.480	0.101
692.700	12.469	0.101
692.800	30.346	0.101
692.900	0.909	0.101
693.000	11.190	0.101
693.100	-0.404	0.101
693.200	24.359	0.101
693.300	20.091	0.101
693.400	6.553	0.101
693.500	24.147	0.101
693.600	18.620	0.101
693.700	12.355	0.101
693.800	2.639	0.101
693.900	16.330	0.101
694.000	14.261	0.101
694.100	17.619	0.101
694.200	15.050	0.101
694.300	6.419	0.101
694.400	0.413	0.101
694.500	-3.203	0.101
694.600	11.272	0.101
694.700	15.627	0.101
694.800	15.828	0.101
694.900	14.644	0.101
695.000	21.120	0.101
695.100	9.099	0.101
695.200	5.973	0.101
695.300	9.605	0.101
695.400	-0.576	0.101
695.500	9.809	0.101
695.600	-1.398	0.101
695.700	6.326	0.101
695.800	12.392	0.101
695.900	11.436	0.101
696.000	1.140	0.101
696.100	20.299	0.101
696.200	11.110	0.101
696.300	4.829	0.101
696.400	6.094	0.101
696.500	15.574	0.101
696.600	-0.004	0.101
696.700	-0.545	0.101
696.800	5.843	0.101
696.900	13.242	0.101
697.000	7.979	0.101
697.100	10.902	0.101
697.200	9.821	0.101
697.300	2.346	0.101
697.400	7.947	0.101
697.500	17.096	0.101
697.600	7.583	0.101
697.700	3.489	0.101
697.800	19.606	0.101
697.900	8.243	0.101
698.000	11.771	0.101
698.100	4.863	0.101
698.200	7.075	0.101
698.300	10.238	0.101
698.400	13.926	0.101
698.500	2.278	0.101
698.600	6.910	0.101
698.700	13.497	0.101
698.800	11.635	0.101
698.900	-7.266	0.101
699.000	-5.191	0.101
699.100	15.790	0.101
699.200	13.873	0.101
699.300	0.772	0.101
699.400	13.414	0.101
699.500	1.431	0.101
699.600	9.627	0.101
699.700	11.961	0.101
699.800	-0.909	0.101
699.900	3.957	0.101
700.000	7.202	0.101
700.100	-8.826	0.101
700.200	13.373	0.101
700.300	9.440	0.101
700.400	6.687	0.101
700.500	18.421	0.101
700.600	5.550	0.101
700.700	6.494	0.101
700.800	-0.699	0.101
700.900	-4.167	0.101
701.000	4.472	0.101
701.100	16.416	0.101
701.200	14.575	0.101
701.300	4.912	0.101
701.400	14.171	0.101
701.500	4.265	0.101
701.600	3.464	0.101
701.700	8.996	0.101
701.800	11.140	0.101
701.900	-7.867	0.101
702.000	19.397	0.101
702.100	15.675	0.101
702.200	-8.729	0.101
702.300	-5.620	0.101
702.400	0.508	0.101
702.500	8.443	0.101
702.600	12.384	0.101
702.700	-3.635	0.101
702.800	4.023	0.101
702.900	0.668	0.101
703.000	11.195	0.101
703.100	21.053	0.101
703.200	1.059	0.101
703.300	7.243	0.101
703.400	0.606	0.101
703.500	6.582	0.101
703.600	2.514	0.101
703.700	0.023	0.101
703.800	8.444	0.101
703.900	9.371	0.101
704.000	4.494	0.101
704.100	-3.748	0.101
704.200	4.876	0.101
704.300	1.113	0.101
704.400	-1.031	0.101
704.500	-11.123	0.101
704.600	-9.102	0.101
704.700	8.401	0.101
704.800	-3.953	0.101
704.900	18.191	0.101
705.000	14.091	0.101
705.100	2.694	0.101
705.200	11.882	0.101
705.300	8.013	0.101
705.400	-3.996	0.101
705.500	0.358	0.101
705.600	-1.651	0.101
705.700	-4.151	0.101
705.800	2.068	0.101
705.900	1.224	0.101
706.000	13.104	0.101
706.100	4.694	0.101
706.200	7.660	0.101
706.300	7.088	0.101
706.400	-0.311	0.101
706.500	4.164	0.101
706.600	6.496	0.101
706.700	2.323	0.101
706.800	9.279	0.101
706.900	-1.908	0.101
707.000	-7.152	0.101
707.100	-8.755	0.101
707.200	10.380	0.101
707.300	10.891	0.101
707.400	6.387	0.101
707.500	0.537	0.101
707.600	4.718	0.101
707.700	-0.570	0.101
707.800	-12.279	0.101
707.900	2.717	0.101
708.000	-7.471	0.101
708.100	10.227	0.101
708.200	0.946	0.101
708.300	-0.241	0.101
708.400	2.178	0.101
708.500	-0.949	0.101
708.600	20.182	0.101
708.700	2.168	0.101
708.800	-8.080	0.101
708.900	-7.691	0.101
709.000	-14.087	0.101
709.100	-3.491	0.101
709.200	10.047	0.101
709.300	13.508	0.101
709.400	2.986	0.101
709.500	-16.255	0.101
709.600	4.405	0.101
709.700	17.025	0.101
709.800	1.727	0.101
709.900	-6.210	0.101
710.000	-14.477	0.101
710.100	-0.285	0.101
710.200	2.265	0.101
710.300	-4.254	0.101
710.400	-0.287	0.101
710.500	-3.168	0.101
710.600	4.306	0.101
710.700	0.544	0.101
710.800	-7.315	0.101
710.900	-6.742	0.101
711.000	-0.818	0.101
711.100	3.816	0.101
711.200	4.451	0.101
711.300	-10.647	0.101
711.400	0.447	0.101
711.500	-5.575	0.101
711.600	5.414	0.101
711.700	-3.300	0.101
711.800	-4.032	0.101
711.900	-9.598	0.101
712.000	11.237	0.101
712.100	0.765	0.101
712.200	-19.990	0.101
712.300	-8.045	0.101
712.400	2.626	0.101
712.500	3.676	0.101
712.600	-12.599	0.101
712.700	1.633	0.101
712.800	-3.167	0.101
712.900	-11.411	0.101
713.000	4.634	0.101
713.100	15.245	0.101
713.200	-17.173	0.101
713.300	-2.666	0.101
713.400	-10.740	0.101
713.500	-2.724	0.101
713.600	-6.214	0.101
713.700	-2.384	0.101
713.800	-1.627	0.101
713.900	-16.509	0.101
714.000	-8.439	0.101
714.100	-11.309	0.101
714.200	-4.897	0.101
714.300	-5.545	0.101
714.400	-0.458	0.101
714.500	0.403	0.101
714.600	-12.563	0.101
714.700	-4.791	0.101
714.800	-9.361	0.101
714.900	-9.029	0.101
715.000	9.096	0.101
715.100	-11.421	0.101
715.200	-17.674	0.101
715.300	-10.621	0.101
715.400	0.349	0.101
715.500	-1.736	0.101
715.600	-3.802	0.101
715.700	-3.261	0.101
715.800	-15.845	0.101
715.900	-7.352	0.101
716.000	-8.125	0.101
716.100	-2.134	0.101
716.200	-12.157	0.101
716.300	3.663	0.101
716.400	-6.426	0.101
716.500	-18.683	0.101
716.600	0.583	0.101
716.700	2.303	0.101
716.800	-1.383	0.101
716.900	-15.995	0.101
717.000	-3.732	0.101
717.100	-16.205	0.101
717.200	-4.018	0.101
717.300	-5.911	0.101
717.400	6.452	0.101
717.500	-12.475	0.101
717.600	-1.034	0.101
717.700	3.423	0.101
717.800	-16.010	0.101
717.900	1.233	0.101
718.000	-1.539	0.101
718.100	-6.061	0.101
718.200	-19.907	0.101
718.300	-2.309	0.101
718.400	-10.736	0.101
718.500	-5.241	0.101
718.600	-3.914	0.101
718.700	-10.084	0.101
718.800	-5.959	0.101
718.900	-14.984	0.101
719.000	-10.710	0.101
719.100	-16.168	0.101
719.200	-8.654	0.101
719.300	-0.870	0.101
719.400	-18.921	0.101
719.500	-10.803	0.101
719.600	-17.968	0.101
719.700	0.354	0.101
719.800	-12.461	0.101
719.900	-6.141	0.101
720.000	2.397	0.101
720.100	-7.851	0.101
720.200	-10.127	0.101
720.300	-13.848	0.101
720.400	-14.686	0.101
720.500	-16.095	0.101
720.600	-12.254	0.101
720.700	-17.151	0.101
720.800	-13.416	0.101
720.900	-17.859	0.101
721.000	-17.861	0.101
721.100	-8.220	0.101
721.200	-16.226	0.101
721.300	-3.351	0.101
721.400	-10.907	0.101
721.500	-18.949	0.101
721.600	-8.429	0.101
721.700	-7.740	0.101
721.800	-9.323	0.101
721.900	-6.582	0.101
722.000	-9.273	0.101
722.100	-16.936	0.101
722.200	-1.448	0.101
722.300	-7.343	0.101
722.400	-15.705	0.101
722.500	-8.639	0.101
722.600	-6.242	0.101
722.700	-15.892	0.101
722.800	-24.418	0.101
722.900	-13.941	0.101
723.000	-18.765	0.101
723.100	-9.689	0.101
723.200	-7.687	0.101
723.300	-5.919	0.101
723.400	-9.399	0.101
723.500	-2.810	0.101
723.600	-16.159	0.101
723.700	-21.660	0.101
723.800	-13.417	0.101
723.900	-7.556	0.101
724.000	-17.807	0.101
724.100	-18.208	0.101
724.200	-16.767	0.101
724.300	-5.757	0.101
724.400	1.323	0.101
724.500	-17.146	0.101
724.600	-17.824	0.101
724.700	-22.705	0.101
724.800	-16.794	0.101
724.900	-1.555	0.101
725.000	-8.127	0.101
725.100	-23.851	0.101
725.200	-4.884	0.101
725.300	-4.842	0.101
725.400	-20.426	0.101
725.500	-22.030	0.101
725.600	-10.101	0.101
725.700	-20.976	0.101
725.800	-12.300	0.101
725.900	-17.924	0.101
726.000	-17.219	0.101
726.100	-12.761	0.101
726.200	-8.024	0.101
726.300	-11.664	0.101
726.400	-19.204	0.101
726.500	-12.394	0.101
726.600	-7.714	0.101
726.700	-22.742	0.101
726.800	-4.309	0.101
726.900	-10.818	0.101
727.000	-21.252	0.101
727.100	-16.517	0.101
727.200	-3.414	0.101
727.300	-33.877	0.101
727.400	-4.375	0.101
727.500	-8.624	0.101
727.600	-26.224	0.101
727.700	-20.453	0.101
727.800	-10.804	0.101
727.900	-14.992	0.101
728.000	-23.026	0.101
728.100	-24.403	0.101
728.200	-10.491	0.101
728.300	-2.194	0.101
728.400	-1.050	0.101
728.500	-10.261	0.101
728.600	-9.967	0.101
728.700	-22.822	0.101
728.800	-17.213	0.101
728.900	-10.783	0.101
729.000	-15.923	0.101
729.100	-11.677	0.101
729.200	-18.239	0.101
729.300	-16.460	0.101
729.400	-18.949	0.101
729.500	-24.099	0.101
729.600	-12.642	0.101
729.700	-20.880	0.101
729.800	-16.621	0.101
729.900	-6.759	0.101
730.000	-11.738	0.101
730.100	-20.131	0.101
730.200	-16.153	0.101
730.300	-25.289	0.101
730.400	-6.799	0.101
730.500	-26.362	0.101
730.600	-13.144	0.101
730.700	-25.168	0.101
730.800	-18.320	0.101
730.900	-17.672	0.101
731.000	-12.408	0.101
731.100	-20.074	0.101
731.200	-34.864	0.101
731.300	-4.509	0.101
731.400	-18.971	0.101
731.500	-11.010	0.101
731.600	-14.285	0.101
731.700	-16.858	0.101
731.800	-21.843	0.101
731.900	-21.140	0.101
732.000	-16.964	0.101
732.100	-8.550	0.101
732.200	-14.127	0.101
732.300	-10.567	0.101
732.400	-11.830	0.101
732.500	-11.480	0.101
732.600	-23.598	0.101
732.700	-24.004	0.101
732.800	-23.092	0.101
732.900	-14.398	0.101
733.000	-15.087	0.101
733.100	-13.741	0.101
733.200	-21.885	0.101
733.300	-22.338	0.101
733.400	-10.652	0.101
733.500	-29.920	0.101
733.600	-18.644	0.101
733.700	-6.455	0.101
733.800	-23.674	0.101
733.900	-6.802	0.101
734.000	-27.490	0.101
734.100	-6.984	0.101
734.200	-19.735	0.101
734.300	-23.153	0.101
734.400	-15.611	0.101
734.500	-14.514	0.101
734.600	-24.006	0.101
734.700	-13.105	0.101
734.800	-19.806	0.101
734.900	-20.756	0.101
735.000	-11.150	0.101
735.100	-7.542	0.101
735.200	-21.045	0.101
735.300	-7.540	0.101
735.400	-20.831	0.101
735.500	-3.500	0.101
735.600	-32.147	0.101
735.700	-12.976	0.101
735.800	-33.586	0.101
735.900	-16.327	0.101
736.000	-18.216	0.101
736.100	-5.159	0.101
736.200	-5.645	0.101
736.300	-18.875	0.101
736.400	-26.413	0.101
736.500	-23.278	0.101
736.600	-12.028	0.101
736.700	-15.975	0.101
736.800	-26.521	0.101
736.900	-24.286	0.101
737.000	-38.470	0.101
737.100	-28.801	0.101
737.200	-2.893	0.101
737.300	-9.966	0.101
737.400	-21.749	0.101
737.500	-7.343	0.101
737.600	-16.571	0.101
737.700	-21.639	0.101
737.800	-16.772	0.101
737.900	-19.646	0.101
738.000	-7.787	0.101
738.100	-17.104	0.101
738.200	-25.355	0.101
738.300	-13.035	0.101
738.400	-20.891	0.101
738.500	-17.304	0.101
738.600	-15.930	0.101
738.700	-27.372	0.101
738.800	-17.497	0.101
738.900	-18.529	0.101
739.000	-13.813	0.101
739.100	-5.661	0.101
739.200	-16.687	0.101
739.300	-17.791	0.101
739.400	-19.672	0.101
739.500	-17.733	0.101
739.600	-20.779	0.101
739.700	-21.833	0.101
739.800	-19.119	0.101
739.900	-25.070	0.101
740.000	2.533	0.101
740.100	-12.409	0.101
740.200	-19.311	0.101
740.300	-17.154	0.101
740.400	-16.782	0.101
740.500	-22.918	0.101
740.600	-21.882	0.101
740.700	-20.538	0.101
740.800	-19.740	0.101
740.900	-20.646	0.101
741.000	-10.189	0.101
741.100	-13.579	0.101
741.200	-26.591	0.101
741.300	-20.903	0.101
741.400	-31.449	0.101
741.500	-17.177	0.101
741.600	-19.567	0.101
741.700	-12.271	0.101
741.800	-11.585	0.101
741.900	-13.313	0.101
742.000	-14.396	0.101
742.100	-26.711	0.101
742.200	-24.541	0.101
742.300	-11.629	0.101
742.400	-17.193	0.101
742.500	-29.604	0.101
742.600	-21.114	0.101
742.700	-13.510	0.101
742.800	-7.065	0.101
742.900	-24.794	0.101
743.000	-19.292	0.101
743.100	-9.546	0.101
743.200	-20.469	0.101
743.300	-16.694	0.101
743.400	-15.960	0.101
743.500	-16.194	0.101
743.600	-22.248	0.101
743.700	-31.225	0.101
743.800	-9.124	0.101
743.900	-14.262	0.101
744.000	-20.822	0.101
744.100	-22.533	0.101
744.200	-18.144	0.101
744.300	-20.508	0.101
744.400	-29.836	0.101
744.500	-4.802	0.101
744.600	-14.452	0.101
744.700	-17.913	0.101
744.800	-36.025	0.101
744.900	-14.001	0.101
745.000	-15.747	0.101
745.100	-15.257	0.101
745.200	-23.949	0.101
745.300	-13.214	0.101
745.400	-20.410	0.101
745.500	-33.294	0.101
745.600	-15.350	0.101
745.700	-14.792	0.101
745.800	-19.632	0.101
745.900	-34.072	0.101
746.000	-12.349	0.101
746.100	-8.203	0.101
746.200	-18.190	0.101
746.300	-5.955	0.101
746.400	-21.445	0.101
746.500	-20.714	0.101
746.600	-18.068	0.101
746.700	-15.403	0.101
746.800	-14.498	0.101
746.900	-25.554	0.101
747.000	-28.812	0.101
747.100	-22.061	0.101
747.200	-8.480	0.101
747.300	-0.875	0.101
747.400	-19.077	0.101
747.500	-31.831	0.101
747.600	-13.505	0.101
747.700	-19.860	0.101
747.800	-37.817	0.101
747.900	-14.820	0.101
748.000	-24.397	0.101
748.100	-15.147	0.101
748.200	-19.486	0.101
748.300	-25.014	0.101
748.400	-15.101	0.101
748.500	-17.491	0.101
748.600	-18.509	0.101
748.700	-13.453	0.101
748.800	-31.504	0.101
748.900	-15.507	0.101
749.000	-27.384	0.101
749.100	-19.764	0.101
749.200	-34.449	0.101
749.300	-17.097	0.101
749.400	-15.137	0.101
749.500	-20.703	0.101
749.600	-6.734	0.101
749.700	-20.962	0.101
749.800	-27.286	0.101
749.900	-12.070	0.101
750.000	-21.127	0.101
750.100	-20.075	0.101
750.200	-16.201	0.101
750.300	-26.405	0.101
750.400	-21.539	0.101
750.500	-11.531	0.101
750.600	-22.788	0.101
750.700	-31.422	0.101
750.800	-14.657	0.101
750.900	0.287	0.101
751.000	-24.329	0.101
751.100	-29.761	0.101
751.200	-9.744	0.101
751.300	-32.245	0.101
751.400	-13.794	0.101
751.500	-15.648	0.101
751.600	-25.000	0.101
751.700	-17.449	0.101
751.800	-23.618	0.101
751.900	-16.725	0.101
752.000	-12.826	0.101
752.100	-11.500	0.101
752.200	-10.516	0.101
752.300	-21.425	0.101
752.400	-20.618	0.101
752.500	-16.689	0.101
752.600	-10.159	0.101
752.700	-15.852	0.101
752.800	-14.272	0.101
752.900	-18.667	0.101
753.000	-17.971	0.101
753.100	-33.006	0.101
753.200	-23.201	0.101
753.300	-12.123	0.101
753.400	-18.920	0.101
753.500	-26.905	0.101
753.600	-13.769	0.101
753.700	-21.990	0.101
753.800	-20.756	0.101
753.900	-31.472	0.101
754.000	-7.261	0.101
754.100	-17.257	0.101
754.200	-17.331	0.101
754.300	-13.154	0.101
754.400	-14.750	0.101
754.500	-24.176	0.101
754.600	-24.798	0.101
754.700	-31.231	0.101
754.800	-28.202	0.101
754.900	-32.058	0.101
755.000	-19.521	0.101
755.100	-12.365	0.101
755.200	-15.017	0.101
755.300	-15.613	0.101
755.400	-24.943	0.101
755.500	-20.620	0.101
755.600	-25.617	0.101
755.700	-15.616	0.101
755.800	-6.102	0.101
755.900	-22.264	0.101
756.000	-25.703	0.101
756.100	-10.190	0.101
756.200	-24.147	0.101
756.300	-17.224	0.101
756.400	-14.233	0.101
756.500	-16.684	0.101
756.600	-4.134	0.101
756.700	-20.572	0.101
756.800	-31.888	0.101
756.900	-29.877	0.101
757.000	-10.330	0.101
757.100	0.211	0.101
757.200	-24.364	0.101
757.300	-11.239	0.101
757.400	-19.034	0.101
757.500	-19.745	0.101
757.600	-21.834	0.101
757.700	-17.896	0.101
757.800	-14.241	0.101
757.900	-29.430	0.101
758.000	-13.683	0.101
758.100	-24.380	0.101
758.200	-14.261	0.101
758.300	-9.205	0.101
758.400	-34.178	0.101
758.500	-7.891	0.101
758.600	-22.091	0.101
758.700	-19.722	0.101
758.800	-25.446	0.101
758.900	-14.126	0.101
759.000	-19.872	0.101
759.100	-18.684	0.101
759.200	-14.855	0.101
759.300	-17.703	0.101
759.400	-37.092	0.101
759.500	-12.208	0.101
759.600	-14.975	0.101
759.700	-18.119	0.101
759.800	-18.657	0.101
759.900	-11.539	0.101
760.000	-23.518	0.101
760.100	-18.658	0.101
760.200	-16.776	0.101
760.300	-21.231	0.101
760.400	-22.229	0.101
760.500	-10.767	0.101
760.600	-29.140	0.101
760.700	-17.001	0.101
760.800	-16.180	0.101
760.900	-10.263	0.101
761.000	-20.755	0.101
761.100	-18.692	0.101
761.200	-23.876	0.101
761.300	-24.183	0.101
761.400	-25.126	0.101
761.500	-21.473	0.101
761.600	1.321	0.101
761.700	-19.599	0.101
761.800	-27.368	0.101
761.900	-28.217	0.101
762.000	-7.135	0.101
762.100	-17.932	0.101
762.200	-27.026	0.101
762.300	-13.045	0.101
762.400	-14.133	0.101
762.500	-6.984	0.101
762.600	-18.732	0.101
762.700	-20.518	0.101
762.800	-18.348	0.101
762.900	-21.277	0.101
763.000	-28.275	0.101
763.100	-16.913	0.101
763.200	-9.900	0.101
763.300	-8.759	0.101
763.400	-11.464	0.101
763.500	-10.853	0.101
763.600	-34.839	0.101
763.700	-13.052	0.101
763.800	-19.732	0.101
763.900	-12.133	0.101
764.000	-23.550	0.101
764.100	-19.252	0.101
764.200	-31.330	0.101
764.300	-15.952	0.101
764.400	-11.014	0.101
764.500	-21.067	0.101
764.600	-10.830	0.101
764.700	-22.168	0.101
764.800	-21.006	0.101
764.900	-24.377	0.101
765.000	-15.217	0.101
765.100	-31.121	0.101
765.200	-14.268	0.101
765.300	-12.635	0.101
765.400	-13.975	0.101
765.500	-20.547	0.101
765.600	-17.625	0.101
765.700	-17.657	0.101
765.800	-34.361	0.101
765.900	-18.673	0.101
766.000	-10.639	0.101
766.100	-18.652	0.101
766.200	-17.878	0.101
766.300	-15.858	0.101
766.400	-16.443	0.101
766.500	-15.464	0.101
766.600	-33.541	0.101
766.700	-38.154	0.101
766.800	-16.273	0.101
766.900	-18.546	0.101
767.000	-15.086	0.101
767.100	-22.113	0.101
767.200	-27.468	0.101
767.300	-2.871	0.101
767.400	-22.865	0.101
767.500	-15.417	0.101
767.600	-17.105	0.101
767.700	-37.039	0.101
767.800	-13.524	0.101
767.900	-36.343	0.101
768.000	-15.763	0.101
768.100	-11.049	0.101
768.200	-22.577	0.101
768.300	-18.311	0.101
768.400	-14.569	0.101
768.500	-18.025	0.101
768.600	-28.927	0.101
768.700	-23.501	0.101
768.800	-13.909	0.101
768.900	-10.283	0.101
769.000	-13.227	0.101
769.100	-27.943	0.101
769.200	-13.785	0.101
769.300	-15.062	0.101
769.400	-11.887	0.101
769.500	-20.534	0.101
769.600	-35.497	0.101
769.700	-18.054	0.101
769.800	-16.903	0.101
769.900	-15.234	0.101
770.000	-22.090	0.101
770.100	-13.832	0.101
770.200	-20.442	0.101
770.300	-22.398	0.101
770.400	-28.996	0.101
770.500	-20.333	0.101
770.600	-27.052	0.101
770.700	-19.149	0.101
770.800	-4.942	0.101
770.900	0.933	0.101
771.000	-12.074	0.101
771.100	-27.514	0.101
771.200	-10.843	0.101
771.300	-14.073	0.101
771.400	-17.204	0.101
771.500	-16.840	0.101
771.600	-31.458	0.101
771.700	-26.752	0.101
771.800	-16.427	0.101
771.900	-22.424	0.101
772.000	-23.105	0.101
772.100	-15.994	0.101
772.200	-17.022	0.101
772.300	-26.699	0.101
772.400	-16.331	0.101
772.500	-23.691	0.101
772.600	-22.089	0.101
772.700	-24.564	0.101
772.800	-11.248	0.101
772.900	-23.894	0.101
773.000	-24.964	0.101
773.100	-16.218	0.101
773.200	-9.455	0.101
773.300	-7.180	0.101
773.400	-18.710	0.101
773.500	-16.771	0.101
773.600	-39.301	0.101
773.700	-16.191	0.101
773.800	-8.586	0.101
773.900	-24.466	0.101
774.000	-25.979	0.101
774.100	-11.639	0.101
774.200	-27.170	0.101
774.300	-20.163	0.101
774.400	-21.699	0.101
774.500	-15.515	0.101
774.600	-14.810	0.101
774.700	-17.432	0.101
774.800	-20.157	0.101
774.900	-14.977	0.101
775.000	-13.658	0.101
775.100	-3.794	0.101
775.200	-12.286	0.101
775.300	-14.284	0.101
775.400	-19.317	0.101
775.500	-20.251	0.101
775.600	-26.908	0.101
775.700	-17.435	0.101
775.800	-14.626	0.101
775.900	-18.037	0.101
776.000	-36.376	0.101
776.100	-21.537	0.101
776.200	-23.372	0.101
776.300	-27.809	0.101
776.400	-16.553	0.101
776.500	-24.103	0.101
776.600	-25.072	0.101
776.700	-28.471	0.101
776.800	-19.059	0.101
776.900	-27.232	0.101
777.000	-14.009	0.101
777.100	-13.011	0.101
777.200	-11.399	0.101
777.300	-15.306	0.101
777.400	-39.325	0.101
777.500	-25.594	0.101
777.600	-19.966	0.101
777.700	-15.615	0.101
777.800	-30.759	0.101
777.900	-11.985	0.101
778.000	-25.358	0.101
778.100	-19.727	0.101
778.200	-1.223	0.101
778.300	-27.718	0.101
778.400	-21.690	0.101
778.500	-16.013	0.101
778.600	-13.865	0.101
778.700	-10.697	0.101
778.800	-16.173	0.101
778.900	-19.602	0.101
779.000	-24.253	0.101
779.100	-18.793	0.101
779.200	-19.515	0.101
779.300	-9.820	0.101
779.400	-39.013	0.101
779.500	-16.244	0.101
779.600	-23.707	0.101
779.700	-11.332	0.101
779.800	-14.589	0.101
779.900	-10.483	0.101
780.000	-36.727	0.101
780.100	-16.643	0.101
780.200	-11.586	0.101
780.300	-8.459	0.101
780.400	-18.233	0.101
780.500	-16.401	0.101
780.600	-23.376	0.101
780.700	-12.429	0.101
780.800	-3.057	0.101
780.900	2.979	0.101
781.000	-19.049	0.101
781.100	-11.148	0.101
781.200	-8.250	0.101
781.300	-4.547	0.101
781.400	-2.056	0.101
781.500	-11.292	0.101
781.600	-4.374	0.101
781.700	-8.574	0.101
781.800	-11.384	0.101
781.900	11.884	0.101
782.000	5.800	0.101
782.100	-5.977	0.101
782.200	-5.124	0.101
782.300	-5.536	0.101
782.400	6.275	0.101
782.500	-5.587	0.101
782.600	9.489	0.101
782.700	-10.642	0.101
782.800	9.127	0.101
782.900	12.804	0.101
783.000	-17.549	0.101
783.100	4.597	0.101
783.200	9.332	0.101
783.300	13.928	0.101
783.400	-0.137	0.101
783.500	1.421	0.101
783.600	6.103	0.101
783.700	19.670	0.101
783.800	10.429	0.101
783.900	6.315	0.101
784.000	4.538	0.101
784.100	5.714	0.101
784.200	0.322	0.101
784.300	3.419	0.101
784.400	6.126	0.101
784.500	6.590	0.101
784.600	8.842	0.101
784.700	20.486	0.101
784.800	0.154	0.101
784.900	-3.310	0.101
785.000	-2.337	0.101
785.100	3.062	0.101
785.200	12.996	0.101
785.300	1.849	0.101
785.400	11.640	0.101
785.500	10.942	0.101
785.600	4.917	0.101
785.700	11.527	0.101
785.800	12.750	0.101
785.900	0.726	0.101
786.000	6.294	0.101
786.100	-3.692	0.101
786.200	4.496	0.101
786.300	7.316	0.101
786.400	6.471	0.101
786.500	7.308	0.101
786.600	1.269	0.101
786.700	10.402	0.101
786.800	-6.134	0.101
786.900	3.883	0.101
787.000	-1.725	0.101
787.100	-3.465	0.101
787.200	2.203	0.101
787.300	12.275	0.101
787.400	27.947	0.101
787.500	0.905	0.101
787.600	9.961	0.101
787.700	5.894	0.101
787.800	11.771	0.101
787.900	-2.834	0.101
788.000	11.694	0.101
788.100	-2.785	0.101
788.200	-0.121	0.101
788.300	9.353	0.101
788.400	8.451	0.101
788.500	1.286	0.101
788.600	5.575	0.101
788.700	12.270	0.101
788.800	15.187	0.101
788.900	-1.775	0.101
789.000	13.157	0.101
789.100	0.991	0.101
789.200	-3.975	0.101
789.300	26.796	0.101
789.400	-2.619	0.101
789.500	-6.871	0.101
789.600	4.095	0.101
789.700	15.500	0.101
789.800	2.468	0.101
789.900	9.291	0.101
790.000	6.796	0.101
790.100	11.300	0.101
790.200	-1.023	0.101
790.300	13.245	0.101
790.400	13.596	0.101
790.500	2.713	0.101
790.600	8.961	0.101
790.700	10.682	0.101
790.800	24.281	0.101
790.900	2.425	0.101
791.000	3.883	0.101
791.100	3.238	0.101
791.200	10.206	0.101
791.300	14.352	0.101
791.400	16.440	0.101
791.500	7.962	0.101
791.600	18.759	0.101
791.700	15.279	0.101
791.800	3.612	0.101
791.900	18.123	0.101
792.000	15.881	0.101
792.100	8.072	0.101
792.200	0.057	0.101
792.300	3.987	0.101
792.400	10.259	0.101
792.500	10.518	0.101
792.600	13.505	0.101
792.700	18.931	0.101
792.800	4.427	0.101
792.900	12.743	0.101
793.000	6.847	0.101
793.100	7.691	0.101
793.200	3.572	0.101
793.300	17.295	0.101
793.400	15.675	0.101
793.500	14.354	0.101
793.600	19.641	0.101
793.700	12.657	0.101
793.800	16.816	0.101
793.900	-6.918	0.101
794.000	18.024	0.101
794.100	5.354	0.101
794.200	9.247	0.101
794.300	13.300	0.101
794.400	21.898	0.101
794.500	3.977	0.101
794.600	15.487	0.101
794.700	19.853	0.101
794.800	14.417	0.101
794.900	16.718	0.101
795.000	10.707	0.101
795.100	9.877	0.101
795.200	12.172	0.101
795.300	5.378	0.101
795.400	15.316	0.101
795.500	6.641	0.101
795.600	12.156	0.101
795.700	17.944	0.101
795.800	12.155	0.101
795.900	11.451	0.101
796.000	14.190	0.101
796.100	22.110	0.101
796.200	9.275	0.101
796.300	6.997	0.101
796.400	10.589	0.101
796.500	15.940	0.101
796.600	7.582	0.101
796.700	4.280	0.101
796.800	8.848	0.101
796.900	9.783	0.101
797.000	17.113	0.101
797.100	13.813	0.101
797.200	18.806	0.101
797.300	32.791	0.101
797.400	17.571	0.101
797.500	19.949	0.101
797.600	24.204	0.101
797.700	3.257	0.101
797.800	13.294	0.101
797.900	23.303	0.101
798.000	12.980	0.101
798.100	25.426	0.101
798.200	4.833	0.101
798.300	24.820	0.101
798.400	19.722	0.101
798.500	32.293	0.101
798.600	13.778	0.101
798.700	31.553	0.101
798.800	24.539	0.101
798.900	22.005	0.101
799.000	19.220	0.101
799.100	12.316	0.101
799.200	13.007	0.101
799.300	34.398	0.101
799.400	15.825	0.101
799.500	27.228	0.101
799.600	5.765	0.101
799.700	24.481	0.101
799.800	12.524	0.101
799.900	15.325	0.101
800.000	19.723	0.101
