time /s	I /nA	E /V
0.100	-33.200	0.101
0.200	-16.797	0.101
0.300	-25.772	0.101
0.400	-13.689	0.101
0.500	-16.002	0.101
0.600	-15.749	0.101
0.700	-7.699	0.101
0.800	-25.020	0.101
0.900	-18.743	0.101
1.000	-3.620	0.101
1.100	-22.016	0.101
1.200	-18.993	0.101
1.300	-27.002	0.101
1.400	-7.994	0.101
1.500	-11.582	0.101
1.600	-12.966	0.101
1.700	-9.760	0.101
1.800	-16.423	0.101
1.900	-6.083	0.101
2.000	-22.645	0.101
2.100	-20.084	0.101
2.200	-26.697	0.101
2.300	-4.676	0.101
2.400	-20.019	0.101
2.500	-32.314	0.101
2.600	-18.864	0.101
2.700	-23.009	0.101
2.800	-33.890	0.101
2.900	-19.454	0.100
3.000	-8.567	0.101
3.100	-13.787	0.101
3.200	-6.543	0.101
3.300	-14.430	0.101
3.400	-23.916	0.101
3.500	-12.728	0.101
3.600	-14.040	0.100
3.700	-32.133	0.101
3.800	-14.231	0.101
3.900	-19.238	0.101
4.000	-10.004	0.101
4.100	-31.523	0.101
4.200	-21.327	0.100
4.300	-8.574	0.101
4.400	-17.909	0.101
4.500	-23.252	0.100
4.600	-4.924	0.100
4.700	-21.518	0.100
4.800	-32.454	0.100
4.900	-18.171	0.100
5.000	-23.720	0.101
5.100	-17.821	0.100
5.200	-17.329	0.101
5.300	-14.232	0.100
5.400	-28.569	0.100
5.500	-16.064	0.100
5.600	-22.166	0.100
5.700	-15.278	0.100
5.800	-20.796	0.100
5.900	-16.706	0.100
6.000	-25.064	0.100
6.100	-16.157	0.100
6.200	-17.782	0.100
6.300	-19.072	0.100
6.400	-14.041	0.100
6.500	-14.737	0.100
6.600	-22.936	0.100
6.700	-6.255	0.100
6.800	-11.989	0.100
6.900	-17.572	0.100
7.000	-16.943	0.100
7.100	-20.950	0.100
7.200	-26.542	0.100
7.300	-9.048	0.100
7.400	6.714	0.100
7.500	-10.961	0.100
7.600	-26.726	0.100
7.700	-33.016	0.100
7.800	-24.347	0.100
7.900	-13.154	0.100
8.000	-12.962	0.100
8.100	-20.495	0.100
8.200	-13.937	0.100
8.300	-18.814	0.100
8.400	-4.283	0.100
8.500	-12.876	0.100
8.600	-25.001	0.100
8.700	-15.412	0.100
8.800	-16.368	0.100
8.900	-20.659	0.100
9.000	-17.261	0.100
9.100	-19.200	0.100
9.200	-15.287	0.100
9.300	-19.500	0.100
9.400	-18.676	0.100
9.500	-16.126	0.100
9.600	-21.822	0.100
9.700	-22.756	0.100
9.800	-9.778	0.100
9.900	-26.123	0.100
10.000	-28.891	0.100
10.100	-23.101	0.100
10.200	-21.636	0.100
10.300	-13.965	0.100
10.400	-19.429	0.100
10.500	-27.513	0.100
10.600	-31.859	0.100
10.700	-2.364	0.100
10.800	-10.567	0.100
10.900	-22.663	0.100
11.000	-11.409	0.100
11.100	-13.707	0.100
11.200	-22.889	0.100
11.300	-28.611	0.100
11.400	-16.740	0.100
11.500	-22.577	0.100
11.600	-19.075	0.100
11.700	-15.036	0.100
11.800	-7.581	0.100
11.900	-15.453	0.100
12.000	-16.604	0.100
12.100	-19.640	0.100
12.200	-13.589	0.100
12.300	-5.365	0.100
12.400	-24.086	0.100
12.500	-25.939	0.100
12.600	-11.666	0.100
12.700	-11.163	0.100
12.800	-23.194	0.100
12.900	-30.972	0.100
13.000	-13.148	0.100
13.100	-16.420	0.100
13.200	-12.901	0.100
13.300	-18.255	0.100
13.400	-16.924	0.100
13.500	-12.334	0.100
13.600	-22.457	0.100
13.700	-16.050	0.100
13.800	-22.982	0.100
13.900	-16.661	0.100
14.000	-23.831	0.100
14.100	-18.689	0.100
14.200	-4.728	0.100
14.300	-10.251	0.100
14.400	-11.579	0.100
14.500	-11.911	0.100
14.600	-23.887	0.100
14.700	-16.931	0.100
14.800	-19.162	0.100
14.900	-17.343	0.100
15.000	-13.419	0.100
15.100	-21.553	0.100
15.200	-5.194	0.100
15.300	-21.529	0.100
15.400	-24.568	0.100
15.500	-14.582	0.100
15.600	-14.588	0.100
15.700	-14.502	0.100
15.800	-23.687	0.100
15.900	-13.503	0.100
16.000	0.761	0.100
16.100	-16.382	0.100
16.200	-15.849	0.100
16.300	-23.391	0.100
16.400	-24.589	0.100
16.500	-28.751	0.100
16.600	-0.212	0.100
16.700	-12.357	0.100
16.800	-16.951	0.100
16.900	-26.676	0.100
17.000	-14.722	0.100
17.100	-11.133	0.100
17.200	-15.438	0.100
17.300	-26.909	0.100
17.400	-7.808	0.100
17.500	-21.109	0.100
17.600	-19.346	0.100
17.700	-21.706	0.100
17.800	-13.497	0.100
17.900	-7.847	0.100
18.000	-16.503	0.100
18.100	-17.057	0.100
18.200	-26.778	0.100
18.300	-14.923	0.100
18.400	-16.051	0.100
18.500	-10.165	0.100
18.600	-19.340	0.100
18.700	-26.101	0.100
18.800	-21.686	0.100
18.900	-14.445	0.100
19.000	-8.729	0.100
19.100	-25.900	0.100
19.200	-29.942	0.100
19.300	-24.340	0.100
19.400	-17.638	0.100
19.500	-12.765	0.100
19.600	-26.599	0.100
19.700	-9.033	0.100
19.800	-12.277	0.100
19.900	-24.018	0.100
20.000	-16.036	0.100
20.100	-4.154	0.100
20.200	-28.691	0.100
20.300	-13.484	0.100
20.400	-23.295	0.100
20.500	-10.078	0.100
20.600	-13.828	0.100
20.700	-20.014	0.100
20.800	-18.044	0.100
20.900	-24.806	0.100
21.000	-10.705	0.100
21.100	-19.634	0.100
21.200	-16.320	0.100
21.300	-28.403	0.100
21.400	-7.908	0.100
21.500	-14.319	0.100
21.600	-30.552	0.100
21.700	-13.787	0.100
21.800	-19.023	0.100
21.900	-18.613	0.100
22.000	-11.912	0.100
22.100	-20.089	0.100
22.200	-7.807	0.100
22.300	-24.803	0.100
22.400	-23.340	0.100
22.500	-18.282	0.100
22.600	-3.812	0.100
22.700	-27.433	0.100
22.800	-9.227	0.100
22.900	-15.152	0.100
23.000	-13.392	0.100
23.100	-17.681	0.100
23.200	-1.077	0.100
23.300	-12.385	0.100
23.400	-16.537	0.100
23.500	-18.151	0.100
23.600	-21.831	0.100
23.700	-29.560	0.100
23.800	-11.536	0.100
23.900	-14.514	0.100
24.000	-21.832	0.100
24.100	-16.457	0.100
24.200	-15.111	0.100
24.300	-17.222	0.100
24.400	-26.940	0.100
24.500	-8.625	0.100
24.600	-22.592	0.100
24.700	-12.394	0.100
24.800	-13.175	0.100
24.900	-10.310	0.100
25.000	-15.719	0.100
25.100	-16.806	0.100
25.200	-27.030	0.100
25.300	-4.591	0.100
25.400	-6.154	0.100
25.500	-22.969	0.100
25.600	-16.810	0.100
25.700	-28.246	0.100
25.800	-16.376	0.100
25.900	-27.337	0.100
26.000	-18.149	0.100
26.100	-7.408	0.100
26.200	-8.275	0.100
26.300	-10.388	0.100
26.400	-22.383	0.100
26.500	-16.005	0.100
26.600	-18.652	0.100
26.700	-20.931	0.100
26.800	-21.203	0.100
26.900	-14.299	0.100
27.000	-11.778	0.100
27.100	-23.253	0.100
27.200	-10.522	0.100
27.300	-13.005	0.100
27.400	-18.880	0.100
27.500	-21.099	0.100
27.600	-18.462	0.100
27.700	-35.857	0.100
27.800	-10.693	0.100
27.900	-14.251	0.100
28.000	-15.249	0.100
28.100	-23.868	0.100
28.200	-11.281	0.100
28.300	-21.596	0.100
28.400	-13.714	0.100
28.500	-13.270	0.100
28.600	-12.347	0.100
28.700	-6.634	0.100
28.800	-20.663	0.100
28.900	-19.658	0.100
29.000	-18.251	0.100
29.100	-18.637	0.100
29.200	-14.572	0.100
29.300	-24.488	0.100
29.400	-15.573	0.100
29.500	-13.444	0.100
29.600	-23.359	0.100
29.700	-15.183	0.100
29.800	-26.196	0.100
29.900	-11.514	0.100
30.000	-13.939	0.100
30.100	-15.068	0.100
30.200	-10.511	0.100
30.300	-6.962	0.100
30.400	-9.702	0.100
30.500	-14.857	0.100
30.600	-17.196	0.100
30.700	-8.081	0.100
30.800	-8.616	0.100
30.900	-15.217	0.100
31.000	4.184	0.100
31.100	-3.944	0.100
31.200	2.096	0.100
31.300	-18.966	0.100
31.400	1.123	0.100
31.500	-18.880	0.100
31.600	-4.451	0.100
31.700	-5.911	0.100
31.800	-0.156	0.100
31.900	-18.115	0.100
32.000	-0.857	0.100
32.100	-7.224	0.100
32.200	-5.288	0.100
32.300	0.421	0.100
32.400	0.372	0.100
32.500	0.307	0.100
32.600	-5.942	0.100
32.700	-14.292	0.100
32.800	-9.648	0.100
32.900	4.870	0.100
33.000	-2.974	0.100
33.100	-2.296	0.100
33.200	-8.541	0.100
33.300	-10.929	0.100
33.400	3.490	0.100
33.500	-4.793	0.100
33.600	-8.591	0.100
33.700	-2.205	0.100
33.800	0.312	0.100
33.900	0.596	0.100
34.000	14.649	0.100
34.100	-2.625	0.100
34.200	-3.897	0.100
34.300	3.915	0.100
34.400	4.275	0.100
34.500	-2.017	0.100
34.600	1.623	0.100
34.700	2.138	0.100
34.800	-12.543	0.100
34.900	-6.956	0.100
35.000	0.685	0.100
35.100	-11.637	0.100
35.200	3.740	0.100
35.300	-0.185	0.100
35.400	-0.542	0.100
35.500	1.816	0.100
35.600	-10.098	0.100
35.700	-19.367	0.100
35.800	6.358	0.100
35.900	6.917	0.100
36.000	12.034	0.100
36.100	-1.340	0.100
36.200	-3.492	0.100
36.300	2.695	0.100
36.400	-5.699	0.100
36.500	-2.862	0.100
36.600	-0.707	0.100
36.700	-2.823	0.100
36.800	6.293	0.100
36.900	2.117	0.100
37.000	-10.777	0.100
37.100	2.803	0.100
37.200	1.074	0.100
37.300	-5.874	0.100
37.400	4.205	0.100
37.500	-4.765	0.100
37.600	-2.314	0.100
37.700	-11.410	0.100
37.800	3.097	0.100
37.900	-2.227	0.100
38.000	18.144	0.100
38.100	10.799	0.100
38.200	4.835	0.100
38.300	-5.128	0.100
38.400	-4.355	0.100
38.500	-16.523	0.100
38.600	3.889	0.100
38.700	19.504	0.100
38.800	6.724	0.100
38.900	-1.419	0.100
39.000	0.916	0.100
39.100	3.723	0.100
39.200	8.799	0.100
39.300	-3.229	0.100
39.400	2.011	0.100
39.500	-2.391	0.100
39.600	-1.768	0.100
39.700	8.443	0.100
39.800	12.987	0.100
39.900	6.600	0.100
40.000	15.238	0.100
40.100	-0.467	0.100
40.200	-8.508	0.100
40.300	4.664	0.101
40.400	16.288	0.101
40.500	15.093	0.101
40.600	5.808	0.101
40.700	-0.172	0.101
40.800	4.283	0.101
40.900	10.332	0.101
41.000	10.157	0.101
41.100	11.348	0.101
41.200	11.639	0.101
41.300	10.108	0.101
41.400	6.351	0.101
41.500	6.648	0.101
41.600	17.582	0.101
41.700	10.917	0.101
41.800	-2.368	0.101
41.900	11.573	0.101
42.000	9.695	0.101
42.100	1.981	0.101
42.200	15.672	0.101
42.300	-4.634	0.101
42.400	4.008	0.101
42.500	17.614	0.101
42.600	13.878	0.101
42.700	1.962	0.101
42.800	8.845	0.101
42.900	-0.036	0.101
43.000	5.766	0.101
43.100	6.262	0.101
43.200	-4.768	0.101
43.300	13.758	0.101
43.400	7.508	0.101
43.500	10.436	0.101
43.600	14.398	0.101
43.700	5.580	0.101
43.800	7.329	0.101
43.900	10.117	0.101
44.000	5.077	0.101
44.100	10.218	0.101
44.200	2.297	0.101
44.300	16.605	0.101
44.400	10.652	0.101
44.500	-10.002	0.101
44.600	4.185	0.101
44.700	16.298	0.101
44.800	10.492	0.101
44.900	10.565	0.101
45.000	6.759	0.101
45.100	15.210	0.101
45.200	12.161	0.101
45.300	7.010	0.101
45.400	-12.766	0.101
45.500	1.936	0.101
45.600	32.985	0.101
45.700	14.406	0.101
45.800	7.248	0.101
45.900	27.258	0.101
46.000	8.650	0.101
46.100	20.584	0.101
46.200	13.020	0.101
46.300	5.256	0.101
46.400	16.105	0.101
46.500	-0.230	0.101
46.600	14.215	0.101
46.700	13.572	0.101
46.800	11.114	0.101
46.900	1.602	0.101
47.000	25.111	0.101
47.100	7.305	0.101
47.200	9.632	0.101
47.300	16.422	0.101
47.400	21.653	0.101
47.500	7.256	0.101
47.600	17.645	0.101
47.700	13.591	0.101
47.800	6.420	0.101
47.900	11.937	0.101
48.000	18.184	0.101
48.100	5.065	0.101
48.200	20.010	0.101
48.300	24.643	0.101
48.400	22.344	0.101
48.500	1.732	0.101
48.600	9.512	0.101
48.700	15.181	0.101
48.800	23.062	0.101
48.900	7.570	0.101
49.000	13.330	0.101
49.100	5.392	0.101
49.200	21.876	0.101
49.300	3.732	0.101
49.400	17.958	0.101
49.500	7.183	0.101
49.600	18.464	0.101
49.700	11.513	0.101
49.800	7.098	0.101
49.900	15.782	0.101
50.000	5.657	0.101
50.100	15.007	0.101
50.200	5.863	0.101
50.300	10.217	0.101
50.400	17.738	0.101
50.500	7.130	0.101
50.600	7.196	0.101
50.700	20.440	0.101
50.800	30.492	0.101
50.900	21.193	0.101
51.000	16.534	0.101
51.100	20.945	0.101
51.200	9.406	0.101
51.300	13.059	0.101
51.400	3.419	0.101
51.500	12.021	0.101
51.600	11.129	0.101
51.700	13.054	0.101
51.800	18.677	0.101
51.900	18.239	0.101
52.000	5.314	0.101
52.100	13.259	0.101
52.200	14.452	0.101
52.300	24.163	0.101
52.400	4.889	0.101
52.500	19.843	0.101
52.600	17.641	0.101
52.700	14.823	0.101
52.800	21.728	0.101
52.900	6.195	0.101
53.000	12.390	0.101
53.100	9.996	0.101
53.200	24.779	0.101
53.300	23.262	0.101
53.400	23.660	0.101
53.500	6.976	0.101
53.600	13.766	0.101
53.700	7.321	0.101
53.800	19.927	0.101
53.900	19.465	0.101
54.000	13.659	0.101
54.100	10.434	0.101
54.200	24.437	0.101
54.300	27.716	0.101
54.400	17.710	0.101
54.500	11.188	0.101
54.600	19.154	0.101
54.700	14.183	0.101
54.800	16.097	0.101
54.900	13.125	0.101
55.000	22.507	0.101
55.100	18.311	0.101
55.200	15.745	0.101
55.300	31.797	0.101
55.400	19.793	0.101
55.500	9.794	0.101
55.600	20.931	0.101
55.700	16.568	0.101
55.800	8.169	0.101
55.900	27.544	0.101
56.000	18.531	0.101
56.100	29.176	0.101
56.200	7.385	0.101
56.300	9.444	0.101
56.400	14.933	0.101
56.500	14.264	0.101
56.600	5.752	0.101
56.700	25.663	0.101
56.800	25.236	0.101
56.900	24.251	0.101
57.000	18.331	0.101
57.100	26.029	0.101
57.200	12.286	0.101
57.300	14.399	0.101
57.400	27.340	0.101
57.500	16.896	0.101
57.600	17.940	0.101
57.700	22.346	0.101
57.800	34.990	0.101
57.900	28.129	0.101
58.000	19.277	0.101
58.100	15.502	0.101
58.200	16.746	0.101
58.300	20.590	0.101
58.400	24.227	0.101
58.500	31.533	0.101
58.600	14.792	0.101
58.700	24.216	0.101
58.800	36.034	0.101
58.900	10.737	0.101
59.000	31.572	0.101
59.100	19.020	0.101
59.200	23.391	0.101
59.300	5.674	0.101
59.400	27.853	0.101
59.500	27.575	0.101
59.600	5.653	0.101
59.700	24.213	0.101
59.800	23.250	0.101
59.900	15.019	0.101
60.000	13.326	0.101
60.100	29.760	0.101
60.200	27.489	0.101
60.300	30.396	0.101
60.400	18.647	0.101
60.500	32.836	0.101
60.600	21.802	0.101
60.700	25.417	0.101
60.800	19.295	0.101
60.900	22.461	0.101
61.000	17.005	0.101
61.100	28.292	0.101
61.200	4.130	0.101
61.300	25.346	0.101
61.400	24.555	0.101
61.500	31.246	0.101
61.600	28.508	0.101
61.700	20.230	0.101
61.800	16.108	0.101
61.900	29.454	0.101
62.000	18.844	0.101
62.100	24.622	0.101
62.200	14.057	0.101
62.300	17.870	0.101
62.400	38.544	0.101
62.500	25.445	0.101
62.600	29.425	0.101
62.700	19.639	0.101
62.800	22.226	0.101
62.900	26.911	0.101
63.000	30.503	0.101
63.100	17.875	0.101
63.200	14.926	0.101
63.300	44.843	0.101
63.400	29.012	0.101
63.500	12.571	0.101
63.600	19.179	0.101
63.700	19.024	0.101
63.800	35.397	0.101
63.900	27.107	0.101
64.000	23.714	0.101
64.100	9.948	0.101
64.200	16.876	0.101
64.300	26.647	0.101
64.400	29.500	0.101
64.500	33.532	0.101
64.600	27.064	0.101
64.700	28.869	0.101
64.800	21.688	0.101
64.900	32.676	0.101
65.000	20.765	0.101
65.100	23.366	0.101
65.200	24.508	0.101
65.300	44.188	0.101
65.400	30.293	0.101
65.500	34.585	0.101
65.600	21.665	0.101
65.700	26.057	0.101
65.800	22.264	0.101
65.900	30.447	0.101
66.000	27.160	0.101
66.100	30.209	0.101
66.200	22.901	0.101
66.300	30.305	0.101
66.400	22.868	0.101
66.500	38.929	0.101
66.600	36.819	0.101
66.700	25.244	0.101
66.800	23.418	0.101
66.900	23.717	0.101
67.000	26.622	0.101
67.100	31.842	0.101
67.200	33.076	0.101
67.300	20.540	0.101
67.400	20.958	0.101
67.500	15.384	0.101
67.600	14.160	0.101
67.700	49.154	0.101
67.800	23.576	0.101
67.900	14.728	0.101
68.000	32.821	0.101
68.100	37.437	0.101
68.200	1.925	0.101
68.300	42.001	0.101
68.400	24.424	0.101
68.500	32.749	0.101
68.600	29.651	0.101
68.700	29.929	0.101
68.800	16.738	0.101
68.900	40.161	0.101
69.000	25.535	0.101
69.100	33.883	0.101
69.200	18.677	0.101
69.300	28.313	0.101
69.400	32.659	0.101
69.500	20.383	0.101
69.600	39.972	0.101
69.700	30.057	0.101
69.800	27.779	0.101
69.900	26.467	0.101
70.000	29.588	0.101
70.100	30.020	0.101
70.200	28.590	0.101
70.300	22.123	0.101
70.400	37.190	0.101
70.500	26.178	0.101
70.600	25.674	0.101
70.700	32.857	0.101
70.800	24.717	0.101
70.900	37.827	0.101
71.000	41.579	0.101
71.100	19.667	0.101
71.200	11.550	0.101
71.300	33.798	0.101
71.400	27.640	0.101
71.500	27.790	0.101
71.600	11.679	0.101
71.700	28.504	0.101
71.800	38.830	0.101
71.900	39.238	0.101
72.000	29.832	0.101
72.100	34.862	0.101
72.200	41.497	0.101
72.300	16.902	0.101
72.400	31.287	0.101
72.500	20.606	0.101
72.600	36.385	0.101
72.700	31.771	0.101
72.800	35.232	0.101
72.900	25.348	0.101
73.000	29.954	0.101
73.100	32.550	0.101
73.200	39.461	0.101
73.300	30.561	0.101
73.400	30.471	0.101
73.500	21.161	0.101
73.600	28.803	0.101
73.700	36.053	0.101
73.800	34.410	0.101
73.900	34.587	0.101
74.000	34.422	0.101
74.100	34.355	0.101
74.200	29.918	0.101
74.300	24.561	0.101
74.400	39.691	0.101
74.500	37.658	0.101
74.600	32.710	0.101
74.700	17.208	0.101
74.800	24.821	0.101
74.900	27.404	0.101
75.000	31.265	0.101
75.100	39.853	0.101
75.200	35.597	0.101
75.300	16.787	0.101
75.400	27.344	0.101
75.500	36.880	0.101
75.600	24.948	0.101
75.700	31.143	0.101
75.800	43.764	0.101
75.900	28.422	0.101
76.000	43.929	0.101
76.100	29.499	0.101
76.200	21.672	0.101
76.300	28.899	0.101
76.400	30.705	0.101
76.500	39.859	0.101
76.600	24.618	0.101
76.700	28.686	0.101
76.800	38.152	0.101
76.900	28.281	0.101
77.000	29.200	0.101
77.100	24.019	0.101
77.200	50.017	0.101
77.300	21.738	0.101
77.400	21.866	0.101
77.500	32.450	0.101
77.600	33.662	0.101
77.700	42.498	0.101
77.800	27.388	0.101
77.900	31.307	0.101
78.000	36.660	0.101
78.100	34.112	0.101
78.200	28.028	0.101
78.300	43.825	0.101
78.400	29.897	0.101
78.500	46.992	0.101
78.600	36.481	0.101
78.700	27.003	0.101
78.800	26.637	0.101
78.900	36.729	0.101
79.000	36.855	0.101
79.100	23.644	0.101
79.200	27.006	0.101
79.300	34.673	0.101
79.400	32.211	0.101
79.500	41.202	0.101
79.600	36.344	0.101
79.700	24.869	0.101
79.800	41.898	0.101
79.900	36.526	0.101
80.000	47.197	0.101
80.100	31.489	0.101
80.200	35.213	0.101
80.300	36.667	0.101
80.400	8.169	0.101
80.500	29.786	0.101
80.600	33.475	0.101
80.700	34.918	0.101
80.800	50.882	0.101
80.900	28.052	0.101
81.000	29.288	0.101
81.100	33.552	0.101
81.200	31.437	0.101
81.300	36.578	0.101
81.400	38.176	0.101
81.500	46.897	0.101
81.600	35.875	0.101
81.700	17.308	0.101
81.800	39.526	0.101
81.900	30.225	0.101
82.000	34.380	0.101
82.100	42.439	0.101
82.200	28.143	0.101
82.300	46.088	0.101
82.400	39.432	0.101
82.500	17.417	0.101
82.600	29.886	0.101
82.700	45.367	0.101
82.800	33.179	0.101
82.900	32.931	0.101
83.000	37.083	0.101
83.100	46.492	0.101
83.200	42.987	0.101
83.300	36.669	0.101
83.400	21.982	0.101
83.500	34.437	0.101
83.600	35.675	0.101
83.700	46.407	0.101
83.800	23.533	0.101
83.900	36.891	0.101
84.000	28.967	0.101
84.100	38.967	0.101
84.200	43.867	0.101
84.300	31.386	0.101
84.400	43.522	0.101
84.500	33.200	0.101
84.600	43.599	0.101
84.700	34.325	0.101
84.800	34.898	0.101
84.900	32.446	0.101
85.000	38.890	0.101
85.100	31.535	0.101
85.200	39.617	0.101
85.300	42.930	0.101
85.400	31.901	0.101
85.500	22.979	0.101
85.600	36.827	0.101
85.700	24.179	0.101
85.800	43.884	0.101
85.900	36.716	0.101
86.000	26.214	0.101
86.100	22.750	0.101
86.200	36.993	0.101
86.300	28.913	0.101
86.400	18.547	0.101
86.500	28.279	0.101
86.600	35.894	0.101
86.700	39.715	0.101
86.800	30.028	0.101
86.900	27.489	0.101
87.000	43.967	0.101
87.100	42.684	0.101
87.200	33.590	0.101
87.300	45.848	0.101
87.400	29.888	0.101
87.500	45.891	0.101
87.600	32.853	0.101
87.700	30.428	0.101
87.800	34.538	0.101
87.900	38.023	0.101
88.000	48.946	0.101
88.100	15.306	0.101
88.200	40.302	0.101
88.300	40.434	0.101
88.400	30.636	0.101
88.500	20.770	0.101
88.600	37.369	0.101
88.700	40.640	0.101
88.800	36.804	0.101
88.900	40.490	0.101
89.000	34.749	0.101
89.100	34.064	0.101
89.200	27.251	0.101
89.300	31.959	0.101
89.400	41.449	0.101
89.500	39.275	0.101
89.600	43.874	0.101
89.700	20.979	0.101
89.800	30.712	0.101
89.900	38.559	0.101
90.000	29.620	0.101
90.100	45.034	0.101
90.200	33.294	0.101
90.300	31.990	0.101
90.400	31.183	0.101
90.500	28.804	0.101
90.600	34.038	0.101
90.700	37.214	0.101
90.800	12.282	0.101
90.900	28.177	0.101
91.000	25.923	0.101
91.100	13.418	0.101
91.200	29.958	0.101
91.300	27.073	0.101
91.400	38.724	0.101
91.500	27.486	0.101
91.600	24.002	0.101
91.700	36.497	0.101
91.800	30.604	0.101
91.900	32.897	0.101
92.000	34.245	0.101
92.100	23.996	0.101
92.200	25.993	0.101
92.300	17.925	0.101
92.400	22.567	0.101
92.500	27.895	0.101
92.600	30.491	0.101
92.700	5.383	0.101
92.800	11.095	0.101
92.900	15.365	0.101
93.000	33.374	0.101
93.100	10.994	0.101
93.200	14.782	0.101
93.300	28.579	0.101
93.400	17.488	0.101
93.500	17.605	0.101
93.600	22.952	0.101
93.700	18.815	0.101
93.800	31.073	0.101
93.900	25.146	0.101
94.000	10.609	0.101
94.100	18.584	0.101
94.200	18.387	0.101
94.300	22.389	0.101
94.400	9.615	0.101
94.500	19.690	0.101
94.600	17.488	0.101
94.700	17.422	0.101
94.800	6.112	0.101
94.900	4.589	0.101
95.000	14.393	0.101
95.100	24.315	0.101
95.200	22.299	0.101
95.300	18.038	0.101
95.400	17.412	0.101
95.500	14.184	0.101
95.600	9.921	0.101
95.700	22.907	0.101
95.800	29.646	0.101
95.900	5.014	0.101
96.000	15.179	0.101
96.100	11.613	0.101
96.200	24.173	0.101
96.300	18.637	0.101
96.400	17.197	0.101
96.500	5.490	0.101
96.600	5.735	0.101
96.700	14.787	0.101
96.800	15.717	0.101
96.900	4.695	0.101
97.000	32.173	0.101
97.100	9.594	0.101
97.200	5.111	0.101
97.300	19.490	0.101
97.400	11.190	0.101
97.500	13.207	0.101
97.600	19.433	0.101
97.700	16.882	0.101
97.800	13.082	0.101
97.900	26.985	0.101
98.000	12.534	0.101
98.100	1.959	0.101
98.200	18.011	0.101
98.300	20.036	0.101
98.400	-4.737	0.101
98.500	13.114	0.101
98.600	23.950	0.101
98.700	22.131	0.101
98.800	14.352	0.101
98.900	29.445	0.101
99.000	9.103	0.101
99.100	-0.971	0.101
99.200	11.558	0.101
99.300	11.111	0.101
99.400	15.567	0.101
99.500	6.777	0.101
99.600	11.511	0.101
99.700	11.952	0.101
99.800	28.650	0.101
99.900	-2.238	0.101
100.000	23.441	0.101
100.100	3.780	0.101
100.200	0.131	0.101
100.300	15.190	0.101
100.400	15.332	0.101
100.500	4.573	0.101
100.600	5.016	0.101
100.700	6.850	0.101
100.800	16.002	0.101
100.900	20.241	0.101
101.000	2.097	0.101
101.100	24.410	0.101
101.200	4.831	0.101
101.300	7.124	0.101
101.400	18.923	0.101
101.500	17.984	0.101
101.600	1.676	0.101
101.700	17.312	0.101
101.800	7.133	0.101
101.900	14.267	0.101
102.000	21.150	0.101
102.100	18.298	0.101
102.200	8.986	0.101
102.300	1.626	0.101
102.400	14.577	0.101
102.500	18.752	0.101
102.600	21.896	0.101
102.700	13.404	0.101
102.800	0.935	0.101
102.900	13.378	0.101
103.000	25.066	0.101
103.100	5.175	0.101
103.200	15.511	0.101
103.300	13.677	0.101
103.400	2.809	0.101
103.500	14.333	0.101
103.600	13.167	0.101
103.700	1.293	0.101
103.800	25.337	0.101
103.900	10.749	0.101
104.000	23.687	0.101
104.100	12.613	0.101
104.200	-5.350	0.101
104.300	12.795	0.101
104.400	5.005	0.101
104.500	14.176	0.101
104.600	4.011	0.101
104.700	4.306	0.101
104.800	15.649	0.101
104.900	12.431	0.101
105.000	21.184	0.101
105.100	24.569	0.101
105.200	8.639	0.101
105.300	7.996	0.101
105.400	6.031	0.101
105.500	2.524	0.101
105.600	11.896	0.101
105.700	12.790	0.101
105.800	9.951	0.101
105.900	12.088	0.101
106.000	14.850	0.101
106.100	6.831	0.101
106.200	1.619	0.101
106.300	16.122	0.101
106.400	13.870	0.101
106.500	10.638	0.101
106.600	16.841	0.101
106.700	5.559	0.101
106.800	3.082	0.101
106.900	12.193	0.101
107.000	2.161	0.101
107.100	-3.913	0.101
107.200	19.210	0.101
107.300	15.235	0.101
107.400	9.464	0.101
107.500	-1.027	0.101
107.600	11.226	0.101
107.700	11.409	0.101
107.800	7.392	0.101
107.900	11.392	0.101
108.000	-0.107	0.101
108.100	0.872	0.101
108.200	-14.574	0.101
108.300	16.019	0.101
108.400	23.673	0.101
108.500	10.894	0.101
108.600	0.617	0.101
108.700	15.128	0.101
108.800	24.453	0.101
108.900	-2.277	0.101
109.000	1.921	0.101
109.100	13.270	0.101
109.200	13.325	0.101
109.300	3.584	0.101
109.400	5.049	0.101
109.500	5.612	0.101
109.600	10.384	0.101
109.700	7.967	0.101
109.800	0.927	0.101
109.900	9.272	0.101
110.000	10.918	0.101
110.100	15.076	0.101
110.200	1.780	0.101
110.300	-4.938	0.101
110.400	17.618	0.101
110.500	5.470	0.101
110.600	13.844	0.101
110.700	6.957	0.101
110.800	7.968	0.101
110.900	0.073	0.101
111.000	6.146	0.101
111.100	6.352	0.101
111.200	6.719	0.101
111.300	-0.072	0.101
111.400	8.184	0.101
111.500	7.368	0.101
111.600	-0.688	0.101
111.700	-1.423	0.101
111.800	4.737	0.101
111.900	17.387	0.101
112.000	14.456	0.101
112.100	-0.774	0.101
112.200	-2.143	0.101
112.300	5.736	0.101
112.400	5.312	0.101
112.500	16.419	0.101
112.600	18.226	0.101
112.700	-1.231	0.101
112.800	-9.091	0.101
112.900	-2.992	0.101
113.000	0.654	0.101
113.100	0.786	0.101
113.200	0.584	0.101
113.300	-1.516	0.101
113.400	8.266	0.101
113.500	-9.081	0.101
113.600	3.887	0.101
113.700	11.598	0.101
113.800	11.665	0.101
113.900	-2.876	0.101
114.000	1.069	0.101
114.100	-13.093	0.101
114.200	-4.007	0.101
114.300	8.227	0.101
114.400	11.238	0.101
114.500	10.953	0.101
114.600	4.716	0.101
114.700	-5.311	0.101
114.800	-7.507	0.101
114.900	-2.952	0.101
115.000	2.097	0.101
115.100	14.141	0.101
115.200	6.570	0.101
115.300	7.133	0.101
115.400	0.391	0.101
115.500	0.096	0.101
115.600	-10.238	0.101
115.700	-0.124	0.101
115.800	-0.319	0.101
115.900	2.262	0.101
116.000	-8.765	0.101
116.100	11.048	0.101
116.200	-9.242	0.101
116.300	-5.775	0.101
116.400	0.522	0.101
116.500	2.131	0.101
116.600	-1.086	0.101
116.700	2.570	0.101
116.800	-2.789	0.101
116.900	11.852	0.101
117.000	9.065	0.101
117.100	-3.177	0.101
117.200	2.424	0.101
117.300	11.325	0.101
117.400	-13.370	0.101
117.500	7.679	0.101
117.600	8.152	0.101
117.700	-9.977	0.101
117.800	-2.474	0.101
117.900	5.529	0.101
118.000	-5.686	0.101
118.100	7.565	0.101
118.200	5.914	0.101
118.300	4.413	0.101
118.400	10.784	0.101
118.500	8.176	0.101
118.600	6.541	0.101
118.700	-13.167	0.101
118.800	7.765	0.101
118.900	11.593	0.101
119.000	-5.491	0.101
119.100	-8.250	0.101
119.200	1.494	0.101
119.300	3.624	0.101
119.400	9.977	0.101
119.500	2.638	0.101
119.600	10.742	0.101
119.700	4.550	0.101
119.800	-0.360	0.101
119.900	-9.598	0.101
120.000	5.269	0.101
120.100	-18.042	0.101
120.200	-7.537	0.101
120.300	17.049	0.101
120.400	-7.089	0.101
120.500	3.243	0.101
120.600	-0.339	0.101
120.700	-2.706	0.101
120.800	-0.875	0.101
120.900	9.567	0.101
121.000	1.046	0.101
121.100	-4.080	0.101
121.200	-9.436	0.101
121.300	1.311	0.101
121.400	8.802	0.101
121.500	-3.773	0.101
121.600	-8.204	0.101
121.700	3.320	0.101
121.800	18.446	0.101
121.900	-3.828	0.101
122.000	-4.802	0.101
122.100	-5.071	0.101
122.200	-3.977	0.101
122.300	-13.868	0.101
122.400	-9.550	0.101
122.500	-12.098	0.101
122.600	4.481	0.101
122.700	1.330	0.101
122.800	6.524	0.101
122.900	2.305	0.101
123.000	-20.201	0.101
123.100	-8.162	0.101
123.200	-14.494	0.101
123.300	4.897	0.101
123.400	0.759	0.101
123.500	-6.012	0.101
123.600	-7.789	0.101
123.700	-10.035	0.101
123.800	0.644	0.101
123.900	-4.569	0.101
124.000	-2.508	0.101
124.100	-9.936	0.101
124.200	10.711	0.101
124.300	3.565	0.101
124.400	-1.162	0.101
124.500	1.475	0.101
124.600	-4.685	0.101
124.700	1.757	0.101
124.800	-4.381	0.101
124.900	-4.115	0.101
125.000	-5.258	0.101
125.100	2.522	0.101
125.200	19.189	0.101
125.300	-15.799	0.101
125.400	-10.343	0.101
125.500	-8.859	0.101
125.600	-4.196	0.101
125.700	-6.437	0.101
125.800	-1.666	0.101
125.900	2.663	0.101
126.000	-2.351	0.101
126.100	-0.045	0.101
126.200	-1.636	0.101
126.300	4.775	0.101
126.400	-11.027	0.101
126.500	-9.503	0.101
126.600	-1.674	0.101
126.700	1.764	0.101
126.800	-2.272	0.101
126.900	-5.227	0.101
127.000	5.454	0.101
127.100	-0.348	0.101
127.200	-9.420	0.101
127.300	-5.507	0.101
127.400	-11.365	0.101
127.500	-9.449	0.101
127.600	-3.104	0.101
127.700	-1.483	0.101
127.800	-9.961	0.101
127.900	0.082	0.101
128.000	-16.081	0.101
128.100	-5.747	0.101
128.200	-16.844	0.101
128.300	1.736	0.101
128.400	-3.788	0.101
128.500	-7.790	0.101
128.600	-7.904	0.101
128.700	0.378	0.101
128.800	-6.453	0.101
128.900	-4.714	0.101
129.000	-2.186	0.101
129.100	-14.907	0.101
129.200	7.916	0.101
129.300	-5.354	0.101
129.400	-16.878	0.101
129.500	-9.523	0.101
129.600	-6.346	0.101
129.700	-8.474	0.101
129.800	7.550	0.101
129.900	-10.281	0.101
130.000	-7.089	0.101
130.100	-8.391	0.101
130.200	-20.891	0.101
130.300	-16.363	0.101
130.400	-0.762	0.101
130.500	-2.945	0.101
130.600	5.788	0.101
130.700	-7.202	0.101
130.800	-10.181	0.101
130.900	-8.971	0.101
131.000	-8.435	0.101
131.100	7.072	0.101
131.200	-10.424	0.101
131.300	-12.490	0.101
131.400	-2.954	0.101
131.500	-7.383	0.101
131.600	1.802	0.101
131.700	-12.268	0.101
131.800	6.246	0.101
131.900	-0.552	0.101
132.000	-4.913	0.101
132.100	-9.926	0.101
132.200	-1.994	0.101
132.300	-7.781	0.101
132.400	-2.822	0.101
132.500	-17.549	0.101
132.600	1.813	0.101
132.700	-5.798	0.101
132.800	-4.759	0.101
132.900	4.620	0.101
133.000	-9.370	0.101
133.100	-13.207	0.101
133.200	-4.917	0.101
133.300	-10.285	0.101
133.400	-10.169	0.101
133.500	-4.925	0.101
133.600	5.099	0.101
133.700	-7.145	0.101
133.800	-8.089	0.101
133.900	-15.314	0.101
134.000	1.992	0.101
134.100	-6.853	0.101
134.200	-16.361	0.101
134.300	-11.981	0.101
134.400	1.622	0.101
134.500	-6.936	0.101
134.600	-15.877	0.101
134.700	-10.554	0.101
134.800	-17.188	0.101
134.900	-2.260	0.101
135.000	-3.598	0.101
135.100	1.994	0.101
135.200	-11.675	0.101
135.300	-10.706	0.101
135.400	4.997	0.101
135.500	-2.236	0.101
135.600	-17.225	0.101
135.700	-2.724	0.101
135.800	-13.995	0.101
135.900	-15.659	0.101
136.000	-10.529	0.101
136.100	-10.890	0.101
136.200	-6.877	0.101
136.300	-10.604	0.101
136.400	-17.641	0.101
136.500	-17.050	0.101
136.600	-15.638	0.101
136.700	-8.529	0.101
136.800	-6.842	0.101
136.900	-18.945	0.101
137.000	-9.158	0.101
137.100	-8.122	0.101
137.200	-0.171	0.101
137.300	-8.540	0.101
137.400	-7.863	0.101
137.500	-5.159	0.101
137.600	-1.147	0.101
137.700	-14.701	0.101
137.800	-0.416	0.101
137.900	-19.270	0.101
138.000	-7.410	0.101
138.100	-1.526	0.101
138.200	-7.065	0.101
138.300	-16.102	0.101
138.400	-13.778	0.101
138.500	-2.692	0.101
138.600	-18.154	0.101
138.700	-9.174	0.101
138.800	-5.187	0.101
138.900	-7.690	0.101
139.000	-19.638	0.101
139.100	-7.633	0.101
139.200	7.053	0.101
139.300	-20.316	0.101
139.400	-2.496	0.101
139.500	-12.647	0.101
139.600	-19.018	0.101
139.700	-13.763	0.101
139.800	-5.616	0.101
139.900	-22.140	0.101
140.000	-7.331	0.101
140.100	-5.359	0.101
140.200	-13.436	0.101
140.300	-13.390	0.101
140.400	-3.153	0.101
140.500	-6.640	0.101
140.600	-13.904	0.101
140.700	-8.898	0.101
140.800	-14.509	0.101
140.900	-9.591	0.101
141.000	1.661	0.101
141.100	-8.632	0.101
141.200	-19.623	0.101
141.300	-6.592	0.101
141.400	-5.857	0.101
141.500	0.825	0.101
141.600	-1.301	0.101
141.700	-11.019	0.101
141.800	-17.805	0.101
141.900	-9.062	0.101
142.000	-15.927	0.101
142.100	-6.453	0.101
142.200	-7.475	0.101
142.300	-10.926	0.101
142.400	-7.446	0.101
142.500	-3.314	0.101
142.600	-13.503	0.101
142.700	-3.528	0.101
142.800	-14.528	0.101
142.900	-20.157	0.101
143.000	-7.932	0.101
143.100	3.056	0.101
143.200	-11.046	0.101
143.300	-10.639	0.101
143.400	-14.360	0.101
143.500	-6.581	0.101
143.600	-24.044	0.101
143.700	-11.795	0.101
143.800	-10.449	0.101
143.900	-8.773	0.101
144.000	-16.270	0.101
144.100	-7.633	0.101
144.200	-14.054	0.101
144.300	-8.157	0.101
144.400	7.404	0.101
144.500	-13.784	0.101
144.600	-17.808	0.101
144.700	-10.262	0.101
144.800	-7.718	0.101
144.900	-14.104	0.101
145.000	-14.563	0.101
145.100	-0.087	0.101
145.200	-4.480	0.101
145.300	-19.099	0.101
145.400	-16.141	0.101
145.500	-19.545	0.101
145.600	-11.717	0.101
145.700	-5.099	0.101
145.800	-5.503	0.101
145.900	-7.912	0.101
146.000	-11.018	0.101
146.100	-7.469	0.101
146.200	-8.104	0.101
146.300	-7.972	0.101
146.400	-15.611	0.101
146.500	-12.766	0.101
146.600	-13.900	0.101
146.700	-13.937	0.101
146.800	-16.931	0.101
146.900	-3.589	0.101
147.000	-15.979	0.101
147.100	-4.828	0.101
147.200	-5.548	0.101
147.300	-12.062	0.101
147.400	-14.330	0.101
147.500	-0.042	0.101
147.600	3.411	0.101
147.700	-15.058	0.101
147.800	0.410	0.101
147.900	-5.400	0.101
148.000	-15.204	0.101
148.100	-14.005	0.101
148.200	-18.667	0.101
148.300	1.646	0.101
148.400	-11.982	0.101
148.500	-2.455	0.101
148.600	-6.371	0.101
148.700	-9.977	0.101
148.800	-7.289	0.101
148.900	-7.943	0.101
149.000	-21.828	0.101
149.100	-18.650	0.101
149.200	-18.340	0.101
149.300	-17.854	0.101
149.400	-3.478	0.101
149.500	-3.852	0.101
149.600	-22.226	0.101
149.700	-11.431	0.101
149.800	4.563	0.101
149.900	-19.548	0.101
150.000	-7.222	0.101
150.100	-10.072	0.101
150.200	-5.017	0.101
150.300	-10.364	0.101
150.400	-27.063	0.101
150.500	-12.509	0.101
150.600	-16.604	0.101
150.700	-5.072	0.101
150.800	1.839	0.101
150.900	-19.990	0.101
151.000	-11.581	0.101
151.100	-12.390	0.101
151.200	-6.961	0.101
151.300	-10.055	0.101
151.400	-23.919	0.101
151.500	-7.508	0.101
151.600	-12.228	0.101
151.700	-19.625	0.101
151.800	-5.680	0.101
151.900	3.717	0.101
152.000	4.387	0.101
152.100	-8.858	0.101
152.200	-7.188	0.101
152.300	-15.389	0.101
152.400	-13.808	0.101
152.500	-25.882	0.101
152.600	-24.295	0.101
152.700	-8.855	0.101
152.800	-17.640	0.101
152.900	14.660	0.101
153.000	-12.491	0.101
153.100	-14.020	0.101
153.200	-17.885	0.101
153.300	-5.024	0.101
153.400	-13.725	0.101
153.500	-4.659	0.101
153.600	-4.636	0.101
153.700	-10.921	0.101
153.800	-8.078	0.101
153.900	-9.422	0.101
154.000	-4.256	0.101
154.100	0.924	0.101
154.200	-15.043	0.101
154.300	2.014	0.101
154.400	-15.869	0.101
154.500	-24.670	0.101
154.600	-16.786	0.101
154.700	-16.472	0.101
154.800	-5.300	0.101
154.900	-11.861	0.101
155.000	-13.263	0.101
155.100	-10.936	0.101
155.200	-7.780	0.101
155.300	2.892	0.101
155.400	2.510	0.101
155.500	-10.827	0.101
155.600	-14.811	0.101
155.700	-4.846	0.101
155.800	-10.688	0.101
155.900	-16.447	0.101
156.000	-5.226	0.101
156.100	-5.197	0.101
156.200	-17.480	0.101
156.300	-7.007	0.101
156.400	-2.388	0.101
156.500	-18.892	0.101
156.600	-2.713	0.101
156.700	-9.038	0.101
156.800	-9.480	0.101
156.900	-11.416	0.101
157.000	-2.169	0.101
157.100	-16.846	0.101
157.200	-6.004	0.101
157.300	-12.006	0.101
157.400	-16.051	0.101
157.500	-22.255	0.101
157.600	-11.810	0.101
157.700	-9.589	0.101
157.800	-1.761	0.101
157.900	-24.661	0.101
158.000	-17.021	0.101
158.100	-11.564	0.101
158.200	-3.031	0.101
158.300	-12.025	0.101
158.400	-9.946	0.101
158.500	-4.164	0.101
158.600	-13.053	0.101
158.700	-16.203	0.101
158.800	-19.108	0.101
158.900	-4.183	0.101
159.000	-21.202	0.101
159.100	-4.185	0.101
159.200	-6.594	0.101
159.300	-10.171	0.101
159.400	-12.678	0.101
159.500	-3.017	0.101
159.600	1.569	0.101
159.700	-0.407	0.101
159.800	-15.704	0.101
159.900	-6.702	0.101
160.000	-18.796	0.101
160.100	-22.119	0.101
160.200	-13.287	0.101
160.300	-7.943	0.101
160.400	-12.475	0.101
160.500	-9.637	0.101
160.600	-16.397	0.101
160.700	-11.959	0.101
160.800	-2.389	0.101
160.900	-19.232	0.101
161.000	-19.542	0.101
161.100	-15.678	0.101
161.200	-14.537	0.101
161.300	-8.809	0.101
161.400	-12.202	0.101
161.500	-9.710	0.101
161.600	-12.998	0.101
161.700	-9.438	0.101
161.800	-5.307	0.101
161.900	2.614	0.101
162.000	-7.198	0.101
162.100	-11.642	0.101
162.200	-17.240	0.101
162.300	-5.444	0.101
162.400	-13.709	0.101
162.500	-6.633	0.101
162.600	-3.296	0.101
162.700	-8.241	0.101
162.800	-16.566	0.101
162.900	-9.337	0.101
163.000	-3.332	0.101
163.100	-11.026	0.101
163.200	-4.449	0.101
163.300	-9.286	0.101
163.400	-7.194	0.101
163.500	-5.457	0.101
163.600	-11.204	0.101
163.700	-21.655	0.101
163.800	-2.868	0.101
163.900	-13.277	0.101
164.000	-10.600	0.101
164.100	-18.095	0.101
164.200	-15.333	0.101
164.300	-2.861	0.101
164.400	-13.596	0.101
164.500	-7.222	0.101
164.600	-14.397	0.101
164.700	-5.330	0.101
164.800	-8.528	0.101
164.900	-14.267	0.101
165.000	-10.644	0.101
165.100	2.074	0.101
165.200	-17.208	0.101
165.300	-13.261	0.101
165.400	-12.492	0.101
165.500	-18.789	0.101
165.600	-3.984	0.101
165.700	-16.074	0.101
165.800	-10.598	0.101
165.900	-15.994	0.101
166.000	-8.954	0.101
166.100	-9.655	0.101
166.200	-21.720	0.101
166.300	-10.524	0.101
166.400	-24.230	0.101
166.500	-9.349	0.101
166.600	-1.208	0.101
166.700	1.560	0.101
166.800	-14.575	0.101
166.900	-11.997	0.101
167.000	-11.765	0.101
167.100	-12.229	0.101
167.200	-13.058	0.101
167.300	-5.809	0.101
167.400	-13.646	0.101
167.500	-0.050	0.101
167.600	-25.720	0.101
167.700	-7.357	0.101
167.800	-23.633	0.101
167.900	-9.829	0.101
168.000	-7.625	0.101
168.100	-1.123	0.101
168.200	-10.405	0.101
168.300	-24.015	0.101
168.400	-5.244	0.101
168.500	-2.432	0.101
168.600	-3.703	0.101
168.700	-18.318	0.101
168.800	-12.673	0.101
168.900	-9.995	0.101
169.000	-11.680	0.101
169.100	-13.781	0.101
169.200	-20.867	0.101
169.300	-23.342	0.101
169.400	-23.372	0.101
169.500	-3.519	0.101
169.600	-10.643	0.101
169.700	-7.813	0.101
169.800	-3.577	0.101
169.900	-10.314	0.101
170.000	-12.094	0.101
170.100	0.349	0.101
170.200	-11.559	0.101
170.300	-16.543	0.101
170.400	-18.386	0.101
170.500	-3.730	0.101
170.600	-10.699	0.101
170.700	-20.712	0.101
170.800	-8.242	0.101
170.900	-5.318	0.101
171.000	-9.438	0.101
171.100	-22.427	0.101
171.200	-18.384	0.101
171.300	-8.694	0.101
171.400	-17.744	0.101
171.500	-27.047	0.101
171.600	-2.629	0.101
171.700	-11.077	0.101
171.800	-10.158	0.101
171.900	-15.241	0.101
172.000	-14.806	0.101
172.100	-12.340	0.101
172.200	-19.361	0.101
172.300	-3.927	0.101
172.400	-17.519	0.101
172.500	-17.856	0.101
172.600	-16.138	0.101
172.700	-13.803	0.101
172.800	-14.152	0.101
172.900	-9.817	0.101
173.000	-6.810	0.101
173.100	-15.129	0.101
173.200	-8.162	0.101
173.300	-1.859	0.101
173.400	-25.706	0.101
173.500	-20.294	0.101
173.600	-2.151	0.101
173.700	-16.758	0.101
173.800	-4.308	0.101
173.900	-14.361	0.101
174.000	-9.322	0.101
174.100	-9.422	0.101
174.200	-3.801	0.101
174.300	-2.228	0.101
174.400	-3.116	0.101
174.500	-20.036	0.101
174.600	-13.284	0.101
174.700	-18.640	0.101
174.800	-16.520	0.101
174.900	-16.385	0.101
175.000	-7.676	0.101
175.100	-2.706	0.101
175.200	-5.483	0.101
175.300	-13.294	0.101
175.400	-5.840	0.101
175.500	-11.196	0.101
175.600	-13.141	0.101
175.700	-20.351	0.101
175.800	-12.098	0.101
175.900	-27.368	0.101
176.000	-13.031	0.101
176.100	-4.001	0.101
176.200	-8.490	0.101
176.300	-29.464	0.101
176.400	-21.373	0.101
176.500	-8.100	0.101
176.600	-8.962	0.101
176.700	-7.070	0.101
176.800	-1.907	0.101
176.900	-15.442	0.101
177.000	-6.213	0.101
177.100	-11.156	0.101
177.200	-4.180	0.101
177.300	-17.974	0.101
177.400	0.509	0.101
177.500	-8.043	0.101
177.600	-6.446	0.101
177.700	-7.926	0.101
177.800	-9.289	0.101
177.900	-10.835	0.101
178.000	-19.114	0.101
178.100	-12.539	0.101
178.200	-10.296	0.101
178.300	-9.068	0.101
178.400	-13.942	0.101
178.500	-13.280	0.101
178.600	-14.643	0.101
178.700	-26.164	0.101
178.800	-6.569	0.101
178.900	-9.309	0.101
179.000	-11.757	0.101
179.100	-3.845	0.101
179.200	-21.738	0.101
179.300	-13.317	0.101
179.400	-3.513	0.101
179.500	-10.717	0.101
179.600	-13.463	0.101
179.700	-16.500	0.101
179.800	-13.628	0.101
179.900	-11.315	0.101
180.000	-8.793	0.101
180.100	-21.583	0.101
180.200	-16.353	0.101
180.300	-10.975	0.101
180.400	-4.065	0.101
180.500	-14.260	0.101
180.600	-15.343	0.101
180.700	-6.463	0.101
180.800	6.400	0.101
180.900	-9.890	0.101
181.000	-3.198	0.101
181.100	-3.229	0.101
181.200	-6.257	0.101
181.300	5.510	0.101
181.400	-1.842	0.101
181.500	-7.596	0.101
181.600	6.948	0.101
181.700	-10.669	0.101
181.800	-1.853	0.101
181.900	17.528	0.101
182.000	0.724	0.101
182.100	12.908	0.101
182.200	-0.459	0.101
182.300	13.569	0.101
182.400	-18.761	0.101
182.500	-0.646	0.101
182.600	-0.362	0.101
182.700	18.345	0.101
182.800	6.313	0.101
182.900	-0.900	0.101
183.000	1.065	0.101
183.100	-6.526	0.101
183.200	14.221	0.101
183.300	13.505	0.101
183.400	10.737	0.101
183.500	1.648	0.101
183.600	-2.436	0.101
183.700	4.002	0.101
183.800	-3.390	0.101
183.900	10.102	0.101
184.000	0.176	0.101
184.100	1.901	0.101
184.200	-1.060	0.101
184.300	9.457	0.101
184.400	-0.862	0.101
184.500	16.760	0.101
184.600	9.267	0.101
184.700	1.399	0.101
184.800	4.957	0.101
184.900	3.269	0.101
185.000	7.369	0.101
185.100	-1.843	0.101
185.200	5.331	0.101
185.300	6.188	0.101
185.400	0.526	0.101
185.500	13.680	0.101
185.600	5.118	0.101
185.700	12.100	0.101
185.800	-9.019	0.101
185.900	4.274	0.101
186.000	1.280	0.101
186.100	-0.029	0.101
186.200	15.663	0.101
186.300	14.341	0.101
186.400	-4.674	0.101
186.500	16.221	0.101
186.600	6.014	0.101
186.700	14.027	0.101
186.800	17.375	0.101
186.900	-4.267	0.101
187.000	5.202	0.101
187.100	11.821	0.101
187.200	-6.852	0.101
187.300	-2.270	0.101
187.400	14.257	0.101
187.500	15.654	0.101
187.600	17.656	0.101
187.700	1.388	0.101
187.800	8.006	0.101
187.900	4.861	0.101
188.000	2.805	0.101
188.100	11.150	0.101
188.200	7.031	0.101
188.300	-2.608	0.101
188.400	-2.003	0.101
188.500	-3.456	0.101
188.600	13.643	0.101
188.700	6.970	0.101
188.800	7.327	0.101
188.900	12.817	0.101
189.000	16.057	0.101
189.100	5.136	0.101
189.200	11.700	0.101
189.300	-6.168	0.101
189.400	9.354	0.101
189.500	17.256	0.101
189.600	7.593	0.101
189.700	2.627	0.101
189.800	9.901	0.101
189.900	8.645	0.101
190.000	5.466	0.101
190.100	7.682	0.101
190.200	4.046	0.101
190.300	12.946	0.101
190.400	12.475	0.101
190.500	13.878	0.101
190.600	11.956	0.101
190.700	16.869	0.101
190.800	17.669	0.101
190.900	0.801	0.101
191.000	15.438	0.101
191.100	25.516	0.101
191.200	0.451	0.101
191.300	-4.509	0.101
191.400	3.357	0.101
191.500	15.664	0.101
191.600	17.537	0.101
191.700	18.105	0.101
191.800	10.157	0.101
191.900	14.811	0.101
192.000	14.897	0.101
192.100	17.881	0.101
192.200	14.588	0.101
192.300	17.271	0.101
192.400	18.440	0.101
192.500	7.402	0.101
192.600	12.391	0.101
192.700	5.426	0.101
192.800	14.024	0.101
192.900	7.103	0.101
193.000	25.898	0.101
193.100	-1.024	0.101
193.200	9.613	0.101
193.300	22.764	0.101
193.400	30.348	0.101
193.500	9.820	0.101
193.600	9.740	0.101
193.700	17.262	0.101
193.800	11.652	0.101
193.900	16.975	0.101
194.000	22.059	0.101
194.100	28.984	0.101
194.200	2.523	0.101
194.300	17.910	0.101
194.400	17.873	0.101
194.500	15.450	0.101
194.600	19.546	0.101
194.700	4.175	0.101
194.800	14.755	0.101
194.900	22.410	0.101
195.000	24.732	0.101
195.100	11.298	0.101
195.200	26.596	0.101
195.300	17.448	0.101
195.400	1.234	0.101
195.500	10.345	0.101
195.600	16.918	0.101
195.700	20.449	0.101
195.800	21.768	0.101
195.900	8.157	0.101
196.000	13.478	0.101
196.100	21.990	0.101
196.200	6.697	0.101
196.300	18.239	0.101
196.400	19.143	0.101
196.500	28.970	0.101
196.600	14.324	0.101
196.700	15.009	0.101
196.800	13.938	0.101
196.900	24.052	0.101
197.000	4.601	0.101
197.100	8.919	0.101
197.200	16.753	0.101
197.300	16.161	0.101
197.400	19.682	0.101
197.500	19.317	0.101
197.600	11.011	0.101
197.700	18.141	0.101
197.800	24.241	0.101
197.900	22.577	0.101
198.000	13.763	0.101
198.100	12.244	0.101
198.200	19.323	0.101
198.300	14.120	0.101
198.400	27.033	0.101
198.500	15.444	0.101
198.600	17.362	0.101
198.700	15.341	0.101
198.800	18.436	0.101
198.900	24.860	0.101
199.000	25.363	0.101
199.100	15.873	0.101
199.200	25.929	0.101
199.300	13.576	0.101
199.400	23.711	0.101
199.500	18.136	0.101
199.600	29.725	0.101
199.700	23.022	0.101
199.800	22.540	0.101
199.900	20.727	0.101
200.000	17.339	0.101
200.100	19.390	0.101
200.200	13.237	0.101
200.300	23.801	0.101
200.400	24.426	0.101
200.500	18.996	0.101
200.600	15.074	0.101
200.700	23.349	0.101
200.800	14.509	0.101
200.900	18.232	0.101
201.000	16.919	0.101
201.100	22.124	0.101
201.200	19.021	0.101
201.300	25.392	0.101
201.400	14.163	0.101
201.500	22.442	0.101
201.600	14.960	0.101
201.700	20.914	0.101
201.800	37.882	0.101
201.900	30.348	0.101
202.000	12.612	0.101
202.100	23.134	0.101
202.200	30.158	0.101
202.300	19.521	0.101
202.400	34.440	0.101
202.500	24.969	0.101
202.600	26.367	0.101
202.700	31.881	0.101
202.800	10.978	0.101
202.900	12.052	0.101
203.000	27.206	0.101
203.100	20.218	0.101
203.200	28.176	0.101
203.300	22.414	0.101
203.400	21.384	0.101
203.500	26.311	0.101
203.600	28.005	0.101
203.700	25.446	0.101
203.800	18.406	0.101
203.900	23.795	0.101
204.000	23.033	0.101
204.100	17.901	0.101
204.200	22.704	0.101
204.300	27.950	0.101
204.400	18.227	0.101
204.500	39.052	0.101
204.600	20.580	0.101
204.700	32.774	0.101
204.800	29.459	0.101
204.900	14.229	0.101
205.000	19.952	0.101
205.100	34.887	0.101
205.200	19.637	0.101
205.300	40.539	0.101
205.400	36.764	0.101
205.500	17.989	0.101
205.600	23.694	0.101
205.700	32.889	0.101
205.800	29.792	0.101
205.900	26.849	0.101
206.000	15.065	0.101
206.100	24.476	0.101
206.200	10.441	0.101
206.300	18.855	0.101
206.400	23.810	0.101
206.500	14.954	0.101
206.600	12.709	0.101
206.700	30.441	0.101
206.800	28.027	0.101
206.900	23.065	0.101
207.000	41.409	0.101
207.100	37.094	0.101
207.200	18.767	0.101
207.300	14.503	0.101
207.400	21.646	0.101
207.500	25.386	0.101
207.600	26.320	0.101
207.700	33.442	0.101
207.800	25.322	0.101
207.900	20.528	0.101
208.000	32.639	0.101
208.100	23.400	0.101
208.200	38.229	0.101
208.300	22.093	0.101
208.400	20.010	0.101
208.500	26.545	0.101
208.600	31.413	0.101
208.700	30.638	0.101
208.800	32.922	0.101
208.900	14.117	0.101
209.000	15.925	0.101
209.100	22.256	0.101
209.200	48.790	0.101
209.300	37.051	0.101
209.400	19.657	0.101
209.500	22.543	0.101
209.600	31.512	0.101
209.700	36.961	0.101
209.800	28.268	0.101
209.900	36.480	0.101
210.000	34.900	0.101
210.100	37.510	0.101
210.200	27.510	0.101
210.300	27.343	0.101
210.400	13.699	0.101
210.500	33.531	0.101
210.600	21.374	0.101
210.700	23.450	0.101
210.800	25.772	0.101
210.900	41.435	0.101
211.000	26.153	0.101
211.100	36.120	0.101
211.200	25.821	0.101
211.300	43.954	0.101
211.400	28.356	0.101
211.500	32.398	0.101
211.600	27.763	0.101
211.700	29.594	0.101
211.800	27.199	0.101
211.900	27.351	0.101
212.000	28.313	0.101
212.100	36.389	0.101
212.200	31.353	0.101
212.300	31.668	0.101
212.400	31.241	0.101
212.500	24.490	0.101
212.600	29.729	0.101
212.700	42.551	0.101
212.800	21.826	0.101
212.900	19.024	0.101
213.000	22.744	0.101
213.100	22.963	0.101
213.200	34.911	0.101
213.300	35.830	0.101
213.400	27.639	0.101
213.500	37.259	0.101
213.600	27.154	0.101
213.700	45.060	0.101
213.800	17.494	0.101
213.900	24.661	0.101
214.000	24.731	0.101
214.100	39.420	0.101
214.200	39.794	0.101
214.300	24.453	0.101
214.400	32.812	0.101
214.500	38.413	0.101
214.600	26.478	0.101
214.700	27.518	0.101
214.800	37.807	0.101
214.900	36.190	0.101
215.000	36.666	0.101
215.100	42.190	0.101
215.200	24.201	0.101
215.300	16.941	0.101
215.400	32.398	0.101
215.500	30.757	0.101
215.600	32.737	0.101
215.700	46.268	0.101
215.800	38.874	0.101
215.900	37.092	0.101
216.000	35.457	0.101
216.100	23.014	0.101
216.200	36.003	0.101
216.300	24.769	0.101
216.400	30.058	0.101
216.500	31.205	0.101
216.600	29.318	0.101
216.700	24.403	0.101
216.800	37.623	0.101
216.900	29.318	0.101
217.000	42.490	0.101
217.100	30.862	0.101
217.200	25.173	0.101
217.300	29.111	0.101
217.400	33.208	0.101
217.500	37.170	0.101
217.600	39.682	0.101
217.700	43.975	0.101
217.800	29.191	0.101
217.900	28.152	0.101
218.000	40.058	0.101
218.100	31.395	0.101
218.200	23.320	0.101
218.300	35.811	0.101
218.400	43.759	0.101
218.500	34.303	0.101
218.600	25.393	0.101
218.700	31.492	0.101
218.800	24.684	0.101
218.900	45.422	0.101
219.000	26.971	0.101
219.100	37.289	0.101
219.200	37.624	0.101
219.300	41.756	0.101
219.400	22.801	0.101
219.500	26.198	0.101
219.600	32.067	0.101
219.700	37.003	0.101
219.800	51.847	0.101
219.900	49.049	0.101
220.000	36.453	0.101
220.100	34.010	0.101
220.200	22.263	0.101
220.300	30.741	0.101
220.400	28.860	0.101
220.500	37.419	0.101
220.600	30.454	0.101
220.700	27.333	0.101
220.800	29.592	0.101
220.900	39.331	0.101
221.000	26.326	0.101
221.100	33.873	0.101
221.200	39.486	0.101
221.300	32.381	0.101
221.400	28.180	0.101
221.500	40.762	0.101
221.600	23.262	0.101
221.700	34.595	0.101
221.800	25.438	0.101
221.900	44.273	0.101
222.000	35.008	0.101
222.100	48.493	0.101
222.200	37.141	0.101
222.300	43.674	0.101
222.400	49.438	0.101
222.500	31.029	0.101
222.600	20.747	0.101
222.700	52.412	0.101
222.800	32.778	0.101
222.900	42.071	0.101
223.000	49.054	0.101
223.100	32.406	0.101
223.200	36.750	0.101
223.300	33.389	0.101
223.400	47.813	0.101
223.500	49.936	0.101
223.600	41.643	0.101
223.700	20.119	0.101
223.800	27.476	0.101
223.900	26.884	0.101
224.000	34.955	0.101
224.100	38.265	0.101
224.200	41.900	0.101
224.300	36.609	0.101
224.400	44.667	0.101
224.500	31.522	0.101
224.600	37.704	0.101
224.700	41.757	0.101
224.800	24.383	0.101
224.900	51.971	0.101
225.000	37.635	0.101
225.100	40.592	0.101
225.200	20.424	0.101
225.300	44.688	0.101
225.400	33.413	0.101
225.500	49.146	0.101
225.600	33.588	0.101
225.700	26.478	0.101
225.800	25.485	0.101
225.900	32.149	0.101
226.000	40.186	0.101
226.100	55.088	0.101
226.200	43.758	0.101
226.300	30.092	0.101
226.400	30.113	0.101
226.500	25.717	0.101
226.600	29.926	0.101
226.700	44.051	0.101
226.800	46.843	0.101
226.900	46.910	0.101
227.000	37.253	0.101
227.100	28.621	0.101
227.200	50.779	0.101
227.300	47.758	0.101
227.400	33.042	0.101
227.500	40.170	0.101
227.600	34.884	0.101
227.700	45.971	0.101
227.800	36.458	0.101
227.900	27.170	0.101
228.000	34.197	0.101
228.100	20.141	0.101
228.200	45.852	0.101
228.300	37.577	0.101
228.400	38.838	0.101
228.500	34.095	0.101
228.600	48.893	0.101
228.700	31.551	0.101
228.800	44.387	0.101
228.900	46.102	0.101
229.000	40.865	0.101
229.100	30.916	0.101
229.200	48.925	0.101
229.300	30.855	0.101
229.400	35.756	0.101
229.500	25.963	0.101
229.600	40.783	0.101
229.700	38.695	0.101
229.800	30.495	0.101
229.900	43.975	0.101
230.000	45.273	0.101
230.100	30.378	0.101
230.200	42.321	0.101
230.300	44.505	0.101
230.400	30.478	0.101
230.500	43.431	0.101
230.600	38.408	0.101
230.700	44.878	0.101
230.800	44.440	0.101
230.900	26.254	0.101
231.000	35.883	0.101
231.100	34.527	0.101
231.200	32.949	0.101
231.300	47.377	0.101
231.400	32.362	0.101
231.500	39.993	0.101
231.600	49.233	0.101
231.700	43.443	0.101
231.800	38.208	0.101
231.900	44.366	0.101
232.000	41.795	0.101
232.100	31.748	0.101
232.200	37.342	0.101
232.300	46.391	0.101
232.400	49.273	0.101
232.500	42.584	0.101
232.600	40.576	0.101
232.700	36.637	0.101
232.800	38.938	0.101
232.900	29.837	0.101
233.000	39.909	0.101
233.100	38.004	0.101
233.200	37.817	0.101
233.300	39.401	0.101
233.400	38.461	0.101
233.500	24.162	0.101
233.600	36.429	0.101
233.700	31.649	0.101
233.800	40.866	0.101
233.900	38.776	0.101
234.000	28.598	0.101
234.100	38.124	0.101
234.200	48.886	0.101
234.300	42.936	0.101
234.400	41.440	0.101
234.500	38.290	0.101
234.600	45.437	0.101
234.700	33.144	0.101
234.800	35.376	0.101
234.900	43.263	0.101
235.000	39.049	0.101
235.100	46.174	0.101
235.200	35.753	0.101
235.300	25.295	0.101
235.400	36.396	0.101
235.500	43.967	0.101
235.600	40.875	0.101
235.700	40.356	0.101
235.800	56.499	0.101
235.900	32.600	0.101
236.000	39.517	0.101
236.100	48.112	0.101
236.200	32.545	0.101
236.300	44.013	0.101
236.400	46.858	0.101
236.500	33.826	0.101
236.600	28.886	0.101
236.700	35.537	0.101
236.800	43.687	0.101
236.900	49.417	0.101
237.000	42.063	0.101
237.100	31.559	0.101
237.200	51.327	0.101
237.300	33.252	0.101
237.400	44.323	0.101
237.500	33.297	0.101
237.600	43.211	0.101
237.700	51.924	0.101
237.800	34.313	0.101
237.900	38.692	0.101
238.000	36.069	0.101
238.100	41.783	0.101
238.200	29.312	0.101
238.300	36.174	0.101
238.400	49.004	0.101
238.500	42.736	0.101
238.600	34.205	0.101
238.700	41.216	0.101
238.800	42.802	0.101
238.900	34.839	0.101
239.000	32.185	0.101
239.100	47.767	0.101
239.200	35.116	0.101
239.300	34.254	0.101
239.400	42.871	0.101
239.500	53.600	0.101
239.600	36.859	0.101
239.700	39.188	0.101
239.800	35.129	0.101
239.900	42.040	0.101
240.000	42.822	0.101
240.100	41.484	0.101
240.200	44.595	0.101
240.300	33.619	0.101
240.400	35.691	0.101
240.500	34.806	0.101
240.600	38.933	0.101
240.700	40.001	0.101
240.800	33.701	0.101
240.900	28.741	0.101
241.000	30.765	0.101
241.100	25.606	0.101
241.200	34.535	0.101
241.300	29.582	0.101
241.400	33.360	0.101
241.500	27.024	0.101
241.600	29.439	0.101
241.700	28.138	0.101
241.800	21.590	0.101
241.900	28.367	0.101
242.000	28.620	0.101
242.100	31.332	0.101
242.200	27.931	0.101
242.300	36.391	0.101
242.400	19.708	0.101
242.500	16.028	0.101
242.600	27.007	0.101
242.700	10.440	0.101
242.800	21.398	0.101
242.900	23.016	0.101
243.000	13.097	0.101
243.100	17.633	0.101
243.200	29.291	0.101
243.300	20.457	0.101
243.400	27.912	0.101
243.500	27.437	0.101
243.600	26.677	0.101
243.700	16.955	0.101
243.800	17.522	0.101
243.900	21.205	0.101
244.000	22.710	0.101
244.100	28.910	0.101
244.200	31.364	0.101
244.300	13.677	0.101
244.400	12.972	0.101
244.500	7.274	0.101
244.600	21.670	0.101
244.700	15.804	0.101
244.800	17.825	0.101
244.900	10.347	0.101
245.000	23.802	0.101
245.100	14.745	0.101
245.200	17.484	0.101
245.300	23.755	0.101
245.400	38.390	0.101
245.500	19.862	0.101
245.600	18.343	0.101
245.700	15.825	0.101
245.800	20.112	0.101
245.900	25.411	0.101
246.000	14.330	0.101
246.100	16.140	0.101
246.200	19.640	0.101
246.300	9.191	0.101
246.400	17.386	0.101
246.500	25.032	0.101
246.600	26.004	0.101
246.700	16.945	0.101
246.800	19.194	0.101
246.900	18.370	0.101
247.000	13.484	0.101
247.100	19.818	0.101
247.200	23.364	0.101
247.300	25.486	0.101
247.400	18.235	0.101
247.500	18.972	0.101
247.600	16.098	0.101
247.700	13.389	0.101
247.800	14.091	0.101
247.900	30.750	0.101
248.000	10.391	0.101
248.100	10.293	0.101
248.200	19.724	0.101
248.300	12.323	0.101
248.400	12.998	0.101
248.500	4.491	0.101
248.600	11.205	0.101
248.700	10.530	0.101
248.800	28.912	0.101
248.900	15.350	0.101
249.000	17.657	0.101
249.100	20.105	0.101
249.200	16.194	0.101
249.300	8.109	0.101
249.400	25.085	0.101
249.500	11.813	0.101
249.600	12.288	0.101
249.700	15.260	0.101
249.800	14.405	0.101
249.900	24.312	0.101
250.000	30.119	0.101
250.100	-0.578	0.101
250.200	17.104	0.101
250.300	13.276	0.101
250.400	20.404	0.101
250.500	15.285	0.101
250.600	24.807	0.101
250.700	19.060	0.101
250.800	7.901	0.101
250.900	20.546	0.101
251.000	14.010	0.101
251.100	7.227	0.101
251.200	26.499	0.101
251.300	16.441	0.101
251.400	20.286	0.101
251.500	7.366	0.101
251.600	2.420	0.101
251.700	13.188	0.101
251.800	19.670	0.101
251.900	14.532	0.101
252.000	19.904	0.101
252.100	16.377	0.101
252.200	1.671	0.101
252.300	10.039	0.101
252.400	6.189	0.101
252.500	29.212	0.101
252.600	15.637	0.101
252.700	9.737	0.101
252.800	7.697	0.101
252.900	10.345	0.101
253.000	4.508	0.101
253.100	10.234	0.101
253.200	4.867	0.101
253.300	7.066	0.101
253.400	11.655	0.101
253.500	17.344	0.101
253.600	19.756	0.101
253.700	14.097	0.101
253.800	11.613	0.101
253.900	16.654	0.101
254.000	8.872	0.101
254.100	3.995	0.101
254.200	11.983	0.101
254.300	-0.593	0.101
254.400	20.454	0.101
254.500	11.829	0.101
254.600	11.688	0.101
254.700	9.102	0.101
254.800	18.679	0.101
254.900	9.488	0.101
255.000	22.986	0.101
255.100	3.699	0.101
255.200	9.769	0.101
255.300	27.208	0.101
255.400	21.095	0.101
255.500	-14.986	0.101
255.600	19.621	0.101
255.700	5.948	0.101
255.800	14.618	0.101
255.900	19.748	0.101
256.000	11.114	0.101
256.100	14.695	0.101
256.200	7.853	0.101
256.300	7.943	0.101
256.400	8.518	0.101
256.500	18.599	0.101
256.600	24.164	0.101
256.700	4.156	0.101
256.800	20.637	0.101
256.900	18.947	0.101
257.000	-1.883	0.101
257.100	17.224	0.101
257.200	11.283	0.101
257.300	-0.769	0.101
257.400	13.726	0.101
257.500	15.979	0.101
257.600	11.144	0.101
257.700	8.134	0.101
257.800	-4.272	0.101
257.900	11.102	0.101
258.000	-4.398	0.101
258.100	2.790	0.101
258.200	15.403	0.101
258.300	10.755	0.101
258.400	1.185	0.101
258.500	9.929	0.101
258.600	9.654	0.101
258.700	5.215	0.101
258.800	6.257	0.101
258.900	16.424	0.101
259.000	12.440	0.101
259.100	15.156	0.101
259.200	-2.112	0.101
259.300	-5.325	0.101
259.400	15.023	0.101
259.500	2.420	0.101
259.600	24.497	0.101
259.700	17.801	0.101
259.800	19.886	0.101
259.900	-13.540	0.101
260.000	21.885	0.101
260.100	6.190	0.101
260.200	-0.167	0.101
260.300	18.938	0.101
260.400	4.183	0.101
260.500	17.020	0.101
260.600	-1.793	0.101
260.700	9.784	0.101
260.800	-0.632	0.101
260.900	15.332	0.101
261.000	7.563	0.101
261.100	15.168	0.101
261.200	1.179	0.101
261.300	-2.531	0.101
261.400	-9.466	0.101
261.500	-2.878	0.101
261.600	4.154	0.101
261.700	11.270	0.101
261.800	20.186	0.101
261.900	8.480	0.101
262.000	-1.370	0.101
262.100	14.754	0.101
262.200	-0.122	0.101
262.300	0.297	0.101
262.400	8.793	0.101
262.500	13.943	0.101
262.600	2.286	0.101
262.700	-6.007	0.101
262.800	1.661	0.101
262.900	14.433	0.101
263.000	6.432	0.101
263.100	2.532	0.101
263.200	5.165	0.101
263.300	19.390	0.101
263.400	-0.754	0.101
263.500	4.562	0.101
263.600	13.703	0.101
263.700	5.203	0.101
263.800	-2.601	0.101
263.900	6.601	0.101
264.000	4.700	0.101
264.100	3.872	0.101
264.200	1.613	0.101
264.300	5.225	0.101
264.400	-2.086	0.101
264.500	7.595	0.101
264.600	-3.376	0.101
264.700	20.429	0.101
264.800	10.011	0.101
264.900	-1.498	0.101
265.000	2.231	0.101
265.100	4.267	0.101
265.200	10.428	0.101
265.300	17.604	0.101
265.400	-9.689	0.101
265.500	4.973	0.101
265.600	0.384	0.101
265.700	-0.243	0.101
265.800	19.232	0.101
265.900	-6.351	0.101
266.000	2.113	0.101
266.100	11.799	0.101
266.200	1.899	0.101
266.300	-14.834	0.101
266.400	12.193	0.101
266.500	-2.405	0.101
266.600	2.303	0.101
266.700	-7.683	0.101
266.800	1.810	0.101
266.900	-12.897	0.101
267.000	-3.221	0.101
267.100	4.612	0.101
267.200	-6.542	0.101
267.300	-3.779	0.101
267.400	12.900	0.101
267.500	9.684	0.101
267.600	2.323	0.101
267.700	4.293	0.101
267.800	0.095	0.101
267.900	-0.634	0.101
268.000	-2.697	0.101
268.100	5.140	0.101
268.200	-11.787	0.101
268.300	-5.846	0.101
268.400	5.164	0.101
268.500	-2.033	0.101
268.600	-4.730	0.101
268.700	2.700	0.101
268.800	-4.467	0.101
268.900	-10.969	0.101
269.000	7.949	0.101
269.100	1.239	0.101
269.200	-11.463	0.101
269.300	-5.011	0.101
269.400	-7.581	0.101
269.500	0.908	0.101
269.600	5.348	0.101
269.700	-2.789	0.101
269.800	-6.662	0.101
269.900	-2.008	0.101
270.000	-5.471	0.101
270.100	-10.144	0.101
270.200	7.384	0.101
270.300	-6.960	0.101
270.400	-4.209	0.101
270.500	-5.074	0.101
270.600	6.107	0.101
270.700	4.466	0.101
270.800	-8.590	0.101
270.900	-4.351	0.101
271.000	10.764	0.101
271.100	0.906	0.101
271.200	-2.156	0.101
271.300	-3.548	0.101
271.400	-7.840	0.101
271.500	-7.667	0.101
271.600	-10.869	0.101
271.700	15.390	0.101
271.800	-6.575	0.101
271.900	-9.280	0.101
272.000	-2.641	0.101
272.100	-4.671	0.101
272.200	0.931	0.101
272.300	1.956	0.101
272.400	-0.269	0.101
272.500	-14.370	0.101
272.600	-0.426	0.101
272.700	-7.758	0.101
272.800	3.847	0.101
272.900	-5.492	0.101
273.000	5.548	0.101
273.100	-3.050	0.101
273.200	-4.642	0.101
273.300	-11.545	0.101
273.400	-3.193	0.101
273.500	-7.541	0.101
273.600	-10.975	0.101
273.700	-5.077	0.101
273.800	2.597	0.101
273.900	-11.536	0.101
274.000	-8.024	0.101
274.100	-5.641	0.101
274.200	1.473	0.101
274.300	-3.598	0.101
274.400	1.828	0.101
274.500	-9.509	0.101
274.600	-10.255	0.101
274.700	4.083	0.101
274.800	-0.605	0.101
274.900	-6.690	0.101
275.000	-5.404	0.101
275.100	-5.166	0.101
275.200	-4.015	0.101
275.300	13.611	0.101
275.400	5.042	0.101
275.500	1.815	0.101
275.600	-10.632	0.101
275.700	-15.175	0.101
275.800	2.172	0.101
275.900	-9.492	0.101
276.000	-8.697	0.101
276.100	-11.614	0.101
276.200	-11.747	0.101
276.300	1.500	0.101
276.400	-5.807	0.101
276.500	-0.889	0.101
276.600	-6.135	0.101
276.700	-9.784	0.101
276.800	-14.159	0.101
276.900	-9.161	0.101
277.000	19.062	0.101
277.100	-8.490	0.101
277.200	-9.037	0.101
277.300	2.671	0.101
277.400	-17.174	0.101
277.500	3.967	0.101
277.600	-10.444	0.101
277.700	-6.248	0.101
277.800	-3.559	0.101
277.900	3.357	0.101
278.000	-6.222	0.101
278.100	-3.834	0.101
278.200	0.104	0.101
278.300	4.584	0.101
278.400	-13.025	0.101
278.500	-18.258	0.101
278.600	-9.743	0.101
278.700	-8.616	0.101
278.800	-14.456	0.101
278.900	-2.745	0.101
279.000	-8.805	0.101
279.100	-13.754	0.101
279.200	-14.650	0.101
279.300	-12.925	0.101
279.400	-13.587	0.101
279.500	-17.046	0.101
279.600	-12.340	0.101
279.700	3.863	0.101
279.800	6.076	0.101
279.900	-19.205	0.101
280.000	-6.082	0.101
280.100	-26.482	0.101
280.200	-1.723	0.101
280.300	-5.275	0.101
280.400	-4.652	0.101
280.500	-12.057	0.101
280.600	-9.717	0.101
280.700	-7.443	0.101
280.800	-8.489	0.101
280.900	-5.646	0.101
281.000	-5.915	0.101
281.100	-17.871	0.101
281.200	-14.721	0.101
281.300	-5.142	0.101
281.400	-21.367	0.101
281.500	12.652	0.101
281.600	-6.052	0.101
281.700	-8.486	0.101
281.800	-3.703	0.101
281.900	-16.971	0.101
282.000	-11.791	0.101
282.100	-6.948	0.101
282.200	3.182	0.101
282.300	-12.195	0.101
282.400	-0.719	0.101
282.500	-5.467	0.101
282.600	-3.175	0.101
282.700	-9.245	0.101
282.800	-9.326	0.101
282.900	-2.967	0.101
283.000	-11.114	0.101
283.100	-20.209	0.101
283.200	-18.148	0.101
283.300	-4.681	0.101
283.400	-3.774	0.101
283.500	-3.273	0.101
283.600	-16.539	0.101
283.700	-11.674	0.101
283.800	-5.293	0.101
283.900	-17.095	0.101
284.000	-5.274	0.101
284.100	-0.634	0.101
284.200	0.358	0.101
284.300	-9.863	0.101
284.400	-22.970	0.101
284.500	-13.478	0.101
284.600	0.503	0.101
284.700	-16.288	0.101
284.800	-7.844	0.101
284.900	-18.626	0.101
285.000	-11.654	0.101
285.100	-11.275	0.101
285.200	-0.964	0.101
285.300	-9.847	0.101
285.400	-12.485	0.101
285.500	-3.864	0.101
285.600	-4.304	0.101
285.700	-17.993	0.101
285.800	-12.306	0.101
285.900	-10.776	0.101
286.000	-14.641	0.101
286.100	-1.108	0.101
286.200	-10.308	0.101
286.300	3.793	0.101
286.400	-3.396	0.101
286.500	-13.833	0.101
286.600	-0.317	0.101
286.700	-11.274	0.101
286.800	-16.899	0.101
286.900	-12.733	0.101
287.000	-3.180	0.101
287.100	-7.827	0.101
287.200	-1.203	0.101
287.300	-15.013	0.101
287.400	-12.125	0.101
287.500	-7.956	0.101
287.600	-16.044	0.101
287.700	-7.286	0.101
287.800	-21.525	0.101
287.900	-14.232	0.101
288.000	1.774	0.101
288.100	-10.143	0.101
288.200	-24.745	0.101
288.300	-24.110	0.101
288.400	-8.259	0.101
288.500	-7.953	0.101
288.600	-14.514	0.101
288.700	3.390	0.101
288.800	3.601	0.101
288.900	-12.820	0.101
289.000	4.751	0.101
289.100	-11.190	0.101
289.200	-17.390	0.101
289.300	-15.016	0.101
289.400	-15.258	0.101
289.500	-7.100	0.101
289.600	-2.343	0.101
289.700	-15.119	0.101
289.800	-18.579	0.101
289.900	-8.577	0.101
290.000	-1.960	0.101
290.100	-5.872	0.101
290.200	-10.553	0.101
290.300	-6.371	0.101
290.400	-11.774	0.101
290.500	-12.330	0.101
290.600	-7.440	0.101
290.700	-0.995	0.101
290.800	-12.365	0.101
290.900	-16.172	0.101
291.000	-10.209	0.101
291.100	-14.779	0.101
291.200	-3.758	0.101
291.300	-12.775	0.101
291.400	5.009	0.101
291.500	-6.861	0.101
291.600	-15.346	0.101
291.700	-25.296	0.101
291.800	-14.242	0.101
291.900	-17.792	0.101
292.000	1.719	0.101
292.100	-9.701	0.101
292.200	-13.681	0.101
292.300	-3.304	0.101
292.400	-15.431	0.101
292.500	-20.612	0.101
292.600	-3.158	0.101
292.700	-14.666	0.101
292.800	-14.231	0.101
292.900	-16.464	0.101
293.000	-10.277	0.101
293.100	-11.361	0.101
293.200	-2.395	0.101
293.300	-5.193	0.101
293.400	-0.136	0.101
293.500	-6.987	0.101
293.600	-18.924	0.101
293.700	-14.030	0.101
293.800	-18.687	0.101
293.900	-9.061	0.101
294.000	-8.076	0.101
294.100	-30.547	0.101
294.200	-11.406	0.101
294.300	-2.474	0.101
294.400	-22.814	0.101
294.500	-7.765	0.101
294.600	-1.338	0.101
294.700	-9.028	0.101
294.800	-15.181	0.101
294.900	-16.567	0.101
295.000	-7.407	0.101
295.100	-4.893	0.101
295.200	-3.309	0.101
295.300	-9.468	0.101
295.400	-15.914	0.101
295.500	-6.087	0.101
295.600	-9.960	0.101
295.700	-2.057	0.101
295.800	-20.696	0.101
295.900	-11.178	0.101
296.000	-8.326	0.101
296.100	-5.718	0.101
296.200	-25.371	0.101
296.300	-16.707	0.101
296.400	-9.008	0.101
296.500	-5.708	0.101
296.600	-1.267	0.101
296.700	-6.958	0.101
296.800	-21.548	0.101
296.900	-21.938	0.101
297.000	-16.952	0.101
297.100	-7.994	0.101
297.200	12.579	0.101
297.300	-23.903	0.101
297.400	-7.621	0.101
297.500	-7.304	0.101
297.600	-2.031	0.101
297.700	-22.139	0.101
297.800	-7.938	0.101
297.900	-10.797	0.101
298.000	-1.141	0.101
298.100	-17.517	0.101
298.200	-1.169	0.101
298.300	-0.583	0.101
298.400	-30.645	0.101
298.500	-5.984	0.101
298.600	-20.223	0.101
298.700	-3.853	0.101
298.800	-5.754	0.101
298.900	-21.761	0.101
299.000	-5.209	0.101
299.100	-17.413	0.101
299.200	-13.931	0.101
299.300	-18.028	0.101
299.400	-0.133	0.101
299.500	-0.083	0.101
299.600	-4.780	0.101
299.700	-13.804	0.101
299.800	-13.860	0.101
299.900	-10.100	0.101
300.000	-14.560	0.101
300.100	-31.102	0.101
300.200	-17.809	0.101
300.300	-7.132	0.101
300.400	-14.625	0.101
300.500	-11.055	0.101
300.600	-7.883	0.101
300.700	-20.555	0.101
300.800	-9.088	0.101
300.900	-17.569	0.101
301.000	-16.563	0.101
301.100	-3.279	0.101
301.200	-13.637	0.101
301.300	-9.375	0.101
301.400	-8.130	0.101
301.500	-15.086	0.101
301.600	-9.780	0.101
301.700	-10.905	0.101
301.800	-11.095	0.101
301.900	-12.940	0.101
302.000	-15.874	0.101
302.100	-5.269	0.101
302.200	-5.082	0.101
302.300	-13.497	0.101
302.400	-19.318	0.101
302.500	-10.388	0.101
302.600	-10.974	0.101
302.700	-14.550	0.101
302.800	-23.270	0.101
302.900	-2.426	0.101
303.000	-3.615	0.101
303.100	-29.822	0.101
303.200	-6.986	0.101
303.300	-9.814	0.101
303.400	-9.679	0.101
303.500	-8.073	0.101
303.600	-3.587	0.101
303.700	-7.013	0.101
303.800	-15.547	0.101
303.900	-14.723	0.101
304.000	-11.265	0.101
304.100	-20.050	0.101
304.200	-19.543	0.101
304.300	-17.838	0.101
304.400	-11.429	0.101
304.500	-9.074	0.101
304.600	-2.867	0.101
304.700	-11.267	0.101
304.800	-18.297	0.101
304.900	-11.403	0.101
305.000	-2.349	0.101
305.100	-13.139	0.101
305.200	-10.667	0.101
305.300	-8.138	0.101
305.400	-18.498	0.101
305.500	-21.816	0.101
305.600	-17.634	0.101
305.700	-7.571	0.101
305.800	-9.880	0.101
305.900	-9.702	0.101
306.000	-16.191	0.101
306.100	-9.542	0.101
306.200	1.502	0.101
306.300	-9.646	0.101
306.400	-6.804	0.101
306.500	-9.575	0.101
306.600	-12.089	0.101
306.700	-12.999	0.101
306.800	-10.608	0.101
306.900	-19.802	0.101
307.000	-12.538	0.101
307.100	-5.459	0.101
307.200	-9.049	0.101
307.300	-9.991	0.101
307.400	-9.408	0.101
307.500	-9.323	0.101
307.600	-0.473	0.101
307.700	-12.988	0.101
307.800	-13.752	0.101
307.900	-14.347	0.101
308.000	-8.603	0.101
308.100	-8.834	0.101
308.200	-25.613	0.101
308.300	-27.421	0.101
308.400	-2.731	0.101
308.500	-20.553	0.101
308.600	-9.968	0.101
308.700	-5.571	0.101
308.800	-11.146	0.101
308.900	-16.167	0.101
309.000	-10.799	0.101
309.100	-15.306	0.101
309.200	-23.003	0.101
309.300	-19.191	0.101
309.400	-8.232	0.101
309.500	-9.775	0.101
309.600	-12.061	0.101
309.700	-16.926	0.101
309.800	-4.410	0.101
309.900	-6.455	0.101
310.000	-28.688	0.101
310.100	-11.295	0.101
310.200	-4.093	0.101
310.300	-5.475	0.101
310.400	-13.604	0.101
310.500	-17.450	0.101
310.600	-11.951	0.101
310.700	-11.316	0.101
310.800	-8.290	0.101
310.900	-19.727	0.101
311.000	-2.346	0.101
311.100	-4.570	0.101
311.200	-4.549	0.101
311.300	-14.946	0.101
311.400	-22.321	0.101
311.500	-19.975	0.101
311.600	-16.415	0.101
311.700	-10.843	0.101
311.800	-9.336	0.101
311.900	-3.145	0.101
312.000	-11.849	0.101
312.100	-14.307	0.101
312.200	-6.094	0.101
312.300	-13.463	0.101
312.400	-8.162	0.101
312.500	-12.832	0.101
312.600	-8.697	0.101
312.700	-10.192	0.101
312.800	-22.685	0.101
312.900	-23.074	0.101
313.000	-17.025	0.101
313.100	-10.866	0.101
313.200	-8.854	0.101
313.300	-22.063	0.101
313.400	1.603	0.101
313.500	-36.048	0.101
313.600	-5.207	0.101
313.700	-11.163	0.101
313.800	-12.383	0.101
313.900	-7.378	0.101
314.000	-6.577	0.101
314.100	-0.842	0.101
314.200	-9.581	0.101
314.300	-5.916	0.101
314.400	-18.129	0.101
314.500	-19.953	0.101
314.600	-10.753	0.101
314.700	-7.969	0.101
314.800	-14.098	0.101
314.900	-8.360	0.101
315.000	-9.007	0.101
315.100	-8.422	0.101
315.200	-2.558	0.101
315.300	-20.335	0.101
315.400	-15.139	0.101
315.500	-22.046	0.101
315.600	-8.263	0.101
315.700	-17.752	0.101
315.800	-19.828	0.101
315.900	-12.536	0.101
316.000	-6.511	0.101
316.100	-18.422	0.101
316.200	-11.774	0.101
316.300	-8.006	0.101
316.400	-12.027	0.101
316.500	-11.267	0.101
316.600	-11.253	0.101
316.700	-20.419	0.101
316.800	-5.189	0.101
316.900	-11.006	0.101
317.000	-12.529	0.101
317.100	-17.085	0.101
317.200	-7.576	0.101
317.300	-6.952	0.101
317.400	-12.731	0.101
317.500	-7.461	0.101
317.600	-21.180	0.101
317.700	-19.372	0.101
317.800	-6.245	0.101
317.900	-20.615	0.101
318.000	-16.587	0.101
318.100	-7.944	0.101
318.200	-11.512	0.101
318.300	-21.652	0.101
318.400	-6.820	0.101
318.500	-8.560	0.101
318.600	-3.229	0.101
318.700	-6.433	0.101
318.800	-15.366	0.101
318.900	-21.626	0.101
319.000	-11.364	0.101
319.100	-11.858	0.101
319.200	-12.135	0.101
319.300	-14.292	0.101
319.400	-10.735	0.101
319.500	-1.908	0.101
319.600	-13.429	0.101
319.700	-0.361	0.101
319.800	-13.540	0.101
319.900	-25.934	0.101
320.000	-17.879	0.101
320.100	-5.314	0.101
320.200	5.784	0.101
320.300	-7.770	0.101
320.400	-28.466	0.101
320.500	-21.786	0.101
320.600	-8.130	0.101
320.700	-10.384	0.101
320.800	-8.560	0.101
320.900	-14.666	0.101
321.000	-17.557	0.101
321.100	-14.713	0.101
321.200	-0.737	0.101
321.300	-17.523	0.101
321.400	-9.763	0.101
321.500	-18.896	0.101
321.600	-7.804	0.101
321.700	-13.771	0.101
321.800	-5.152	0.101
321.900	-0.730	0.101
322.000	-6.298	0.101
322.100	-11.998	0.101
322.200	-7.451	0.101
322.300	-23.779	0.101
322.400	-16.312	0.101
322.500	-30.131	0.101
322.600	-5.800	0.101
322.700	-3.660	0.101
322.800	-29.566	0.101
322.900	-30.599	0.101
323.000	-13.834	0.101
323.100	-4.608	0.101
323.200	-15.751	0.101
323.300	-10.790	0.101
323.400	-5.425	0.101
323.500	-12.983	0.101
323.600	-13.890	0.101
323.700	-9.675	0.101
323.800	-8.794	0.101
323.900	-26.196	0.101
324.000	-10.658	0.101
324.100	-16.698	0.101
324.200	-21.913	0.101
324.300	-11.169	0.101
324.400	-21.948	0.101
324.500	-16.968	0.101
324.600	-14.322	0.101
324.700	-25.237	0.101
324.800	-11.799	0.101
324.900	-13.228	0.101
325.000	-9.697	0.101
325.100	-16.112	0.101
325.200	-13.703	0.101
325.300	-10.507	0.101
325.400	-8.483	0.101
325.500	-4.798	0.101
325.600	-10.459	0.101
325.700	-13.447	0.101
325.800	-13.067	0.101
325.900	-11.693	0.101
326.000	-13.437	0.101
326.100	-17.989	0.101
326.200	-15.142	0.101
326.300	-9.959	0.101
326.400	-6.389	0.101
326.500	-11.373	0.101
326.600	-9.564	0.101
326.700	-17.842	0.101
326.800	7.032	0.101
326.900	-16.253	0.101
327.000	-21.872	0.101
327.100	-3.005	0.101
327.200	-14.473	0.101
327.300	-9.379	0.101
327.400	-11.178	0.101
327.500	-14.046	0.101
327.600	-15.119	0.101
327.700	-22.917	0.101
327.800	-4.215	0.101
327.900	-17.562	0.101
328.000	-2.227	0.101
328.100	-9.903	0.101
328.200	-11.983	0.101
328.300	-18.090	0.101
328.400	-7.992	0.101
328.500	-7.109	0.101
328.600	-17.040	0.101
328.700	-16.317	0.101
328.800	-6.054	0.101
328.900	-17.967	0.101
329.000	-8.296	0.101
329.100	-10.679	0.101
329.200	-10.443	0.101
329.300	-27.103	0.101
329.400	-17.300	0.101
329.500	-9.009	0.101
329.600	-27.372	0.101
329.700	-2.222	0.101
329.800	-8.040	0.101
329.900	-7.290	0.101
330.000	-17.976	0.101
330.100	-19.565	0.101
330.200	-17.266	0.101
330.300	-8.986	0.101
330.400	-13.150	0.101
330.500	-9.309	0.101
330.600	-11.519	0.101
330.700	-15.871	0.101
330.800	1.026	0.101
330.900	-1.977	0.101
331.000	-9.604	0.101
331.100	8.950	0.101
331.200	-10.773	0.101
331.300	-9.228	0.101
331.400	-4.499	0.101
331.500	-4.818	0.101
331.600	-12.340	0.101
331.700	1.352	0.101
331.800	8.144	0.101
331.900	-0.350	0.101
332.000	-0.943	0.101
332.100	-11.738	0.101
332.200	6.712	0.101
332.300	1.339	0.101
332.400	5.996	0.101
332.500	5.404	0.101
332.600	-7.462	0.101
332.700	-2.484	0.101
332.800	-1.260	0.101
332.900	7.707	0.101
333.000	10.626	0.101
333.100	8.996	0.101
333.200	-2.848	0.101
333.300	0.158	0.101
333.400	8.809	0.101
333.500	-5.849	0.101
333.600	8.688	0.101
333.700	13.222	0.101
333.800	0.778	0.101
333.900	-3.531	0.101
334.000	10.689	0.101
334.100	7.438	0.101
334.200	7.866	0.101
334.300	7.196	0.101
334.400	8.506	0.101
334.500	11.399	0.101
334.600	8.023	0.101
334.700	-9.667	0.101
334.800	11.912	0.101
334.900	9.160	0.101
335.000	-0.025	0.101
335.100	3.401	0.101
335.200	-0.277	0.101
335.300	22.439	0.101
335.400	3.871	0.101
335.500	-1.879	0.101
335.600	15.683	0.101
335.700	9.350	0.101
335.800	-2.916	0.101
335.900	-18.437	0.101
336.000	10.393	0.101
336.100	11.633	0.101
336.200	1.934	0.101
336.300	10.682	0.101
336.400	13.760	0.101
336.500	8.721	0.101
336.600	1.598	0.101
336.700	4.035	0.101
336.800	3.463	0.101
336.900	15.853	0.101
337.000	6.273	0.101
337.100	4.424	0.101
337.200	1.162	0.101
337.300	0.112	0.101
337.400	18.141	0.101
337.500	2.500	0.101
337.600	0.431	0.101
337.700	23.299	0.101
337.800	15.714	0.101
337.900	4.469	0.101
338.000	-6.756	0.101
338.100	16.287	0.101
338.200	0.990	0.101
338.300	7.251	0.101
338.400	4.838	0.101
338.500	8.328	0.101
338.600	2.451	0.101
338.700	13.311	0.101
338.800	15.890	0.101
338.900	10.147	0.101
339.000	4.011	0.101
339.100	3.942	0.101
339.200	-5.711	0.101
339.300	15.367	0.101
339.400	17.619	0.101
339.500	11.741	0.101
339.600	16.880	0.101
339.700	-1.939	0.101
339.800	11.743	0.101
339.900	19.871	0.101
340.000	-2.400	0.101
340.100	8.038	0.101
340.200	14.584	0.101
340.300	4.043	0.101
340.400	3.728	0.101
340.500	4.968	0.101
340.600	15.096	0.101
340.700	-0.654	0.101
340.800	5.027	0.101
340.900	11.523	0.101
341.000	20.170	0.101
341.100	9.778	0.101
341.200	12.384	0.101
341.300	19.852	0.101
341.400	1.439	0.101
341.500	-1.344	0.101
341.600	19.484	0.101
341.700	3.488	0.101
341.800	10.439	0.101
341.900	8.836	0.101
342.000	0.944	0.101
342.100	16.555	0.101
342.200	14.604	0.101
342.300	0.389	0.101
342.400	16.485	0.101
342.500	12.471	0.101
342.600	12.080	0.101
342.700	14.971	0.101
342.800	20.638	0.101
342.900	11.727	0.101
343.000	25.685	0.101
343.100	17.919	0.101
343.200	17.919	0.101
343.300	-6.233	0.101
343.400	4.863	0.101
343.500	15.650	0.101
343.600	10.814	0.101
343.700	6.392	0.101
343.800	-1.754	0.101
343.900	29.066	0.101
344.000	3.489	0.101
344.100	3.729	0.101
344.200	13.734	0.101
344.300	2.982	0.101
344.400	8.128	0.101
344.500	13.287	0.101
344.600	21.017	0.101
344.700	0.471	0.101
344.800	24.382	0.101
344.900	13.352	0.101
345.000	16.429	0.101
345.100	19.304	0.101
345.200	13.813	0.101
345.300	21.071	0.101
345.400	20.358	0.101
345.500	13.364	0.101
345.600	13.817	0.101
345.700	16.979	0.101
345.800	24.051	0.101
345.900	17.437	0.101
346.000	19.228	0.101
346.100	8.157	0.101
346.200	13.989	0.101
346.300	0.561	0.101
346.400	12.662	0.101
346.500	22.942	0.101
346.600	14.629	0.101
346.700	21.980	0.101
346.800	18.923	0.101
346.900	14.231	0.101
347.000	7.519	0.101
347.100	11.626	0.101
347.200	9.209	0.101
347.300	24.905	0.101
347.400	17.510	0.101
347.500	17.543	0.101
347.600	19.654	0.101
347.700	20.575	0.101
347.800	16.206	0.101
347.900	14.146	0.101
348.000	25.902	0.101
348.100	12.279	0.101
348.200	11.204	0.101
348.300	20.684	0.101
348.400	14.998	0.101
348.500	14.848	0.101
348.600	21.449	0.101
348.700	17.920	0.101
348.800	20.502	0.101
348.900	17.484	0.101
349.000	24.239	0.101
349.100	18.317	0.101
349.200	34.157	0.101
349.300	23.343	0.101
349.400	16.833	0.101
349.500	14.564	0.101
349.600	28.213	0.101
349.700	14.429	0.101
349.800	20.233	0.101
349.900	23.272	0.101
350.000	33.894	0.101
350.100	11.984	0.101
350.200	17.978	0.101
350.300	24.904	0.101
350.400	16.515	0.101
350.500	18.471	0.101
350.600	24.889	0.101
350.700	17.999	0.101
350.800	19.688	0.101
350.900	20.632	0.101
351.000	21.638	0.101
351.100	7.618	0.101
351.200	11.493	0.101
351.300	19.060	0.101
351.400	24.330	0.101
351.500	37.328	0.101
351.600	23.789	0.101
351.700	17.445	0.101
351.800	18.737	0.101
351.900	14.899	0.101
352.000	12.805	0.101
352.100	18.994	0.101
352.200	23.947	0.101
352.300	20.790	0.101
352.400	29.079	0.101
352.500	23.947	0.101
352.600	13.625	0.101
352.700	30.677	0.101
352.800	21.817	0.101
352.900	16.974	0.101
353.000	13.008	0.101
353.100	19.814	0.101
353.200	26.341	0.101
353.300	32.846	0.101
353.400	20.641	0.101
353.500	22.188	0.101
353.600	26.802	0.101
353.700	23.810	0.101
353.800	19.116	0.101
353.900	23.172	0.101
354.000	28.220	0.101
354.100	38.377	0.101
354.200	24.227	0.101
354.300	9.391	0.101
354.400	22.051	0.101
354.500	20.711	0.101
354.600	18.573	0.101
354.700	30.732	0.101
354.800	32.403	0.101
354.900	16.067	0.101
355.000	20.987	0.101
355.100	26.083	0.101
355.200	32.862	0.101
355.300	19.892	0.101
355.400	23.393	0.101
355.500	31.709	0.101
355.600	27.256	0.101
355.700	19.229	0.101
355.800	30.237	0.101
355.900	26.599	0.101
356.000	42.963	0.101
356.100	13.676	0.101
356.200	27.492	0.101
356.300	36.403	0.101
356.400	14.547	0.101
356.500	9.081	0.101
356.600	32.931	0.101
356.700	29.029	0.101
356.800	23.263	0.101
356.900	25.156	0.101
357.000	30.036	0.101
357.100	30.495	0.101
357.200	29.611	0.101
357.300	31.203	0.101
357.400	18.014	0.101
357.500	17.893	0.101
357.600	34.244	0.101
357.700	23.689	0.101
357.800	22.985	0.101
357.900	34.409	0.101
358.000	25.626	0.101
358.100	35.965	0.101
358.200	26.667	0.101
358.300	35.482	0.101
358.400	34.844	0.101
358.500	19.820	0.101
358.600	32.935	0.101
358.700	22.385	0.101
358.800	31.920	0.101
358.900	25.398	0.101
359.000	32.443	0.101
359.100	27.393	0.101
359.200	26.299	0.101
359.300	41.774	0.101
359.400	19.414	0.101
359.500	23.282	0.101
359.600	34.332	0.101
359.700	32.473	0.101
359.800	25.702	0.101
359.900	32.371	0.101
360.000	36.071	0.101
360.100	37.182	0.101
360.200	36.660	0.101
360.300	25.282	0.101
360.400	25.842	0.101
360.500	39.748	0.101
360.600	18.584	0.101
360.700	20.161	0.101
360.800	31.813	0.101
360.900	29.707	0.101
361.000	31.587	0.101
361.100	35.145	0.101
361.200	31.196	0.101
361.300	25.830	0.101
361.400	34.550	0.101
361.500	31.147	0.101
361.600	25.179	0.101
361.700	40.811	0.101
361.800	29.305	0.101
361.900	25.889	0.101
362.000	35.647	0.101
362.100	43.008	0.101
362.200	40.646	0.101
362.300	18.641	0.101
362.400	19.140	0.101
362.500	33.130	0.101
362.600	46.638	0.101
362.700	49.214	0.101
362.800	25.703	0.101
362.900	33.768	0.101
363.000	25.784	0.101
363.100	32.250	0.101
363.200	31.175	0.101
363.300	26.091	0.101
363.400	32.608	0.101
363.500	40.479	0.101
363.600	34.848	0.101
363.700	28.011	0.101
363.800	35.990	0.101
363.900	45.506	0.101
364.000	30.402	0.101
364.100	32.244	0.101
364.200	29.054	0.101
364.300	36.811	0.101
364.400	35.868	0.101
364.500	28.095	0.101
364.600	23.942	0.101
364.700	32.131	0.101
364.800	33.982	0.101
364.900	41.320	0.101
365.000	19.125	0.101
365.100	31.248	0.101
365.200	40.070	0.101
365.300	33.626	0.101
365.400	42.142	0.101
365.500	38.319	0.101
365.600	31.427	0.101
365.700	26.678	0.101
365.800	38.705	0.101
365.900	20.004	0.101
366.000	35.737	0.101
366.100	34.354	0.101
366.200	46.379	0.101
366.300	35.710	0.101
366.400	37.775	0.101
366.500	46.674	0.101
366.600	40.032	0.101
366.700	32.663	0.101
366.800	30.146	0.101
366.900	29.311	0.101
367.000	41.908	0.101
367.100	29.835	0.101
367.200	39.167	0.101
367.300	40.289	0.101
367.400	35.359	0.101
367.500	33.346	0.101
367.600	32.982	0.101
367.700	28.567	0.101
367.800	34.540	0.101
367.900	42.923	0.101
368.000	35.617	0.101
368.100	27.218	0.101
368.200	20.943	0.101
368.300	42.958	0.101
368.400	37.192	0.101
368.500	40.338	0.101
368.600	40.742	0.101
368.700	37.531	0.101
368.800	29.822	0.101
368.900	30.309	0.101
369.000	30.018	0.101
369.100	32.844	0.101
369.200	36.437	0.101
369.300	27.150	0.101
369.400	40.757	0.101
369.500	37.019	0.101
369.600	50.372	0.101
369.700	29.588	0.101
369.800	29.816	0.101
369.900	27.273	0.101
370.000	42.680	0.101
370.100	39.713	0.101
370.200	31.656	0.101
370.300	42.739	0.101
370.400	32.557	0.101
370.500	34.369	0.101
370.600	45.028	0.101
370.700	36.923	0.101
370.800	38.514	0.101
370.900	32.215	0.101
371.000	34.082	0.101
371.100	17.923	0.101
371.200	27.666	0.101
371.300	39.269	0.101
371.400	48.690	0.101
371.500	31.010	0.101
371.600	30.918	0.101
371.700	32.611	0.101
371.800	54.980	0.101
371.900	30.380	0.101
372.000	31.041	0.101
372.100	29.710	0.101
372.200	41.348	0.101
372.300	33.795	0.101
372.400	38.580	0.101
372.500	39.337	0.101
372.600	44.663	0.101
372.700	46.694	0.101
372.800	39.022	0.101
372.900	40.115	0.101
373.000	46.005	0.101
373.100	37.957	0.101
373.200	38.057	0.101
373.300	33.927	0.101
373.400	45.341	0.101
373.500	43.323	0.101
373.600	44.929	0.101
373.700	34.293	0.101
373.800	30.413	0.101
373.900	33.857	0.101
374.000	44.163	0.101
374.100	34.681	0.101
374.200	26.963	0.101
374.300	46.948	0.101
374.400	31.453	0.101
374.500	34.658	0.101
374.600	49.544	0.101
374.700	46.013	0.101
374.800	29.880	0.101
374.900	30.707	0.101
375.000	30.218	0.101
375.100	41.850	0.101
375.200	28.296	0.101
375.300	42.950	0.101
375.400	38.142	0.101
375.500	33.525	0.101
375.600	43.594	0.101
375.700	45.601	0.101
375.800	38.612	0.101
375.900	45.538	0.101
376.000	35.242	0.101
376.100	40.875	0.101
376.200	37.764	0.101
376.300	30.757	0.101
376.400	32.128	0.101
376.500	35.667	0.101
376.600	32.609	0.101
376.700	28.367	0.101
376.800	51.259	0.101
376.900	28.962	0.101
377.000	37.018	0.101
377.100	39.880	0.101
377.200	38.473	0.101
377.300	36.368	0.101
377.400	37.306	0.101
377.500	24.719	0.101
377.600	37.564	0.101
377.700	41.864	0.101
377.800	40.235	0.101
377.900	41.648	0.101
378.000	30.707	0.101
378.100	34.082	0.101
378.200	44.706	0.101
378.300	38.115	0.101
378.400	31.099	0.101
378.500	41.218	0.101
378.600	42.255	0.101
378.700	39.449	0.101
378.800	34.855	0.101
378.900	34.679	0.101
379.000	46.336	0.101
379.100	53.163	0.101
379.200	43.297	0.101
379.300	29.735	0.101
379.400	46.645	0.101
379.500	34.195	0.101
379.600	36.871	0.101
379.700	41.978	0.101
379.800	50.939	0.101
379.900	39.477	0.101
380.000	39.400	0.101
380.100	29.794	0.101
380.200	39.446	0.101
380.300	38.208	0.101
380.400	37.639	0.101
380.500	38.475	0.101
380.600	47.184	0.101
380.700	36.302	0.101
380.800	50.086	0.101
380.900	44.754	0.101
381.000	41.752	0.101
381.100	35.916	0.101
381.200	32.127	0.101
381.300	29.438	0.101
381.400	43.933	0.101
381.500	41.426	0.101
381.600	33.044	0.101
381.700	41.185	0.101
381.800	40.620	0.101
381.900	34.197	0.101
382.000	32.958	0.101
382.100	37.843	0.101
382.200	49.312	0.101
382.300	47.131	0.101
382.400	43.945	0.101
382.500	44.413	0.101
382.600	23.118	0.101
382.700	37.766	0.101
382.800	39.062	0.101
382.900	47.613	0.101
383.000	29.541	0.101
383.100	31.060	0.101
383.200	38.311	0.101
383.300	51.506	0.101
383.400	43.203	0.101
383.500	49.577	0.101
383.600	38.900	0.101
383.700	49.507	0.101
383.800	31.033	0.101
383.900	35.912	0.101
384.000	39.791	0.101
384.100	46.893	0.101
384.200	32.623	0.101
384.300	43.151	0.101
384.400	42.514	0.101
384.500	31.689	0.101
384.600	34.142	0.101
384.700	46.207	0.101
384.800	52.971	0.101
384.900	53.269	0.101
385.000	36.674	0.101
385.100	38.246	0.101
385.200	45.136	0.101
385.300	35.087	0.101
385.400	33.678	0.101
385.500	48.548	0.101
385.600	38.797	0.101
385.700	41.996	0.101
385.800	30.360	0.101
385.900	45.477	0.101
386.000	45.569	0.101
386.100	32.703	0.101
386.200	37.221	0.101
386.300	29.526	0.101
386.400	44.460	0.101
386.500	32.656	0.101
386.600	45.100	0.101
386.700	36.070	0.101
386.800	36.243	0.101
386.900	27.321	0.101
387.000	39.089	0.101
387.100	47.253	0.101
387.200	38.001	0.101
387.300	54.342	0.101
387.400	38.836	0.101
387.500	36.856	0.101
387.600	39.969	0.101
387.700	52.688	0.101
387.800	37.850	0.101
387.900	28.083	0.101
388.000	44.747	0.101
388.100	35.192	0.101
388.200	42.838	0.101
388.300	48.731	0.101
388.400	49.781	0.101
388.500	33.599	0.101
388.600	39.088	0.101
388.700	38.976	0.101
388.800	38.487	0.101
388.900	35.281	0.101
389.000	46.628	0.101
389.100	42.911	0.101
389.200	45.298	0.101
389.300	40.917	0.101
389.400	45.526	0.101
389.500	46.331	0.101
389.600	44.039	0.101
389.700	25.304	0.101
389.800	45.888	0.101
389.900	43.009	0.101
390.000	36.728	0.101
390.100	42.525	0.101
390.200	37.147	0.101
390.300	35.229	0.101
390.400	26.331	0.101
390.500	44.053	0.101
390.600	26.173	0.101
390.700	49.312	0.101
390.800	22.633	0.101
390.900	28.873	0.101
391.000	33.678	0.101
391.100	33.716	0.101
391.200	28.144	0.101
391.300	26.244	0.101
391.400	34.435	0.101
391.500	25.350	0.101
391.600	34.856	0.101
391.700	31.854	0.101
391.800	20.179	0.101
391.900	15.488	0.101
392.000	20.827	0.101
392.100	35.651	0.101
392.200	38.227	0.101
392.300	24.792	0.101
392.400	22.853	0.101
392.500	20.247	0.101
392.600	29.537	0.101
392.700	15.385	0.101
392.800	15.209	0.101
392.900	38.022	0.101
393.000	18.571	0.101
393.100	2.283	0.101
393.200	20.862	0.101
393.300	28.367	0.101
393.400	18.231	0.101
393.500	16.607	0.101
393.600	11.525	0.101
393.700	26.893	0.101
393.800	17.391	0.101
393.900	19.729	0.101
394.000	29.171	0.101
394.100	8.923	0.101
394.200	8.446	0.101
394.300	3.475	0.101
394.400	20.916	0.101
394.500	22.927	0.101
394.600	1.338	0.101
394.700	26.649	0.101
394.800	22.566	0.101
394.900	14.881	0.101
395.000	19.601	0.101
395.100	29.329	0.101
395.200	13.324	0.101
395.300	6.962	0.101
395.400	8.283	0.101
395.500	14.711	0.101
395.600	18.466	0.101
395.700	17.838	0.101
395.800	18.331	0.101
395.900	24.453	0.101
396.000	21.608	0.101
396.100	14.607	0.101
396.200	26.745	0.101
396.300	7.272	0.101
396.400	14.953	0.101
396.500	7.716	0.101
396.600	27.798	0.101
396.700	4.030	0.101
396.800	15.642	0.101
396.900	20.333	0.101
397.000	19.633	0.101
397.100	23.346	0.101
397.200	24.743	0.101
397.300	18.201	0.101
397.400	6.352	0.101
397.500	12.695	0.101
397.600	14.247	0.101
397.700	21.427	0.101
397.800	18.632	0.101
397.900	15.507	0.101
398.000	17.882	0.101
398.100	4.792	0.101
398.200	11.306	0.101
398.300	28.137	0.101
398.400	8.290	0.101
398.500	15.412	0.101
398.600	15.007	0.101
398.700	8.518	0.101
398.800	15.299	0.101
398.900	8.580	0.101
399.000	16.572	0.101
399.100	-3.736	0.101
399.200	7.084	0.101
399.300	23.247	0.101
399.400	12.637	0.101
399.500	23.849	0.101
399.600	17.218	0.101
399.700	5.293	0.101
399.800	8.493	0.101
399.900	25.774	0.101
400.000	7.460	0.101
400.100	5.963	0.101
400.200	25.361	0.101
400.300	9.627	0.101
400.400	16.182	0.101
400.500	8.027	0.101
400.600	16.455	0.101
400.700	6.856	0.101
400.800	14.714	0.101
400.900	16.213	0.101
401.000	29.561	0.101
401.100	19.200	0.101
401.200	9.994	0.101
401.300	15.758	0.101
401.400	19.725	0.101
401.500	23.098	0.101
401.600	7.089	0.101
401.700	5.362	0.101
401.800	5.322	0.101
401.900	14.174	0.101
402.000	16.105	0.101
402.100	18.378	0.101
402.200	22.437	0.101
402.300	15.657	0.101
402.400	12.189	0.101
402.500	10.066	0.101
402.600	13.144	0.101
402.700	15.686	0.101
402.800	9.283	0.101
402.900	1.001	0.101
403.000	15.641	0.101
403.100	17.169	0.101
403.200	-8.511	0.101
403.300	9.990	0.101
403.400	8.897	0.101
403.500	11.232	0.101
403.600	3.348	0.101
403.700	7.310	0.101
403.800	16.147	0.101
403.900	12.941	0.101
404.000	8.010	0.101
404.100	21.044	0.101
404.200	2.834	0.101
404.300	8.280	0.101
404.400	5.272	0.101
404.500	10.091	0.101
404.600	10.720	0.101
404.700	9.810	0.101
404.800	10.351	0.101
404.900	16.835	0.101
405.000	1.623	0.101
405.100	14.959	0.101
405.200	26.951	0.101
405.300	3.520	0.101
405.400	13.688	0.101
405.500	23.109	0.101
405.600	6.172	0.101
405.700	-0.361	0.101
405.800	2.286	0.101
405.900	12.040	0.101
406.000	12.719	0.101
406.100	14.668	0.101
406.200	-5.715	0.101
406.300	14.174	0.101
406.400	17.915	0.101
406.500	4.570	0.101
406.600	2.551	0.101
406.700	8.049	0.101
406.800	0.186	0.101
406.900	6.422	0.101
407.000	9.714	0.101
407.100	8.405	0.101
407.200	5.268	0.101
407.300	16.082	0.101
407.400	4.477	0.101
407.500	7.958	0.101
407.600	15.631	0.101
407.700	11.927	0.101
407.800	-0.674	0.101
407.900	18.616	0.101
408.000	16.092	0.101
408.100	1.807	0.101
408.200	12.433	0.101
408.300	1.403	0.101
408.400	5.512	0.101
408.500	5.284	0.101
408.600	12.055	0.101
408.700	2.210	0.101
408.800	16.718	0.101
408.900	2.398	0.101
409.000	-5.691	0.101
409.100	11.372	0.101
409.200	8.598	0.101
409.300	5.682	0.101
409.400	13.931	0.101
409.500	-4.578	0.101
409.600	12.103	0.101
409.700	3.211	0.101
409.800	-1.745	0.101
409.900	0.780	0.101
410.000	9.145	0.101
410.100	0.522	0.101
410.200	6.130	0.101
410.300	7.985	0.101
410.400	4.367	0.101
410.500	3.970	0.101
410.600	9.940	0.101
410.700	5.871	0.101
410.800	6.461	0.101
410.900	12.731	0.101
411.000	-0.573	0.101
411.100	8.992	0.101
411.200	-7.912	0.101
411.300	1.973	0.101
411.400	8.283	0.101
411.500	25.988	0.101
411.600	-0.262	0.101
411.700	1.034	0.101
411.800	8.949	0.101
411.900	-13.898	0.101
412.000	4.772	0.101
412.100	3.172	0.101
412.200	8.416	0.101
412.300	-7.434	0.101
412.400	-15.390	0.101
412.500	14.387	0.101
412.600	15.289	0.101
412.700	3.635	0.101
412.800	-4.284	0.101
412.900	-5.919	0.101
413.000	-5.985	0.101
413.100	2.264	0.101
413.200	15.959	0.101
413.300	11.088	0.101
413.400	15.897	0.101
413.500	12.509	0.101
413.600	5.778	0.101
413.700	13.288	0.101
413.800	-14.508	0.101
413.900	7.157	0.101
414.000	-4.227	0.101
414.100	4.216	0.101
414.200	-12.030	0.101
414.300	15.607	0.101
414.400	-1.955	0.101
414.500	-10.901	0.101
414.600	-3.391	0.101
414.700	-1.198	0.101
414.800	4.438	0.101
414.900	5.461	0.101
415.000	1.621	0.101
415.100	14.798	0.101
415.200	-4.281	0.101
415.300	-0.224	0.101
415.400	-1.817	0.101
415.500	8.597	0.101
415.600	8.122	0.101
415.700	22.286	0.101
415.800	-5.930	0.101
415.900	-5.425	0.101
416.000	-2.550	0.101
416.100	-6.257	0.101
416.200	-4.775	0.101
416.300	-0.045	0.101
416.400	19.026	0.101
416.500	10.259	0.101
416.600	-9.614	0.101
416.700	15.187	0.101
416.800	13.130	0.101
416.900	1.362	0.101
417.000	-3.483	0.101
417.100	-0.207	0.101
417.200	-9.505	0.101
417.300	4.622	0.101
417.400	1.684	0.101
417.500	-1.366	0.101
417.600	3.577	0.101
417.700	-4.686	0.101
417.800	-0.287	0.101
417.900	-6.793	0.101
418.000	-1.861	0.101
418.100	6.103	0.101
418.200	-0.614	0.101
418.300	-4.194	0.101
418.400	-0.521	0.101
418.500	1.597	0.101
418.600	-12.577	0.101
418.700	-3.619	0.101
418.800	-27.410	0.101
418.900	-3.183	0.101
419.000	3.194	0.101
419.100	-6.225	0.101
419.200	6.343	0.101
419.300	-10.378	0.101
419.400	-10.091	0.101
419.500	-5.388	0.101
419.600	11.936	0.101
419.700	-4.798	0.101
419.800	-8.116	0.101
419.900	-13.570	0.101
420.000	4.921	0.101
420.100	3.642	0.101
420.200	-3.182	0.101
420.300	13.982	0.101
420.400	1.990	0.101
420.500	-8.238	0.101
420.600	1.562	0.101
420.700	-2.108	0.101
420.800	-0.169	0.101
420.900	6.417	0.101
421.000	-10.288	0.101
421.100	-4.362	0.101
421.200	-16.938	0.101
421.300	-1.671	0.101
421.400	2.414	0.101
421.500	-1.202	0.101
421.600	-5.923	0.101
421.700	-0.127	0.101
421.800	-3.533	0.101
421.900	6.095	0.101
422.000	-5.032	0.101
422.100	-8.144	0.101
422.200	0.213	0.101
422.300	-1.643	0.101
422.400	-7.203	0.101
422.500	-9.655	0.101
422.600	-20.430	0.101
422.700	7.326	0.101
422.800	-4.964	0.101
422.900	-19.819	0.101
423.000	-9.628	0.101
423.100	-12.753	0.101
423.200	-16.257	0.101
423.300	2.244	0.101
423.400	1.502	0.101
423.500	0.406	0.101
423.600	4.500	0.101
423.700	4.416	0.101
423.800	-14.572	0.101
423.900	-15.402	0.101
424.000	-2.382	0.101
424.100	-0.635	0.101
424.200	-3.500	0.101
424.300	-18.352	0.101
424.400	-7.273	0.101
424.500	-12.355	0.101
424.600	-13.399	0.101
424.700	-13.815	0.101
424.800	-8.965	0.101
424.900	-2.557	0.101
425.000	-1.298	0.101
425.100	5.948	0.101
425.200	2.832	0.101
425.300	-3.249	0.101
425.400	-1.897	0.101
425.500	-23.359	0.101
425.600	-9.898	0.101
425.700	-12.261	0.101
425.800	-10.220	0.101
425.900	-28.780	0.101
426.000	0.605	0.101
426.100	-7.850	0.101
426.200	-20.359	0.101
426.300	-19.246	0.101
426.400	-4.900	0.101
426.500	-0.325	0.101
426.600	-21.061	0.101
426.700	2.047	0.101
426.800	-8.904	0.101
426.900	3.216	0.101
427.000	-6.912	0.101
427.100	-13.534	0.101
427.200	-2.777	0.101
427.300	-0.675	0.101
427.400	-9.018	0.101
427.500	-8.602	0.101
427.600	-14.578	0.101
427.700	-11.270	0.101
427.800	-19.115	0.101
427.900	-11.577	0.101
428.000	-7.912	0.101
428.100	-5.316	0.101
428.200	-3.836	0.101
428.300	-2.277	0.101
428.400	-11.721	0.101
428.500	-8.152	0.101
428.600	-11.329	0.101
428.700	-19.299	0.101
428.800	-12.600	0.101
428.900	-23.482	0.101
429.000	-15.046	0.101
429.100	-11.378	0.101
429.200	-9.636	0.101
429.300	-25.253	0.101
429.400	-6.090	0.101
429.500	-3.761	0.101
429.600	-1.233	0.101
429.700	-0.560	0.101
429.800	2.243	0.101
429.900	-9.689	0.101
430.000	-14.550	0.101
430.100	-13.095	0.101
430.200	-16.414	0.101
430.300	-15.767	0.101
430.400	7.659	0.101
430.500	-10.273	0.101
430.600	-20.489	0.101
430.700	-18.247	0.101
430.800	-4.802	0.101
430.900	-11.111	0.101
431.000	-7.730	0.101
431.100	-5.531	0.101
431.200	-16.512	0.101
431.300	-6.201	0.101
431.400	-9.073	0.101
431.500	-4.643	0.101
431.600	-12.920	0.101
431.700	-7.631	0.101
431.800	-7.501	0.101
431.900	-5.147	0.101
432.000	-5.215	0.101
432.100	-23.200	0.101
432.200	-15.187	0.101
432.300	-16.002	0.101
432.400	-16.953	0.101
432.500	1.669	0.101
432.600	-16.336	0.101
432.700	-23.165	0.101
432.800	-19.792	0.101
432.900	-8.762	0.101
433.000	-12.889	0.101
433.100	-12.404	0.101
433.200	-24.721	0.101
433.300	-1.364	0.101
433.400	-6.700	0.101
433.500	-10.835	0.101
433.600	-15.628	0.101
433.700	-11.624	0.101
433.800	-11.572	0.101
433.900	4.340	0.101
434.000	0.397	0.101
434.100	4.250	0.101
434.200	-16.081	0.101
434.300	-16.277	0.101
434.400	-6.454	0.101
434.500	-9.005	0.101
434.600	-14.741	0.101
434.700	-21.211	0.101
434.800	-12.277	0.101
434.900	-10.542	0.101
435.000	-12.167	0.101
435.100	-12.771	0.101
435.200	-6.860	0.101
435.300	-17.950	0.101
435.400	-12.678	0.101
435.500	-10.994	0.101
435.600	-8.622	0.101
435.700	1.876	0.101
435.800	-11.570	0.101
435.900	-5.686	0.101
436.000	4.655	0.101
436.100	-13.579	0.101
436.200	-5.388	0.101
436.300	-2.955	0.101
436.400	-14.852	0.101
436.500	-22.180	0.101
436.600	-6.443	0.101
436.700	-9.082	0.101
436.800	-12.337	0.101
436.900	-13.193	0.101
437.000	-12.808	0.101
437.100	-4.571	0.101
437.200	-7.642	0.101
437.300	-8.548	0.101
437.400	-6.943	0.101
437.500	-13.977	0.101
437.600	-17.367	0.101
437.700	-19.612	0.101
437.800	-25.103	0.101
437.900	-5.543	0.101
438.000	-12.925	0.101
438.100	0.837	0.101
438.200	-11.744	0.101
438.300	-6.370	0.101
438.400	-26.919	0.101
438.500	-14.306	0.101
438.600	-8.995	0.101
438.700	-8.506	0.101
438.800	-9.105	0.101
438.900	1.138	0.101
439.000	-9.921	0.101
439.100	-3.403	0.101
439.200	-6.322	0.101
439.300	-14.124	0.101
439.400	-10.344	0.101
439.500	-8.135	0.101
439.600	-20.473	0.101
439.700	-10.172	0.101
439.800	-12.452	0.101
439.900	-11.971	0.101
440.000	-11.241	0.101
440.100	-16.785	0.101
440.200	-18.464	0.101
440.300	-0.788	0.101
440.400	-11.508	0.101
440.500	-17.484	0.101
440.600	-13.076	0.101
440.700	-3.347	0.101
440.800	-12.087	0.101
440.900	-20.032	0.101
441.000	-12.489	0.101
441.100	-20.161	0.101
441.200	-20.543	0.101
441.300	-9.568	0.101
441.400	-10.975	0.101
441.500	-1.122	0.101
441.600	-10.359	0.101
441.700	-1.860	0.101
441.800	-16.738	0.101
441.900	-4.987	0.101
442.000	-10.804	0.101
442.100	-31.307	0.101
442.200	-10.046	0.101
442.300	-11.979	0.101
442.400	-9.774	0.101
442.500	6.194	0.101
442.600	-14.099	0.101
442.700	-21.507	0.101
442.800	-18.062	0.101
442.900	-9.459	0.101
443.000	-7.827	0.101
443.100	-10.829	0.101
443.200	-9.470	0.101
443.300	-11.762	0.101
443.400	-22.060	0.101
443.500	2.276	0.101
443.600	-6.713	0.101
443.700	-8.710	0.101
443.800	-11.304	0.101
443.900	-21.163	0.101
444.000	3.112	0.101
444.100	-22.707	0.101
444.200	-18.268	0.101
444.300	-8.663	0.101
444.400	-2.052	0.101
444.500	-24.867	0.101
444.600	-26.173	0.101
444.700	-14.125	0.101
444.800	-14.579	0.101
444.900	-10.804	0.101
445.000	-1.903	0.101
445.100	-9.818	0.101
445.200	-15.078	0.101
445.300	-24.175	0.101
445.400	-0.903	0.101
445.500	-13.909	0.101
445.600	-5.455	0.101
445.700	-11.419	0.101
445.800	-21.183	0.101
445.900	-13.214	0.101
446.000	-11.479	0.101
446.100	-4.456	0.101
446.200	-11.035	0.101
446.300	-18.477	0.101
446.400	-21.474	0.101
446.500	-23.675	0.101
446.600	-9.818	0.101
446.700	-10.508	0.101
446.800	-13.792	0.101
446.900	-12.936	0.101
447.000	-6.557	0.101
447.100	-2.984	0.101
447.200	-14.007	0.101
447.300	-21.857	0.101
447.400	-15.109	0.101
447.500	-7.211	0.101
447.600	-9.998	0.101
447.700	-11.140	0.101
447.800	-13.913	0.101
447.900	-5.398	0.101
448.000	-20.345	0.101
448.100	-3.876	0.101
448.200	-9.154	0.101
448.300	-23.450	0.101
448.400	-8.814	0.101
448.500	-19.498	0.101
448.600	-20.999	0.101
448.700	-9.424	0.101
448.800	-16.062	0.101
448.900	-24.267	0.101
449.000	-4.336	0.101
449.100	-16.480	0.101
449.200	-14.063	0.101
449.300	-12.529	0.101
449.400	-23.805	0.101
449.500	-5.542	0.101
449.600	-23.123	0.101
449.700	-14.299	0.101
449.800	-15.929	0.101
449.900	-16.377	0.101
450.000	-5.192	0.101
450.100	-19.690	0.101
450.200	-6.293	0.101
450.300	-12.157	0.101
450.400	0.684	0.101
450.500	-8.459	0.101
450.600	-7.141	0.101
450.700	-13.450	0.101
450.800	-9.311	0.101
450.900	-19.956	0.101
451.000	-30.030	0.101
451.100	-15.607	0.101
451.200	-14.929	0.101
451.300	-3.410	0.101
451.400	-26.837	0.101
451.500	-4.602	0.101
451.600	-19.898	0.101
451.700	-16.745	0.101
451.800	-15.938	0.101
451.900	-26.850	0.101
452.000	-6.356	0.101
452.100	-11.638	0.101
452.200	0.748	0.101
452.300	-9.993	0.101
452.400	-10.786	0.101
452.500	-7.145	0.101
452.600	-16.153	0.101
452.700	-19.384	0.101
452.800	-10.227	0.101
452.900	-19.249	0.101
453.000	-17.311	0.101
453.100	-16.010	0.101
453.200	-15.920	0.101
453.300	-8.756	0.101
453.400	-9.837	0.101
453.500	-15.245	0.101
453.600	-17.181	0.101
453.700	-5.970	0.101
453.800	-17.777	0.101
453.900	-14.216	0.101
454.000	-14.295	0.101
454.100	-14.574	0.101
454.200	-21.916	0.101
454.300	-11.512	0.101
454.400	-13.354	0.101
454.500	-17.849	0.101
454.600	-14.889	0.101
454.700	-6.898	0.101
454.800	-5.685	0.101
454.900	-2.592	0.101
455.000	-11.398	0.101
455.100	-17.164	0.101
455.200	-20.943	0.101
455.300	-6.638	0.101
455.400	-0.574	0.101
455.500	-13.313	0.101
455.600	-0.456	0.101
455.700	-16.806	0.101
455.800	-12.473	0.101
455.900	-21.845	0.101
456.000	-14.242	0.101
456.100	-21.913	0.101
456.200	-14.014	0.101
456.300	-2.374	0.101
456.400	-4.862	0.101
456.500	-7.329	0.101
456.600	-16.980	0.101
456.700	-9.112	0.101
456.800	-4.619	0.101
456.900	-14.827	0.101
457.000	-19.740	0.101
457.100	-10.248	0.101
457.200	-6.282	0.101
457.300	-7.059	0.101
457.400	-12.452	0.101
457.500	-8.826	0.101
457.600	-16.539	0.101
457.700	-11.509	0.101
457.800	-1.697	0.101
457.900	-14.565	0.101
458.000	-10.403	0.101
458.100	-23.811	0.101
458.200	-22.966	0.101
458.300	-15.284	0.101
458.400	-15.073	0.101
458.500	-10.991	0.101
458.600	-3.515	0.101
458.700	4.682	0.101
458.800	-4.672	0.101
458.900	-26.259	0.101
459.000	-20.452	0.101
459.100	1.613	0.101
459.200	-17.501	0.101
459.300	-17.775	0.101
459.400	-21.668	0.101
459.500	-14.066	0.101
459.600	-15.494	0.101
459.700	-6.770	0.101
459.800	1.684	0.101
459.900	-19.282	0.101
460.000	-11.746	0.101
460.100	-13.104	0.101
460.200	-21.676	0.101
460.300	-16.540	0.101
460.400	-15.345	0.101
460.500	-13.462	0.101
460.600	-20.676	0.101
460.700	-9.235	0.101
460.800	-27.206	0.101
460.900	-20.615	0.101
461.000	-6.858	0.101
461.100	-5.311	0.101
461.200	-24.565	0.101
461.300	-7.382	0.101
461.400	-7.223	0.101
461.500	-18.210	0.101
461.600	-9.176	0.101
461.700	-9.223	0.101
461.800	-14.496	0.101
461.900	-10.951	0.101
462.000	6.796	0.101
462.100	-21.324	0.101
462.200	-11.283	0.101
462.300	-13.080	0.101
462.400	-13.646	0.101
462.500	-18.432	0.101
462.600	-32.053	0.101
462.700	-14.920	0.101
462.800	-13.991	0.101
462.900	1.214	0.101
463.000	-31.155	0.101
463.100	-10.237	0.101
463.200	-12.588	0.101
463.300	-13.489	0.101
463.400	-22.250	0.101
463.500	-16.137	0.101
463.600	-11.468	0.101
463.700	-12.840	0.101
463.800	-16.288	0.101
463.900	-11.473	0.101
464.000	-20.448	0.101
464.100	-15.479	0.101
464.200	-17.194	0.101
464.300	-12.235	0.101
464.400	-8.873	0.101
464.500	-10.580	0.101
464.600	-25.594	0.101
464.700	-21.457	0.101
464.800	-14.905	0.101
464.900	-13.705	0.101
465.000	-4.127	0.101
465.100	-16.705	0.101
465.200	-17.383	0.101
465.300	-17.225	0.101
465.400	-11.428	0.101
465.500	-3.506	0.101
465.600	-12.899	0.101
465.700	-19.924	0.101
465.800	-13.709	0.101
465.900	0.198	0.101
466.000	-9.869	0.101
466.100	-23.566	0.101
466.200	-23.426	0.101
466.300	-20.207	0.101
466.400	-5.599	0.101
466.500	-9.601	0.101
466.600	-16.820	0.101
466.700	-20.226	0.101
466.800	-0.193	0.101
466.900	-27.867	0.101
467.000	-6.461	0.101
467.100	-1.940	0.101
467.200	-14.241	0.101
467.300	-21.265	0.101
467.400	-16.584	0.101
467.500	-18.580	0.101
467.600	-16.581	0.101
467.700	-17.361	0.101
467.800	-17.363	0.101
467.900	-19.398	0.101
468.000	-11.924	0.101
468.100	-9.681	0.101
468.200	-27.293	0.101
468.300	-7.863	0.101
468.400	-15.056	0.101
468.500	-8.028	0.101
468.600	-9.243	0.101
468.700	-19.242	0.101
468.800	-10.224	0.101
468.900	-10.295	0.101
469.000	-13.584	0.101
469.100	-19.793	0.101
469.200	-17.532	0.101
469.300	-19.814	0.101
469.400	-25.729	0.101
469.500	-11.148	0.101
469.600	-11.118	0.101
469.700	-1.625	0.101
469.800	-18.004	0.101
469.900	-14.672	0.101
470.000	-18.215	0.101
470.100	-20.515	0.101
470.200	-15.405	0.101
470.300	-16.791	0.101
470.400	-21.393	0.101
470.500	-11.087	0.101
470.600	-13.721	0.101
470.700	-20.441	0.101
470.800	-14.531	0.101
470.900	-14.381	0.101
471.000	-16.636	0.101
471.100	-3.998	0.101
471.200	-16.302	0.101
471.300	-25.580	0.101
471.400	-28.878	0.101
471.500	-6.046	0.101
471.600	-13.647	0.101
471.700	-4.959	0.101
471.800	-18.180	0.101
471.900	0.508	0.101
472.000	-6.739	0.101
472.100	-17.628	0.101
472.200	-20.355	0.101
472.300	-8.347	0.101
472.400	-0.545	0.101
472.500	-10.778	0.101
472.600	-6.627	0.101
472.700	-18.258	0.101
472.800	-30.026	0.101
472.900	-12.001	0.101
473.000	3.388	0.101
473.100	-17.480	0.101
473.200	-27.855	0.101
473.300	-20.026	0.101
473.400	-8.248	0.101
473.500	-23.888	0.101
473.600	1.952	0.101
473.700	-19.651	0.101
473.800	-24.620	0.101
473.900	-19.100	0.101
474.000	-7.831	0.101
474.100	-17.368	0.101
474.200	-10.271	0.101
474.300	-9.997	0.101
474.400	-13.203	0.101
474.500	-14.250	0.101
474.600	-11.351	0.101
474.700	-17.269	0.101
474.800	-16.439	0.101
474.900	-8.531	0.101
475.000	-22.329	0.101
475.100	-12.057	0.101
475.200	-22.135	0.101
475.300	-10.016	0.101
475.400	-17.018	0.101
475.500	-11.784	0.101
475.600	-20.280	0.101
475.700	-15.342	0.101
475.800	-24.009	0.101
475.900	-22.680	0.101
476.000	-20.477	0.101
476.100	-12.986	0.101
476.200	-11.057	0.101
476.300	-8.176	0.101
476.400	-11.565	0.101
476.500	-2.003	0.101
476.600	-10.676	0.101
476.700	-17.973	0.101
476.800	-17.052	0.101
476.900	-2.472	0.101
477.000	-25.320	0.101
477.100	-27.531	0.101
477.200	-6.542	0.101
477.300	-7.967	0.101
477.400	-19.443	0.101
477.500	-14.102	0.101
477.600	-17.987	0.101
477.700	-11.890	0.101
477.800	-21.648	0.101
477.900	-16.659	0.101
478.000	-24.013	0.101
478.100	-18.025	0.101
478.200	-20.686	0.101
478.300	-8.999	0.101
478.400	-6.874	0.101
478.500	-5.537	0.101
478.600	-17.355	0.101
478.700	-5.306	0.101
478.800	-16.298	0.101
478.900	-11.912	0.101
479.000	-8.923	0.101
479.100	-23.608	0.101
479.200	-20.604	0.101
479.300	-14.623	0.101
479.400	-5.700	0.101
479.500	-18.117	0.101
479.600	-18.981	0.101
479.700	-6.839	0.101
479.800	-17.850	0.101
479.900	-11.975	0.101
480.000	-21.854	0.101
480.100	-22.194	0.101
480.200	-10.411	0.101
480.300	-14.686	0.101
480.400	-20.392	0.101
480.500	-6.183	0.101
480.600	-10.350	0.101
480.700	-1.314	0.101
480.800	-16.370	0.101
480.900	3.237	0.101
481.000	-12.808	0.101
481.100	-3.921	0.101
481.200	-3.437	0.101
481.300	-2.578	0.101
481.400	-2.673	0.101
481.500	4.470	0.101
481.600	8.988	0.101
481.700	3.446	0.101
481.800	10.725	0.101
481.900	3.165	0.101
482.000	-4.753	0.101
482.100	-2.389	0.101
482.200	0.644	0.101
482.300	3.278	0.101
482.400	-15.600	0.101
482.500	-13.663	0.101
482.600	-2.732	0.101
482.700	2.412	0.101
482.800	-5.605	0.101
482.900	17.503	0.101
483.000	-2.618	0.101
483.100	10.218	0.101
483.200	-3.896	0.101
483.300	2.181	0.101
483.400	-2.657	0.101
483.500	-0.855	0.101
483.600	-6.917	0.101
483.700	-0.722	0.101
483.800	0.751	0.101
483.900	7.499	0.101
484.000	7.135	0.101
484.100	4.500	0.101
484.200	-5.279	0.101
484.300	1.165	0.101
484.400	-0.852	0.101
484.500	17.091	0.101
484.600	1.581	0.101
484.700	0.881	0.101
484.800	4.867	0.101
484.900	-1.732	0.101
485.000	0.026	0.101
485.100	3.226	0.101
485.200	8.708	0.101
485.300	11.803	0.101
485.400	-6.536	0.101
485.500	-10.891	0.101
485.600	-0.333	0.101
485.700	9.945	0.101
485.800	14.789	0.101
485.900	-4.072	0.101
486.000	7.512	0.101
486.100	13.438	0.101
486.200	10.051	0.101
486.300	4.108	0.101
486.400	-3.466	0.101
486.500	-2.472	0.101
486.600	3.120	0.101
486.700	-2.008	0.101
486.800	10.063	0.101
486.900	2.744	0.101
487.000	17.694	0.101
487.100	2.939	0.101
487.200	12.257	0.101
487.300	-6.244	0.101
487.400	8.153	0.101
487.500	-0.540	0.101
487.600	9.585	0.101
487.700	10.698	0.101
487.800	2.457	0.101
487.900	-1.466	0.101
488.000	6.798	0.101
488.100	8.902	0.101
488.200	-1.924	0.101
488.300	7.741	0.101
488.400	3.759	0.101
488.500	5.572	0.101
488.600	14.616	0.101
488.700	5.544	0.101
488.800	11.217	0.101
488.900	10.197	0.101
489.000	7.138	0.101
489.100	7.841	0.101
489.200	-3.490	0.101
489.300	5.786	0.101
489.400	11.447	0.101
489.500	4.970	0.101
489.600	11.720	0.101
489.700	5.149	0.101
489.800	8.729	0.101
489.900	7.588	0.101
490.000	-1.615	0.101
490.100	-0.299	0.101
490.200	12.798	0.101
490.300	6.561	0.101
490.400	21.868	0.101
490.500	1.017	0.101
490.600	8.930	0.101
490.700	11.807	0.101
490.800	4.213	0.101
490.900	11.980	0.101
491.000	15.550	0.101
491.100	0.235	0.101
491.200	-4.189	0.101
491.300	9.492	0.101
491.400	9.135	0.101
491.500	18.044	0.101
491.600	11.291	0.101
491.700	-0.478	0.101
491.800	-7.446	0.101
491.900	3.561	0.101
492.000	11.634	0.101
492.100	6.953	0.101
492.200	9.997	0.101
492.300	8.873	0.101
492.400	1.789	0.101
492.500	1.085	0.101
492.600	16.919	0.101
492.700	9.514	0.101
492.800	13.560	0.101
492.900	12.468	0.101
493.000	13.359	0.101
493.100	17.431	0.101
493.200	11.229	0.101
493.300	21.805	0.101
493.400	11.086	0.101
493.500	14.585	0.101
493.600	23.961	0.101
493.700	-6.082	0.101
493.800	8.318	0.101
493.900	18.075	0.101
494.000	5.890	0.101
494.100	13.949	0.101
494.200	15.470	0.101
494.300	11.914	0.101
494.400	10.768	0.101
494.500	12.894	0.101
494.600	16.462	0.101
494.700	5.943	0.101
494.800	-3.425	0.101
494.900	12.793	0.101
495.000	22.676	0.101
495.100	18.283	0.101
495.200	31.517	0.101
495.300	13.579	0.101
495.400	9.646	0.101
495.500	10.566	0.101
495.600	18.848	0.101
495.700	9.651	0.101
495.800	6.008	0.101
495.900	16.417	0.101
496.000	25.576	0.101
496.100	16.078	0.101
496.200	-0.410	0.101
496.300	10.003	0.101
496.400	14.649	0.101
496.500	18.068	0.101
496.600	23.769	0.101
496.700	15.145	0.101
496.800	1.244	0.101
496.900	15.079	0.101
497.000	28.032	0.101
497.100	15.876	0.101
497.200	15.995	0.101
497.300	20.209	0.101
497.400	13.031	0.101
497.500	2.274	0.101
497.600	19.006	0.101
497.700	28.080	0.101
497.800	18.678	0.101
497.900	15.342	0.101
498.000	23.145	0.101
498.100	18.561	0.101
498.200	6.588	0.101
498.300	18.940	0.101
498.400	14.697	0.101
498.500	6.983	0.101
498.600	12.749	0.101
498.700	27.995	0.101
498.800	10.365	0.101
498.900	11.089	0.101
499.000	10.152	0.101
499.100	22.478	0.101
499.200	24.155	0.101
499.300	10.065	0.101
499.400	21.319	0.101
499.500	23.137	0.101
499.600	21.959	0.101
499.700	21.304	0.101
499.800	20.927	0.101
499.900	24.863	0.101
500.000	7.010	0.101
500.100	3.219	0.101
500.200	36.065	0.101
500.300	12.229	0.101
500.400	10.731	0.101
500.500	18.280	0.101
500.600	15.826	0.101
500.700	28.019	0.101
500.800	9.083	0.101
500.900	14.810	0.101
501.000	23.493	0.101
501.100	21.786	0.101
501.200	25.693	0.101
501.300	29.821	0.101
501.400	24.608	0.101
501.500	22.479	0.101
501.600	25.968	0.101
501.700	4.742	0.101
501.800	26.061	0.101
501.900	18.707	0.101
502.000	14.222	0.101
502.100	16.301	0.101
502.200	17.041	0.101
502.300	15.716	0.101
502.400	33.267	0.101
502.500	19.203	0.101
502.600	15.253	0.101
502.700	22.530	0.101
502.800	21.107	0.101
502.900	19.421	0.101
503.000	35.260	0.101
503.100	22.965	0.101
503.200	19.672	0.101
503.300	19.029	0.101
503.400	16.797	0.101
503.500	34.222	0.101
503.600	30.977	0.101
503.700	20.559	0.101
503.800	22.137	0.101
503.900	31.335	0.101
504.000	19.550	0.101
504.100	22.634	0.101
504.200	24.363	0.101
504.300	29.768	0.101
504.400	34.704	0.101
504.500	32.384	0.101
504.600	39.665	0.101
504.700	23.061	0.101
504.800	29.738	0.101
504.900	32.686	0.101
505.000	28.812	0.101
505.100	46.383	0.101
505.200	18.784	0.101
505.300	18.041	0.101
505.400	21.909	0.101
505.500	27.588	0.101
505.600	25.291	0.101
505.700	9.058	0.101
505.800	29.047	0.101
505.900	31.173	0.101
506.000	24.251	0.101
506.100	23.116	0.101
506.200	28.771	0.101
506.300	35.260	0.101
506.400	22.781	0.101
506.500	34.901	0.101
506.600	17.739	0.101
506.700	32.282	0.101
506.800	36.085	0.101
506.900	25.976	0.101
507.000	25.454	0.101
507.100	35.549	0.101
507.200	27.904	0.101
507.300	23.871	0.101
507.400	31.328	0.101
507.500	30.433	0.101
507.600	17.090	0.101
507.700	25.534	0.101
507.800	24.324	0.101
507.900	24.150	0.101
508.000	27.181	0.101
508.100	29.062	0.101
508.200	37.926	0.101
508.300	21.212	0.101
508.400	34.090	0.101
508.500	19.054	0.101
508.600	23.694	0.101
508.700	28.389	0.101
508.800	35.230	0.101
508.900	32.377	0.101
509.000	28.280	0.101
509.100	37.916	0.101
509.200	30.120	0.101
509.300	23.327	0.101
509.400	27.259	0.101
509.500	43.117	0.101
509.600	25.751	0.101
509.700	32.349	0.101
509.800	22.387	0.101
509.900	33.445	0.101
510.000	33.312	0.101
510.100	27.942	0.101
510.200	26.090	0.101
510.300	32.028	0.101
510.400	30.250	0.101
510.500	26.020	0.101
510.600	30.948	0.101
510.700	33.450	0.101
510.800	35.660	0.101
510.900	28.455	0.101
511.000	26.268	0.101
511.100	34.182	0.101
511.200	37.134	0.101
511.300	29.846	0.101
511.400	20.205	0.101
511.500	41.137	0.101
511.600	19.417	0.101
511.700	22.233	0.101
511.800	39.753	0.101
511.900	38.365	0.101
512.000	34.049	0.101
512.100	21.559	0.101
512.200	41.935	0.101
512.300	30.169	0.101
512.400	29.954	0.101
512.500	34.332	0.101
512.600	18.555	0.101
512.700	38.110	0.101
512.800	41.063	0.101
512.900	33.107	0.101
513.000	33.966	0.101
513.100	29.775	0.101
513.200	33.699	0.101
513.300	22.770	0.101
513.400	24.609	0.101
513.500	30.066	0.101
513.600	19.190	0.101
513.700	28.765	0.101
513.800	39.037	0.101
513.900	43.488	0.101
514.000	28.839	0.101
514.100	37.390	0.101
514.200	33.533	0.101
514.300	32.946	0.101
514.400	32.609	0.101
514.500	33.222	0.101
514.600	45.651	0.101
514.700	31.096	0.101
514.800	38.923	0.101
514.900	17.918	0.101
515.000	38.291	0.101
515.100	39.862	0.101
515.200	36.661	0.101
515.300	28.859	0.101
515.400	29.116	0.101
515.500	37.082	0.101
515.600	52.868	0.101
515.700	41.239	0.101
515.800	45.131	0.101
515.900	35.751	0.101
516.000	26.824	0.101
516.100	34.974	0.101
516.200	28.440	0.101
516.300	40.816	0.101
516.400	29.324	0.101
516.500	36.656	0.101
516.600	25.786	0.101
516.700	43.505	0.101
516.800	46.052	0.101
516.900	39.879	0.101
517.000	27.108	0.101
517.100	34.715	0.101
517.200	35.547	0.101
517.300	26.257	0.101
517.400	44.721	0.101
517.500	49.887	0.101
517.600	38.842	0.101
517.700	29.151	0.101
517.800	34.246	0.101
517.900	42.558	0.101
518.000	26.676	0.101
518.100	30.622	0.101
518.200	46.240	0.101
518.300	43.907	0.101
518.400	27.868	0.101
518.500	33.108	0.101
518.600	33.797	0.101
518.700	37.101	0.101
518.800	41.556	0.101
518.900	37.514	0.101
519.000	36.908	0.101
519.100	48.238	0.101
519.200	27.091	0.101
519.300	38.333	0.101
519.400	29.199	0.101
519.500	37.783	0.101
519.600	38.770	0.101
519.700	42.705	0.101
519.800	23.323	0.101
519.900	48.262	0.101
520.000	39.378	0.101
520.100	33.536	0.101
520.200	29.295	0.101
520.300	37.010	0.101
520.400	35.574	0.101
520.500	42.759	0.101
520.600	41.063	0.101
520.700	39.716	0.101
520.800	29.569	0.101
520.900	44.808	0.101
521.000	40.818	0.101
521.100	32.052	0.101
521.200	30.169	0.101
521.300	40.949	0.101
521.400	47.696	0.101
521.500	37.046	0.101
521.600	35.699	0.101
521.700	30.615	0.101
521.800	30.509	0.101
521.900	53.033	0.101
522.000	36.515	0.101
522.100	37.562	0.101
522.200	39.481	0.101
522.300	38.584	0.101
522.400	40.564	0.101
522.500	45.856	0.101
522.600	32.209	0.101
522.700	33.783	0.101
522.800	45.033	0.101
522.900	31.926	0.101
523.000	28.853	0.101
523.100	36.789	0.101
523.200	48.156	0.101
523.300	36.042	0.101
523.400	35.802	0.101
523.500	38.432	0.101
523.600	33.452	0.101
523.700	40.743	0.101
523.800	29.560	0.101
523.900	41.293	0.101
524.000	37.573	0.101
524.100	35.008	0.101
524.200	31.869	0.101
524.300	33.189	0.101
524.400	39.959	0.101
524.500	51.867	0.101
524.600	40.528	0.101
524.700	30.345	0.101
524.800	36.871	0.101
524.900	44.310	0.101
525.000	47.839	0.101
525.100	43.324	0.101
525.200	35.531	0.101
525.300	38.803	0.101
525.400	37.367	0.101
525.500	42.785	0.101
525.600	35.235	0.101
525.700	28.572	0.101
525.800	41.436	0.101
525.900	43.300	0.101
526.000	22.865	0.101
526.100	41.275	0.101
526.200	32.528	0.101
526.300	37.388	0.101
526.400	34.698	0.101
526.500	44.542	0.101
526.600	43.715	0.101
526.700	42.713	0.101
526.800	47.228	0.101
526.900	45.149	0.101
527.000	33.494	0.101
527.100	33.072	0.101
527.200	41.587	0.101
527.300	43.078	0.101
527.400	37.327	0.101
527.500	49.346	0.101
527.600	39.404	0.101
527.700	41.775	0.101
527.800	31.279	0.101
527.900	33.803	0.101
528.000	30.750	0.101
528.100	42.592	0.101
528.200	45.862	0.101
528.300	48.429	0.101
528.400	39.663	0.101
528.500	31.372	0.101
528.600	44.491	0.101
528.700	43.841	0.101
528.800	47.472	0.101
528.900	41.199	0.101
529.000	36.147	0.101
529.100	35.225	0.101
529.200	37.646	0.101
529.300	47.389	0.101
529.400	31.127	0.101
529.500	41.404	0.101
529.600	42.392	0.101
529.700	27.845	0.101
529.800	41.377	0.101
529.900	51.771	0.101
530.000	34.411	0.101
530.100	44.179	0.101
530.200	47.281	0.101
530.300	33.390	0.101
530.400	33.294	0.101
530.500	29.232	0.101
530.600	41.005	0.101
530.700	49.275	0.101
530.800	29.279	0.101
530.900	42.180	0.101
531.000	49.945	0.101
531.100	34.700	0.101
531.200	31.911	0.101
531.300	37.816	0.101
531.400	27.678	0.101
531.500	49.822	0.101
531.600	43.370	0.101
531.700	41.803	0.101
531.800	34.158	0.101
531.900	44.916	0.101
532.000	41.327	0.101
532.100	37.664	0.101
532.200	50.132	0.101
532.300	47.419	0.101
532.400	53.143	0.101
532.500	41.633	0.101
532.600	37.153	0.101
532.700	46.490	0.101
532.800	46.140	0.101
532.900	44.809	0.101
533.000	35.142	0.101
533.100	60.737	0.101
533.200	33.017	0.101
533.300	42.902	0.101
533.400	43.238	0.101
533.500	38.992	0.101
533.600	47.028	0.101
533.700	48.849	0.101
533.800	49.329	0.101
533.900	44.227	0.101
534.000	44.171	0.101
534.100	42.532	0.101
534.200	41.016	0.101
534.300	30.592	0.101
534.400	31.925	0.101
534.500	44.033	0.101
534.600	50.293	0.101
534.700	43.039	0.101
534.800	34.665	0.101
534.900	36.979	0.101
535.000	39.831	0.101
535.100	40.497	0.101
535.200	39.630	0.101
535.300	34.548	0.101
535.400	41.571	0.101
535.500	48.518	0.101
535.600	39.039	0.101
535.700	37.202	0.101
535.800	40.650	0.101
535.900	46.276	0.101
536.000	49.845	0.101
536.100	39.365	0.101
536.200	49.944	0.101
536.300	29.908	0.101
536.400	57.354	0.101
536.500	42.588	0.101
536.600	38.528	0.101
536.700	33.683	0.101
536.800	35.185	0.101
536.900	44.159	0.101
537.000	40.106	0.101
537.100	38.639	0.101
537.200	41.634	0.101
537.300	24.273	0.101
537.400	43.784	0.101
537.500	46.726	0.101
537.600	45.340	0.101
537.700	30.464	0.101
537.800	39.958	0.101
537.900	53.030	0.101
538.000	47.095	0.101
538.100	50.155	0.101
538.200	34.166	0.101
538.300	46.599	0.101
538.400	43.725	0.101
538.500	42.102	0.101
538.600	50.840	0.101
538.700	45.979	0.101
538.800	37.242	0.101
538.900	27.887	0.101
539.000	38.361	0.101
539.100	50.879	0.101
539.200	40.142	0.101
539.300	52.208	0.101
539.400	42.227	0.101
539.500	27.228	0.101
539.600	32.274	0.101
539.700	50.299	0.101
539.800	41.541	0.101
539.900	59.928	0.101
540.000	34.727	0.101
540.100	40.038	0.101
540.200	39.300	0.101
540.300	39.003	0.101
540.400	35.987	0.101
540.500	30.666	0.101
540.600	45.838	0.101
540.700	36.245	0.101
540.800	24.240	0.101
540.900	40.757	0.101
541.000	35.643	0.101
541.100	26.020	0.101
541.200	22.915	0.101
541.300	30.685	0.101
541.400	24.609	0.101
541.500	25.085	0.101
541.600	19.929	0.101
541.700	22.671	0.101
541.800	20.204	0.101
541.900	18.575	0.101
542.000	29.228	0.101
542.100	27.571	0.101
542.200	27.065	0.101
542.300	23.562	0.101
542.400	19.310	0.101
542.500	19.449	0.101
542.600	14.121	0.101
542.700	24.363	0.101
542.800	12.300	0.101
542.900	15.053	0.101
543.000	22.536	0.101
543.100	7.846	0.101
543.200	16.494	0.101
543.300	30.090	0.101
543.400	8.946	0.101
543.500	16.641	0.101
543.600	14.652	0.101
543.700	10.507	0.101
543.800	19.431	0.101
543.900	20.602	0.101
544.000	21.440	0.101
544.100	12.628	0.101
544.200	12.302	0.101
544.300	26.034	0.101
544.400	10.676	0.101
544.500	-2.209	0.101
544.600	18.056	0.101
544.700	9.042	0.101
544.800	11.200	0.101
544.900	18.015	0.101
545.000	9.845	0.101
545.100	16.589	0.101
545.200	15.771	0.101
545.300	18.513	0.101
545.400	10.877	0.101
545.500	8.428	0.101
545.600	16.853	0.101
545.700	9.609	0.101
545.800	10.978	0.101
545.900	8.201	0.101
546.000	8.814	0.101
546.100	18.994	0.101
546.200	15.933	0.101
546.300	20.804	0.101
546.400	8.955	0.101
546.500	16.302	0.101
546.600	5.392	0.101
546.700	14.647	0.101
546.800	0.238	0.101
546.900	22.022	0.101
547.000	19.921	0.101
547.100	14.070	0.101
547.200	-3.821	0.101
547.300	5.523	0.101
547.400	29.541	0.101
547.500	22.091	0.101
547.600	4.337	0.101
547.700	22.072	0.101
547.800	11.599	0.101
547.900	15.054	0.101
548.000	19.296	0.101
548.100	11.737	0.101
548.200	11.354	0.101
548.300	7.959	0.101
548.400	10.451	0.101
548.500	5.727	0.101
548.600	8.545	0.101
548.700	14.359	0.101
548.800	20.584	0.101
548.900	30.664	0.101
549.000	9.629	0.101
549.100	4.411	0.101
549.200	23.106	0.101
549.300	16.919	0.101
549.400	16.643	0.101
549.500	2.437	0.101
549.600	10.455	0.101
549.700	9.327	0.101
549.800	8.253	0.101
549.900	23.066	0.101
550.000	20.433	0.101
550.100	10.592	0.101
550.200	11.124	0.101
550.300	19.932	0.101
550.400	19.173	0.101
550.500	4.640	0.101
550.600	12.405	0.101
550.700	2.491	0.101
550.800	11.555	0.101
550.900	7.897	0.101
551.000	5.784	0.101
551.100	13.870	0.101
551.200	18.183	0.101
551.300	18.530	0.101
551.400	2.984	0.101
551.500	21.096	0.101
551.600	12.850	0.101
551.700	13.028	0.101
551.800	13.380	0.101
551.900	12.737	0.101
552.000	14.659	0.101
552.100	5.029	0.101
552.200	6.036	0.101
552.300	13.963	0.101
552.400	-0.631	0.101
552.500	5.883	0.101
552.600	12.594	0.101
552.700	9.416	0.101
552.800	19.872	0.101
552.900	8.355	0.101
553.000	9.766	0.101
553.100	10.995	0.101
553.200	16.689	0.101
553.300	9.236	0.101
553.400	7.695	0.101
553.500	12.637	0.101
553.600	2.680	0.101
553.700	-2.598	0.101
553.800	15.542	0.101
553.900	13.237	0.101
554.000	19.944	0.101
554.100	9.590	0.101
554.200	5.793	0.101
554.300	3.473	0.101
554.400	-2.887	0.101
554.500	15.945	0.101
554.600	5.467	0.101
554.700	12.169	0.101
554.800	6.068	0.101
554.900	5.126	0.101
555.000	14.281	0.101
555.100	13.138	0.101
555.200	11.529	0.101
555.300	6.531	0.101
555.400	11.524	0.101
555.500	0.999	0.101
555.600	0.758	0.101
555.700	11.194	0.101
555.800	8.257	0.101
555.900	4.034	0.101
556.000	13.765	0.101
556.100	6.572	0.101
556.200	5.320	0.101
556.300	3.965	0.101
556.400	11.636	0.101
556.500	5.079	0.101
556.600	17.653	0.101
556.700	18.472	0.101
556.800	12.379	0.101
556.900	11.937	0.101
557.000	-1.531	0.101
557.100	17.933	0.101
557.200	9.129	0.101
557.300	10.306	0.101
557.400	12.467	0.101
557.500	10.643	0.101
557.600	-8.282	0.101
557.700	8.596	0.101
557.800	-3.062	0.101
557.900	11.122	0.101
558.000	5.595	0.101
558.100	-0.026	0.101
558.200	-2.950	0.101
558.300	3.526	0.101
558.400	0.150	0.101
558.500	12.920	0.101
558.600	8.609	0.101
558.700	-6.180	0.101
558.800	-6.184	0.101
558.900	4.583	0.101
559.000	16.450	0.101
559.100	0.602	0.101
559.200	6.903	0.101
559.300	4.072	0.101
559.400	-0.862	0.101
559.500	-5.928	0.101
559.600	10.965	0.101
559.700	0.862	0.101
559.800	5.758	0.101
559.900	-3.913	0.101
560.000	3.002	0.101
560.100	-0.745	0.101
560.200	4.093	0.101
560.300	-8.768	0.101
560.400	3.844	0.101
560.500	7.713	0.101
560.600	13.138	0.101
560.700	1.727	0.101
560.800	-6.183	0.101
560.900	0.499	0.101
561.000	2.755	0.101
561.100	12.561	0.101
561.200	4.305	0.101
561.300	2.489	0.101
561.400	-0.324	0.101
561.500	-1.374	0.101
561.600	1.354	0.101
561.700	-5.518	0.101
561.800	-1.077	0.101
561.900	20.424	0.101
562.000	0.818	0.101
562.100	17.276	0.101
562.200	3.348	0.101
562.300	-3.127	0.101
562.400	-10.108	0.101
562.500	-7.717	0.101
562.600	-8.495	0.101
562.700	10.126	0.101
562.800	9.160	0.101
562.900	2.502	0.101
563.000	-5.621	0.101
563.100	1.988	0.101
563.200	9.002	0.101
563.300	9.167	0.101
563.400	-14.007	0.101
563.500	-3.555	0.101
563.600	-6.145	0.101
563.700	-1.946	0.101
563.800	-3.013	0.101
563.900	8.460	0.101
564.000	-7.994	0.101
564.100	-0.366	0.101
564.200	-19.706	0.101
564.300	-9.695	0.101
564.400	4.975	0.101
564.500	-4.650	0.101
564.600	-5.577	0.101
564.700	-4.356	0.101
564.800	-7.559	0.101
564.900	1.329	0.101
565.000	-6.221	0.101
565.100	-2.383	0.101
565.200	-4.949	0.101
565.300	7.343	0.101
565.400	-1.307	0.101
565.500	5.124	0.101
565.600	2.368	0.101
565.700	-5.406	0.101
565.800	-4.634	0.101
565.900	0.671	0.101
566.000	6.242	0.101
566.100	-11.967	0.101
566.200	7.461	0.101
566.300	0.659	0.101
566.400	-3.022	0.101
566.500	-13.930	0.101
566.600	3.381	0.101
566.700	-0.004	0.101
566.800	5.082	0.101
566.900	-2.437	0.101
567.000	12.337	0.101
567.100	-8.735	0.101
567.200	-7.890	0.101
567.300	5.644	0.101
567.400	-0.007	0.101
567.500	-12.007	0.101
567.600	-8.205	0.101
567.700	11.425	0.101
567.800	2.964	0.101
567.900	-8.472	0.101
568.000	4.638	0.101
568.100	5.721	0.101
568.200	-15.450	0.101
568.300	-13.335	0.101
568.400	5.628	0.101
568.500	-1.777	0.101
568.600	1.366	0.101
568.700	-1.218	0.101
568.800	3.019	0.101
568.900	-3.228	0.101
569.000	3.518	0.101
569.100	-9.043	0.101
569.200	-0.035	0.101
569.300	-5.843	0.101
569.400	-10.179	0.101
569.500	-8.266	0.101
569.600	-2.525	0.101
569.700	-0.300	0.101
569.800	-2.430	0.101
569.900	-14.832	0.101
570.000	-9.140	0.101
570.100	-14.036	0.101
570.200	-15.751	0.101
570.300	10.936	0.101
570.400	4.949	0.101
570.500	-10.174	0.101
570.600	-3.195	0.101
570.700	-10.106	0.101
570.800	-12.465	0.101
570.900	-2.529	0.101
571.000	5.070	0.101
571.100	-1.783	0.101
571.200	-13.979	0.101
571.300	-3.827	0.101
571.400	-13.745	0.101
571.500	2.936	0.101
571.600	-5.428	0.101
571.700	-16.022	0.101
571.800	-1.677	0.101
571.900	-6.614	0.101
572.000	-7.549	0.101
572.100	-6.075	0.101
572.200	-9.125	0.101
572.300	-3.195	0.101
572.400	-6.265	0.101
572.500	-26.667	0.101
572.600	-3.134	0.101
572.700	-0.197	0.101
572.800	-9.085	0.101
572.900	9.456	0.101
573.000	5.028	0.101
573.100	-3.122	0.101
573.200	-14.639	0.101
573.300	-15.204	0.101
573.400	-11.895	0.101
573.500	1.289	0.101
573.600	-6.158	0.101
573.700	-8.809	0.101
573.800	-4.990	0.101
573.900	3.154	0.101
574.000	-16.417	0.101
574.100	-18.572	0.101
574.200	-11.783	0.101
574.300	4.371	0.101
574.400	-0.906	0.101
574.500	-27.097	0.101
574.600	-11.186	0.101
574.700	-2.567	0.101
574.800	-14.683	0.101
574.900	-10.087	0.101
575.000	-19.947	0.101
575.100	-8.614	0.101
575.200	2.126	0.101
575.300	-11.817	0.101
575.400	-2.192	0.101
575.500	-12.447	0.101
575.600	-16.748	0.101
575.700	-1.860	0.101
575.800	-13.637	0.101
575.900	-2.263	0.101
576.000	-3.348	0.101
576.100	-11.873	0.101
576.200	-2.847	0.101
576.300	-7.340	0.101
576.400	-2.251	0.101
576.500	-16.757	0.101
576.600	-2.279	0.101
576.700	-6.184	0.101
576.800	-1.552	0.101
576.900	-18.678	0.101
577.000	-18.191	0.101
577.100	-18.270	0.101
577.200	-16.321	0.101
577.300	-5.821	0.101
577.400	4.478	0.101
577.500	-14.744	0.101
577.600	-18.727	0.101
577.700	-10.700	0.101
577.800	3.058	0.101
577.900	-10.940	0.101
578.000	-14.912	0.101
578.100	-7.270	0.101
578.200	4.570	0.101
578.300	-24.957	0.101
578.400	-12.167	0.101
578.500	-4.313	0.101
578.600	-5.870	0.101
578.700	-8.166	0.101
578.800	-7.625	0.101
578.900	-11.795	0.101
579.000	-27.260	0.101
579.100	-5.704	0.101
579.200	-12.738	0.101
579.300	0.042	0.101
579.400	-9.845	0.101
579.500	-16.757	0.101
579.600	-17.105	0.101
579.700	6.925	0.101
579.800	-12.809	0.101
579.900	-7.569	0.101
580.000	-13.413	0.101
580.100	-2.381	0.101
580.200	0.036	0.101
580.300	-17.280	0.101
580.400	-5.309	0.101
580.500	1.413	0.101
580.600	-12.522	0.101
580.700	-25.226	0.101
580.800	-21.524	0.101
580.900	-17.246	0.101
581.000	-16.441	0.101
581.100	-16.211	0.101
581.200	-3.101	0.101
581.300	-24.679	0.101
581.400	-16.129	0.101
581.500	-2.648	0.101
581.600	-7.409	0.101
581.700	-22.870	0.101
581.800	-6.224	0.101
581.900	-11.849	0.101
582.000	-3.490	0.101
582.100	-24.005	0.101
582.200	-12.711	0.101
582.300	-18.908	0.101
582.400	-18.187	0.101
582.500	-7.787	0.101
582.600	-10.438	0.101
582.700	-8.151	0.101
582.800	-11.016	0.101
582.900	-7.730	0.101
583.000	-19.690	0.101
583.100	-15.143	0.101
583.200	-11.901	0.101
583.300	-12.650	0.101
583.400	-22.476	0.101
583.500	1.721	0.101
583.600	2.468	0.101
583.700	-22.567	0.101
583.800	-13.290	0.101
583.900	-11.028	0.101
584.000	-9.854	0.101
584.100	-21.427	0.101
584.200	-4.542	0.101
584.300	-13.864	0.101
584.400	-15.279	0.101
584.500	-14.355	0.101
584.600	-26.803	0.101
584.700	-12.767	0.101
584.800	-18.153	0.101
584.900	-12.203	0.101
585.000	-22.498	0.101
585.100	-6.681	0.101
585.200	-17.259	0.101
585.300	-13.060	0.101
585.400	-10.828	0.101
585.500	-3.456	0.101
585.600	-22.833	0.101
585.700	-11.551	0.101
585.800	-22.362	0.101
585.900	-20.395	0.101
586.000	-15.011	0.101
586.100	-19.086	0.101
586.200	-15.568	0.101
586.300	-19.603	0.101
586.400	-11.307	0.101
586.500	-5.753	0.101
586.600	-6.959	0.101
586.700	-11.950	0.101
586.800	-10.311	0.101
586.900	-2.689	0.101
587.000	-3.416	0.101
587.100	-15.309	0.101
587.200	-12.429	0.101
587.300	-18.766	0.101
587.400	-2.742	0.101
587.500	-17.169	0.101
587.600	-4.974	0.101
587.700	-14.917	0.101
587.800	-11.036	0.101
587.900	-21.565	0.101
588.000	-12.134	0.101
588.100	-4.527	0.101
588.200	-21.543	0.101
588.300	-4.197	0.101
588.400	-9.500	0.101
588.500	-8.620	0.101
588.600	-19.237	0.101
588.700	-15.648	0.101
588.800	-21.712	0.101
588.900	-5.080	0.101
589.000	-17.506	0.101
589.100	-10.464	0.101
589.200	-16.622	0.101
589.300	-25.819	0.101
589.400	-13.425	0.101
589.500	-6.142	0.101
589.600	-5.912	0.101
589.700	-6.034	0.101
589.800	-36.125	0.101
589.900	-20.339	0.101
590.000	-18.016	0.101
590.100	-6.112	0.101
590.200	-7.152	0.101
590.300	0.330	0.101
590.400	-15.105	0.101
590.500	-5.833	0.101
590.600	-23.911	0.101
590.700	-9.676	0.101
590.800	-9.068	0.101
590.900	-13.742	0.101
591.000	-0.707	0.101
591.100	-7.850	0.101
591.200	-20.424	0.101
591.300	-12.508	0.101
591.400	-14.752	0.101
591.500	-6.905	0.101
591.600	-13.988	0.101
591.700	-17.005	0.101
591.800	-13.790	0.101
591.900	-23.289	0.101
592.000	-24.197	0.101
592.100	-16.132	0.101
592.200	-8.437	0.101
592.300	-20.139	0.101
592.400	-9.687	0.101
592.500	-28.066	0.101
592.600	-23.210	0.101
592.700	3.134	0.101
592.800	-15.966	0.101
592.900	-12.132	0.101
593.000	-12.586	0.101
593.100	-13.618	0.101
593.200	-10.232	0.101
593.300	-18.541	0.101
593.400	-7.585	0.101
593.500	-15.650	0.101
593.600	-18.686	0.101
593.700	-14.446	0.101
593.800	-4.729	0.101
593.900	-27.888	0.101
594.000	-7.728	0.101
594.100	-27.010	0.101
594.200	-17.602	0.101
594.300	-23.595	0.101
594.400	-20.545	0.101
594.500	-20.087	0.101
594.600	-11.538	0.101
594.700	-15.445	0.101
594.800	-28.850	0.101
594.900	-11.197	0.101
595.000	-18.031	0.101
595.100	-19.630	0.101
595.200	-16.916	0.101
595.300	-22.442	0.101
595.400	-13.773	0.101
595.500	-1.974	0.101
595.600	-16.943	0.101
595.700	-15.209	0.101
595.800	-17.615	0.101
595.900	-6.937	0.101
596.000	-13.621	0.101
596.100	-23.100	0.101
596.200	-15.472	0.101
596.300	-8.639	0.101
596.400	-23.600	0.101
596.500	-14.463	0.101
596.600	-12.022	0.101
596.700	-15.143	0.101
596.800	-8.976	0.101
596.900	-16.794	0.101
597.000	-15.590	0.101
597.100	-0.386	0.101
597.200	-7.379	0.101
597.300	-13.168	0.101
597.400	-20.272	0.101
597.500	-9.006	0.101
597.600	-25.546	0.101
597.700	-4.224	0.101
597.800	-8.238	0.101
597.900	-21.739	0.101
598.000	-20.132	0.101
598.100	-11.861	0.101
598.200	-3.046	0.101
598.300	-4.423	0.101
598.400	-9.361	0.101
598.500	-23.835	0.101
598.600	-16.003	0.101
598.700	-7.730	0.101
598.800	-25.757	0.101
598.900	-25.037	0.101
599.000	-19.865	0.101
599.100	-15.335	0.101
599.200	-21.427	0.101
599.300	-21.498	0.101
599.400	-26.620	0.101
599.500	-18.460	0.101
599.600	-15.031	0.101
599.700	-14.498	0.101
599.800	-11.037	0.101
599.900	-0.934	0.101
600.000	-23.751	0.101
600.100	-8.811	0.101
600.200	-9.902	0.101
600.300	-13.824	0.101
600.400	-14.182	0.101
600.500	-24.689	0.101
600.600	-27.301	0.101
600.700	-14.485	0.101
600.800	-19.098	0.101
600.900	-5.934	0.101
601.000	-10.928	0.101
601.100	-24.792	0.101
601.200	-21.914	0.101
601.300	-3.887	0.101
601.400	-10.636	0.101
601.500	-14.378	0.101
601.600	-5.969	0.101
601.700	-11.103	0.101
601.800	-5.420	0.101
601.900	-16.509	0.101
602.000	-17.046	0.101
602.100	-12.149	0.101
602.200	-2.960	0.101
602.300	-15.077	0.101
602.400	-43.021	0.101
602.500	-17.911	0.101
602.600	-5.520	0.101
602.700	-11.429	0.101
602.800	-20.780	0.101
602.900	-11.627	0.101
603.000	-17.659	0.101
603.100	-15.476	0.101
603.200	-15.950	0.101
603.300	-23.547	0.101
603.400	-17.817	0.101
603.500	-8.688	0.101
603.600	-6.744	0.101
603.700	-14.587	0.101
603.800	-18.741	0.101
603.900	1.942	0.101
604.000	-11.615	0.101
604.100	-25.805	0.101
604.200	-19.377	0.101
604.300	-28.199	0.101
604.400	-12.736	0.101
604.500	-3.121	0.101
604.600	-23.418	0.101
604.700	-9.034	0.101
604.800	-28.119	0.101
604.900	-20.571	0.101
605.000	-19.689	0.101
605.100	-14.083	0.101
605.200	-15.962	0.101
605.300	-25.993	0.101
605.400	-17.314	0.101
605.500	-20.907	0.101
605.600	-5.429	0.101
605.700	-15.276	0.101
605.800	-18.401	0.101
605.900	-8.583	0.101
606.000	-14.477	0.101
606.100	-8.797	0.101
606.200	-17.113	0.101
606.300	-14.163	0.101
606.400	-19.415	0.101
606.500	-14.860	0.101
606.600	-15.401	0.101
606.700	-15.954	0.101
606.800	-13.479	0.101
606.900	-6.676	0.101
607.000	-7.419	0.101
607.100	-8.922	0.101
607.200	-14.188	0.101
607.300	-13.414	0.101
607.400	-8.358	0.101
607.500	-8.074	0.101
607.600	-12.478	0.101
607.700	-22.189	0.101
607.800	-14.234	0.101
607.900	-17.584	0.101
608.000	-17.258	0.101
608.100	-11.703	0.101
608.200	-11.311	0.101
608.300	-13.658	0.101
608.400	-23.088	0.101
608.500	-7.914	0.101
608.600	-3.171	0.101
608.700	-26.123	0.101
608.800	-25.621	0.101
608.900	-10.136	0.101
609.000	-13.481	0.101
609.100	-11.070	0.101
609.200	-10.833	0.101
609.300	-19.413	0.101
609.400	-8.118	0.101
609.500	-12.192	0.101
609.600	-14.449	0.101
609.700	-23.988	0.101
609.800	-10.831	0.101
609.900	-17.517	0.101
610.000	-21.211	0.101
610.100	-23.047	0.101
610.200	-11.229	0.101
610.300	-3.064	0.101
610.400	-4.242	0.101
610.500	-17.973	0.101
610.600	-23.140	0.101
610.700	-11.610	0.101
610.800	-12.211	0.101
610.900	-16.645	0.101
611.000	-11.905	0.101
611.100	-16.638	0.101
611.200	-11.083	0.101
611.300	-27.384	0.101
611.400	-6.298	0.101
611.500	-14.831	0.101
611.600	-23.102	0.101
611.700	-16.117	0.101
611.800	-13.789	0.101
611.900	-13.066	0.101
612.000	-12.209	0.101
612.100	-15.964	0.101
612.200	-29.482	0.101
612.300	-33.166	0.101
612.400	-19.568	0.101
612.500	-15.426	0.101
612.600	-10.784	0.101
612.700	-8.496	0.101
612.800	-26.501	0.101
612.900	-16.842	0.101
613.000	-23.485	0.101
613.100	-22.235	0.101
613.200	-9.582	0.101
613.300	-14.584	0.101
613.400	-8.256	0.101
613.500	-13.269	0.101
613.600	-20.856	0.101
613.700	-8.319	0.101
613.800	-13.771	0.101
613.900	-15.912	0.101
614.000	-19.172	0.101
614.100	-7.502	0.101
614.200	-18.185	0.101
614.300	-17.232	0.101
614.400	-8.629	0.101
614.500	-6.841	0.101
614.600	-18.718	0.101
614.700	-8.878	0.101
614.800	-14.042	0.101
614.900	-10.116	0.101
615.000	-24.277	0.101
615.100	-21.433	0.101
615.200	-13.702	0.101
615.300	-30.032	0.101
615.400	-9.102	0.101
615.500	-23.699	0.101
615.600	-6.052	0.101
615.700	-11.528	0.101
615.800	-12.230	0.101
615.900	2.406	0.101
616.000	-14.148	0.101
616.100	-21.783	0.101
616.200	-13.144	0.101
616.300	-5.116	0.101
616.400	-13.078	0.101
616.500	-13.999	0.101
616.600	-11.572	0.101
616.700	-21.788	0.101
616.800	-26.460	0.101
616.900	-17.170	0.101
617.000	-10.877	0.101
617.100	-14.989	0.101
617.200	-23.208	0.101
617.300	-4.655	0.101
617.400	-5.674	0.101
617.500	-24.934	0.101
617.600	-27.825	0.101
617.700	-23.032	0.101
617.800	-27.403	0.101
617.900	-13.016	0.101
618.000	4.506	0.101
618.100	-21.140	0.101
618.200	-23.540	0.101
618.300	-16.227	0.101
618.400	1.376	0.101
618.500	-19.096	0.101
618.600	-25.579	0.101
618.700	-15.729	0.101
618.800	-11.719	0.101
618.900	-17.882	0.101
619.000	-13.740	0.101
619.100	-20.146	0.101
619.200	-18.854	0.101
619.300	-19.220	0.101
619.400	-12.669	0.101
619.500	-13.964	0.101
619.600	-8.594	0.101
619.700	-21.491	0.101
619.800	-38.021	0.101
619.900	-8.770	0.101
620.000	-5.674	0.101
620.100	-13.598	0.101
620.200	-27.363	0.101
620.300	-13.061	0.101
620.400	-12.678	0.101
620.500	-17.913	0.101
620.600	-13.535	0.101
620.700	-14.245	0.101
620.800	-24.399	0.101
620.900	-17.185	0.101
621.000	-4.524	0.101
621.100	-19.230	0.101
621.200	-28.143	0.101
621.300	-15.303	0.101
621.400	-16.373	0.101
621.500	-14.621	0.101
621.600	-19.805	0.101
621.700	-13.791	0.101
621.800	-18.864	0.101
621.900	-20.969	0.101
622.000	-20.581	0.101
622.100	-14.112	0.101
622.200	-18.491	0.101
622.300	-7.149	0.101
622.400	-8.125	0.101
622.500	-10.278	0.101
622.600	-33.532	0.101
622.700	-14.119	0.101
622.800	-15.378	0.101
622.900	-23.483	0.101
623.000	-2.480	0.101
623.100	-15.856	0.101
623.200	-21.332	0.101
623.300	-10.798	0.101
623.400	-11.481	0.101
623.500	-19.293	0.101
623.600	-11.576	0.101
623.700	-16.444	0.101
623.800	-16.063	0.101
623.900	-10.042	0.101
624.000	-13.537	0.101
624.100	-16.656	0.101
624.200	-25.498	0.101
624.300	-3.551	0.101
624.400	-25.174	0.101
624.500	-13.213	0.101
624.600	-14.804	0.101
624.700	-24.049	0.101
624.800	-23.441	0.101
624.900	-21.756	0.101
625.000	-18.006	0.101
625.100	-12.615	0.101
625.200	-19.465	0.101
625.300	-1.508	0.101
625.400	-25.286	0.101
625.500	-23.877	0.101
625.600	-1.659	0.101
625.700	-20.670	0.101
625.800	-26.742	0.101
625.900	-19.424	0.101
626.000	-12.126	0.101
626.100	-18.874	0.101
626.200	-9.402	0.101
626.300	-19.733	0.101
626.400	-20.871	0.101
626.500	-12.912	0.101
626.600	-15.702	0.101
626.700	-18.345	0.101
626.800	-17.686	0.101
626.900	-15.611	0.101
627.000	-19.665	0.101
627.100	-18.110	0.101
627.200	-15.011	0.101
627.300	-6.523	0.101
627.400	-19.671	0.101
627.500	-8.628	0.101
627.600	-17.574	0.101
627.700	-15.102	0.101
627.800	-22.933	0.101
627.900	-20.001	0.101
628.000	-6.779	0.101
628.100	-9.010	0.101
628.200	-11.225	0.101
628.300	-12.973	0.101
628.400	-20.889	0.101
628.500	-19.037	0.101
628.600	-20.305	0.101
628.700	-18.574	0.101
628.800	-17.688	0.101
628.900	-19.735	0.101
629.000	-20.525	0.101
629.100	-12.597	0.101
629.200	-6.184	0.101
629.300	-10.787	0.101
629.400	-6.058	0.101
629.500	-17.520	0.101
629.600	-26.290	0.101
629.700	-14.276	0.101
629.800	-12.265	0.101
629.900	-26.030	0.101
630.000	-7.961	0.101
630.100	-12.783	0.101
630.200	-20.612	0.101
630.300	-14.313	0.101
630.400	-22.130	0.101
630.500	-10.963	0.101
630.600	-16.788	0.101
630.700	-15.216	0.101
630.800	-13.487	0.101
630.900	-4.059	0.101
631.000	-15.079	0.101
631.100	0.603	0.101
631.200	-3.850	0.101
631.300	-10.443	0.101
631.400	-16.201	0.101
631.500	-3.791	0.101
631.600	-0.473	0.101
631.700	6.088	0.101
631.800	13.552	0.101
631.900	0.140	0.101
632.000	19.603	0.101
632.100	-8.550	0.101
632.200	-2.549	0.101
632.300	1.381	0.101
632.400	-4.386	0.101
632.500	4.677	0.101
632.600	7.931	0.101
632.700	3.168	0.101
632.800	-2.012	0.101
632.900	-11.749	0.101
633.000	8.563	0.101
633.100	-5.687	0.101
633.200	3.436	0.101
633.300	10.135	0.101
633.400	6.896	0.101
633.500	-0.753	0.101
633.600	-1.912	0.101
633.700	10.627	0.101
633.800	1.377	0.101
633.900	2.053	0.101
634.000	4.627	0.101
634.100	-5.615	0.101
634.200	-1.434	0.101
634.300	3.293	0.101
634.400	12.847	0.101
634.500	1.120	0.101
634.600	1.906	0.101
634.700	-1.237	0.101
634.800	13.536	0.101
634.900	1.484	0.101
635.000	-5.482	0.101
635.100	1.378	0.101
635.200	0.995	0.101
635.300	5.357	0.101
635.400	5.603	0.101
635.500	-5.032	0.101
635.600	-1.247	0.101
635.700	8.740	0.101
635.800	5.107	0.101
635.900	-6.211	0.101
636.000	-21.677	0.101
636.100	0.581	0.101
636.200	13.118	0.101
636.300	13.715	0.101
636.400	7.276	0.101
636.500	-0.841	0.101
636.600	2.315	0.101
636.700	9.296	0.101
636.800	-0.961	0.101
636.900	-0.917	0.101
637.000	13.046	0.101
637.100	-1.743	0.101
637.200	-18.890	0.101
637.300	-1.284	0.101
637.400	6.606	0.101
637.500	-2.553	0.101
637.600	3.358	0.101
637.700	4.735	0.101
637.800	11.540	0.101
637.900	13.963	0.101
638.000	-4.386	0.101
638.100	-4.537	0.101
638.200	-6.886	0.101
638.300	15.521	0.101
638.400	12.481	0.101
638.500	1.211	0.101
638.600	-1.321	0.101
638.700	15.249	0.101
638.800	5.669	0.101
638.900	13.683	0.101
639.000	-6.943	0.101
639.100	16.044	0.101
639.200	12.201	0.101
639.300	8.790	0.101
639.400	6.305	0.101
639.500	3.009	0.101
639.600	3.674	0.101
639.700	2.781	0.101
639.800	6.684	0.101
639.900	3.544	0.101
640.000	2.728	0.101
640.100	9.669	0.101
640.200	6.548	0.101
640.300	5.052	0.101
640.400	9.125	0.101
640.500	-0.575	0.101
640.600	6.761	0.101
640.700	11.238	0.101
640.800	4.057	0.101
640.900	-4.937	0.101
641.000	7.688	0.101
641.100	9.689	0.101
641.200	16.085	0.101
641.300	12.764	0.101
641.400	23.743	0.101
641.500	18.570	0.101
641.600	-0.068	0.101
641.700	6.760	0.101
641.800	14.985	0.101
641.900	-0.046	0.101
642.000	15.047	0.101
642.100	8.585	0.101
642.200	-3.767	0.101
642.300	23.772	0.101
642.400	0.875	0.101
642.500	16.845	0.101
642.600	17.290	0.101
642.700	16.356	0.101
642.800	12.829	0.101
642.900	7.404	0.101
643.000	-0.799	0.101
643.100	7.895	0.101
643.200	11.984	0.101
643.300	9.311	0.101
643.400	14.142	0.101
643.500	13.513	0.101
643.600	2.243	0.101
643.700	2.486	0.101
643.800	1.455	0.101
643.900	7.354	0.101
644.000	16.115	0.101
644.100	9.279	0.101
644.200	14.149	0.101
644.300	8.353	0.101
644.400	7.635	0.101
644.500	16.658	0.101
644.600	8.663	0.101
644.700	6.428	0.101
644.800	7.187	0.101
644.900	17.920	0.101
645.000	22.962	0.101
645.100	13.918	0.101
645.200	-0.451	0.101
645.300	10.613	0.101
645.400	7.732	0.101
645.500	11.942	0.101
645.600	22.572	0.101
645.700	3.042	0.101
645.800	13.406	0.101
645.900	22.355	0.101
646.000	14.277	0.101
646.100	9.690	0.101
646.200	18.041	0.101
646.300	14.992	0.101
646.400	11.941	0.101
646.500	3.962	0.101
646.600	7.292	0.101
646.700	12.520	0.101
646.800	20.305	0.101
646.900	3.706	0.101
647.000	10.352	0.101
647.100	24.731	0.101
647.200	0.724	0.101
647.300	16.186	0.101
647.400	20.949	0.101
647.500	16.943	0.101
647.600	19.928	0.101
647.700	13.504	0.101
647.800	-1.756	0.101
647.900	9.436	0.101
648.000	19.700	0.101
648.100	23.024	0.101
648.200	22.448	0.101
648.300	10.349	0.101
648.400	10.004	0.101
648.500	22.615	0.101
648.600	11.313	0.101
648.700	18.153	0.101
648.800	19.045	0.101
648.900	16.155	0.101
649.000	23.842	0.101
649.100	20.911	0.101
649.200	17.885	0.101
649.300	24.233	0.101
649.400	24.515	0.101
649.500	16.181	0.101
649.600	21.019	0.101
649.700	8.513	0.101
649.800	13.665	0.101
649.900	32.693	0.101
650.000	16.741	0.101
650.100	27.831	0.101
650.200	32.130	0.101
650.300	12.101	0.101
650.400	18.896	0.101
650.500	6.887	0.101
650.600	31.266	0.101
650.700	28.780	0.101
650.800	7.706	0.101
650.900	20.876	0.101
651.000	22.659	0.101
651.100	9.563	0.101
651.200	20.713	0.101
651.300	16.513	0.101
651.400	15.594	0.101
651.500	14.679	0.101
651.600	17.127	0.101
651.700	22.189	0.101
651.800	9.691	0.101
651.900	39.798	0.101
652.000	18.167	0.101
652.100	18.441	0.101
652.200	23.496	0.101
652.300	16.729	0.101
652.400	15.299	0.101
652.500	34.814	0.101
652.600	33.442	0.101
652.700	21.012	0.101
652.800	10.562	0.101
652.900	24.861	0.101
653.000	21.297	0.101
653.100	29.364	0.101
653.200	23.351	0.101
653.300	24.211	0.101
653.400	29.192	0.101
653.500	22.842	0.101
653.600	26.197	0.101
653.700	17.365	0.101
653.800	22.263	0.101
653.900	24.364	0.101
654.000	10.771	0.101
654.100	29.367	0.101
654.200	26.443	0.101
654.300	11.306	0.101
654.400	10.624	0.101
654.500	30.890	0.101
654.600	9.739	0.101
654.700	24.709	0.101
654.800	28.639	0.101
654.900	32.882	0.101
655.000	16.377	0.101
655.100	33.184	0.101
655.200	37.568	0.101
655.300	30.182	0.101
655.400	25.270	0.101
655.500	30.679	0.101
655.600	36.783	0.101
655.700	22.987	0.101
655.800	20.580	0.101
655.900	26.578	0.101
656.000	36.452	0.101
656.100	36.426	0.101
656.200	25.804	0.101
656.300	18.024	0.101
656.400	14.625	0.101
656.500	34.212	0.101
656.600	21.277	0.101
656.700	29.222	0.101
656.800	31.657	0.101
656.900	18.492	0.101
657.000	29.934	0.101
657.100	27.829	0.101
657.200	30.940	0.101
657.300	29.359	0.101
657.400	43.924	0.101
657.500	41.934	0.101
657.600	32.441	0.101
657.700	31.261	0.101
657.800	34.227	0.101
657.900	43.192	0.101
658.000	28.178	0.101
658.100	21.179	0.101
658.200	14.287	0.101
658.300	28.029	0.101
658.400	28.281	0.101
658.500	37.554	0.101
658.600	22.771	0.101
658.700	20.090	0.101
658.800	35.346	0.101
658.900	33.205	0.101
659.000	29.790	0.101
659.100	35.808	0.101
659.200	27.040	0.101
659.300	27.041	0.101
659.400	41.486	0.101
659.500	24.562	0.101
659.600	33.646	0.101
659.700	34.209	0.101
659.800	35.984	0.101
659.900	27.324	0.101
660.000	30.522	0.101
660.100	29.956	0.101
660.200	29.342	0.101
660.300	32.842	0.101
660.400	25.094	0.101
660.500	41.070	0.101
660.600	19.267	0.101
660.700	30.744	0.101
660.800	25.567	0.101
660.900	37.571	0.101
661.000	32.042	0.101
661.100	24.043	0.101
661.200	36.080	0.101
661.300	32.836	0.101
661.400	28.813	0.101
661.500	37.570	0.101
661.600	42.072	0.101
661.700	25.670	0.101
661.800	33.093	0.101
661.900	21.231	0.101
662.000	20.247	0.101
662.100	45.119	0.101
662.200	34.468	0.101
662.300	32.829	0.101
662.400	26.644	0.101
662.500	31.429	0.101
662.600	35.746	0.101
662.700	16.600	0.101
662.800	43.028	0.101
662.900	29.584	0.101
663.000	39.187	0.101
663.100	34.895	0.101
663.200	43.885	0.101
663.300	43.420	0.101
663.400	45.359	0.101
663.500	35.271	0.101
663.600	39.904	0.101
663.700	35.495	0.101
663.800	42.356	0.101
663.900	19.069	0.101
664.000	46.974	0.101
664.100	17.792	0.101
664.200	32.278	0.101
664.300	38.304	0.101
664.400	29.152	0.101
664.500	45.875	0.101
664.600	28.227	0.101
664.700	25.745	0.101
664.800	18.272	0.101
664.900	36.186	0.101
665.000	40.685	0.101
665.100	47.195	0.101
665.200	33.433	0.101
665.300	37.308	0.101
665.400	45.608	0.101
665.500	36.582	0.101
665.600	35.096	0.101
665.700	30.941	0.101
665.800	40.344	0.101
665.900	36.981	0.101
666.000	25.585	0.101
666.100	34.096	0.101
666.200	50.525	0.101
666.300	34.256	0.101
666.400	39.835	0.101
666.500	32.335	0.101
666.600	40.480	0.101
666.700	35.890	0.101
666.800	30.126	0.101
666.900	29.288	0.101
667.000	39.557	0.101
667.100	28.779	0.101
667.200	42.355	0.101
667.300	43.505	0.101
667.400	30.169	0.101
667.500	38.121	0.101
667.600	38.929	0.101
667.700	35.137	0.101
667.800	18.479	0.101
667.900	25.036	0.101
668.000	57.715	0.101
668.100	39.510	0.101
668.200	30.792	0.101
668.300	33.779	0.101
668.400	37.104	0.101
668.500	37.495	0.101
668.600	30.071	0.101
668.700	36.039	0.101
668.800	36.812	0.101
668.900	44.806	0.101
669.000	40.796	0.101
669.100	47.940	0.101
669.200	23.139	0.101
669.300	33.123	0.101
669.400	26.126	0.101
669.500	38.794	0.101
669.600	38.828	0.101
669.700	36.586	0.101
669.800	23.713	0.101
669.900	50.174	0.101
670.000	46.606	0.101
670.100	30.344	0.101
670.200	41.953	0.101
670.300	32.493	0.101
670.400	30.779	0.101
670.500	42.886	0.101
670.600	27.067	0.101
670.700	27.945	0.101
670.800	38.326	0.101
670.900	44.209	0.101
671.000	46.610	0.101
671.100	31.135	0.101
671.200	38.139	0.101
671.300	49.552	0.101
671.400	38.073	0.101
671.500	27.255	0.101
671.600	43.169	0.101
671.700	42.969	0.101
671.800	37.955	0.101
671.900	34.927	0.101
672.000	47.840	0.101
672.100	31.559	0.101
672.200	32.646	0.101
672.300	42.842	0.101
672.400	30.641	0.101
672.500	28.669	0.101
672.600	41.327	0.101
672.700	43.148	0.101
672.800	28.266	0.101
672.900	48.601	0.101
673.000	47.676	0.101
673.100	27.289	0.101
673.200	34.079	0.101
673.300	46.982	0.101
673.400	44.811	0.101
673.500	27.459	0.101
673.600	42.063	0.101
673.700	44.505	0.101
673.800	31.084	0.101
673.900	24.583	0.101
674.000	31.789	0.101
674.100	42.483	0.101
674.200	36.166	0.101
674.300	27.260	0.101
674.400	32.279	0.101
674.500	42.136	0.101
674.600	37.391	0.101
674.700	46.564	0.101
674.800	39.353	0.101
674.900	37.611	0.101
675.000	41.187	0.101
675.100	38.941	0.101
675.200	44.949	0.101
675.300	32.676	0.101
675.400	33.806	0.101
675.500	31.288	0.101
675.600	43.056	0.101
675.700	48.355	0.101
675.800	28.952	0.101
675.900	42.591	0.101
676.000	35.063	0.101
676.100	30.379	0.101
676.200	48.167	0.101
676.300	35.489	0.101
676.400	38.143	0.101
676.500	28.495	0.101
676.600	44.745	0.101
676.700	45.223	0.101
676.800	43.166	0.101
676.900	26.820	0.101
677.000	31.314	0.101
677.100	29.420	0.101
677.200	23.774	0.101
677.300	42.977	0.101
677.400	42.283	0.101
677.500	36.681	0.101
677.600	36.491	0.101
677.700	31.446	0.101
677.800	39.502	0.101
677.900	52.635	0.101
678.000	30.263	0.101
678.100	41.224	0.101
678.200	40.277	0.101
678.300	41.191	0.101
678.400	48.801	0.101
678.500	44.533	0.101
678.600	37.075	0.101
678.700	31.999	0.101
678.800	33.504	0.101
678.900	35.907	0.101
679.000	37.037	0.101
679.100	44.802	0.101
679.200	44.013	0.101
679.300	34.961	0.101
679.400	44.323	0.101
679.500	41.469	0.101
679.600	45.246	0.101
679.700	41.291	0.101
679.800	27.217	0.101
679.900	45.992	0.101
680.000	30.486	0.101
680.100	35.095	0.101
680.200	39.198	0.101
680.300	36.147	0.101
680.400	39.465	0.101
680.500	50.923	0.101
680.600	45.422	0.101
680.700	28.966	0.101
680.800	30.112	0.101
680.900	33.275	0.101
681.000	38.294	0.101
681.100	47.664	0.101
681.200	33.695	0.101
681.300	45.537	0.101
681.400	37.768	0.101
681.500	42.364	0.101
681.600	45.157	0.101
681.700	46.954	0.101
681.800	40.952	0.101
681.900	26.322	0.101
682.000	46.840	0.101
682.100	44.310	0.101
682.200	40.625	0.101
682.300	37.595	0.101
682.400	39.284	0.101
682.500	37.263	0.101
682.600	33.234	0.101
682.700	48.472	0.101
682.800	28.588	0.101
682.900	50.618	0.101
683.000	47.956	0.101
683.100	40.924	0.101
683.200	41.956	0.101
683.300	40.762	0.101
683.400	49.972	0.101
683.500	35.068	0.101
683.600	40.296	0.101
683.700	42.418	0.101
683.800	34.927	0.101
683.900	48.760	0.101
684.000	38.955	0.101
684.100	46.804	0.101
684.200	39.780	0.101
684.300	29.034	0.101
684.400	39.864	0.101
684.500	42.763	0.101
684.600	32.288	0.101
684.700	42.593	0.101
684.800	41.548	0.101
684.900	31.694	0.101
685.000	24.965	0.101
685.100	44.699	0.101
685.200	28.864	0.101
685.300	41.367	0.101
685.400	47.721	0.101
685.500	53.913	0.101
685.600	32.361	0.101
685.700	43.177	0.101
685.800	38.565	0.101
685.900	32.046	0.101
686.000	38.638	0.101
686.100	43.957	0.101
686.200	43.564	0.101
686.300	27.763	0.101
686.400	35.893	0.101
686.500	50.817	0.101
686.600	44.447	0.101
686.700	52.108	0.101
686.800	43.744	0.101
686.900	32.989	0.101
687.000	34.159	0.101
687.100	30.868	0.101
687.200	55.046	0.101
687.300	37.086	0.101
687.400	42.690	0.101
687.500	32.283	0.101
687.600	45.703	0.101
687.700	43.085	0.101
687.800	41.065	0.101
687.900	39.850	0.101
688.000	59.362	0.101
688.100	40.898	0.101
688.200	46.626	0.101
688.300	23.583	0.101
688.400	42.815	0.101
688.500	43.311	0.101
688.600	27.524	0.101
688.700	41.400	0.101
688.800	38.604	0.101
688.900	34.230	0.101
689.000	48.190	0.101
689.100	47.245	0.101
689.200	52.251	0.101
689.300	49.859	0.101
689.400	47.365	0.101
689.500	43.663	0.101
689.600	45.016	0.101
689.700	35.098	0.101
689.800	43.277	0.101
689.900	33.675	0.101
690.000	49.605	0.101
690.100	38.655	0.101
690.200	47.780	0.101
690.300	32.177	0.101
690.400	34.356	0.101
690.500	32.753	0.101
690.600	40.370	0.101
690.700	29.342	0.101
690.800	42.946	0.101
690.900	28.681	0.101
691.000	47.888	0.101
691.100	39.889	0.101
691.200	32.866	0.101
691.300	20.819	0.101
691.400	21.242	0.101
691.500	26.027	0.101
691.600	25.093	0.101
691.700	20.160	0.101
691.800	30.581	0.101
691.900	13.496	0.101
692.000	33.919	0.101
692.100	24.981	0.101
692.200	22.834	0.101
692.300	19.573	0.101
692.400	13.900	0.101
692.500	28.168	0.101
692.600	30.669	0.101
692.700	16.310	0.101
692.800	29.663	0.101
692.900	25.004	0.101
693.000	20.236	0.101
693.100	4.458	0.101
693.200	12.090	0.101
693.300	11.739	0.101
693.400	18.302	0.101
693.500	11.681	0.101
693.600	29.775	0.101
693.700	20.331	0.101
693.800	15.102	0.101
693.900	6.079	0.101
694.000	16.161	0.101
694.100	6.521	0.101
694.200	20.553	0.101
694.300	12.717	0.101
694.400	20.435	0.101
694.500	7.678	0.101
694.600	10.492	0.101
694.700	15.468	0.101
694.800	15.830	0.101
694.900	9.577	0.101
695.000	3.088	0.101
695.100	12.039	0.101
695.200	11.311	0.101
695.300	14.331	0.101
695.400	23.924	0.101
695.500	4.465	0.101
695.600	12.776	0.101
695.700	14.034	0.101
695.800	10.459	0.101
695.900	10.403	0.101
696.000	13.049	0.101
696.100	12.791	0.101
696.200	20.473	0.101
696.300	20.562	0.101
696.400	4.167	0.101
696.500	11.196	0.101
696.600	27.980	0.101
696.700	7.945	0.101
696.800	-9.181	0.101
696.900	10.773	0.101
697.000	-1.385	0.101
697.100	7.538	0.101
697.200	10.813	0.101
697.300	9.884	0.101
697.400	17.251	0.101
697.500	7.530	0.101
697.600	18.584	0.101
697.700	0.847	0.101
697.800	11.845	0.101
697.900	16.828	0.101
698.000	0.633	0.101
698.100	4.796	0.101
698.200	13.563	0.101
698.300	14.349	0.101
698.400	12.895	0.101
698.500	10.899	0.101
698.600	10.033	0.101
698.700	10.991	0.101
698.800	15.145	0.101
698.900	8.316	0.101
699.000	19.677	0.101
699.100	15.551	0.101
699.200	15.596	0.101
699.300	20.348	0.101
699.400	4.647	0.101
699.500	5.249	0.101
699.600	12.606	0.101
699.700	18.550	0.101
699.800	11.693	0.101
699.900	4.527	0.101
700.000	19.117	0.101
700.100	-3.340	0.101
700.200	17.164	0.101
700.300	20.462	0.101
700.400	17.882	0.101
700.500	17.641	0.101
700.600	15.875	0.101
700.700	-11.903	0.101
700.800	3.206	0.101
700.900	23.940	0.101
701.000	5.642	0.101
701.100	5.495	0.101
701.200	7.352	0.101
701.300	18.409	0.101
701.400	10.037	0.101
701.500	9.716	0.101
701.600	10.845	0.101
701.700	-2.500	0.101
701.800	8.977	0.101
701.900	11.098	0.101
702.000	12.266	0.101
702.100	18.195	0.101
702.200	23.102	0.101
702.300	21.654	0.101
702.400	9.763	0.101
702.500	6.364	0.101
702.600	14.572	0.101
702.700	3.921	0.101
702.800	11.466	0.101
702.900	11.908	0.101
703.000	19.676	0.101
703.100	5.851	0.101
703.200	3.109	0.101
703.300	5.565	0.101
703.400	12.114	0.101
703.500	10.457	0.101
703.600	3.852	0.101
703.700	9.484	0.101
703.800	1.725	0.101
703.900	17.535	0.101
704.000	7.515	0.101
704.100	4.285	0.101
704.200	10.596	0.101
704.300	5.346	0.101
704.400	7.485	0.101
704.500	1.610	0.101
704.600	15.780	0.101
704.700	-2.769	0.101
704.800	-2.192	0.101
704.900	2.368	0.101
705.000	11.195	0.101
705.100	0.600	0.101
705.200	5.892	0.101
705.300	7.554	0.101
705.400	9.162	0.101
705.500	2.051	0.101
705.600	5.003	0.101
705.700	4.873	0.101
705.800	11.655	0.101
705.900	16.049	0.101
706.000	4.650	0.101
706.100	6.845	0.101
706.200	7.691	0.101
706.300	7.638	0.101
706.400	2.321	0.101
706.500	4.775	0.101
706.600	12.659	0.101
706.700	-3.283	0.101
706.800	-2.503	0.101
706.900	0.276	0.101
707.000	19.338	0.101
707.100	13.306	0.101
707.200	-0.085	0.101
707.300	5.345	0.101
707.400	3.694	0.101
707.500	9.715	0.101
707.600	-6.120	0.101
707.700	-5.092	0.101
707.800	2.748	0.101
707.900	6.140	0.101
708.000	-2.741	0.101
708.100	-2.379	0.101
708.200	16.971	0.101
708.300	12.028	0.101
708.400	2.269	0.101
708.500	6.616	0.101
708.600	12.392	0.101
708.700	-4.433	0.101
708.800	8.296	0.101
708.900	3.676	0.101
709.000	1.099	0.101
709.100	-0.152	0.101
709.200	4.000	0.101
709.300	2.943	0.101
709.400	3.412	0.101
709.500	11.982	0.101
709.600	7.993	0.101
709.700	2.724	0.101
709.800	-1.711	0.101
709.900	-3.406	0.101
710.000	9.886	0.101
710.100	2.575	0.101
710.200	6.050	0.101
710.300	11.451	0.101
710.400	15.656	0.101
710.500	4.220	0.101
710.600	-6.473	0.101
710.700	-8.347	0.101
710.800	17.245	0.101
710.900	-1.641	0.101
711.000	-0.697	0.101
711.100	12.832	0.101
711.200	-0.543	0.101
711.300	10.665	0.101
711.400	-9.517	0.101
711.500	0.739	0.101
711.600	5.435	0.101
711.700	8.814	0.101
711.800	1.249	0.101
711.900	-6.921	0.101
712.000	-7.057	0.101
712.100	8.185	0.101
712.200	11.420	0.101
712.300	-11.070	0.101
712.400	5.106	0.101
712.500	4.703	0.101
712.600	2.160	0.101
712.700	16.219	0.101
712.800	1.039	0.101
712.900	-7.027	0.101
713.000	2.773	0.101
713.100	13.777	0.101
713.200	-7.318	0.101
713.300	-6.478	0.101
713.400	-4.894	0.101
713.500	10.536	0.101
713.600	-10.847	0.101
713.700	10.125	0.101
713.800	12.087	0.101
713.900	-14.370	0.101
714.000	2.884	0.101
714.100	2.187	0.101
714.200	-6.180	0.101
714.300	-20.547	0.101
714.400	-3.088	0.101
714.500	9.231	0.101
714.600	-8.294	0.101
714.700	-2.209	0.101
714.800	-1.118	0.101
714.900	-9.293	0.101
715.000	0.246	0.101
715.100	-9.305	0.101
715.200	-9.463	0.101
715.300	8.165	0.101
715.400	5.653	0.101
715.500	-0.311	0.101
715.600	-7.644	0.101
715.700	-0.403	0.101
715.800	-3.835	0.101
715.900	-18.292	0.101
716.000	2.233	0.101
716.100	-3.029	0.101
716.200	-14.394	0.101
716.300	1.648	0.101
716.400	-6.400	0.101
716.500	6.376	0.101
716.600	0.431	0.101
716.700	4.237	0.101
716.800	-8.118	0.101
716.900	-4.256	0.101
717.000	-2.347	0.101
717.100	16.800	0.101
717.200	-3.361	0.101
717.300	-19.057	0.101
717.400	-5.776	0.101
717.500	-3.990	0.101
717.600	6.181	0.101
717.700	-3.164	0.101
717.800	-23.732	0.101
717.900	-10.300	0.101
718.000	-6.459	0.101
718.100	-8.087	0.101
718.200	-2.163	0.101
718.300	-8.162	0.101
718.400	-15.579	0.101
718.500	-18.421	0.101
718.600	-5.200	0.101
718.700	2.613	0.101
718.800	-11.038	0.101
718.900	7.260	0.101
719.000	-0.852	0.101
719.100	1.184	0.101
719.200	-15.484	0.101
719.300	4.456	0.101
719.400	-2.899	0.101
719.500	-7.662	0.101
719.600	-11.384	0.101
719.700	6.741	0.101
719.800	-14.671	0.101
719.900	-9.210	0.101
720.000	3.771	0.101
720.100	-14.388	0.101
720.200	-13.517	0.101
720.300	2.348	0.101
720.400	-7.301	0.101
720.500	-12.425	0.101
720.600	-16.737	0.101
720.700	-2.819	0.101
720.800	-3.762	0.101
720.900	3.559	0.101
721.000	-8.250	0.101
721.100	-18.810	0.101
721.200	-14.260	0.101
721.300	-16.602	0.101
721.400	0.391	0.101
721.500	-10.017	0.101
721.600	-6.869	0.101
721.700	-8.207	0.101
721.800	3.773	0.101
721.900	-15.294	0.101
722.000	-5.930	0.101
722.100	-16.072	0.101
722.200	-17.341	0.101
722.300	10.490	0.101
722.400	-3.151	0.101
722.500	7.802	0.101
722.600	-19.502	0.101
722.700	-24.990	0.101
722.800	-11.114	0.101
722.900	-1.465	0.101
723.000	-9.888	0.101
723.100	-3.926	0.101
723.200	-1.802	0.101
723.300	9.369	0.101
723.400	-22.491	0.101
723.500	-14.451	0.101
723.600	-24.007	0.101
723.700	-13.086	0.101
723.800	-8.623	0.101
723.900	-4.158	0.101
724.000	-1.429	0.101
724.100	-12.940	0.101
724.200	-2.685	0.101
724.300	-6.514	0.101
724.400	-9.697	0.101
724.500	-15.139	0.101
724.600	-26.983	0.101
724.700	-17.322	0.101
724.800	-1.784	0.101
724.900	-9.724	0.101
725.000	-2.588	0.101
725.100	-3.388	0.101
725.200	-4.876	0.101
725.300	-19.835	0.101
725.400	-3.973	0.101
725.500	-9.722	0.101
725.600	-8.529	0.101
725.700	-2.881	0.101
725.800	-12.520	0.101
725.900	-6.116	0.101
726.000	-20.240	0.101
726.100	-7.104	0.101
726.200	-16.449	0.101
726.300	-3.264	0.101
726.400	-6.688	0.101
726.500	-9.013	0.101
726.600	-12.518	0.101
726.700	-17.783	0.101
726.800	-12.094	0.101
726.900	-4.011	0.101
727.000	-3.661	0.101
727.100	-21.074	0.101
727.200	-15.559	0.101
727.300	-22.602	0.101
727.400	-17.705	0.101
727.500	-5.771	0.101
727.600	-9.355	0.101
727.700	-18.972	0.101
727.800	-24.916	0.101
727.900	-7.381	0.101
728.000	-9.030	0.101
728.100	-9.195	0.101
728.200	-8.536	0.101
728.300	-12.479	0.101
728.400	-11.835	0.101
728.500	-11.130	0.101
728.600	-7.069	0.101
728.700	-1.039	0.101
728.800	-9.684	0.101
728.900	-8.237	0.101
729.000	-19.428	0.101
729.100	-21.956	0.101
729.200	-6.068	0.101
729.300	-23.433	0.101
729.400	-9.274	0.101
729.500	-2.576	0.101
729.600	-9.794	0.101
729.700	-4.082	0.101
729.800	-4.419	0.101
729.900	-8.130	0.101
730.000	-12.066	0.101
730.100	-19.512	0.101
730.200	-15.190	0.101
730.300	-0.718	0.101
730.400	-22.231	0.101
730.500	-12.717	0.101
730.600	-0.271	0.101
730.700	-18.499	0.101
730.800	-1.177	0.101
730.900	-12.465	0.101
731.000	-15.516	0.101
731.100	-31.910	0.101
731.200	-5.688	0.101
731.300	-17.821	0.101
731.400	-7.592	0.101
731.500	-14.952	0.101
731.600	-17.406	0.101
731.700	-7.101	0.101
731.800	-14.718	0.101
731.900	-5.007	0.101
732.000	-17.983	0.101
732.100	-13.065	0.101
732.200	-22.278	0.101
732.300	-16.231	0.101
732.400	4.985	0.101
732.500	-22.703	0.101
732.600	-3.012	0.101
732.700	-21.999	0.101
732.800	-12.883	0.101
732.900	-9.167	0.101
733.000	-19.114	0.101
733.100	-22.621	0.101
733.200	-4.257	0.101
733.300	-11.591	0.101
733.400	-14.393	0.101
733.500	-23.124	0.101
733.600	-11.929	0.101
733.700	-15.882	0.101
733.800	-9.500	0.101
733.900	-20.294	0.101
734.000	-6.028	0.101
734.100	-17.951	0.101
734.200	-3.152	0.101
734.300	-14.392	0.101
734.400	-8.753	0.101
734.500	-4.896	0.101
734.600	-17.447	0.101
734.700	-23.503	0.101
734.800	-20.152	0.101
734.900	-10.094	0.101
735.000	-19.807	0.101
735.100	-13.086	0.101
735.200	-13.070	0.101
735.300	-13.661	0.101
735.400	-11.416	0.101
735.500	-9.533	0.101
735.600	-20.601	0.101
735.700	-3.557	0.101
735.800	-15.693	0.101
735.900	-19.424	0.101
736.000	-10.610	0.101
736.100	-10.765	0.101
736.200	-10.582	0.101
736.300	-22.556	0.101
736.400	-15.042	0.101
736.500	-21.510	0.101
736.600	-22.222	0.101
736.700	-18.600	0.101
736.800	-22.227	0.101
736.900	-1.016	0.101
737.000	-14.781	0.101
737.100	-11.236	0.101
737.200	-11.625	0.101
737.300	-26.091	0.101
737.400	-9.051	0.101
737.500	-3.940	0.101
737.600	-18.135	0.101
737.700	-18.592	0.101
737.800	-23.411	0.101
737.900	-8.319	0.101
738.000	-16.648	0.101
738.100	-23.687	0.101
738.200	-7.816	0.101
738.300	-19.017	0.101
738.400	-16.239	0.101
738.500	-10.509	0.101
738.600	-18.152	0.101
738.700	-4.086	0.101
738.800	-16.777	0.101
738.900	-9.903	0.101
739.000	-9.890	0.101
739.100	-12.692	0.101
739.200	-1.467	0.101
739.300	-6.664	0.101
739.400	-15.171	0.101
739.500	-15.438	0.101
739.600	-23.340	0.101
739.700	-6.760	0.101
739.800	-16.194	0.101
739.900	-3.280	0.101
740.000	-9.819	0.101
740.100	4.880	0.101
740.200	-34.655	0.101
740.300	-8.199	0.101
740.400	-11.842	0.101
740.500	-17.054	0.101
740.600	-13.038	0.101
740.700	-8.332	0.101
740.800	-19.811	0.101
740.900	-16.524	0.101
741.000	-24.658	0.101
741.100	-4.574	0.101
741.200	-20.165	0.101
741.300	-1.694	0.101
741.400	-14.332	0.101
741.500	-14.860	0.101
741.600	-11.089	0.101
741.700	-24.752	0.101
741.800	-19.102	0.101
741.900	-18.409	0.101
742.000	-24.983	0.101
742.100	-34.963	0.101
742.200	-26.275	0.101
742.300	-15.520	0.101
742.400	-3.610	0.101
742.500	-27.503	0.101
742.600	-15.228	0.101
742.700	-31.813	0.101
742.800	-10.198	0.101
742.900	-0.181	0.101
743.000	-15.551	0.101
743.100	-23.976	0.101
743.200	-22.633	0.101
743.300	-15.345	0.101
743.400	-10.163	0.101
743.500	-16.051	0.101
743.600	-20.063	0.101
743.700	-22.524	0.101
743.800	-8.952	0.101
743.900	-17.423	0.101
744.000	-23.704	0.101
744.100	-2.685	0.101
744.200	-30.923	0.101
744.300	-21.283	0.101
744.400	-7.378	0.101
744.500	-2.954	0.101
744.600	-0.306	0.101
744.700	-15.110	0.101
744.800	-21.402	0.101
744.900	-1.617	0.101
745.000	-16.405	0.101
745.100	-18.140	0.101
745.200	-10.527	0.101
745.300	-29.415	0.101
745.400	-23.050	0.101
745.500	-10.949	0.101
745.600	-19.108	0.101
745.700	-22.214	0.101
745.800	-25.062	0.101
745.900	-23.708	0.101
746.000	0.242	0.101
746.100	-10.261	0.101
746.200	-15.048	0.101
746.300	-11.881	0.101
746.400	-4.303	0.101
746.500	-29.546	0.101
746.600	-9.908	0.101
746.700	-15.311	0.101
746.800	-19.158	0.101
746.900	-20.698	0.101
747.000	-6.379	0.101
747.100	-11.810	0.101
747.200	-23.807	0.101
747.300	-4.261	0.101
747.400	-22.257	0.101
747.500	-11.422	0.101
747.600	-17.361	0.101
747.700	-18.982	0.101
747.800	-10.402	0.101
747.900	-22.945	0.101
748.000	-22.749	0.101
748.100	-15.724	0.101
748.200	-17.249	0.101
748.300	-19.693	0.101
748.400	-15.207	0.101
748.500	-13.922	0.101
748.600	-16.699	0.101
748.700	-22.352	0.101
748.800	-15.117	0.101
748.900	-15.905	0.101
749.000	-17.720	0.101
749.100	0.231	0.101
749.200	-11.065	0.101
749.300	-21.277	0.101
749.400	-10.423	0.101
749.500	-16.626	0.101
749.600	-14.023	0.101
749.700	-21.154	0.101
749.800	-37.115	0.101
749.900	-24.327	0.101
750.000	-10.626	0.101
750.100	-21.353	0.101
750.200	-24.769	0.101
750.300	-13.673	0.101
750.400	-18.374	0.101
750.500	-16.133	0.101
750.600	-24.284	0.101
750.700	-11.499	0.101
750.800	-8.961	0.101
750.900	-14.004	0.101
751.000	-29.647	0.101
751.100	-29.479	0.101
751.200	-10.908	0.101
751.300	-21.269	0.101
751.400	-15.884	0.101
751.500	-19.424	0.101
751.600	-18.242	0.101
751.700	-10.761	0.101
751.800	-8.404	0.101
751.900	-8.186	0.101
752.000	-15.782	0.101
752.100	-16.974	0.101
752.200	-19.916	0.101
752.300	-18.524	0.101
752.400	-22.842	0.101
752.500	-9.227	0.101
752.600	-11.520	0.101
752.700	-13.990	0.101
752.800	-20.460	0.101
752.900	-25.524	0.101
753.000	-21.311	0.101
753.100	-13.583	0.101
753.200	-11.562	0.101
753.300	-16.022	0.101
753.400	-15.875	0.101
753.500	-25.743	0.101
753.600	-11.483	0.101
753.700	-29.546	0.101
753.800	-22.372	0.101
753.900	-13.847	0.101
754.000	-25.887	0.101
754.100	-18.512	0.101
754.200	-11.364	0.101
754.300	-13.890	0.101
754.400	-18.954	0.101
754.500	-19.825	0.101
754.600	-17.797	0.101
754.700	-7.958	0.101
754.800	-22.702	0.101
754.900	-17.167	0.101
755.000	-16.495	0.101
755.100	-15.258	0.101
755.200	-7.784	0.101
755.300	-32.659	0.101
755.400	-12.258	0.101
755.500	-30.141	0.101
755.600	-25.923	0.101
755.700	-17.064	0.101
755.800	-11.514	0.101
755.900	-7.197	0.101
756.000	-19.154	0.101
756.100	-19.809	0.101
756.200	-22.035	0.101
756.300	-14.733	0.101
756.400	-11.144	0.101
756.500	-23.239	0.101
756.600	-22.262	0.101
756.700	-28.024	0.101
756.800	-10.352	0.101
756.900	-14.342	0.101
757.000	-21.525	0.101
757.100	-19.154	0.101
757.200	-14.465	0.101
757.300	-19.111	0.101
757.400	-19.312	0.101
757.500	-6.907	0.101
757.600	-20.805	0.101
757.700	-8.105	0.101
757.800	-6.571	0.101
757.900	-18.297	0.101
758.000	-18.297	0.101
758.100	-19.208	0.101
758.200	-18.816	0.101
758.300	-5.523	0.101
758.400	-14.314	0.101
758.500	-22.966	0.101
758.600	-16.848	0.101
758.700	-10.512	0.101
758.800	-12.056	0.101
758.900	-16.697	0.101
759.000	-19.979	0.101
759.100	-27.095	0.101
759.200	-11.442	0.101
759.300	-21.143	0.101
759.400	-11.955	0.101
759.500	-12.656	0.101
759.600	-14.487	0.101
759.700	-22.917	0.101
759.800	-11.555	0.101
759.900	-20.204	0.101
760.000	-16.039	0.101
760.100	-8.775	0.101
760.200	-12.579	0.101
760.300	-11.073	0.101
760.400	-4.242	0.101
760.500	-21.291	0.101
760.600	-20.297	0.101
760.700	-8.471	0.101
760.800	-26.237	0.101
760.900	-15.929	0.101
761.000	-15.088	0.101
761.100	-23.155	0.101
761.200	-19.225	0.101
761.300	-12.067	0.101
761.400	-13.292	0.101
761.500	-12.649	0.101
761.600	-16.823	0.101
761.700	-21.792	0.101
761.800	-16.765	0.101
761.900	-22.579	0.101
762.000	-12.218	0.101
762.100	-9.145	0.101
762.200	-16.843	0.101
762.300	-12.215	0.101
762.400	-21.199	0.101
762.500	-31.784	0.101
762.600	-18.634	0.101
762.700	-21.085	0.101
762.800	-27.706	0.101
762.900	-12.044	0.101
763.000	-18.291	0.101
763.100	-21.890	0.101
763.200	-11.606	0.101
763.300	-10.182	0.101
763.400	-28.937	0.101
763.500	-10.475	0.101
763.600	-25.291	0.101
763.700	-3.202	0.101
763.800	-8.975	0.101
763.900	-17.636	0.101
764.000	-15.352	0.101
764.100	-16.867	0.101
764.200	-19.159	0.101
764.300	-12.987	0.101
764.400	-28.250	0.101
764.500	6.928	0.101
764.600	-19.192	0.101
764.700	-27.046	0.101
764.800	-17.572	0.101
764.900	-15.596	0.101
765.000	-12.034	0.101
765.100	-19.076	0.101
765.200	-18.919	0.101
765.300	-24.269	0.101
765.400	-9.783	0.101
765.500	-13.779	0.101
765.600	-16.193	0.101
765.700	-21.409	0.101
765.800	-13.763	0.101
765.900	-14.343	0.101
766.000	-14.554	0.101
766.100	-12.936	0.101
766.200	-18.236	0.101
766.300	-17.672	0.101
766.400	-35.242	0.101
766.500	-5.954	0.101
766.600	-18.986	0.101
766.700	-8.991	0.101
766.800	-23.225	0.101
766.900	-20.283	0.101
767.000	-15.780	0.101
767.100	-11.334	0.101
767.200	-13.508	0.101
767.300	-12.641	0.101
767.400	-14.574	0.101
767.500	-20.770	0.101
767.600	-21.717	0.101
767.700	-15.259	0.101
767.800	-23.991	0.101
767.900	-15.095	0.101
768.000	-13.558	0.101
768.100	-14.576	0.101
768.200	-29.647	0.101
768.300	-31.719	0.101
768.400	-22.363	0.101
768.500	-11.637	0.101
768.600	-7.666	0.101
768.700	-24.792	0.101
768.800	-16.216	0.101
768.900	-27.158	0.101
769.000	-9.261	0.101
769.100	-19.771	0.101
769.200	-27.362	0.101
769.300	-23.798	0.101
769.400	-14.977	0.101
769.500	-17.602	0.101
769.600	-12.896	0.101
769.700	-18.491	0.101
769.800	-10.863	0.101
769.900	-14.052	0.101
770.000	-10.563	0.101
770.100	-14.634	0.101
770.200	-34.196	0.101
770.300	-13.345	0.101
770.400	-15.744	0.101
770.500	-16.281	0.101
770.600	-18.731	0.101
770.700	-28.369	0.101
770.800	-16.124	0.101
770.900	-12.980	0.101
771.000	-12.081	0.101
771.100	-9.102	0.101
771.200	-4.149	0.101
771.300	-33.119	0.101
771.400	-14.734	0.101
771.500	-25.957	0.101
771.600	-21.138	0.101
771.700	-8.407	0.101
771.800	-21.181	0.101
771.900	-16.604	0.101
772.000	-16.375	0.101
772.100	-18.359	0.101
772.200	-29.882	0.101
772.300	-34.879	0.101
772.400	0.697	0.101
772.500	-21.335	0.101
772.600	-14.447	0.101
772.700	-31.726	0.101
772.800	-15.146	0.101
772.900	-22.694	0.101
773.000	-14.901	0.101
773.100	-7.588	0.101
773.200	-24.503	0.101
773.300	-24.232	0.101
773.400	-13.502	0.101
773.500	-8.132	0.101
773.600	-15.631	0.101
773.700	-27.924	0.101
773.800	0.172	0.101
773.900	-17.235	0.101
774.000	-22.014	0.101
774.100	-13.383	0.101
774.200	-20.372	0.101
774.300	-12.560	0.101
774.400	-16.502	0.101
774.500	-6.209	0.101
774.600	-19.744	0.101
774.700	-24.574	0.101
774.800	-15.490	0.101
774.900	-13.889	0.101
775.000	-15.918	0.101
775.100	-23.863	0.101
775.200	-25.628	0.101
775.300	-21.592	0.101
775.400	-19.800	0.101
775.500	-17.166	0.101
775.600	-22.618	0.101
775.700	-13.745	0.101
775.800	-18.755	0.101
775.900	-21.102	0.101
776.000	-22.088	0.101
776.100	-14.225	0.101
776.200	-18.469	0.101
776.300	-15.373	0.101
776.400	-15.412	0.101
776.500	-12.862	0.101
776.600	-23.681	0.101
776.700	-14.230	0.101
776.800	-10.414	0.101
776.900	-17.582	0.101
777.000	-18.797	0.101
777.100	-1.269	0.101
777.200	-26.057	0.101
777.300	-18.845	0.101
777.400	-17.994	0.101
777.500	-13.028	0.101
777.600	0.094	0.101
777.700	-25.085	0.101
777.800	-17.082	0.101
777.900	-15.759	0.101
778.000	-15.147	0.101
778.100	-30.321	0.101
778.200	-16.508	0.101
778.300	-24.121	0.101
778.400	-24.391	0.101
778.500	-7.652	0.101
778.600	-24.662	0.101
778.700	-7.095	0.101
778.800	-13.999	0.101
778.900	-21.788	0.101
779.000	-16.803	0.101
779.100	-8.800	0.101
779.200	-16.867	0.101
779.300	-15.074	0.101
779.400	-14.792	0.101
779.500	-19.653	0.101
779.600	-25.346	0.101
779.700	-26.245	0.101
779.800	-20.366	0.101
779.900	-8.056	0.101
780.000	-20.738	0.101
780.100	-13.662	0.101
780.200	-3.363	0.101
780.300	-24.414	0.101
780.400	-27.289	0.101
780.500	-10.307	0.101
780.600	-16.281	0.101
780.700	-21.133	0.101
780.800	-10.655	0.101
780.900	4.702	0.101
781.000	-8.326	0.101
781.100	-4.416	0.101
781.200	-17.598	0.101
781.300	-0.983	0.101
781.400	-8.597	0.101
781.500	-17.451	0.101
781.600	8.990	0.101
781.700	-9.160	0.101
781.800	-4.169	0.101
781.900	-2.286	0.101
782.000	-1.541	0.101
782.100	-9.675	0.101
782.200	-1.698	0.101
782.300	-1.482	0.101
782.400	2.794	0.101
782.500	-4.113	0.101
782.600	7.440	0.101
782.700	-0.159	0.101
782.800	8.528	0.101
782.900	-6.372	0.101
783.000	-3.661	0.101
783.100	0.911	0.101
783.200	3.893	0.101
783.300	11.025	0.101
783.400	-9.498	0.101
783.500	-6.033	0.101
783.600	1.712	0.101
783.700	0.394	0.101
783.800	3.020	0.101
783.900	11.377	0.101
784.000	9.910	0.101
784.100	14.896	0.101
784.200	-12.373	0.101
784.300	3.451	0.101
784.400	-3.196	0.101
784.500	5.938	0.101
784.600	-11.416	0.101
784.700	8.422	0.101
784.800	15.903	0.101
784.900	11.311	0.101
785.000	-8.492	0.101
785.100	-4.976	0.101
785.200	2.131	0.101
785.300	3.818	0.101
785.400	4.256	0.101
785.500	2.682	0.101
785.600	2.639	0.101
785.700	10.283	0.101
785.800	-9.711	0.101
785.900	6.978	0.101
786.000	11.110	0.101
786.100	-3.563	0.101
786.200	9.702	0.101
786.300	3.885	0.101
786.400	0.043	0.101
786.500	-4.828	0.101
786.600	6.902	0.101
786.700	2.892	0.101
786.800	7.199	0.101
786.900	-4.144	0.101
787.000	-12.611	0.101
787.100	1.049	0.101
787.200	-3.959	0.101
787.300	0.394	0.101
787.400	2.106	0.101
787.500	-3.228	0.101
787.600	0.599	0.101
787.700	-17.821	0.101
787.800	17.591	0.101
787.900	-0.723	0.101
788.000	-1.497	0.101
788.100	12.237	0.101
788.200	-8.990	0.101
788.300	-4.190	0.101
788.400	8.799	0.101
788.500	2.743	0.101
788.600	11.149	0.101
788.700	-4.435	0.101
788.800	-0.048	0.101
788.900	11.614	0.101
789.000	7.881	0.101
789.100	5.463	0.101
789.200	-14.774	0.101
789.300	13.884	0.101
789.400	-2.009	0.101
789.500	4.140	0.101
789.600	9.066	0.101
789.700	13.730	0.101
789.800	8.116	0.101
789.900	15.128	0.101
790.000	4.565	0.101
790.100	-2.010	0.101
790.200	0.570	0.101
790.300	5.182	0.101
790.400	11.741	0.101
790.500	11.933	0.101
790.600	9.935	0.101
790.700	6.203	0.101
790.800	6.482	0.101
790.900	2.451	0.101
791.000	10.778	0.101
791.100	3.470	0.101
791.200	9.559	0.101
791.300	-3.544	0.101
791.400	13.714	0.101
791.500	1.013	0.101
791.600	6.019	0.101
791.700	3.902	0.101
791.800	17.711	0.101
791.900	21.178	0.101
792.000	6.944	0.101
792.100	4.321	0.101
792.200	-0.250	0.101
792.300	4.762	0.101
792.400	14.599	0.101
792.500	10.880	0.101
792.600	-6.201	0.101
792.700	5.765	0.101
792.800	6.200	0.101
792.900	8.853	0.101
793.000	24.895	0.101
793.100	20.104	0.101
793.200	5.488	0.101
793.300	13.684	0.101
793.400	17.182	0.101
793.500	11.246	0.101
793.600	-6.534	0.101
793.700	5.756	0.101
793.800	10.867	0.101
793.900	18.314	0.101
794.000	7.888	0.101
794.100	16.895	0.101
794.200	5.084	0.101
794.300	12.348	0.101
794.400	6.584	0.101
794.500	21.562	0.101
794.600	12.162	0.101
794.700	13.454	0.101
794.800	-3.833	0.101
794.900	13.786	0.101
795.000	6.560	0.101
795.100	11.252	0.101
795.200	15.725	0.101
795.300	18.228	0.101
795.400	18.602	0.101
795.500	12.263	0.101
795.600	8.815	0.101
795.700	14.705	0.101
795.800	7.303	0.101
795.900	18.656	0.101
796.000	1.541	0.101
796.100	6.034	0.101
796.200	9.766	0.101
796.300	13.028	0.101
796.400	7.964	0.101
796.500	23.390	0.101
796.600	15.123	0.101
796.700	18.049	0.101
796.800	6.709	0.101
796.900	4.317	0.101
797.000	13.414	0.101
797.100	21.186	0.101
797.200	8.762	0.101
797.300	16.106	0.101
797.400	16.817	0.101
797.500	15.042	0.101
797.600	10.372	0.101
797.700	11.750	0.101
797.800	7.664	0.101
797.900	15.773	0.101
798.000	17.409	0.101
798.100	26.845	0.101
798.200	12.917	0.101
798.300	10.923	0.101
798.400	8.179	0.101
798.500	17.296	0.101
798.600	14.372	0.101
798.700	9.988	0.101
798.800	16.827	0.101
798.900	21.259	0.101
799.000	15.136	0.101
799.100	26.251	0.101
799.200	12.564	0.101
799.300	11.238	0.101
799.400	9.084	0.101
799.500	25.788	0.101
799.600	18.915	0.101
799.700	15.163	0.101
799.800	7.346	0.101
799.900	19.748	0.101
800.000	10.024	0.101
