time /s	I /nA	E /V
0.100	-8.451	0.101
0.200	-11.812	0.101
0.300	-23.312	0.101
0.400	-17.679	0.101
0.500	-15.251	0.101
0.600	-12.966	0.101
0.700	-6.729	0.101
0.800	-16.997	0.101
0.900	-17.362	0.101
1.000	-10.252	0.101
1.100	-20.874	0.101
1.200	-11.176	0.101
1.300	-7.255	0.101
1.400	0.207	0.101
1.500	-36.492	0.101
1.600	-17.325	0.101
1.700	-27.502	0.101
1.800	1.312	0.101
1.900	-17.271	0.101
2.000	-17.105	0.101
2.100	-12.992	0.101
2.200	-19.698	0.101
2.300	-13.282	0.101
2.400	-26.265	0.101
2.500	-20.074	0.101
2.600	-19.819	0.101
2.700	-6.435	0.101
2.800	-11.983	0.101
2.900	-14.265	0.101
3.000	-3.198	0.101
3.100	-15.406	0.101
3.200	-17.507	0.101
3.300	-9.032	0.101
3.400	-13.141	0.101
3.500	-25.711	0.101
3.600	-5.750	0.101
3.700	-16.059	0.101
3.800	-9.238	0.101
3.900	-13.022	0.101
4.000	-7.777	0.101
4.100	-32.735	0.101
4.200	-8.820	0.101
4.300	-7.229	0.101
4.400	-20.954	0.101
4.500	-5.743	0.101
4.600	-10.975	0.101
4.700	-7.088	0.101
4.800	-21.720	0.101
4.900	-24.233	0.101
5.000	-13.983	0.101
5.100	-19.080	0.101
5.200	-0.662	0.101
5.300	-4.950	0.101
5.400	-21.625	0.101
5.500	-8.764	0.101
5.600	-23.178	0.101
5.700	-20.537	0.101
5.800	-14.555	0.101
5.900	-15.023	0.101
6.000	9.879	0.101
6.100	-7.091	0.101
6.200	-16.697	0.101
6.300	-14.008	0.101
6.400	-20.614	0.101
6.500	-22.547	0.101
6.600	-9.627	0.101
6.700	-10.492	0.101
6.800	-9.902	0.101
6.900	-16.334	0.101
7.000	-13.130	0.101
7.100	-15.297	0.101
7.200	-10.715	0.101
7.300	-8.083	0.101
7.400	-7.134	0.101
7.500	-19.688	0.101
7.600	-13.701	0.101
7.700	-1.290	0.101
7.800	-21.232	0.101
7.900	-13.401	0.101
8.000	-14.469	0.101
8.100	0.528	0.101
8.200	-16.559	0.101
8.300	-6.643	0.101
8.400	-18.529	0.101
8.500	-23.595	0.101
8.600	-18.801	0.101
8.700	-2.873	0.101
8.800	-7.782	0.101
8.900	-8.393	0.101
9.000	-14.046	0.101
9.100	-9.609	0.101
9.200	-16.287	0.101
9.300	-14.468	0.101
9.400	-11.186	0.101
9.500	-21.214	0.101
9.600	-19.920	0.101
9.700	-5.099	0.101
9.800	-6.875	0.101
9.900	-18.315	0.101
10.000	-11.134	0.101
10.100	-12.029	0.101
10.200	-18.385	0.101
10.300	-28.392	0.101
10.400	-6.466	0.101
10.500	-20.475	0.101
10.600	-23.317	0.101
10.700	-9.752	0.101
10.800	-6.653	0.101
10.900	-2.942	0.101
11.000	-8.819	0.101
11.100	-17.527	0.101
11.200	-15.728	0.101
11.300	-19.037	0.101
11.400	-16.448	0.101
11.500	-20.820	0.101
11.600	-5.660	0.101
11.700	0.410	0.101
11.800	-8.057	0.101
11.900	-20.623	0.101
12.000	-14.386	0.101
12.100	-3.270	0.101
12.200	-26.259	0.101
12.300	-13.347	0.101
12.400	0.678	0.101
12.500	-5.025	0.101
12.600	-8.995	0.101
12.700	-14.821	0.101
12.800	-7.416	0.101
12.900	-17.459	0.101
13.000	-11.145	0.101
13.100	-14.544	0.101
13.200	-13.477	0.101
13.300	-14.641	0.101
13.400	-18.764	0.101
13.500	-6.787	0.101
13.600	-25.244	0.101
13.700	-17.148	0.101
13.800	-17.721	0.101
13.900	-7.994	0.101
14.000	-6.651	0.101
14.100	-9.703	0.101
14.200	-11.582	0.101
14.300	-10.047	0.101
14.400	-20.846	0.101
14.500	-18.127	0.101
14.600	-13.105	0.101
14.700	-8.868	0.101
14.800	-18.664	0.101
14.900	-9.317	0.101
15.000	-6.943	0.101
15.100	-21.042	0.101
15.200	-8.679	0.101
15.300	-21.120	0.101
15.400	-15.961	0.101
15.500	-13.732	0.101
15.600	-4.759	0.101
15.700	-15.581	0.101
15.800	-18.659	0.101
15.900	-9.991	0.101
16.000	-1.224	0.101
16.100	-26.691	0.101
16.200	-4.194	0.101
16.300	-12.172	0.101
16.400	-4.032	0.101
16.500	-19.418	0.101
16.600	-12.331	0.101
16.700	-34.040	0.101
16.800	-21.822	0.101
16.900	-14.410	0.101
17.000	-19.515	0.101
17.100	-9.680	0.101
17.200	-9.240	0.101
17.300	-16.984	0.101
17.400	-14.804	0.101
17.500	-11.503	0.101
17.600	-17.062	0.101
17.700	2.253	0.101
17.800	-8.082	0.101
17.900	-7.328	0.101
18.000	-8.151	0.101
18.100	-18.829	0.101
18.200	-14.985	0.101
18.300	-14.769	0.101
18.400	-10.329	0.101
18.500	-15.485	0.101
18.600	-5.599	0.101
18.700	-11.060	0.101
18.800	-3.854	0.101
18.900	-32.851	0.101
19.000	-22.485	0.101
19.100	-9.358	0.101
19.200	-19.276	0.101
19.300	-28.184	0.101
19.400	-16.111	0.101
19.500	2.825	0.101
19.600	-11.635	0.101
19.700	-11.817	0.101
19.800	-8.516	0.101
19.900	-12.259	0.101
20.000	-16.912	0.101
20.100	-7.731	0.101
20.200	-16.858	0.101
20.300	-18.195	0.101
20.400	-18.240	0.101
20.500	-2.451	0.101
20.600	-13.077	0.101
20.700	-25.499	0.101
20.800	-13.884	0.101
20.900	-22.412	0.101
21.000	-16.442	0.101
21.100	-18.681	0.101
21.200	3.801	0.101
21.300	-14.761	0.101
21.400	-18.690	0.101
21.500	-9.280	0.101
21.600	-10.842	0.101
21.700	-10.308	0.101
21.800	-6.734	0.101
21.900	-19.865	0.101
22.000	-12.748	0.101
22.100	-9.214	0.101
22.200	-26.950	0.101
22.300	-16.520	0.101
22.400	-12.251	0.101
22.500	-14.576	0.101
22.600	0.726	0.101
22.700	-27.831	0.101
22.800	-17.987	0.101
22.900	-3.593	0.101
23.000	2.414	0.101
23.100	-8.740	0.101
23.200	-13.775	0.101
23.300	-18.111	0.101
23.400	-20.232	0.101
23.500	-5.380	0.101
23.600	-6.092	0.101
23.700	-11.341	0.101
23.800	-4.180	0.101
23.900	5.976	0.101
24.000	-10.945	0.101
24.100	-9.222	0.101
24.200	-23.205	0.101
24.300	-19.830	0.101
24.400	-2.830	0.101
24.500	-18.980	0.101
24.600	-29.377	0.101
24.700	-7.449	0.101
24.800	-21.858	0.101
24.900	-24.694	0.101
25.000	-15.200	0.101
25.100	-10.969	0.101
25.200	-13.895	0.101
25.300	-5.382	0.101
25.400	-4.590	0.101
25.500	-9.109	0.101
25.600	-3.368	0.101
25.700	-13.936	0.101
25.800	-3.599	0.101
25.900	-9.171	0.100
26.000	-17.028	0.101
26.100	-17.920	0.101
26.200	-7.105	0.101
26.300	-26.426	0.101
26.400	1.215	0.101
26.500	-7.490	0.101
26.600	-32.843	0.101
26.700	-6.124	0.101
26.800	-1.442	0.101
26.900	-28.260	0.101
27.000	-4.219	0.101
27.100	-15.934	0.101
27.200	-11.674	0.101
27.300	-7.291	0.101
27.400	-19.383	0.100
27.500	-24.208	0.101
27.600	1.167	0.100
27.700	-14.307	0.100
27.800	-5.315	0.101
27.900	-8.793	0.101
28.000	-3.492	0.101
28.100	-13.492	0.101
28.200	-5.523	0.100
28.300	-21.485	0.101
28.400	-7.844	0.100
28.500	-16.078	0.100
28.600	-12.530	0.100
28.700	-17.162	0.100
28.800	-9.378	0.101
28.900	-19.446	0.100
29.000	0.629	0.100
29.100	-7.083	0.100
29.200	-3.774	0.100
29.300	-20.388	0.100
29.400	-12.395	0.100
29.500	-17.594	0.100
29.600	-5.995	0.100
29.700	-10.675	0.100
29.800	-12.535	0.100
29.900	-8.552	0.100
30.000	-8.709	0.100
30.100	-21.830	0.100
30.200	-15.168	0.100
30.300	-13.807	0.100
30.400	1.163	0.100
30.500	-17.752	0.100
30.600	-11.999	0.100
30.700	-15.122	0.100
30.800	-10.231	0.100
30.900	-13.566	0.100
31.000	-17.480	0.100
31.100	-0.363	0.100
31.200	-14.283	0.100
31.300	-12.600	0.100
31.400	-13.128	0.100
31.500	-6.742	0.100
31.600	4.399	0.100
31.700	-2.670	0.100
31.800	-7.021	0.100
31.900	-8.394	0.101
32.000	-0.158	0.100
32.100	-1.056	0.100
32.200	-3.916	0.100
32.300	-5.286	0.100
32.400	5.974	0.100
32.500	-17.233	0.100
32.600	-3.490	0.100
32.700	-18.303	0.100
32.800	3.537	0.100
32.900	-5.932	0.100
33.000	0.956	0.100
33.100	-3.730	0.100
33.200	-4.761	0.100
33.300	7.151	0.100
33.400	-6.569	0.100
33.500	-1.994	0.100
33.600	-12.252	0.100
33.700	-1.376	0.100
33.800	-4.097	0.100
33.900	-6.289	0.100
34.000	-10.453	0.100
34.100	-0.313	0.100
34.200	-3.869	0.100
34.300	0.375	0.100
34.400	1.063	0.100
34.500	-1.061	0.100
34.600	-4.048	0.100
34.700	-11.101	0.100
34.800	-2.513	0.100
34.900	5.934	0.100
35.000	3.446	0.100
35.100	-1.763	0.100
35.200	-6.662	0.100
35.300	2.533	0.100
35.400	-2.875	0.100
35.500	9.464	0.100
35.600	4.520	0.100
35.700	-6.834	0.100
35.800	-4.004	0.100
35.900	-3.931	0.100
36.000	-5.786	0.100
36.100	-3.104	0.100
36.200	-3.237	0.100
36.300	-9.695	0.100
36.400	0.736	0.100
36.500	7.108	0.100
36.600	-2.501	0.100
36.700	-5.049	0.100
36.800	9.192	0.100
36.900	5.164	0.100
37.000	-9.932	0.100
37.100	1.709	0.100
37.200	-8.215	0.100
37.300	-5.857	0.100
37.400	0.284	0.100
37.500	-6.850	0.100
37.600	4.525	0.100
37.700	18.498	0.100
37.800	-9.515	0.100
37.900	-17.269	0.100
38.000	-15.576	0.100
38.100	5.925	0.100
38.200	12.529	0.100
38.300	5.734	0.100
38.400	6.639	0.100
38.500	-6.913	0.100
38.600	-4.491	0.100
38.700	-0.982	0.100
38.800	-0.072	0.100
38.900	-3.241	0.100
39.000	8.200	0.100
39.100	7.937	0.100
39.200	-0.620	0.100
39.300	6.112	0.100
39.400	-12.096	0.100
39.500	-1.187	0.100
39.600	-3.808	0.100
39.700	4.413	0.100
39.800	6.815	0.100
39.900	-3.597	0.100
40.000	18.250	0.100
40.100	-15.983	0.100
40.200	1.981	0.100
40.300	5.460	0.100
40.400	3.485	0.100
40.500	11.383	0.100
40.600	3.328	0.100
40.700	-1.005	0.100
40.800	12.469	0.100
40.900	4.692	0.100
41.000	-0.066	0.100
41.100	19.314	0.100
41.200	5.175	0.100
41.300	2.934	0.100
41.400	8.356	0.100
41.500	9.834	0.100
41.600	-4.243	0.100
41.700	-4.662	0.100
41.800	15.730	0.100
41.900	1.056	0.100
42.000	10.196	0.100
42.100	4.800	0.100
42.200	14.055	0.100
42.300	3.316	0.100
42.400	6.714	0.100
42.500	14.094	0.100
42.600	-10.566	0.100
42.700	11.149	0.100
42.800	12.628	0.100
42.900	-2.411	0.100
43.000	2.277	0.100
43.100	4.680	0.100
43.200	15.111	0.100
43.300	9.293	0.100
43.400	3.981	0.100
43.500	-8.011	0.100
43.600	5.550	0.100
43.700	2.811	0.100
43.800	3.686	0.100
43.900	10.399	0.100
44.000	4.488	0.100
44.100	0.257	0.100
44.200	5.082	0.100
44.300	3.332	0.100
44.400	10.751	0.100
44.500	16.829	0.100
44.600	9.929	0.100
44.700	9.691	0.100
44.800	11.939	0.100
44.900	-4.621	0.100
45.000	4.300	0.100
45.100	7.548	0.100
45.200	3.926	0.100
45.300	7.334	0.100
45.400	15.691	0.100
45.500	10.961	0.100
45.600	18.904	0.100
45.700	10.495	0.100
45.800	1.108	0.100
45.900	0.618	0.100
46.000	16.791	0.100
46.100	3.633	0.100
46.200	15.472	0.100
46.300	11.550	0.100
46.400	-4.328	0.100
46.500	12.852	0.100
46.600	3.455	0.100
46.700	13.835	0.100
46.800	8.865	0.100
46.900	3.561	0.100
47.000	7.409	0.100
47.100	10.906	0.100
47.200	10.523	0.100
47.300	2.554	0.100
47.400	12.433	0.100
47.500	0.900	0.100
47.600	3.064	0.100
47.700	9.652	0.100
47.800	19.883	0.100
47.900	17.781	0.100
48.000	7.148	0.100
48.100	12.802	0.100
48.200	6.964	0.100
48.300	8.193	0.100
48.400	14.390	0.100
48.500	15.513	0.100
48.600	11.588	0.100
48.700	20.015	0.100
48.800	22.073	0.100
48.900	7.252	0.100
49.000	9.361	0.100
49.100	10.497	0.100
49.200	8.512	0.100
49.300	1.603	0.100
49.400	23.101	0.100
49.500	3.117	0.100
49.600	2.491	0.100
49.700	22.554	0.100
49.800	15.009	0.100
49.900	1.725	0.100
50.000	15.955	0.100
50.100	16.596	0.100
50.200	10.580	0.100
50.300	10.615	0.100
50.400	21.095	0.100
50.500	0.404	0.100
50.600	8.275	0.100
50.700	15.242	0.100
50.800	8.664	0.100
50.900	16.400	0.100
51.000	11.479	0.100
51.100	10.041	0.100
51.200	10.193	0.100
51.300	7.762	0.100
51.400	9.539	0.100
51.500	11.722	0.100
51.600	17.305	0.100
51.700	23.776	0.100
51.800	19.283	0.100
51.900	19.386	0.100
52.000	15.138	0.100
52.100	18.348	0.100
52.200	12.678	0.100
52.300	11.499	0.100
52.400	6.012	0.100
52.500	3.367	0.100
52.600	18.283	0.100
52.700	11.709	0.100
52.800	14.281	0.100
52.900	6.258	0.100
53.000	12.392	0.100
53.100	23.196	0.100
53.200	23.550	0.100
53.300	30.466	0.100
53.400	19.417	0.100
53.500	14.517	0.100
53.600	15.960	0.100
53.700	-2.243	0.100
53.800	2.584	0.100
53.900	17.463	0.100
54.000	26.023	0.100
54.100	16.684	0.100
54.200	22.589	0.100
54.300	8.132	0.100
54.400	8.014	0.100
54.500	15.763	0.100
54.600	16.008	0.100
54.700	9.961	0.100
54.800	12.675	0.100
54.900	2.859	0.100
55.000	12.646	0.100
55.100	31.654	0.100
55.200	31.595	0.100
55.300	3.645	0.100
55.400	11.590	0.100
55.500	7.430	0.100
55.600	23.578	0.100
55.700	14.277	0.100
55.800	12.039	0.100
55.900	20.579	0.100
56.000	7.557	0.100
56.100	7.580	0.100
56.200	22.964	0.100
56.300	12.895	0.100
56.400	20.706	0.100
56.500	19.871	0.100
56.600	17.665	0.100
56.700	22.491	0.100
56.800	21.262	0.100
56.900	7.960	0.100
57.000	14.811	0.100
57.100	7.216	0.100
57.200	16.382	0.100
57.300	12.769	0.100
57.400	25.237	0.100
57.500	18.629	0.100
57.600	14.585	0.100
57.700	17.412	0.100
57.800	20.857	0.100
57.900	15.907	0.100
58.000	12.795	0.100
58.100	13.449	0.100
58.200	24.211	0.100
58.300	31.310	0.100
58.400	6.185	0.100
58.500	22.504	0.100
58.600	20.465	0.100
58.700	12.907	0.100
58.800	11.267	0.100
58.900	10.626	0.100
59.000	30.741	0.100
59.100	25.209	0.100
59.200	20.533	0.100
59.300	24.423	0.100
59.400	14.908	0.100
59.500	19.604	0.100
59.600	13.700	0.100
59.700	14.991	0.100
59.800	20.778	0.100
59.900	4.481	0.100
60.000	19.602	0.100
60.100	12.219	0.100
60.200	23.405	0.100
60.300	22.620	0.100
60.400	22.930	0.100
60.500	18.623	0.100
60.600	9.351	0.100
60.700	22.103	0.100
60.800	35.623	0.100
60.900	22.359	0.100
61.000	6.460	0.100
61.100	12.481	0.100
61.200	27.047	0.100
61.300	25.482	0.100
61.400	29.405	0.100
61.500	31.281	0.100
61.600	23.865	0.100
61.700	20.667	0.100
61.800	16.626	0.100
61.900	33.275	0.100
62.000	9.687	0.100
62.100	22.415	0.100
62.200	18.494	0.100
62.300	33.030	0.100
62.400	16.196	0.100
62.500	26.759	0.100
62.600	13.441	0.100
62.700	17.112	0.100
62.800	10.013	0.100
62.900	19.742	0.100
63.000	15.301	0.100
63.100	13.335	0.100
63.200	26.244	0.100
63.300	20.211	0.100
63.400	27.380	0.100
63.500	25.600	0.100
63.600	23.884	0.100
63.700	16.655	0.100
63.800	9.096	0.100
63.900	20.241	0.100
64.000	10.225	0.100
64.100	27.158	0.100
64.200	21.385	0.100
64.300	35.115	0.100
64.400	25.140	0.100
64.500	34.040	0.100
64.600	17.203	0.100
64.700	28.725	0.100
64.800	16.232	0.100
64.900	28.204	0.100
65.000	25.146	0.100
65.100	34.860	0.100
65.200	27.304	0.100
65.300	18.963	0.100
65.400	16.942	0.100
65.500	26.261	0.100
65.600	16.157	0.100
65.700	28.939	0.100
65.800	14.416	0.100
65.900	25.843	0.100
66.000	15.975	0.100
66.100	25.536	0.100
66.200	16.669	0.100
66.300	26.172	0.100
66.400	30.660	0.100
66.500	30.213	0.100
66.600	29.067	0.100
66.700	12.060	0.100
66.800	26.337	0.100
66.900	18.061	0.100
67.000	22.042	0.100
67.100	31.578	0.100
67.200	23.098	0.100
67.300	16.314	0.100
67.400	36.252	0.100
67.500	25.045	0.100
67.600	14.580	0.100
67.700	27.503	0.100
67.800	30.833	0.100
67.900	31.554	0.100
68.000	32.146	0.100
68.100	25.762	0.100
68.200	16.353	0.100
68.300	16.972	0.100
68.400	22.889	0.100
68.500	25.293	0.100
68.600	23.222	0.100
68.700	22.100	0.100
68.800	24.034	0.100
68.900	29.271	0.100
69.000	26.786	0.100
69.100	24.383	0.100
69.200	22.296	0.100
69.300	29.534	0.100
69.400	25.603	0.100
69.500	35.925	0.100
69.600	33.598	0.100
69.700	16.990	0.100
69.800	17.255	0.100
69.900	22.607	0.100
70.000	17.972	0.100
70.100	32.842	0.100
70.200	33.302	0.100
70.300	25.235	0.100
70.400	25.458	0.100
70.500	26.692	0.100
70.600	25.797	0.100
70.700	36.637	0.100
70.800	29.355	0.100
70.900	17.206	0.100
71.000	27.936	0.100
71.100	34.070	0.100
71.200	32.748	0.100
71.300	18.386	0.100
71.400	20.679	0.100
71.500	39.814	0.100
71.600	17.340	0.100
71.700	27.509	0.100
71.800	14.786	0.100
71.900	22.473	0.100
72.000	24.996	0.100
72.100	27.978	0.100
72.200	23.726	0.100
72.300	43.112	0.100
72.400	25.266	0.100
72.500	22.246	0.100
72.600	18.296	0.100
72.700	35.951	0.100
72.800	27.783	0.100
72.900	23.498	0.100
73.000	38.202	0.100
73.100	36.230	0.100
73.200	32.190	0.100
73.300	32.206	0.100
73.400	23.526	0.100
73.500	19.577	0.100
73.600	30.154	0.100
73.700	29.380	0.100
73.800	26.304	0.100
73.900	22.967	0.100
74.000	40.069	0.100
74.100	17.150	0.100
74.200	25.224	0.100
74.300	20.149	0.100
74.400	31.020	0.100
74.500	25.507	0.100
74.600	35.234	0.100
74.700	24.674	0.100
74.800	40.686	0.100
74.900	22.676	0.100
75.000	26.760	0.100
75.100	26.819	0.100
75.200	19.210	0.100
75.300	31.226	0.100
75.400	32.424	0.100
75.500	32.473	0.100
75.600	31.671	0.100
75.700	28.949	0.100
75.800	21.746	0.100
75.900	27.527	0.100
76.000	32.299	0.100
76.100	28.556	0.100
76.200	34.132	0.100
76.300	34.905	0.100
76.400	34.883	0.100
76.500	30.812	0.100
76.600	13.566	0.100
76.700	24.666	0.100
76.800	25.818	0.100
76.900	46.538	0.100
77.000	37.096	0.100
77.100	35.505	0.100
77.200	33.045	0.100
77.300	25.428	0.100
77.400	24.745	0.100
77.500	32.690	0.100
77.600	31.874	0.100
77.700	29.490	0.100
77.800	38.342	0.100
77.900	23.583	0.100
78.000	25.213	0.100
78.100	18.074	0.100
78.200	31.063	0.100
78.300	28.423	0.100
78.400	35.153	0.100
78.500	34.062	0.100
78.600	28.188	0.100
78.700	27.217	0.100
78.800	35.260	0.100
78.900	10.227	0.100
79.000	39.470	0.100
79.100	28.317	0.100
79.200	36.435	0.100
79.300	43.806	0.100
79.400	37.003	0.100
79.500	31.295	0.100
79.600	35.352	0.100
79.700	29.317	0.100
79.800	31.977	0.100
79.900	29.343	0.100
80.000	15.813	0.100
80.100	32.696	0.100
80.200	30.020	0.100
80.300	38.688	0.100
80.400	33.591	0.100
80.500	25.260	0.100
80.600	34.958	0.100
80.700	49.163	0.100
80.800	23.299	0.100
80.900	30.827	0.100
81.000	38.244	0.100
81.100	12.203	0.100
81.200	37.258	0.100
81.300	29.677	0.100
81.400	36.854	0.100
81.500	27.523	0.100
81.600	26.774	0.100
81.700	30.668	0.100
81.800	38.850	0.100
81.900	23.432	0.100
82.000	33.403	0.100
82.100	18.668	0.100
82.200	25.672	0.100
82.300	25.616	0.100
82.400	33.830	0.100
82.500	31.853	0.100
82.600	33.056	0.101
82.700	31.239	0.101
82.800	34.110	0.101
82.900	30.757	0.101
83.000	48.665	0.101
83.100	31.118	0.101
83.200	23.664	0.101
83.300	39.544	0.101
83.400	50.703	0.101
83.500	16.986	0.101
83.600	16.994	0.101
83.700	27.997	0.101
83.800	39.634	0.101
83.900	27.739	0.101
84.000	33.837	0.101
84.100	30.320	0.101
84.200	21.258	0.101
84.300	20.902	0.101
84.400	26.359	0.101
84.500	43.978	0.101
84.600	36.237	0.101
84.700	46.259	0.101
84.800	34.733	0.101
84.900	36.011	0.101
85.000	26.470	0.101
85.100	28.884	0.101
85.200	35.491	0.101
85.300	24.908	0.101
85.400	47.507	0.101
85.500	28.668	0.101
85.600	39.315	0.101
85.700	40.028	0.101
85.800	20.964	0.101
85.900	36.917	0.101
86.000	31.068	0.101
86.100	33.587	0.101
86.200	38.148	0.101
86.300	31.950	0.101
86.400	45.410	0.101
86.500	39.105	0.101
86.600	32.728	0.101
86.700	29.064	0.101
86.800	37.001	0.101
86.900	46.628	0.101
87.000	28.989	0.101
87.100	22.036	0.101
87.200	14.377	0.101
87.300	28.480	0.101
87.400	34.588	0.101
87.500	30.561	0.101
87.600	36.138	0.101
87.700	34.595	0.101
87.800	28.642	0.101
87.900	40.195	0.101
88.000	28.514	0.101
88.100	28.999	0.101
88.200	37.438	0.101
88.300	37.475	0.101
88.400	25.913	0.101
88.500	37.252	0.101
88.600	27.452	0.101
88.700	37.824	0.101
88.800	45.766	0.101
88.900	25.649	0.101
89.000	34.172	0.101
89.100	55.903	0.101
89.200	36.799	0.101
89.300	33.504	0.101
89.400	12.133	0.101
89.500	33.912	0.101
89.600	30.317	0.101
89.700	38.631	0.101
89.800	33.065	0.101
89.900	25.091	0.101
90.000	47.071	0.101
90.100	21.691	0.101
90.200	34.025	0.101
90.300	29.933	0.101
90.400	35.457	0.101
90.500	25.537	0.101
90.600	20.885	0.101
90.700	28.568	0.101
90.800	28.620	0.101
90.900	44.705	0.101
91.000	29.683	0.101
91.100	36.805	0.101
91.200	38.900	0.101
91.300	31.354	0.101
91.400	30.754	0.101
91.500	29.816	0.101
91.600	29.512	0.101
91.700	25.313	0.101
91.800	25.239	0.101
91.900	29.734	0.101
92.000	34.495	0.101
92.100	29.355	0.101
92.200	37.226	0.101
92.300	28.638	0.101
92.400	37.217	0.101
92.500	30.392	0.101
92.600	33.102	0.101
92.700	29.380	0.101
92.800	22.401	0.101
92.900	14.364	0.101
93.000	20.785	0.101
93.100	25.491	0.101
93.200	28.107	0.101
93.300	21.172	0.101
93.400	18.211	0.101
93.500	25.306	0.101
93.600	18.726	0.101
93.700	27.391	0.101
93.800	20.491	0.101
93.900	27.086	0.101
94.000	12.676	0.101
94.100	27.617	0.101
94.200	31.523	0.101
94.300	23.694	0.101
94.400	15.027	0.101
94.500	23.105	0.101
94.600	20.397	0.101
94.700	26.350	0.101
94.800	29.126	0.101
94.900	42.107	0.101
95.000	22.710	0.101
95.100	26.044	0.101
95.200	32.655	0.101
95.300	11.092	0.101
95.400	19.649	0.101
95.500	14.359	0.101
95.600	23.097	0.101
95.700	17.357	0.101
95.800	23.494	0.101
95.900	27.540	0.101
96.000	9.209	0.101
96.100	25.640	0.101
96.200	22.006	0.101
96.300	9.624	0.101
96.400	20.053	0.101
96.500	14.128	0.101
96.600	10.678	0.101
96.700	13.806	0.101
96.800	40.184	0.101
96.900	14.765	0.101
97.000	11.888	0.101
97.100	9.890	0.101
97.200	15.659	0.101
97.300	13.347	0.101
97.400	29.254	0.101
97.500	20.987	0.101
97.600	19.410	0.101
97.700	9.807	0.101
97.800	26.716	0.101
97.900	15.177	0.101
98.000	28.126	0.101
98.100	20.017	0.101
98.200	20.977	0.101
98.300	9.113	0.101
98.400	19.590	0.101
98.500	14.087	0.101
98.600	14.698	0.101
98.700	15.015	0.101
98.800	15.602	0.101
98.900	14.829	0.101
99.000	11.632	0.101
99.100	12.883	0.101
99.200	24.553	0.101
99.300	11.538	0.101
99.400	25.087	0.101
99.500	19.728	0.101
99.600	10.037	0.101
99.700	30.993	0.101
99.800	16.795	0.101
99.900	7.447	0.101
100.000	10.482	0.101
100.100	30.619	0.101
100.200	10.147	0.101
100.300	15.065	0.101
100.400	38.867	0.101
100.500	24.240	0.101
100.600	26.469	0.101
100.700	9.437	0.101
100.800	19.540	0.101
100.900	17.534	0.101
101.000	11.793	0.101
101.100	4.635	0.101
101.200	14.169	0.101
101.300	22.719	0.101
101.400	3.236	0.101
101.500	27.963	0.101
101.600	24.637	0.101
101.700	30.341	0.101
101.800	8.004	0.101
101.900	9.893	0.101
102.000	10.516	0.101
102.100	25.065	0.101
102.200	9.661	0.101
102.300	12.619	0.101
102.400	14.018	0.101
102.500	14.055	0.101
102.600	12.793	0.101
102.700	7.635	0.101
102.800	15.356	0.101
102.900	18.655	0.101
103.000	14.771	0.101
103.100	22.456	0.101
103.200	12.710	0.101
103.300	9.556	0.101
103.400	16.472	0.101
103.500	17.043	0.101
103.600	19.153	0.101
103.700	18.669	0.101
103.800	10.190	0.101
103.900	15.837	0.101
104.000	20.490	0.101
104.100	20.808	0.101
104.200	11.517	0.101
104.300	18.305	0.101
104.400	29.115	0.101
104.500	13.658	0.101
104.600	7.269	0.101
104.700	10.907	0.101
104.800	18.886	0.101
104.900	9.305	0.101
105.000	9.180	0.101
105.100	26.918	0.101
105.200	22.741	0.101
105.300	9.668	0.101
105.400	11.072	0.101
105.500	3.122	0.101
105.600	17.169	0.101
105.700	10.847	0.101
105.800	9.275	0.101
105.900	18.179	0.101
106.000	7.798	0.101
106.100	21.251	0.101
106.200	11.968	0.101
106.300	19.548	0.101
106.400	18.969	0.101
106.500	13.462	0.101
106.600	19.428	0.101
106.700	-5.789	0.101
106.800	9.135	0.101
106.900	17.799	0.101
107.000	8.737	0.101
107.100	9.203	0.101
107.200	13.691	0.101
107.300	25.235	0.101
107.400	14.313	0.101
107.500	18.057	0.101
107.600	14.359	0.101
107.700	15.987	0.101
107.800	22.896	0.101
107.900	28.737	0.101
108.000	10.488	0.101
108.100	16.919	0.101
108.200	14.922	0.101
108.300	7.046	0.101
108.400	13.949	0.101
108.500	13.355	0.101
108.600	19.363	0.101
108.700	5.875	0.101
108.800	1.596	0.101
108.900	6.362	0.101
109.000	17.325	0.101
109.100	17.982	0.101
109.200	7.950	0.101
109.300	11.632	0.101
109.400	9.766	0.101
109.500	-0.679	0.101
109.600	20.014	0.101
109.700	14.012	0.101
109.800	14.940	0.101
109.900	24.246	0.101
110.000	4.569	0.101
110.100	11.662	0.101
110.200	2.864	0.101
110.300	14.491	0.101
110.400	24.271	0.101
110.500	24.224	0.101
110.600	16.058	0.101
110.700	16.543	0.101
110.800	7.843	0.101
110.900	11.095	0.101
111.000	5.623	0.101
111.100	23.496	0.101
111.200	3.600	0.101
111.300	16.498	0.101
111.400	4.490	0.101
111.500	-2.605	0.101
111.600	17.679	0.101
111.700	-0.202	0.101
111.800	20.619	0.101
111.900	8.632	0.101
112.000	7.974	0.101
112.100	10.292	0.101
112.200	13.686	0.101
112.300	13.144	0.101
112.400	-0.977	0.101
112.500	2.670	0.101
112.600	15.231	0.101
112.700	3.039	0.101
112.800	11.094	0.101
112.900	6.302	0.101
113.000	25.357	0.101
113.100	9.653	0.101
113.200	12.306	0.101
113.300	1.671	0.101
113.400	16.964	0.101
113.500	12.895	0.101
113.600	13.740	0.101
113.700	12.192	0.101
113.800	-0.392	0.101
113.900	6.839	0.101
114.000	7.524	0.101
114.100	2.441	0.101
114.200	5.273	0.101
114.300	6.930	0.101
114.400	1.298	0.101
114.500	0.887	0.101
114.600	16.710	0.101
114.700	-7.514	0.101
114.800	15.444	0.101
114.900	12.779	0.101
115.000	4.193	0.101
115.100	12.273	0.101
115.200	4.241	0.101
115.300	17.319	0.101
115.400	18.671	0.101
115.500	10.271	0.101
115.600	8.515	0.101
115.700	0.305	0.101
115.800	2.143	0.101
115.900	9.961	0.101
116.000	12.520	0.101
116.100	5.735	0.101
116.200	14.019	0.101
116.300	-2.620	0.101
116.400	9.319	0.101
116.500	-5.323	0.101
116.600	20.652	0.101
116.700	5.612	0.101
116.800	16.740	0.101
116.900	10.113	0.101
117.000	10.838	0.101
117.100	-13.586	0.101
117.200	13.106	0.101
117.300	17.934	0.101
117.400	4.326	0.101
117.500	0.188	0.101
117.600	8.677	0.101
117.700	-2.901	0.101
117.800	5.864	0.101
117.900	-3.746	0.101
118.000	3.843	0.101
118.100	20.499	0.101
118.200	9.621	0.101
118.300	5.621	0.101
118.400	1.912	0.101
118.500	7.437	0.101
118.600	7.781	0.101
118.700	5.821	0.101
118.800	-1.517	0.101
118.900	4.824	0.101
119.000	6.522	0.101
119.100	-3.604	0.101
119.200	1.019	0.101
119.300	18.832	0.101
119.400	12.667	0.101
119.500	11.704	0.101
119.600	8.838	0.101
119.700	13.630	0.101
119.800	3.523	0.101
119.900	-7.032	0.101
120.000	4.506	0.101
120.100	1.442	0.101
120.200	-2.985	0.101
120.300	2.932	0.101
120.400	6.198	0.101
120.500	2.267	0.101
120.600	12.044	0.101
120.700	2.870	0.101
120.800	-4.973	0.101
120.900	9.873	0.101
121.000	-5.936	0.101
121.100	17.100	0.101
121.200	14.063	0.101
121.300	1.176	0.101
121.400	-7.140	0.101
121.500	0.612	0.101
121.600	5.854	0.101
121.700	1.150	0.101
121.800	9.502	0.101
121.900	-6.841	0.101
122.000	7.364	0.101
122.100	-1.680	0.101
122.200	0.113	0.101
122.300	17.474	0.101
122.400	3.916	0.101
122.500	15.609	0.101
122.600	3.175	0.101
122.700	5.109	0.101
122.800	7.937	0.101
122.900	10.759	0.101
123.000	-10.372	0.101
123.100	-1.664	0.101
123.200	4.547	0.101
123.300	9.054	0.101
123.400	0.961	0.101
123.500	12.732	0.101
123.600	-0.247	0.101
123.700	1.108	0.101
123.800	11.670	0.101
123.900	5.824	0.101
124.000	-7.370	0.101
124.100	-0.964	0.101
124.200	1.483	0.101
124.300	15.006	0.101
124.400	-2.687	0.101
124.500	3.310	0.101
124.600	5.795	0.101
124.700	5.306	0.101
124.800	1.743	0.101
124.900	3.206	0.101
125.000	11.377	0.101
125.100	3.311	0.101
125.200	5.192	0.101
125.300	5.874	0.101
125.400	-0.502	0.101
125.500	-9.555	0.101
125.600	-3.674	0.101
125.700	4.644	0.101
125.800	5.856	0.101
125.900	-2.909	0.101
126.000	5.613	0.101
126.100	1.559	0.101
126.200	2.477	0.101
126.300	2.505	0.101
126.400	5.530	0.101
126.500	0.959	0.101
126.600	1.523	0.101
126.700	9.737	0.101
126.800	7.961	0.101
126.900	-5.126	0.101
127.000	-2.802	0.101
127.100	-0.806	0.101
127.200	10.369	0.101
127.300	-2.151	0.101
127.400	-18.353	0.101
127.500	1.375	0.101
127.600	7.463	0.101
127.700	-6.943	0.101
127.800	-3.608	0.101
127.900	3.861	0.101
128.000	3.445	0.101
128.100	6.141	0.101
128.200	5.694	0.101
128.300	0.382	0.101
128.400	0.273	0.101
128.500	3.227	0.101
128.600	-6.338	0.101
128.700	-1.590	0.101
128.800	-2.556	0.101
128.900	0.029	0.101
129.000	-0.249	0.101
129.100	5.507	0.101
129.200	5.633	0.101
129.300	-8.255	0.101
129.400	-8.593	0.101
129.500	-4.827	0.101
129.600	6.587	0.101
129.700	6.260	0.101
129.800	-8.013	0.101
129.900	3.550	0.101
130.000	-2.939	0.101
130.100	2.258	0.101
130.200	-7.285	0.101
130.300	12.874	0.101
130.400	-1.543	0.101
130.500	-8.056	0.101
130.600	-3.059	0.101
130.700	-6.754	0.101
130.800	-6.359	0.101
130.900	10.138	0.101
131.000	-4.080	0.101
131.100	-7.672	0.101
131.200	-7.123	0.101
131.300	-0.495	0.101
131.400	2.389	0.101
131.500	0.268	0.101
131.600	3.681	0.101
131.700	-5.101	0.101
131.800	11.214	0.101
131.900	2.058	0.101
132.000	7.164	0.101
132.100	-8.821	0.101
132.200	-6.335	0.101
132.300	3.283	0.101
132.400	1.700	0.101
132.500	-7.468	0.101
132.600	5.657	0.101
132.700	5.087	0.101
132.800	-14.903	0.101
132.900	-8.329	0.101
133.000	7.394	0.101
133.100	-12.405	0.101
133.200	-11.901	0.101
133.300	-3.585	0.101
133.400	-4.765	0.101
133.500	-2.360	0.101
133.600	-4.608	0.101
133.700	0.730	0.101
133.800	-2.937	0.101
133.900	6.330	0.101
134.000	-8.160	0.101
134.100	-5.083	0.101
134.200	4.597	0.101
134.300	-13.864	0.101
134.400	5.606	0.101
134.500	-11.451	0.101
134.600	-4.061	0.101
134.700	-6.308	0.101
134.800	2.701	0.101
134.900	-7.394	0.101
135.000	-6.924	0.101
135.100	-7.529	0.101
135.200	-2.876	0.101
135.300	-8.615	0.101
135.400	-13.585	0.101
135.500	-3.128	0.101
135.600	-3.827	0.101
135.700	-5.258	0.101
135.800	-1.702	0.101
135.900	9.414	0.101
136.000	-0.624	0.101
136.100	0.905	0.101
136.200	-6.288	0.101
136.300	-8.441	0.101
136.400	-1.481	0.101
136.500	-0.797	0.101
136.600	-10.983	0.101
136.700	-0.275	0.101
136.800	-11.031	0.101
136.900	-11.907	0.101
137.000	-6.243	0.101
137.100	-0.486	0.101
137.200	-7.672	0.101
137.300	-10.878	0.101
137.400	0.758	0.101
137.500	-4.921	0.101
137.600	-9.909	0.101
137.700	4.976	0.101
137.800	-6.765	0.101
137.900	5.992	0.101
138.000	-0.739	0.101
138.100	-8.471	0.101
138.200	-9.296	0.101
138.300	-12.851	0.101
138.400	-3.342	0.101
138.500	1.004	0.101
138.600	-10.909	0.101
138.700	-14.371	0.101
138.800	-5.222	0.101
138.900	-4.030	0.101
139.000	-3.530	0.101
139.100	-7.402	0.101
139.200	-1.236	0.101
139.300	-0.415	0.101
139.400	-6.792	0.101
139.500	-8.178	0.101
139.600	-9.818	0.101
139.700	6.697	0.101
139.800	-6.484	0.101
139.900	-6.342	0.101
140.000	-1.953	0.101
140.100	-8.369	0.101
140.200	-10.069	0.101
140.300	-0.528	0.101
140.400	-1.411	0.101
140.500	-8.543	0.101
140.600	-0.774	0.101
140.700	-13.436	0.101
140.800	-11.350	0.101
140.900	4.024	0.101
141.000	-10.125	0.101
141.100	-9.375	0.101
141.200	-13.368	0.101
141.300	15.501	0.101
141.400	-4.245	0.101
141.500	-7.205	0.101
141.600	-12.655	0.101
141.700	8.764	0.101
141.800	-4.432	0.101
141.900	-8.314	0.101
142.000	-4.773	0.101
142.100	-6.408	0.101
142.200	-5.335	0.101
142.300	-17.110	0.101
142.400	-4.957	0.101
142.500	-0.804	0.101
142.600	-8.316	0.101
142.700	-4.208	0.101
142.800	7.176	0.101
142.900	-6.198	0.101
143.000	-3.432	0.101
143.100	-15.016	0.101
143.200	1.752	0.101
143.300	-3.994	0.101
143.400	4.315	0.101
143.500	-0.727	0.101
143.600	3.591	0.101
143.700	-7.603	0.101
143.800	-5.171	0.101
143.900	-13.825	0.101
144.000	-5.744	0.101
144.100	-9.272	0.101
144.200	-7.587	0.101
144.300	1.640	0.101
144.400	-11.425	0.101
144.500	7.391	0.101
144.600	-1.659	0.101
144.700	-12.337	0.101
144.800	-7.268	0.101
144.900	-14.133	0.101
145.000	4.160	0.101
145.100	-1.294	0.101
145.200	-9.974	0.101
145.300	-13.725	0.101
145.400	-14.166	0.101
145.500	4.966	0.101
145.600	6.862	0.101
145.700	-6.027	0.101
145.800	-5.164	0.101
145.900	-14.403	0.101
146.000	-3.789	0.101
146.100	-6.257	0.101
146.200	-4.033	0.101
146.300	-2.457	0.101
146.400	-6.253	0.101
146.500	-15.313	0.101
146.600	-5.026	0.101
146.700	-13.599	0.101
146.800	-9.396	0.101
146.900	-12.074	0.101
147.000	3.570	0.101
147.100	1.222	0.101
147.200	4.408	0.101
147.300	1.239	0.101
147.400	-2.158	0.101
147.500	-9.792	0.101
147.600	-1.176	0.101
147.700	-11.050	0.101
147.800	-6.246	0.101
147.900	-11.112	0.101
148.000	-3.189	0.101
148.100	-3.584	0.101
148.200	-2.995	0.101
148.300	-3.099	0.101
148.400	-2.170	0.101
148.500	-11.709	0.101
148.600	-10.495	0.101
148.700	-3.075	0.101
148.800	2.002	0.101
148.900	-9.895	0.101
149.000	-2.749	0.101
149.100	-10.508	0.101
149.200	-4.431	0.101
149.300	-8.974	0.101
149.400	-15.876	0.101
149.500	-4.846	0.101
149.600	5.185	0.101
149.700	-13.415	0.101
149.800	-14.869	0.101
149.900	-2.430	0.101
150.000	-14.398	0.101
150.100	-1.030	0.101
150.200	-6.152	0.101
150.300	-9.803	0.101
150.400	1.243	0.101
150.500	-9.531	0.101
150.600	-10.902	0.101
150.700	-14.203	0.101
150.800	-13.994	0.101
150.900	0.922	0.101
151.000	-15.051	0.101
151.100	-6.503	0.101
151.200	-24.228	0.101
151.300	-1.315	0.101
151.400	-13.426	0.101
151.500	-15.634	0.101
151.600	2.023	0.101
151.700	-0.808	0.101
151.800	-14.624	0.101
151.900	3.439	0.101
152.000	-2.452	0.101
152.100	-11.767	0.101
152.200	-10.696	0.101
152.300	-1.788	0.101
152.400	10.146	0.101
152.500	-13.847	0.101
152.600	-16.068	0.101
152.700	1.208	0.101
152.800	-9.516	0.101
152.900	-12.107	0.101
153.000	-9.965	0.101
153.100	-5.320	0.101
153.200	-4.316	0.101
153.300	-1.448	0.101
153.400	-6.599	0.101
153.500	-5.723	0.101
153.600	-1.504	0.101
153.700	-14.200	0.101
153.800	-7.370	0.101
153.900	-24.279	0.101
154.000	-4.193	0.101
154.100	7.783	0.101
154.200	-15.061	0.101
154.300	-3.453	0.101
154.400	-8.956	0.101
154.500	-4.587	0.101
154.600	-12.294	0.101
154.700	4.330	0.101
154.800	-2.190	0.101
154.900	-6.146	0.101
155.000	-1.010	0.101
155.100	-5.921	0.101
155.200	-1.442	0.101
155.300	-10.142	0.101
155.400	-9.585	0.101
155.500	-0.958	0.101
155.600	-3.340	0.101
155.700	3.156	0.101
155.800	-21.898	0.101
155.900	-8.794	0.101
156.000	-13.782	0.101
156.100	-2.554	0.101
156.200	-1.532	0.101
156.300	-18.092	0.101
156.400	3.185	0.101
156.500	3.635	0.101
156.600	-2.723	0.101
156.700	-9.474	0.101
156.800	-2.055	0.101
156.900	-19.496	0.101
157.000	-3.096	0.101
157.100	-25.363	0.101
157.200	-9.622	0.101
157.300	-0.649	0.101
157.400	-20.966	0.101
157.500	9.592	0.101
157.600	-2.919	0.101
157.700	-2.559	0.101
157.800	-19.843	0.101
157.900	-6.714	0.101
158.000	-0.141	0.101
158.100	-22.504	0.101
158.200	-6.818	0.101
158.300	2.941	0.101
158.400	-7.136	0.101
158.500	-9.015	0.101
158.600	-3.194	0.101
158.700	-6.690	0.101
158.800	-14.448	0.101
158.900	-12.003	0.101
159.000	-0.078	0.101
159.100	9.051	0.101
159.200	-15.863	0.101
159.300	-1.512	0.101
159.400	6.001	0.101
159.500	-20.421	0.101
159.600	-11.066	0.101
159.700	-15.002	0.101
159.800	-16.590	0.101
159.900	-11.304	0.101
160.000	-10.796	0.101
160.100	-17.391	0.101
160.200	-10.868	0.101
160.300	-7.409	0.101
160.400	-6.303	0.101
160.500	-9.201	0.101
160.600	-4.122	0.101
160.700	-0.354	0.101
160.800	-6.512	0.101
160.900	-17.134	0.101
161.000	-10.245	0.101
161.100	-9.818	0.101
161.200	-8.796	0.101
161.300	7.601	0.101
161.400	3.721	0.101
161.500	-16.128	0.101
161.600	0.598	0.101
161.700	-13.497	0.101
161.800	-16.753	0.101
161.900	-8.665	0.101
162.000	-13.309	0.101
162.100	-2.849	0.101
162.200	-8.315	0.101
162.300	-17.513	0.101
162.400	-2.710	0.101
162.500	-4.428	0.101
162.600	-16.741	0.101
162.700	-7.076	0.101
162.800	-7.307	0.101
162.900	-10.488	0.101
163.000	-10.685	0.101
163.100	-13.666	0.101
163.200	3.610	0.101
163.300	2.219	0.101
163.400	-10.677	0.101
163.500	-7.263	0.101
163.600	-10.335	0.101
163.700	-16.754	0.101
163.800	-2.875	0.101
163.900	-14.608	0.101
164.000	-7.333	0.101
164.100	-4.555	0.101
164.200	-10.081	0.101
164.300	-25.654	0.101
164.400	-8.933	0.101
164.500	-5.469	0.101
164.600	-2.025	0.101
164.700	-0.727	0.101
164.800	-13.681	0.101
164.900	-11.752	0.101
165.000	-12.957	0.101
165.100	-10.126	0.101
165.200	-6.735	0.101
165.300	-5.427	0.101
165.400	-8.136	0.101
165.500	-11.648	0.101
165.600	-13.912	0.101
165.700	-5.397	0.101
165.800	-4.726	0.101
165.900	-3.703	0.101
166.000	-13.545	0.101
166.100	-14.283	0.101
166.200	-7.693	0.101
166.300	-14.830	0.101
166.400	-4.717	0.101
166.500	-15.071	0.101
166.600	-7.421	0.101
166.700	-20.980	0.101
166.800	2.540	0.101
166.900	-17.489	0.101
167.000	2.338	0.101
167.100	-2.838	0.101
167.200	-3.180	0.101
167.300	-9.674	0.101
167.400	-9.194	0.101
167.500	-13.715	0.101
167.600	-9.057	0.101
167.700	-7.676	0.101
167.800	-18.930	0.101
167.900	-25.850	0.101
168.000	-9.243	0.101
168.100	-10.411	0.101
168.200	-3.521	0.101
168.300	1.532	0.101
168.400	-14.187	0.101
168.500	-13.418	0.101
168.600	-8.473	0.101
168.700	-20.872	0.101
168.800	-20.514	0.101
168.900	-2.433	0.101
169.000	-20.267	0.101
169.100	-7.739	0.101
169.200	-12.758	0.101
169.300	1.700	0.101
169.400	8.861	0.101
169.500	-7.898	0.101
169.600	-7.984	0.101
169.700	-3.501	0.101
169.800	-16.191	0.101
169.900	-18.466	0.101
170.000	-15.075	0.101
170.100	-3.681	0.101
170.200	-18.414	0.101
170.300	-14.010	0.101
170.400	-9.866	0.101
170.500	-11.451	0.101
170.600	-1.738	0.101
170.700	-2.436	0.101
170.800	-6.665	0.101
170.900	-7.965	0.101
171.000	-10.319	0.101
171.100	-16.783	0.101
171.200	3.239	0.101
171.300	-15.272	0.101
171.400	2.553	0.101
171.500	-8.955	0.101
171.600	1.752	0.101
171.700	-6.271	0.101
171.800	-12.040	0.101
171.900	-15.651	0.101
172.000	-9.950	0.101
172.100	-7.175	0.101
172.200	-2.873	0.101
172.300	-11.233	0.101
172.400	-2.245	0.101
172.500	-10.231	0.101
172.600	-17.325	0.101
172.700	-18.594	0.101
172.800	-21.343	0.101
172.900	-8.317	0.101
173.000	-14.024	0.101
173.100	-0.611	0.101
173.200	-9.580	0.101
173.300	-4.999	0.101
173.400	-16.168	0.101
173.500	1.165	0.101
173.600	8.305	0.101
173.700	-18.622	0.101
173.800	-13.778	0.101
173.900	-2.425	0.101
174.000	-14.889	0.101
174.100	-16.451	0.101
174.200	-9.225	0.101
174.300	-14.224	0.101
174.400	-2.435	0.101
174.500	-8.260	0.101
174.600	-12.961	0.101
174.700	-6.509	0.101
174.800	-14.525	0.101
174.900	-13.858	0.101
175.000	-6.228	0.101
175.100	-11.206	0.101
175.200	-11.738	0.101
175.300	-7.465	0.101
175.400	-11.754	0.101
175.500	-9.414	0.101
175.600	-12.624	0.101
175.700	1.209	0.101
175.800	-15.274	0.101
175.900	-16.928	0.101
176.000	-15.801	0.101
176.100	4.335	0.101
176.200	-11.619	0.101
176.300	-8.195	0.101
176.400	4.752	0.101
176.500	-9.896	0.101
176.600	-2.482	0.101
176.700	-11.197	0.101
176.800	-4.379	0.101
176.900	-10.784	0.101
177.000	-2.695	0.101
177.100	0.147	0.101
177.200	-15.898	0.101
177.300	-6.857	0.101
177.400	-25.214	0.101
177.500	-9.965	0.101
177.600	-4.534	0.101
177.700	-22.800	0.101
177.800	0.723	0.101
177.900	-4.590	0.101
178.000	-8.179	0.101
178.100	-19.303	0.101
178.200	-13.791	0.101
178.300	-10.355	0.101
178.400	-0.537	0.101
178.500	-0.265	0.101
178.600	-23.906	0.101
178.700	-16.559	0.101
178.800	-19.664	0.101
178.900	-14.384	0.101
179.000	-12.581	0.101
179.100	-13.670	0.101
179.200	-10.528	0.101
179.300	1.216	0.101
179.400	-18.892	0.101
179.500	-7.350	0.101
179.600	-7.157	0.101
179.700	-17.840	0.101
179.800	-3.013	0.101
179.900	-3.272	0.101
180.000	1.566	0.101
180.100	-9.443	0.101
180.200	-5.241	0.101
180.300	-13.848	0.101
180.400	-6.521	0.101
180.500	-2.001	0.101
180.600	-18.684	0.101
180.700	-12.820	0.101
180.800	0.830	0.101
180.900	-8.103	0.101
181.000	-13.865	0.101
181.100	-8.870	0.101
181.200	-3.371	0.101
181.300	-1.454	0.101
181.400	-2.153	0.101
181.500	-6.897	0.101
181.600	-5.052	0.101
181.700	2.306	0.101
181.800	1.825	0.101
181.900	-7.403	0.101
182.000	-0.505	0.101
182.100	7.371	0.101
182.200	-14.065	0.101
182.300	6.291	0.101
182.400	-5.514	0.101
182.500	-1.797	0.101
182.600	7.438	0.101
182.700	1.702	0.101
182.800	-6.032	0.101
182.900	3.441	0.101
183.000	9.018	0.101
183.100	-1.534	0.101
183.200	6.466	0.101
183.300	-3.166	0.101
183.400	5.137	0.101
183.500	8.887	0.101
183.600	8.160	0.101
183.700	-9.652	0.101
183.800	-1.987	0.101
183.900	-1.404	0.101
184.000	12.564	0.101
184.100	1.583	0.101
184.200	1.063	0.101
184.300	-8.947	0.101
184.400	5.818	0.101
184.500	-3.939	0.101
184.600	3.685	0.101
184.700	-4.840	0.101
184.800	7.531	0.101
184.900	6.797	0.101
185.000	-3.194	0.101
185.100	16.163	0.101
185.200	2.822	0.101
185.300	10.179	0.101
185.400	-6.726	0.101
185.500	-8.455	0.101
185.600	1.200	0.101
185.700	4.750	0.101
185.800	-6.643	0.101
185.900	2.026	0.101
186.000	-2.784	0.101
186.100	9.146	0.101
186.200	-0.844	0.101
186.300	2.386	0.101
186.400	-0.517	0.101
186.500	9.980	0.101
186.600	10.373	0.101
186.700	12.657	0.101
186.800	-6.571	0.101
186.900	-0.109	0.101
187.000	4.663	0.101
187.100	2.922	0.101
187.200	8.857	0.101
187.300	5.760	0.101
187.400	7.616	0.101
187.500	17.786	0.101
187.600	-1.332	0.101
187.700	2.488	0.101
187.800	24.407	0.101
187.900	3.978	0.101
188.000	7.159	0.101
188.100	7.496	0.101
188.200	3.251	0.101
188.300	4.298	0.101
188.400	3.505	0.101
188.500	-1.363	0.101
188.600	8.400	0.101
188.700	3.321	0.101
188.800	-0.346	0.101
188.900	9.956	0.101
189.000	21.511	0.101
189.100	4.971	0.101
189.200	2.518	0.101
189.300	1.069	0.101
189.400	-4.052	0.101
189.500	6.836	0.101
189.600	5.737	0.101
189.700	20.494	0.101
189.800	2.299	0.101
189.900	0.931	0.101
190.000	11.027	0.101
190.100	4.251	0.101
190.200	1.367	0.101
190.300	5.017	0.101
190.400	8.517	0.101
190.500	8.416	0.101
190.600	3.011	0.101
190.700	0.524	0.101
190.800	2.577	0.101
190.900	15.017	0.101
191.000	15.880	0.101
191.100	12.934	0.101
191.200	13.697	0.101
191.300	0.893	0.101
191.400	6.461	0.101
191.500	1.457	0.101
191.600	3.673	0.101
191.700	-2.796	0.101
191.800	26.788	0.101
191.900	20.150	0.101
192.000	5.964	0.101
192.100	17.953	0.101
192.200	7.185	0.101
192.300	-2.619	0.101
192.400	-3.170	0.101
192.500	13.681	0.101
192.600	12.173	0.101
192.700	7.153	0.101
192.800	26.111	0.101
192.900	0.282	0.101
193.000	15.375	0.101
193.100	11.147	0.101
193.200	1.250	0.101
193.300	20.894	0.101
193.400	14.285	0.101
193.500	11.060	0.101
193.600	13.036	0.101
193.700	21.851	0.101
193.800	11.573	0.101
193.900	4.822	0.101
194.000	2.235	0.101
194.100	12.160	0.101
194.200	17.826	0.101
194.300	8.119	0.101
194.400	3.187	0.101
194.500	12.137	0.101
194.600	22.048	0.101
194.700	-1.388	0.101
194.800	-0.037	0.101
194.900	5.359	0.101
195.000	18.152	0.101
195.100	24.441	0.101
195.200	6.265	0.101
195.300	11.705	0.101
195.400	13.663	0.101
195.500	5.855	0.101
195.600	12.670	0.101
195.700	19.918	0.101
195.800	20.936	0.101
195.900	6.197	0.101
196.000	4.053	0.101
196.100	18.480	0.101
196.200	9.174	0.101
196.300	5.162	0.101
196.400	22.693	0.101
196.500	19.255	0.101
196.600	29.987	0.101
196.700	26.273	0.101
196.800	6.291	0.101
196.900	14.769	0.101
197.000	14.979	0.101
197.100	5.281	0.101
197.200	23.031	0.101
197.300	6.693	0.101
197.400	2.009	0.101
197.500	11.521	0.101
197.600	17.972	0.101
197.700	13.975	0.101
197.800	9.670	0.101
197.900	29.822	0.101
198.000	17.309	0.101
198.100	13.573	0.101
198.200	7.366	0.101
198.300	20.637	0.101
198.400	14.972	0.101
198.500	1.657	0.101
198.600	22.939	0.101
198.700	29.761	0.101
198.800	18.928	0.101
198.900	6.683	0.101
199.000	23.227	0.101
199.100	30.753	0.101
199.200	24.406	0.101
199.300	18.295	0.101
199.400	9.764	0.101
199.500	13.560	0.101
199.600	21.930	0.101
199.700	26.348	0.101
199.800	14.035	0.101
199.900	7.408	0.101
200.000	-1.598	0.101
200.100	29.440	0.101
200.200	3.305	0.101
200.300	17.343	0.101
200.400	19.393	0.101
200.500	-2.160	0.101
200.600	24.348	0.101
200.700	18.595	0.101
200.800	16.939	0.101
200.900	20.809	0.101
201.000	19.504	0.101
201.100	21.107	0.101
201.200	18.385	0.101
201.300	14.244	0.101
201.400	20.191	0.101
201.500	13.729	0.101
201.600	19.063	0.101
201.700	23.482	0.101
201.800	15.838	0.101
201.900	23.151	0.101
202.000	23.522	0.101
202.100	14.509	0.101
202.200	22.466	0.101
202.300	-1.485	0.101
202.400	8.830	0.101
202.500	26.577	0.101
202.600	14.975	0.101
202.700	19.236	0.101
202.800	18.561	0.101
202.900	3.641	0.101
203.000	18.730	0.101
203.100	27.515	0.101
203.200	19.513	0.101
203.300	19.714	0.101
203.400	33.027	0.101
203.500	17.456	0.101
203.600	13.891	0.101
203.700	25.967	0.101
203.800	14.380	0.101
203.900	10.320	0.101
204.000	4.411	0.101
204.100	36.374	0.101
204.200	20.046	0.101
204.300	16.454	0.101
204.400	18.066	0.101
204.500	6.271	0.101
204.600	14.634	0.101
204.700	12.493	0.101
204.800	34.891	0.101
204.900	23.924	0.101
205.000	16.569	0.101
205.100	22.383	0.101
205.200	18.253	0.101
205.300	13.117	0.101
205.400	38.338	0.101
205.500	30.411	0.101
205.600	9.193	0.101
205.700	3.768	0.101
205.800	22.919	0.101
205.900	29.443	0.101
206.000	20.417	0.101
206.100	15.779	0.101
206.200	22.027	0.101
206.300	19.528	0.101
206.400	27.073	0.101
206.500	43.404	0.101
206.600	17.027	0.101
206.700	10.645	0.101
206.800	20.359	0.101
206.900	26.653	0.101
207.000	23.880	0.101
207.100	17.680	0.101
207.200	7.670	0.101
207.300	20.949	0.101
207.400	5.828	0.101
207.500	20.019	0.101
207.600	24.474	0.101
207.700	19.569	0.101
207.800	19.364	0.101
207.900	23.401	0.101
208.000	27.588	0.101
208.100	33.221	0.101
208.200	22.332	0.101
208.300	17.981	0.101
208.400	31.867	0.101
208.500	23.272	0.101
208.600	11.622	0.101
208.700	19.430	0.101
208.800	14.709	0.101
208.900	28.822	0.101
209.000	27.331	0.101
209.100	27.902	0.101
209.200	16.116	0.101
209.300	34.882	0.101
209.400	23.294	0.101
209.500	30.454	0.101
209.600	21.439	0.101
209.700	31.240	0.101
209.800	18.770	0.101
209.900	24.468	0.101
210.000	24.564	0.101
210.100	17.645	0.101
210.200	31.536	0.101
210.300	27.455	0.101
210.400	28.619	0.101
210.500	21.542	0.101
210.600	17.169	0.101
210.700	19.178	0.101
210.800	18.586	0.101
210.900	25.943	0.101
211.000	24.554	0.101
211.100	30.633	0.101
211.200	21.142	0.101
211.300	25.357	0.101
211.400	16.914	0.101
211.500	29.723	0.101
211.600	13.955	0.101
211.700	23.099	0.101
211.800	26.545	0.101
211.900	26.115	0.101
212.000	29.413	0.101
212.100	22.858	0.101
212.200	30.057	0.101
212.300	26.079	0.101
212.400	28.867	0.101
212.500	31.360	0.101
212.600	2.094	0.101
212.700	22.985	0.101
212.800	32.028	0.101
212.900	31.111	0.101
213.000	31.527	0.101
213.100	33.602	0.101
213.200	19.793	0.101
213.300	21.956	0.101
213.400	20.165	0.101
213.500	29.460	0.101
213.600	16.562	0.101
213.700	20.345	0.101
213.800	37.070	0.101
213.900	30.514	0.101
214.000	16.391	0.101
214.100	23.496	0.101
214.200	11.802	0.101
214.300	25.864	0.101
214.400	33.624	0.101
214.500	23.218	0.101
214.600	27.687	0.101
214.700	26.728	0.101
214.800	30.336	0.101
214.900	23.719	0.101
215.000	15.773	0.101
215.100	23.481	0.101
215.200	37.016	0.101
215.300	23.371	0.101
215.400	29.703	0.101
215.500	21.094	0.101
215.600	42.611	0.101
215.700	34.421	0.101
215.800	22.782	0.101
215.900	25.812	0.101
216.000	22.068	0.101
216.100	26.252	0.101
216.200	33.449	0.101
216.300	32.024	0.101
216.400	20.946	0.101
216.500	35.369	0.101
216.600	40.250	0.101
216.700	35.851	0.101
216.800	17.399	0.101
216.900	29.085	0.101
217.000	26.182	0.101
217.100	17.037	0.101
217.200	36.165	0.101
217.300	27.549	0.101
217.400	32.534	0.101
217.500	27.601	0.101
217.600	22.593	0.101
217.700	32.642	0.101
217.800	21.774	0.101
217.900	31.891	0.101
218.000	27.241	0.101
218.100	31.492	0.101
218.200	19.812	0.101
218.300	30.302	0.101
218.400	18.565	0.101
218.500	15.519	0.101
218.600	33.465	0.101
218.700	34.889	0.101
218.800	35.292	0.101
218.900	27.437	0.101
219.000	18.040	0.101
219.100	25.037	0.101
219.200	14.331	0.101
219.300	10.463	0.101
219.400	34.004	0.101
219.500	39.243	0.101
219.600	32.745	0.101
219.700	33.048	0.101
219.800	28.179	0.101
219.900	20.702	0.101
220.000	27.223	0.101
220.100	36.193	0.101
220.200	30.263	0.101
220.300	37.489	0.101
220.400	31.969	0.101
220.500	27.188	0.101
220.600	23.318	0.101
220.700	27.863	0.101
220.800	33.166	0.101
220.900	23.271	0.101
221.000	37.677	0.101
221.100	28.699	0.101
221.200	38.501	0.101
221.300	36.458	0.101
221.400	35.561	0.101
221.500	30.546	0.101
221.600	15.810	0.101
221.700	34.265	0.101
221.800	37.918	0.101
221.900	24.010	0.101
222.000	26.522	0.101
222.100	30.832	0.101
222.200	29.602	0.101
222.300	21.106	0.101
222.400	26.817	0.101
222.500	28.999	0.101
222.600	25.417	0.101
222.700	25.785	0.101
222.800	41.388	0.101
222.900	41.367	0.101
223.000	24.466	0.101
223.100	19.191	0.101
223.200	21.574	0.101
223.300	42.677	0.101
223.400	32.794	0.101
223.500	31.248	0.101
223.600	26.997	0.101
223.700	30.589	0.101
223.800	29.503	0.101
223.900	29.924	0.101
224.000	3.442	0.101
224.100	37.691	0.101
224.200	26.997	0.101
224.300	46.423	0.101
224.400	25.458	0.101
224.500	33.844	0.101
224.600	34.033	0.101
224.700	35.076	0.101
224.800	44.831	0.101
224.900	20.061	0.101
225.000	34.051	0.101
225.100	38.238	0.101
225.200	26.976	0.101
225.300	25.872	0.101
225.400	31.744	0.101
225.500	32.384	0.101
225.600	34.480	0.101
225.700	40.152	0.101
225.800	28.008	0.101
225.900	36.962	0.101
226.000	37.133	0.101
226.100	24.721	0.101
226.200	20.885	0.101
226.300	13.163	0.101
226.400	40.411	0.101
226.500	34.588	0.101
226.600	35.927	0.101
226.700	26.652	0.101
226.800	35.508	0.101
226.900	17.397	0.101
227.000	40.137	0.101
227.100	41.104	0.101
227.200	38.732	0.101
227.300	33.525	0.101
227.400	30.703	0.101
227.500	30.887	0.101
227.600	25.666	0.101
227.700	20.651	0.101
227.800	45.707	0.101
227.900	37.513	0.101
228.000	17.517	0.101
228.100	27.979	0.101
228.200	35.968	0.101
228.300	34.428	0.101
228.400	29.228	0.101
228.500	28.436	0.101
228.600	45.938	0.101
228.700	27.882	0.101
228.800	32.584	0.101
228.900	38.205	0.101
229.000	38.275	0.101
229.100	31.735	0.101
229.200	29.297	0.101
229.300	30.440	0.101
229.400	34.138	0.101
229.500	25.324	0.101
229.600	11.969	0.101
229.700	28.520	0.101
229.800	39.042	0.101
229.900	47.355	0.101
230.000	32.148	0.101
230.100	32.923	0.101
230.200	43.415	0.101
230.300	44.913	0.101
230.400	31.045	0.101
230.500	34.079	0.101
230.600	21.282	0.101
230.700	50.713	0.101
230.800	39.498	0.101
230.900	37.170	0.101
231.000	39.742	0.101
231.100	25.580	0.101
231.200	37.156	0.101
231.300	33.908	0.101
231.400	21.707	0.101
231.500	43.659	0.101
231.600	46.261	0.101
231.700	31.241	0.101
231.800	30.112	0.101
231.900	39.768	0.101
232.000	25.382	0.101
232.100	34.792	0.101
232.200	39.218	0.101
232.300	23.041	0.101
232.400	32.328	0.101
232.500	36.761	0.101
232.600	34.878	0.101
232.700	27.095	0.101
232.800	39.445	0.101
232.900	37.147	0.101
233.000	37.171	0.101
233.100	21.928	0.101
233.200	27.572	0.101
233.300	36.673	0.101
233.400	28.844	0.101
233.500	39.706	0.101
233.600	29.187	0.101
233.700	27.906	0.101
233.800	32.837	0.101
233.900	37.839	0.101
234.000	29.265	0.101
234.100	56.440	0.101
234.200	25.489	0.101
234.300	43.737	0.101
234.400	23.332	0.101
234.500	37.606	0.101
234.600	29.715	0.101
234.700	51.059	0.101
234.800	41.875	0.101
234.900	23.313	0.101
235.000	39.796	0.101
235.100	34.503	0.101
235.200	42.399	0.101
235.300	39.030	0.101
235.400	36.426	0.101
235.500	29.473	0.101
235.600	34.084	0.101
235.700	28.474	0.101
235.800	25.576	0.101
235.900	31.242	0.101
236.000	27.055	0.101
236.100	28.458	0.101
236.200	33.426	0.101
236.300	41.188	0.101
236.400	38.244	0.101
236.500	47.451	0.101
236.600	33.824	0.101
236.700	28.027	0.101
236.800	32.408	0.101
236.900	35.307	0.101
237.000	40.444	0.101
237.100	26.788	0.101
237.200	19.120	0.101
237.300	39.900	0.101
237.400	49.859	0.101
237.500	35.109	0.101
237.600	32.017	0.101
237.700	28.128	0.101
237.800	44.368	0.101
237.900	40.423	0.101
238.000	30.067	0.101
238.100	36.131	0.101
238.200	42.039	0.101
238.300	30.491	0.101
238.400	31.832	0.101
238.500	41.465	0.101
238.600	37.649	0.101
238.700	35.372	0.101
238.800	39.069	0.101
238.900	33.378	0.101
239.000	39.838	0.101
239.100	34.449	0.101
239.200	32.262	0.101
239.300	31.470	0.101
239.400	41.351	0.101
239.500	32.488	0.101
239.600	29.510	0.101
239.700	47.941	0.101
239.800	39.455	0.101
239.900	29.027	0.101
240.000	41.864	0.101
240.100	34.476	0.101
240.200	39.924	0.101
240.300	39.828	0.101
240.400	37.527	0.101
240.500	43.254	0.101
240.600	39.089	0.101
240.700	35.792	0.101
240.800	31.391	0.101
240.900	25.695	0.101
241.000	23.386	0.101
241.100	42.760	0.101
241.200	34.604	0.101
241.300	30.988	0.101
241.400	38.787	0.101
241.500	33.171	0.101
241.600	23.882	0.101
241.700	34.450	0.101
241.800	32.166	0.101
241.900	22.521	0.101
242.000	15.737	0.101
242.100	27.851	0.101
242.200	30.243	0.101
242.300	18.137	0.101
242.400	17.308	0.101
242.500	26.058	0.101
242.600	20.457	0.101
242.700	26.164	0.101
242.800	42.080	0.101
242.900	39.546	0.101
243.000	19.178	0.101
243.100	29.593	0.101
243.200	22.508	0.101
243.300	24.076	0.101
243.400	15.988	0.101
243.500	28.233	0.101
243.600	25.101	0.101
243.700	19.554	0.101
243.800	25.435	0.101
243.900	23.843	0.101
244.000	19.477	0.101
244.100	27.534	0.101
244.200	16.553	0.101
244.300	26.666	0.101
244.400	22.269	0.101
244.500	17.854	0.101
244.600	20.948	0.101
244.700	20.922	0.101
244.800	10.250	0.101
244.900	14.170	0.101
245.000	25.261	0.101
245.100	17.841	0.101
245.200	19.496	0.101
245.300	24.252	0.101
245.400	10.348	0.101
245.500	22.320	0.101
245.600	28.126	0.101
245.700	21.920	0.101
245.800	22.209	0.101
245.900	19.744	0.101
246.000	26.971	0.101
246.100	18.873	0.101
246.200	15.075	0.101
246.300	19.663	0.101
246.400	7.246	0.101
246.500	12.964	0.101
246.600	22.600	0.101
246.700	31.516	0.101
246.800	14.756	0.101
246.900	24.503	0.101
247.000	18.193	0.101
247.100	27.880	0.101
247.200	16.247	0.101
247.300	21.243	0.101
247.400	24.212	0.101
247.500	12.124	0.101
247.600	17.259	0.101
247.700	20.589	0.101
247.800	22.686	0.101
247.900	21.173	0.101
248.000	28.875	0.101
248.100	10.219	0.101
248.200	16.790	0.101
248.300	18.963	0.101
248.400	20.256	0.101
248.500	23.395	0.101
248.600	28.770	0.101
248.700	21.326	0.101
248.800	25.229	0.101
248.900	30.457	0.101
249.000	26.857	0.101
249.100	10.049	0.101
249.200	19.505	0.101
249.300	9.395	0.101
249.400	19.387	0.101
249.500	16.872	0.101
249.600	12.764	0.101
249.700	17.874	0.101
249.800	20.684	0.101
249.900	18.791	0.101
250.000	11.200	0.101
250.100	10.809	0.101
250.200	25.319	0.101
250.300	18.683	0.101
250.400	15.428	0.101
250.500	22.510	0.101
250.600	6.721	0.101
250.700	16.143	0.101
250.800	20.814	0.101
250.900	25.762	0.101
251.000	18.159	0.101
251.100	20.755	0.101
251.200	7.897	0.101
251.300	18.099	0.101
251.400	30.977	0.101
251.500	13.095	0.101
251.600	17.143	0.101
251.700	34.836	0.101
251.800	14.229	0.101
251.900	12.756	0.101
252.000	18.935	0.101
252.100	12.336	0.101
252.200	12.576	0.101
252.300	18.889	0.101
252.400	17.577	0.101
252.500	13.609	0.101
252.600	11.169	0.101
252.700	20.931	0.101
252.800	23.992	0.101
252.900	3.160	0.101
253.000	16.018	0.101
253.100	3.157	0.101
253.200	25.530	0.101
253.300	24.301	0.101
253.400	20.334	0.101
253.500	6.683	0.101
253.600	11.242	0.101
253.700	13.368	0.101
253.800	15.077	0.101
253.900	7.348	0.101
254.000	11.763	0.101
254.100	19.486	0.101
254.200	16.941	0.101
254.300	1.839	0.101
254.400	25.625	0.101
254.500	21.003	0.101
254.600	22.406	0.101
254.700	1.111	0.101
254.800	17.171	0.101
254.900	8.856	0.101
255.000	10.609	0.101
255.100	18.218	0.101
255.200	13.892	0.101
255.300	13.469	0.101
255.400	29.141	0.101
255.500	10.601	0.101
255.600	-5.445	0.101
255.700	16.485	0.101
255.800	8.217	0.101
255.900	8.237	0.101
256.000	16.745	0.101
256.100	10.196	0.101
256.200	20.074	0.101
256.300	21.129	0.101
256.400	9.371	0.101
256.500	25.043	0.101
256.600	-3.033	0.101
256.700	14.706	0.101
256.800	18.155	0.101
256.900	4.296	0.101
257.000	12.600	0.101
257.100	5.658	0.101
257.200	10.251	0.101
257.300	10.477	0.101
257.400	6.945	0.101
257.500	12.453	0.101
257.600	17.094	0.101
257.700	6.562	0.101
257.800	20.575	0.101
257.900	12.490	0.101
258.000	12.263	0.101
258.100	15.638	0.101
258.200	5.648	0.101
258.300	23.519	0.101
258.400	3.799	0.101
258.500	1.950	0.101
258.600	9.236	0.101
258.700	15.979	0.101
258.800	5.748	0.101
258.900	13.726	0.101
259.000	22.157	0.101
259.100	15.106	0.101
259.200	19.118	0.101
259.300	15.701	0.101
259.400	18.538	0.101
259.500	5.966	0.101
259.600	24.449	0.101
259.700	6.217	0.101
259.800	-0.376	0.101
259.900	1.930	0.101
260.000	25.755	0.101
260.100	-1.947	0.101
260.200	16.628	0.101
260.300	19.688	0.101
260.400	20.149	0.101
260.500	-2.579	0.101
260.600	4.870	0.101
260.700	9.254	0.101
260.800	13.355	0.101
260.900	16.631	0.101
261.000	13.401	0.101
261.100	8.830	0.101
261.200	18.013	0.101
261.300	-5.189	0.101
261.400	14.273	0.101
261.500	16.084	0.101
261.600	-7.099	0.101
261.700	13.026	0.101
261.800	7.618	0.101
261.900	8.291	0.101
262.000	4.778	0.101
262.100	4.941	0.101
262.200	9.922	0.101
262.300	14.791	0.101
262.400	6.642	0.101
262.500	9.423	0.101
262.600	4.927	0.101
262.700	1.561	0.101
262.800	20.190	0.101
262.900	-3.325	0.101
263.000	-1.935	0.101
263.100	7.576	0.101
263.200	21.394	0.101
263.300	0.312	0.101
263.400	-7.850	0.101
263.500	14.604	0.101
263.600	15.065	0.101
263.700	15.180	0.101
263.800	3.197	0.101
263.900	7.935	0.101
264.000	2.864	0.101
264.100	5.917	0.101
264.200	10.870	0.101
264.300	7.733	0.101
264.400	3.706	0.101
264.500	16.309	0.101
264.600	3.318	0.101
264.700	8.839	0.101
264.800	5.258	0.101
264.900	11.287	0.101
265.000	6.801	0.101
265.100	13.046	0.101
265.200	-6.069	0.101
265.300	6.423	0.101
265.400	11.758	0.101
265.500	5.545	0.101
265.600	5.296	0.101
265.700	7.092	0.101
265.800	9.186	0.101
265.900	4.715	0.101
266.000	7.449	0.101
266.100	-1.211	0.101
266.200	1.999	0.101
266.300	8.692	0.101
266.400	13.685	0.101
266.500	11.898	0.101
266.600	2.372	0.101
266.700	-1.636	0.101
266.800	9.028	0.101
266.900	-0.853	0.101
267.000	0.116	0.101
267.100	-3.363	0.101
267.200	-3.619	0.101
267.300	0.563	0.101
267.400	5.678	0.101
267.500	2.012	0.101
267.600	3.844	0.101
267.700	2.308	0.101
267.800	5.524	0.101
267.900	3.653	0.101
268.000	8.038	0.101
268.100	-2.499	0.101
268.200	2.422	0.101
268.300	-2.237	0.101
268.400	7.026	0.101
268.500	-4.479	0.101
268.600	-2.183	0.101
268.700	-4.746	0.101
268.800	10.738	0.101
268.900	15.714	0.101
269.000	9.108	0.101
269.100	-6.624	0.101
269.200	4.358	0.101
269.300	3.224	0.101
269.400	-6.262	0.101
269.500	1.317	0.101
269.600	1.623	0.101
269.700	18.249	0.101
269.800	-2.358	0.101
269.900	15.853	0.101
270.000	-11.284	0.101
270.100	10.095	0.101
270.200	7.114	0.101
270.300	7.286	0.101
270.400	-9.813	0.101
270.500	1.028	0.101
270.600	0.208	0.101
270.700	4.540	0.101
270.800	0.082	0.101
270.900	5.255	0.101
271.000	-12.722	0.101
271.100	2.070	0.101
271.200	5.614	0.101
271.300	8.194	0.101
271.400	7.774	0.101
271.500	-2.895	0.101
271.600	-5.888	0.101
271.700	-7.192	0.101
271.800	9.951	0.101
271.900	10.395	0.101
272.000	7.011	0.101
272.100	13.608	0.101
272.200	-0.332	0.101
272.300	-3.372	0.101
272.400	5.100	0.101
272.500	-0.593	0.101
272.600	1.241	0.101
272.700	-6.100	0.101
272.800	2.141	0.101
272.900	-2.621	0.101
273.000	-11.167	0.101
273.100	9.301	0.101
273.200	-0.330	0.101
273.300	-0.609	0.101
273.400	-2.623	0.101
273.500	-12.833	0.101
273.600	17.438	0.101
273.700	10.493	0.101
273.800	-2.740	0.101
273.900	-7.376	0.101
274.000	5.823	0.101
274.100	-8.923	0.101
274.200	0.157	0.101
274.300	8.636	0.101
274.400	8.572	0.101
274.500	7.206	0.101
274.600	6.879	0.101
274.700	1.279	0.101
274.800	-0.334	0.101
274.900	-4.688	0.101
275.000	-6.083	0.101
275.100	-7.490	0.101
275.200	1.745	0.101
275.300	-7.749	0.101
275.400	-13.058	0.101
275.500	-4.149	0.101
275.600	-1.819	0.101
275.700	1.319	0.101
275.800	8.380	0.101
275.900	-0.604	0.101
276.000	6.285	0.101
276.100	0.451	0.101
276.200	-3.911	0.101
276.300	-0.266	0.101
276.400	3.913	0.101
276.500	-7.116	0.101
276.600	-7.896	0.101
276.700	2.541	0.101
276.800	-4.616	0.101
276.900	-3.466	0.101
277.000	-8.046	0.101
277.100	2.921	0.101
277.200	-2.110	0.101
277.300	-2.836	0.101
277.400	0.190	0.101
277.500	2.574	0.101
277.600	-8.164	0.101
277.700	-7.695	0.101
277.800	0.547	0.101
277.900	-10.470	0.101
278.000	1.349	0.101
278.100	-10.045	0.101
278.200	9.896	0.101
278.300	2.515	0.101
278.400	-16.191	0.101
278.500	-0.441	0.101
278.600	-8.501	0.101
278.700	-10.014	0.101
278.800	-1.272	0.101
278.900	-1.123	0.101
279.000	-8.424	0.101
279.100	0.143	0.101
279.200	-10.432	0.101
279.300	3.563	0.101
279.400	6.594	0.101
279.500	-1.861	0.101
279.600	-1.449	0.101
279.700	-15.877	0.101
279.800	-14.388	0.101
279.900	-2.573	0.101
280.000	-1.877	0.101
280.100	3.170	0.101
280.200	-2.262	0.101
280.300	6.570	0.101
280.400	-7.556	0.101
280.500	2.364	0.101
280.600	10.037	0.101
280.700	-9.719	0.101
280.800	-6.858	0.101
280.900	-0.599	0.101
281.000	-1.972	0.101
281.100	-0.603	0.101
281.200	-4.156	0.101
281.300	-4.707	0.101
281.400	10.101	0.101
281.500	-0.515	0.101
281.600	-4.769	0.101
281.700	-12.281	0.101
281.800	4.485	0.101
281.900	-9.809	0.101
282.000	-3.975	0.101
282.100	-5.824	0.101
282.200	-7.625	0.101
282.300	-9.755	0.101
282.400	-9.605	0.101
282.500	3.632	0.101
282.600	6.268	0.101
282.700	-5.117	0.101
282.800	-12.023	0.101
282.900	-10.643	0.101
283.000	-6.356	0.101
283.100	-19.122	0.101
283.200	-5.123	0.101
283.300	-10.951	0.101
283.400	1.396	0.101
283.500	-7.833	0.101
283.600	-8.321	0.101
283.700	-2.643	0.101
283.800	-4.411	0.101
283.900	-9.954	0.101
284.000	-13.074	0.101
284.100	-3.353	0.101
284.200	-7.424	0.101
284.300	-0.697	0.101
284.400	-6.965	0.101
284.500	-17.067	0.101
284.600	2.239	0.101
284.700	5.588	0.101
284.800	-8.452	0.101
284.900	1.401	0.101
285.000	-7.717	0.101
285.100	-10.892	0.101
285.200	9.315	0.101
285.300	0.898	0.101
285.400	-8.049	0.101
285.500	-10.754	0.101
285.600	-11.941	0.101
285.700	-13.933	0.101
285.800	-1.377	0.101
285.900	5.766	0.101
286.000	-13.580	0.101
286.100	-22.431	0.101
286.200	-6.161	0.101
286.300	-2.234	0.101
286.400	3.577	0.101
286.500	-0.353	0.101
286.600	3.108	0.101
286.700	-1.387	0.101
286.800	5.484	0.101
286.900	-0.256	0.101
287.000	-5.093	0.101
287.100	-9.505	0.101
287.200	-6.375	0.101
287.300	-16.627	0.101
287.400	9.652	0.101
287.500	2.506	0.101
287.600	10.604	0.101
287.700	-12.552	0.101
287.800	-16.335	0.101
287.900	-3.213	0.101
288.000	-7.386	0.101
288.100	-12.713	0.101
288.200	0.173	0.101
288.300	0.963	0.101
288.400	-4.208	0.101
288.500	-6.812	0.101
288.600	3.017	0.101
288.700	-15.568	0.101
288.800	-12.992	0.101
288.900	-1.887	0.101
289.000	-6.319	0.101
289.100	-16.568	0.101
289.200	-13.427	0.101
289.300	-14.317	0.101
289.400	-6.163	0.101
289.500	-0.849	0.101
289.600	-8.623	0.101
289.700	-6.767	0.101
289.800	-4.678	0.101
289.900	0.281	0.101
290.000	-2.326	0.101
290.100	-11.099	0.101
290.200	-5.938	0.101
290.300	-12.163	0.101
290.400	-14.924	0.101
290.500	1.048	0.101
290.600	-6.608	0.101
290.700	-0.665	0.101
290.800	-7.827	0.101
290.900	1.315	0.101
291.000	-12.232	0.101
291.100	1.226	0.101
291.200	-27.442	0.101
291.300	-0.712	0.101
291.400	-11.915	0.101
291.500	-10.548	0.101
291.600	-8.330	0.101
291.700	11.451	0.101
291.800	-11.877	0.101
291.900	-10.207	0.101
292.000	-1.479	0.101
292.100	-3.206	0.101
292.200	-9.228	0.101
292.300	0.214	0.101
292.400	-12.883	0.101
292.500	-1.528	0.101
292.600	-8.017	0.101
292.700	-4.446	0.101
292.800	-19.131	0.101
292.900	-0.668	0.101
293.000	-8.670	0.101
293.100	-14.202	0.101
293.200	-3.986	0.101
293.300	6.849	0.101
293.400	-9.119	0.101
293.500	-4.870	0.101
293.600	-11.401	0.101
293.700	-3.364	0.101
293.800	3.812	0.101
293.900	-6.710	0.101
294.000	-2.542	0.101
294.100	-18.334	0.101
294.200	-2.906	0.101
294.300	-16.374	0.101
294.400	-1.589	0.101
294.500	-11.176	0.101
294.600	-7.902	0.101
294.700	-8.043	0.101
294.800	-0.937	0.101
294.900	4.244	0.101
295.000	-3.301	0.101
295.100	-17.025	0.101
295.200	-8.767	0.101
295.300	-3.413	0.101
295.400	-13.755	0.101
295.500	-8.601	0.101
295.600	-12.641	0.101
295.700	-14.030	0.101
295.800	-12.900	0.101
295.900	6.896	0.101
296.000	-13.419	0.101
296.100	0.117	0.101
296.200	-17.930	0.101
296.300	-5.581	0.101
296.400	-16.313	0.101
296.500	-6.552	0.101
296.600	-10.739	0.101
296.700	-13.309	0.101
296.800	-10.075	0.101
296.900	-14.126	0.101
297.000	-5.857	0.101
297.100	-4.074	0.101
297.200	1.665	0.101
297.300	-14.740	0.101
297.400	-3.771	0.101
297.500	-3.464	0.101
297.600	-6.198	0.101
297.700	-10.283	0.101
297.800	-5.254	0.101
297.900	-7.924	0.101
298.000	-14.386	0.101
298.100	1.238	0.101
298.200	-10.236	0.101
298.300	-9.493	0.101
298.400	-12.928	0.101
298.500	-3.817	0.101
298.600	-8.616	0.101
298.700	-10.758	0.101
298.800	-11.442	0.101
298.900	-3.681	0.101
299.000	2.850	0.101
299.100	-8.342	0.101
299.200	-5.605	0.101
299.300	-8.631	0.101
299.400	-2.840	0.101
299.500	0.334	0.101
299.600	-5.420	0.101
299.700	-2.788	0.101
299.800	-11.712	0.101
299.900	-8.525	0.101
300.000	-2.219	0.101
300.100	-14.526	0.101
300.200	-12.655	0.101
300.300	1.097	0.101
300.400	-6.168	0.101
300.500	-1.376	0.101
300.600	-7.419	0.101
300.700	-3.137	0.101
300.800	-13.589	0.101
300.900	-10.984	0.101
301.000	-14.014	0.101
301.100	-10.543	0.101
301.200	-6.668	0.101
301.300	-21.168	0.101
301.400	4.707	0.101
301.500	-22.428	0.101
301.600	-4.356	0.101
301.700	-11.740	0.101
301.800	-9.138	0.101
301.900	-11.359	0.101
302.000	-9.370	0.101
302.100	-6.136	0.101
302.200	-1.173	0.101
302.300	-4.211	0.101
302.400	-9.835	0.101
302.500	-3.426	0.101
302.600	-9.183	0.101
302.700	-1.882	0.101
302.800	-11.319	0.101
302.900	-21.446	0.101
303.000	6.345	0.101
303.100	-0.626	0.101
303.200	-7.956	0.101
303.300	-13.917	0.101
303.400	-3.152	0.101
303.500	-16.929	0.101
303.600	4.389	0.101
303.700	0.667	0.101
303.800	1.598	0.101
303.900	-5.367	0.101
304.000	-5.763	0.101
304.100	-16.203	0.101
304.200	-9.678	0.101
304.300	-9.015	0.101
304.400	-10.415	0.101
304.500	-5.239	0.101
304.600	-7.627	0.101
304.700	-2.150	0.101
304.800	-6.260	0.101
304.900	-15.227	0.101
305.000	-3.093	0.101
305.100	-0.860	0.101
305.200	-3.416	0.101
305.300	-8.959	0.101
305.400	-12.418	0.101
305.500	-17.102	0.101
305.600	-3.888	0.101
305.700	-1.155	0.101
305.800	-11.346	0.101
305.900	-10.878	0.101
306.000	-5.915	0.101
306.100	-20.458	0.101
306.200	5.573	0.101
306.300	-18.229	0.101
306.400	-21.699	0.101
306.500	-6.415	0.101
306.600	-22.484	0.101
306.700	-14.279	0.101
306.800	1.455	0.101
306.900	-3.179	0.101
307.000	-12.187	0.101
307.100	-4.558	0.101
307.200	-7.200	0.101
307.300	-8.892	0.101
307.400	4.401	0.101
307.500	-9.119	0.101
307.600	-4.691	0.101
307.700	-8.272	0.101
307.800	-9.146	0.101
307.900	-13.126	0.101
308.000	-5.146	0.101
308.100	-13.337	0.101
308.200	-5.203	0.101
308.300	0.854	0.101
308.400	-10.803	0.101
308.500	-9.739	0.101
308.600	-14.765	0.101
308.700	0.573	0.101
308.800	-7.042	0.101
308.900	-16.410	0.101
309.000	-7.930	0.101
309.100	-6.414	0.101
309.200	-14.021	0.101
309.300	-15.194	0.101
309.400	0.628	0.101
309.500	-8.893	0.101
309.600	0.071	0.101
309.700	-27.864	0.101
309.800	-6.817	0.101
309.900	-3.248	0.101
310.000	-4.309	0.101
310.100	-18.452	0.101
310.200	-19.821	0.101
310.300	6.136	0.101
310.400	-4.987	0.101
310.500	-13.053	0.101
310.600	-15.492	0.101
310.700	-9.291	0.101
310.800	-21.201	0.101
310.900	-10.083	0.101
311.000	-5.821	0.101
311.100	-5.615	0.101
311.200	-1.816	0.101
311.300	-8.986	0.101
311.400	-15.421	0.101
311.500	-25.497	0.101
311.600	8.620	0.101
311.700	-17.473	0.101
311.800	-16.175	0.101
311.900	-13.618	0.101
312.000	-10.522	0.101
312.100	-8.146	0.101
312.200	-1.980	0.101
312.300	1.035	0.101
312.400	2.378	0.101
312.500	-9.059	0.101
312.600	-9.472	0.101
312.700	-13.331	0.101
312.800	-6.699	0.101
312.900	-14.043	0.101
313.000	-18.249	0.101
313.100	5.382	0.101
313.200	-17.001	0.101
313.300	-27.312	0.101
313.400	-8.951	0.101
313.500	-4.485	0.101
313.600	-5.362	0.101
313.700	-4.502	0.101
313.800	-12.604	0.101
313.900	-8.441	0.101
314.000	-7.633	0.101
314.100	1.454	0.101
314.200	8.693	0.101
314.300	-1.287	0.101
314.400	-14.348	0.101
314.500	1.117	0.101
314.600	-13.596	0.101
314.700	-3.459	0.101
314.800	-5.994	0.101
314.900	-7.926	0.101
315.000	-5.033	0.101
315.100	-5.422	0.101
315.200	-13.490	0.101
315.300	-12.649	0.101
315.400	-2.101	0.101
315.500	0.198	0.101
315.600	-9.399	0.101
315.700	-11.162	0.101
315.800	-8.496	0.101
315.900	-4.409	0.101
316.000	-13.827	0.101
316.100	-4.936	0.101
316.200	-5.872	0.101
316.300	-21.750	0.101
316.400	-21.338	0.101
316.500	-5.951	0.101
316.600	-12.547	0.101
316.700	-14.259	0.101
316.800	-9.263	0.101
316.900	-3.321	0.101
317.000	-8.829	0.101
317.100	-7.693	0.101
317.200	-2.643	0.101
317.300	-3.800	0.101
317.400	-9.915	0.101
317.500	-5.980	0.101
317.600	-9.348	0.101
317.700	-17.239	0.101
317.800	-2.990	0.101
317.900	-1.897	0.101
318.000	-13.413	0.101
318.100	-9.002	0.101
318.200	-9.149	0.101
318.300	-16.355	0.101
318.400	12.916	0.101
318.500	-8.450	0.101
318.600	-10.515	0.101
318.700	-18.380	0.101
318.800	-19.507	0.101
318.900	-12.590	0.101
319.000	-6.448	0.101
319.100	-11.826	0.101
319.200	-5.977	0.101
319.300	-11.446	0.101
319.400	-8.089	0.101
319.500	1.107	0.101
319.600	-13.108	0.101
319.700	-4.340	0.101
319.800	3.648	0.101
319.900	-21.062	0.101
320.000	-6.364	0.101
320.100	-7.204	0.101
320.200	-21.818	0.101
320.300	-20.520	0.101
320.400	-12.178	0.101
320.500	-10.491	0.101
320.600	-11.591	0.101
320.700	-17.635	0.101
320.800	-10.887	0.101
320.900	1.885	0.101
321.000	-4.090	0.101
321.100	-5.278	0.101
321.200	-22.420	0.101
321.300	-25.855	0.101
321.400	-8.368	0.101
321.500	-16.313	0.101
321.600	-6.069	0.101
321.700	-12.153	0.101
321.800	-6.332	0.101
321.900	-6.010	0.101
322.000	-11.130	0.101
322.100	-5.918	0.101
322.200	-10.202	0.101
322.300	-7.171	0.101
322.400	-10.744	0.101
322.500	-6.468	0.101
322.600	-2.711	0.101
322.700	-11.361	0.101
322.800	-7.570	0.101
322.900	-16.891	0.101
323.000	-10.329	0.101
323.100	-20.161	0.101
323.200	-10.690	0.101
323.300	-12.739	0.101
323.400	-14.495	0.101
323.500	-11.981	0.101
323.600	1.089	0.101
323.700	-24.193	0.101
323.800	-10.347	0.101
323.900	-18.701	0.101
324.000	-16.577	0.101
324.100	-2.382	0.101
324.200	-22.744	0.101
324.300	-15.221	0.101
324.400	-12.981	0.101
324.500	-6.881	0.101
324.600	-17.258	0.101
324.700	-5.368	0.101
324.800	-4.038	0.101
324.900	-21.842	0.101
325.000	-8.704	0.101
325.100	-5.629	0.101
325.200	-18.598	0.101
325.300	-12.194	0.101
325.400	-9.991	0.101
325.500	-2.936	0.101
325.600	-16.465	0.101
325.700	-16.338	0.101
325.800	2.609	0.101
325.900	-9.356	0.101
326.000	-14.040	0.101
326.100	6.470	0.101
326.200	-14.697	0.101
326.300	-20.860	0.101
326.400	-12.201	0.101
326.500	-8.181	0.101
326.600	-2.809	0.101
326.700	-16.487	0.101
326.800	-20.051	0.101
326.900	-1.212	0.101
327.000	-11.913	0.101
327.100	-5.814	0.101
327.200	-5.340	0.101
327.300	-12.560	0.101
327.400	-10.161	0.101
327.500	-18.488	0.101
327.600	-17.198	0.101
327.700	-12.923	0.101
327.800	-4.169	0.101
327.900	-17.995	0.101
328.000	-15.380	0.101
328.100	-13.711	0.101
328.200	-7.816	0.101
328.300	-17.335	0.101
328.400	-11.188	0.101
328.500	5.705	0.101
328.600	-11.019	0.101
328.700	-16.437	0.101
328.800	-12.589	0.101
328.900	-4.353	0.101
329.000	-18.212	0.101
329.100	-17.887	0.101
329.200	-14.586	0.101
329.300	-14.427	0.101
329.400	-21.917	0.101
329.500	-12.629	0.101
329.600	-4.760	0.101
329.700	-20.490	0.101
329.800	-15.919	0.101
329.900	-7.797	0.101
330.000	-12.137	0.101
330.100	-9.463	0.101
330.200	-13.250	0.101
330.300	-21.889	0.101
330.400	-10.601	0.101
330.500	-7.950	0.101
330.600	-12.903	0.101
330.700	-6.425	0.101
330.800	-6.662	0.101
330.900	-2.058	0.101
331.000	5.412	0.101
331.100	-8.174	0.101
331.200	-2.223	0.101
331.300	-3.531	0.101
331.400	-14.076	0.101
331.500	-3.767	0.101
331.600	-3.663	0.101
331.700	4.877	0.101
331.800	2.265	0.101
331.900	-18.763	0.101
332.000	3.303	0.101
332.100	0.827	0.101
332.200	1.379	0.101
332.300	-8.330	0.101
332.400	1.585	0.101
332.500	3.222	0.101
332.600	2.045	0.101
332.700	-4.337	0.101
332.800	3.985	0.101
332.900	4.237	0.101
333.000	9.775	0.101
333.100	-8.206	0.101
333.200	-1.786	0.101
333.300	10.757	0.101
333.400	1.054	0.101
333.500	2.476	0.101
333.600	1.087	0.101
333.700	2.642	0.101
333.800	-0.473	0.101
333.900	-13.959	0.101
334.000	3.309	0.101
334.100	-0.654	0.101
334.200	0.675	0.101
334.300	7.551	0.101
334.400	5.922	0.101
334.500	-13.643	0.101
334.600	-3.946	0.101
334.700	6.337	0.101
334.800	6.633	0.101
334.900	-7.438	0.101
335.000	-3.334	0.101
335.100	7.637	0.101
335.200	7.674	0.101
335.300	-1.931	0.101
335.400	1.946	0.101
335.500	-12.664	0.101
335.600	3.065	0.101
335.700	1.197	0.101
335.800	8.029	0.101
335.900	2.153	0.101
336.000	6.555	0.101
336.100	3.478	0.101
336.200	5.832	0.101
336.300	1.071	0.101
336.400	-5.288	0.101
336.500	10.832	0.101
336.600	-2.277	0.101
336.700	-19.685	0.101
336.800	-0.124	0.101
336.900	-5.816	0.101
337.000	-2.719	0.101
337.100	-0.893	0.101
337.200	1.198	0.101
337.300	8.455	0.101
337.400	2.606	0.101
337.500	-3.062	0.101
337.600	12.278	0.101
337.700	-1.486	0.101
337.800	10.612	0.101
337.900	2.549	0.101
338.000	-10.981	0.101
338.100	7.069	0.101
338.200	2.318	0.101
338.300	-5.112	0.101
338.400	17.331	0.101
338.500	7.193	0.101
338.600	10.582	0.101
338.700	0.599	0.101
338.800	7.200	0.101
338.900	4.744	0.101
339.000	8.747	0.101
339.100	3.622	0.101
339.200	7.998	0.101
339.300	-1.120	0.101
339.400	3.866	0.101
339.500	2.623	0.101
339.600	1.801	0.101
339.700	6.041	0.101
339.800	3.748	0.101
339.900	14.551	0.101
340.000	4.856	0.101
340.100	6.457	0.101
340.200	-4.035	0.101
340.300	-0.079	0.101
340.400	9.938	0.101
340.500	14.821	0.101
340.600	-6.662	0.101
340.700	10.115	0.101
340.800	5.888	0.101
340.900	14.587	0.101
341.000	1.790	0.101
341.100	7.820	0.101
341.200	7.287	0.101
341.300	5.685	0.101
341.400	-0.967	0.101
341.500	-6.647	0.101
341.600	14.055	0.101
341.700	8.219	0.101
341.800	22.746	0.101
341.900	-0.032	0.101
342.000	-1.329	0.101
342.100	0.051	0.101
342.200	21.285	0.101
342.300	8.696	0.101
342.400	3.979	0.101
342.500	2.373	0.101
342.600	20.593	0.101
342.700	10.606	0.101
342.800	23.703	0.101
342.900	13.901	0.101
343.000	3.770	0.101
343.100	7.815	0.101
343.200	12.263	0.101
343.300	8.028	0.101
343.400	6.438	0.101
343.500	7.079	0.101
343.600	15.829	0.101
343.700	16.810	0.101
343.800	9.049	0.101
343.900	-1.566	0.101
344.000	14.672	0.101
344.100	-4.791	0.101
344.200	17.245	0.101
344.300	11.925	0.101
344.400	-3.421	0.101
344.500	2.093	0.101
344.600	31.188	0.101
344.700	14.258	0.101
344.800	10.071	0.101
344.900	7.239	0.101
345.000	10.852	0.101
345.100	0.404	0.101
345.200	3.143	0.101
345.300	15.772	0.101
345.400	19.712	0.101
345.500	16.050	0.101
345.600	12.773	0.101
345.700	11.293	0.101
345.800	14.984	0.101
345.900	3.341	0.101
346.000	1.372	0.101
346.100	28.479	0.101
346.200	2.536	0.101
346.300	9.674	0.101
346.400	-7.480	0.101
346.500	15.104	0.101
346.600	12.363	0.101
346.700	12.688	0.101
346.800	16.848	0.101
346.900	-7.310	0.101
347.000	1.709	0.101
347.100	27.478	0.101
347.200	20.502	0.101
347.300	11.700	0.101
347.400	14.640	0.101
347.500	12.805	0.101
347.600	14.504	0.101
347.700	17.596	0.101
347.800	11.367	0.101
347.900	7.937	0.101
348.000	5.549	0.101
348.100	4.183	0.101
348.200	24.516	0.101
348.300	7.491	0.101
348.400	18.456	0.101
348.500	1.062	0.101
348.600	30.540	0.101
348.700	13.136	0.101
348.800	21.741	0.101
348.900	10.427	0.101
349.000	14.398	0.101
349.100	28.015	0.101
349.200	18.633	0.101
349.300	14.146	0.101
349.400	9.751	0.101
349.500	18.534	0.101
349.600	13.199	0.101
349.700	20.180	0.101
349.800	9.779	0.101
349.900	11.349	0.101
350.000	16.151	0.101
350.100	10.280	0.101
350.200	9.546	0.101
350.300	9.810	0.101
350.400	25.939	0.101
350.500	16.787	0.101
350.600	12.991	0.101
350.700	19.833	0.101
350.800	15.193	0.101
350.900	0.744	0.101
351.000	16.979	0.101
351.100	9.847	0.101
351.200	17.048	0.101
351.300	25.454	0.101
351.400	21.014	0.101
351.500	13.146	0.101
351.600	1.073	0.101
351.700	19.805	0.101
351.800	32.893	0.101
351.900	17.537	0.101
352.000	20.889	0.101
352.100	11.844	0.101
352.200	13.989	0.101
352.300	20.400	0.101
352.400	8.382	0.101
352.500	17.589	0.101
352.600	8.507	0.101
352.700	14.787	0.101
352.800	18.515	0.101
352.900	20.687	0.101
353.000	16.955	0.101
353.100	13.858	0.101
353.200	10.289	0.101
353.300	29.315	0.101
353.400	23.649	0.101
353.500	23.516	0.101
353.600	26.667	0.101
353.700	15.629	0.101
353.800	14.703	0.101
353.900	14.749	0.101
354.000	16.717	0.101
354.100	37.399	0.101
354.200	9.829	0.101
354.300	5.976	0.101
354.400	17.393	0.101
354.500	20.450	0.101
354.600	25.645	0.101
354.700	19.793	0.101
354.800	4.642	0.101
354.900	27.446	0.101
355.000	19.522	0.101
355.100	18.317	0.101
355.200	22.221	0.101
355.300	19.522	0.101
355.400	28.123	0.101
355.500	33.832	0.101
355.600	13.694	0.101
355.700	17.760	0.101
355.800	37.349	0.101
355.900	17.967	0.101
356.000	25.713	0.101
356.100	24.463	0.101
356.200	19.264	0.101
356.300	17.949	0.101
356.400	22.453	0.101
356.500	23.830	0.101
356.600	11.852	0.101
356.700	28.476	0.101
356.800	9.178	0.101
356.900	20.231	0.101
357.000	19.245	0.101
357.100	34.006	0.101
357.200	34.485	0.101
357.300	28.636	0.101
357.400	20.264	0.101
357.500	25.769	0.101
357.600	28.620	0.101
357.700	17.672	0.101
357.800	24.889	0.101
357.900	0.836	0.101
358.000	27.186	0.101
358.100	14.974	0.101
358.200	9.009	0.101
358.300	16.355	0.101
358.400	33.863	0.101
358.500	25.886	0.101
358.600	34.305	0.101
358.700	18.240	0.101
358.800	19.967	0.101
358.900	12.206	0.101
359.000	22.240	0.101
359.100	28.864	0.101
359.200	12.284	0.101
359.300	31.794	0.101
359.400	22.523	0.101
359.500	21.987	0.101
359.600	6.213	0.101
359.700	22.571	0.101
359.800	18.132	0.101
359.900	29.831	0.101
360.000	36.127	0.101
360.100	17.758	0.101
360.200	32.515	0.101
360.300	29.758	0.101
360.400	26.158	0.101
360.500	22.064	0.101
360.600	22.510	0.101
360.700	22.973	0.101
360.800	22.016	0.101
360.900	28.501	0.101
361.000	24.258	0.101
361.100	25.121	0.101
361.200	25.405	0.101
361.300	36.587	0.101
361.400	15.998	0.101
361.500	14.596	0.101
361.600	24.275	0.101
361.700	19.716	0.101
361.800	12.484	0.101
361.900	25.747	0.101
362.000	20.201	0.101
362.100	32.930	0.101
362.200	20.688	0.101
362.300	23.306	0.101
362.400	25.369	0.101
362.500	15.936	0.101
362.600	21.202	0.101
362.700	28.304	0.101
362.800	28.714	0.101
362.900	32.309	0.101
363.000	23.259	0.101
363.100	19.117	0.101
363.200	32.493	0.101
363.300	33.472	0.101
363.400	18.461	0.101
363.500	24.246	0.101
363.600	29.436	0.101
363.700	24.311	0.101
363.800	18.345	0.101
363.900	25.165	0.101
364.000	36.254	0.101
364.100	37.940	0.101
364.200	30.658	0.101
364.300	27.502	0.101
364.400	20.485	0.101
364.500	16.272	0.101
364.600	29.852	0.101
364.700	29.323	0.101
364.800	23.549	0.101
364.900	23.151	0.101
365.000	30.626	0.101
365.100	27.150	0.101
365.200	24.698	0.101
365.300	12.110	0.101
365.400	22.398	0.101
365.500	16.942	0.101
365.600	25.605	0.101
365.700	34.093	0.101
365.800	33.553	0.101
365.900	17.467	0.101
366.000	27.875	0.101
366.100	33.981	0.101
366.200	33.432	0.101
366.300	37.934	0.101
366.400	13.392	0.101
366.500	26.773	0.101
366.600	32.249	0.101
366.700	18.418	0.101
366.800	33.634	0.101
366.900	25.079	0.101
367.000	38.176	0.101
367.100	36.462	0.101
367.200	25.319	0.101
367.300	34.805	0.101
367.400	31.978	0.101
367.500	25.744	0.101
367.600	15.247	0.101
367.700	15.067	0.101
367.800	32.351	0.101
367.900	37.062	0.101
368.000	30.976	0.101
368.100	32.458	0.101
368.200	27.434	0.101
368.300	41.310	0.101
368.400	23.159	0.101
368.500	28.142	0.101
368.600	28.455	0.101
368.700	22.803	0.101
368.800	38.536	0.101
368.900	38.377	0.101
369.000	28.458	0.101
369.100	28.998	0.101
369.200	14.975	0.101
369.300	31.326	0.101
369.400	12.074	0.101
369.500	23.677	0.101
369.600	23.243	0.101
369.700	25.640	0.101
369.800	40.718	0.101
369.900	40.356	0.101
370.000	23.463	0.101
370.100	29.077	0.101
370.200	36.528	0.101
370.300	33.734	0.101
370.400	30.181	0.101
370.500	26.570	0.101
370.600	15.230	0.101
370.700	39.461	0.101
370.800	33.542	0.101
370.900	23.615	0.101
371.000	26.466	0.101
371.100	38.763	0.101
371.200	24.585	0.101
371.300	36.309	0.101
371.400	25.302	0.101
371.500	35.660	0.101
371.600	25.391	0.101
371.700	29.429	0.101
371.800	32.978	0.101
371.900	30.351	0.101
372.000	34.113	0.101
372.100	33.050	0.101
372.200	25.847	0.101
372.300	26.630	0.101
372.400	17.101	0.101
372.500	24.439	0.101
372.600	30.914	0.101
372.700	27.607	0.101
372.800	34.338	0.101
372.900	33.890	0.101
373.000	30.538	0.101
373.100	40.734	0.101
373.200	23.058	0.101
373.300	45.020	0.101
373.400	39.536	0.101
373.500	10.929	0.101
373.600	43.445	0.101
373.700	24.505	0.101
373.800	23.241	0.101
373.900	33.221	0.101
374.000	37.502	0.101
374.100	37.015	0.101
374.200	29.089	0.101
374.300	39.013	0.101
374.400	28.309	0.101
374.500	28.549	0.101
374.600	30.815	0.101
374.700	35.799	0.101
374.800	33.857	0.101
374.900	28.676	0.101
375.000	37.206	0.101
375.100	38.860	0.101
375.200	26.608	0.101
375.300	33.043	0.101
375.400	36.121	0.101
375.500	28.438	0.101
375.600	30.740	0.101
375.700	36.403	0.101
375.800	27.180	0.101
375.900	28.988	0.101
376.000	33.566	0.101
376.100	23.998	0.101
376.200	37.762	0.101
376.300	36.369	0.101
376.400	41.445	0.101
376.500	30.044	0.101
376.600	30.111	0.101
376.700	24.705	0.101
376.800	32.974	0.101
376.900	33.526	0.101
377.000	34.070	0.101
377.100	33.374	0.101
377.200	42.098	0.101
377.300	21.865	0.101
377.400	36.368	0.101
377.500	44.314	0.101
377.600	31.203	0.101
377.700	37.641	0.101
377.800	25.177	0.101
377.900	39.376	0.101
378.000	17.538	0.101
378.100	41.907	0.101
378.200	38.901	0.101
378.300	27.228	0.101
378.400	28.370	0.101
378.500	40.724	0.101
378.600	33.559	0.101
378.700	36.241	0.101
378.800	32.288	0.101
378.900	26.671	0.101
379.000	33.635	0.101
379.100	46.096	0.101
379.200	30.183	0.101
379.300	39.018	0.101
379.400	13.270	0.101
379.500	40.157	0.101
379.600	31.473	0.101
379.700	28.723	0.101
379.800	22.205	0.101
379.900	30.290	0.101
380.000	38.295	0.101
380.100	28.810	0.101
380.200	29.931	0.101
380.300	24.674	0.101
380.400	34.908	0.101
380.500	30.312	0.101
380.600	44.575	0.101
380.700	16.870	0.101
380.800	40.746	0.101
380.900	33.587	0.101
381.000	43.820	0.101
381.100	32.189	0.101
381.200	33.966	0.101
381.300	32.051	0.101
381.400	20.976	0.101
381.500	39.002	0.101
381.600	35.763	0.101
381.700	28.954	0.101
381.800	36.638	0.101
381.900	28.461	0.101
382.000	32.495	0.101
382.100	33.204	0.101
382.200	29.535	0.101
382.300	41.797	0.101
382.400	38.940	0.101
382.500	39.424	0.101
382.600	38.915	0.101
382.700	27.145	0.101
382.800	29.194	0.101
382.900	29.541	0.101
383.000	41.439	0.101
383.100	52.213	0.101
383.200	27.265	0.101
383.300	27.815	0.101
383.400	41.276	0.101
383.500	37.186	0.101
383.600	34.544	0.101
383.700	32.368	0.101
383.800	39.284	0.101
383.900	26.174	0.101
384.000	41.244	0.101
384.100	48.151	0.101
384.200	35.086	0.101
384.300	36.740	0.101
384.400	29.337	0.101
384.500	28.195	0.101
384.600	48.756	0.101
384.700	38.060	0.101
384.800	39.508	0.101
384.900	35.263	0.101
385.000	32.708	0.101
385.100	37.158	0.101
385.200	21.973	0.101
385.300	25.099	0.101
385.400	25.062	0.101
385.500	42.639	0.101
385.600	47.253	0.101
385.700	33.807	0.101
385.800	26.812	0.101
385.900	38.794	0.101
386.000	33.782	0.101
386.100	36.718	0.101
386.200	35.666	0.101
386.300	37.245	0.101
386.400	31.085	0.101
386.500	27.046	0.101
386.600	30.913	0.101
386.700	38.511	0.101
386.800	41.135	0.101
386.900	48.206	0.101
387.000	41.023	0.101
387.100	36.261	0.101
387.200	35.789	0.101
387.300	41.174	0.101
387.400	32.791	0.101
387.500	34.366	0.101
387.600	48.918	0.101
387.700	37.238	0.101
387.800	28.567	0.101
387.900	26.315	0.101
388.000	36.697	0.101
388.100	30.005	0.101
388.200	45.482	0.101
388.300	43.498	0.101
388.400	34.205	0.101
388.500	25.395	0.101
388.600	43.109	0.101
388.700	33.187	0.101
388.800	24.538	0.101
388.900	36.341	0.101
389.000	28.615	0.101
389.100	39.567	0.101
389.200	45.808	0.101
389.300	37.242	0.101
389.400	33.160	0.101
389.500	36.095	0.101
389.600	42.732	0.101
389.700	37.094	0.101
389.800	20.004	0.101
389.900	29.404	0.101
390.000	34.972	0.101
390.100	47.042	0.101
390.200	38.982	0.101
390.300	32.790	0.101
390.400	30.012	0.101
390.500	38.673	0.101
390.600	35.262	0.101
390.700	37.030	0.101
390.800	35.641	0.101
390.900	32.656	0.101
391.000	28.024	0.101
391.100	35.792	0.101
391.200	19.287	0.101
391.300	23.542	0.101
391.400	22.238	0.101
391.500	28.532	0.101
391.600	21.792	0.101
391.700	29.740	0.101
391.800	27.997	0.101
391.900	22.930	0.101
392.000	35.155	0.101
392.100	15.841	0.101
392.200	22.804	0.101
392.300	32.140	0.101
392.400	20.069	0.101
392.500	28.695	0.101
392.600	28.570	0.101
392.700	28.097	0.101
392.800	17.039	0.101
392.900	13.967	0.101
393.000	42.175	0.101
393.100	39.579	0.101
393.200	22.215	0.101
393.300	27.179	0.101
393.400	18.590	0.101
393.500	26.004	0.101
393.600	31.476	0.101
393.700	1.662	0.101
393.800	24.323	0.101
393.900	27.650	0.101
394.000	15.629	0.101
394.100	23.799	0.101
394.200	27.890	0.101
394.300	16.774	0.101
394.400	35.416	0.101
394.500	18.440	0.101
394.600	16.007	0.101
394.700	24.859	0.101
394.800	21.780	0.101
394.900	21.624	0.101
395.000	13.479	0.101
395.100	23.658	0.101
395.200	26.020	0.101
395.300	15.683	0.101
395.400	14.872	0.101
395.500	23.508	0.101
395.600	14.163	0.101
395.700	21.528	0.101
395.800	12.303	0.101
395.900	34.535	0.101
396.000	20.069	0.101
396.100	22.058	0.101
396.200	23.667	0.101
396.300	11.324	0.101
396.400	21.415	0.101
396.500	18.478	0.101
396.600	23.947	0.101
396.700	20.737	0.101
396.800	12.880	0.101
396.900	8.173	0.101
397.000	21.889	0.101
397.100	13.600	0.101
397.200	11.447	0.101
397.300	17.323	0.101
397.400	14.804	0.101
397.500	22.095	0.101
397.600	17.704	0.101
397.700	25.665	0.101
397.800	25.651	0.101
397.900	16.229	0.101
398.000	13.910	0.101
398.100	16.326	0.101
398.200	29.695	0.101
398.300	4.188	0.101
398.400	26.673	0.101
398.500	22.708	0.101
398.600	18.442	0.101
398.700	25.961	0.101
398.800	17.203	0.101
398.900	21.679	0.101
399.000	3.272	0.101
399.100	6.779	0.101
399.200	9.904	0.101
399.300	19.508	0.101
399.400	30.526	0.101
399.500	15.290	0.101
399.600	8.895	0.101
399.700	18.997	0.101
399.800	3.228	0.101
399.900	5.363	0.101
400.000	27.024	0.101
400.100	28.511	0.101
400.200	11.029	0.101
400.300	25.027	0.101
400.400	19.880	0.101
400.500	13.688	0.101
400.600	9.822	0.101
400.700	13.290	0.101
400.800	18.571	0.101
400.900	22.038	0.101
401.000	9.293	0.101
401.100	21.705	0.101
401.200	23.445	0.101
401.300	18.305	0.101
401.400	16.929	0.101
401.500	21.949	0.101
401.600	23.058	0.101
401.700	7.712	0.101
401.800	16.920	0.101
401.900	7.916	0.101
402.000	-5.724	0.101
402.100	15.966	0.101
402.200	18.381	0.101
402.300	11.746	0.101
402.400	20.404	0.101
402.500	12.441	0.101
402.600	19.749	0.101
402.700	16.215	0.101
402.800	18.687	0.101
402.900	13.412	0.101
403.000	3.759	0.101
403.100	20.157	0.101
403.200	4.667	0.101
403.300	15.588	0.101
403.400	9.223	0.101
403.500	13.286	0.101
403.600	13.996	0.101
403.700	19.061	0.101
403.800	15.129	0.101
403.900	28.122	0.101
404.000	11.309	0.101
404.100	13.910	0.101
404.200	13.110	0.101
404.300	19.187	0.101
404.400	12.739	0.101
404.500	24.788	0.101
404.600	17.101	0.101
404.700	21.099	0.101
404.800	10.649	0.101
404.900	13.024	0.101
405.000	10.766	0.101
405.100	15.631	0.101
405.200	9.600	0.101
405.300	12.968	0.101
405.400	8.245	0.101
405.500	18.220	0.101
405.600	8.281	0.101
405.700	16.556	0.101
405.800	11.744	0.101
405.900	12.460	0.101
406.000	6.206	0.101
406.100	11.091	0.101
406.200	28.206	0.101
406.300	16.679	0.101
406.400	0.069	0.101
406.500	11.774	0.101
406.600	-0.606	0.101
406.700	9.863	0.101
406.800	13.545	0.101
406.900	8.115	0.101
407.000	14.549	0.101
407.100	-4.270	0.101
407.200	13.840	0.101
407.300	17.627	0.101
407.400	16.939	0.101
407.500	9.927	0.101
407.600	13.920	0.101
407.700	0.021	0.101
407.800	7.619	0.101
407.900	3.695	0.101
408.000	15.893	0.101
408.100	2.243	0.101
408.200	7.096	0.101
408.300	14.338	0.101
408.400	13.298	0.101
408.500	-1.305	0.101
408.600	5.310	0.101
408.700	22.423	0.101
408.800	9.642	0.101
408.900	18.589	0.101
409.000	7.667	0.101
409.100	2.705	0.101
409.200	3.813	0.101
409.300	21.906	0.101
409.400	17.390	0.101
409.500	20.682	0.101
409.600	-4.373	0.101
409.700	14.895	0.101
409.800	5.885	0.101
409.900	8.979	0.101
410.000	22.708	0.101
410.100	5.315	0.101
410.200	4.947	0.101
410.300	8.181	0.101
410.400	21.443	0.101
410.500	19.032	0.101
410.600	11.105	0.101
410.700	12.115	0.101
410.800	-6.017	0.101
410.900	2.334	0.101
411.000	-2.262	0.101
411.100	10.035	0.101
411.200	23.051	0.101
411.300	2.372	0.101
411.400	23.458	0.101
411.500	5.782	0.101
411.600	8.676	0.101
411.700	13.188	0.101
411.800	3.677	0.101
411.900	4.395	0.101
412.000	9.490	0.101
412.100	10.649	0.101
412.200	-0.458	0.101
412.300	3.775	0.101
412.400	10.615	0.101
412.500	15.684	0.101
412.600	10.868	0.101
412.700	3.459	0.101
412.800	7.196	0.101
412.900	9.777	0.101
413.000	-1.794	0.101
413.100	0.391	0.101
413.200	-2.232	0.101
413.300	15.701	0.101
413.400	3.833	0.101
413.500	12.787	0.101
413.600	10.755	0.101
413.700	-7.102	0.101
413.800	2.518	0.101
413.900	6.022	0.101
414.000	12.741	0.101
414.100	6.282	0.101
414.200	6.776	0.101
414.300	-0.070	0.101
414.400	-5.574	0.101
414.500	21.813	0.101
414.600	2.605	0.101
414.700	14.020	0.101
414.800	3.092	0.101
414.900	12.075	0.101
415.000	4.974	0.101
415.100	4.122	0.101
415.200	8.314	0.101
415.300	20.935	0.101
415.400	2.601	0.101
415.500	17.608	0.101
415.600	6.394	0.101
415.700	7.333	0.101
415.800	1.682	0.101
415.900	1.624	0.101
416.000	5.021	0.101
416.100	11.595	0.101
416.200	-4.412	0.101
416.300	-2.835	0.101
416.400	4.697	0.101
416.500	22.839	0.101
416.600	3.792	0.101
416.700	0.322	0.101
416.800	14.528	0.101
416.900	4.720	0.101
417.000	1.143	0.101
417.100	-4.254	0.101
417.200	-0.439	0.101
417.300	12.249	0.101
417.400	8.783	0.101
417.500	0.290	0.101
417.600	11.784	0.101
417.700	-4.929	0.101
417.800	-4.130	0.101
417.900	-4.530	0.101
418.000	-2.687	0.101
418.100	11.776	0.101
418.200	7.077	0.101
418.300	12.731	0.101
418.400	2.454	0.101
418.500	-0.389	0.101
418.600	5.979	0.101
418.700	8.432	0.101
418.800	0.891	0.101
418.900	10.987	0.101
419.000	3.337	0.101
419.100	5.735	0.101
419.200	-9.378	0.101
419.300	6.780	0.101
419.400	3.273	0.101
419.500	-1.759	0.101
419.600	-2.918	0.101
419.700	2.399	0.101
419.800	5.933	0.101
419.900	12.751	0.101
420.000	0.740	0.101
420.100	-4.842	0.101
420.200	4.026	0.101
420.300	-9.734	0.101
420.400	-5.682	0.101
420.500	-4.980	0.101
420.600	0.452	0.101
420.700	3.798	0.101
420.800	-2.582	0.101
420.900	-18.785	0.101
421.000	-0.227	0.101
421.100	11.506	0.101
421.200	9.271	0.101
421.300	3.664	0.101
421.400	14.342	0.101
421.500	-4.202	0.101
421.600	-2.461	0.101
421.700	7.454	0.101
421.800	0.852	0.101
421.900	-9.977	0.101
422.000	-1.240	0.101
422.100	16.381	0.101
422.200	-5.744	0.101
422.300	8.162	0.101
422.400	-4.384	0.101
422.500	7.642	0.101
422.600	5.815	0.101
422.700	-14.076	0.101
422.800	6.111	0.101
422.900	-5.156	0.101
423.000	2.121	0.101
423.100	5.758	0.101
423.200	-7.019	0.101
423.300	-5.440	0.101
423.400	1.801	0.101
423.500	2.514	0.101
423.600	-3.124	0.101
423.700	9.460	0.101
423.800	-6.843	0.101
423.900	-14.543	0.101
424.000	-6.725	0.101
424.100	2.883	0.101
424.200	-3.441	0.101
424.300	1.692	0.101
424.400	0.374	0.101
424.500	-6.118	0.101
424.600	-13.995	0.101
424.700	10.840	0.101
424.800	14.052	0.101
424.900	-14.091	0.101
425.000	-8.379	0.101
425.100	6.528	0.101
425.200	-14.774	0.101
425.300	-13.710	0.101
425.400	-4.929	0.101
425.500	-1.262	0.101
425.600	-2.748	0.101
425.700	10.373	0.101
425.800	-6.637	0.101
425.900	-2.676	0.101
426.000	-5.351	0.101
426.100	-9.725	0.101
426.200	8.498	0.101
426.300	0.473	0.101
426.400	-0.715	0.101
426.500	-14.934	0.101
426.600	10.606	0.101
426.700	-3.340	0.101
426.800	-6.725	0.101
426.900	-5.004	0.101
427.000	-12.867	0.101
427.100	1.138	0.101
427.200	6.711	0.101
427.300	-9.412	0.101
427.400	-1.295	0.101
427.500	-16.974	0.101
427.600	12.191	0.101
427.700	-0.172	0.101
427.800	-6.879	0.101
427.900	0.626	0.101
428.000	9.285	0.101
428.100	-2.482	0.101
428.200	6.249	0.101
428.300	-7.465	0.101
428.400	-9.472	0.101
428.500	8.742	0.101
428.600	-8.936	0.101
428.700	-6.103	0.101
428.800	8.292	0.101
428.900	-5.294	0.101
429.000	-4.480	0.101
429.100	-4.865	0.101
429.200	-6.034	0.101
429.300	-1.057	0.101
429.400	5.694	0.101
429.500	-5.950	0.101
429.600	0.209	0.101
429.700	10.910	0.101
429.800	-4.629	0.101
429.900	-18.468	0.101
430.000	-8.277	0.101
430.100	-2.539	0.101
430.200	-7.501	0.101
430.300	-7.412	0.101
430.400	-13.031	0.101
430.500	-2.275	0.101
430.600	-8.812	0.101
430.700	2.022	0.101
430.800	-12.994	0.101
430.900	-8.679	0.101
431.000	-12.929	0.101
431.100	-11.044	0.101
431.200	-4.286	0.101
431.300	-1.101	0.101
431.400	-0.263	0.101
431.500	-6.230	0.101
431.600	-4.540	0.101
431.700	-16.541	0.101
431.800	1.749	0.101
431.900	-0.295	0.101
432.000	0.282	0.101
432.100	-5.168	0.101
432.200	1.866	0.101
432.300	3.228	0.101
432.400	-4.936	0.101
432.500	-9.201	0.101
432.600	-14.885	0.101
432.700	4.878	0.101
432.800	1.133	0.101
432.900	-14.131	0.101
433.000	-7.628	0.101
433.100	-10.897	0.101
433.200	-10.275	0.101
433.300	-1.024	0.101
433.400	-6.617	0.101
433.500	-1.556	0.101
433.600	-11.390	0.101
433.700	-1.095	0.101
433.800	-2.293	0.101
433.900	-2.873	0.101
434.000	-4.781	0.101
434.100	-0.385	0.101
434.200	-8.833	0.101
434.300	-10.323	0.101
434.400	3.601	0.101
434.500	-7.256	0.101
434.600	-12.811	0.101
434.700	5.844	0.101
434.800	4.242	0.101
434.900	-9.740	0.101
435.000	-16.569	0.101
435.100	-6.455	0.101
435.200	2.783	0.101
435.300	-10.679	0.101
435.400	-12.384	0.101
435.500	-2.704	0.101
435.600	-1.520	0.101
435.700	-9.325	0.101
435.800	-14.748	0.101
435.900	-8.424	0.101
436.000	-0.044	0.101
436.100	-15.860	0.101
436.200	6.740	0.101
436.300	-9.330	0.101
436.400	-12.180	0.101
436.500	0.358	0.101
436.600	-27.847	0.101
436.700	-9.265	0.101
436.800	-6.934	0.101
436.900	-0.414	0.101
437.000	-14.230	0.101
437.100	-1.052	0.101
437.200	-11.101	0.101
437.300	9.324	0.101
437.400	-3.905	0.101
437.500	-16.288	0.101
437.600	7.651	0.101
437.700	-12.352	0.101
437.800	-9.560	0.101
437.900	-8.450	0.101
438.000	-0.340	0.101
438.100	-12.733	0.101
438.200	8.166	0.101
438.300	-6.386	0.101
438.400	-11.366	0.101
438.500	-16.229	0.101
438.600	-7.827	0.101
438.700	-4.944	0.101
438.800	0.217	0.101
438.900	-4.958	0.101
439.000	-3.348	0.101
439.100	-3.396	0.101
439.200	-8.308	0.101
439.300	-4.583	0.101
439.400	-14.746	0.101
439.500	-15.752	0.101
439.600	-9.966	0.101
439.700	-11.200	0.101
439.800	-2.524	0.101
439.900	-14.293	0.101
440.000	12.877	0.101
440.100	-3.868	0.101
440.200	-6.246	0.101
440.300	4.311	0.101
440.400	-7.043	0.101
440.500	-3.300	0.101
440.600	-2.112	0.101
440.700	-17.483	0.101
440.800	2.017	0.101
440.900	-6.610	0.101
441.000	-11.247	0.101
441.100	-19.135	0.101
441.200	-5.654	0.101
441.300	-5.975	0.101
441.400	1.179	0.101
441.500	-12.904	0.101
441.600	-5.257	0.101
441.700	-32.718	0.101
441.800	4.625	0.101
441.900	3.868	0.101
442.000	-0.028	0.101
442.100	-7.090	0.101
442.200	-8.237	0.101
442.300	-12.691	0.101
442.400	-14.476	0.101
442.500	-2.652	0.101
442.600	-9.722	0.101
442.700	-2.334	0.101
442.800	-12.562	0.101
442.900	-8.579	0.101
443.000	-10.131	0.101
443.100	-4.792	0.101
443.200	-6.324	0.101
443.300	-5.177	0.101
443.400	-13.095	0.101
443.500	-3.644	0.101
443.600	5.180	0.101
443.700	-10.022	0.101
443.800	8.153	0.101
443.900	-13.759	0.101
444.000	-7.106	0.101
444.100	-4.653	0.101
444.200	-4.062	0.101
444.300	-16.438	0.101
444.400	-13.263	0.101
444.500	-10.787	0.101
444.600	-2.168	0.101
444.700	-11.269	0.101
444.800	-9.843	0.101
444.900	-1.640	0.101
445.000	-7.735	0.101
445.100	-7.226	0.101
445.200	-19.537	0.101
445.300	-10.352	0.101
445.400	-13.671	0.101
445.500	-5.099	0.101
445.600	1.562	0.101
445.700	-15.426	0.101
445.800	-12.799	0.101
445.900	-2.708	0.101
446.000	1.144	0.101
446.100	-11.782	0.101
446.200	-1.824	0.101
446.300	-16.642	0.101
446.400	-15.452	0.101
446.500	1.151	0.101
446.600	-13.799	0.101
446.700	-7.852	0.101
446.800	-0.050	0.101
446.900	-9.694	0.101
447.000	-12.846	0.101
447.100	-14.291	0.101
447.200	-5.885	0.101
447.300	4.059	0.101
447.400	-5.411	0.101
447.500	-5.727	0.101
447.600	-10.187	0.101
447.700	-10.697	0.101
447.800	-17.061	0.101
447.900	4.290	0.101
448.000	-8.187	0.101
448.100	-20.447	0.101
448.200	-6.476	0.101
448.300	9.313	0.101
448.400	-3.982	0.101
448.500	-10.915	0.101
448.600	-12.805	0.101
448.700	5.575	0.101
448.800	-9.604	0.101
448.900	-12.361	0.101
449.000	-18.165	0.101
449.100	11.917	0.101
449.200	-1.931	0.101
449.300	-3.095	0.101
449.400	-21.337	0.101
449.500	-10.913	0.101
449.600	0.338	0.101
449.700	-2.195	0.101
449.800	-15.283	0.101
449.900	-15.793	0.101
450.000	-18.099	0.101
450.100	2.864	0.101
450.200	-4.256	0.101
450.300	-10.212	0.101
450.400	-3.582	0.101
450.500	-12.938	0.101
450.600	-9.190	0.101
450.700	-5.185	0.101
450.800	-20.316	0.101
450.900	-10.637	0.101
451.000	-14.057	0.101
451.100	-2.391	0.101
451.200	-11.115	0.101
451.300	-10.186	0.101
451.400	-6.388	0.101
451.500	-10.357	0.101
451.600	-15.372	0.101
451.700	-10.081	0.101
451.800	-13.384	0.101
451.900	-16.725	0.101
452.000	-17.221	0.101
452.100	-2.551	0.101
452.200	-14.405	0.101
452.300	-14.395	0.101
452.400	-11.277	0.101
452.500	-6.347	0.101
452.600	-1.342	0.101
452.700	-14.501	0.101
452.800	-4.023	0.101
452.900	-7.944	0.101
453.000	-7.141	0.101
453.100	-19.609	0.101
453.200	-18.308	0.101
453.300	-6.143	0.101
453.400	-10.785	0.101
453.500	-3.915	0.101
453.600	3.940	0.101
453.700	-3.406	0.101
453.800	-1.620	0.101
453.900	-9.682	0.101
454.000	-8.997	0.101
454.100	-9.765	0.101
454.200	-4.628	0.101
454.300	-3.392	0.101
454.400	-0.551	0.101
454.500	-16.518	0.101
454.600	-12.682	0.101
454.700	-13.161	0.101
454.800	-7.038	0.101
454.900	-11.458	0.101
455.000	-9.447	0.101
455.100	-12.062	0.101
455.200	-10.985	0.101
455.300	-10.371	0.101
455.400	-19.761	0.101
455.500	-16.088	0.101
455.600	-11.877	0.101
455.700	-10.718	0.101
455.800	-13.413	0.101
455.900	-9.824	0.101
456.000	-8.601	0.101
456.100	-7.860	0.101
456.200	-13.983	0.101
456.300	-2.447	0.101
456.400	-3.219	0.101
456.500	-17.527	0.101
456.600	-19.679	0.101
456.700	0.599	0.101
456.800	-12.956	0.101
456.900	-11.888	0.101
457.000	-4.489	0.101
457.100	3.913	0.101
457.200	-7.503	0.101
457.300	-19.160	0.101
457.400	-6.703	0.101
457.500	-8.492	0.101
457.600	-8.455	0.101
457.700	-17.019	0.101
457.800	-17.374	0.101
457.900	-19.584	0.101
458.000	-1.290	0.101
458.100	-14.523	0.101
458.200	-19.237	0.101
458.300	-8.664	0.101
458.400	-7.576	0.101
458.500	-6.094	0.101
458.600	-13.361	0.101
458.700	-17.667	0.101
458.800	-1.289	0.101
458.900	-9.748	0.101
459.000	-14.747	0.101
459.100	-16.224	0.101
459.200	-16.920	0.101
459.300	-12.304	0.101
459.400	-6.440	0.101
459.500	0.943	0.101
459.600	-13.513	0.101
459.700	-13.533	0.101
459.800	-7.323	0.101
459.900	-20.664	0.101
460.000	-7.435	0.101
460.100	-7.772	0.101
460.200	-2.733	0.101
460.300	-10.440	0.101
460.400	-17.481	0.101
460.500	-21.673	0.101
460.600	-5.585	0.101
460.700	-4.150	0.101
460.800	-26.006	0.101
460.900	-7.569	0.101
461.000	-8.857	0.101
461.100	-1.501	0.101
461.200	-12.727	0.101
461.300	-11.595	0.101
461.400	1.830	0.101
461.500	-6.830	0.101
461.600	-4.213	0.101
461.700	-2.964	0.101
461.800	-21.654	0.101
461.900	-10.493	0.101
462.000	-13.345	0.101
462.100	-6.305	0.101
462.200	-3.039	0.101
462.300	-5.035	0.101
462.400	-17.584	0.101
462.500	-0.763	0.101
462.600	-12.618	0.101
462.700	-13.634	0.101
462.800	-14.280	0.101
462.900	-15.488	0.101
463.000	-12.662	0.101
463.100	-8.027	0.101
463.200	-18.532	0.101
463.300	-13.224	0.101
463.400	4.602	0.101
463.500	-8.447	0.101
463.600	-9.243	0.101
463.700	-18.681	0.101
463.800	-10.587	0.101
463.900	-3.606	0.101
464.000	-4.329	0.101
464.100	-11.812	0.101
464.200	-17.004	0.101
464.300	6.721	0.101
464.400	-13.952	0.101
464.500	-21.538	0.101
464.600	-8.802	0.101
464.700	0.428	0.101
464.800	-10.620	0.101
464.900	-20.140	0.101
465.000	-16.746	0.101
465.100	-16.348	0.101
465.200	-1.478	0.101
465.300	-6.230	0.101
465.400	-20.870	0.101
465.500	-6.885	0.101
465.600	-18.014	0.101
465.700	-29.030	0.101
465.800	-14.165	0.101
465.900	-6.675	0.101
466.000	-9.108	0.101
466.100	-10.015	0.101
466.200	-6.351	0.101
466.300	-13.451	0.101
466.400	-19.012	0.101
466.500	-8.026	0.101
466.600	-11.794	0.101
466.700	-7.618	0.101
466.800	-0.559	0.101
466.900	-20.095	0.101
467.000	-20.092	0.101
467.100	-2.850	0.101
467.200	-8.660	0.101
467.300	-7.126	0.101
467.400	-9.551	0.101
467.500	-18.374	0.101
467.600	-5.046	0.101
467.700	-9.514	0.101
467.800	-21.573	0.101
467.900	4.698	0.101
468.000	-14.941	0.101
468.100	-10.269	0.101
468.200	-19.299	0.101
468.300	-1.621	0.101
468.400	-1.957	0.101
468.500	-23.891	0.101
468.600	-13.246	0.101
468.700	-20.190	0.101
468.800	-1.466	0.101
468.900	-20.919	0.101
469.000	-0.871	0.101
469.100	-20.039	0.101
469.200	4.973	0.101
469.300	-8.256	0.101
469.400	-17.020	0.101
469.500	-7.415	0.101
469.600	-10.219	0.101
469.700	-13.612	0.101
469.800	-18.016	0.101
469.900	-5.024	0.101
470.000	-8.413	0.101
470.100	-12.044	0.101
470.200	-13.364	0.101
470.300	-13.681	0.101
470.400	-13.691	0.101
470.500	-0.167	0.101
470.600	-12.564	0.101
470.700	-13.946	0.101
470.800	-12.686	0.101
470.900	-7.502	0.101
471.000	-17.532	0.101
471.100	0.325	0.101
471.200	-8.936	0.101
471.300	-11.404	0.101
471.400	-11.991	0.101
471.500	-20.406	0.101
471.600	-11.742	0.101
471.700	-12.259	0.101
471.800	2.051	0.101
471.900	-7.751	0.101
472.000	-30.086	0.101
472.100	-12.817	0.101
472.200	9.695	0.101
472.300	-5.414	0.101
472.400	-10.208	0.101
472.500	-20.588	0.101
472.600	-6.617	0.101
472.700	-5.703	0.101
472.800	-23.951	0.101
472.900	-12.905	0.101
473.000	-17.540	0.101
473.100	-22.837	0.101
473.200	-7.477	0.101
473.300	-9.947	0.101
473.400	-4.647	0.101
473.500	-20.934	0.101
473.600	-21.524	0.101
473.700	-13.864	0.101
473.800	-18.931	0.101
473.900	-7.439	0.101
474.000	-5.471	0.101
474.100	-17.438	0.101
474.200	-5.365	0.101
474.300	-21.003	0.101
474.400	-21.639	0.101
474.500	-4.836	0.101
474.600	-6.012	0.101
474.700	-8.992	0.101
474.800	-1.507	0.101
474.900	-22.526	0.101
475.000	-11.590	0.101
475.100	-3.836	0.101
475.200	-8.572	0.101
475.300	-0.471	0.101
475.400	-19.706	0.101
475.500	-23.117	0.101
475.600	-13.706	0.101
475.700	-10.912	0.101
475.800	-7.541	0.101
475.900	-6.604	0.101
476.000	-5.357	0.101
476.100	-3.811	0.101
476.200	-1.461	0.101
476.300	-4.826	0.101
476.400	-10.485	0.101
476.500	-27.137	0.101
476.600	-10.876	0.101
476.700	-21.346	0.101
476.800	-8.559	0.101
476.900	-1.226	0.101
477.000	-10.499	0.101
477.100	-12.325	0.101
477.200	-10.909	0.101
477.300	-12.790	0.101
477.400	-15.760	0.101
477.500	-14.111	0.101
477.600	-9.864	0.101
477.700	-12.730	0.101
477.800	-14.553	0.101
477.900	-5.890	0.101
478.000	-9.898	0.101
478.100	-4.696	0.101
478.200	-18.472	0.101
478.300	-7.621	0.101
478.400	-5.919	0.101
478.500	-4.541	0.101
478.600	-11.889	0.101
478.700	-10.454	0.101
478.800	-18.655	0.101
478.900	-7.798	0.101
479.000	-6.926	0.101
479.100	-16.523	0.101
479.200	-18.287	0.101
479.300	-25.924	0.101
479.400	-7.444	0.101
479.500	-9.734	0.101
479.600	-3.458	0.101
479.700	-12.701	0.101
479.800	-7.055	0.101
479.900	-6.221	0.101
480.000	-10.288	0.101
480.100	-15.316	0.101
480.200	0.877	0.101
480.300	-1.228	0.101
480.400	-7.637	0.101
480.500	-18.074	0.101
480.600	-8.567	0.101
480.700	-28.763	0.101
480.800	-6.106	0.101
480.900	0.144	0.101
481.000	-11.380	0.101
481.100	4.327	0.101
481.200	-12.851	0.101
481.300	-6.535	0.101
481.400	-2.138	0.101
481.500	-1.549	0.101
481.600	-13.267	0.101
481.700	0.582	0.101
481.800	0.520	0.101
481.900	-7.720	0.101
482.000	-5.561	0.101
482.100	7.164	0.101
482.200	-1.044	0.101
482.300	-15.397	0.101
482.400	2.616	0.101
482.500	-4.851	0.101
482.600	10.000	0.101
482.700	-9.721	0.101
482.800	-12.532	0.101
482.900	-9.826	0.101
483.000	-2.121	0.101
483.100	-2.881	0.101
483.200	1.230	0.101
483.300	14.976	0.101
483.400	4.464	0.101
483.500	-2.760	0.101
483.600	2.904	0.101
483.700	-6.702	0.101
483.800	17.981	0.101
483.900	3.205	0.101
484.000	-0.395	0.101
484.100	-10.270	0.101
484.200	-6.696	0.101
484.300	4.708	0.101
484.400	-0.114	0.101
484.500	-3.249	0.101
484.600	-1.418	0.101
484.700	2.262	0.101
484.800	5.907	0.101
484.900	0.448	0.101
485.000	0.064	0.101
485.100	-6.971	0.101
485.200	-0.218	0.101
485.300	0.218	0.101
485.400	16.951	0.101
485.500	-0.361	0.101
485.600	2.392	0.101
485.700	4.465	0.101
485.800	6.179	0.101
485.900	-0.037	0.101
486.000	5.667	0.101
486.100	7.232	0.101
486.200	13.094	0.101
486.300	-2.486	0.101
486.400	-9.348	0.101
486.500	4.691	0.101
486.600	-13.877	0.101
486.700	3.746	0.101
486.800	2.501	0.101
486.900	8.469	0.101
487.000	-9.789	0.101
487.100	10.185	0.101
487.200	-6.393	0.101
487.300	-8.715	0.101
487.400	-0.072	0.101
487.500	-3.353	0.101
487.600	-8.308	0.101
487.700	-9.288	0.101
487.800	-0.165	0.101
487.900	3.197	0.101
488.000	4.556	0.101
488.100	-4.139	0.101
488.200	16.512	0.101
488.300	8.640	0.101
488.400	6.779	0.101
488.500	2.483	0.101
488.600	3.122	0.101
488.700	15.123	0.101
488.800	-2.162	0.101
488.900	1.878	0.101
489.000	0.420	0.101
489.100	12.269	0.101
489.200	1.726	0.101
489.300	12.358	0.101
489.400	-1.674	0.101
489.500	6.750	0.101
489.600	16.214	0.101
489.700	-13.934	0.101
489.800	10.186	0.101
489.900	5.641	0.101
490.000	-0.283	0.101
490.100	-8.041	0.101
490.200	6.941	0.101
490.300	-11.722	0.101
490.400	15.485	0.101
490.500	-5.725	0.101
490.600	1.834	0.101
490.700	14.046	0.101
490.800	4.306	0.101
490.900	11.530	0.101
491.000	2.911	0.101
491.100	8.084	0.101
491.200	17.113	0.101
491.300	-0.977	0.101
491.400	11.321	0.101
491.500	8.891	0.101
491.600	11.662	0.101
491.700	15.724	0.101
491.800	0.369	0.101
491.900	13.450	0.101
492.000	-3.486	0.101
492.100	3.109	0.101
492.200	8.256	0.101
492.300	15.020	0.101
492.400	5.060	0.101
492.500	10.796	0.101
492.600	3.078	0.101
492.700	10.806	0.101
492.800	3.110	0.101
492.900	0.457	0.101
493.000	6.601	0.101
493.100	2.241	0.101
493.200	7.153	0.101
493.300	6.507	0.101
493.400	7.417	0.101
493.500	-0.862	0.101
493.600	9.277	0.101
493.700	13.501	0.101
493.800	10.976	0.101
493.900	6.889	0.101
494.000	11.156	0.101
494.100	2.550	0.101
494.200	11.791	0.101
494.300	-4.558	0.101
494.400	13.942	0.101
494.500	16.149	0.101
494.600	13.071	0.101
494.700	1.022	0.101
494.800	-6.586	0.101
494.900	21.435	0.101
495.000	13.562	0.101
495.100	11.010	0.101
495.200	16.809	0.101
495.300	9.367	0.101
495.400	20.184	0.101
495.500	8.122	0.101
495.600	17.001	0.101
495.700	12.783	0.101
495.800	16.603	0.101
495.900	8.469	0.101
496.000	-6.010	0.101
496.100	13.039	0.101
496.200	13.551	0.101
496.300	15.276	0.101
496.400	14.596	0.101
496.500	4.192	0.101
496.600	10.599	0.101
496.700	8.992	0.101
496.800	14.397	0.101
496.900	10.407	0.101
497.000	17.201	0.101
497.100	18.667	0.101
497.200	6.521	0.101
497.300	7.853	0.101
497.400	-0.434	0.101
497.500	8.713	0.101
497.600	10.259	0.101
497.700	6.234	0.101
497.800	-1.991	0.101
497.900	6.916	0.101
498.000	9.758	0.101
498.100	8.281	0.101
498.200	26.719	0.101
498.300	12.052	0.101
498.400	27.330	0.101
498.500	11.277	0.101
498.600	2.993	0.101
498.700	12.983	0.101
498.800	9.695	0.101
498.900	13.398	0.101
499.000	2.214	0.101
499.100	16.207	0.101
499.200	4.812	0.101
499.300	22.001	0.101
499.400	19.607	0.101
499.500	12.510	0.101
499.600	10.150	0.101
499.700	6.978	0.101
499.800	3.760	0.101
499.900	8.558	0.101
500.000	21.784	0.101
500.100	12.711	0.101
500.200	22.302	0.101
500.300	-1.683	0.101
500.400	12.477	0.101
500.500	23.909	0.101
500.600	7.604	0.101
500.700	27.223	0.101
500.800	10.555	0.101
500.900	18.642	0.101
501.000	18.531	0.101
501.100	20.077	0.101
501.200	27.587	0.101
501.300	15.749	0.101
501.400	5.317	0.101
501.500	12.327	0.101
501.600	6.583	0.101
501.700	2.281	0.101
501.800	19.599	0.101
501.900	19.331	0.101
502.000	13.021	0.101
502.100	15.977	0.101
502.200	7.716	0.101
502.300	18.607	0.101
502.400	16.026	0.101
502.500	23.956	0.101
502.600	9.973	0.101
502.700	21.884	0.101
502.800	17.787	0.101
502.900	11.479	0.101
503.000	10.343	0.101
503.100	10.668	0.101
503.200	21.893	0.101
503.300	20.065	0.101
503.400	14.818	0.101
503.500	14.872	0.101
503.600	20.969	0.101
503.700	17.458	0.101
503.800	21.433	0.101
503.900	8.022	0.101
504.000	27.523	0.101
504.100	17.899	0.101
504.200	19.918	0.101
504.300	24.963	0.101
504.400	14.339	0.101
504.500	10.601	0.101
504.600	25.485	0.101
504.700	17.926	0.101
504.800	17.790	0.101
504.900	32.302	0.101
505.000	22.663	0.101
505.100	23.367	0.101
505.200	11.610	0.101
505.300	23.866	0.101
505.400	25.154	0.101
505.500	18.762	0.101
505.600	31.514	0.101
505.700	13.649	0.101
505.800	15.419	0.101
505.900	20.738	0.101
506.000	14.848	0.101
506.100	11.785	0.101
506.200	25.144	0.101
506.300	5.538	0.101
506.400	23.466	0.101
506.500	32.800	0.101
506.600	22.091	0.101
506.700	15.483	0.101
506.800	30.025	0.101
506.900	26.597	0.101
507.000	13.600	0.101
507.100	20.013	0.101
507.200	15.325	0.101
507.300	9.613	0.101
507.400	26.060	0.101
507.500	27.138	0.101
507.600	30.775	0.101
507.700	22.813	0.101
507.800	20.491	0.101
507.900	10.752	0.101
508.000	14.069	0.101
508.100	25.554	0.101
508.200	15.322	0.101
508.300	16.950	0.101
508.400	20.965	0.101
508.500	20.633	0.101
508.600	23.940	0.101
508.700	28.499	0.101
508.800	17.150	0.101
508.900	21.849	0.101
509.000	17.091	0.101
509.100	21.376	0.101
509.200	16.766	0.101
509.300	15.071	0.101
509.400	28.801	0.101
509.500	11.190	0.101
509.600	34.537	0.101
509.700	13.365	0.101
509.800	24.947	0.101
509.900	26.703	0.101
510.000	24.147	0.101
510.100	26.777	0.101
510.200	23.566	0.101
510.300	30.635	0.101
510.400	25.025	0.101
510.500	25.827	0.101
510.600	28.863	0.101
510.700	26.191	0.101
510.800	25.924	0.101
510.900	17.433	0.101
511.000	18.796	0.101
511.100	26.269	0.101
511.200	18.890	0.101
511.300	26.111	0.101
511.400	25.049	0.101
511.500	26.585	0.101
511.600	18.999	0.101
511.700	16.022	0.101
511.800	26.140	0.101
511.900	30.194	0.101
512.000	28.724	0.101
512.100	20.044	0.101
512.200	28.092	0.101
512.300	30.578	0.101
512.400	19.425	0.101
512.500	22.768	0.101
512.600	23.579	0.101
512.700	9.224	0.101
512.800	8.874	0.101
512.900	18.288	0.101
513.000	33.104	0.101
513.100	21.962	0.101
513.200	26.884	0.101
513.300	30.546	0.101
513.400	33.580	0.101
513.500	23.483	0.101
513.600	22.930	0.101
513.700	28.275	0.101
513.800	27.765	0.101
513.900	26.671	0.101
514.000	19.696	0.101
514.100	15.279	0.101
514.200	34.266	0.101
514.300	35.476	0.101
514.400	20.072	0.101
514.500	29.811	0.101
514.600	30.950	0.101
514.700	15.289	0.101
514.800	24.573	0.101
514.900	24.982	0.101
515.000	32.742	0.101
515.100	28.495	0.101
515.200	31.910	0.101
515.300	21.558	0.101
515.400	37.460	0.101
515.500	40.321	0.101
515.600	19.652	0.101
515.700	21.718	0.101
515.800	23.463	0.101
515.900	26.502	0.101
516.000	24.480	0.101
516.100	19.904	0.101
516.200	29.043	0.101
516.300	29.104	0.101
516.400	35.583	0.101
516.500	44.538	0.101
516.600	27.056	0.101
516.700	23.846	0.101
516.800	30.332	0.101
516.900	16.324	0.101
517.000	37.009	0.101
517.100	26.934	0.101
517.200	31.574	0.101
517.300	22.914	0.101
517.400	23.406	0.101
517.500	28.312	0.101
517.600	50.612	0.101
517.700	39.144	0.101
517.800	13.498	0.101
517.900	12.265	0.101
518.000	30.151	0.101
518.100	24.857	0.101
518.200	36.498	0.101
518.300	34.009	0.101
518.400	31.255	0.101
518.500	26.711	0.101
518.600	41.678	0.101
518.700	24.636	0.101
518.800	17.319	0.101
518.900	29.877	0.101
519.000	22.870	0.101
519.100	26.962	0.101
519.200	21.514	0.101
519.300	36.818	0.101
519.400	35.901	0.101
519.500	21.454	0.101
519.600	37.413	0.101
519.700	36.961	0.101
519.800	17.607	0.101
519.900	15.374	0.101
520.000	22.786	0.101
520.100	21.299	0.101
520.200	32.613	0.101
520.300	32.250	0.101
520.400	29.550	0.101
520.500	39.083	0.101
520.600	31.718	0.101
520.700	23.757	0.101
520.800	37.937	0.101
520.900	31.774	0.101
521.000	22.536	0.101
521.100	27.584	0.101
521.200	27.238	0.101
521.300	42.580	0.101
521.400	28.087	0.101
521.500	29.909	0.101
521.600	22.634	0.101
521.700	35.750	0.101
521.800	48.244	0.101
521.900	35.159	0.101
522.000	18.482	0.101
522.100	24.833	0.101
522.200	27.771	0.101
522.300	5.473	0.101
522.400	29.446	0.101
522.500	35.973	0.101
522.600	41.564	0.101
522.700	23.956	0.101
522.800	33.297	0.101
522.900	35.891	0.101
523.000	34.260	0.101
523.100	35.148	0.101
523.200	28.278	0.101
523.300	40.123	0.101
523.400	31.104	0.101
523.500	31.096	0.101
523.600	46.404	0.101
523.700	22.324	0.101
523.800	29.255	0.101
523.900	31.241	0.101
524.000	24.883	0.101
524.100	45.081	0.101
524.200	25.308	0.101
524.300	21.663	0.101
524.400	38.394	0.101
524.500	19.546	0.101
524.600	24.754	0.101
524.700	35.725	0.101
524.800	35.574	0.101
524.900	28.055	0.101
525.000	23.149	0.101
525.100	41.178	0.101
525.200	38.742	0.101
525.300	28.758	0.101
525.400	24.157	0.101
525.500	27.087	0.101
525.600	23.674	0.101
525.700	16.855	0.101
525.800	31.028	0.101
525.900	42.149	0.101
526.000	38.969	0.101
526.100	32.274	0.101
526.200	34.714	0.101
526.300	38.856	0.101
526.400	35.513	0.101
526.500	36.372	0.101
526.600	24.930	0.101
526.700	27.038	0.101
526.800	32.821	0.101
526.900	24.943	0.101
527.000	44.682	0.101
527.100	30.656	0.101
527.200	34.404	0.101
527.300	38.775	0.101
527.400	39.155	0.101
527.500	22.083	0.101
527.600	25.193	0.101
527.700	35.557	0.101
527.800	29.507	0.101
527.900	32.120	0.101
528.000	38.780	0.101
528.100	35.079	0.101
528.200	33.606	0.101
528.300	26.597	0.101
528.400	32.876	0.101
528.500	33.733	0.101
528.600	35.903	0.101
528.700	39.133	0.101
528.800	39.194	0.101
528.900	27.798	0.101
529.000	22.368	0.101
529.100	40.411	0.101
529.200	47.692	0.101
529.300	37.786	0.101
529.400	33.936	0.101
529.500	24.797	0.101
529.600	29.371	0.101
529.700	47.730	0.101
529.800	32.862	0.101
529.900	33.262	0.101
530.000	39.600	0.101
530.100	39.506	0.101
530.200	35.646	0.101
530.300	13.746	0.101
530.400	41.753	0.101
530.500	38.599	0.101
530.600	34.788	0.101
530.700	34.003	0.101
530.800	36.083	0.101
530.900	34.109	0.101
531.000	43.613	0.101
531.100	40.626	0.101
531.200	30.934	0.101
531.300	22.391	0.101
531.400	25.638	0.101
531.500	33.486	0.101
531.600	26.806	0.101
531.700	19.259	0.101
531.800	35.093	0.101
531.900	23.320	0.101
532.000	43.180	0.101
532.100	26.196	0.101
532.200	47.455	0.101
532.300	44.709	0.101
532.400	36.667	0.101
532.500	35.465	0.101
532.600	31.559	0.101
532.700	34.678	0.101
532.800	35.829	0.101
532.900	28.389	0.101
533.000	31.225	0.101
533.100	33.611	0.101
533.200	43.882	0.101
533.300	31.821	0.101
533.400	32.577	0.101
533.500	39.098	0.101
533.600	30.305	0.101
533.700	30.540	0.101
533.800	42.764	0.101
533.900	29.983	0.101
534.000	33.926	0.101
534.100	28.360	0.101
534.200	35.992	0.101
534.300	30.831	0.101
534.400	30.489	0.101
534.500	35.853	0.101
534.600	38.267	0.101
534.700	40.198	0.101
534.800	46.260	0.101
534.900	33.620	0.101
535.000	39.421	0.101
535.100	17.996	0.101
535.200	37.507	0.101
535.300	45.587	0.101
535.400	21.885	0.101
535.500	39.766	0.101
535.600	37.732	0.101
535.700	37.240	0.101
535.800	32.160	0.101
535.900	31.517	0.101
536.000	45.661	0.101
536.100	28.322	0.101
536.200	31.944	0.101
536.300	33.762	0.101
536.400	44.993	0.101
536.500	48.249	0.101
536.600	41.549	0.101
536.700	41.390	0.101
536.800	27.803	0.101
536.900	31.542	0.101
537.000	45.613	0.101
537.100	27.068	0.101
537.200	39.678	0.101
537.300	27.717	0.101
537.400	44.306	0.101
537.500	42.258	0.101
537.600	30.870	0.101
537.700	34.550	0.101
537.800	37.108	0.101
537.900	40.408	0.101
538.000	34.465	0.101
538.100	34.672	0.101
538.200	38.975	0.101
538.300	38.002	0.101
538.400	33.664	0.101
538.500	33.032	0.101
538.600	39.639	0.101
538.700	39.462	0.101
538.800	37.064	0.101
538.900	35.865	0.101
539.000	38.275	0.101
539.100	22.447	0.101
539.200	34.062	0.101
539.300	35.217	0.101
539.400	27.635	0.101
539.500	35.693	0.101
539.600	32.100	0.101
539.700	38.811	0.101
539.800	29.444	0.101
539.900	46.056	0.101
540.000	57.106	0.101
540.100	42.484	0.101
540.200	35.327	0.101
540.300	26.867	0.101
540.400	27.933	0.101
540.500	40.271	0.101
540.600	49.196	0.101
540.700	31.501	0.101
540.800	45.696	0.101
540.900	28.281	0.101
541.000	20.527	0.101
541.100	31.433	0.101
541.200	43.133	0.101
541.300	36.384	0.101
541.400	29.066	0.101
541.500	33.154	0.101
541.600	25.590	0.101
541.700	26.082	0.101
541.800	22.340	0.101
541.900	35.279	0.101
542.000	26.672	0.101
542.100	20.233	0.101
542.200	31.863	0.101
542.300	27.464	0.101
542.400	26.010	0.101
542.500	32.765	0.101
542.600	28.260	0.101
542.700	18.564	0.101
542.800	13.509	0.101
542.900	32.668	0.101
543.000	16.006	0.101
543.100	6.322	0.101
543.200	32.052	0.101
543.300	31.296	0.101
543.400	25.587	0.101
543.500	23.895	0.101
543.600	25.346	0.101
543.700	23.767	0.101
543.800	11.043	0.101
543.900	18.329	0.101
544.000	20.188	0.101
544.100	31.166	0.101
544.200	17.326	0.101
544.300	5.380	0.101
544.400	13.749	0.101
544.500	20.069	0.101
544.600	7.255	0.101
544.700	30.063	0.101
544.800	36.003	0.101
544.900	18.271	0.101
545.000	9.145	0.101
545.100	4.239	0.101
545.200	6.215	0.101
545.300	7.339	0.101
545.400	28.079	0.101
545.500	25.859	0.101
545.600	14.151	0.101
545.700	11.563	0.101
545.800	24.431	0.101
545.900	15.544	0.101
546.000	19.207	0.101
546.100	19.994	0.101
546.200	20.020	0.101
546.300	28.446	0.101
546.400	18.300	0.101
546.500	17.197	0.101
546.600	9.874	0.101
546.700	-2.967	0.101
546.800	6.485	0.101
546.900	28.777	0.101
547.000	11.546	0.101
547.100	11.512	0.101
547.200	21.012	0.101
547.300	27.017	0.101
547.400	12.129	0.101
547.500	19.632	0.101
547.600	4.404	0.101
547.700	17.010	0.101
547.800	25.940	0.101
547.900	19.888	0.101
548.000	19.985	0.101
548.100	15.017	0.101
548.200	10.250	0.101
548.300	4.515	0.101
548.400	16.859	0.101
548.500	29.706	0.101
548.600	21.033	0.101
548.700	4.373	0.101
548.800	16.346	0.101
548.900	10.856	0.101
549.000	15.098	0.101
549.100	21.887	0.101
549.200	15.763	0.101
549.300	15.139	0.101
549.400	6.228	0.101
549.500	17.674	0.101
549.600	19.328	0.101
549.700	21.368	0.101
549.800	14.976	0.101
549.900	22.837	0.101
550.000	20.882	0.101
550.100	13.171	0.101
550.200	6.736	0.101
550.300	25.378	0.101
550.400	25.341	0.101
550.500	15.492	0.101
550.600	9.739	0.101
550.700	12.257	0.101
550.800	16.217	0.101
550.900	4.318	0.101
551.000	29.039	0.101
551.100	22.345	0.101
551.200	15.728	0.101
551.300	20.185	0.101
551.400	13.910	0.101
551.500	21.015	0.101
551.600	6.372	0.101
551.700	1.054	0.101
551.800	22.957	0.101
551.900	9.337	0.101
552.000	14.458	0.101
552.100	12.963	0.101
552.200	18.437	0.101
552.300	12.430	0.101
552.400	20.926	0.101
552.500	17.475	0.101
552.600	7.783	0.101
552.700	10.087	0.101
552.800	17.405	0.101
552.900	12.319	0.101
553.000	12.026	0.101
553.100	18.712	0.101
553.200	4.279	0.101
553.300	15.523	0.101
553.400	13.569	0.101
553.500	-2.357	0.101
553.600	14.829	0.101
553.700	15.453	0.101
553.800	15.453	0.101
553.900	3.393	0.101
554.000	10.017	0.101
554.100	22.759	0.101
554.200	16.899	0.101
554.300	4.814	0.101
554.400	17.923	0.101
554.500	15.601	0.101
554.600	17.291	0.101
554.700	21.132	0.101
554.800	25.089	0.101
554.900	6.975	0.101
555.000	7.318	0.101
555.100	6.446	0.101
555.200	16.509	0.101
555.300	6.171	0.101
555.400	22.497	0.101
555.500	0.917	0.101
555.600	15.472	0.101
555.700	10.447	0.101
555.800	13.570	0.101
555.900	19.652	0.101
556.000	21.196	0.101
556.100	10.252	0.101
556.200	16.055	0.101
556.300	14.431	0.101
556.400	13.517	0.101
556.500	13.616	0.101
556.600	21.865	0.101
556.700	15.815	0.101
556.800	16.994	0.101
556.900	9.655	0.101
557.000	2.016	0.101
557.100	9.034	0.101
557.200	20.072	0.101
557.300	8.601	0.101
557.400	4.644	0.101
557.500	14.975	0.101
557.600	14.604	0.101
557.700	-6.414	0.101
557.800	14.421	0.101
557.900	7.566	0.101
558.000	11.242	0.101
558.100	3.368	0.101
558.200	4.178	0.101
558.300	23.932	0.101
558.400	13.657	0.101
558.500	9.031	0.101
558.600	-7.502	0.101
558.700	-1.698	0.101
558.800	3.836	0.101
558.900	22.580	0.101
559.000	12.295	0.101
559.100	1.736	0.101
559.200	2.660	0.101
559.300	21.434	0.101
559.400	17.994	0.101
559.500	12.565	0.101
559.600	13.713	0.101
559.700	15.460	0.101
559.800	12.462	0.101
559.900	6.858	0.101
560.000	6.994	0.101
560.100	14.359	0.101
560.200	0.052	0.101
560.300	10.710	0.101
560.400	10.710	0.101
560.500	8.204	0.101
560.600	17.168	0.101
560.700	14.586	0.101
560.800	8.543	0.101
560.900	5.113	0.101
561.000	21.204	0.101
561.100	6.527	0.101
561.200	3.449	0.101
561.300	11.173	0.101
561.400	12.916	0.101
561.500	8.102	0.101
561.600	-10.989	0.101
561.700	7.780	0.101
561.800	17.924	0.101
561.900	11.157	0.101
562.000	13.995	0.101
562.100	15.302	0.101
562.200	14.215	0.101
562.300	2.558	0.101
562.400	5.072	0.101
562.500	13.867	0.101
562.600	0.552	0.101
562.700	-1.668	0.101
562.800	7.703	0.101
562.900	9.582	0.101
563.000	-0.687	0.101
563.100	2.941	0.101
563.200	9.020	0.101
563.300	11.637	0.101
563.400	22.820	0.101
563.500	12.156	0.101
563.600	2.307	0.101
563.700	0.921	0.101
563.800	2.360	0.101
563.900	5.115	0.101
564.000	3.941	0.101
564.100	11.938	0.101
564.200	9.052	0.101
564.300	12.132	0.101
564.400	0.190	0.101
564.500	-1.137	0.101
564.600	6.309	0.101
564.700	-1.395	0.101
564.800	5.725	0.101
564.900	6.506	0.101
565.000	14.438	0.101
565.100	6.805	0.101
565.200	1.615	0.101
565.300	12.004	0.101
565.400	1.500	0.101
565.500	4.878	0.101
565.600	1.891	0.101
565.700	-13.475	0.101
565.800	12.284	0.101
565.900	7.037	0.101
566.000	7.137	0.101
566.100	-3.574	0.101
566.200	8.059	0.101
566.300	-7.875	0.101
566.400	0.710	0.101
566.500	9.704	0.101
566.600	18.562	0.101
566.700	-6.114	0.101
566.800	8.423	0.101
566.900	-1.266	0.101
567.000	1.463	0.101
567.100	-3.852	0.101
567.200	-3.330	0.101
567.300	-6.552	0.101
567.400	3.806	0.101
567.500	8.810	0.101
567.600	-0.125	0.101
567.700	-2.409	0.101
567.800	2.094	0.101
567.900	10.763	0.101
568.000	-5.354	0.101
568.100	-5.382	0.101
568.200	5.219	0.101
568.300	8.155	0.101
568.400	2.503	0.101
568.500	-0.961	0.101
568.600	-3.912	0.101
568.700	6.888	0.101
568.800	-0.140	0.101
568.900	-1.450	0.101
569.000	6.722	0.101
569.100	-4.061	0.101
569.200	14.804	0.101
569.300	2.818	0.101
569.400	-5.389	0.101
569.500	-8.641	0.101
569.600	11.712	0.101
569.700	4.152	0.101
569.800	6.411	0.101
569.900	2.382	0.101
570.000	5.623	0.101
570.100	2.814	0.101
570.200	5.732	0.101
570.300	-0.258	0.101
570.400	0.426	0.101
570.500	6.119	0.101
570.600	-8.389	0.101
570.700	-2.196	0.101
570.800	-6.502	0.101
570.900	1.089	0.101
571.000	6.855	0.101
571.100	4.020	0.101
571.200	-13.196	0.101
571.300	11.362	0.101
571.400	-5.357	0.101
571.500	-11.201	0.101
571.600	-0.091	0.101
571.700	13.573	0.101
571.800	-6.618	0.101
571.900	-5.471	0.101
572.000	3.250	0.101
572.100	10.668	0.101
572.200	-6.261	0.101
572.300	-5.573	0.101
572.400	1.470	0.101
572.500	1.531	0.101
572.600	-1.442	0.101
572.700	5.802	0.101
572.800	-0.345	0.101
572.900	-4.301	0.101
573.000	-10.102	0.101
573.100	9.873	0.101
573.200	0.264	0.101
573.300	-4.113	0.101
573.400	-1.831	0.101
573.500	1.772	0.101
573.600	9.266	0.101
573.700	-3.584	0.101
573.800	9.818	0.101
573.900	-10.233	0.101
574.000	0.585	0.101
574.100	-3.838	0.101
574.200	10.017	0.101
574.300	-6.537	0.101
574.400	-2.806	0.101
574.500	-4.213	0.101
574.600	5.007	0.101
574.700	8.214	0.101
574.800	-10.576	0.101
574.900	-8.925	0.101
575.000	-3.762	0.101
575.100	6.485	0.101
575.200	0.256	0.101
575.300	-1.112	0.101
575.400	8.102	0.101
575.500	-15.661	0.101
575.600	-11.214	0.101
575.700	2.105	0.101
575.800	-3.220	0.101
575.900	-1.854	0.101
576.000	-5.612	0.101
576.100	2.110	0.101
576.200	-21.482	0.101
576.300	-16.638	0.101
576.400	2.472	0.101
576.500	6.976	0.101
576.600	-4.498	0.101
576.700	-7.553	0.101
576.800	0.395	0.101
576.900	4.634	0.101
577.000	0.911	0.101
577.100	-15.932	0.101
577.200	6.295	0.101
577.300	-7.628	0.101
577.400	-6.698	0.101
577.500	-9.491	0.101
577.600	-2.556	0.101
577.700	-8.123	0.101
577.800	-2.844	0.101
577.900	-1.124	0.101
578.000	-1.200	0.101
578.100	-4.037	0.101
578.200	-8.554	0.101
578.300	-5.212	0.101
578.400	1.144	0.101
578.500	-6.124	0.101
578.600	7.027	0.101
578.700	-0.992	0.101
578.800	-3.904	0.101
578.900	0.772	0.101
579.000	0.363	0.101
579.100	-2.682	0.101
579.200	3.211	0.101
579.300	-7.476	0.101
579.400	-9.230	0.101
579.500	-2.846	0.101
579.600	-0.361	0.101
579.700	-2.892	0.101
579.800	-4.735	0.101
579.900	0.000	0.101
580.000	-11.788	0.101
580.100	-3.401	0.101
580.200	7.560	0.101
580.300	3.979	0.101
580.400	-5.124	0.101
580.500	-13.759	0.101
580.600	-5.891	0.101
580.700	-4.272	0.101
580.800	0.005	0.101
580.900	-2.688	0.101
581.000	-12.800	0.101
581.100	-6.461	0.101
581.200	11.427	0.101
581.300	-5.586	0.101
581.400	-15.194	0.101
581.500	-0.462	0.101
581.600	-7.891	0.101
581.700	-3.916	0.101
581.800	-21.174	0.101
581.900	-7.677	0.101
582.000	0.261	0.101
582.100	5.183	0.101
582.200	-6.035	0.101
582.300	-2.222	0.101
582.400	-9.882	0.101
582.500	-12.834	0.101
582.600	2.226	0.101
582.700	-4.315	0.101
582.800	-16.157	0.101
582.900	-17.012	0.101
583.000	-6.671	0.101
583.100	-19.547	0.101
583.200	-4.793	0.101
583.300	12.655	0.101
583.400	3.475	0.101
583.500	-5.526	0.101
583.600	1.940	0.101
583.700	-18.147	0.101
583.800	-12.532	0.101
583.900	-9.129	0.101
584.000	-10.629	0.101
584.100	-2.153	0.101
584.200	-5.848	0.101
584.300	-1.083	0.101
584.400	0.597	0.101
584.500	5.748	0.101
584.600	-8.696	0.101
584.700	-11.253	0.101
584.800	-4.439	0.101
584.900	-17.573	0.101
585.000	-3.655	0.101
585.100	1.570	0.101
585.200	-4.802	0.101
585.300	-11.815	0.101
585.400	-12.849	0.101
585.500	-10.920	0.101
585.600	-19.609	0.101
585.700	-5.928	0.101
585.800	-8.771	0.101
585.900	-2.114	0.101
586.000	-19.910	0.101
586.100	-11.351	0.101
586.200	-17.354	0.101
586.300	-15.943	0.101
586.400	0.401	0.101
586.500	-5.374	0.101
586.600	-19.220	0.101
586.700	-10.423	0.101
586.800	-4.172	0.101
586.900	-12.080	0.101
587.000	-17.330	0.101
587.100	1.423	0.101
587.200	11.329	0.101
587.300	-9.103	0.101
587.400	-24.520	0.101
587.500	-20.773	0.101
587.600	-14.655	0.101
587.700	1.246	0.101
587.800	-7.090	0.101
587.900	0.445	0.101
588.000	-10.346	0.101
588.100	-9.172	0.101
588.200	0.565	0.101
588.300	-2.863	0.101
588.400	-7.687	0.101
588.500	-15.580	0.101
588.600	-9.230	0.101
588.700	-18.402	0.101
588.800	0.571	0.101
588.900	-15.373	0.101
589.000	0.457	0.101
589.100	-20.438	0.101
589.200	1.691	0.101
589.300	0.985	0.101
589.400	-7.589	0.101
589.500	-5.696	0.101
589.600	3.641	0.101
589.700	-9.001	0.101
589.800	0.923	0.101
589.900	-1.868	0.101
590.000	-7.592	0.101
590.100	-8.811	0.101
590.200	-21.972	0.101
590.300	-12.619	0.101
590.400	-9.229	0.101
590.500	-19.244	0.101
590.600	-9.142	0.101
590.700	-7.086	0.101
590.800	-11.177	0.101
590.900	5.584	0.101
591.000	-5.365	0.101
591.100	-7.060	0.101
591.200	-17.298	0.101
591.300	-10.522	0.101
591.400	-11.479	0.101
591.500	-10.706	0.101
591.600	-19.321	0.101
591.700	-8.378	0.101
591.800	-8.515	0.101
591.900	2.163	0.101
592.000	-7.416	0.101
592.100	-6.667	0.101
592.200	-3.631	0.101
592.300	-9.406	0.101
592.400	-5.874	0.101
592.500	-7.135	0.101
592.600	-16.382	0.101
592.700	-16.219	0.101
592.800	-15.392	0.101
592.900	-4.121	0.101
593.000	-15.708	0.101
593.100	-6.889	0.101
593.200	-8.794	0.101
593.300	-13.855	0.101
593.400	-14.367	0.101
593.500	-12.587	0.101
593.600	-11.905	0.101
593.700	-2.171	0.101
593.800	5.428	0.101
593.900	-1.757	0.101
594.000	-11.697	0.101
594.100	-5.999	0.101
594.200	-2.431	0.101
594.300	-15.388	0.101
594.400	-5.585	0.101
594.500	-9.670	0.101
594.600	-16.789	0.101
594.700	-8.654	0.101
594.800	1.936	0.101
594.900	-17.944	0.101
595.000	-8.460	0.101
595.100	-3.100	0.101
595.200	0.107	0.101
595.300	-5.411	0.101
595.400	-7.526	0.101
595.500	-11.970	0.101
595.600	-15.732	0.101
595.700	-6.424	0.101
595.800	-0.690	0.101
595.900	4.172	0.101
596.000	-19.553	0.101
596.100	-0.726	0.101
596.200	-17.258	0.101
596.300	-12.708	0.101
596.400	-21.542	0.101
596.500	-2.884	0.101
596.600	-17.289	0.101
596.700	-15.173	0.101
596.800	-14.655	0.101
596.900	-8.765	0.101
597.000	-15.591	0.101
597.100	-13.653	0.101
597.200	-4.245	0.101
597.300	-9.451	0.101
597.400	-14.730	0.101
597.500	-9.608	0.101
597.600	-8.638	0.101
597.700	-1.671	0.101
597.800	-19.230	0.101
597.900	-5.164	0.101
598.000	2.445	0.101
598.100	-10.018	0.101
598.200	-12.171	0.101
598.300	-3.363	0.101
598.400	-7.262	0.101
598.500	-23.752	0.101
598.600	-16.554	0.101
598.700	-14.116	0.101
598.800	-9.375	0.101
598.900	-3.257	0.101
599.000	-9.251	0.101
599.100	-4.589	0.101
599.200	0.120	0.101
599.300	-11.016	0.101
599.400	-9.983	0.101
599.500	-8.488	0.101
599.600	-0.844	0.101
599.700	-9.752	0.101
599.800	-14.179	0.101
599.900	-41.496	0.101
600.000	-12.675	0.101
600.100	-2.757	0.101
600.200	4.886	0.101
600.300	-3.629	0.101
600.400	-14.955	0.101
600.500	-9.658	0.101
600.600	-11.017	0.101
600.700	-14.720	0.101
600.800	-12.142	0.101
600.900	-20.118	0.101
601.000	2.379	0.101
601.100	3.138	0.101
601.200	-9.597	0.101
601.300	1.614	0.101
601.400	-21.223	0.101
601.500	-18.043	0.101
601.600	-5.993	0.101
601.700	-6.890	0.101
601.800	-17.896	0.101
601.900	-17.788	0.101
602.000	-7.743	0.101
602.100	5.605	0.101
602.200	-11.814	0.101
602.300	-24.541	0.101
602.400	-3.609	0.101
602.500	-9.857	0.101
602.600	-2.947	0.101
602.700	-20.469	0.101
602.800	-14.590	0.101
602.900	-4.279	0.101
603.000	-8.381	0.101
603.100	-9.936	0.101
603.200	-16.903	0.101
603.300	-20.712	0.101
603.400	-1.473	0.101
603.500	-5.885	0.101
603.600	-10.374	0.101
603.700	-14.128	0.101
603.800	-14.130	0.101
603.900	-13.255	0.101
604.000	-25.361	0.101
604.100	-22.300	0.101
604.200	6.716	0.101
604.300	0.575	0.101
604.400	-16.714	0.101
604.500	-20.206	0.101
604.600	-14.843	0.101
604.700	-14.126	0.101
604.800	-17.335	0.101
604.900	-6.173	0.101
605.000	3.612	0.101
605.100	-18.254	0.101
605.200	-0.307	0.101
605.300	-14.858	0.101
605.400	-13.757	0.101
605.500	-1.408	0.101
605.600	-11.950	0.101
605.700	-16.772	0.101
605.800	-16.560	0.101
605.900	-4.332	0.101
606.000	-8.235	0.101
606.100	-7.605	0.101
606.200	-11.163	0.101
606.300	-18.675	0.101
606.400	-11.295	0.101
606.500	-12.729	0.101
606.600	-10.121	0.101
606.700	-13.973	0.101
606.800	-2.549	0.101
606.900	-6.874	0.101
607.000	-2.708	0.101
607.100	1.169	0.101
607.200	-16.025	0.101
607.300	-12.262	0.101
607.400	-4.905	0.101
607.500	5.279	0.101
607.600	-3.486	0.101
607.700	-14.464	0.101
607.800	-4.748	0.101
607.900	-25.569	0.101
608.000	-18.117	0.101
608.100	-16.746	0.101
608.200	-20.337	0.101
608.300	-8.267	0.101
608.400	3.159	0.101
608.500	-22.646	0.101
608.600	-26.082	0.101
608.700	5.621	0.101
608.800	-1.890	0.101
608.900	-12.251	0.101
609.000	-19.656	0.101
609.100	-9.527	0.101
609.200	-8.088	0.101
609.300	-15.215	0.101
609.400	-5.008	0.101
609.500	-11.185	0.101
609.600	-18.305	0.101
609.700	-7.176	0.101
609.800	-12.760	0.101
609.900	-11.441	0.101
610.000	-27.494	0.101
610.100	-8.678	0.101
610.200	-10.813	0.101
610.300	-21.735	0.101
610.400	-11.223	0.101
610.500	-16.165	0.101
610.600	-14.030	0.101
610.700	0.032	0.101
610.800	-14.928	0.101
610.900	-10.568	0.101
611.000	-18.945	0.101
611.100	4.210	0.101
611.200	-14.351	0.101
611.300	1.144	0.101
611.400	-4.293	0.101
611.500	-19.918	0.101
611.600	-17.875	0.101
611.700	-14.898	0.101
611.800	-5.596	0.101
611.900	-18.500	0.101
612.000	-21.416	0.101
612.100	-20.284	0.101
612.200	-7.002	0.101
612.300	-9.376	0.101
612.400	5.341	0.101
612.500	-7.945	0.101
612.600	-7.585	0.101
612.700	-14.029	0.101
612.800	-25.010	0.101
612.900	-21.462	0.101
613.000	-11.043	0.101
613.100	-23.444	0.101
613.200	-6.886	0.101
613.300	-8.990	0.101
613.400	-10.727	0.101
613.500	-6.104	0.101
613.600	0.701	0.101
613.700	-18.749	0.101
613.800	-13.959	0.101
613.900	-15.528	0.101
614.000	-17.699	0.101
614.100	-5.968	0.101
614.200	-12.390	0.101
614.300	-13.751	0.101
614.400	-20.874	0.101
614.500	-14.382	0.101
614.600	-0.696	0.101
614.700	-13.333	0.101
614.800	-18.570	0.101
614.900	-13.504	0.101
615.000	-21.758	0.101
615.100	-11.295	0.101
615.200	-9.355	0.101
615.300	-26.613	0.101
615.400	-16.697	0.101
615.500	-13.036	0.101
615.600	-6.769	0.101
615.700	-24.545	0.101
615.800	-5.452	0.101
615.900	-20.089	0.101
616.000	-7.129	0.101
616.100	-6.578	0.101
616.200	-17.391	0.101
616.300	-21.613	0.101
616.400	-4.818	0.101
616.500	-12.804	0.101
616.600	-17.513	0.101
616.700	-17.584	0.101
616.800	-2.489	0.101
616.900	-9.923	0.101
617.000	-22.526	0.101
617.100	-8.709	0.101
617.200	-20.633	0.101
617.300	-18.206	0.101
617.400	-1.963	0.101
617.500	2.675	0.101
617.600	-4.707	0.101
617.700	-13.894	0.101
617.800	-13.859	0.101
617.900	-14.717	0.101
618.000	-15.505	0.101
618.100	-14.313	0.101
618.200	-12.972	0.101
618.300	-8.615	0.101
618.400	-16.403	0.101
618.500	-23.154	0.101
618.600	-12.330	0.101
618.700	0.501	0.101
618.800	-15.205	0.101
618.900	2.165	0.101
619.000	-25.170	0.101
619.100	-23.062	0.101
619.200	-1.944	0.101
619.300	-6.604	0.101
619.400	-21.064	0.101
619.500	-17.118	0.101
619.600	-7.848	0.101
619.700	-19.576	0.101
619.800	-6.890	0.101
619.900	-7.799	0.101
620.000	-8.959	0.101
620.100	-20.621	0.101
620.200	-19.665	0.101
620.300	-16.024	0.101
620.400	0.155	0.101
620.500	-9.879	0.101
620.600	-16.478	0.101
620.700	-19.490	0.101
620.800	-19.548	0.101
620.900	-14.843	0.101
621.000	-20.337	0.101
621.100	-4.820	0.101
621.200	-16.870	0.101
621.300	-23.313	0.101
621.400	-17.389	0.101
621.500	-7.793	0.101
621.600	-10.102	0.101
621.700	0.772	0.101
621.800	-9.748	0.101
621.900	-6.792	0.101
622.000	-8.564	0.101
622.100	-17.044	0.101
622.200	-17.455	0.101
622.300	-15.229	0.101
622.400	-9.731	0.101
622.500	-13.037	0.101
622.600	-5.895	0.101
622.700	-22.122	0.101
622.800	-16.206	0.101
622.900	-19.691	0.101
623.000	-11.585	0.101
623.100	-7.126	0.101
623.200	-18.173	0.101
623.300	-21.685	0.101
623.400	-10.659	0.101
623.500	-9.320	0.101
623.600	-12.930	0.101
623.700	-7.960	0.101
623.800	0.137	0.101
623.900	-19.259	0.101
624.000	-14.748	0.101
624.100	-14.096	0.101
624.200	-10.053	0.101
624.300	-13.701	0.101
624.400	-10.304	0.101
624.500	-3.271	0.101
624.600	-17.572	0.101
624.700	-12.470	0.101
624.800	-8.820	0.101
624.900	-15.217	0.101
625.000	-11.034	0.101
625.100	1.494	0.101
625.200	-25.372	0.101
625.300	-17.932	0.101
625.400	-4.232	0.101
625.500	0.648	0.101
625.600	-13.695	0.101
625.700	-20.343	0.101
625.800	-17.573	0.101
625.900	-4.698	0.101
626.000	-5.741	0.101
626.100	-7.570	0.101
626.200	-0.890	0.101
626.300	-20.284	0.101
626.400	-12.150	0.101
626.500	-19.427	0.101
626.600	-6.967	0.101
626.700	-11.860	0.101
626.800	-12.998	0.101
626.900	-26.450	0.101
627.000	1.563	0.101
627.100	-20.475	0.101
627.200	-15.135	0.101
627.300	-21.886	0.101
627.400	-5.288	0.101
627.500	-14.053	0.101
627.600	-18.021	0.101
627.700	3.143	0.101
627.800	-12.273	0.101
627.900	-23.801	0.101
628.000	-13.504	0.101
628.100	-2.243	0.101
628.200	-13.411	0.101
628.300	-11.113	0.101
628.400	-16.307	0.101
628.500	-13.734	0.101
628.600	-5.186	0.101
628.700	-0.519	0.101
628.800	-4.788	0.101
628.900	-23.366	0.101
629.000	-17.092	0.101
629.100	-25.004	0.101
629.200	-5.344	0.101
629.300	-15.966	0.101
629.400	-17.457	0.101
629.500	-22.922	0.101
629.600	-15.096	0.101
629.700	-10.190	0.101
629.800	-7.840	0.101
629.900	-8.971	0.101
630.000	-0.045	0.101
630.100	-10.719	0.101
630.200	-19.809	0.101
630.300	-25.725	0.101
630.400	-9.323	0.101
630.500	-13.717	0.101
630.600	-24.492	0.101
630.700	-12.977	0.101
630.800	-27.044	0.101
630.900	-16.768	0.101
631.000	-5.087	0.101
631.100	-13.547	0.101
631.200	-0.776	0.101
631.300	-11.570	0.101
631.400	-4.837	0.101
631.500	-12.375	0.101
631.600	-8.461	0.101
631.700	-6.665	0.101
631.800	-8.400	0.101
631.900	4.316	0.101
632.000	-13.558	0.101
632.100	0.179	0.101
632.200	5.602	0.101
632.300	-15.101	0.101
632.400	-2.978	0.101
632.500	-11.395	0.101
632.600	-8.484	0.101
632.700	7.531	0.101
632.800	19.981	0.101
632.900	0.685	0.101
633.000	2.060	0.101
633.100	3.122	0.101
633.200	-2.461	0.101
633.300	12.941	0.101
633.400	-5.286	0.101
633.500	6.477	0.101
633.600	-1.971	0.101
633.700	3.800	0.101
633.800	-8.714	0.101
633.900	0.457	0.101
634.000	4.135	0.101
634.100	-3.553	0.101
634.200	-8.445	0.101
634.300	-11.404	0.101
634.400	11.746	0.101
634.500	-5.939	0.101
634.600	4.509	0.101
634.700	-1.789	0.101
634.800	-5.516	0.101
634.900	6.357	0.101
635.000	-1.411	0.101
635.100	7.642	0.101
635.200	20.465	0.101
635.300	11.070	0.101
635.400	-5.364	0.101
635.500	8.591	0.101
635.600	0.906	0.101
635.700	6.017	0.101
635.800	-5.108	0.101
635.900	-7.426	0.101
636.000	-10.979	0.101
636.100	-1.346	0.101
636.200	3.314	0.101
636.300	12.130	0.101
636.400	-8.304	0.101
636.500	-14.548	0.101
636.600	-5.323	0.101
636.700	5.870	0.101
636.800	-1.683	0.101
636.900	9.026	0.101
637.000	-1.326	0.101
637.100	7.787	0.101
637.200	2.518	0.101
637.300	4.128	0.101
637.400	-7.996	0.101
637.500	2.104	0.101
637.600	1.589	0.101
637.700	4.836	0.101
637.800	1.706	0.101
637.900	-2.658	0.101
638.000	5.455	0.101
638.100	-3.335	0.101
638.200	-6.658	0.101
638.300	8.759	0.101
638.400	14.958	0.101
638.500	12.105	0.101
638.600	-0.710	0.101
638.700	-4.285	0.101
638.800	3.354	0.101
638.900	0.267	0.101
639.000	3.373	0.101
639.100	7.764	0.101
639.200	6.597	0.101
639.300	4.722	0.101
639.400	6.281	0.101
639.500	11.937	0.101
639.600	-6.386	0.101
639.700	9.406	0.101
639.800	4.875	0.101
639.900	13.866	0.101
640.000	-6.167	0.101
640.100	6.513	0.101
640.200	8.247	0.101
640.300	9.331	0.101
640.400	2.165	0.101
640.500	-1.508	0.101
640.600	4.880	0.101
640.700	1.224	0.101
640.800	0.962	0.101
640.900	11.814	0.101
641.000	9.252	0.101
641.100	-5.014	0.101
641.200	3.236	0.101
641.300	4.964	0.101
641.400	4.849	0.101
641.500	-1.247	0.101
641.600	3.282	0.101
641.700	7.831	0.101
641.800	0.796	0.101
641.900	6.094	0.101
642.000	-3.983	0.101
642.100	4.494	0.101
642.200	1.996	0.101
642.300	2.974	0.101
642.400	0.573	0.101
642.500	2.770	0.101
642.600	5.956	0.101
642.700	9.821	0.101
642.800	-0.639	0.101
642.900	1.922	0.101
643.000	-14.505	0.101
643.100	4.719	0.101
643.200	13.941	0.101
643.300	7.846	0.101
643.400	0.021	0.101
643.500	0.053	0.101
643.600	1.944	0.101
643.700	9.688	0.101
643.800	6.657	0.101
643.900	13.993	0.101
644.000	14.216	0.101
644.100	0.120	0.101
644.200	4.693	0.101
644.300	18.259	0.101
644.400	12.375	0.101
644.500	12.846	0.101
644.600	14.856	0.101
644.700	9.043	0.101
644.800	8.762	0.101
644.900	11.106	0.101
645.000	7.922	0.101
645.100	-6.007	0.101
645.200	9.482	0.101
645.300	5.859	0.101
645.400	15.816	0.101
645.500	4.854	0.101
645.600	0.020	0.101
645.700	21.587	0.101
645.800	17.967	0.101
645.900	-3.024	0.101
646.000	4.676	0.101
646.100	20.135	0.101
646.200	11.799	0.101
646.300	10.666	0.101
646.400	11.611	0.101
646.500	4.726	0.101
646.600	7.477	0.101
646.700	11.761	0.101
646.800	17.830	0.101
646.900	6.101	0.101
647.000	9.705	0.101
647.100	5.999	0.101
647.200	8.751	0.101
647.300	20.729	0.101
647.400	13.526	0.101
647.500	0.683	0.101
647.600	13.032	0.101
647.700	15.960	0.101
647.800	9.026	0.101
647.900	9.830	0.101
648.000	10.637	0.101
648.100	7.675	0.101
648.200	13.644	0.101
648.300	26.013	0.101
648.400	14.228	0.101
648.500	10.414	0.101
648.600	11.440	0.101
648.700	1.226	0.101
648.800	11.489	0.101
648.900	13.274	0.101
649.000	-3.242	0.101
649.100	8.316	0.101
649.200	12.206	0.101
649.300	-4.624	0.101
649.400	29.674	0.101
649.500	19.550	0.101
649.600	17.692	0.101
649.700	7.306	0.101
649.800	12.536	0.101
649.900	16.688	0.101
650.000	-3.000	0.101
650.100	3.787	0.101
650.200	16.792	0.101
650.300	15.448	0.101
650.400	19.214	0.101
650.500	8.116	0.101
650.600	10.099	0.101
650.700	13.491	0.101
650.800	20.545	0.101
650.900	12.784	0.101
651.000	11.113	0.101
651.100	12.141	0.101
651.200	10.617	0.101
651.300	11.527	0.101
651.400	17.543	0.101
651.500	7.431	0.101
651.600	7.284	0.101
651.700	13.233	0.101
651.800	15.133	0.101
651.900	20.930	0.101
652.000	19.536	0.101
652.100	20.587	0.101
652.200	14.776	0.101
652.300	17.691	0.101
652.400	24.217	0.101
652.500	14.029	0.101
652.600	6.995	0.101
652.700	4.715	0.101
652.800	13.663	0.101
652.900	12.537	0.101
653.000	11.656	0.101
653.100	16.869	0.101
653.200	11.733	0.101
653.300	15.158	0.101
653.400	28.562	0.101
653.500	19.117	0.101
653.600	18.875	0.101
653.700	29.449	0.101
653.800	24.451	0.101
653.900	20.906	0.101
654.000	14.082	0.101
654.100	17.909	0.101
654.200	4.635	0.101
654.300	13.671	0.101
654.400	20.760	0.101
654.500	9.866	0.101
654.600	11.417	0.101
654.700	26.430	0.101
654.800	26.313	0.101
654.900	-3.289	0.101
655.000	13.918	0.101
655.100	19.550	0.101
655.200	21.258	0.101
655.300	22.635	0.101
655.400	24.845	0.101
655.500	27.833	0.101
655.600	24.519	0.101
655.700	25.339	0.101
655.800	10.119	0.101
655.900	24.869	0.101
656.000	24.439	0.101
656.100	11.546	0.101
656.200	21.258	0.101
656.300	30.313	0.101
656.400	19.174	0.101
656.500	6.939	0.101
656.600	6.583	0.101
656.700	12.695	0.101
656.800	12.617	0.101
656.900	16.369	0.101
657.000	8.329	0.101
657.100	22.503	0.101
657.200	23.659	0.101
657.300	28.938	0.101
657.400	23.531	0.101
657.500	19.016	0.101
657.600	13.779	0.101
657.700	28.099	0.101
657.800	27.219	0.101
657.900	8.903	0.101
658.000	16.420	0.101
658.100	20.800	0.101
658.200	15.370	0.101
658.300	23.989	0.101
658.400	18.407	0.101
658.500	18.122	0.101
658.600	13.675	0.101
658.700	21.064	0.101
658.800	26.284	0.101
658.900	18.928	0.101
659.000	13.674	0.101
659.100	37.746	0.101
659.200	26.756	0.101
659.300	20.942	0.101
659.400	15.629	0.101
659.500	16.805	0.101
659.600	25.173	0.101
659.700	23.870	0.101
659.800	21.856	0.101
659.900	16.063	0.101
660.000	27.110	0.101
660.100	19.463	0.101
660.200	24.552	0.101
660.300	32.565	0.101
660.400	24.598	0.101
660.500	25.591	0.101
660.600	22.628	0.101
660.700	26.378	0.101
660.800	29.164	0.101
660.900	32.351	0.101
661.000	12.293	0.101
661.100	28.548	0.101
661.200	33.935	0.101
661.300	19.791	0.101
661.400	15.580	0.101
661.500	15.232	0.101
661.600	28.069	0.101
661.700	22.701	0.101
661.800	29.951	0.101
661.900	19.242	0.101
662.000	27.932	0.101
662.100	9.956	0.101
662.200	29.896	0.101
662.300	23.838	0.101
662.400	13.229	0.101
662.500	16.432	0.101
662.600	16.541	0.101
662.700	27.154	0.101
662.800	15.253	0.101
662.900	20.927	0.101
663.000	24.919	0.101
663.100	10.923	0.101
663.200	30.182	0.101
663.300	35.149	0.101
663.400	18.879	0.101
663.500	30.290	0.101
663.600	24.842	0.101
663.700	17.491	0.101
663.800	17.587	0.101
663.900	25.080	0.101
664.000	37.244	0.101
664.100	39.424	0.101
664.200	13.267	0.101
664.300	12.834	0.101
664.400	20.885	0.101
664.500	41.254	0.101
664.600	30.163	0.101
664.700	32.472	0.101
664.800	20.492	0.101
664.900	16.897	0.101
665.000	27.129	0.101
665.100	23.291	0.101
665.200	21.007	0.101
665.300	26.854	0.101
665.400	22.779	0.101
665.500	23.565	0.101
665.600	19.011	0.101
665.700	20.036	0.101
665.800	28.631	0.101
665.900	30.604	0.101
666.000	27.246	0.101
666.100	26.762	0.101
666.200	27.348	0.101
666.300	17.007	0.101
666.400	22.305	0.101
666.500	25.261	0.101
666.600	29.681	0.101
666.700	22.847	0.101
666.800	25.028	0.101
666.900	33.280	0.101
667.000	28.779	0.101
667.100	27.169	0.101
667.200	43.381	0.101
667.300	30.379	0.101
667.400	23.737	0.101
667.500	32.921	0.101
667.600	27.786	0.101
667.700	15.790	0.101
667.800	34.923	0.101
667.900	21.194	0.101
668.000	23.939	0.101
668.100	38.174	0.101
668.200	35.959	0.101
668.300	20.560	0.101
668.400	24.899	0.101
668.500	32.458	0.101
668.600	30.910	0.101
668.700	21.997	0.101
668.800	27.113	0.101
668.900	39.394	0.101
669.000	34.845	0.101
669.100	38.276	0.101
669.200	25.144	0.101
669.300	19.850	0.101
669.400	19.885	0.101
669.500	29.294	0.101
669.600	27.056	0.101
669.700	24.391	0.101
669.800	35.152	0.101
669.900	22.705	0.101
670.000	44.087	0.101
670.100	35.487	0.101
670.200	23.586	0.101
670.300	31.987	0.101
670.400	40.858	0.101
670.500	28.918	0.101
670.600	22.072	0.101
670.700	31.573	0.101
670.800	33.508	0.101
670.900	24.502	0.101
671.000	37.427	0.101
671.100	21.994	0.101
671.200	27.699	0.101
671.300	25.765	0.101
671.400	29.409	0.101
671.500	34.012	0.101
671.600	26.301	0.101
671.700	29.996	0.101
671.800	28.124	0.101
671.900	28.082	0.101
672.000	32.665	0.101
672.100	29.714	0.101
672.200	22.364	0.101
672.300	32.675	0.101
672.400	26.510	0.101
672.500	35.394	0.101
672.600	32.078	0.101
672.700	30.139	0.101
672.800	40.500	0.101
672.900	43.306	0.101
673.000	25.117	0.101
673.100	37.051	0.101
673.200	35.225	0.101
673.300	37.860	0.101
673.400	32.496	0.101
673.500	36.843	0.101
673.600	27.800	0.101
673.700	28.435	0.101
673.800	31.338	0.101
673.900	39.209	0.101
674.000	18.536	0.101
674.100	29.188	0.101
674.200	36.834	0.101
674.300	31.187	0.101
674.400	21.789	0.101
674.500	40.776	0.101
674.600	26.556	0.101
674.700	38.488	0.101
674.800	33.307	0.101
674.900	34.384	0.101
675.000	25.185	0.101
675.100	34.835	0.101
675.200	36.194	0.101
675.300	24.953	0.101
675.400	31.478	0.101
675.500	35.879	0.101
675.600	29.708	0.101
675.700	22.519	0.101
675.800	31.290	0.101
675.900	24.676	0.101
676.000	30.852	0.101
676.100	40.050	0.101
676.200	30.312	0.101
676.300	29.225	0.101
676.400	38.636	0.101
676.500	47.642	0.101
676.600	39.354	0.101
676.700	20.407	0.101
676.800	23.850	0.101
676.900	29.074	0.101
677.000	34.865	0.101
677.100	36.720	0.101
677.200	33.025	0.101
677.300	33.999	0.101
677.400	25.967	0.101
677.500	59.280	0.101
677.600	23.004	0.101
677.700	29.822	0.101
677.800	28.851	0.101
677.900	45.211	0.101
678.000	29.246	0.101
678.100	21.819	0.101
678.200	23.596	0.101
678.300	31.561	0.101
678.400	32.407	0.101
678.500	39.096	0.101
678.600	48.530	0.101
678.700	29.519	0.101
678.800	29.768	0.101
678.900	39.678	0.101
679.000	34.350	0.101
679.100	41.938	0.101
679.200	32.740	0.101
679.300	15.068	0.101
679.400	16.689	0.101
679.500	35.099	0.101
679.600	38.410	0.101
679.700	33.073	0.101
679.800	35.698	0.101
679.900	53.382	0.101
680.000	37.287	0.101
680.100	29.146	0.101
680.200	21.816	0.101
680.300	24.192	0.101
680.400	39.129	0.101
680.500	29.319	0.101
680.600	24.422	0.101
680.700	26.231	0.101
680.800	42.931	0.101
680.900	38.501	0.101
681.000	21.048	0.101
681.100	16.022	0.101
681.200	27.946	0.101
681.300	34.991	0.101
681.400	48.341	0.101
681.500	22.152	0.101
681.600	25.807	0.101
681.700	41.760	0.101
681.800	28.655	0.101
681.900	36.413	0.101
682.000	22.642	0.101
682.100	36.138	0.101
682.200	41.492	0.101
682.300	44.651	0.101
682.400	24.906	0.101
682.500	26.750	0.101
682.600	19.024	0.101
682.700	25.342	0.101
682.800	30.196	0.101
682.900	36.741	0.101
683.000	45.121	0.101
683.100	43.454	0.101
683.200	37.740	0.101
683.300	50.735	0.101
683.400	38.556	0.101
683.500	42.911	0.101
683.600	33.414	0.101
683.700	44.475	0.101
683.800	44.669	0.101
683.900	28.617	0.101
684.000	40.522	0.101
684.100	29.670	0.101
684.200	27.924	0.101
684.300	18.942	0.101
684.400	45.506	0.101
684.500	31.320	0.101
684.600	43.630	0.101
684.700	17.702	0.101
684.800	42.349	0.101
684.900	28.064	0.101
685.000	31.274	0.101
685.100	43.244	0.101
685.200	25.391	0.101
685.300	37.361	0.101
685.400	40.233	0.101
685.500	36.009	0.101
685.600	42.490	0.101
685.700	36.419	0.101
685.800	43.781	0.101
685.900	33.305	0.101
686.000	34.119	0.101
686.100	40.255	0.101
686.200	24.773	0.101
686.300	28.869	0.101
686.400	36.386	0.101
686.500	36.566	0.101
686.600	38.835	0.101
686.700	39.929	0.101
686.800	28.418	0.101
686.900	34.374	0.101
687.000	39.458	0.101
687.100	46.375	0.101
687.200	34.313	0.101
687.300	47.404	0.101
687.400	30.225	0.101
687.500	43.826	0.101
687.600	38.356	0.101
687.700	33.789	0.101
687.800	31.164	0.101
687.900	30.447	0.101
688.000	28.183	0.101
688.100	37.191	0.101
688.200	23.882	0.101
688.300	36.791	0.101
688.400	34.548	0.101
688.500	27.301	0.101
688.600	41.215	0.101
688.700	34.805	0.101
688.800	39.055	0.101
688.900	36.475	0.101
689.000	25.410	0.101
689.100	44.945	0.101
689.200	42.294	0.101
689.300	33.041	0.101
689.400	34.468	0.101
689.500	30.231	0.101
689.600	56.331	0.101
689.700	39.591	0.101
689.800	29.618	0.101
689.900	22.309	0.101
690.000	32.865	0.101
690.100	42.017	0.101
690.200	38.369	0.101
690.300	26.432	0.101
690.400	35.749	0.101
690.500	44.280	0.101
690.600	30.493	0.101
690.700	55.637	0.101
690.800	40.789	0.101
690.900	41.440	0.101
691.000	22.980	0.101
691.100	37.522	0.101
691.200	19.193	0.101
691.300	29.978	0.101
691.400	38.345	0.101
691.500	19.902	0.101
691.600	25.893	0.101
691.700	36.703	0.101
691.800	15.272	0.101
691.900	23.726	0.101
692.000	20.936	0.101
692.100	20.891	0.101
692.200	32.075	0.101
692.300	31.454	0.101
692.400	14.434	0.101
692.500	31.724	0.101
692.600	22.818	0.101
692.700	26.487	0.101
692.800	25.501	0.101
692.900	23.848	0.101
693.000	27.082	0.101
693.100	8.832	0.101
693.200	25.156	0.101
693.300	22.188	0.101
693.400	18.387	0.101
693.500	13.280	0.101
693.600	28.202	0.101
693.700	27.828	0.101
693.800	12.103	0.101
693.900	23.146	0.101
694.000	20.543	0.101
694.100	13.373	0.101
694.200	17.012	0.101
694.300	23.824	0.101
694.400	21.952	0.101
694.500	15.404	0.101
694.600	18.040	0.101
694.700	22.423	0.101
694.800	11.898	0.101
694.900	17.411	0.101
695.000	19.957	0.101
695.100	16.952	0.101
695.200	16.319	0.101
695.300	12.891	0.101
695.400	23.081	0.101
695.500	25.714	0.101
695.600	-1.283	0.101
695.700	31.185	0.101
695.800	10.150	0.101
695.900	32.734	0.101
696.000	7.687	0.101
696.100	13.009	0.101
696.200	22.979	0.101
696.300	17.393	0.101
696.400	28.587	0.101
696.500	6.169	0.101
696.600	6.304	0.101
696.700	18.516	0.101
696.800	10.613	0.101
696.900	12.556	0.101
697.000	14.390	0.101
697.100	21.718	0.101
697.200	1.081	0.101
697.300	14.159	0.101
697.400	21.125	0.101
697.500	15.761	0.101
697.600	24.983	0.101
697.700	18.096	0.101
697.800	14.596	0.101
697.900	22.832	0.101
698.000	8.693	0.101
698.100	24.046	0.101
698.200	15.385	0.101
698.300	1.859	0.101
698.400	8.796	0.101
698.500	22.794	0.101
698.600	14.311	0.101
698.700	24.924	0.101
698.800	27.372	0.101
698.900	6.275	0.101
699.000	8.924	0.101
699.100	9.254	0.101
699.200	7.815	0.101
699.300	24.045	0.101
699.400	21.736	0.101
699.500	33.893	0.101
699.600	5.372	0.101
699.700	6.423	0.101
699.800	12.642	0.101
699.900	0.046	0.101
700.000	16.666	0.101
700.100	22.697	0.101
700.200	17.711	0.101
700.300	17.774	0.101
700.400	17.129	0.101
700.500	-6.004	0.101
700.600	14.015	0.101
700.700	22.731	0.101
700.800	22.363	0.101
700.900	23.139	0.101
701.000	2.999	0.101
701.100	20.342	0.101
701.200	15.664	0.101
701.300	11.826	0.101
701.400	11.603	0.101
701.500	9.904	0.101
701.600	11.531	0.101
701.700	14.124	0.101
701.800	13.249	0.101
701.900	14.231	0.101
702.000	23.174	0.101
702.100	21.670	0.101
702.200	15.818	0.101
702.300	11.940	0.101
702.400	11.136	0.101
702.500	13.935	0.101
702.600	16.041	0.101
702.700	26.090	0.101
702.800	8.196	0.101
702.900	2.063	0.101
703.000	13.214	0.101
703.100	7.171	0.101
703.200	9.528	0.101
703.300	10.406	0.101
703.400	15.485	0.101
703.500	0.193	0.101
703.600	11.756	0.101
703.700	17.312	0.101
703.800	19.652	0.101
703.900	17.896	0.101
704.000	6.061	0.101
704.100	10.133	0.101
704.200	10.753	0.101
704.300	15.496	0.101
704.400	9.537	0.101
704.500	22.617	0.101
704.600	8.067	0.101
704.700	17.292	0.101
704.800	-3.110	0.101
704.900	15.724	0.101
705.000	14.516	0.101
705.100	21.498	0.101
705.200	11.564	0.101
705.300	10.815	0.101
705.400	25.846	0.101
705.500	17.353	0.101
705.600	17.475	0.101
705.700	16.209	0.101
705.800	6.675	0.101
705.900	18.725	0.101
706.000	12.567	0.101
706.100	12.903	0.101
706.200	-2.627	0.101
706.300	21.888	0.101
706.400	17.908	0.101
706.500	9.418	0.101
706.600	-5.018	0.101
706.700	-1.027	0.101
706.800	13.992	0.101
706.900	13.496	0.101
707.000	19.439	0.101
707.100	0.842	0.101
707.200	0.472	0.101
707.300	9.657	0.101
707.400	-0.558	0.101
707.500	14.918	0.101
707.600	14.249	0.101
707.700	15.080	0.101
707.800	13.425	0.101
707.900	5.205	0.101
708.000	12.910	0.101
708.100	12.288	0.101
708.200	7.821	0.101
708.300	9.383	0.101
708.400	14.334	0.101
708.500	10.672	0.101
708.600	-6.239	0.101
708.700	2.765	0.101
708.800	22.700	0.101
708.900	23.428	0.101
709.000	6.150	0.101
709.100	17.660	0.101
709.200	2.440	0.101
709.300	0.887	0.101
709.400	26.655	0.101
709.500	-2.075	0.101
709.600	13.585	0.101
709.700	-3.242	0.101
709.800	-0.098	0.101
709.900	10.677	0.101
710.000	3.885	0.101
710.100	13.374	0.101
710.200	15.136	0.101
710.300	1.898	0.101
710.400	-2.032	0.101
710.500	0.874	0.101
710.600	17.033	0.101
710.700	11.873	0.101
710.800	6.153	0.101
710.900	21.816	0.101
711.000	15.286	0.101
711.100	-11.471	0.101
711.200	17.000	0.101
711.300	9.753	0.101
711.400	10.564	0.101
711.500	-8.701	0.101
711.600	9.515	0.101
711.700	-3.307	0.101
711.800	7.700	0.101
711.900	7.373	0.101
712.000	22.187	0.101
712.100	3.350	0.101
712.200	-6.752	0.101
712.300	3.854	0.101
712.400	5.690	0.101
712.500	9.994	0.101
712.600	18.613	0.101
712.700	4.981	0.101
712.800	1.190	0.101
712.900	9.234	0.101
713.000	6.403	0.101
713.100	1.914	0.101
713.200	10.361	0.101
713.300	3.884	0.101
713.400	8.344	0.101
713.500	6.479	0.101
713.600	-9.827	0.101
713.700	4.349	0.101
713.800	4.816	0.101
713.900	2.858	0.101
714.000	4.477	0.101
714.100	12.640	0.101
714.200	13.099	0.101
714.300	-1.253	0.101
714.400	3.473	0.101
714.500	5.555	0.101
714.600	9.690	0.101
714.700	5.917	0.101
714.800	-8.003	0.101
714.900	-1.708	0.101
715.000	-0.992	0.101
715.100	1.441	0.101
715.200	1.590	0.101
715.300	1.258	0.101
715.400	-4.409	0.101
715.500	-2.269	0.101
715.600	9.585	0.101
715.700	2.114	0.101
715.800	-4.244	0.101
715.900	0.942	0.101
716.000	0.674	0.101
716.100	2.313	0.101
716.200	15.474	0.101
716.300	2.351	0.101
716.400	0.079	0.101
716.500	-6.785	0.101
716.600	10.172	0.101
716.700	21.685	0.101
716.800	7.280	0.101
716.900	1.275	0.101
717.000	13.178	0.101
717.100	3.790	0.101
717.200	-3.559	0.101
717.300	-4.064	0.101
717.400	-2.474	0.101
717.500	11.436	0.101
717.600	10.714	0.101
717.700	-1.293	0.101
717.800	8.800	0.101
717.900	3.877	0.101
718.000	-1.348	0.101
718.100	-3.745	0.101
718.200	9.787	0.101
718.300	3.206	0.101
718.400	-5.515	0.101
718.500	0.762	0.101
718.600	-8.397	0.101
718.700	0.870	0.101
718.800	2.148	0.101
718.900	2.632	0.101
719.000	-2.740	0.101
719.100	-0.452	0.101
719.200	-1.736	0.101
719.300	-1.430	0.101
719.400	3.187	0.101
719.500	12.207	0.101
719.600	-5.439	0.101
719.700	-0.447	0.101
719.800	-3.433	0.101
719.900	-14.305	0.101
720.000	4.708	0.101
720.100	-5.908	0.101
720.200	6.563	0.101
720.300	-4.344	0.101
720.400	-10.799	0.101
720.500	-1.773	0.101
720.600	13.602	0.101
720.700	-12.696	0.101
720.800	-6.480	0.101
720.900	-4.574	0.101
721.000	-3.077	0.101
721.100	-7.599	0.101
721.200	-2.959	0.101
721.300	8.792	0.101
721.400	3.311	0.101
721.500	2.843	0.101
721.600	-4.271	0.101
721.700	-8.122	0.101
721.800	4.751	0.101
721.900	-10.097	0.101
722.000	2.728	0.101
722.100	-1.566	0.101
722.200	-3.076	0.101
722.300	-13.864	0.101
722.400	3.140	0.101
722.500	-10.398	0.101
722.600	6.983	0.101
722.700	-0.957	0.101
722.800	-1.586	0.101
722.900	-10.675	0.101
723.000	-5.715	0.101
723.100	9.467	0.101
723.200	-1.284	0.101
723.300	0.179	0.101
723.400	4.061	0.101
723.500	-2.940	0.101
723.600	-14.355	0.101
723.700	-12.873	0.101
723.800	-6.834	0.101
723.900	6.197	0.101
724.000	4.403	0.101
724.100	-2.158	0.101
724.200	-1.025	0.101
724.300	-3.203	0.101
724.400	8.972	0.101
724.500	-5.945	0.101
724.600	-6.598	0.101
724.700	-4.540	0.101
724.800	3.643	0.101
724.900	2.916	0.101
725.000	-2.832	0.101
725.100	-6.926	0.101
725.200	-5.451	0.101
725.300	-25.191	0.101
725.400	-9.891	0.101
725.500	-6.397	0.101
725.600	4.759	0.101
725.700	-2.432	0.101
725.800	1.011	0.101
725.900	6.867	0.101
726.000	-25.115	0.101
726.100	-17.056	0.101
726.200	-7.745	0.101
726.300	4.256	0.101
726.400	-4.215	0.101
726.500	-5.733	0.101
726.600	-1.217	0.101
726.700	-11.595	0.101
726.800	-7.262	0.101
726.900	0.021	0.101
727.000	6.229	0.101
727.100	-7.803	0.101
727.200	-12.719	0.101
727.300	-12.076	0.101
727.400	-20.370	0.101
727.500	-14.162	0.101
727.600	6.688	0.101
727.700	-1.092	0.101
727.800	8.357	0.101
727.900	-11.799	0.101
728.000	-7.314	0.101
728.100	-3.567	0.101
728.200	6.207	0.101
728.300	-26.693	0.101
728.400	-11.529	0.101
728.500	-4.666	0.101
728.600	3.340	0.101
728.700	1.515	0.101
728.800	14.627	0.101
728.900	-11.949	0.101
729.000	-7.629	0.101
729.100	-9.095	0.101
729.200	-20.562	0.101
729.300	-6.557	0.101
729.400	-4.143	0.101
729.500	-5.789	0.101
729.600	0.745	0.101
729.700	-1.921	0.101
729.800	-9.826	0.101
729.900	1.943	0.101
730.000	9.901	0.101
730.100	-5.425	0.101
730.200	-4.674	0.101
730.300	7.994	0.101
730.400	-13.326	0.101
730.500	4.727	0.101
730.600	5.521	0.101
730.700	-5.681	0.101
730.800	3.060	0.101
730.900	-19.420	0.101
731.000	-6.623	0.101
731.100	-4.729	0.101
731.200	-15.826	0.101
731.300	-3.182	0.101
731.400	-10.803	0.101
731.500	-9.513	0.101
731.600	-15.159	0.101
731.700	-0.348	0.101
731.800	-0.561	0.101
731.900	-14.292	0.101
732.000	-3.045	0.101
732.100	-4.527	0.101
732.200	-12.905	0.101
732.300	4.766	0.101
732.400	-6.281	0.101
732.500	-7.776	0.101
732.600	-5.634	0.101
732.700	-21.170	0.101
732.800	-3.717	0.101
732.900	-11.709	0.101
733.000	1.276	0.101
733.100	-7.467	0.101
733.200	6.676	0.101
733.300	-6.343	0.101
733.400	-1.500	0.101
733.500	-7.323	0.101
733.600	-4.579	0.101
733.700	3.592	0.101
733.800	-1.540	0.101
733.900	-10.054	0.101
734.000	4.731	0.101
734.100	-17.695	0.101
734.200	-2.597	0.101
734.300	-1.193	0.101
734.400	-17.027	0.101
734.500	-25.189	0.101
734.600	-5.061	0.101
734.700	-11.907	0.101
734.800	-1.382	0.101
734.900	5.995	0.101
735.000	1.324	0.101
735.100	-8.987	0.101
735.200	-12.102	0.101
735.300	-6.732	0.101
735.400	-15.175	0.101
735.500	-8.847	0.101
735.600	-6.259	0.101
735.700	-6.378	0.101
735.800	-7.926	0.101
735.900	-14.891	0.101
736.000	-1.037	0.101
736.100	-6.255	0.101
736.200	-13.992	0.101
736.300	-6.373	0.101
736.400	-7.831	0.101
736.500	-12.622	0.101
736.600	-9.864	0.101
736.700	-8.366	0.101
736.800	-9.879	0.101
736.900	-14.931	0.101
737.000	-7.985	0.101
737.100	-15.031	0.101
737.200	-0.304	0.101
737.300	-3.011	0.101
737.400	-2.463	0.101
737.500	-3.074	0.101
737.600	-21.552	0.101
737.700	0.331	0.101
737.800	-15.055	0.101
737.900	-2.088	0.101
738.000	-12.063	0.101
738.100	-0.749	0.101
738.200	-7.070	0.101
738.300	-21.912	0.101
738.400	-1.762	0.101
738.500	-12.149	0.101
738.600	-2.597	0.101
738.700	-12.134	0.101
738.800	-15.527	0.101
738.900	-15.262	0.101
739.000	-11.694	0.101
739.100	-4.583	0.101
739.200	-1.676	0.101
739.300	-9.965	0.101
739.400	-11.408	0.101
739.500	-6.408	0.101
739.600	-10.190	0.101
739.700	3.367	0.101
739.800	-10.117	0.101
739.900	-13.933	0.101
740.000	-9.709	0.101
740.100	-5.520	0.101
740.200	0.871	0.101
740.300	-11.231	0.101
740.400	-7.217	0.101
740.500	-14.917	0.101
740.600	-17.136	0.101
740.700	-9.720	0.101
740.800	-15.295	0.101
740.900	0.089	0.101
741.000	-12.545	0.101
741.100	-2.643	0.101
741.200	-8.668	0.101
741.300	6.453	0.101
741.400	-16.380	0.101
741.500	-12.891	0.101
741.600	-17.017	0.101
741.700	-2.930	0.101
741.800	-29.837	0.101
741.900	-5.223	0.101
742.000	-7.916	0.101
742.100	-15.405	0.101
742.200	-9.721	0.101
742.300	-13.735	0.101
742.400	-22.596	0.101
742.500	0.549	0.101
742.600	-13.995	0.101
742.700	-20.488	0.101
742.800	-6.790	0.101
742.900	0.980	0.101
743.000	-15.216	0.101
743.100	-24.711	0.101
743.200	-22.122	0.101
743.300	-16.846	0.101
743.400	-4.585	0.101
743.500	-4.883	0.101
743.600	4.411	0.101
743.700	-18.143	0.101
743.800	-8.707	0.101
743.900	-6.152	0.101
744.000	-1.518	0.101
744.100	-10.801	0.101
744.200	-3.074	0.101
744.300	-11.917	0.101
744.400	-7.380	0.101
744.500	-9.974	0.101
744.600	1.277	0.101
744.700	-20.931	0.101
744.800	-4.216	0.101
744.900	-13.855	0.101
745.000	-6.666	0.101
745.100	-19.444	0.101
745.200	-9.685	0.101
745.300	-10.920	0.101
745.400	-7.139	0.101
745.500	-10.486	0.101
745.600	-11.447	0.101
745.700	-4.753	0.101
745.800	-8.822	0.101
745.900	-13.959	0.101
746.000	-16.451	0.101
746.100	-19.694	0.101
746.200	-6.869	0.101
746.300	-1.454	0.101
746.400	-15.910	0.101
746.500	8.222	0.101
746.600	0.124	0.101
746.700	-7.844	0.101
746.800	-7.330	0.101
746.900	-4.984	0.101
747.000	-6.985	0.101
747.100	-7.636	0.101
747.200	-14.081	0.101
747.300	-4.972	0.101
747.400	-17.656	0.101
747.500	-12.295	0.101
747.600	-18.019	0.101
747.700	-25.631	0.101
747.800	-5.795	0.101
747.900	-1.725	0.101
748.000	-20.245	0.101
748.100	-15.438	0.101
748.200	-3.223	0.101
748.300	-0.383	0.101
748.400	-10.780	0.101
748.500	-33.141	0.101
748.600	-20.818	0.101
748.700	-6.404	0.101
748.800	-7.659	0.101
748.900	-7.707	0.101
749.000	-3.174	0.101
749.100	-17.294	0.101
749.200	1.328	0.101
749.300	-9.314	0.101
749.400	-14.099	0.101
749.500	-4.661	0.101
749.600	-5.330	0.101
749.700	-11.598	0.101
749.800	-27.308	0.101
749.900	-19.255	0.101
750.000	-29.791	0.101
750.100	-12.173	0.101
750.200	-5.453	0.101
750.300	-12.708	0.101
750.400	-3.970	0.101
750.500	-8.792	0.101
750.600	-1.571	0.101
750.700	-8.576	0.101
750.800	-11.223	0.101
750.900	-6.161	0.101
751.000	-7.375	0.101
751.100	-17.966	0.101
751.200	-10.918	0.101
751.300	-13.843	0.101
751.400	-15.399	0.101
751.500	-5.718	0.101
751.600	-28.991	0.101
751.700	-14.788	0.101
751.800	-3.770	0.101
751.900	-18.027	0.101
752.000	-5.578	0.101
752.100	-9.057	0.101
752.200	-15.496	0.101
752.300	-18.021	0.101
752.400	-8.118	0.101
752.500	-6.610	0.101
752.600	-15.774	0.101
752.700	-1.377	0.101
752.800	-14.462	0.101
752.900	-11.688	0.101
753.000	-9.638	0.101
753.100	-3.071	0.101
753.200	-11.394	0.101
753.300	-15.006	0.101
753.400	-14.956	0.101
753.500	-18.806	0.101
753.600	-4.314	0.101
753.700	-3.746	0.101
753.800	-14.255	0.101
753.900	-24.239	0.101
754.000	-14.898	0.101
754.100	-17.259	0.101
754.200	-6.171	0.101
754.300	-10.209	0.101
754.400	-22.855	0.101
754.500	-10.638	0.101
754.600	-9.715	0.101
754.700	-7.460	0.101
754.800	-18.834	0.101
754.900	-15.205	0.101
755.000	-1.347	0.101
755.100	-7.971	0.101
755.200	-13.748	0.101
755.300	-9.299	0.101
755.400	-11.652	0.101
755.500	-9.625	0.101
755.600	-17.709	0.101
755.700	-9.222	0.101
755.800	-28.587	0.101
755.900	-11.654	0.101
756.000	-12.971	0.101
756.100	-13.151	0.101
756.200	-2.584	0.101
756.300	-10.063	0.101
756.400	-9.549	0.101
756.500	-9.884	0.101
756.600	-14.036	0.101
756.700	-12.394	0.101
756.800	-6.694	0.101
756.900	-8.140	0.101
757.000	-10.195	0.101
757.100	-15.472	0.101
757.200	-8.774	0.101
757.300	-18.568	0.101
757.400	-10.933	0.101
757.500	-13.808	0.101
757.600	-17.145	0.101
757.700	-11.283	0.101
757.800	7.856	0.101
757.900	-10.132	0.101
758.000	-9.135	0.101
758.100	-14.443	0.101
758.200	-15.467	0.101
758.300	-4.521	0.101
758.400	-7.188	0.101
758.500	-7.509	0.101
758.600	-13.346	0.101
758.700	-12.161	0.101
758.800	-26.175	0.101
758.900	-21.371	0.101
759.000	-25.593	0.101
759.100	-18.467	0.101
759.200	-7.756	0.101
759.300	-21.170	0.101
759.400	-9.932	0.101
759.500	-10.944	0.101
759.600	-9.346	0.101
759.700	-10.169	0.101
759.800	-16.242	0.101
759.900	-7.934	0.101
760.000	-9.032	0.101
760.100	-27.003	0.101
760.200	-13.099	0.101
760.300	-4.610	0.101
760.400	-7.035	0.101
760.500	-21.835	0.101
760.600	-2.439	0.101
760.700	-3.935	0.101
760.800	-7.930	0.101
760.900	-30.088	0.101
761.000	-18.519	0.101
761.100	-18.476	0.101
761.200	-14.074	0.101
761.300	-8.512	0.101
761.400	-19.612	0.101
761.500	-11.449	0.101
761.600	-15.974	0.101
761.700	-7.675	0.101
761.800	-7.898	0.101
761.900	-6.529	0.101
762.000	-13.287	0.101
762.100	-18.981	0.101
762.200	-8.254	0.101
762.300	-15.959	0.101
762.400	-8.725	0.101
762.500	-18.619	0.101
762.600	3.021	0.101
762.700	-7.945	0.101
762.800	-21.279	0.101
762.900	-7.831	0.101
763.000	-30.907	0.101
763.100	2.293	0.101
763.200	-8.055	0.101
763.300	-13.323	0.101
763.400	-10.111	0.101
763.500	-5.460	0.101
763.600	-20.824	0.101
763.700	-7.722	0.101
763.800	-8.854	0.101
763.900	-23.039	0.101
764.000	-8.610	0.101
764.100	-22.508	0.101
764.200	-4.259	0.101
764.300	-14.054	0.101
764.400	-12.036	0.101
764.500	-10.655	0.101
764.600	-16.881	0.101
764.700	-12.254	0.101
764.800	-12.115	0.101
764.900	-3.239	0.101
765.000	-21.245	0.101
765.100	-22.886	0.101
765.200	-16.605	0.101
765.300	-15.040	0.101
765.400	-14.384	0.101
765.500	-8.387	0.101
765.600	-14.835	0.101
765.700	-20.974	0.101
765.800	-15.010	0.101
765.900	-18.272	0.101
766.000	-16.086	0.101
766.100	-2.369	0.101
766.200	-5.340	0.101
766.300	-8.487	0.101
766.400	-7.088	0.101
766.500	-18.732	0.101
766.600	-0.963	0.101
766.700	-11.059	0.101
766.800	-18.196	0.101
766.900	-30.599	0.101
767.000	-11.313	0.101
767.100	-10.003	0.101
767.200	-11.099	0.101
767.300	-3.436	0.101
767.400	-9.257	0.101
767.500	-29.490	0.101
767.600	-16.625	0.101
767.700	-12.332	0.101
767.800	-6.837	0.101
767.900	-15.493	0.101
768.000	-10.875	0.101
768.100	-21.927	0.101
768.200	-0.378	0.101
768.300	-7.691	0.101
768.400	-3.530	0.101
768.500	-7.885	0.101
768.600	-20.772	0.101
768.700	-24.807	0.101
768.800	-20.908	0.101
768.900	-13.992	0.101
769.000	-10.773	0.101
769.100	1.765	0.101
769.200	-10.212	0.101
769.300	-14.798	0.101
769.400	-21.135	0.101
769.500	-7.316	0.101
769.600	-20.886	0.101
769.700	-14.866	0.101
769.800	-2.862	0.101
769.900	-9.737	0.101
770.000	-17.118	0.101
770.100	-24.746	0.101
770.200	-14.356	0.101
770.300	-15.085	0.101
770.400	-22.713	0.101
770.500	-11.034	0.101
770.600	-6.976	0.101
770.700	-16.403	0.101
770.800	-9.527	0.101
770.900	-4.047	0.101
771.000	-17.089	0.101
771.100	-22.080	0.101
771.200	-9.959	0.101
771.300	-23.413	0.101
771.400	-8.798	0.101
771.500	-2.620	0.101
771.600	-6.518	0.101
771.700	-20.105	0.101
771.800	-14.537	0.101
771.900	-17.409	0.101
772.000	0.805	0.101
772.100	-17.624	0.101
772.200	-15.766	0.101
772.300	-10.186	0.101
772.400	-10.435	0.101
772.500	-18.242	0.101
772.600	-9.165	0.101
772.700	-22.957	0.101
772.800	-26.468	0.101
772.900	-19.664	0.101
773.000	-21.021	0.101
773.100	-12.880	0.101
773.200	-8.455	0.101
773.300	-13.235	0.101
773.400	-5.242	0.101
773.500	-9.594	0.101
773.600	-15.015	0.101
773.700	-25.957	0.101
773.800	-20.954	0.101
773.900	-7.907	0.101
774.000	-22.449	0.101
774.100	-10.809	0.101
774.200	-9.076	0.101
774.300	-15.293	0.101
774.400	-17.584	0.101
774.500	-22.485	0.101
774.600	-5.709	0.101
774.700	-13.838	0.101
774.800	-5.038	0.101
774.900	-22.089	0.101
775.000	-23.950	0.101
775.100	-13.630	0.101
775.200	-16.827	0.101
775.300	-17.561	0.101
775.400	-12.383	0.101
775.500	-5.480	0.101
775.600	-33.356	0.101
775.700	-19.004	0.101
775.800	-1.187	0.101
775.900	-8.247	0.101
776.000	-13.544	0.101
776.100	-16.278	0.101
776.200	-19.162	0.101
776.300	-3.809	0.101
776.400	-16.979	0.101
776.500	-10.162	0.101
776.600	-20.056	0.101
776.700	-22.239	0.101
776.800	-22.387	0.101
776.900	-10.712	0.101
777.000	-8.773	0.101
777.100	-13.788	0.101
777.200	-13.575	0.101
777.300	-9.366	0.101
777.400	-15.058	0.101
777.500	-6.202	0.101
777.600	-18.729	0.101
777.700	-21.826	0.101
777.800	-20.344	0.101
777.900	-20.664	0.101
778.000	1.424	0.101
778.100	-8.665	0.101
778.200	-5.596	0.101
778.300	-5.088	0.101
778.400	-10.064	0.101
778.500	-9.920	0.101
778.600	-23.322	0.101
778.700	-14.546	0.101
778.800	-21.562	0.101
778.900	-6.906	0.101
779.000	-1.108	0.101
779.100	-11.878	0.101
779.200	-10.189	0.101
779.300	-13.647	0.101
779.400	-10.819	0.101
779.500	-8.358	0.101
779.600	-13.351	0.101
779.700	-21.459	0.101
779.800	-18.399	0.101
779.900	-4.072	0.101
780.000	-20.137	0.101
780.100	-21.129	0.101
780.200	-23.362	0.101
780.300	-11.631	0.101
780.400	-19.958	0.101
780.500	-11.678	0.101
780.600	-20.651	0.101
780.700	-24.450	0.101
780.800	-11.557	0.101
780.900	-7.138	0.101
781.000	-1.736	0.101
781.100	-19.247	0.101
781.200	-14.809	0.101
781.300	-4.845	0.101
781.400	-23.059	0.101
781.500	-8.221	0.101
781.600	-3.147	0.101
781.700	-11.909	0.101
781.800	-3.201	0.101
781.900	-12.395	0.101
782.000	-2.829	0.101
782.100	-4.581	0.101
782.200	-7.228	0.101
782.300	-8.938	0.101
782.400	-2.362	0.101
782.500	5.260	0.101
782.600	4.494	0.101
782.700	-5.603	0.101
782.800	4.671	0.101
782.900	-13.632	0.101
783.000	12.620	0.101
783.100	-2.365	0.101
783.200	-10.376	0.101
783.300	-10.611	0.101
783.400	8.645	0.101
783.500	6.133	0.101
783.600	-8.623	0.101
783.700	1.481	0.101
783.800	6.029	0.101
783.900	3.340	0.101
784.000	6.607	0.101
784.100	8.026	0.101
784.200	1.718	0.101
784.300	-1.949	0.101
784.400	-1.649	0.101
784.500	16.765	0.101
784.600	0.446	0.101
784.700	6.676	0.101
784.800	-7.549	0.101
784.900	-12.644	0.101
785.000	-9.776	0.101
785.100	5.811	0.101
785.200	-2.540	0.101
785.300	-6.162	0.101
785.400	0.569	0.101
785.500	2.300	0.101
785.600	-5.980	0.101
785.700	5.533	0.101
785.800	-0.001	0.101
785.900	12.031	0.101
786.000	-1.544	0.101
786.100	9.188	0.101
786.200	-8.356	0.101
786.300	0.253	0.101
786.400	-9.322	0.101
786.500	0.835	0.101
786.600	4.209	0.101
786.700	5.707	0.101
786.800	-8.072	0.101
786.900	-8.971	0.101
787.000	-1.667	0.101
787.100	-0.141	0.101
787.200	17.941	0.101
787.300	-1.897	0.101
787.400	-7.410	0.101
787.500	-3.585	0.101
787.600	-4.367	0.101
787.700	10.005	0.101
787.800	-14.063	0.101
787.900	5.720	0.101
788.000	1.299	0.101
788.100	2.637	0.101
788.200	-4.156	0.101
788.300	12.242	0.101
788.400	1.522	0.101
788.500	-9.917	0.101
788.600	-12.123	0.101
788.700	13.089	0.101
788.800	2.879	0.101
788.900	-1.622	0.101
789.000	-6.358	0.101
789.100	12.761	0.101
789.200	6.974	0.101
789.300	-5.879	0.101
789.400	1.174	0.101
789.500	-9.342	0.101
789.600	9.208	0.101
789.700	11.258	0.101
789.800	-1.571	0.101
789.900	-11.338	0.101
790.000	11.866	0.101
790.100	7.954	0.101
790.200	-4.129	0.101
790.300	7.047	0.101
790.400	3.045	0.101
790.500	8.879	0.101
790.600	6.380	0.101
790.700	2.924	0.101
790.800	3.591	0.101
790.900	7.229	0.101
791.000	-2.651	0.101
791.100	4.449	0.101
791.200	0.933	0.101
791.300	3.787	0.101
791.400	16.746	0.101
791.500	15.623	0.101
791.600	6.768	0.101
791.700	13.202	0.101
791.800	-5.742	0.101
791.900	13.897	0.101
792.000	7.885	0.101
792.100	-0.684	0.101
792.200	5.046	0.101
792.300	7.814	0.101
792.400	10.969	0.101
792.500	-3.035	0.101
792.600	17.424	0.101
792.700	2.726	0.101
792.800	8.179	0.101
792.900	-5.488	0.101
793.000	3.080	0.101
793.100	-18.569	0.101
793.200	7.282	0.101
793.300	15.435	0.101
793.400	5.495	0.101
793.500	-5.730	0.101
793.600	9.748	0.101
793.700	0.356	0.101
793.800	1.434	0.101
793.900	-4.831	0.101
794.000	9.665	0.101
794.100	9.887	0.101
794.200	1.241	0.101
794.300	-4.472	0.101
794.400	10.180	0.101
794.500	16.286	0.101
794.600	1.381	0.101
794.700	13.447	0.101
794.800	8.391	0.101
794.900	8.280	0.101
795.000	5.640	0.101
795.100	8.150	0.101
795.200	3.368	0.101
795.300	6.286	0.101
795.400	1.488	0.101
795.500	0.190	0.101
795.600	4.578	0.101
795.700	-10.765	0.101
795.800	6.842	0.101
795.900	13.709	0.101
796.000	5.863	0.101
796.100	-1.537	0.101
796.200	20.263	0.101
796.300	1.596	0.101
796.400	7.334	0.101
796.500	3.842	0.101
796.600	11.446	0.101
796.700	4.345	0.101
796.800	9.987	0.101
796.900	13.270	0.101
797.000	2.076	0.101
797.100	15.906	0.101
797.200	23.100	0.101
797.300	4.495	0.101
797.400	9.691	0.101
797.500	8.615	0.101
797.600	1.715	0.101
797.700	8.615	0.101
797.800	6.304	0.101
797.900	8.030	0.101
798.000	0.254	0.101
798.100	26.426	0.101
798.200	16.538	0.101
798.300	13.258	0.101
798.400	-3.304	0.101
798.500	18.645	0.101
798.600	17.910	0.101
798.700	8.369	0.101
798.800	11.194	0.101
798.900	8.614	0.101
799.000	9.961	0.101
799.100	12.808	0.101
799.200	17.316	0.101
799.300	11.970	0.101
799.400	15.129	0.101
799.500	9.959	0.101
799.600	8.685	0.101
799.700	2.999	0.101
799.800	20.563	0.101
799.900	6.209	0.101
800.000	19.356	0.101
