time /s	I /nA	E /V
0.100	-16.807	0.100
0.200	8.210	0.100
0.300	-3.292	0.100
0.400	-2.783	0.100
0.500	-8.313	0.100
0.600	-8.148	0.100
0.700	-17.508	0.100
0.800	-0.963	0.100
0.900	3.358	0.100
1.000	-9.904	0.100
1.100	-8.464	0.100
1.200	-11.651	0.100
1.300	2.150	0.100
1.400	1.122	0.100
1.500	-15.983	0.100
1.600	-14.290	0.100
1.700	-9.866	0.100
1.800	1.477	0.100
1.900	-7.428	0.100
2.000	2.568	0.100
2.100	-4.466	0.100
2.200	-3.118	0.100
2.300	-6.061	0.100
2.400	-4.460	0.100
2.500	-4.813	0.100
2.600	-5.094	0.100
2.700	4.591	0.100
2.800	1.851	0.100
2.900	2.437	0.100
3.000	-9.633	0.100
3.100	-7.854	0.100
3.200	1.155	0.100
3.300	8.817	0.100
3.400	-7.067	0.100
3.500	-0.594	0.100
3.600	-4.675	0.100
3.700	-20.146	0.100
3.800	0.306	0.100
3.900	-5.086	0.100
4.000	-9.327	0.100
4.100	-7.057	0.100
4.200	-7.345	0.100
4.300	-17.717	0.100
4.400	-0.666	0.100
4.500	9.071	0.100
4.600	-1.944	0.100
4.700	-17.713	0.100
4.800	-1.102	0.100
4.900	-13.546	0.100
5.000	-19.776	0.100
5.100	-4.269	0.100
5.200	-11.460	0.100
5.300	-7.647	0.100
5.400	-6.414	0.100
5.500	-2.272	0.100
5.600	0.273	0.100
5.700	-4.514	0.100
5.800	-5.424	0.100
5.900	-15.916	0.100
6.000	-16.952	0.100
6.100	-5.421	0.100
6.200	-6.721	0.100
6.300	0.190	0.100
6.400	-8.100	0.100
6.500	4.362	0.100
6.600	-0.617	0.100
6.700	1.607	0.100
6.800	-9.910	0.100
6.900	-6.069	0.100
7.000	-2.931	0.100
7.100	-4.087	0.100
7.200	2.532	0.100
7.300	-0.142	0.100
7.400	5.533	0.100
7.500	-2.643	0.100
7.600	-9.497	0.100
7.700	9.609	0.100
7.800	-1.053	0.100
7.900	2.858	0.100
8.000	-2.459	0.100
8.100	-11.549	0.100
8.200	-16.176	0.100
8.300	-7.964	0.100
8.400	-12.283	0.100
8.500	-9.086	0.100
8.600	4.177	0.100
8.700	-7.375	0.100
8.800	7.995	0.100
8.900	-5.528	0.100
9.000	2.378	0.100
9.100	3.155	0.100
9.200	-13.021	0.100
9.300	-15.440	0.100
9.400	-9.202	0.100
9.500	-5.470	0.100
9.600	-10.666	0.100
9.700	-2.426	0.100
9.800	1.479	0.100
9.900	10.538	0.100
10.000	0.744	0.100
10.100	1.205	0.100
10.200	0.098	0.100
10.300	-2.548	0.100
10.400	-2.826	0.100
10.500	-2.331	0.100
10.600	1.080	0.100
10.700	4.577	0.100
10.800	-11.921	0.100
10.900	-11.700	0.100
11.000	-13.012	0.100
11.100	1.824	0.100
11.200	-13.454	0.100
11.300	-1.869	0.100
11.400	0.788	0.100
11.500	-6.226	0.100
11.600	-13.001	0.100
11.700	0.470	0.100
11.800	-5.396	0.100
11.900	-9.983	0.100
12.000	-3.484	0.100
12.100	2.437	0.100
12.200	-2.840	0.100
12.300	-8.982	0.100
12.400	-12.627	0.100
12.500	-10.789	0.100
12.600	-9.098	0.100
12.700	-10.365	0.100
12.800	-6.917	0.100
12.900	-0.589	0.100
13.000	6.457	0.100
13.100	-6.904	0.100
13.200	-4.896	0.100
13.300	-0.889	0.100
13.400	-34.815	0.100
13.500	-2.150	0.100
13.600	2.457	0.100
13.700	-2.351	0.100
13.800	-5.791	0.100
13.900	-0.688	0.100
14.000	-0.402	0.100
14.100	4.506	0.100
14.200	-14.514	0.100
14.300	1.879	0.100
14.400	13.692	0.100
14.500	6.970	0.100
14.600	-6.984	0.100
14.700	-3.348	0.100
14.800	-15.278	0.100
14.900	-1.964	0.100
15.000	-8.201	0.100
15.100	-4.553	0.100
15.200	-6.859	0.100
15.300	-17.701	0.100
15.400	2.682	0.100
15.500	8.800	0.100
15.600	16.971	0.100
15.700	7.041	0.100
15.800	1.367	0.100
15.900	-1.870	0.100
16.000	-4.629	0.100
16.100	-11.132	0.100
16.200	-18.488	0.100
16.300	-7.845	0.100
16.400	-11.733	0.100
16.500	0.312	0.100
16.600	-9.133	0.100
16.700	-9.232	0.100
16.800	-10.781	0.100
16.900	-15.058	0.100
17.000	2.200	0.100
17.100	4.359	0.100
17.200	3.043	0.100
17.300	-3.038	0.100
17.400	2.738	0.100
17.500	-18.240	0.100
17.600	-12.937	0.100
17.700	17.043	0.100
17.800	18.198	0.100
17.900	3.377	0.100
18.000	0.707	0.100
18.100	-2.246	0.100
18.200	-13.163	0.100
18.300	-13.034	0.100
18.400	-5.376	0.100
18.500	-8.507	0.100
18.600	-5.622	0.100
18.700	6.850	0.100
18.800	-17.965	0.100
18.900	-4.660	0.100
19.000	-6.388	0.100
19.100	2.675	0.100
19.200	2.559	0.100
19.300	-13.117	0.100
19.400	-4.296	0.100
19.500	6.494	0.100
19.600	4.916	0.100
19.700	10.654	0.100
19.800	-5.049	0.100
19.900	-13.297	0.100
20.000	-7.509	0.100
20.100	-6.347	0.100
20.200	2.862	0.100
20.300	-5.020	0.100
20.400	-4.498	0.100
20.500	6.968	0.100
20.600	-24.922	0.100
20.700	-12.761	0.100
20.800	-0.049	0.100
20.900	-6.123	0.100
21.000	-18.731	0.100
21.100	-14.916	0.100
21.200	11.123	0.100
21.300	3.128	0.100
21.400	-17.280	0.100
21.500	-2.960	0.100
21.600	-4.508	0.100
21.700	-4.844	0.100
21.800	0.193	0.100
21.900	-8.996	0.100
22.000	-10.275	0.100
22.100	-7.076	0.100
22.200	1.430	0.100
22.300	-0.267	0.100
22.400	-6.706	0.100
22.500	-8.723	0.100
22.600	-13.167	0.100
22.700	4.332	0.100
22.800	-1.244	0.100
22.900	12.905	0.100
23.000	1.749	0.100
23.100	-10.452	0.100
23.200	3.404	0.100
23.300	1.052	0.100
23.400	-9.589	0.100
23.500	-3.562	0.100
23.600	1.883	0.100
23.700	-10.616	0.100
23.800	2.113	0.100
23.900	-0.138	0.100
24.000	0.493	0.100
24.100	-12.616	0.100
24.200	-3.076	0.100
24.300	2.226	0.100
24.400	-7.855	0.100
24.500	-7.472	0.100
24.600	-12.799	0.100
24.700	1.432	0.100
24.800	-11.160	0.100
24.900	14.977	0.100
25.000	-11.533	0.100
25.100	11.400	0.100
25.200	-7.891	0.100
25.300	0.995	0.100
25.400	7.349	0.100
25.500	-3.359	0.100
25.600	-15.692	0.100
25.700	-2.170	0.100
25.800	-1.681	0.100
25.900	1.610	0.100
26.000	-10.561	0.100
26.100	-4.094	0.100
26.200	-5.818	0.100
26.300	-18.331	0.100
26.400	-8.224	0.100
26.500	1.914	0.100
26.600	0.553	0.100
26.700	6.444	0.100
26.800	-10.698	0.100
26.900	-3.332	0.100
27.000	-4.798	0.100
27.100	-0.774	0.100
27.200	3.848	0.100
27.300	-18.370	0.100
27.400	-1.709	0.100
27.500	2.097	0.100
27.600	-0.457	0.100
27.700	4.512	0.100
27.800	-0.169	0.100
27.900	-8.833	0.100
28.000	-10.956	0.100
28.100	-5.168	0.100
28.200	8.155	0.100
28.300	-4.961	0.100
28.400	-5.266	0.100
28.500	-10.212	0.100
28.600	-0.282	0.100
28.700	-14.953	0.100
28.800	-10.263	0.100
28.900	-13.414	0.100
29.000	4.435	0.100
29.100	3.744	0.100
29.200	1.110	0.100
29.300	-1.979	0.100
29.400	5.766	0.100
29.500	1.671	0.100
29.600	-3.530	0.100
29.700	0.794	0.100
29.800	7.328	0.100
29.900	-2.642	0.100
30.000	-8.856	0.100
30.100	-2.210	0.100
30.200	-3.615	0.100
30.300	-5.136	0.100
30.400	6.006	0.100
30.500	1.691	0.100
30.600	4.171	0.100
30.700	11.534	0.100
30.800	21.311	0.100
30.900	-0.262	0.100
31.000	6.280	0.100
31.100	20.229	0.100
31.200	16.838	0.100
31.300	5.140	0.100
31.400	13.183	0.100
31.500	22.977	0.100
31.600	25.905	0.100
31.700	14.833	0.100
31.800	13.308	0.100
31.900	24.307	0.100
32.000	25.883	0.100
32.100	33.549	0.100
32.200	12.393	0.100
32.300	19.514	0.100
32.400	25.504	0.100
32.500	30.879	0.100
32.600	27.221	0.100
32.700	28.038	0.100
32.800	24.089	0.100
32.900	36.278	0.100
33.000	18.422	0.100
33.100	9.203	0.100
33.200	34.102	0.100
33.300	40.807	0.100
33.400	29.828	0.100
33.500	11.791	0.100
33.600	29.930	0.100
33.700	28.397	0.100
33.800	39.395	0.100
33.900	32.060	0.100
34.000	41.471	0.100
34.100	32.753	0.100
34.200	27.359	0.100
34.300	21.934	0.100
34.400	15.155	0.100
34.500	25.342	0.100
34.600	31.814	0.100
34.700	39.168	0.100
34.800	30.727	0.100
34.900	32.366	0.100
35.000	21.527	0.100
35.100	40.561	0.100
35.200	31.852	0.100
35.300	13.300	0.100
35.400	30.778	0.100
35.500	31.329	0.100
35.600	33.284	0.100
35.700	21.001	0.100
35.800	32.395	0.100
35.900	37.284	0.100
36.000	43.711	0.100
36.100	48.967	0.100
36.200	53.133	0.100
36.300	26.893	0.100
36.400	42.887	0.100
36.500	45.010	0.100
36.600	34.346	0.100
36.700	40.137	0.100
36.800	48.689	0.100
36.900	61.135	0.100
37.000	39.275	0.100
37.100	43.245	0.100
37.200	54.350	0.100
37.300	47.799	0.100
37.400	53.451	0.100
37.500	47.398	0.100
37.600	41.102	0.100
37.700	39.468	0.100
37.800	52.372	0.100
37.900	55.187	0.100
38.000	62.958	0.100
38.100	46.748	0.100
38.200	61.941	0.100
38.300	54.990	0.100
38.400	39.963	0.100
38.500	44.353	0.100
38.600	64.011	0.100
38.700	51.118	0.100
38.800	55.814	0.100
38.900	58.795	0.100
39.000	61.913	0.100
39.100	58.074	0.100
39.200	49.401	0.100
39.300	54.548	0.100
39.400	59.878	0.100
39.500	68.627	0.100
39.600	49.803	0.100
39.700	62.126	0.100
39.800	64.859	0.100
39.900	51.747	0.100
40.000	53.357	0.100
40.100	70.750	0.100
40.200	61.519	0.100
40.300	64.884	0.100
40.400	47.131	0.100
40.500	56.762	0.100
40.600	66.178	0.100
40.700	75.553	0.100
40.800	64.182	0.100
40.900	55.429	0.100
41.000	52.626	0.100
41.100	51.563	0.100
41.200	55.225	0.100
41.300	48.620	0.100
41.400	63.206	0.100
41.500	65.432	0.100
41.600	63.510	0.100
41.700	62.953	0.100
41.800	79.098	0.100
41.900	66.547	0.100
42.000	50.269	0.100
42.100	52.660	0.100
42.200	43.689	0.100
42.300	67.312	0.100
42.400	66.389	0.100
42.500	71.475	0.100
42.600	61.007	0.100
42.700	54.661	0.100
42.800	59.279	0.100
42.900	62.461	0.100
43.000	62.317	0.100
43.100	61.759	0.100
43.200	66.355	0.100
43.300	62.116	0.100
43.400	60.723	0.100
43.500	57.239	0.100
43.600	70.587	0.100
43.700	67.028	0.100
43.800	56.414	0.100
43.900	64.176	0.100
44.000	68.715	0.100
44.100	59.459	0.100
44.200	54.227	0.100
44.300	51.467	0.100
44.400	54.502	0.100
44.500	63.512	0.100
44.600	73.650	0.100
44.700	51.448	0.100
44.800	58.670	0.100
44.900	56.461	0.100
45.000	71.521	0.100
45.100	64.990	0.100
45.200	52.544	0.100
45.300	49.183	0.100
45.400	51.963	0.100
45.500	49.690	0.100
45.600	51.998	0.100
45.700	59.578	0.100
45.800	60.714	0.100
45.900	45.810	0.100
46.000	64.820	0.100
46.100	50.960	0.100
46.200	38.321	0.100
46.300	52.163	0.100
46.400	49.936	0.100
46.500	55.193	0.100
46.600	67.025	0.100
46.700	67.163	0.100
46.800	63.343	0.100
46.900	65.906	0.100
47.000	45.176	0.100
47.100	42.333	0.100
47.200	47.922	0.100
47.300	49.731	0.100
47.400	43.773	0.100
47.500	53.594	0.100
47.600	36.804	0.100
47.700	57.005	0.100
47.800	44.200	0.100
47.900	37.524	0.100
48.000	34.590	0.100
48.100	43.237	0.100
48.200	62.782	0.100
48.300	57.015	0.100
48.400	45.481	0.100
48.500	48.738	0.100
48.600	49.080	0.100
48.700	52.182	0.100
48.800	56.375	0.100
48.900	42.446	0.100
49.000	42.008	0.100
49.100	62.969	0.100
49.200	53.067	0.100
49.300	53.645	0.100
49.400	51.491	0.100
49.500	35.926	0.100
49.600	48.917	0.100
49.700	36.798	0.100
49.800	41.781	0.100
49.900	47.767	0.100
50.000	52.013	0.100
50.100	58.555	0.100
50.200	39.816	0.100
50.300	47.498	0.100
50.400	36.229	0.100
50.500	38.654	0.100
50.600	47.214	0.100
50.700	49.761	0.100
50.800	45.665	0.100
50.900	34.594	0.100
51.000	41.146	0.100
51.100	56.786	0.100
51.200	68.532	0.100
51.300	44.902	0.100
51.400	43.169	0.100
51.500	28.206	0.100
51.600	49.870	0.100
51.700	42.615	0.100
51.800	47.175	0.100
51.900	45.696	0.100
52.000	45.655	0.100
52.100	47.783	0.100
52.200	61.156	0.100
52.300	29.250	0.100
52.400	30.724	0.100
52.500	36.101	0.100
52.600	53.273	0.100
52.700	51.096	0.100
52.800	49.018	0.100
52.900	49.020	0.100
53.000	42.412	0.100
53.100	38.241	0.100
53.200	28.311	0.100
53.300	45.702	0.100
53.400	31.947	0.100
53.500	51.251	0.100
53.600	57.708	0.100
53.700	51.514	0.100
53.800	47.844	0.100
53.900	44.099	0.100
54.000	44.262	0.100
54.100	43.891	0.100
54.200	42.546	0.100
54.300	32.246	0.100
54.400	45.055	0.100
54.500	62.648	0.100
54.600	35.186	0.100
54.700	51.665	0.100
54.800	49.722	0.100
54.900	32.416	0.100
55.000	40.244	0.100
55.100	56.622	0.100
55.200	46.407	0.100
55.300	13.514	0.100
55.400	37.348	0.100
55.500	47.918	0.100
55.600	49.665	0.100
55.700	55.345	0.100
55.800	44.883	0.100
55.900	56.844	0.100
56.000	37.277	0.100
56.100	25.595	0.100
56.200	39.927	0.100
56.300	45.751	0.100
56.400	38.462	0.100
56.500	48.406	0.100
56.600	44.400	0.100
56.700	48.069	0.100
56.800	48.077	0.100
56.900	44.990	0.100
57.000	36.964	0.100
57.100	52.278	0.100
57.200	49.321	0.100
57.300	36.504	0.100
57.400	46.189	0.100
57.500	35.693	0.100
57.600	34.276	0.100
57.700	54.938	0.100
57.800	40.533	0.100
57.900	40.927	0.100
58.000	51.528	0.100
58.100	42.496	0.100
58.200	54.777	0.100
58.300	47.375	0.100
58.400	35.967	0.100
58.500	67.420	0.100
58.600	43.572	0.100
58.700	39.191	0.100
58.800	38.014	0.100
58.900	41.227	0.100
59.000	47.434	0.100
59.100	38.853	0.100
59.200	57.879	0.100
59.300	57.179	0.100
59.400	42.816	0.100
59.500	54.644	0.100
59.600	45.982	0.100
59.700	45.560	0.100
59.800	48.596	0.100
59.900	44.582	0.100
60.000	36.735	0.100
60.100	32.604	0.100
60.200	35.875	0.100
60.300	55.879	0.100
60.400	57.598	0.100
60.500	35.820	0.100
60.600	39.245	0.100
60.700	37.234	0.100
60.800	27.502	0.100
60.900	16.916	0.100
61.000	30.939	0.100
61.100	35.433	0.100
61.200	22.773	0.100
61.300	19.056	0.100
61.400	29.894	0.100
61.500	17.947	0.100
61.600	26.124	0.100
61.700	26.255	0.100
61.800	27.062	0.100
61.900	17.143	0.100
62.000	24.934	0.100
62.100	8.002	0.100
62.200	10.554	0.100
62.300	7.539	0.100
62.400	9.082	0.100
62.500	17.855	0.100
62.600	9.951	0.100
62.700	22.089	0.100
62.800	5.629	0.100
62.900	15.373	0.100
63.000	10.313	0.100
63.100	15.542	0.100
63.200	-1.219	0.100
63.300	0.357	0.100
63.400	2.853	0.100
63.500	-1.272	0.100
63.600	5.132	0.100
63.700	6.880	0.100
63.800	0.682	0.100
63.900	0.815	0.100
64.000	-9.427	0.100
64.100	-10.356	0.100
64.200	3.563	0.100
64.300	-16.844	0.100
64.400	-11.899	0.100
64.500	-0.971	0.100
64.600	-9.597	0.100
64.700	-4.414	0.100
64.800	-11.703	0.100
64.900	-18.202	0.100
65.000	-10.655	0.100
65.100	-6.420	0.100
65.200	-7.564	0.100
65.300	-0.022	0.100
65.400	-16.008	0.100
65.500	-15.985	0.100
65.600	-24.125	0.100
65.700	-15.978	0.100
65.800	-14.466	0.100
65.900	-9.578	0.100
66.000	-22.036	0.100
66.100	-1.297	0.100
66.200	-19.694	0.100
66.300	-29.216	0.100
66.400	-18.586	0.100
66.500	-29.508	0.100
66.600	-29.220	0.100
66.700	-23.946	0.100
66.800	-18.531	0.100
66.900	-23.521	0.100
67.000	-6.928	0.100
67.100	-18.995	0.100
67.200	-3.308	0.100
67.300	-13.982	0.100
67.400	-13.361	0.100
67.500	-17.801	0.100
67.600	-26.867	0.100
67.700	-16.885	0.100
67.800	-14.248	0.100
67.900	-21.395	0.100
68.000	-14.474	0.100
68.100	-15.457	0.100
68.200	-18.998	0.100
68.300	-13.614	0.100
68.400	-22.312	0.100
68.500	-29.684	0.100
68.600	-10.676	0.100
68.700	-20.550	0.100
68.800	-23.630	0.100
68.900	-28.703	0.100
69.000	-12.694	0.100
69.100	-30.072	0.100
69.200	-17.647	0.100
69.300	-12.370	0.100
69.400	-18.199	0.100
69.500	-17.847	0.100
69.600	-24.317	0.100
69.700	-27.491	0.100
69.800	-13.886	0.100
69.900	-23.556	0.100
70.000	-8.757	0.100
70.100	-11.626	0.100
70.200	-30.354	0.100
70.300	-15.100	0.100
70.400	-7.812	0.100
70.500	-12.756	0.100
70.600	-22.102	0.100
70.700	-12.431	0.100
70.800	-13.151	0.100
70.900	-4.757	0.100
71.000	-9.663	0.100
71.100	-13.647	0.100
71.200	-15.020	0.100
71.300	-3.085	0.100
71.400	-7.162	0.100
71.500	-12.027	0.100
71.600	-12.786	0.100
71.700	-20.266	0.100
71.800	-16.293	0.100
71.900	-11.119	0.100
72.000	-13.740	0.100
72.100	-12.935	0.100
72.200	-14.320	0.100
72.300	-13.373	0.100
72.400	-15.564	0.100
72.500	-7.968	0.100
72.600	1.638	0.100
72.700	-5.113	0.100
72.800	-13.748	0.100
72.900	-1.559	0.100
73.000	2.586	0.100
73.100	-3.099	0.100
73.200	-24.457	0.100
73.300	-20.287	0.100
73.400	-10.986	0.100
73.500	-8.861	0.100
73.600	-8.533	0.100
73.700	-3.812	0.100
73.800	-8.688	0.100
73.900	8.581	0.100
74.000	-1.615	0.100
74.100	5.178	0.100
74.200	-2.634	0.100
74.300	-18.540	0.100
74.400	-17.684	0.100
74.500	4.268	0.100
74.600	-7.144	0.100
74.700	-19.719	0.100
74.800	6.271	0.100
74.900	13.070	0.100
75.000	-18.008	0.100
75.100	-14.499	0.100
75.200	-22.126	0.100
75.300	-7.931	0.100
75.400	-1.215	0.100
75.500	-3.715	0.100
75.600	-15.902	0.100
75.700	-3.163	0.100
75.800	-11.727	0.100
75.900	0.300	0.100
76.000	-0.988	0.100
76.100	-10.760	0.100
76.200	-16.422	0.100
76.300	-2.582	0.100
76.400	-1.531	0.100
76.500	-12.835	0.100
76.600	4.419	0.100
76.700	5.306	0.100
76.800	-3.916	0.100
76.900	-4.076	0.100
77.000	-11.338	0.100
77.100	-1.033	0.100
77.200	4.172	0.100
77.300	6.334	0.100
77.400	10.097	0.100
77.500	-11.982	0.100
77.600	-6.716	0.100
77.700	0.988	0.100
77.800	-5.099	0.100
77.900	-10.934	0.100
78.000	-8.514	0.100
78.100	4.684	0.100
78.200	16.647	0.100
78.300	9.835	0.100
78.400	-7.157	0.100
78.500	-2.560	0.100
78.600	-6.711	0.100
78.700	-21.681	0.100
78.800	-5.313	0.100
78.900	-16.778	0.100
79.000	4.688	0.100
79.100	7.740	0.100
79.200	-14.316	0.100
79.300	4.150	0.100
79.400	-6.118	0.100
79.500	11.315	0.100
79.600	-7.691	0.100
79.700	-5.525	0.100
79.800	1.146	0.100
79.900	-18.384	0.100
80.000	-3.169	0.100
80.100	-7.213	0.100
80.200	4.546	0.100
80.300	-11.818	0.100
80.400	-7.789	0.100
80.500	-4.463	0.100
80.600	-0.787	0.100
80.700	-7.377	0.100
80.800	-7.924	0.100
80.900	-12.148	0.100
81.000	-23.027	0.100
81.100	1.667	0.100
81.200	-1.791	0.100
81.300	8.986	0.100
81.400	5.359	0.100
81.500	-5.969	0.100
81.600	2.273	0.100
81.700	-1.164	0.100
81.800	18.333	0.100
81.900	11.115	0.100
82.000	-14.802	0.100
82.100	1.985	0.100
82.200	-1.938	0.100
82.300	0.155	0.100
82.400	-12.946	0.100
82.500	-6.314	0.100
82.600	9.455	0.100
82.700	0.118	0.100
82.800	1.927	0.100
82.900	-6.958	0.100
83.000	-3.974	0.100
83.100	1.833	0.100
83.200	1.175	0.100
83.300	-0.441	0.100
83.400	-10.815	0.100
83.500	1.751	0.100
83.600	0.395	0.100
83.700	0.692	0.100
83.800	-5.584	0.100
83.900	-20.682	0.100
84.000	0.684	0.100
84.100	-2.141	0.100
84.200	-7.481	0.100
84.300	-4.365	0.100
84.400	-5.668	0.100
84.500	-3.688	0.100
84.600	-5.468	0.100
84.700	8.938	0.100
84.800	-24.457	0.100
84.900	3.131	0.100
85.000	5.052	0.100
85.100	-6.068	0.100
85.200	0.802	0.100
85.300	-3.914	0.100
85.400	1.910	0.100
85.500	8.097	0.100
85.600	-22.789	0.100
85.700	-9.659	0.100
85.800	22.649	0.100
85.900	-15.262	0.100
86.000	-2.733	0.100
86.100	16.438	0.100
86.200	1.322	0.100
86.300	4.769	0.100
86.400	-32.001	0.100
86.500	-7.210	0.100
86.600	-2.108	0.100
86.700	0.197	0.100
86.800	-1.769	0.100
86.900	-6.539	0.100
87.000	-4.093	0.100
87.100	6.770	0.100
87.200	-14.680	0.100
87.300	-9.812	0.100
87.400	14.041	0.100
87.500	1.589	0.100
87.600	1.546	0.100
87.700	-11.812	0.100
87.800	-5.695	0.100
87.900	8.816	0.100
88.000	-0.507	0.100
88.100	-2.848	0.100
88.200	-9.332	0.100
88.300	15.185	0.100
88.400	-1.309	0.100
88.500	4.073	0.100
88.600	-6.087	0.100
88.700	-0.435	0.100
88.800	-13.659	0.100
88.900	-11.542	0.100
89.000	1.421	0.100
89.100	2.240	0.100
89.200	-5.670	0.100
89.300	-7.322	0.100
89.400	3.089	0.100
89.500	-11.365	0.100
89.600	-8.538	0.100
89.700	2.144	0.100
89.800	7.876	0.100
89.900	-11.011	0.100
90.000	-2.577	0.100
90.100	-11.251	0.100
90.200	-8.759	0.099
90.300	1.663	0.099
90.400	-2.795	0.099
90.500	-0.030	0.099
90.600	-11.753	0.099
90.700	-6.328	0.099
90.800	0.866	0.099
90.900	-7.857	0.099
91.000	2.561	0.099
91.100	-3.673	0.099
91.200	-1.592	0.099
91.300	-21.436	0.099
91.400	-4.984	0.099
91.500	-4.275	0.099
91.600	-4.320	0.099
91.700	-10.754	0.099
91.800	-8.710	0.099
91.900	-8.105	0.099
92.000	-7.621	0.099
92.100	4.955	0.099
92.200	-8.812	0.099
92.300	8.007	0.099
92.400	-6.442	0.099
92.500	-10.941	0.099
92.600	4.367	0.099
92.700	-1.132	0.099
92.800	-9.498	0.099
92.900	-21.183	0.099
93.000	-6.633	0.099
93.100	-6.617	0.099
93.200	-5.417	0.099
93.300	-14.890	0.099
93.400	-5.163	0.099
93.500	1.930	0.099
93.600	-14.723	0.099
93.700	-3.426	0.099
93.800	2.681	0.099
93.900	-2.576	0.099
94.000	-10.549	0.099
94.100	-3.845	0.099
94.200	-3.891	0.099
94.300	-0.168	0.099
94.400	-7.788	0.099
94.500	-13.496	0.099
94.600	-14.501	0.099
94.700	-5.801	0.099
94.800	-6.416	0.099
94.900	-5.953	0.099
95.000	0.340	0.099
95.100	3.791	0.099
95.200	-9.233	0.099
95.300	-9.182	0.099
95.400	-6.629	0.099
95.500	-17.645	0.099
95.600	3.459	0.099
95.700	5.646	0.099
95.800	-20.278	0.099
95.900	-9.029	0.099
96.000	3.147	0.099
96.100	-14.735	0.099
96.200	-6.702	0.099
96.300	-17.071	0.099
96.400	-8.398	0.099
96.500	-1.572	0.099
96.600	-0.408	0.099
96.700	-20.820	0.099
96.800	-8.535	0.099
96.900	-3.238	0.099
97.000	-6.136	0.099
97.100	-11.794	0.099
97.200	0.917	0.099
97.300	-5.563	0.099
97.400	-9.674	0.099
97.500	5.155	0.099
97.600	-0.113	0.099
97.700	-5.414	0.099
97.800	-9.598	0.099
97.900	-30.999	0.099
98.000	-9.001	0.099
98.100	-11.194	0.099
98.200	-5.031	0.099
98.300	-2.604	0.099
98.400	-2.251	0.099
98.500	-23.275	0.099
98.600	-0.621	0.099
98.700	2.710	0.099
98.800	-16.482	0.099
98.900	-8.254	0.099
99.000	-2.037	0.099
99.100	-10.455	0.099
99.200	-14.244	0.099
99.300	-12.356	0.099
99.400	-6.511	0.099
99.500	-23.342	0.099
99.600	-9.989	0.099
99.700	-0.995	0.099
99.800	-9.297	0.099
99.900	-2.932	0.099
100.000	6.407	0.099
100.100	-10.556	0.099
100.200	-2.304	0.099
100.300	7.578	0.099
100.400	-16.050	0.099
100.500	-0.431	0.099
100.600	-4.825	0.099
100.700	-8.315	0.099
100.800	0.280	0.099
100.900	-9.467	0.099
101.000	-6.348	0.099
101.100	-23.331	0.099
101.200	-21.654	0.099
101.300	-9.435	0.099
101.400	-1.018	0.099
101.500	-11.779	0.099
101.600	-1.955	0.099
101.700	-7.197	0.099
101.800	-13.456	0.099
101.900	-15.843	0.099
102.000	-19.066	0.099
102.100	-11.708	0.099
102.200	-2.236	0.099
102.300	-29.185	0.099
102.400	-5.825	0.099
102.500	-11.314	0.099
102.600	-13.365	0.099
102.700	-7.268	0.099
102.800	0.518	0.099
102.900	-3.436	0.099
103.000	-1.566	0.099
103.100	-7.049	0.099
103.200	-21.764	0.099
103.300	-14.729	0.099
103.400	1.954	0.099
103.500	-9.412	0.099
103.600	-9.847	0.099
103.700	-12.801	0.099
103.800	-6.715	0.099
103.900	-4.404	0.099
104.000	-8.988	0.099
104.100	-9.186	0.099
104.200	0.771	0.099
104.300	-21.403	0.099
104.400	-12.210	0.099
104.500	-15.892	0.099
104.600	-2.822	0.099
104.700	-16.817	0.099
104.800	6.104	0.099
104.900	-2.445	0.099
105.000	-9.623	0.099
105.100	-1.541	0.099
105.200	-17.361	0.099
105.300	-21.789	0.099
105.400	-5.701	0.099
105.500	-13.855	0.099
105.600	-19.858	0.099
105.700	-5.568	0.099
105.800	-10.742	0.099
105.900	-5.862	0.099
106.000	-21.904	0.099
106.100	-1.471	0.099
106.200	-5.122	0.099
106.300	-0.593	0.099
106.400	-3.296	0.099
106.500	0.871	0.099
106.600	-8.644	0.099
106.700	-10.789	0.099
106.800	-11.388	0.099
106.900	-14.784	0.099
107.000	-21.989	0.099
107.100	-4.794	0.099
107.200	-6.058	0.099
107.300	10.575	0.099
107.400	-11.289	0.100
107.500	-10.866	0.100
107.600	-11.109	0.100
107.700	-19.224	0.099
107.800	-12.228	0.100
107.900	-8.553	0.100
108.000	-8.179	0.100
108.100	-5.131	0.100
108.200	-11.967	0.100
108.300	-21.416	0.100
108.400	-19.984	0.100
108.500	-6.448	0.100
108.600	5.245	0.100
108.700	-0.142	0.099
108.800	4.054	0.100
108.900	-18.379	0.099
109.000	-12.434	0.100
109.100	-12.403	0.099
109.200	-4.574	0.099
109.300	-2.936	0.099
109.400	-7.209	0.099
109.500	-13.941	0.100
109.600	-12.273	0.100
109.700	-9.307	0.100
109.800	-6.678	0.099
109.900	-15.039	0.100
110.000	-15.565	0.100
110.100	1.420	0.100
110.200	-14.137	0.100
110.300	4.758	0.100
110.400	5.561	0.100
110.500	-8.536	0.100
110.600	-19.907	0.100
110.700	-20.015	0.100
110.800	-18.455	0.100
110.900	2.501	0.100
111.000	-12.783	0.100
111.100	-10.455	0.100
111.200	-14.024	0.100
111.300	11.249	0.100
111.400	-15.358	0.100
111.500	6.066	0.100
111.600	5.070	0.100
111.700	-7.792	0.100
111.800	-4.421	0.100
111.900	-19.124	0.100
112.000	-8.039	0.100
112.100	-9.339	0.100
112.200	-12.879	0.100
112.300	-8.343	0.100
112.400	0.217	0.100
112.500	-18.036	0.100
112.600	-15.888	0.100
112.700	3.687	0.100
112.800	-10.841	0.100
112.900	-6.158	0.100
113.000	-1.668	0.100
113.100	8.042	0.100
113.200	-20.120	0.100
113.300	-10.155	0.100
113.400	-4.143	0.100
113.500	-0.534	0.100
113.600	-23.607	0.100
113.700	3.768	0.100
113.800	-7.284	0.100
113.900	-19.981	0.100
114.000	-15.679	0.100
114.100	-14.455	0.100
114.200	-3.556	0.100
114.300	-7.497	0.100
114.400	-4.752	0.100
114.500	-7.774	0.100
114.600	-22.321	0.100
114.700	-9.519	0.100
114.800	-13.664	0.100
114.900	0.737	0.100
115.000	-15.281	0.100
115.100	-13.089	0.100
115.200	-2.502	0.100
115.300	-21.636	0.100
115.400	-14.014	0.100
115.500	10.937	0.100
115.600	13.034	0.100
115.700	-12.606	0.100
115.800	2.514	0.100
115.900	-15.303	0.100
116.000	-7.434	0.100
116.100	-20.757	0.100
116.200	-11.821	0.100
116.300	2.875	0.100
116.400	-14.299	0.100
116.500	-10.947	0.100
116.600	-4.875	0.100
116.700	-10.684	0.100
116.800	-8.654	0.100
116.900	-13.966	0.100
117.000	-8.198	0.100
117.100	-12.481	0.100
117.200	-6.925	0.100
117.300	1.840	0.100
117.400	-1.753	0.100
117.500	-6.091	0.100
117.600	-0.053	0.100
117.700	-0.127	0.100
117.800	-19.341	0.100
117.900	-11.431	0.100
118.000	-2.464	0.100
118.100	-17.358	0.100
118.200	-9.681	0.100
118.300	-8.659	0.100
118.400	-8.504	0.100
118.500	-1.016	0.100
118.600	6.527	0.100
118.700	-15.246	0.100
118.800	-16.571	0.100
118.900	4.940	0.100
119.000	-6.666	0.100
119.100	-22.145	0.100
119.200	-10.501	0.100
119.300	-4.684	0.100
119.400	-16.226	0.100
119.500	-12.216	0.100
119.600	-13.801	0.100
119.700	-9.872	0.100
119.800	18.829	0.100
119.900	-8.622	0.100
120.000	-9.324	0.100
120.100	-4.462	0.100
120.200	-18.515	0.100
120.300	-9.684	0.100
120.400	-0.201	0.100
120.500	-13.470	0.100
120.600	4.414	0.100
120.700	-10.659	0.100
120.800	-1.058	0.100
120.900	-6.168	0.100
121.000	-11.377	0.100
121.100	-4.947	0.100
121.200	-5.558	0.100
121.300	-14.551	0.100
121.400	0.935	0.100
121.500	8.304	0.100
121.600	-10.930	0.100
121.700	-0.969	0.100
121.800	-6.408	0.100
121.900	-25.658	0.100
122.000	-10.034	0.100
122.100	-19.186	0.100
122.200	-17.893	0.100
122.300	-13.019	0.100
122.400	-16.678	0.100
122.500	-10.289	0.100
122.600	0.801	0.100
122.700	-1.516	0.100
122.800	-10.796	0.100
122.900	-8.601	0.100
123.000	-13.322	0.100
123.100	0.067	0.100
123.200	5.987	0.100
123.300	-7.007	0.100
123.400	-9.043	0.100
123.500	-12.239	0.100
123.600	2.690	0.100
123.700	-12.174	0.100
123.800	-7.650	0.100
123.900	-0.850	0.100
124.000	-18.301	0.100
124.100	1.677	0.100
124.200	-17.767	0.100
124.300	-7.290	0.100
124.400	-0.087	0.100
124.500	-3.277	0.100
124.600	-13.917	0.100
124.700	-9.026	0.100
124.800	-1.730	0.100
124.900	-6.904	0.100
125.000	-10.848	0.100
125.100	-14.573	0.100
125.200	-12.766	0.100
125.300	-17.682	0.100
125.400	-1.389	0.100
125.500	1.956	0.100
125.600	-8.232	0.100
125.700	-7.650	0.100
125.800	-9.761	0.100
125.900	1.674	0.100
126.000	-14.506	0.100
126.100	-3.243	0.100
126.200	6.698	0.100
126.300	4.480	0.100
126.400	-7.449	0.100
126.500	-16.570	0.100
126.600	-9.795	0.100
126.700	-14.531	0.100
126.800	-6.243	0.100
126.900	2.907	0.100
127.000	-8.890	0.100
127.100	-9.616	0.100
127.200	2.357	0.100
127.300	-12.395	0.100
127.400	0.921	0.100
127.500	-20.510	0.100
127.600	-2.123	0.100
127.700	-6.528	0.100
127.800	-2.315	0.100
127.900	-11.677	0.100
128.000	-13.650	0.100
128.100	-5.280	0.100
128.200	-24.994	0.100
128.300	1.535	0.100
128.400	-7.778	0.100
128.500	-5.980	0.100
128.600	-2.924	0.100
128.700	3.007	0.100
128.800	-1.398	0.100
128.900	-11.489	0.100
129.000	-4.252	0.100
129.100	-14.180	0.100
129.200	-12.440	0.100
129.300	-19.172	0.100
129.400	-9.376	0.100
129.500	1.480	0.100
129.600	-2.049	0.100
129.700	-8.254	0.100
129.800	-6.643	0.100
129.900	-13.207	0.100
130.000	-16.124	0.100
130.100	-1.640	0.100
130.200	-0.087	0.100
130.300	8.791	0.100
130.400	-6.208	0.100
130.500	-15.764	0.100
130.600	-11.560	0.100
130.700	-15.331	0.100
130.800	7.482	0.100
130.900	-4.705	0.100
131.000	-6.796	0.100
131.100	0.856	0.100
131.200	-4.662	0.100
131.300	-9.271	0.100
131.400	-2.932	0.100
131.500	-10.549	0.100
131.600	-6.430	0.100
131.700	-7.363	0.100
131.800	-14.178	0.100
131.900	-9.260	0.100
132.000	0.410	0.100
132.100	2.337	0.100
132.200	2.178	0.100
132.300	-10.342	0.100
132.400	-3.337	0.100
132.500	-22.406	0.100
132.600	-16.700	0.100
132.700	0.035	0.100
132.800	5.025	0.100
132.900	-3.673	0.100
133.000	5.918	0.100
133.100	-14.715	0.100
133.200	-2.832	0.100
133.300	13.424	0.100
133.400	-10.974	0.100
133.500	-25.149	0.100
133.600	9.914	0.100
133.700	9.195	0.100
133.800	8.418	0.100
133.900	4.330	0.100
134.000	0.130	0.100
134.100	-9.960	0.100
134.200	-1.018	0.100
134.300	-8.923	0.100
134.400	-14.430	0.100
134.500	-10.515	0.100
134.600	-14.674	0.100
134.700	-3.280	0.100
134.800	-10.403	0.100
134.900	-16.800	0.100
135.000	-11.125	0.100
135.100	0.033	0.100
135.200	-5.065	0.100
135.300	-9.115	0.100
135.400	4.160	0.100
135.500	-7.417	0.100
135.600	-11.975	0.100
135.700	-4.140	0.100
135.800	-5.243	0.100
135.900	2.640	0.100
136.000	-12.411	0.100
136.100	-11.216	0.100
136.200	-19.723	0.100
136.300	-13.922	0.100
136.400	-13.054	0.100
136.500	-14.124	0.100
136.600	3.522	0.100
136.700	-12.936	0.100
136.800	-14.015	0.100
136.900	0.051	0.100
137.000	-11.421	0.100
137.100	-4.690	0.100
137.200	1.099	0.100
137.300	-8.931	0.100
137.400	0.376	0.100
137.500	-8.840	0.100
137.600	-8.046	0.100
137.700	-16.219	0.100
137.800	0.972	0.100
137.900	-3.210	0.100
138.000	4.523	0.100
138.100	-19.199	0.100
138.200	-20.978	0.100
138.300	-11.995	0.100
138.400	-6.667	0.100
138.500	-1.236	0.100
138.600	3.270	0.100
138.700	12.189	0.100
138.800	-11.651	0.100
138.900	-13.701	0.100
139.000	-20.355	0.100
139.100	0.487	0.100
139.200	-6.402	0.100
139.300	-1.464	0.100
139.400	-0.317	0.100
139.500	6.598	0.100
139.600	-5.903	0.100
139.700	-7.003	0.100
139.800	-2.392	0.100
139.900	0.799	0.100
140.000	-16.347	0.100
140.100	-6.955	0.100
140.200	-14.803	0.100
140.300	-7.182	0.100
140.400	-20.029	0.100
140.500	-8.052	0.100
140.600	0.433	0.100
140.700	-3.481	0.100
140.800	-6.147	0.100
140.900	-10.004	0.100
141.000	-2.096	0.100
141.100	-16.813	0.100
141.200	1.897	0.100
141.300	-2.450	0.100
141.400	-3.084	0.100
141.500	-6.392	0.100
141.600	0.765	0.100
141.700	-15.657	0.100
141.800	-8.185	0.100
141.900	-12.692	0.100
142.000	15.318	0.100
142.100	11.351	0.100
142.200	-1.388	0.100
142.300	-14.015	0.100
142.400	-11.504	0.100
142.500	-8.013	0.100
142.600	-1.774	0.100
142.700	6.947	0.100
142.800	-1.128	0.100
142.900	-11.536	0.100
143.000	-3.053	0.100
143.100	-16.640	0.100
143.200	-17.458	0.100
143.300	-11.835	0.100
143.400	-4.652	0.100
143.500	-9.270	0.100
143.600	-1.798	0.100
143.700	-0.843	0.100
143.800	2.332	0.100
143.900	-0.723	0.100
144.000	3.892	0.100
144.100	-6.390	0.100
144.200	-0.491	0.100
144.300	-9.044	0.100
144.400	-4.427	0.100
144.500	7.432	0.100
144.600	-14.280	0.100
144.700	-2.553	0.100
144.800	2.588	0.100
144.900	1.219	0.100
145.000	3.535	0.100
145.100	-5.219	0.100
145.200	-3.985	0.100
145.300	-24.984	0.100
145.400	-25.550	0.100
145.500	-6.142	0.100
145.600	12.966	0.100
145.700	8.794	0.100
145.800	-1.953	0.100
145.900	-3.292	0.100
146.000	-25.490	0.100
146.100	-3.723	0.100
146.200	-4.553	0.100
146.300	0.471	0.100
146.400	-13.085	0.100
146.500	-4.773	0.100
146.600	3.144	0.100
146.700	-6.633	0.100
146.800	-15.615	0.100
146.900	-13.628	0.100
147.000	3.569	0.100
147.100	-2.905	0.100
147.200	-3.531	0.100
147.300	-1.454	0.100
147.400	-14.503	0.100
147.500	-5.061	0.100
147.600	-13.167	0.100
147.700	-10.855	0.100
147.800	-21.671	0.100
147.900	-2.874	0.100
148.000	1.391	0.100
148.100	-3.338	0.100
148.200	-12.778	0.100
148.300	-3.847	0.100
148.400	-1.803	0.100
148.500	-10.429	0.100
148.600	-18.451	0.100
148.700	-7.763	0.100
148.800	-7.878	0.100
148.900	11.736	0.100
149.000	2.081	0.100
149.100	-11.262	0.100
149.200	-16.538	0.100
149.300	-1.072	0.100
149.400	-16.033	0.100
149.500	-10.542	0.100
149.600	6.856	0.100
149.700	-3.701	0.100
149.800	-4.909	0.100
149.900	-6.864	0.100
150.000	-0.275	0.100
150.100	2.464	0.100
150.200	-7.939	0.100
150.300	-8.103	0.100
150.400	-2.648	0.100
150.500	-0.200	0.100
150.600	4.852	0.100
150.700	9.226	0.100
150.800	10.361	0.100
150.900	8.252	0.100
151.000	16.103	0.100
151.100	-0.200	0.100
151.200	18.531	0.100
151.300	12.794	0.100
151.400	27.479	0.100
151.500	30.451	0.100
151.600	32.956	0.100
151.700	25.311	0.100
151.800	8.828	0.100
151.900	12.758	0.100
152.000	30.828	0.100
152.100	11.897	0.100
152.200	23.923	0.100
152.300	14.789	0.100
152.400	34.262	0.100
152.500	35.877	0.100
152.600	29.308	0.100
152.700	27.731	0.100
152.800	33.916	0.100
152.900	30.201	0.100
153.000	31.531	0.100
153.100	24.786	0.100
153.200	24.599	0.100
153.300	41.210	0.100
153.400	30.810	0.100
153.500	27.773	0.100
153.600	21.952	0.100
153.700	16.730	0.100
153.800	28.525	0.100
153.900	28.631	0.100
154.000	28.654	0.100
154.100	29.176	0.100
154.200	12.094	0.100
154.300	27.353	0.100
154.400	17.764	0.100
154.500	22.234	0.100
154.600	36.434	0.100
154.700	35.183	0.100
154.800	26.001	0.100
154.900	18.595	0.100
155.000	21.857	0.100
155.100	23.766	0.100
155.200	22.674	0.100
155.300	30.515	0.100
155.400	30.290	0.100
155.500	35.964	0.100
155.600	30.763	0.100
155.700	29.573	0.100
155.800	31.932	0.100
155.900	17.615	0.100
156.000	15.371	0.100
156.100	19.741	0.100
156.200	21.249	0.100
156.300	23.832	0.100
156.400	26.085	0.100
156.500	35.123	0.100
156.600	32.887	0.100
156.700	34.865	0.100
156.800	8.915	0.100
156.900	2.925	0.100
157.000	10.381	0.100
157.100	37.163	0.100
157.200	53.832	0.100
157.300	33.363	0.100
157.400	30.557	0.100
157.500	32.889	0.100
157.600	24.404	0.100
157.700	33.826	0.100
157.800	30.278	0.100
157.900	31.581	0.100
158.000	25.624	0.100
158.100	38.130	0.100
158.200	38.654	0.100
158.300	43.436	0.100
158.400	47.939	0.100
158.500	39.635	0.100
158.600	39.512	0.100
158.700	43.754	0.100
158.800	37.057	0.100
158.900	37.739	0.100
159.000	24.561	0.100
159.100	44.945	0.100
159.200	27.393	0.100
159.300	45.858	0.100
159.400	40.020	0.100
159.500	41.696	0.100
159.600	54.167	0.100
159.700	44.166	0.100
159.800	37.227	0.100
159.900	30.681	0.100
160.000	58.051	0.100
160.100	56.489	0.100
160.200	51.593	0.100
160.300	47.228	0.100
160.400	37.055	0.100
160.500	44.729	0.100
160.600	58.118	0.100
160.700	39.282	0.100
160.800	55.533	0.100
160.900	54.824	0.100
161.000	47.729	0.100
161.100	55.352	0.100
161.200	55.744	0.100
161.300	51.489	0.100
161.400	46.724	0.100
161.500	43.478	0.100
161.600	57.375	0.100
161.700	52.712	0.100
161.800	52.243	0.100
161.900	61.668	0.100
162.000	54.773	0.100
162.100	55.924	0.100
162.200	51.583	0.100
162.300	48.677	0.100
162.400	55.441	0.100
162.500	63.363	0.100
162.600	69.707	0.100
162.700	52.656	0.100
162.800	46.578	0.100
162.900	55.723	0.100
163.000	68.612	0.100
163.100	68.642	0.100
163.200	47.919	0.100
163.300	62.340	0.100
163.400	58.028	0.100
163.500	63.796	0.100
163.600	73.532	0.100
163.700	71.621	0.100
163.800	73.569	0.100
163.900	73.143	0.100
164.000	65.722	0.100
164.100	67.323	0.100
164.200	57.225	0.100
164.300	46.044	0.100
164.400	59.934	0.100
164.500	59.461	0.100
164.600	50.221	0.100
164.700	72.752	0.100
164.800	76.559	0.100
164.900	63.977	0.100
165.000	72.173	0.100
165.100	76.828	0.100
165.200	71.022	0.100
165.300	67.230	0.100
165.400	65.845	0.100
165.500	60.257	0.100
165.600	75.621	0.100
165.700	79.213	0.100
165.800	68.820	0.100
165.900	63.426	0.100
166.000	59.826	0.100
166.100	69.892	0.100
166.200	69.491	0.100
166.300	62.458	0.100
166.400	48.545	0.100
166.500	57.737	0.100
166.600	65.396	0.100
166.700	86.698	0.100
166.800	68.298	0.100
166.900	61.842	0.100
167.000	77.541	0.100
167.100	78.239	0.100
167.200	57.964	0.100
167.300	67.712	0.100
167.400	61.872	0.100
167.500	70.565	0.100
167.600	69.234	0.100
167.700	63.922	0.100
167.800	60.982	0.100
167.900	74.794	0.100
168.000	62.793	0.100
168.100	69.707	0.100
168.200	71.276	0.100
168.300	87.768	0.100
168.400	82.067	0.100
168.500	71.781	0.100
168.600	69.460	0.100
168.700	62.580	0.100
168.800	68.666	0.100
168.900	64.988	0.100
169.000	86.053	0.100
169.100	72.073	0.100
169.200	51.879	0.100
169.300	86.748	0.100
169.400	68.652	0.100
169.500	65.384	0.100
169.600	58.441	0.100
169.700	63.424	0.100
169.800	61.319	0.100
169.900	59.173	0.100
170.000	70.576	0.100
170.100	52.968	0.100
170.200	85.433	0.100
170.300	76.966	0.100
170.400	70.695	0.100
170.500	62.218	0.100
170.600	74.113	0.100
170.700	53.732	0.100
170.800	63.466	0.100
170.900	65.005	0.100
171.000	77.273	0.100
171.100	58.354	0.100
171.200	68.358	0.100
171.300	78.871	0.100
171.400	69.327	0.100
171.500	82.890	0.100
171.600	78.171	0.100
171.700	63.671	0.100
171.800	76.204	0.100
171.900	67.156	0.100
172.000	68.587	0.100
172.100	69.947	0.100
172.200	72.099	0.100
172.300	61.124	0.100
172.400	69.830	0.100
172.500	65.863	0.100
172.600	72.163	0.100
172.700	70.223	0.100
172.800	81.019	0.100
172.900	61.919	0.100
173.000	67.131	0.100
173.100	64.217	0.100
173.200	75.188	0.100
173.300	69.415	0.100
173.400	69.435	0.100
173.500	65.765	0.100
173.600	48.654	0.100
173.700	72.720	0.100
173.800	71.418	0.100
173.900	64.601	0.100
174.000	69.354	0.100
174.100	77.716	0.100
174.200	81.406	0.100
174.300	77.428	0.100
174.400	66.068	0.100
174.500	60.144	0.100
174.600	50.104	0.100
174.700	56.625	0.100
174.800	73.562	0.100
174.900	87.325	0.100
175.000	77.472	0.100
175.100	58.612	0.100
175.200	60.831	0.100
175.300	65.122	0.100
175.400	71.416	0.100
175.500	59.640	0.100
175.600	75.501	0.100
175.700	80.775	0.100
175.800	73.111	0.100
175.900	73.601	0.100
176.000	59.246	0.100
176.100	61.101	0.100
176.200	62.644	0.100
176.300	73.303	0.100
176.400	73.082	0.100
176.500	67.549	0.100
176.600	70.374	0.100
176.700	58.307	0.100
176.800	57.009	0.100
176.900	81.650	0.100
177.000	67.523	0.100
177.100	67.788	0.100
177.200	64.038	0.100
177.300	73.821	0.100
177.400	68.761	0.100
177.500	74.918	0.100
177.600	58.001	0.100
177.700	71.892	0.100
177.800	73.266	0.100
177.900	61.140	0.100
178.000	70.977	0.100
178.100	72.153	0.100
178.200	74.762	0.100
178.300	74.803	0.100
178.400	57.762	0.100
178.500	53.068	0.100
178.600	71.666	0.100
178.700	60.284	0.100
178.800	67.112	0.100
178.900	72.714	0.100
179.000	63.034	0.100
179.100	59.491	0.100
179.200	58.695	0.100
179.300	59.441	0.100
179.400	75.849	0.100
179.500	62.268	0.100
179.600	73.805	0.100
179.700	60.214	0.100
179.800	73.955	0.100
179.900	69.204	0.100
180.000	53.832	0.100
180.100	77.326	0.100
180.200	47.006	0.100
180.300	54.234	0.100
180.400	70.386	0.100
180.500	63.287	0.100
180.600	61.149	0.100
180.700	59.606	0.100
180.800	61.601	0.100
180.900	50.654	0.100
181.000	64.969	0.100
181.100	62.091	0.100
181.200	59.328	0.100
181.300	34.493	0.100
181.400	43.778	0.100
181.500	51.593	0.100
181.600	34.503	0.100
181.700	38.897	0.100
181.800	45.373	0.100
181.900	29.339	0.100
182.000	42.995	0.100
182.100	53.551	0.100
182.200	44.284	0.100
182.300	19.867	0.100
182.400	30.735	0.100
182.500	32.795	0.100
182.600	34.649	0.100
182.700	38.129	0.100
182.800	18.991	0.100
182.900	30.745	0.100
183.000	27.798	0.100
183.100	33.555	0.100
183.200	26.922	0.100
183.300	23.323	0.100
183.400	21.731	0.100
183.500	20.858	0.100
183.600	31.718	0.100
183.700	27.297	0.100
183.800	17.209	0.100
183.900	9.804	0.100
184.000	15.001	0.100
184.100	1.650	0.100
184.200	16.285	0.100
184.300	30.728	0.100
184.400	10.631	0.100
184.500	24.456	0.100
184.600	15.178	0.100
184.700	7.182	0.100
184.800	3.522	0.100
184.900	15.524	0.100
185.000	12.212	0.100
185.100	11.651	0.100
185.200	-1.531	0.100
185.300	-4.580	0.100
185.400	1.836	0.100
185.500	13.930	0.100
185.600	2.083	0.100
185.700	7.381	0.100
185.800	11.194	0.100
185.900	12.943	0.100
186.000	-1.718	0.100
186.100	4.677	0.100
186.200	4.341	0.100
186.300	8.758	0.100
186.400	6.532	0.100
186.500	12.488	0.100
186.600	0.451	0.100
186.700	2.922	0.100
186.800	0.621	0.100
186.900	-1.025	0.100
187.000	6.899	0.100
187.100	6.345	0.100
187.200	9.008	0.100
187.300	-7.396	0.100
187.400	5.825	0.100
187.500	3.507	0.100
187.600	11.955	0.100
187.700	2.937	0.100
187.800	5.003	0.100
187.900	4.137	0.100
188.000	14.320	0.100
188.100	7.841	0.100
188.200	10.674	0.100
188.300	1.240	0.100
188.400	-3.544	0.100
188.500	13.260	0.100
188.600	8.939	0.100
188.700	10.794	0.100
188.800	-5.457	0.100
188.900	-6.656	0.100
189.000	-0.543	0.100
189.100	-5.024	0.100
189.200	-1.382	0.100
189.300	3.578	0.100
189.400	17.983	0.100
189.500	2.197	0.100
189.600	-18.456	0.100
189.700	-7.950	0.100
189.800	-0.407	0.100
189.900	-6.738	0.100
190.000	-1.764	0.100
190.100	1.569	0.100
190.200	9.404	0.100
190.300	14.568	0.100
190.400	12.850	0.100
190.500	-1.245	0.100
190.600	1.326	0.100
190.700	-0.685	0.100
190.800	4.327	0.100
190.900	2.961	0.100
191.000	13.313	0.100
191.100	18.919	0.100
191.200	7.156	0.100
191.300	8.913	0.100
191.400	-8.883	0.100
191.500	-7.277	0.100
191.600	-6.379	0.100
191.700	4.785	0.100
191.800	9.729	0.100
191.900	6.181	0.100
192.000	-5.364	0.100
192.100	8.944	0.100
192.200	-0.759	0.100
192.300	-4.319	0.100
192.400	1.016	0.100
192.500	-1.064	0.100
192.600	15.807	0.100
192.700	-8.206	0.100
192.800	15.446	0.100
192.900	0.630	0.100
193.000	6.559	0.100
193.100	1.643	0.100
193.200	0.307	0.100
193.300	10.347	0.100
193.400	8.448	0.100
193.500	11.147	0.100
193.600	7.108	0.100
193.700	1.819	0.100
193.800	4.650	0.100
193.900	-12.843	0.100
194.000	-9.097	0.100
194.100	10.169	0.100
194.200	9.515	0.100
194.300	1.087	0.100
194.400	-2.090	0.100
194.500	15.719	0.100
194.600	5.794	0.100
194.700	8.889	0.100
194.800	1.292	0.100
194.900	1.925	0.100
195.000	12.145	0.100
195.100	7.418	0.100
195.200	5.366	0.100
195.300	-1.873	0.100
195.400	-6.580	0.100
195.500	5.597	0.100
195.600	1.817	0.100
195.700	-9.549	0.100
195.800	4.275	0.100
195.900	2.401	0.100
196.000	-1.826	0.100
196.100	-0.526	0.100
196.200	-7.815	0.100
196.300	1.396	0.100
196.400	16.242	0.100
196.500	-9.008	0.100
196.600	-3.820	0.100
196.700	3.257	0.100
196.800	16.882	0.100
196.900	18.023	0.100
197.000	-8.455	0.100
197.100	-7.463	0.100
197.200	2.935	0.100
197.300	15.273	0.100
197.400	6.143	0.100
197.500	-9.586	0.100
197.600	7.497	0.100
197.700	10.250	0.100
197.800	5.017	0.100
197.900	-2.709	0.100
198.000	-0.776	0.100
198.100	-8.676	0.100
198.200	15.800	0.100
198.300	-10.243	0.100
198.400	4.283	0.100
198.500	0.319	0.100
198.600	8.144	0.100
198.700	0.937	0.100
198.800	-7.486	0.100
198.900	1.714	0.100
199.000	-8.532	0.100
199.100	-5.701	0.100
199.200	12.958	0.100
199.300	-2.251	0.100
199.400	-7.849	0.100
199.500	-0.053	0.100
199.600	1.167	0.100
199.700	3.372	0.100
199.800	-3.574	0.100
199.900	-1.361	0.100
200.000	-6.167	0.100
200.100	6.889	0.100
200.200	6.078	0.100
200.300	5.920	0.100
200.400	-3.749	0.100
200.500	0.121	0.100
200.600	-13.044	0.100
200.700	-4.133	0.100
200.800	11.873	0.100
200.900	7.088	0.100
201.000	-9.426	0.100
201.100	-4.819	0.100
201.200	-4.130	0.100
201.300	-2.067	0.100
201.400	-0.521	0.100
201.500	3.194	0.100
201.600	-7.343	0.100
201.700	-5.367	0.100
201.800	-1.793	0.100
201.900	4.147	0.100
202.000	-11.965	0.100
202.100	-1.957	0.100
202.200	-2.149	0.100
202.300	-12.272	0.100
202.400	-0.293	0.100
202.500	-0.147	0.100
202.600	-7.887	0.100
202.700	2.841	0.100
202.800	8.477	0.100
202.900	14.511	0.100
203.000	-3.660	0.100
203.100	1.385	0.100
203.200	-7.115	0.100
203.300	0.983	0.100
203.400	15.106	0.100
203.500	1.326	0.100
203.600	-0.676	0.100
203.700	-15.717	0.100
203.800	-4.216	0.100
203.900	-1.944	0.100
204.000	-3.431	0.100
204.100	-25.142	0.100
204.200	2.715	0.100
204.300	0.919	0.100
204.400	-3.424	0.100
204.500	-0.517	0.100
204.600	-5.492	0.100
204.700	1.178	0.100
204.800	7.002	0.100
204.900	-5.248	0.100
205.000	0.890	0.100
205.100	-1.275	0.100
205.200	-8.057	0.100
205.300	-3.584	0.100
205.400	-8.826	0.100
205.500	3.908	0.100
205.600	6.499	0.100
205.700	-1.648	0.100
205.800	2.130	0.100
205.900	-10.716	0.100
206.000	8.777	0.100
206.100	4.524	0.100
206.200	-9.344	0.100
206.300	1.739	0.100
206.400	-26.136	0.100
206.500	3.090	0.100
206.600	1.196	0.100
206.700	-5.610	0.100
206.800	3.329	0.100
206.900	-4.555	0.100
207.000	-12.129	0.100
207.100	-14.811	0.100
207.200	3.876	0.100
207.300	4.773	0.100
207.400	-19.717	0.100
207.500	-4.032	0.100
207.600	-7.533	0.100
207.700	-6.552	0.100
207.800	-11.378	0.100
207.900	-0.918	0.100
208.000	-6.397	0.100
208.100	2.330	0.100
208.200	-22.869	0.100
208.300	-4.919	0.100
208.400	-2.462	0.100
208.500	-9.409	0.100
208.600	-11.642	0.100
208.700	4.415	0.100
208.800	7.738	0.100
208.900	-5.557	0.100
209.000	-17.710	0.100
209.100	-6.758	0.100
209.200	5.546	0.100
209.300	-2.386	0.100
209.400	3.534	0.100
209.500	11.171	0.100
209.600	-11.617	0.100
209.700	-19.584	0.100
209.800	-8.582	0.100
209.900	-15.324	0.100
210.000	-14.686	0.100
210.100	4.810	0.100
210.200	-9.038	0.100
210.300	-10.445	0.100
210.400	-9.413	0.100
210.500	3.220	0.100
210.600	-1.319	0.100
210.700	-20.857	0.100
210.800	-10.104	0.100
210.900	-9.708	0.100
211.000	-6.124	0.100
211.100	-4.285	0.100
211.200	-15.553	0.100
211.300	-10.628	0.100
211.400	-13.545	0.100
211.500	-8.388	0.100
211.600	-7.640	0.100
211.700	-12.579	0.100
211.800	-11.232	0.100
211.900	-19.488	0.100
212.000	-4.005	0.100
212.100	-18.327	0.100
212.200	-8.578	0.100
212.300	2.814	0.100
212.400	0.080	0.100
212.500	-9.625	0.100
212.600	-20.237	0.100
212.700	-6.190	0.100
212.800	-12.479	0.100
212.900	-0.868	0.100
213.000	-20.929	0.100
213.100	-7.384	0.100
213.200	-22.365	0.100
213.300	-10.221	0.100
213.400	-1.150	0.100
213.500	-5.084	0.100
213.600	-8.417	0.100
213.700	-5.062	0.100
213.800	-7.797	0.100
213.900	-8.404	0.100
214.000	-5.021	0.100
214.100	-17.122	0.100
214.200	-24.358	0.100
214.300	-11.765	0.100
214.400	-2.738	0.100
214.500	-9.009	0.100
214.600	4.229	0.100
214.700	1.039	0.100
214.800	-14.033	0.100
214.900	-5.720	0.100
215.000	-16.056	0.100
215.100	-6.847	0.100
215.200	-10.830	0.100
215.300	-20.999	0.100
215.400	-9.011	0.100
215.500	2.431	0.100
215.600	-1.918	0.100
215.700	-4.599	0.100
215.800	-18.298	0.100
215.900	-21.799	0.100
216.000	-10.545	0.100
216.100	-1.741	0.100
216.200	-13.781	0.100
216.300	-2.474	0.100
216.400	-14.134	0.100
216.500	-9.398	0.100
216.600	-7.682	0.100
216.700	-20.740	0.100
216.800	-17.357	0.100
216.900	-22.993	0.100
217.000	-3.284	0.100
217.100	-5.556	0.100
217.200	-5.380	0.100
217.300	-11.844	0.100
217.400	-21.890	0.100
217.500	-12.759	0.100
217.600	2.168	0.100
217.700	-6.779	0.100
217.800	-21.410	0.100
217.900	-6.029	0.100
218.000	0.136	0.100
218.100	-6.072	0.100
218.200	-14.131	0.100
218.300	-7.297	0.100
218.400	-29.184	0.100
218.500	-18.691	0.100
218.600	-14.345	0.100
218.700	-19.843	0.100
218.800	-16.552	0.100
218.900	-18.878	0.100
219.000	-16.048	0.100
219.100	-1.333	0.100
219.200	-2.426	0.100
219.300	-10.936	0.100
219.400	-13.798	0.100
219.500	-7.214	0.100
219.600	-15.493	0.100
219.700	-9.229	0.100
219.800	-6.159	0.100
219.900	-8.104	0.100
220.000	-11.509	0.100
220.100	-16.283	0.100
220.200	-14.870	0.100
220.300	-11.905	0.100
220.400	-11.096	0.100
220.500	-5.248	0.100
220.600	-11.220	0.100
220.700	-27.761	0.100
220.800	-10.557	0.100
220.900	-1.836	0.100
221.000	-10.179	0.100
221.100	-17.267	0.100
221.200	-20.631	0.100
221.300	-4.724	0.100
221.400	-14.568	0.100
221.500	-21.415	0.100
221.600	-2.795	0.100
221.700	3.254	0.100
221.800	-12.822	0.100
221.900	-16.585	0.100
222.000	-5.910	0.100
222.100	-4.862	0.100
222.200	-16.415	0.100
222.300	-1.332	0.100
222.400	-11.494	0.100
222.500	-11.403	0.100
222.600	-9.116	0.100
222.700	-14.711	0.100
222.800	-12.605	0.100
222.900	-1.404	0.100
223.000	-25.264	0.100
223.100	0.086	0.100
223.200	-15.707	0.100
223.300	-7.576	0.100
223.400	-16.280	0.100
223.500	-3.847	0.100
223.600	-17.653	0.100
223.700	-12.254	0.100
223.800	-15.859	0.100
223.900	-13.340	0.100
224.000	-12.589	0.100
224.100	-2.528	0.100
224.200	-30.973	0.100
224.300	-15.983	0.100
224.400	-23.612	0.100
224.500	-13.869	0.100
224.600	-25.552	0.100
224.700	-12.855	0.100
224.800	-9.021	0.100
224.900	-0.215	0.100
225.000	-4.381	0.100
225.100	-4.084	0.100
225.200	-7.030	0.100
225.300	-7.996	0.100
225.400	-20.812	0.100
225.500	-7.442	0.100
225.600	-13.114	0.100
225.700	-4.917	0.100
225.800	-23.347	0.100
225.900	-12.629	0.100
226.000	-6.246	0.100
226.100	-12.372	0.100
226.200	-11.111	0.100
226.300	-19.876	0.100
226.400	-36.891	0.100
226.500	-15.701	0.100
226.600	-13.199	0.100
226.700	-17.519	0.100
226.800	-6.327	0.100
226.900	-18.578	0.100
227.000	-21.750	0.100
227.100	0.475	0.100
227.200	-23.431	0.100
227.300	-0.017	0.100
227.400	-15.262	0.100
227.500	-0.442	0.100
227.600	-10.979	0.100
227.700	-10.379	0.100
227.800	-23.301	0.100
227.900	-19.645	0.100
228.000	-16.072	0.100
228.100	-13.430	0.100
228.200	-4.360	0.100
228.300	-5.400	0.100
228.400	-15.722	0.100
228.500	-23.701	0.100
228.600	-15.672	0.100
228.700	-10.061	0.100
228.800	-13.464	0.100
228.900	-10.733	0.100
229.000	-17.884	0.100
229.100	-1.158	0.100
229.200	-16.319	0.100
229.300	-6.618	0.100
229.400	-8.049	0.100
229.500	-21.117	0.100
229.600	-13.579	0.100
229.700	-5.629	0.100
229.800	-10.153	0.100
229.900	-10.512	0.100
230.000	-22.244	0.100
230.100	-20.842	0.100
230.200	-0.064	0.100
230.300	-6.731	0.100
230.400	-5.562	0.100
230.500	-27.593	0.100
230.600	-25.639	0.100
230.700	-14.477	0.100
230.800	-12.713	0.100
230.900	-7.468	0.100
231.000	-12.754	0.100
231.100	-8.765	0.100
231.200	-10.749	0.100
231.300	-7.988	0.100
231.400	-30.063	0.100
231.500	-11.349	0.100
231.600	-17.487	0.100
231.700	-3.950	0.100
231.800	-13.845	0.100
231.900	-22.266	0.100
232.000	-15.812	0.100
232.100	15.451	0.100
232.200	-6.115	0.100
232.300	-2.960	0.100
232.400	-11.342	0.100
232.500	-9.508	0.100
232.600	-4.871	0.100
232.700	-15.673	0.100
232.800	-12.605	0.100
232.900	-14.736	0.100
233.000	-19.525	0.100
233.100	-12.098	0.100
233.200	-8.651	0.100
233.300	-21.486	0.100
233.400	-9.612	0.100
233.500	-14.701	0.100
233.600	-1.439	0.100
233.700	-11.244	0.100
233.800	-10.161	0.100
233.900	-12.929	0.100
234.000	-7.166	0.100
234.100	-8.217	0.100
234.200	-18.203	0.100
234.300	-7.952	0.100
234.400	0.037	0.100
234.500	-32.385	0.100
234.600	-12.773	0.100
234.700	-7.087	0.100
234.800	-13.248	0.100
234.900	-21.859	0.100
235.000	-9.506	0.100
235.100	-13.746	0.100
235.200	-21.867	0.100
235.300	-11.818	0.100
235.400	-10.067	0.100
235.500	1.673	0.100
235.600	-24.440	0.100
235.700	-13.236	0.100
235.800	-5.084	0.100
235.900	-11.755	0.100
236.000	-17.865	0.100
236.100	-0.463	0.100
236.200	-12.351	0.100
236.300	-7.584	0.100
236.400	-12.234	0.100
236.500	-3.645	0.100
236.600	-14.220	0.100
236.700	-24.144	0.100
236.800	-13.946	0.100
236.900	-22.678	0.100
237.000	-5.349	0.100
237.100	-22.690	0.100
237.200	-17.098	0.100
237.300	-2.271	0.100
237.400	4.005	0.100
237.500	-18.815	0.100
237.600	-21.971	0.100
237.700	-16.959	0.100
237.800	3.687	0.100
237.900	-1.446	0.100
238.000	-11.436	0.100
238.100	-8.232	0.100
238.200	-39.325	0.100
238.300	-21.942	0.100
238.400	-20.012	0.100
238.500	-0.689	0.100
238.600	-15.738	0.100
238.700	-10.857	0.100
238.800	-9.070	0.100
238.900	-12.769	0.100
239.000	-19.980	0.100
239.100	-1.919	0.100
239.200	-13.432	0.100
239.300	-7.198	0.100
239.400	-21.157	0.100
239.500	-12.053	0.100
239.600	-0.403	0.100
239.700	-8.335	0.100
239.800	-26.081	0.100
239.900	-11.932	0.100
240.000	-0.591	0.100
240.100	-1.068	0.100
240.200	-14.908	0.100
240.300	-10.101	0.100
240.400	-19.349	0.100
240.500	-11.542	0.100
240.600	-20.287	0.100
240.700	-20.255	0.100
240.800	-18.315	0.100
240.900	-2.835	0.100
241.000	-6.873	0.100
241.100	-13.721	0.100
241.200	-10.128	0.100
241.300	-12.129	0.100
241.400	-5.925	0.100
241.500	-15.769	0.100
241.600	-8.080	0.100
241.700	-5.429	0.100
241.800	-15.767	0.100
241.900	-5.535	0.100
242.000	-11.328	0.100
242.100	-14.358	0.100
242.200	-15.531	0.100
242.300	-6.492	0.100
242.400	-7.420	0.100
242.500	-11.917	0.100
242.600	-25.393	0.100
242.700	-2.847	0.100
242.800	-2.050	0.100
242.900	-10.861	0.100
243.000	-17.531	0.100
243.100	-11.956	0.100
243.200	-8.372	0.100
243.300	-9.794	0.100
243.400	-2.928	0.100
243.500	-12.110	0.100
243.600	-22.010	0.100
243.700	-24.622	0.100
243.800	-8.502	0.100
243.900	-3.266	0.100
244.000	3.622	0.100
244.100	-14.110	0.100
244.200	-16.916	0.100
244.300	-18.349	0.100
244.400	-7.496	0.100
244.500	-8.953	0.100
244.600	-10.929	0.100
244.700	-9.490	0.100
244.800	-13.339	0.100
244.900	-9.412	0.100
245.000	-4.067	0.100
245.100	-3.740	0.100
245.200	-15.596	0.100
245.300	-0.835	0.100
245.400	-3.345	0.100
245.500	-12.205	0.100
245.600	-12.694	0.100
245.700	-15.130	0.100
245.800	-9.993	0.100
245.900	-4.187	0.100
246.000	-16.161	0.100
246.100	-20.115	0.100
246.200	-16.731	0.100
246.300	-17.829	0.100
246.400	-14.706	0.100
246.500	-15.321	0.100
246.600	-8.275	0.100
246.700	-24.895	0.100
246.800	-10.227	0.100
246.900	-11.451	0.100
247.000	-14.687	0.100
247.100	-8.889	0.100
247.200	-18.508	0.100
247.300	-6.682	0.100
247.400	-18.756	0.100
247.500	-1.561	0.100
247.600	-6.061	0.100
247.700	-7.356	0.100
247.800	-5.344	0.100
247.900	2.876	0.100
248.000	-8.097	0.100
248.100	-13.608	0.100
248.200	-10.662	0.100
248.300	-13.944	0.100
248.400	-0.801	0.100
248.500	-18.936	0.100
248.600	-10.762	0.100
248.700	-9.197	0.100
248.800	-16.925	0.100
248.900	-18.267	0.100
249.000	-15.554	0.100
249.100	-15.510	0.100
249.200	-17.819	0.100
249.300	-17.111	0.100
249.400	-6.310	0.100
249.500	-2.500	0.100
249.600	-16.651	0.100
249.700	1.199	0.100
249.800	-35.485	0.100
249.900	-13.323	0.100
250.000	-5.463	0.100
250.100	-2.751	0.100
250.200	-13.384	0.100
250.300	1.675	0.100
250.400	-12.980	0.100
250.500	-13.511	0.100
250.600	-8.675	0.100
250.700	-6.174	0.100
250.800	-13.861	0.100
250.900	-7.079	0.100
251.000	-19.545	0.100
251.100	-19.655	0.100
251.200	-22.635	0.100
251.300	-9.504	0.100
251.400	-3.292	0.100
251.500	-22.128	0.100
251.600	-0.049	0.100
251.700	-14.075	0.100
251.800	-5.468	0.100
251.900	-3.862	0.100
252.000	-12.544	0.100
252.100	-3.467	0.100
252.200	-10.664	0.100
252.300	-19.480	0.100
252.400	-14.639	0.100
252.500	-16.239	0.100
252.600	-19.585	0.100
252.700	-11.255	0.100
252.800	-18.836	0.100
252.900	-1.464	0.100
253.000	-4.556	0.100
253.100	-13.854	0.100
253.200	-4.646	0.100
253.300	-10.756	0.100
253.400	-7.053	0.100
253.500	-21.190	0.100
253.600	-5.853	0.100
253.700	-16.645	0.100
253.800	-6.946	0.100
253.900	-8.107	0.100
254.000	-16.642	0.100
254.100	-11.124	0.100
254.200	6.717	0.100
254.300	-20.071	0.100
254.400	-3.625	0.100
254.500	3.196	0.100
254.600	-10.868	0.100
254.700	-31.784	0.100
254.800	-14.484	0.100
254.900	-11.637	0.100
255.000	-23.191	0.100
255.100	-10.279	0.100
255.200	-3.613	0.100
255.300	-21.183	0.100
255.400	-12.717	0.100
255.500	-12.292	0.100
255.600	-17.918	0.100
255.700	-3.198	0.100
255.800	-2.794	0.100
255.900	-10.744	0.100
256.000	-26.506	0.100
256.100	-11.448	0.100
256.200	-14.478	0.100
256.300	-1.175	0.100
256.400	-1.854	0.100
256.500	-6.107	0.100
256.600	-16.277	0.100
256.700	-12.464	0.100
256.800	-16.978	0.100
256.900	-21.998	0.100
257.000	-5.349	0.100
257.100	2.698	0.100
257.200	-18.001	0.100
257.300	-14.663	0.100
257.400	-29.929	0.100
257.500	-8.519	0.100
257.600	-8.166	0.100
257.700	-15.683	0.100
257.800	0.668	0.100
257.900	-21.842	0.100
258.000	-10.005	0.100
258.100	7.175	0.100
258.200	1.625	0.100
258.300	-24.245	0.100
258.400	-17.582	0.100
258.500	-9.320	0.100
258.600	-10.202	0.100
258.700	-6.883	0.100
258.800	-4.883	0.100
258.900	-24.062	0.100
259.000	0.619	0.100
259.100	-10.227	0.100
259.200	5.133	0.100
259.300	5.577	0.100
259.400	-6.333	0.100
259.500	-16.941	0.100
259.600	-8.832	0.100
259.700	-5.385	0.100
259.800	-7.417	0.100
259.900	-14.056	0.100
260.000	-7.844	0.100
260.100	-14.864	0.100
260.200	-7.962	0.100
260.300	-9.884	0.100
260.400	-18.278	0.100
260.500	-21.659	0.100
260.600	-11.959	0.100
260.700	-0.732	0.100
260.800	-9.717	0.100
260.900	-0.624	0.100
261.000	4.272	0.100
261.100	-12.623	0.100
261.200	-26.884	0.100
261.300	-8.823	0.100
261.400	-12.364	0.100
261.500	-15.582	0.100
261.600	1.151	0.100
261.700	-18.796	0.100
261.800	-5.796	0.100
261.900	-17.684	0.100
262.000	-7.139	0.100
262.100	-2.389	0.100
262.200	-14.098	0.100
262.300	-17.579	0.100
262.400	-1.920	0.100
262.500	-7.844	0.100
262.600	-3.335	0.100
262.700	-3.825	0.100
262.800	-1.751	0.100
262.900	-15.527	0.100
263.000	-5.768	0.100
263.100	-10.585	0.100
263.200	-10.196	0.100
263.300	-8.499	0.100
263.400	-1.367	0.100
263.500	-9.123	0.100
263.600	-11.883	0.100
263.700	-15.411	0.100
263.800	-16.635	0.100
263.900	-7.769	0.100
264.000	8.227	0.100
264.100	6.369	0.100
264.200	-9.703	0.100
264.300	-5.228	0.100
264.400	1.870	0.100
264.500	-12.935	0.100
264.600	-12.492	0.100
264.700	-6.442	0.100
264.800	-10.270	0.100
264.900	3.450	0.100
265.000	1.123	0.100
265.100	4.224	0.100
265.200	-13.963	0.100
265.300	-23.690	0.100
265.400	-21.542	0.100
265.500	-10.357	0.100
265.600	2.622	0.100
265.700	-17.970	0.100
265.800	-16.603	0.100
265.900	-21.448	0.100
266.000	-7.260	0.100
266.100	-5.798	0.100
266.200	-7.084	0.100
266.300	-8.632	0.100
266.400	-20.450	0.100
266.500	-1.071	0.100
266.600	-15.151	0.100
266.700	-9.591	0.100
266.800	-7.261	0.100
266.900	-6.076	0.100
267.000	-5.549	0.100
267.100	-19.131	0.100
267.200	-13.359	0.100
267.300	-12.894	0.100
267.400	-5.534	0.100
267.500	-3.538	0.100
267.600	-10.047	0.100
267.700	-0.598	0.100
267.800	-17.927	0.100
267.900	-3.748	0.100
268.000	-13.749	0.100
268.100	-23.056	0.100
268.200	-7.391	0.100
268.300	-19.913	0.100
268.400	-4.905	0.100
268.500	-14.186	0.100
268.600	2.544	0.100
268.700	-5.845	0.100
268.800	-9.469	0.100
268.900	-1.632	0.100
269.000	-22.213	0.100
269.100	-12.043	0.100
269.200	-7.715	0.100
269.300	-5.563	0.100
269.400	-13.883	0.100
269.500	-15.494	0.100
269.600	-9.016	0.100
269.700	-16.590	0.100
269.800	-8.076	0.100
269.900	-8.762	0.100
270.000	-29.170	0.100
270.100	-5.272	0.100
270.200	-2.083	0.100
270.300	-13.936	0.100
270.400	3.206	0.100
270.500	-3.830	0.100
270.600	-6.076	0.100
270.700	0.043	0.100
270.800	14.039	0.100
270.900	-12.850	0.100
271.000	9.484	0.100
271.100	18.584	0.100
271.200	3.476	0.100
271.300	5.579	0.100
271.400	13.765	0.100
271.500	13.609	0.100
271.600	18.150	0.100
271.700	18.555	0.100
271.800	30.417	0.100
271.900	23.308	0.100
272.000	33.238	0.100
272.100	16.418	0.100
272.200	21.421	0.100
272.300	29.581	0.100
272.400	26.210	0.100
272.500	18.289	0.100
272.600	25.517	0.100
272.700	28.605	0.100
272.800	20.087	0.100
272.900	17.370	0.100
273.000	31.892	0.100
273.100	22.010	0.100
273.200	22.651	0.100
273.300	33.330	0.100
273.400	17.026	0.100
273.500	28.407	0.100
273.600	15.971	0.100
273.700	20.944	0.100
273.800	4.377	0.100
273.900	20.085	0.100
274.000	30.895	0.100
274.100	29.478	0.100
274.200	22.115	0.100
274.300	14.698	0.100
274.400	22.274	0.100
274.500	40.124	0.100
274.600	16.150	0.100
274.700	9.906	0.100
274.800	25.225	0.100
274.900	29.706	0.100
275.000	41.846	0.100
275.100	19.495	0.100
275.200	12.450	0.100
275.300	19.243	0.100
275.400	20.669	0.100
275.500	18.079	0.100
275.600	27.938	0.100
275.700	15.262	0.100
275.800	19.371	0.100
275.900	24.471	0.100
276.000	16.074	0.100
276.100	17.452	0.100
276.200	23.391	0.100
276.300	18.693	0.100
276.400	29.920	0.100
276.500	20.216	0.100
276.600	33.869	0.100
276.700	25.475	0.100
276.800	18.220	0.100
276.900	25.985	0.100
277.000	9.384	0.100
277.100	25.840	0.100
277.200	9.703	0.100
277.300	7.013	0.100
277.400	26.457	0.100
277.500	23.172	0.100
277.600	15.799	0.100
277.700	20.408	0.100
277.800	25.439	0.100
277.900	28.077	0.100
278.000	23.097	0.100
278.100	36.752	0.100
278.200	38.219	0.100
278.300	29.036	0.100
278.400	34.787	0.100
278.500	35.249	0.100
278.600	37.115	0.100
278.700	23.694	0.100
278.800	22.901	0.100
278.900	29.845	0.100
279.000	21.737	0.100
279.100	25.793	0.100
279.200	30.718	0.100
279.300	44.972	0.100
279.400	40.156	0.100
279.500	27.386	0.100
279.600	33.186	0.100
279.700	29.993	0.100
279.800	42.270	0.100
279.900	28.380	0.100
280.000	9.863	0.100
280.100	23.511	0.100
280.200	41.400	0.100
280.300	31.813	0.100
280.400	36.056	0.100
280.500	34.896	0.100
280.600	43.761	0.100
280.700	39.978	0.100
280.800	44.757	0.100
280.900	37.271	0.100
281.000	36.404	0.100
281.100	37.210	0.100
281.200	30.249	0.100
281.300	48.037	0.100
281.400	49.167	0.100
281.500	52.194	0.100
281.600	28.106	0.100
281.700	56.011	0.100
281.800	34.150	0.100
281.900	39.181	0.100
282.000	52.637	0.100
282.100	54.502	0.100
282.200	44.515	0.100
282.300	55.577	0.100
282.400	56.548	0.100
282.500	44.550	0.100
282.600	45.931	0.100
282.700	36.248	0.100
282.800	47.108	0.100
282.900	45.965	0.100
283.000	43.609	0.100
283.100	57.294	0.100
283.200	50.731	0.100
283.300	54.294	0.100
283.400	55.332	0.100
283.500	47.230	0.100
283.600	56.444	0.100
283.700	45.091	0.100
283.800	58.690	0.100
283.900	58.430	0.100
284.000	64.756	0.100
284.100	73.656	0.100
284.200	57.209	0.100
284.300	45.729	0.100
284.400	69.241	0.100
284.500	66.282	0.100
284.600	55.259	0.100
284.700	65.646	0.100
284.800	53.081	0.100
284.900	50.881	0.100
285.000	64.981	0.100
285.100	73.458	0.100
285.200	53.251	0.100
285.300	59.240	0.100
285.400	66.781	0.100
285.500	62.411	0.100
285.600	52.423	0.100
285.700	41.117	0.100
285.800	62.002	0.100
285.900	62.380	0.100
286.000	59.602	0.100
286.100	67.021	0.100
286.200	67.812	0.100
286.300	70.935	0.100
286.400	71.335	0.100
286.500	73.121	0.100
286.600	73.599	0.100
286.700	64.373	0.100
286.800	59.383	0.100
286.900	59.496	0.100
287.000	71.206	0.100
287.100	77.399	0.100
287.200	70.779	0.100
287.300	62.424	0.100
287.400	69.946	0.100
287.500	79.838	0.100
287.600	58.048	0.100
287.700	78.775	0.100
287.800	70.445	0.100
287.900	78.373	0.100
288.000	60.113	0.100
288.100	69.666	0.100
288.200	74.108	0.100
288.300	67.943	0.100
288.400	70.764	0.100
288.500	82.697	0.100
288.600	81.737	0.100
288.700	78.838	0.100
288.800	79.514	0.100
288.900	63.920	0.100
289.000	52.194	0.100
289.100	68.844	0.100
289.200	80.171	0.100
289.300	68.743	0.100
289.400	81.029	0.100
289.500	66.303	0.100
289.600	80.417	0.100
289.700	75.423	0.100
289.800	80.002	0.100
289.900	77.674	0.100
290.000	59.268	0.100
290.100	53.282	0.100
290.200	68.815	0.100
290.300	85.190	0.100
290.400	81.811	0.100
290.500	92.205	0.100
290.600	76.789	0.100
290.700	83.180	0.100
290.800	72.282	0.100
290.900	65.150	0.100
291.000	68.116	0.100
291.100	76.617	0.100
291.200	70.749	0.100
291.300	63.912	0.100
291.400	68.362	0.100
291.500	78.781	0.100
291.600	87.583	0.100
291.700	67.801	0.100
291.800	66.196	0.100
291.900	86.520	0.100
292.000	85.584	0.100
292.100	71.621	0.100
292.200	82.690	0.100
292.300	80.668	0.100
292.400	72.663	0.100
292.500	83.622	0.100
292.600	64.725	0.100
292.700	61.774	0.100
292.800	66.306	0.100
292.900	66.625	0.100
293.000	65.787	0.100
293.100	92.753	0.100
293.200	69.922	0.100
293.300	60.553	0.100
293.400	65.957	0.100
293.500	79.087	0.100
293.600	79.001	0.100
293.700	70.551	0.100
293.800	74.895	0.100
293.900	75.510	0.100
294.000	78.323	0.100
294.100	84.305	0.100
294.200	71.660	0.100
294.300	64.998	0.100
294.400	89.054	0.100
294.500	74.245	0.100
294.600	70.801	0.100
294.700	79.653	0.100
294.800	70.853	0.100
294.900	63.463	0.100
295.000	84.995	0.100
295.100	74.102	0.100
295.200	68.547	0.100
295.300	74.640	0.100
295.400	87.739	0.100
295.500	71.374	0.100
295.600	65.711	0.100
295.700	69.820	0.100
295.800	76.021	0.100
295.900	79.405	0.100
296.000	86.394	0.100
296.100	65.035	0.100
296.200	73.693	0.100
296.300	69.093	0.100
296.400	88.298	0.100
296.500	67.440	0.100
296.600	65.013	0.100
296.700	77.825	0.100
296.800	73.916	0.100
296.900	67.979	0.100
297.000	71.414	0.100
297.100	66.706	0.100
297.200	82.799	0.100
297.300	86.141	0.100
297.400	85.428	0.100
297.500	77.183	0.100
297.600	62.278	0.100
297.700	68.878	0.100
297.800	72.429	0.100
297.900	71.758	0.100
298.000	84.450	0.100
298.100	87.862	0.100
298.200	68.248	0.100
298.300	71.974	0.100
298.400	60.290	0.100
298.500	66.260	0.100
298.600	73.830	0.100
298.700	70.683	0.100
298.800	75.713	0.100
298.900	68.776	0.100
299.000	71.995	0.100
299.100	75.320	0.100
299.200	81.343	0.100
299.300	77.256	0.100
299.400	73.978	0.100
299.500	70.998	0.100
299.600	54.877	0.100
299.700	65.749	0.100
299.800	71.102	0.100
299.900	87.211	0.100
300.000	75.708	0.100
300.100	72.501	0.100
300.200	84.420	0.100
300.300	51.927	0.100
300.400	59.829	0.100
300.500	67.797	0.100
300.600	76.063	0.100
300.700	62.971	0.100
300.800	63.847	0.100
300.900	55.701	0.100
301.000	69.432	0.100
301.100	62.565	0.100
301.200	47.613	0.100
301.300	56.772	0.100
301.400	45.313	0.100
301.500	45.188	0.100
301.600	45.433	0.100
301.700	51.898	0.100
301.800	38.280	0.100
301.900	46.788	0.100
302.000	38.866	0.100
302.100	30.827	0.100
302.200	41.636	0.100
302.300	44.508	0.100
302.400	28.929	0.100
302.500	48.379	0.100
302.600	40.837	0.100
302.700	25.845	0.100
302.800	10.185	0.100
302.900	28.255	0.100
303.000	29.869	0.100
303.100	30.496	0.100
303.200	41.368	0.100
303.300	37.985	0.100
303.400	15.552	0.100
303.500	19.349	0.100
303.600	29.720	0.100
303.700	22.943	0.100
303.800	14.659	0.100
303.900	22.401	0.100
304.000	14.621	0.100
304.100	9.557	0.100
304.200	29.520	0.100
304.300	28.140	0.100
304.400	15.020	0.100
304.500	17.432	0.100
304.600	14.987	0.100
304.700	9.906	0.100
304.800	22.545	0.100
304.900	9.676	0.100
305.000	15.630	0.100
305.100	13.447	0.100
305.200	1.239	0.100
305.300	9.133	0.100
305.400	28.598	0.100
305.500	17.413	0.100
305.600	16.822	0.100
305.700	0.138	0.100
305.800	12.993	0.100
305.900	-3.702	0.100
306.000	0.877	0.100
306.100	13.310	0.100
306.200	3.613	0.100
306.300	6.196	0.100
306.400	15.860	0.100
306.500	23.326	0.100
306.600	7.630	0.100
306.700	12.708	0.100
306.800	14.401	0.100
306.900	12.451	0.100
307.000	4.887	0.100
307.100	5.434	0.100
307.200	2.734	0.100
307.300	8.809	0.100
307.400	0.796	0.100
307.500	1.937	0.100
307.600	0.417	0.100
307.700	5.861	0.100
307.800	17.191	0.100
307.900	-4.204	0.100
308.000	9.908	0.100
308.100	2.585	0.100
308.200	-6.109	0.100
308.300	16.063	0.100
308.400	13.495	0.100
308.500	18.214	0.100
308.600	8.849	0.100
308.700	13.043	0.100
308.800	22.146	0.100
308.900	14.299	0.100
309.000	-3.382	0.100
309.100	6.074	0.100
309.200	-14.004	0.100
309.300	-0.414	0.100
309.400	7.126	0.100
309.500	-0.469	0.100
309.600	2.307	0.100
309.700	-2.746	0.100
309.800	26.603	0.100
309.900	17.129	0.100
310.000	13.706	0.100
310.100	6.456	0.100
310.200	5.438	0.100
310.300	-15.644	0.100
310.400	11.415	0.100
310.500	-9.818	0.100
310.600	5.565	0.100
310.700	3.096	0.100
310.800	1.699	0.100
310.900	0.952	0.100
311.000	13.137	0.100
311.100	11.868	0.100
311.200	15.084	0.100
311.300	11.416	0.100
311.400	27.648	0.100
311.500	2.824	0.100
311.600	8.431	0.100
311.700	-0.550	0.100
311.800	6.323	0.100
311.900	-0.383	0.100
312.000	11.865	0.100
312.100	14.424	0.100
312.200	11.148	0.100
312.300	3.027	0.100
312.400	1.240	0.100
312.500	18.177	0.100
312.600	1.216	0.100
312.700	1.078	0.100
312.800	-1.784	0.100
312.900	0.525	0.100
313.000	21.054	0.100
313.100	1.530	0.100
313.200	5.620	0.100
313.300	12.846	0.100
313.400	7.157	0.100
313.500	5.037	0.100
313.600	-10.601	0.100
313.700	9.206	0.100
313.800	-6.001	0.100
313.900	11.556	0.100
314.000	2.715	0.100
314.100	-9.868	0.100
314.200	-4.473	0.100
314.300	21.990	0.100
314.400	2.109	0.100
314.500	6.668	0.100
314.600	7.845	0.100
314.700	1.290	0.100
314.800	2.022	0.100
314.900	11.143	0.100
315.000	13.738	0.100
315.100	-6.532	0.100
315.200	7.359	0.100
315.300	4.282	0.100
315.400	16.559	0.100
315.500	4.564	0.100
315.600	5.238	0.100
315.700	-2.546	0.100
315.800	-5.443	0.100
315.900	22.985	0.100
316.000	5.494	0.100
316.100	5.270	0.100
316.200	-3.041	0.100
316.300	1.687	0.100
316.400	2.096	0.100
316.500	6.825	0.100
316.600	-2.240	0.100
316.700	0.537	0.100
316.800	7.848	0.100
316.900	8.966	0.100
317.000	6.759	0.100
317.100	-0.393	0.100
317.200	-13.841	0.100
317.300	8.158	0.100
317.400	8.281	0.100
317.500	12.628	0.100
317.600	2.557	0.100
317.700	-6.035	0.100
317.800	7.474	0.100
317.900	7.460	0.100
318.000	-5.477	0.100
318.100	-9.494	0.100
318.200	7.326	0.100
318.300	8.028	0.100
318.400	-12.381	0.100
318.500	-9.920	0.100
318.600	13.588	0.100
318.700	-0.486	0.100
318.800	-4.571	0.100
318.900	-13.739	0.100
319.000	4.332	0.100
319.100	-0.025	0.100
319.200	5.471	0.100
319.300	-3.769	0.100
319.400	-15.614	0.100
319.500	4.080	0.100
319.600	-16.739	0.100
319.700	-5.171	0.100
319.800	8.440	0.100
319.900	9.661	0.100
320.000	0.890	0.100
320.100	1.112	0.100
320.200	-4.158	0.100
320.300	-0.984	0.100
320.400	-7.264	0.100
320.500	3.115	0.100
320.600	-11.917	0.100
320.700	-8.942	0.100
320.800	7.302	0.100
320.900	-9.825	0.100
321.000	-3.505	0.100
321.100	-18.439	0.100
321.200	3.004	0.100
321.300	10.256	0.100
321.400	-5.156	0.100
321.500	-8.777	0.100
321.600	-4.734	0.100
321.700	4.168	0.100
321.800	-11.650	0.100
321.900	-0.777	0.100
322.000	-17.901	0.100
322.100	-1.254	0.100
322.200	2.218	0.100
322.300	7.988	0.100
322.400	-6.711	0.100
322.500	-10.116	0.100
322.600	-12.242	0.100
322.700	-11.724	0.100
322.800	-11.558	0.100
322.900	4.203	0.100
323.000	12.763	0.100
323.100	-1.460	0.100
323.200	-3.272	0.100
323.300	-10.819	0.100
323.400	2.236	0.100
323.500	8.065	0.100
323.600	-25.391	0.100
323.700	9.449	0.100
323.800	-18.224	0.100
323.900	-12.525	0.100
324.000	-3.706	0.100
324.100	15.082	0.100
324.200	0.828	0.100
324.300	-16.980	0.100
324.400	-7.777	0.100
324.500	1.803	0.100
324.600	3.298	0.100
324.700	-8.909	0.100
324.800	4.803	0.100
324.900	5.487	0.100
325.000	-9.246	0.100
325.100	-13.879	0.100
325.200	-4.048	0.100
325.300	-16.505	0.100
325.400	-2.113	0.100
325.500	2.585	0.100
325.600	-9.284	0.100
325.700	-5.235	0.100
325.800	-5.741	0.100
325.900	-17.804	0.100
326.000	2.006	0.100
326.100	2.956	0.100
326.200	-20.231	0.100
326.300	-5.676	0.100
326.400	-18.284	0.100
326.500	-7.777	0.100
326.600	-11.468	0.100
326.700	-8.720	0.100
326.800	7.561	0.100
326.900	-10.366	0.100
327.000	-13.770	0.100
327.100	-7.711	0.100
327.200	-18.663	0.100
327.300	-2.360	0.100
327.400	-9.437	0.100
327.500	-10.733	0.100
327.600	-3.883	0.100
327.700	-10.045	0.100
327.800	-14.552	0.100
327.900	-2.393	0.100
328.000	-9.334	0.100
328.100	-0.304	0.100
328.200	-18.808	0.100
328.300	-9.891	0.100
328.400	2.247	0.100
328.500	-13.359	0.100
328.600	-15.507	0.100
328.700	-22.041	0.100
328.800	-14.542	0.100
328.900	-8.641	0.100
329.000	0.422	0.100
329.100	-14.893	0.100
329.200	-18.892	0.100
329.300	-28.637	0.100
329.400	-0.101	0.100
329.500	-6.021	0.100
329.600	-9.113	0.100
329.700	1.913	0.100
329.800	-4.326	0.100
329.900	-11.906	0.100
330.000	-22.537	0.100
330.100	5.080	0.100
330.200	-15.417	0.100
330.300	-18.938	0.100
330.400	0.315	0.100
330.500	-3.074	0.100
330.600	-24.726	0.100
330.700	-15.934	0.100
330.800	-10.896	0.100
330.900	-4.432	0.100
331.000	-14.487	0.100
331.100	3.176	0.100
331.200	-10.176	0.100
331.300	-15.426	0.100
331.400	-16.798	0.100
331.500	-20.678	0.100
331.600	-10.736	0.100
331.700	-7.379	0.100
331.800	-11.266	0.100
331.900	-3.086	0.100
332.000	-20.559	0.100
332.100	-13.808	0.100
332.200	-4.234	0.100
332.300	-20.048	0.100
332.400	-19.503	0.100
332.500	-4.107	0.100
332.600	-17.471	0.100
332.700	-3.141	0.100
332.800	-19.571	0.100
332.900	0.160	0.100
333.000	-9.476	0.100
333.100	-3.092	0.100
333.200	-19.240	0.100
333.300	-19.893	0.100
333.400	-6.859	0.100
333.500	-13.070	0.100
333.600	-4.787	0.100
333.700	-11.214	0.100
333.800	-10.594	0.100
333.900	-5.693	0.100
334.000	-21.108	0.100
334.100	-10.337	0.100
334.200	-15.151	0.100
334.300	-11.410	0.100
334.400	-6.444	0.100
334.500	-9.803	0.100
334.600	-7.727	0.100
334.700	-12.825	0.100
334.800	-3.196	0.100
334.900	-34.104	0.100
335.000	-29.434	0.100
335.100	-8.767	0.100
335.200	-4.380	0.100
335.300	-13.740	0.100
335.400	-0.933	0.100
335.500	-7.791	0.100
335.600	-16.087	0.100
335.700	-18.278	0.100
335.800	9.974	0.100
335.900	-9.270	0.100
336.000	-1.904	0.100
336.100	-10.156	0.100
336.200	-12.128	0.100
336.300	-19.794	0.100
336.400	-18.900	0.100
336.500	-24.792	0.100
336.600	1.750	0.100
336.700	-29.101	0.100
336.800	-16.955	0.100
336.900	-8.464	0.100
337.000	-15.796	0.100
337.100	-13.817	0.100
337.200	-13.607	0.100
337.300	-13.531	0.100
337.400	-15.663	0.100
337.500	-15.490	0.100
337.600	-31.805	0.100
337.700	-16.684	0.100
337.800	-7.338	0.100
337.900	-14.760	0.100
338.000	-8.467	0.100
338.100	-7.278	0.100
338.200	-15.226	0.100
338.300	-16.680	0.100
338.400	-12.122	0.100
338.500	-9.570	0.100
338.600	-18.501	0.100
338.700	-14.245	0.100
338.800	-19.010	0.100
338.900	-5.322	0.100
339.000	-20.463	0.100
339.100	-11.828	0.100
339.200	-9.021	0.100
339.300	-13.041	0.100
339.400	-12.289	0.100
339.500	-16.559	0.100
339.600	-15.125	0.100
339.700	-16.947	0.100
339.800	-11.680	0.100
339.900	-32.962	0.100
340.000	2.754	0.100
340.100	-13.938	0.100
340.200	-11.880	0.100
340.300	-22.607	0.100
340.400	-16.569	0.100
340.500	-7.951	0.100
340.600	-21.214	0.100
340.700	-18.753	0.100
340.800	-13.448	0.100
340.900	3.382	0.100
341.000	-0.878	0.100
341.100	-6.450	0.100
341.200	-22.476	0.100
341.300	-12.306	0.100
341.400	-26.862	0.100
341.500	-12.552	0.100
341.600	-12.019	0.100
341.700	-13.528	0.100
341.800	-11.092	0.100
341.900	-11.778	0.100
342.000	-0.899	0.100
342.100	-14.489	0.100
342.200	-4.793	0.100
342.300	-12.115	0.100
342.400	-12.946	0.100
342.500	-13.248	0.100
342.600	-19.476	0.100
342.700	-6.479	0.100
342.800	-15.224	0.100
342.900	-36.413	0.100
343.000	-10.224	0.100
343.100	-3.135	0.100
343.200	-29.050	0.100
343.300	-36.539	0.100
343.400	-3.929	0.100
343.500	-5.773	0.100
343.600	-24.294	0.100
343.700	-28.929	0.100
343.800	-7.807	0.100
343.900	-14.918	0.100
344.000	-8.598	0.100
344.100	-5.225	0.100
344.200	-17.539	0.100
344.300	-21.882	0.100
344.400	-12.425	0.100
344.500	-30.371	0.100
344.600	-7.643	0.100
344.700	-0.452	0.100
344.800	-18.757	0.100
344.900	-26.957	0.100
345.000	-10.753	0.100
345.100	-8.961	0.100
345.200	-10.115	0.100
345.300	-14.398	0.100
345.400	-13.254	0.100
345.500	-20.579	0.100
345.600	-16.315	0.100
345.700	-3.349	0.100
345.800	-16.523	0.100
345.900	-22.906	0.100
346.000	-15.958	0.100
346.100	-19.187	0.100
346.200	-24.595	0.100
346.300	-11.767	0.100
346.400	-28.404	0.100
346.500	-6.982	0.100
346.600	-13.279	0.100
346.700	-8.432	0.100
346.800	-17.164	0.100
346.900	-15.409	0.100
347.000	-30.187	0.100
347.100	-10.652	0.100
347.200	-9.458	0.100
347.300	-14.371	0.100
347.400	-14.500	0.100
347.500	-26.525	0.100
347.600	-27.774	0.100
347.700	-13.723	0.100
347.800	-27.525	0.100
347.900	-7.081	0.100
348.000	-1.535	0.100
348.100	-2.166	0.100
348.200	-17.897	0.100
348.300	-1.656	0.100
348.400	-27.598	0.100
348.500	-20.078	0.100
348.600	-23.003	0.100
348.700	-13.376	0.100
348.800	-14.447	0.100
348.900	-11.216	0.100
349.000	-10.292	0.100
349.100	-25.969	0.100
349.200	-17.768	0.100
349.300	-12.562	0.100
349.400	-13.707	0.100
349.500	-31.340	0.100
349.600	-17.007	0.100
349.700	-3.366	0.100
349.800	-7.857	0.100
349.900	-13.224	0.100
350.000	-4.050	0.100
350.100	-18.584	0.100
350.200	-16.871	0.100
350.300	-10.537	0.100
350.400	-9.919	0.100
350.500	-8.364	0.100
350.600	-12.085	0.100
350.700	-21.351	0.100
350.800	-8.008	0.100
350.900	-14.267	0.100
351.000	-20.146	0.100
351.100	-5.864	0.100
351.200	-7.081	0.100
351.300	-25.049	0.100
351.400	-12.935	0.100
351.500	-13.789	0.100
351.600	-10.939	0.100
351.700	-15.799	0.100
351.800	-15.830	0.100
351.900	-27.090	0.100
352.000	-16.798	0.100
352.100	5.866	0.100
352.200	-4.531	0.100
352.300	-17.396	0.100
352.400	-15.904	0.100
352.500	-22.026	0.100
352.600	-22.544	0.100
352.700	-26.946	0.100
352.800	-11.139	0.100
352.900	-2.757	0.100
353.000	-15.351	0.100
353.100	-32.573	0.100
353.200	-19.739	0.100
353.300	-16.809	0.100
353.400	-8.997	0.100
353.500	-4.846	0.100
353.600	-20.439	0.100
353.700	-22.565	0.100
353.800	-12.812	0.100
353.900	-14.987	0.100
354.000	-18.865	0.100
354.100	6.386	0.100
354.200	-3.765	0.100
354.300	-15.426	0.100
354.400	-20.175	0.100
354.500	-15.266	0.100
354.600	-17.298	0.100
354.700	-26.871	0.100
354.800	-29.207	0.100
354.900	-11.695	0.100
355.000	-12.439	0.100
355.100	-33.303	0.100
355.200	-12.564	0.100
355.300	-13.719	0.100
355.400	-13.814	0.100
355.500	-13.620	0.100
355.600	-12.430	0.100
355.700	-15.546	0.100
355.800	-20.255	0.100
355.900	-18.190	0.100
356.000	-12.628	0.100
356.100	-10.591	0.100
356.200	-24.808	0.100
356.300	-16.408	0.100
356.400	-12.381	0.100
356.500	-17.412	0.100
356.600	-10.809	0.100
356.700	-21.087	0.100
356.800	-18.984	0.100
356.900	-7.215	0.100
357.000	-5.905	0.100
357.100	-20.787	0.100
357.200	-14.263	0.100
357.300	-27.569	0.100
357.400	-14.554	0.100
357.500	-19.118	0.100
357.600	-18.484	0.100
357.700	-6.083	0.100
357.800	-5.036	0.100
357.900	-10.710	0.100
358.000	-21.748	0.100
358.100	-10.110	0.100
358.200	-16.386	0.100
358.300	-8.058	0.100
358.400	-18.160	0.100
358.500	-31.285	0.100
358.600	-2.645	0.100
358.700	-20.601	0.100
358.800	-27.598	0.100
358.900	-20.268	0.100
359.000	-10.519	0.100
359.100	-6.821	0.100
359.200	-18.265	0.100
359.300	-3.041	0.100
359.400	-10.633	0.100
359.500	2.038	0.100
359.600	-10.830	0.100
359.700	-29.136	0.100
359.800	-14.423	0.100
359.900	-10.837	0.100
360.000	-7.139	0.100
360.100	-22.984	0.100
360.200	-28.284	0.100
360.300	-12.106	0.100
360.400	-10.608	0.100
360.500	-23.774	0.100
360.600	-27.731	0.100
360.700	-18.177	0.100
360.800	-13.873	0.100
360.900	-11.701	0.100
361.000	-7.053	0.100
361.100	-17.538	0.100
361.200	-16.966	0.100
361.300	-21.382	0.100
361.400	-0.297	0.100
361.500	-7.445	0.100
361.600	-16.230	0.100
361.700	-3.826	0.100
361.800	-8.711	0.100
361.900	-26.652	0.100
362.000	-20.146	0.100
362.100	-14.561	0.100
362.200	-22.904	0.100
362.300	-19.572	0.100
362.400	-13.581	0.100
362.500	-13.276	0.100
362.600	-21.747	0.100
362.700	-20.102	0.100
362.800	-1.668	0.100
362.900	-16.235	0.100
363.000	-18.753	0.100
363.100	-29.723	0.100
363.200	-13.984	0.100
363.300	-3.269	0.100
363.400	-8.304	0.100
363.500	-4.850	0.100
363.600	-14.752	0.100
363.700	-19.810	0.100
363.800	-20.655	0.100
363.900	-18.538	0.100
364.000	-2.314	0.100
364.100	-19.193	0.100
364.200	-4.380	0.100
364.300	-17.989	0.100
364.400	-26.593	0.100
364.500	2.832	0.100
364.600	-21.428	0.100
364.700	-12.970	0.100
364.800	-16.978	0.100
364.900	-18.055	0.100
365.000	-4.086	0.100
365.100	-13.105	0.100
365.200	-16.833	0.100
365.300	-9.099	0.100
365.400	-7.633	0.100
365.500	-18.997	0.100
365.600	-11.526	0.100
365.700	-3.068	0.100
365.800	-28.322	0.100
365.900	-14.502	0.100
366.000	-31.481	0.100
366.100	-13.205	0.100
366.200	-13.815	0.100
366.300	-20.407	0.100
366.400	-15.487	0.100
366.500	-10.729	0.100
366.600	-23.484	0.100
366.700	-27.263	0.100
366.800	-21.289	0.100
366.900	-14.707	0.100
367.000	-12.670	0.100
367.100	-3.329	0.100
367.200	-22.003	0.100
367.300	-11.504	0.100
367.400	1.792	0.100
367.500	-10.796	0.100
367.600	-21.308	0.100
367.700	-12.309	0.100
367.800	-8.511	0.100
367.900	-2.589	0.100
368.000	-27.185	0.100
368.100	-6.454	0.100
368.200	-15.422	0.100
368.300	-14.514	0.100
368.400	-11.164	0.100
368.500	-6.433	0.100
368.600	-17.750	0.100
368.700	-17.960	0.100
368.800	-8.055	0.100
368.900	-14.564	0.100
369.000	-13.318	0.100
369.100	-7.015	0.100
369.200	-19.110	0.100
369.300	-22.345	0.100
369.400	-4.062	0.100
369.500	-11.858	0.100
369.600	-8.923	0.100
369.700	2.550	0.100
369.800	-13.410	0.100
369.900	-21.972	0.100
370.000	-12.863	0.100
370.100	-10.749	0.100
370.200	-26.768	0.100
370.300	-21.998	0.100
370.400	-10.186	0.100
370.500	-20.401	0.100
370.600	-4.615	0.100
370.700	-8.857	0.100
370.800	-14.110	0.100
370.900	-18.687	0.100
371.000	-27.605	0.100
371.100	-20.927	0.100
371.200	-22.439	0.100
371.300	-22.340	0.100
371.400	-10.607	0.100
371.500	-14.295	0.100
371.600	-14.581	0.100
371.700	-3.806	0.100
371.800	-4.727	0.100
371.900	-24.750	0.100
372.000	-16.576	0.100
372.100	-5.553	0.100
372.200	-14.763	0.100
372.300	-9.206	0.100
372.400	-11.294	0.100
372.500	-2.426	0.100
372.600	-6.246	0.100
372.700	-4.250	0.100
372.800	-21.393	0.100
372.900	-20.835	0.100
373.000	-15.046	0.100
373.100	3.794	0.100
373.200	-12.524	0.100
373.300	-18.781	0.100
373.400	-14.095	0.100
373.500	-10.492	0.100
373.600	-8.624	0.100
373.700	-11.547	0.100
373.800	-17.048	0.100
373.900	-8.251	0.100
374.000	-9.096	0.100
374.100	-18.821	0.100
374.200	-14.467	0.100
374.300	-6.272	0.100
374.400	-3.841	0.100
374.500	-8.660	0.100
374.600	-12.261	0.100
374.700	-16.146	0.100
374.800	-15.589	0.100
374.900	-14.617	0.100
375.000	-18.004	0.100
375.100	-21.929	0.100
375.200	-20.958	0.100
375.300	-16.273	0.100
375.400	-15.352	0.100
375.500	-9.056	0.100
375.600	-12.961	0.100
375.700	-13.876	0.100
375.800	-14.488	0.100
375.900	-7.878	0.100
376.000	-19.162	0.100
376.100	-9.534	0.100
376.200	-0.187	0.100
376.300	-26.574	0.100
376.400	-18.188	0.100
376.500	-18.078	0.100
376.600	-3.591	0.100
376.700	-26.457	0.100
376.800	-21.245	0.100
376.900	-20.753	0.100
377.000	-6.762	0.100
377.100	-13.293	0.100
377.200	-6.163	0.100
377.300	-3.129	0.100
377.400	-28.306	0.100
377.500	-22.277	0.100
377.600	-5.999	0.100
377.700	-11.182	0.100
377.800	-13.601	0.100
377.900	-19.639	0.100
378.000	-25.592	0.100
378.100	-20.170	0.100
378.200	-11.452	0.100
378.300	-6.934	0.100
378.400	-19.297	0.100
378.500	-19.534	0.100
378.600	-14.877	0.100
378.700	-19.490	0.100
378.800	-10.207	0.100
378.900	-16.688	0.100
379.000	-8.657	0.100
379.100	-16.720	0.100
379.200	-12.107	0.100
379.300	-13.308	0.100
379.400	4.630	0.100
379.500	-15.889	0.100
379.600	-16.247	0.100
379.700	-11.036	0.100
379.800	-37.089	0.100
379.900	-17.700	0.100
380.000	-10.383	0.100
380.100	-12.312	0.100
380.200	-16.045	0.100
380.300	-16.546	0.100
380.400	-0.158	0.100
380.500	-6.494	0.100
380.600	-12.430	0.100
380.700	-1.239	0.100
380.800	-18.730	0.100
380.900	-29.205	0.100
381.000	-21.431	0.100
381.100	-7.275	0.100
381.200	-12.649	0.100
381.300	-19.836	0.100
381.400	-16.463	0.100
381.500	-11.991	0.100
381.600	-12.150	0.100
381.700	0.640	0.100
381.800	-21.832	0.100
381.900	0.577	0.100
382.000	-9.042	0.100
382.100	-17.702	0.100
382.200	6.120	0.100
382.300	-15.652	0.100
382.400	-9.912	0.100
382.500	-11.951	0.100
382.600	-22.375	0.100
382.700	-16.088	0.100
382.800	-25.271	0.100
382.900	-5.269	0.100
383.000	-16.950	0.100
383.100	-9.478	0.100
383.200	-8.526	0.100
383.300	-6.741	0.100
383.400	-14.968	0.100
383.500	-19.171	0.100
383.600	-11.216	0.100
383.700	-19.401	0.100
383.800	-16.928	0.100
383.900	-7.905	0.100
384.000	-7.688	0.100
384.100	-7.015	0.100
384.200	0.210	0.100
384.300	-12.590	0.100
384.400	-10.761	0.100
384.500	-11.592	0.100
384.600	-24.601	0.100
384.700	-1.152	0.100
384.800	-12.647	0.100
384.900	-13.788	0.100
385.000	-4.464	0.100
385.100	-8.986	0.100
385.200	-25.915	0.100
385.300	-19.168	0.100
385.400	-4.100	0.100
385.500	-8.876	0.100
385.600	-20.099	0.100
385.700	-27.630	0.100
385.800	-8.584	0.100
385.900	-8.251	0.100
386.000	-17.491	0.100
386.100	-12.969	0.100
386.200	-13.879	0.100
386.300	-18.142	0.100
386.400	-18.016	0.100
386.500	-20.631	0.100
386.600	-22.291	0.100
386.700	-11.698	0.100
386.800	-8.591	0.100
386.900	-13.533	0.100
387.000	-3.049	0.100
387.100	-18.187	0.100
387.200	-12.829	0.100
387.300	-14.120	0.100
387.400	-17.684	0.100
387.500	-15.679	0.100
387.600	-10.687	0.100
387.700	-28.047	0.100
387.800	-20.612	0.100
387.900	-23.774	0.100
388.000	-27.172	0.100
388.100	-12.685	0.100
388.200	-16.990	0.100
388.300	-16.515	0.100
388.400	-24.289	0.100
388.500	-2.197	0.100
388.600	-14.563	0.100
388.700	-22.843	0.100
388.800	-11.404	0.100
388.900	-14.350	0.100
389.000	-25.240	0.100
389.100	0.843	0.100
389.200	-14.733	0.100
389.300	-10.591	0.100
389.400	0.877	0.100
389.500	-9.115	0.100
389.600	-10.685	0.100
389.700	-9.713	0.100
389.800	-17.096	0.100
389.900	-20.074	0.100
390.000	-12.355	0.100
390.100	-7.808	0.100
390.200	-7.182	0.100
390.300	-14.525	0.100
390.400	-23.649	0.100
390.500	-9.847	0.100
390.600	-9.895	0.100
390.700	-0.604	0.100
390.800	18.210	0.100
390.900	-13.903	0.100
391.000	4.222	0.100
391.100	14.169	0.100
391.200	10.752	0.100
391.300	9.509	0.100
391.400	21.625	0.100
391.500	8.521	0.100
391.600	17.815	0.100
391.700	4.214	0.100
391.800	4.488	0.100
391.900	9.825	0.100
392.000	27.686	0.100
392.100	12.689	0.100
392.200	21.022	0.100
392.300	11.945	0.100
392.400	2.264	0.100
392.500	13.164	0.100
392.600	27.798	0.100
392.700	19.914	0.100
392.800	32.108	0.100
392.900	11.396	0.100
393.000	18.268	0.100
393.100	9.252	0.100
393.200	16.153	0.100
393.300	28.343	0.100
393.400	36.001	0.100
393.500	9.103	0.100
393.600	28.537	0.100
393.700	28.539	0.100
393.800	16.260	0.100
393.900	25.894	0.100
394.000	24.175	0.100
394.100	29.819	0.100
394.200	12.607	0.100
394.300	25.840	0.100
394.400	23.064	0.100
394.500	23.851	0.100
394.600	8.182	0.100
394.700	13.968	0.100
394.800	14.300	0.100
394.900	12.973	0.100
395.000	18.765	0.100
395.100	23.185	0.100
395.200	24.170	0.100
395.300	18.644	0.100
395.400	22.857	0.100
395.500	18.931	0.100
395.600	18.542	0.100
395.700	12.153	0.100
395.800	10.126	0.100
395.900	25.725	0.100
396.000	23.264	0.100
396.100	19.602	0.100
396.200	21.633	0.100
396.300	18.211	0.100
396.400	12.944	0.100
396.500	19.044	0.100
396.600	18.334	0.100
396.700	17.519	0.100
396.800	17.513	0.100
396.900	28.185	0.100
397.000	26.575	0.100
397.100	19.612	0.100
397.200	21.028	0.100
397.300	14.392	0.100
397.400	14.106	0.100
397.500	29.943	0.100
397.600	17.902	0.100
397.700	8.324	0.100
397.800	11.545	0.100
397.900	8.844	0.100
398.000	40.208	0.100
398.100	31.219	0.100
398.200	29.571	0.100
398.300	22.126	0.100
398.400	19.600	0.100
398.500	14.702	0.100
398.600	20.035	0.100
398.700	9.530	0.100
398.800	25.359	0.100
398.900	24.295	0.100
399.000	19.082	0.100
399.100	14.621	0.100
399.200	22.954	0.100
399.300	27.790	0.100
399.400	19.065	0.100
399.500	31.094	0.100
399.600	23.393	0.100
399.700	31.387	0.100
399.800	33.306	0.100
399.900	29.651	0.100
400.000	12.741	0.100
400.100	30.366	0.100
400.200	33.770	0.100
400.300	28.407	0.100
400.400	30.442	0.100
400.500	34.913	0.100
400.600	34.033	0.100
400.700	26.238	0.100
400.800	30.034	0.100
400.900	30.024	0.100
401.000	28.709	0.100
401.100	17.025	0.100
401.200	23.415	0.100
401.300	42.775	0.100
401.400	33.572	0.100
401.500	29.752	0.100
401.600	32.390	0.100
401.700	38.296	0.100
401.800	38.323	0.100
401.900	21.912	0.100
402.000	44.110	0.100
402.100	44.255	0.100
402.200	39.099	0.100
402.300	38.608	0.100
402.400	28.090	0.100
402.500	31.039	0.100
402.600	39.314	0.100
402.700	45.869	0.100
402.800	48.796	0.100
402.900	38.461	0.100
403.000	44.115	0.100
403.100	49.936	0.100
403.200	26.932	0.100
403.300	31.346	0.100
403.400	39.990	0.100
403.500	56.350	0.100
403.600	48.345	0.100
403.700	51.952	0.100
403.800	50.593	0.100
403.900	43.363	0.100
404.000	48.690	0.100
404.100	37.656	0.100
404.200	29.089	0.100
404.300	43.005	0.100
404.400	43.259	0.100
404.500	61.895	0.100
404.600	47.967	0.100
404.700	45.402	0.100
404.800	38.753	0.100
404.900	57.568	0.100
405.000	47.176	0.100
405.100	68.050	0.100
405.200	62.928	0.100
405.300	55.236	0.100
405.400	59.189	0.100
405.500	45.580	0.100
405.600	60.154	0.100
405.700	50.138	0.100
405.800	61.622	0.100
405.900	50.242	0.100
406.000	46.118	0.100
406.100	43.824	0.100
406.200	44.384	0.100
406.300	72.281	0.100
406.400	63.328	0.100
406.500	67.580	0.100
406.600	66.875	0.100
406.700	53.474	0.100
406.800	59.549	0.100
406.900	63.774	0.100
407.000	75.459	0.100
407.100	72.754	0.100
407.200	63.470	0.100
407.300	59.292	0.100
407.400	64.355	0.100
407.500	68.124	0.100
407.600	68.426	0.100
407.700	56.584	0.100
407.800	61.842	0.100
407.900	64.516	0.100
408.000	74.815	0.100
408.100	78.961	0.100
408.200	70.373	0.100
408.300	67.661	0.100
408.400	75.922	0.100
408.500	70.955	0.100
408.600	69.868	0.100
408.700	68.923	0.100
408.800	75.066	0.100
408.900	70.078	0.100
409.000	50.934	0.100
409.100	61.057	0.100
409.200	74.844	0.100
409.300	73.449	0.100
409.400	82.108	0.100
409.500	67.322	0.100
409.600	67.164	0.100
409.700	68.613	0.100
409.800	81.366	0.100
409.900	69.730	0.100
410.000	74.458	0.100
410.100	71.479	0.100
410.200	91.778	0.100
410.300	78.541	0.100
410.400	72.730	0.100
410.500	72.682	0.100
410.600	82.961	0.100
410.700	77.410	0.100
410.800	73.777	0.100
410.900	80.610	0.100
411.000	67.687	0.100
411.100	73.984	0.100
411.200	75.643	0.100
411.300	76.760	0.100
411.400	64.199	0.100
411.500	69.608	0.100
411.600	69.172	0.100
411.700	71.486	0.100
411.800	76.464	0.100
411.900	76.067	0.100
412.000	86.794	0.100
412.100	74.496	0.100
412.200	94.226	0.100
412.300	71.139	0.100
412.400	79.001	0.100
412.500	79.104	0.100
412.600	79.486	0.100
412.700	78.372	0.100
412.800	92.588	0.100
412.900	68.412	0.100
413.000	84.943	0.100
413.100	84.632	0.100
413.200	71.437	0.100
413.300	65.304	0.100
413.400	66.923	0.100
413.500	81.690	0.100
413.600	88.598	0.100
413.700	83.198	0.100
413.800	71.952	0.100
413.900	83.634	0.100
414.000	80.940	0.100
414.100	74.965	0.100
414.200	74.905	0.100
414.300	83.713	0.100
414.400	71.303	0.100
414.500	68.026	0.100
414.600	79.415	0.100
414.700	89.195	0.100
414.800	84.185	0.100
414.900	63.881	0.100
415.000	83.751	0.100
415.100	81.062	0.100
415.200	73.274	0.100
415.300	75.895	0.100
415.400	63.079	0.100
415.500	86.845	0.100
415.600	85.429	0.100
415.700	77.113	0.100
415.800	79.393	0.100
415.900	74.166	0.100
416.000	73.635	0.100
416.100	74.959	0.100
416.200	68.404	0.100
416.300	90.907	0.100
416.400	69.118	0.100
416.500	66.085	0.100
416.600	83.256	0.100
416.700	70.999	0.100
416.800	76.460	0.100
416.900	69.196	0.100
417.000	66.924	0.100
417.100	70.712	0.100
417.200	84.392	0.100
417.300	61.759	0.100
417.400	69.630	0.100
417.500	90.695	0.100
417.600	78.888	0.100
417.700	75.223	0.100
417.800	76.099	0.100
417.900	76.117	0.100
418.000	79.636	0.100
418.100	76.250	0.100
418.200	73.096	0.100
418.300	72.044	0.100
418.400	71.686	0.100
418.500	82.827	0.100
418.600	63.467	0.100
418.700	67.631	0.100
418.800	64.294	0.100
418.900	73.189	0.100
419.000	73.020	0.100
419.100	60.037	0.100
419.200	71.184	0.100
419.300	80.465	0.100
419.400	74.434	0.100
419.500	62.892	0.100
419.600	81.849	0.100
419.700	80.612	0.100
419.800	80.700	0.100
419.900	89.721	0.100
420.000	75.145	0.100
420.100	71.089	0.100
420.200	71.155	0.100
420.300	59.659	0.100
420.400	65.138	0.100
420.500	63.167	0.100
420.600	76.299	0.100
420.700	77.021	0.100
420.800	73.620	0.100
420.900	62.829	0.100
421.000	52.708	0.100
421.100	60.076	0.100
421.200	57.641	0.100
421.300	57.891	0.100
421.400	46.033	0.100
421.500	35.120	0.100
421.600	51.307	0.100
421.700	54.005	0.100
421.800	48.247	0.100
421.900	49.688	0.100
422.000	55.243	0.100
422.100	38.627	0.100
422.200	35.018	0.100
422.300	49.601	0.100
422.400	45.735	0.100
422.500	20.203	0.100
422.600	40.159	0.100
422.700	33.938	0.100
422.800	27.489	0.100
422.900	27.996	0.100
423.000	35.728	0.100
423.100	22.806	0.100
423.200	18.075	0.100
423.300	36.030	0.100
423.400	29.301	0.100
423.500	11.912	0.100
423.600	32.861	0.100
423.700	28.536	0.100
423.800	22.417	0.100
423.900	24.581	0.100
424.000	26.443	0.100
424.100	14.728	0.100
424.200	13.068	0.100
424.300	17.458	0.100
424.400	12.372	0.100
424.500	29.193	0.100
424.600	5.158	0.100
424.700	6.853	0.100
424.800	21.911	0.100
424.900	12.579	0.100
425.000	1.682	0.100
425.100	10.615	0.100
425.200	13.906	0.100
425.300	18.852	0.100
425.400	19.699	0.100
425.500	20.364	0.100
425.600	12.902	0.100
425.700	2.007	0.100
425.800	13.105	0.100
425.900	16.459	0.100
426.000	14.044	0.100
426.100	6.154	0.100
426.200	13.746	0.100
426.300	4.906	0.100
426.400	12.450	0.100
426.500	22.652	0.100
426.600	4.944	0.100
426.700	14.716	0.100
426.800	7.475	0.100
426.900	3.522	0.100
427.000	17.105	0.100
427.100	-8.967	0.100
427.200	-3.865	0.100
427.300	20.251	0.100
427.400	5.260	0.100
427.500	8.687	0.100
427.600	-5.568	0.100
427.700	-3.486	0.100
427.800	11.000	0.100
427.900	13.652	0.100
428.000	16.456	0.100
428.100	0.530	0.100
428.200	6.966	0.100
428.300	-0.204	0.100
428.400	13.505	0.100
428.500	7.109	0.100
428.600	7.833	0.100
428.700	11.670	0.100
428.800	0.960	0.100
428.900	2.895	0.100
429.000	7.212	0.100
429.100	4.708	0.100
429.200	6.326	0.100
429.300	4.871	0.100
429.400	-1.439	0.100
429.500	2.512	0.100
429.600	10.427	0.100
429.700	5.640	0.100
429.800	15.429	0.100
429.900	12.639	0.100
430.000	9.323	0.100
430.100	-2.387	0.100
430.200	-9.428	0.100
430.300	7.381	0.100
430.400	0.356	0.100
430.500	10.151	0.100
430.600	-0.167	0.100
430.700	20.324	0.100
430.800	10.066	0.100
430.900	1.718	0.100
431.000	8.567	0.100
431.100	2.052	0.100
431.200	1.761	0.100
431.300	-0.438	0.100
431.400	9.805	0.100
431.500	1.692	0.100
431.600	10.494	0.100
431.700	19.097	0.100
431.800	-5.537	0.100
431.900	-2.926	0.100
432.000	9.758	0.100
432.100	5.251	0.100
432.200	7.593	0.100
432.300	7.976	0.100
432.400	16.640	0.100
432.500	-8.813	0.100
432.600	-7.677	0.100
432.700	9.894	0.100
432.800	13.525	0.100
432.900	2.068	0.100
433.000	0.984	0.100
433.100	4.815	0.100
433.200	9.203	0.100
433.300	11.350	0.100
433.400	3.827	0.100
433.500	-2.491	0.100
433.600	0.819	0.100
433.700	3.762	0.100
433.800	4.977	0.100
433.900	10.289	0.100
434.000	4.083	0.100
434.100	10.338	0.100
434.200	19.666	0.100
434.300	5.756	0.100
434.400	0.350	0.100
434.500	6.087	0.100
434.600	2.390	0.100
434.700	-0.597	0.100
434.800	14.884	0.100
434.900	-2.522	0.100
435.000	0.383	0.100
435.100	9.165	0.100
435.200	3.703	0.100
435.300	8.536	0.100
435.400	8.075	0.100
435.500	-0.352	0.100
435.600	3.589	0.100
435.700	5.425	0.100
435.800	3.010	0.100
435.900	-15.001	0.100
436.000	9.945	0.100
436.100	6.942	0.100
436.200	-7.716	0.100
436.300	-8.691	0.100
436.400	7.867	0.100
436.500	8.784	0.100
436.600	2.199	0.100
436.700	3.510	0.100
436.800	2.382	0.100
436.900	1.638	0.100
437.000	-11.377	0.100
437.100	7.759	0.100
437.200	12.333	0.100
437.300	9.897	0.100
437.400	9.840	0.100
437.500	-1.224	0.100
437.600	3.158	0.100
437.700	6.614	0.100
437.800	-8.505	0.100
437.900	-2.834	0.100
438.000	-5.381	0.100
438.100	-4.525	0.100
438.200	0.456	0.100
438.300	11.120	0.100
438.400	-0.136	0.100
438.500	5.042	0.100
438.600	2.081	0.100
438.700	-9.990	0.100
438.800	-5.392	0.100
438.900	-1.453	0.100
439.000	-7.511	0.100
439.100	7.421	0.100
439.200	5.478	0.100
439.300	10.659	0.100
439.400	-5.937	0.100
439.500	-11.920	0.100
439.600	2.647	0.100
439.700	7.912	0.100
439.800	-0.391	0.100
439.900	-17.399	0.100
440.000	-14.185	0.100
440.100	-2.228	0.100
440.200	19.068	0.100
440.300	1.150	0.100
440.400	-8.694	0.100
440.500	-0.298	0.100
440.600	9.793	0.100
440.700	-4.797	0.100
440.800	-15.328	0.100
440.900	-0.746	0.100
441.000	0.982	0.100
441.100	13.263	0.100
441.200	5.255	0.100
441.300	-11.582	0.100
441.400	9.464	0.100
441.500	-7.284	0.100
441.600	-2.494	0.100
441.700	4.111	0.100
441.800	1.197	0.100
441.900	-12.096	0.100
442.000	-8.684	0.100
442.100	-6.851	0.100
442.200	-7.958	0.100
442.300	-0.512	0.100
442.400	-8.650	0.100
442.500	-2.005	0.100
442.600	-12.157	0.100
442.700	-15.043	0.100
442.800	-0.401	0.100
442.900	3.928	0.100
443.000	-14.204	0.100
443.100	-3.424	0.100
443.200	-16.156	0.100
443.300	-0.982	0.100
443.400	-5.824	0.100
443.500	12.813	0.100
443.600	-3.094	0.100
443.700	0.168	0.100
443.800	-12.268	0.100
443.900	-4.078	0.100
444.000	-15.786	0.100
444.100	-3.284	0.100
444.200	-15.441	0.100
444.300	-5.251	0.100
444.400	-20.529	0.100
444.500	-15.254	0.100
444.600	-8.196	0.100
444.700	-3.738	0.100
444.800	7.447	0.100
444.900	-7.856	0.100
445.000	-13.675	0.100
445.100	4.366	0.100
445.200	-18.813	0.100
445.300	-4.253	0.100
445.400	-10.443	0.100
445.500	-0.379	0.100
445.600	-14.175	0.100
445.700	-13.006	0.100
445.800	-4.577	0.100
445.900	1.916	0.100
446.000	-12.074	0.100
446.100	-1.882	0.100
446.200	-11.401	0.100
446.300	-5.142	0.100
446.400	-13.551	0.100
446.500	-17.099	0.100
446.600	-1.508	0.100
446.700	-2.646	0.100
446.800	5.336	0.100
446.900	-16.431	0.100
447.000	-12.721	0.100
447.100	-5.684	0.100
447.200	-4.785	0.100
447.300	-9.347	0.100
447.400	-14.508	0.100
447.500	-2.704	0.100
447.600	-20.370	0.100
447.700	-6.200	0.100
447.800	-6.300	0.100
447.900	6.094	0.100
448.000	-22.594	0.100
448.100	-6.795	0.100
448.200	-14.328	0.100
448.300	-6.638	0.100
448.400	-13.877	0.100
448.500	-2.824	0.100
448.600	-6.127	0.100
448.700	-14.592	0.100
448.800	-18.944	0.100
448.900	-18.341	0.100
449.000	-12.779	0.100
449.100	-2.718	0.100
449.200	-2.912	0.100
449.300	-7.984	0.100
449.400	-11.802	0.100
449.500	-9.430	0.100
449.600	-25.548	0.100
449.700	-11.765	0.100
449.800	-12.487	0.100
449.900	-3.489	0.100
450.000	-10.277	0.100
450.100	1.045	0.100
450.200	-10.126	0.100
450.300	-22.600	0.100
450.400	-19.212	0.100
450.500	-16.902	0.100
450.600	-19.331	0.100
450.700	-27.208	0.100
450.800	-7.632	0.100
450.900	-12.095	0.100
451.000	-7.610	0.100
451.100	-12.718	0.100
451.200	-20.276	0.100
451.300	-26.645	0.100
451.400	-16.722	0.100
451.500	4.184	0.100
451.600	-0.139	0.100
451.700	-16.766	0.100
451.800	-14.221	0.100
451.900	-3.137	0.100
452.000	-12.239	0.100
452.100	-9.436	0.100
452.200	0.238	0.100
452.300	-19.794	0.100
452.400	-27.404	0.100
452.500	-8.250	0.100
452.600	-8.469	0.100
452.700	-12.779	0.100
452.800	3.834	0.100
452.900	-5.775	0.100
453.000	-10.919	0.100
453.100	-0.309	0.100
453.200	-9.725	0.100
453.300	-20.175	0.100
453.400	-22.230	0.100
453.500	-12.504	0.100
453.600	-12.403	0.100
453.700	-17.457	0.100
453.800	-1.587	0.100
453.900	-21.820	0.100
454.000	-6.745	0.100
454.100	-11.462	0.100
454.200	-13.474	0.100
454.300	-21.586	0.100
454.400	-27.711	0.100
454.500	-4.197	0.100
454.600	-17.270	0.100
454.700	-19.368	0.100
454.800	-7.110	0.100
454.900	-3.544	0.100
455.000	-25.874	0.100
455.100	-7.987	0.100
455.200	0.314	0.100
455.300	-13.701	0.100
455.400	-5.637	0.100
455.500	-8.876	0.100
455.600	-15.574	0.100
455.700	-19.458	0.100
455.800	-20.383	0.100
455.900	-17.494	0.100
456.000	-8.611	0.100
456.100	-6.158	0.100
456.200	-7.506	0.100
456.300	-8.619	0.100
456.400	-15.814	0.100
456.500	-24.358	0.100
456.600	-10.544	0.100
456.700	-9.927	0.100
456.800	-23.289	0.100
456.900	-15.741	0.100
457.000	-13.498	0.100
457.100	-28.080	0.100
457.200	-32.795	0.100
457.300	-18.316	0.100
457.400	-14.236	0.100
457.500	0.301	0.100
457.600	-21.764	0.100
457.700	-14.307	0.100
457.800	-13.619	0.100
457.900	-13.129	0.100
458.000	-23.039	0.100
458.100	-14.355	0.100
458.200	-6.781	0.100
458.300	-22.744	0.100
458.400	-10.746	0.100
458.500	-9.104	0.100
458.600	-14.676	0.100
458.700	-21.064	0.100
458.800	-10.802	0.100
458.900	-8.424	0.100
459.000	-16.777	0.100
459.100	-25.581	0.100
459.200	-13.473	0.100
459.300	-8.608	0.100
459.400	-12.358	0.100
459.500	-5.720	0.100
459.600	-20.381	0.100
459.700	-9.081	0.100
459.800	-10.218	0.100
459.900	-24.602	0.100
460.000	-0.298	0.100
460.100	-8.050	0.100
460.200	-22.167	0.100
460.300	-11.441	0.100
460.400	-24.478	0.100
460.500	-17.141	0.100
460.600	-28.511	0.100
460.700	-12.124	0.100
460.800	-7.737	0.100
460.900	-19.795	0.100
461.000	-18.341	0.100
461.100	-21.452	0.100
461.200	-11.478	0.100
461.300	-10.439	0.100
461.400	-12.791	0.100
461.500	-9.628	0.100
461.600	-9.331	0.100
461.700	-23.610	0.100
461.800	-13.666	0.100
461.900	-15.753	0.100
462.000	-13.550	0.100
462.100	-22.458	0.100
462.200	-20.060	0.100
462.300	-18.910	0.100
462.400	-21.193	0.100
462.500	-12.577	0.100
462.600	-25.651	0.100
462.700	-13.793	0.100
462.800	-19.204	0.100
462.900	-23.007	0.100
463.000	-8.456	0.100
463.100	-7.325	0.100
463.200	-14.525	0.100
463.300	-8.827	0.100
463.400	-14.703	0.100
463.500	-6.404	0.100
463.600	-12.330	0.100
463.700	-19.033	0.100
463.800	-11.635	0.100
463.900	-16.807	0.100
464.000	-12.234	0.100
464.100	-5.967	0.100
464.200	-16.773	0.100
464.300	-11.627	0.100
464.400	-14.367	0.100
464.500	-12.326	0.100
464.600	-33.458	0.100
464.700	-20.631	0.100
464.800	-22.782	0.100
464.900	-18.589	0.100
465.000	-17.276	0.100
465.100	-7.628	0.100
465.200	-18.338	0.100
465.300	-22.971	0.100
465.400	-12.703	0.100
465.500	-15.205	0.100
465.600	-24.101	0.100
465.700	-11.533	0.100
465.800	-8.753	0.100
465.900	-12.019	0.100
466.000	-13.375	0.100
466.100	-14.343	0.100
466.200	-19.240	0.100
466.300	-23.440	0.100
466.400	-13.435	0.100
466.500	-13.612	0.100
466.600	-36.073	0.100
466.700	-21.182	0.100
466.800	-15.224	0.100
466.900	-29.261	0.100
467.000	-17.970	0.100
467.100	-9.563	0.100
467.200	-14.056	0.100
467.300	-25.571	0.100
467.400	-10.372	0.100
467.500	-18.366	0.100
467.600	-16.330	0.100
467.700	-1.568	0.100
467.800	-18.055	0.100
467.900	-22.636	0.100
468.000	-18.626	0.100
468.100	-12.181	0.100
468.200	-23.206	0.100
468.300	-21.581	0.100
468.400	-12.734	0.100
468.500	-11.012	0.100
468.600	-11.631	0.100
468.700	-14.145	0.100
468.800	-18.468	0.100
468.900	-19.121	0.100
469.000	-25.466	0.100
469.100	-28.363	0.100
469.200	-7.557	0.100
469.300	-9.765	0.100
469.400	-7.020	0.100
469.500	-13.225	0.100
469.600	-20.989	0.100
469.700	-32.334	0.100
469.800	-21.524	0.100
469.900	-24.945	0.100
470.000	-2.011	0.100
470.100	-7.223	0.100
470.200	-15.330	0.100
470.300	-19.674	0.100
470.400	-17.685	0.100
470.500	-8.114	0.100
470.600	-11.234	0.100
470.700	-26.877	0.100
470.800	-15.733	0.100
470.900	-12.081	0.100
471.000	-19.811	0.100
471.100	-33.508	0.100
471.200	-13.337	0.100
471.300	-18.047	0.100
471.400	-16.296	0.100
471.500	-27.294	0.100
471.600	-26.324	0.100
471.700	-9.179	0.100
471.800	-13.154	0.100
471.900	-26.492	0.100
472.000	-2.798	0.100
472.100	-19.708	0.100
472.200	-21.617	0.100
472.300	-20.504	0.100
472.400	-21.313	0.100
472.500	-18.786	0.100
472.600	-24.715	0.100
472.700	-24.541	0.100
472.800	-19.808	0.100
472.900	-2.213	0.100
473.000	-21.858	0.100
473.100	-17.702	0.100
473.200	-11.721	0.100
473.300	-3.420	0.100
473.400	-18.793	0.100
473.500	-8.043	0.100
473.600	-17.242	0.100
473.700	-16.296	0.100
473.800	-14.544	0.100
473.900	-3.603	0.100
474.000	-8.752	0.100
474.100	-14.073	0.100
474.200	-7.478	0.100
474.300	-15.207	0.100
474.400	-9.897	0.100
474.500	-16.764	0.100
474.600	-22.703	0.100
474.700	-12.366	0.100
474.800	-22.366	0.100
474.900	-15.558	0.100
475.000	-23.590	0.100
475.100	-6.581	0.100
475.200	-6.943	0.100
475.300	-11.790	0.100
475.400	-27.468	0.100
475.500	-12.178	0.100
475.600	-22.188	0.100
475.700	-16.018	0.100
475.800	-13.634	0.100
475.900	-32.187	0.100
476.000	-21.703	0.100
476.100	-22.199	0.100
476.200	-8.836	0.100
476.300	-15.623	0.100
476.400	-14.689	0.100
476.500	-20.674	0.100
476.600	-5.743	0.100
476.700	-17.762	0.100
476.800	-19.612	0.100
476.900	-12.741	0.100
477.000	-21.707	0.100
477.100	-8.460	0.100
477.200	-8.768	0.100
477.300	-18.746	0.100
477.400	-16.372	0.100
477.500	-18.089	0.100
477.600	-25.095	0.100
477.700	-22.463	0.100
477.800	-10.289	0.100
477.900	-12.485	0.100
478.000	-23.955	0.100
478.100	-13.742	0.100
478.200	-17.392	0.100
478.300	-7.430	0.100
478.400	-18.676	0.100
478.500	-19.992	0.100
478.600	-17.335	0.100
478.700	-13.949	0.100
478.800	-23.431	0.100
478.900	-9.749	0.100
479.000	-9.462	0.100
479.100	-20.339	0.100
479.200	-17.504	0.100
479.300	-14.054	0.100
479.400	-18.173	0.100
479.500	-16.631	0.100
479.600	-14.677	0.100
479.700	-20.497	0.100
479.800	-4.492	0.100
479.900	-22.491	0.100
480.000	-12.135	0.100
480.100	-27.111	0.100
480.200	-10.132	0.100
480.300	-10.904	0.100
480.400	-25.739	0.100
480.500	-17.818	0.100
480.600	-19.944	0.100
480.700	-28.266	0.100
480.800	-16.849	0.100
480.900	-15.544	0.100
481.000	-12.708	0.100
481.100	-13.561	0.100
481.200	-4.113	0.100
481.300	-4.785	0.100
481.400	-14.098	0.100
481.500	-16.215	0.100
481.600	-23.636	0.100
481.700	-14.723	0.100
481.800	-19.690	0.100
481.900	-18.964	0.100
482.000	-11.552	0.100
482.100	-11.802	0.100
482.200	-13.073	0.100
482.300	-21.267	0.100
482.400	-17.277	0.100
482.500	-12.440	0.100
482.600	-18.872	0.100
482.700	-5.795	0.100
482.800	-18.246	0.100
482.900	-11.928	0.100
483.000	-26.326	0.100
483.100	-0.150	0.100
483.200	-22.108	0.100
483.300	-8.088	0.100
483.400	-13.021	0.100
483.500	-38.727	0.100
483.600	-34.297	0.100
483.700	-5.084	0.100
483.800	-10.989	0.100
483.900	-14.692	0.100
484.000	-19.113	0.100
484.100	-18.369	0.100
484.200	-14.981	0.100
484.300	-19.094	0.100
484.400	0.767	0.100
484.500	-5.923	0.100
484.600	-30.339	0.100
484.700	-18.702	0.100
484.800	-8.374	0.100
484.900	-1.557	0.100
485.000	-8.108	0.100
485.100	-21.760	0.100
485.200	-28.323	0.100
485.300	-24.280	0.100
485.400	-12.583	0.100
485.500	-6.608	0.100
485.600	-8.468	0.100
485.700	-14.222	0.100
485.800	-22.879	0.100
485.900	-25.056	0.100
486.000	-5.933	0.100
486.100	-17.579	0.100
486.200	-24.941	0.100
486.300	-16.444	0.100
486.400	-29.221	0.100
486.500	-18.074	0.100
486.600	-16.580	0.100
486.700	-13.863	0.100
486.800	-15.040	0.100
486.900	-19.680	0.100
487.000	-8.706	0.100
487.100	-15.761	0.100
487.200	-7.701	0.100
487.300	-7.312	0.100
487.400	-27.242	0.100
487.500	-6.128	0.100
487.600	-14.269	0.100
487.700	-11.074	0.100
487.800	-19.054	0.100
487.900	-17.678	0.100
488.000	-24.302	0.100
488.100	-19.577	0.100
488.200	-18.885	0.100
488.300	-3.452	0.100
488.400	-10.611	0.100
488.500	-19.340	0.100
488.600	-12.116	0.100
488.700	-9.084	0.100
488.800	-23.461	0.100
488.900	-23.189	0.100
489.000	-12.730	0.100
489.100	-13.565	0.100
489.200	-20.159	0.100
489.300	-4.733	0.100
489.400	-31.955	0.100
489.500	-8.960	0.100
489.600	-25.014	0.100
489.700	-14.073	0.100
489.800	-15.038	0.100
489.900	-28.467	0.100
490.000	-16.301	0.100
490.100	-9.975	0.100
490.200	-30.420	0.100
490.300	-14.794	0.100
490.400	5.114	0.100
490.500	-13.324	0.100
490.600	-5.128	0.100
490.700	-20.673	0.100
490.800	-32.040	0.100
490.900	-32.829	0.100
491.000	-3.707	0.100
491.100	-22.536	0.100
491.200	-7.185	0.100
491.300	-16.435	0.100
491.400	-11.316	0.100
491.500	-5.987	0.100
491.600	-25.455	0.100
491.700	-28.548	0.100
491.800	-20.935	0.100
491.900	-11.710	0.100
492.000	-3.577	0.100
492.100	-20.381	0.100
492.200	-16.479	0.100
492.300	-19.382	0.100
492.400	-5.105	0.100
492.500	-19.711	0.100
492.600	-10.323	0.100
492.700	-18.367	0.100
492.800	-13.309	0.100
492.900	-19.139	0.100
493.000	-13.147	0.100
493.100	-4.114	0.100
493.200	-4.383	0.100
493.300	-9.842	0.100
493.400	-15.122	0.100
493.500	-26.421	0.100
493.600	-19.683	0.100
493.700	-18.919	0.100
493.800	-15.712	0.100
493.900	-25.036	0.100
494.000	-23.094	0.100
494.100	-22.078	0.100
494.200	-14.680	0.100
494.300	-4.498	0.100
494.400	-7.466	0.100
494.500	-17.126	0.100
494.600	-11.293	0.100
494.700	-15.336	0.100
494.800	-17.368	0.100
494.900	-15.707	0.100
495.000	-22.065	0.100
495.100	-10.931	0.100
495.200	-27.836	0.100
495.300	-14.253	0.100
495.400	-13.092	0.100
495.500	-19.327	0.100
495.600	-11.421	0.100
495.700	-4.202	0.100
495.800	-15.233	0.100
495.900	-13.963	0.100
496.000	-5.719	0.100
496.100	-17.086	0.100
496.200	-20.153	0.100
496.300	-11.789	0.100
496.400	-6.384	0.100
496.500	-10.156	0.100
496.600	-20.496	0.100
496.700	-9.862	0.100
496.800	-9.776	0.100
496.900	-20.311	0.100
497.000	-15.242	0.100
497.100	-13.294	0.100
497.200	-6.003	0.100
497.300	-25.774	0.100
497.400	-11.955	0.100
497.500	-10.494	0.100
497.600	-12.472	0.100
497.700	-16.396	0.100
497.800	-16.333	0.100
497.900	-36.617	0.100
498.000	-9.708	0.100
498.100	-11.348	0.100
498.200	-8.446	0.100
498.300	-9.797	0.100
498.400	-16.602	0.100
498.500	-32.264	0.100
498.600	-8.237	0.100
498.700	-8.448	0.100
498.800	-12.247	0.100
498.900	-20.218	0.100
499.000	-20.462	0.100
499.100	-16.839	0.100
499.200	-16.128	0.100
499.300	-4.064	0.100
499.400	-28.826	0.100
499.500	-8.152	0.100
499.600	-12.038	0.100
499.700	-28.316	0.100
499.800	-27.132	0.100
499.900	-18.753	0.100
500.000	-25.138	0.100
500.100	-1.309	0.100
500.200	-1.060	0.100
500.300	-15.771	0.100
500.400	-18.184	0.100
500.500	-12.633	0.100
500.600	-9.805	0.100
500.700	-16.979	0.100
500.800	-24.253	0.100
500.900	-18.916	0.100
501.000	-26.841	0.100
501.100	-10.320	0.100
501.200	-12.816	0.100
501.300	-12.274	0.100
501.400	-25.711	0.100
501.500	-11.049	0.100
501.600	-17.990	0.100
501.700	-16.275	0.100
501.800	-7.932	0.100
501.900	-10.210	0.100
502.000	-12.998	0.100
502.100	-20.415	0.100
502.200	-22.770	0.100
502.300	-6.260	0.100
502.400	-13.439	0.100
502.500	-0.468	0.100
502.600	-9.791	0.100
502.700	-11.800	0.100
502.800	-27.219	0.100
502.900	-31.604	0.100
503.000	-18.730	0.100
503.100	-11.722	0.100
503.200	-13.645	0.100
503.300	-14.923	0.100
503.400	-12.957	0.100
503.500	-15.344	0.100
503.600	-13.180	0.100
503.700	-11.469	0.100
503.800	-28.338	0.100
503.900	-9.988	0.100
504.000	-15.424	0.100
504.100	1.365	0.100
504.200	-0.193	0.100
504.300	-13.555	0.100
504.400	-32.016	0.100
504.500	-13.512	0.100
504.600	-17.400	0.100
504.700	-21.059	0.100
504.800	-15.697	0.100
504.900	2.242	0.100
505.000	-25.416	0.100
505.100	-27.349	0.100
505.200	-10.616	0.100
505.300	-16.737	0.100
505.400	-4.229	0.100
505.500	-10.985	0.100
505.600	-20.040	0.100
505.700	-17.902	0.100
505.800	-7.294	0.100
505.900	-2.872	0.100
506.000	-13.793	0.100
506.100	-15.332	0.100
506.200	-16.599	0.100
506.300	-4.296	0.100
506.400	-14.839	0.100
506.500	-11.530	0.100
506.600	-19.534	0.100
506.700	-17.914	0.100
506.800	-7.662	0.100
506.900	-16.971	0.100
507.000	-17.496	0.100
507.100	-12.427	0.100
507.200	-16.248	0.100
507.300	-22.069	0.100
507.400	-22.127	0.100
507.500	-10.505	0.100
507.600	-14.828	0.100
507.700	-5.930	0.100
507.800	-15.021	0.100
507.900	-11.373	0.100
508.000	-10.343	0.100
508.100	-18.690	0.100
508.200	-18.373	0.100
508.300	-21.879	0.100
508.400	-12.197	0.100
508.500	-9.806	0.100
508.600	-31.505	0.100
508.700	-6.063	0.100
508.800	-21.595	0.100
508.900	-1.697	0.100
509.000	5.511	0.100
509.100	-13.381	0.100
509.200	-12.055	0.100
509.300	-19.001	0.100
509.400	-16.793	0.100
509.500	-25.128	0.100
509.600	-18.359	0.100
509.700	-20.857	0.100
509.800	-18.988	0.100
509.900	-15.466	0.100
510.000	-7.771	0.100
510.100	-4.228	0.100
510.200	-29.871	0.100
510.300	-11.665	0.100
510.400	-14.366	0.100
510.500	-4.174	0.100
510.600	-9.950	0.100
510.700	8.926	0.100
510.800	-3.412	0.100
510.900	-6.830	0.100
511.000	-12.210	0.100
511.100	-19.864	0.100
511.200	13.907	0.100
511.300	8.463	0.100
511.400	11.383	0.100
511.500	4.265	0.100
511.600	4.437	0.100
511.700	8.781	0.100
511.800	-5.747	0.100
511.900	18.929	0.100
512.000	20.355	0.100
512.100	32.563	0.100
512.200	17.402	0.100
512.300	19.778	0.100
512.400	19.405	0.100
512.500	18.157	0.100
512.600	12.893	0.100
512.700	12.452	0.100
512.800	10.675	0.100
512.900	15.308	0.100
513.000	13.370	0.100
513.100	23.518	0.100
513.200	11.785	0.100
513.300	17.059	0.100
513.400	23.913	0.100
513.500	21.884	0.100
513.600	28.263	0.100
513.700	16.842	0.100
513.800	13.677	0.100
513.900	26.129	0.100
514.000	16.425	0.100
514.100	22.727	0.100
514.200	24.648	0.100
514.300	17.412	0.100
514.400	20.232	0.100
514.500	16.630	0.100
514.600	9.921	0.100
514.700	1.476	0.100
514.800	16.876	0.100
514.900	17.263	0.100
515.000	20.964	0.100
515.100	23.379	0.100
515.200	27.956	0.100
515.300	6.222	0.100
515.400	20.249	0.100
515.500	5.406	0.100
515.600	14.461	0.100
515.700	20.784	0.100
515.800	4.889	0.100
515.900	7.582	0.100
516.000	11.477	0.100
516.100	12.363	0.100
516.200	14.459	0.100
516.300	23.620	0.100
516.400	14.187	0.100
516.500	8.976	0.100
516.600	13.510	0.100
516.700	25.523	0.100
516.800	31.102	0.100
516.900	23.395	0.100
517.000	18.074	0.100
517.100	23.709	0.100
517.200	12.143	0.100
517.300	13.930	0.100
517.400	14.001	0.100
517.500	23.789	0.100
517.600	30.027	0.100
517.700	15.845	0.100
517.800	17.135	0.100
517.900	29.724	0.100
518.000	8.833	0.100
518.100	-1.373	0.100
518.200	16.775	0.100
518.300	19.084	0.100
518.400	23.380	0.100
518.500	25.245	0.100
518.600	13.787	0.100
518.700	26.977	0.100
518.800	19.674	0.100
518.900	29.480	0.100
519.000	21.136	0.100
519.100	24.934	0.100
519.200	24.316	0.100
519.300	20.302	0.100
519.400	29.930	0.100
519.500	25.923	0.100
519.600	27.966	0.100
519.700	21.497	0.100
519.800	20.538	0.100
519.900	26.335	0.100
520.000	27.151	0.100
520.100	34.613	0.100
520.200	34.629	0.100
520.300	17.614	0.100
520.400	25.791	0.100
520.500	33.078	0.100
520.600	22.418	0.100
520.700	11.567	0.100
520.800	13.823	0.100
520.900	37.697	0.100
521.000	19.297	0.100
521.100	34.865	0.100
521.200	38.405	0.100
521.300	32.470	0.100
521.400	34.725	0.100
521.500	39.161	0.100
521.600	33.255	0.100
521.700	37.845	0.100
521.800	33.409	0.100
521.900	30.958	0.100
522.000	20.768	0.100
522.100	32.531	0.100
522.200	42.090	0.100
522.300	31.232	0.100
522.400	14.039	0.100
522.500	37.275	0.100
522.600	48.319	0.100
522.700	32.751	0.100
522.800	32.270	0.100
522.900	30.999	0.100
523.000	37.024	0.100
523.100	36.407	0.100
523.200	51.051	0.100
523.300	37.654	0.100
523.400	37.666	0.100
523.500	46.648	0.100
523.600	35.393	0.100
523.700	49.423	0.100
523.800	43.383	0.100
523.900	57.366	0.100
524.000	57.540	0.100
524.100	56.583	0.100
524.200	22.533	0.100
524.300	48.368	0.100
524.400	43.812	0.100
524.500	27.269	0.100
524.600	43.426	0.100
524.700	54.434	0.100
524.800	48.768	0.100
524.900	47.426	0.100
525.000	54.850	0.100
525.100	37.135	0.100
525.200	45.817	0.100
525.300	48.521	0.100
525.400	45.588	0.100
525.500	52.774	0.100
525.600	61.993	0.100
525.700	42.904	0.100
525.800	44.491	0.100
525.900	52.436	0.100
526.000	56.290	0.100
526.100	63.562	0.100
526.200	56.866	0.100
526.300	54.981	0.100
526.400	50.670	0.100
526.500	37.266	0.100
526.600	61.560	0.100
526.700	55.703	0.100
526.800	59.928	0.100
526.900	68.973	0.100
527.000	60.666	0.100
527.100	54.967	0.100
527.200	65.719	0.100
527.300	57.251	0.100
527.400	57.731	0.100
527.500	55.301	0.100
527.600	71.392	0.100
527.700	63.328	0.100
527.800	69.338	0.100
527.900	58.557	0.100
528.000	56.031	0.100
528.100	65.667	0.100
528.200	83.034	0.100
528.300	73.388	0.100
528.400	59.618	0.100
528.500	64.738	0.100
528.600	75.618	0.100
528.700	69.610	0.100
528.800	81.042	0.100
528.900	66.808	0.100
529.000	57.985	0.100
529.100	68.096	0.100
529.200	76.737	0.100
529.300	67.397	0.100
529.400	72.118	0.100
529.500	67.092	0.100
529.600	69.610	0.100
529.700	68.761	0.100
529.800	59.498	0.100
529.900	72.209	0.100
530.000	66.911	0.100
530.100	68.640	0.100
530.200	72.342	0.100
530.300	70.620	0.100
530.400	74.710	0.100
530.500	73.314	0.100
530.600	87.706	0.100
530.700	62.348	0.100
530.800	79.155	0.100
530.900	62.266	0.100
531.000	76.462	0.100
531.100	76.442	0.100
531.200	91.475	0.100
531.300	93.612	0.100
531.400	78.723	0.100
531.500	72.440	0.100
531.600	72.588	0.100
531.700	83.212	0.100
531.800	73.378	0.100
531.900	78.964	0.100
532.000	50.954	0.100
532.100	68.584	0.100
532.200	88.618	0.100
532.300	82.058	0.100
532.400	86.285	0.100
532.500	98.167	0.100
532.600	82.228	0.100
532.700	85.835	0.100
532.800	73.053	0.100
532.900	65.484	0.100
533.000	78.726	0.100
533.100	65.921	0.100
533.200	88.929	0.100
533.300	68.221	0.100
533.400	57.699	0.100
533.500	67.140	0.100
533.600	84.995	0.100
533.700	76.140	0.100
533.800	81.590	0.100
533.900	91.609	0.100
534.000	82.815	0.100
534.100	68.982	0.100
534.200	80.902	0.100
534.300	63.145	0.100
534.400	86.158	0.100
534.500	72.949	0.100
534.600	84.278	0.100
534.700	80.545	0.100
534.800	81.058	0.100
534.900	67.539	0.100
535.000	77.041	0.100
535.100	69.957	0.100
535.200	86.608	0.100
535.300	82.581	0.100
535.400	73.552	0.100
535.500	73.622	0.100
535.600	77.127	0.100
535.700	67.189	0.100
535.800	70.337	0.100
535.900	92.999	0.100
536.000	70.647	0.100
536.100	83.994	0.100
536.200	81.813	0.100
536.300	79.923	0.100
536.400	72.860	0.100
536.500	83.646	0.100
536.600	76.533	0.100
536.700	84.442	0.100
536.800	69.699	0.100
536.900	70.784	0.100
537.000	85.777	0.100
537.100	73.411	0.100
537.200	89.336	0.100
537.300	67.565	0.100
537.400	61.269	0.100
537.500	76.879	0.100
537.600	83.992	0.100
537.700	77.938	0.100
537.800	69.339	0.100
537.900	80.360	0.100
538.000	67.679	0.100
538.100	89.408	0.100
538.200	81.697	0.100
538.300	84.798	0.100
538.400	72.818	0.100
538.500	78.934	0.100
538.600	61.123	0.100
538.700	73.960	0.100
538.800	67.385	0.100
538.900	72.779	0.100
539.000	82.560	0.100
539.100	82.963	0.100
539.200	82.148	0.100
539.300	74.685	0.100
539.400	82.124	0.100
539.500	70.242	0.100
539.600	68.114	0.100
539.700	68.568	0.100
539.800	69.740	0.100
539.900	79.133	0.100
540.000	63.317	0.100
540.100	77.251	0.100
540.200	72.598	0.100
540.300	76.268	0.100
540.400	69.363	0.100
540.500	63.760	0.100
540.600	58.885	0.100
540.700	60.565	0.100
540.800	79.451	0.100
540.900	66.501	0.100
541.000	61.639	0.100
541.100	60.911	0.100
541.200	54.641	0.100
541.300	47.749	0.100
541.400	63.360	0.100
541.500	45.224	0.100
541.600	39.576	0.100
541.700	37.621	0.100
541.800	55.563	0.100
541.900	47.720	0.100
542.000	54.147	0.100
542.100	41.089	0.100
542.200	49.797	0.100
542.300	34.128	0.100
542.400	43.905	0.100
542.500	34.051	0.100
542.600	32.525	0.100
542.700	25.042	0.100
542.800	33.909	0.100
542.900	38.806	0.100
543.000	35.342	0.100
543.100	31.192	0.100
543.200	20.007	0.100
543.300	18.925	0.100
543.400	28.355	0.100
543.500	11.988	0.100
543.600	17.235	0.100
543.700	36.985	0.100
543.800	21.618	0.100
543.900	14.336	0.100
544.000	26.453	0.100
544.100	36.299	0.100
544.200	4.238	0.100
544.300	11.926	0.100
544.400	18.187	0.100
544.500	14.737	0.100
544.600	-5.159	0.100
544.700	8.063	0.100
544.800	28.523	0.100
544.900	11.836	0.100
545.000	25.348	0.100
545.100	10.592	0.100
545.200	15.394	0.100
545.300	10.960	0.100
545.400	2.135	0.100
545.500	-3.115	0.100
545.600	10.682	0.100
545.700	0.543	0.100
545.800	16.498	0.100
545.900	18.483	0.100
546.000	20.356	0.100
546.100	0.205	0.100
546.200	8.310	0.100
546.300	-0.637	0.100
546.400	-1.876	0.100
546.500	15.262	0.100
546.600	7.600	0.100
546.700	11.668	0.100
546.800	11.309	0.100
546.900	10.767	0.100
547.000	5.165	0.100
547.100	14.955	0.100
547.200	8.435	0.100
547.300	-4.021	0.100
547.400	-5.289	0.100
547.500	7.005	0.100
547.600	-0.519	0.100
547.700	16.202	0.100
547.800	18.483	0.100
547.900	4.778	0.100
548.000	7.626	0.100
548.100	8.436	0.100
548.200	6.920	0.100
548.300	1.457	0.100
548.400	10.131	0.100
548.500	20.796	0.100
548.600	-0.186	0.100
548.700	7.603	0.100
548.800	1.028	0.100
548.900	11.516	0.100
549.000	8.968	0.100
549.100	0.589	0.100
549.200	12.275	0.100
549.300	2.088	0.100
549.400	-8.229	0.100
549.500	0.313	0.100
549.600	3.092	0.100
549.700	12.822	0.100
549.800	12.152	0.100
549.900	9.687	0.100
550.000	5.309	0.100
550.100	-0.429	0.100
550.200	2.891	0.100
550.300	12.802	0.100
550.400	21.439	0.100
550.500	4.562	0.100
550.600	1.085	0.100
550.700	-0.571	0.100
550.800	-8.562	0.100
550.900	8.923	0.100
551.000	19.446	0.100
551.100	1.642	0.100
551.200	11.415	0.100
551.300	3.026	0.100
551.400	17.215	0.100
551.500	-1.656	0.100
551.600	2.895	0.100
551.700	1.649	0.100
551.800	-1.602	0.100
551.900	15.504	0.100
552.000	8.934	0.100
552.100	20.967	0.100
552.200	13.006	0.100
552.300	-5.744	0.100
552.400	-4.895	0.100
552.500	1.928	0.100
552.600	7.719	0.100
552.700	20.930	0.100
552.800	-8.427	0.100
552.900	7.908	0.100
553.000	-0.476	0.100
553.100	-0.334	0.100
553.200	0.949	0.100
553.300	6.621	0.100
553.400	-1.675	0.100
553.500	16.974	0.100
553.600	28.670	0.100
553.700	0.693	0.100
553.800	0.354	0.100
553.900	-9.148	0.100
554.000	-0.285	0.100
554.100	15.974	0.100
554.200	-0.077	0.100
554.300	2.247	0.100
554.400	2.905	0.100
554.500	1.468	0.100
554.600	7.285	0.100
554.700	1.119	0.100
554.800	10.784	0.100
554.900	7.637	0.100
555.000	9.604	0.100
555.100	-1.040	0.100
555.200	4.611	0.100
555.300	3.572	0.100
555.400	-4.643	0.100
555.500	-13.085	0.100
555.600	-6.233	0.100
555.700	6.247	0.100
555.800	8.247	0.100
555.900	7.559	0.100
556.000	12.945	0.100
556.100	-2.992	0.100
556.200	8.158	0.100
556.300	-6.165	0.100
556.400	-2.387	0.100
556.500	10.622	0.100
556.600	-7.062	0.100
556.700	-8.446	0.100
556.800	1.388	0.100
556.900	6.862	0.100
557.000	5.660	0.100
557.100	14.480	0.100
557.200	-13.555	0.100
557.300	1.473	0.100
557.400	1.225	0.100
557.500	8.117	0.100
557.600	5.006	0.100
557.700	0.151	0.100
557.800	-0.015	0.100
557.900	-17.553	0.100
558.000	0.742	0.100
558.100	10.100	0.100
558.200	-6.874	0.100
558.300	0.209	0.100
558.400	13.590	0.100
558.500	2.765	0.100
558.600	0.157	0.100
558.700	0.816	0.100
558.800	6.343	0.100
558.900	-11.857	0.100
559.000	2.111	0.100
559.100	-5.055	0.100
559.200	1.201	0.100
559.300	-0.987	0.100
559.400	-4.680	0.100
559.500	-18.141	0.100
559.600	0.270	0.100
559.700	10.287	0.100
559.800	0.835	0.100
559.900	-3.543	0.100
560.000	-7.911	0.100
560.100	12.249	0.100
560.200	-0.632	0.100
560.300	-8.679	0.100
560.400	5.157	0.100
560.500	-2.330	0.100
560.600	-0.601	0.100
560.700	-3.627	0.100
560.800	-7.744	0.100
560.900	-4.496	0.100
561.000	-1.426	0.100
561.100	-16.495	0.100
561.200	-3.853	0.100
561.300	8.653	0.100
561.400	0.229	0.100
561.500	-8.015	0.100
561.600	-3.904	0.100
561.700	-7.979	0.100
561.800	-6.880	0.100
561.900	2.190	0.100
562.000	-5.750	0.100
562.100	16.949	0.100
562.200	-9.233	0.100
562.300	3.741	0.100
562.400	2.990	0.100
562.500	2.232	0.100
562.600	-14.845	0.100
562.700	-6.941	0.100
562.800	-2.270	0.100
562.900	-6.991	0.100
563.000	-2.173	0.100
563.100	-5.841	0.100
563.200	-8.674	0.100
563.300	5.570	0.100
563.400	10.303	0.100
563.500	-2.357	0.100
563.600	-2.606	0.100
563.700	0.521	0.100
563.800	-3.367	0.100
563.900	-7.261	0.100
564.000	-9.708	0.100
564.100	-2.024	0.100
564.200	-1.671	0.100
564.300	-0.413	0.100
564.400	-22.920	0.100
564.500	-5.577	0.100
564.600	9.316	0.100
564.700	-11.416	0.100
564.800	7.810	0.100
564.900	-9.666	0.100
565.000	-14.690	0.100
565.100	-10.246	0.100
565.200	-0.172	0.100
565.300	-5.281	0.100
565.400	-8.124	0.100
565.500	-15.785	0.100
565.600	-7.418	0.100
565.700	-5.628	0.100
565.800	-6.550	0.100
565.900	-15.735	0.100
566.000	-12.971	0.100
566.100	5.321	0.100
566.200	-16.767	0.100
566.300	-5.109	0.100
566.400	-1.393	0.100
566.500	4.875	0.100
566.600	-13.232	0.100
566.700	-2.439	0.100
566.800	-5.745	0.100
566.900	-20.605	0.100
567.000	-4.800	0.100
567.100	-8.336	0.100
567.200	-12.201	0.100
567.300	3.664	0.100
567.400	-7.546	0.100
567.500	-4.474	0.100
567.600	-16.253	0.100
567.700	-5.637	0.100
567.800	-12.076	0.100
567.900	-21.163	0.100
568.000	-14.944	0.100
568.100	0.977	0.100
568.200	-7.119	0.100
568.300	-3.913	0.100
568.400	0.997	0.100
568.500	-17.723	0.100
568.600	-9.675	0.100
568.700	-13.839	0.100
568.800	-11.784	0.100
568.900	-13.151	0.100
569.000	-9.362	0.100
569.100	-12.269	0.100
569.200	-5.781	0.100
569.300	-8.685	0.100
569.400	-7.204	0.100
569.500	-4.540	0.100
569.600	-10.529	0.100
569.700	-12.434	0.100
569.800	-10.662	0.100
569.900	-7.881	0.100
570.000	-1.082	0.100
570.100	-11.526	0.100
570.200	-2.762	0.100
570.300	-16.345	0.100
570.400	-21.062	0.100
570.500	-24.998	0.100
570.600	-5.968	0.100
570.700	-9.734	0.100
570.800	-6.742	0.100
570.900	3.639	0.100
571.000	-12.366	0.100
571.100	-13.852	0.100
571.200	-27.695	0.100
571.300	-8.555	0.100
571.400	-8.104	0.100
571.500	-10.169	0.100
571.600	-16.981	0.100
571.700	-18.197	0.100
571.800	-11.216	0.100
571.900	-7.552	0.100
572.000	-13.107	0.100
572.100	-0.216	0.100
572.200	-20.313	0.100
572.300	-17.515	0.100
572.400	-11.025	0.100
572.500	-1.311	0.100
572.600	-27.596	0.100
572.700	-5.427	0.100
572.800	-11.915	0.100
572.900	-8.260	0.100
573.000	-15.543	0.100
573.100	-8.460	0.100
573.200	-27.388	0.100
573.300	-14.656	0.100
573.400	-30.485	0.100
573.500	-22.414	0.100
573.600	-2.483	0.100
573.700	-11.406	0.100
573.800	-4.640	0.100
573.900	-8.414	0.100
574.000	-10.429	0.100
574.100	-18.856	0.100
574.200	-19.464	0.100
574.300	-12.354	0.100
574.400	-5.034	0.100
574.500	-22.908	0.100
574.600	-17.181	0.100
574.700	-17.692	0.100
574.800	-7.460	0.100
574.900	-16.921	0.100
575.000	-10.266	0.100
575.100	-17.214	0.100
575.200	-16.826	0.100
575.300	-16.396	0.100
575.400	-18.903	0.100
575.500	-17.344	0.100
575.600	-5.968	0.100
575.700	-6.416	0.100
575.800	-20.023	0.100
575.900	-12.095	0.100
576.000	-21.032	0.100
576.100	-21.863	0.100
576.200	-14.981	0.100
576.300	-4.091	0.100
576.400	-26.612	0.100
576.500	-3.188	0.100
576.600	-7.678	0.100
576.700	-11.225	0.100
576.800	-27.378	0.100
576.900	-11.494	0.100
577.000	-18.375	0.100
577.100	-18.413	0.100
577.200	-14.344	0.100
577.300	-17.669	0.100
577.400	-22.299	0.100
577.500	-20.780	0.100
577.600	-12.920	0.100
577.700	-3.091	0.100
577.800	-13.213	0.100
577.900	-14.284	0.100
578.000	-32.101	0.100
578.100	-5.054	0.100
578.200	-20.204	0.100
578.300	-11.151	0.100
578.400	-20.941	0.100
578.500	-20.859	0.100
578.600	-15.721	0.100
578.700	-3.807	0.100
578.800	-14.146	0.100
578.900	-22.535	0.100
579.000	-11.826	0.100
579.100	-8.592	0.100
579.200	-14.110	0.100
579.300	-21.136	0.100
579.400	-33.427	0.100
579.500	-7.186	0.100
579.600	-8.165	0.100
579.700	-0.868	0.100
579.800	-11.289	0.100
579.900	-21.625	0.100
580.000	-12.384	0.100
580.100	-26.009	0.100
580.200	-15.185	0.100
580.300	-14.691	0.100
580.400	-22.075	0.100
580.500	-15.201	0.100
580.600	-14.803	0.100
580.700	-20.446	0.100
580.800	-25.726	0.100
580.900	-7.274	0.100
581.000	-17.816	0.100
581.100	-23.714	0.100
581.200	-15.292	0.100
581.300	-10.506	0.100
581.400	-22.104	0.100
581.500	-23.168	0.100
581.600	-24.290	0.100
581.700	-11.321	0.100
581.800	-2.975	0.100
581.900	-14.153	0.100
582.000	-5.689	0.100
582.100	-16.979	0.100
582.200	-12.503	0.100
582.300	-8.914	0.100
582.400	-14.961	0.100
582.500	-16.491	0.100
582.600	-21.427	0.100
582.700	-24.340	0.100
582.800	-10.896	0.100
582.900	-15.627	0.100
583.000	-20.711	0.100
583.100	-22.232	0.100
583.200	-10.662	0.100
583.300	-16.005	0.100
583.400	-21.601	0.100
583.500	-30.812	0.100
583.600	-30.169	0.100
583.700	-14.192	0.100
583.800	-11.323	0.100
583.900	-19.830	0.100
584.000	-4.318	0.100
584.100	-9.497	0.100
584.200	-12.477	0.100
584.300	-21.705	0.100
584.400	-8.695	0.100
584.500	-22.575	0.100
584.600	-13.531	0.100
584.700	-18.014	0.100
584.800	-16.099	0.100
584.900	-28.376	0.100
585.000	-29.536	0.100
585.100	-22.787	0.100
585.200	-8.398	0.100
585.300	-17.131	0.100
585.400	-25.986	0.100
585.500	-10.429	0.100
585.600	-17.763	0.100
585.700	-22.596	0.100
585.800	-14.590	0.100
585.900	-14.404	0.100
586.000	-7.950	0.100
586.100	-14.870	0.100
586.200	-9.566	0.100
586.300	-17.095	0.100
586.400	-11.245	0.100
586.500	-11.229	0.100
586.600	-20.086	0.100
586.700	-28.213	0.100
586.800	-30.551	0.100
586.900	-11.608	0.100
587.000	-26.221	0.100
587.100	-7.367	0.100
587.200	-19.872	0.100
587.300	-22.382	0.100
587.400	-23.381	0.100
587.500	-21.615	0.100
587.600	-17.750	0.100
587.700	-9.093	0.100
587.800	-11.028	0.100
587.900	-25.773	0.100
588.000	-26.881	0.100
588.100	-21.260	0.100
588.200	-10.545	0.100
588.300	-5.132	0.100
588.400	-13.886	0.100
588.500	-10.198	0.100
588.600	-12.265	0.100
588.700	-20.417	0.100
588.800	-20.819	0.100
588.900	-16.914	0.100
589.000	-13.069	0.100
589.100	-13.959	0.100
589.200	-20.543	0.100
589.300	-21.450	0.100
589.400	-4.811	0.100
589.500	-22.768	0.100
589.600	-23.544	0.100
589.700	-6.296	0.100
589.800	-31.659	0.100
589.900	-25.235	0.100
590.000	-33.968	0.100
590.100	-15.677	0.100
590.200	-2.719	0.100
590.300	-18.237	0.100
590.400	-19.703	0.100
590.500	-17.475	0.100
590.600	-18.087	0.100
590.700	-25.244	0.100
590.800	-26.347	0.100
590.900	-19.248	0.100
591.000	-12.347	0.100
591.100	-22.404	0.100
591.200	-8.908	0.100
591.300	-7.621	0.100
591.400	-12.293	0.100
591.500	-21.920	0.100
591.600	-4.090	0.100
591.700	-14.131	0.100
591.800	-20.630	0.100
591.900	-14.436	0.100
592.000	-21.687	0.100
592.100	-12.552	0.100
592.200	-8.987	0.100
592.300	-14.272	0.100
592.400	-12.154	0.100
592.500	-15.477	0.100
592.600	-0.712	0.100
592.700	-22.520	0.100
592.800	-24.054	0.100
592.900	-7.856	0.100
593.000	-10.491	0.100
593.100	-28.671	0.100
593.200	-18.850	0.100
593.300	-22.271	0.100
593.400	-25.207	0.100
593.500	-15.764	0.100
593.600	-23.170	0.100
593.700	-20.922	0.100
593.800	-15.271	0.100
593.900	-13.453	0.100
594.000	-17.903	0.100
594.100	-20.312	0.100
594.200	-22.569	0.100
594.300	-34.462	0.100
594.400	-13.968	0.100
594.500	-20.051	0.100
594.600	-3.206	0.100
594.700	-33.823	0.100
594.800	-24.410	0.100
594.900	-26.981	0.100
595.000	-3.261	0.100
595.100	-12.475	0.100
595.200	-16.108	0.100
595.300	-12.073	0.100
595.400	-27.943	0.100
595.500	-4.799	0.100
595.600	-23.524	0.100
595.700	-15.552	0.100
595.800	-22.847	0.100
595.900	-20.868	0.100
596.000	-17.856	0.100
596.100	-17.528	0.100
596.200	-26.286	0.100
596.300	-9.723	0.100
596.400	-15.280	0.100
596.500	-22.566	0.100
596.600	-18.421	0.100
596.700	-2.643	0.100
596.800	-14.987	0.100
596.900	-26.407	0.100
597.000	-29.446	0.100
597.100	-20.512	0.100
597.200	-16.533	0.100
597.300	-14.934	0.100
597.400	-27.454	0.100
597.500	-16.717	0.100
597.600	-6.781	0.100
597.700	-11.394	0.100
597.800	-16.482	0.100
597.900	-30.808	0.100
598.000	-14.992	0.100
598.100	-9.180	0.100
598.200	-17.235	0.099
598.300	-12.549	0.099
598.400	-17.704	0.100
598.500	-13.185	0.099
598.600	-6.406	0.100
598.700	-15.272	0.100
598.800	-3.454	0.100
598.900	-29.414	0.100
599.000	-22.709	0.100
599.100	-8.384	0.100
599.200	-33.705	0.100
599.300	-27.311	0.100
599.400	-13.674	0.100
599.500	-21.429	0.099
599.600	-12.827	0.100
599.700	-16.561	0.099
599.800	-16.062	0.100
599.900	-28.324	0.099
600.000	-8.761	0.100
600.100	-17.923	0.099
600.200	-14.692	0.100
600.300	-13.947	0.100
600.400	-14.053	0.100
600.500	-22.564	0.099
600.600	-11.359	0.100
600.700	-22.198	0.099
600.800	-24.720	0.099
600.900	-14.950	0.100
601.000	-22.471	0.099
601.100	-18.802	0.099
601.200	-33.459	0.100
601.300	-17.554	0.099
601.400	-18.630	0.100
601.500	-17.731	0.099
601.600	-7.789	0.100
601.700	-6.952	0.100
601.800	-25.837	0.100
601.900	-21.121	0.099
602.000	-7.428	0.099
602.100	-13.674	0.099
602.200	-24.399	0.100
602.300	-18.186	0.100
602.400	-28.458	0.099
602.500	-30.017	0.099
602.600	-13.356	0.100
602.700	-10.516	0.099
602.800	-4.693	0.099
602.900	-13.667	0.099
603.000	-21.431	0.099
603.100	-14.681	0.099
603.200	-17.554	0.099
603.300	-20.018	0.099
603.400	-16.027	0.099
603.500	-15.917	0.099
603.600	-5.325	0.100
603.700	-12.262	0.100
603.800	-16.637	0.099
603.900	-8.576	0.099
604.000	-7.479	0.099
604.100	-17.077	0.100
604.200	-16.674	0.100
604.300	-38.729	0.099
604.400	-7.277	0.099
604.500	-14.634	0.099
604.600	-19.053	0.099
604.700	-18.689	0.099
604.800	-16.824	0.099
604.900	-14.331	0.099
605.000	-22.738	0.099
605.100	-11.768	0.100
605.200	-8.268	0.099
605.300	-9.809	0.100
605.400	-20.684	0.099
605.500	-18.168	0.100
605.600	-18.510	0.100
605.700	-29.710	0.099
605.800	-18.430	0.100
605.900	-12.007	0.100
606.000	-17.645	0.099
606.100	-14.703	0.099
606.200	-11.485	0.099
606.300	-20.354	0.099
606.400	-16.337	0.099
606.500	-23.742	0.099
606.600	-17.997	0.100
606.700	-15.868	0.099
606.800	-20.826	0.099
606.900	-4.420	0.099
607.000	-13.922	0.099
607.100	-9.880	0.099
607.200	-14.930	0.099
607.300	-26.387	0.099
607.400	-14.286	0.099
607.500	-10.057	0.099
607.600	-9.830	0.099
607.700	-10.661	0.099
607.800	-15.436	0.099
607.900	-18.367	0.099
608.000	-14.253	0.099
608.100	-19.554	0.099
608.200	-21.506	0.099
608.300	-10.936	0.099
608.400	-11.382	0.099
608.500	-21.159	0.099
608.600	-16.747	0.099
608.700	-16.271	0.099
608.800	-17.160	0.099
608.900	-30.340	0.099
609.000	-24.509	0.099
609.100	-25.378	0.099
609.200	-6.287	0.099
609.300	-24.081	0.099
609.400	-20.813	0.099
609.500	-13.150	0.099
609.600	-23.851	0.099
609.700	-17.195	0.099
609.800	-0.945	0.099
609.900	-17.273	0.099
610.000	-9.491	0.099
610.100	-11.160	0.099
610.200	-13.099	0.099
610.300	-20.320	0.099
610.400	-28.606	0.099
610.500	-6.111	0.099
610.600	-17.852	0.099
610.700	-9.920	0.099
610.800	-1.473	0.099
610.900	-16.956	0.099
611.000	-27.601	0.099
611.100	-25.414	0.099
611.200	-27.318	0.099
611.300	-15.601	0.099
611.400	-10.425	0.099
611.500	-29.410	0.099
611.600	-12.594	0.099
611.700	-33.186	0.099
611.800	-9.870	0.099
611.900	-4.821	0.099
612.000	-3.849	0.099
612.100	1.311	0.099
612.200	-14.331	0.099
612.300	-1.596	0.099
612.400	-27.334	0.099
612.500	-30.855	0.099
612.600	-12.037	0.099
612.700	-16.833	0.099
612.800	-13.928	0.099
612.900	-7.785	0.099
613.000	-21.859	0.099
613.100	-16.234	0.099
613.200	-0.939	0.099
613.300	-15.050	0.099
613.400	-23.212	0.099
613.500	-28.092	0.099
613.600	-23.912	0.099
613.700	-18.225	0.099
613.800	-15.065	0.099
613.900	-11.287	0.099
614.000	-12.592	0.099
614.100	-29.252	0.099
614.200	-15.210	0.099
614.300	-29.805	0.099
614.400	-5.528	0.099
614.500	-1.173	0.099
614.600	-17.107	0.099
614.700	-18.032	0.099
614.800	-23.928	0.099
614.900	-14.611	0.099
615.000	-14.982	0.099
615.100	-20.022	0.099
615.200	-19.307	0.099
615.300	-13.162	0.099
615.400	-32.246	0.099
615.500	-19.321	0.099
615.600	-15.041	0.099
615.700	-14.549	0.099
615.800	-18.636	0.099
615.900	-29.849	0.099
616.000	-17.548	0.099
616.100	-1.994	0.099
616.200	-12.612	0.099
616.300	-29.485	0.099
616.400	-24.605	0.099
616.500	-19.267	0.099
616.600	-3.493	0.099
616.700	-13.413	0.099
616.800	-21.971	0.099
616.900	-13.251	0.099
617.000	-8.792	0.099
617.100	-18.351	0.099
617.200	-19.163	0.099
617.300	-12.556	0.099
617.400	-11.511	0.099
617.500	-19.963	0.099
617.600	-9.637	0.099
617.700	-17.345	0.099
617.800	-11.714	0.099
617.900	-23.409	0.099
618.000	-23.016	0.099
618.100	-8.502	0.099
618.200	-25.349	0.099
618.300	-28.023	0.099
618.400	-6.219	0.099
618.500	-10.872	0.099
618.600	-12.177	0.099
618.700	-37.001	0.099
618.800	-19.860	0.099
618.900	0.174	0.099
619.000	-6.347	0.099
619.100	-18.499	0.099
619.200	-20.411	0.099
619.300	-19.657	0.099
619.400	-13.012	0.099
619.500	-13.518	0.099
619.600	-14.443	0.099
619.700	-20.122	0.099
619.800	-12.393	0.099
619.900	-18.909	0.099
620.000	-23.147	0.099
620.100	-27.618	0.099
620.200	-13.791	0.099
620.300	-12.158	0.099
620.400	-3.591	0.099
620.500	-19.433	0.099
620.600	-10.816	0.099
620.700	-13.253	0.099
620.800	-24.915	0.099
620.900	-22.941	0.099
621.000	-14.795	0.099
621.100	-27.924	0.099
621.200	-7.097	0.099
621.300	-5.808	0.099
621.400	-19.116	0.099
621.500	-24.859	0.099
621.600	-15.368	0.099
621.700	-3.307	0.099
621.800	-28.013	0.099
621.900	0.711	0.099
622.000	-7.231	0.099
622.100	-30.513	0.099
622.200	-19.957	0.099
622.300	-19.575	0.099
622.400	-10.332	0.099
622.500	-13.214	0.099
622.600	-8.530	0.099
622.700	-10.271	0.099
622.800	-8.384	0.099
622.900	-18.101	0.099
623.000	-22.509	0.099
623.100	-22.248	0.099
623.200	-18.702	0.099
623.300	-25.312	0.099
623.400	-20.778	0.099
623.500	-14.460	0.099
623.600	-24.286	0.099
623.700	-22.778	0.099
623.800	-24.131	0.099
623.900	-13.655	0.099
624.000	-20.185	0.099
624.100	-19.802	0.099
624.200	-8.612	0.099
624.300	0.753	0.099
624.400	-6.510	0.099
624.500	-20.197	0.099
624.600	-15.904	0.099
624.700	-12.486	0.099
624.800	-20.131	0.099
624.900	-29.245	0.099
625.000	-17.221	0.099
625.100	-9.383	0.099
625.200	-7.032	0.099
625.300	-10.030	0.099
625.400	-21.913	0.099
625.500	-3.323	0.099
625.600	-10.173	0.099
625.700	-9.155	0.099
625.800	-18.445	0.099
625.900	-3.274	0.099
626.000	-14.151	0.099
626.100	-9.621	0.099
626.200	-16.050	0.099
626.300	-14.811	0.099
626.400	-17.211	0.099
626.500	-25.288	0.099
626.600	-27.053	0.099
626.700	-22.546	0.099
626.800	-13.116	0.099
626.900	-15.358	0.099
627.000	-12.980	0.099
627.100	-13.883	0.099
627.200	-9.996	0.099
627.300	-16.483	0.099
627.400	-18.005	0.099
627.500	-12.340	0.099
627.600	-25.532	0.099
627.700	-17.247	0.099
627.800	-18.673	0.099
627.900	-31.626	0.099
628.000	-20.400	0.099
628.100	-7.099	0.099
628.200	-2.773	0.099
628.300	-13.594	0.099
628.400	-19.007	0.099
628.500	-10.363	0.099
628.600	-9.408	0.099
628.700	-17.037	0.099
628.800	-7.771	0.099
628.900	-14.473	0.099
629.000	-16.126	0.099
629.100	-10.803	0.099
629.200	-26.238	0.099
629.300	-1.941	0.099
629.400	-25.555	0.099
629.500	-12.644	0.099
629.600	-2.064	0.099
629.700	-18.240	0.099
629.800	-22.110	0.099
629.900	-14.230	0.099
630.000	-23.546	0.099
630.100	-18.456	0.099
630.200	-9.903	0.099
630.300	-15.026	0.099
630.400	-25.862	0.099
630.500	-6.037	0.099
630.600	-22.428	0.099
630.700	-20.943	0.099
630.800	7.192	0.099
630.900	-4.426	0.099
631.000	16.671	0.099
631.100	-2.018	0.099
631.200	-9.086	0.099
631.300	4.741	0.099
631.400	-3.526	0.099
631.500	20.537	0.099
631.600	16.252	0.099
631.700	10.922	0.099
631.800	14.118	0.099
631.900	-2.362	0.099
632.000	10.470	0.099
632.100	6.544	0.099
632.200	4.118	0.099
632.300	24.973	0.099
632.400	19.085	0.099
632.500	9.976	0.099
632.600	25.230	0.099
632.700	22.787	0.099
632.800	18.343	0.099
632.900	32.447	0.099
633.000	21.125	0.099
633.100	17.942	0.099
633.200	19.092	0.099
633.300	17.246	0.099
633.400	29.209	0.099
633.500	12.146	0.099
633.600	8.867	0.099
633.700	26.068	0.099
633.800	27.277	0.099
633.900	19.203	0.099
634.000	8.882	0.099
634.100	9.076	0.099
634.200	23.370	0.099
634.300	12.921	0.099
634.400	18.083	0.099
634.500	14.415	0.099
634.600	16.419	0.099
634.700	17.659	0.099
634.800	17.445	0.099
634.900	5.517	0.099
635.000	13.013	0.099
635.100	25.664	0.099
635.200	21.978	0.099
635.300	26.135	0.099
635.400	18.602	0.099
635.500	16.681	0.099
635.600	17.412	0.099
635.700	15.216	0.099
635.800	13.947	0.099
635.900	16.381	0.099
636.000	22.469	0.099
636.100	19.466	0.099
636.200	22.735	0.099
636.300	5.383	0.099
636.400	30.066	0.099
636.500	28.098	0.099
636.600	29.678	0.099
636.700	23.756	0.099
636.800	22.604	0.099
636.900	16.396	0.099
637.000	28.807	0.099
637.100	5.022	0.099
637.200	33.450	0.099
637.300	21.039	0.099
637.400	29.596	0.099
637.500	19.905	0.099
637.600	14.829	0.099
637.700	13.524	0.099
637.800	20.884	0.099
637.900	27.117	0.099
638.000	12.177	0.099
638.100	21.146	0.099
638.200	22.624	0.099
638.300	9.631	0.099
638.400	23.552	0.099
638.500	19.645	0.099
638.600	8.793	0.099
638.700	21.651	0.099
638.800	25.507	0.099
638.900	23.115	0.099
639.000	21.562	0.099
639.100	28.244	0.099
639.200	29.542	0.099
639.300	12.042	0.099
639.400	24.984	0.099
639.500	31.692	0.099
639.600	17.599	0.099
639.700	22.714	0.099
639.800	33.071	0.099
639.900	23.459	0.099
640.000	28.063	0.099
640.100	14.369	0.099
640.200	30.213	0.099
640.300	19.087	0.099
640.400	16.021	0.099
640.500	48.413	0.099
640.600	37.271	0.099
640.700	29.969	0.099
640.800	12.885	0.099
640.900	27.542	0.099
641.000	35.999	0.099
641.100	27.834	0.099
641.200	26.943	0.099
641.300	23.868	0.099
641.400	30.267	0.099
641.500	23.033	0.099
641.600	30.659	0.099
641.700	31.220	0.099
641.800	29.876	0.099
641.900	24.625	0.099
642.000	43.216	0.099
642.100	39.007	0.099
642.200	36.210	0.099
642.300	34.815	0.099
642.400	32.504	0.099
642.500	24.961	0.099
642.600	23.101	0.099
642.700	39.587	0.099
642.800	47.247	0.099
642.900	34.242	0.099
643.000	50.134	0.099
643.100	41.127	0.099
643.200	29.160	0.099
643.300	30.199	0.099
643.400	30.446	0.099
643.500	47.660	0.099
643.600	45.803	0.099
643.700	36.712	0.099
643.800	39.317	0.099
643.900	38.267	0.099
644.000	36.901	0.099
644.100	42.733	0.099
644.200	44.252	0.099
644.300	34.115	0.099
644.400	51.478	0.099
644.500	46.468	0.099
644.600	43.743	0.099
644.700	50.044	0.099
644.800	29.291	0.099
644.900	49.256	0.099
645.000	40.767	0.099
645.100	37.938	0.099
645.200	41.175	0.099
645.300	49.191	0.099
645.400	50.682	0.099
645.500	46.372	0.099
645.600	45.541	0.099
645.700	50.080	0.099
645.800	45.493	0.099
645.900	39.882	0.099
646.000	42.146	0.099
646.100	55.962	0.099
646.200	50.752	0.099
646.300	53.660	0.099
646.400	61.568	0.099
646.500	56.548	0.099
646.600	59.094	0.099
646.700	45.936	0.099
646.800	51.547	0.099
646.900	50.052	0.099
647.000	57.471	0.099
647.100	59.210	0.099
647.200	59.890	0.099
647.300	49.743	0.099
647.400	50.928	0.099
647.500	62.229	0.099
647.600	65.765	0.099
647.700	60.451	0.099
647.800	66.646	0.099
647.900	55.180	0.099
648.000	61.333	0.099
648.100	47.508	0.099
648.200	72.991	0.099
648.300	69.383	0.099
648.400	65.535	0.099
648.500	68.143	0.099
648.600	64.311	0.099
648.700	66.288	0.099
648.800	67.462	0.099
648.900	74.029	0.099
649.000	65.023	0.099
649.100	80.793	0.099
649.200	58.494	0.099
649.300	65.398	0.099
649.400	43.989	0.099
649.500	65.468	0.099
649.600	72.201	0.099
649.700	73.813	0.099
649.800	85.774	0.099
649.900	83.723	0.099
650.000	80.127	0.099
650.100	75.203	0.099
650.200	70.522	0.099
650.300	65.176	0.099
650.400	64.326	0.099
650.500	74.541	0.099
650.600	76.958	0.099
650.700	61.072	0.099
650.800	66.944	0.099
650.900	68.608	0.099
651.000	82.390	0.099
651.100	65.608	0.099
651.200	70.012	0.099
651.300	74.269	0.099
651.400	73.142	0.099
651.500	84.431	0.099
651.600	80.390	0.099
651.700	78.773	0.099
651.800	86.059	0.099
651.900	72.172	0.099
652.000	60.532	0.099
652.100	78.756	0.099
652.200	81.896	0.099
652.300	81.380	0.099
652.400	74.338	0.099
652.500	72.962	0.099
652.600	71.736	0.099
652.700	74.174	0.099
652.800	77.278	0.099
652.900	87.767	0.099
653.000	77.646	0.099
653.100	78.710	0.099
653.200	84.659	0.099
653.300	80.843	0.099
653.400	77.843	0.099
653.500	79.840	0.099
653.600	77.227	0.099
653.700	79.526	0.099
653.800	69.549	0.099
653.900	84.119	0.099
654.000	80.198	0.099
654.100	72.790	0.099
654.200	80.574	0.099
654.300	78.171	0.099
654.400	70.347	0.099
654.500	87.878	0.099
654.600	82.943	0.099
654.700	77.019	0.099
654.800	78.774	0.099
654.900	72.072	0.099
655.000	67.215	0.099
655.100	82.521	0.099
655.200	69.328	0.099
655.300	74.799	0.099
655.400	84.804	0.099
655.500	76.650	0.099
655.600	87.180	0.099
655.700	79.841	0.099
655.800	78.497	0.099
655.900	76.387	0.099
656.000	65.433	0.099
656.100	70.518	0.099
656.200	61.071	0.099
656.300	72.232	0.099
656.400	75.434	0.099
656.500	68.987	0.099
656.600	77.810	0.099
656.700	83.805	0.099
656.800	78.319	0.099
656.900	76.931	0.099
657.000	55.398	0.099
657.100	79.066	0.099
657.200	78.868	0.099
657.300	80.288	0.099
657.400	81.330	0.099
657.500	80.520	0.099
657.600	81.047	0.099
657.700	65.724	0.099
657.800	60.985	0.099
657.900	68.519	0.099
658.000	70.485	0.099
658.100	73.076	0.099
658.200	68.782	0.099
658.300	81.217	0.099
658.400	70.664	0.099
658.500	74.772	0.099
658.600	69.377	0.099
658.700	71.001	0.099
658.800	73.399	0.099
658.900	80.254	0.099
659.000	69.632	0.099
659.100	61.629	0.099
659.200	78.252	0.099
659.300	72.182	0.099
659.400	67.187	0.099
659.500	86.534	0.099
659.600	89.952	0.099
659.700	79.252	0.099
659.800	76.531	0.099
659.900	71.157	0.099
660.000	69.874	0.099
660.100	75.422	0.099
660.200	72.962	0.099
660.300	63.231	0.099
660.400	78.454	0.099
660.500	67.673	0.099
660.600	60.457	0.099
660.700	57.909	0.099
660.800	64.390	0.099
660.900	60.291	0.099
661.000	67.973	0.099
661.100	74.188	0.099
661.200	65.725	0.099
661.300	62.029	0.099
661.400	42.692	0.099
661.500	56.835	0.099
661.600	55.807	0.099
661.700	48.555	0.099
661.800	32.749	0.099
661.900	41.325	0.099
662.000	29.514	0.100
662.100	28.736	0.100
662.200	41.259	0.100
662.300	33.640	0.100
662.400	37.061	0.100
662.500	48.019	0.100
662.600	30.472	0.100
662.700	30.572	0.100
662.800	36.390	0.100
662.900	19.252	0.100
663.000	28.132	0.100
663.100	43.184	0.100
663.200	19.285	0.100
663.300	18.313	0.100
663.400	8.000	0.100
663.500	22.116	0.100
663.600	28.989	0.100
663.700	29.159	0.100
663.800	25.422	0.100
663.900	14.841	0.100
664.000	7.487	0.100
664.100	13.379	0.100
664.200	1.258	0.100
664.300	29.753	0.100
664.400	19.706	0.100
664.500	4.400	0.100
664.600	15.956	0.100
664.700	17.094	0.100
664.800	8.906	0.100
664.900	11.055	0.100
665.000	-0.073	0.100
665.100	17.185	0.100
665.200	3.846	0.100
665.300	7.965	0.100
665.400	13.378	0.100
665.500	9.330	0.100
665.600	7.128	0.100
665.700	10.578	0.100
665.800	6.685	0.100
665.900	5.126	0.100
666.000	8.031	0.100
666.100	2.291	0.100
666.200	0.738	0.100
666.300	10.217	0.100
666.400	-1.590	0.100
666.500	1.097	0.100
666.600	0.278	0.100
666.700	18.157	0.100
666.800	13.118	0.100
666.900	19.550	0.100
667.000	10.616	0.100
667.100	15.348	0.100
667.200	7.605	0.100
667.300	2.560	0.100
667.400	-6.285	0.100
667.500	5.793	0.100
667.600	3.428	0.100
667.700	9.248	0.100
667.800	2.111	0.100
667.900	5.725	0.100
668.000	3.219	0.100
668.100	0.356	0.100
668.200	4.700	0.100
668.300	11.523	0.100
668.400	8.403	0.100
668.500	-4.871	0.100
668.600	0.467	0.100
668.700	12.832	0.100
668.800	7.807	0.100
668.900	-0.164	0.100
669.000	-7.215	0.100
669.100	15.594	0.100
669.200	22.281	0.100
669.300	-2.678	0.100
669.400	-12.063	0.100
669.500	27.283	0.100
669.600	10.631	0.100
669.700	5.164	0.100
669.800	0.568	0.100
669.900	12.758	0.100
670.000	26.018	0.100
670.100	1.973	0.100
670.200	22.697	0.100
670.300	-9.889	0.100
670.400	-3.621	0.100
670.500	13.235	0.100
670.600	2.361	0.100
670.700	11.638	0.100
670.800	17.175	0.100
670.900	24.876	0.100
671.000	1.100	0.100
671.100	-3.592	0.100
671.200	12.826	0.100
671.300	14.191	0.100
671.400	17.202	0.100
671.500	4.136	0.100
671.600	2.615	0.100
671.700	5.631	0.100
671.800	-11.436	0.100
671.900	12.377	0.100
672.000	10.429	0.100
672.100	-0.746	0.100
672.200	10.693	0.100
672.300	-1.954	0.100
672.400	-2.349	0.100
672.500	8.693	0.100
672.600	8.581	0.100
672.700	4.903	0.100
672.800	14.194	0.100
672.900	4.245	0.100
673.000	2.697	0.100
673.100	-10.258	0.100
673.200	1.071	0.100
673.300	17.627	0.100
673.400	5.013	0.100
673.500	0.956	0.100
673.600	2.589	0.100
673.700	0.903	0.100
673.800	5.721	0.100
673.900	7.030	0.100
674.000	10.444	0.100
674.100	13.834	0.100
674.200	4.325	0.100
674.300	4.710	0.100
674.400	8.632	0.100
674.500	10.669	0.100
674.600	16.734	0.100
674.700	2.921	0.100
674.800	-9.269	0.100
674.900	-11.212	0.100
675.000	8.718	0.100
675.100	8.055	0.100
675.200	3.906	0.100
675.300	-4.823	0.100
675.400	15.520	0.100
675.500	8.056	0.100
675.600	13.256	0.100
675.700	-0.712	0.100
675.800	-1.285	0.100
675.900	0.732	0.100
676.000	5.230	0.100
676.100	13.100	0.100
676.200	7.923	0.100
676.300	3.212	0.100
676.400	16.193	0.100
676.500	8.827	0.100
676.600	6.963	0.100
676.700	-3.305	0.100
676.800	-7.385	0.100
676.900	25.262	0.100
677.000	-5.472	0.100
677.100	4.734	0.100
677.200	2.186	0.100
677.300	-3.318	0.100
677.400	-13.422	0.100
677.500	-0.294	0.100
677.600	5.718	0.100
677.700	3.439	0.100
677.800	-2.189	0.100
677.900	9.747	0.100
678.000	17.168	0.100
678.100	6.038	0.100
678.200	5.973	0.100
678.300	1.518	0.100
678.400	11.867	0.100
678.500	12.304	0.100
678.600	-5.310	0.100
678.700	2.810	0.100
678.800	-14.614	0.100
678.900	-16.062	0.100
679.000	-3.054	0.100
679.100	0.361	0.100
679.200	1.171	0.100
679.300	7.408	0.100
679.400	8.009	0.100
679.500	8.115	0.100
679.600	5.591	0.100
679.700	-0.443	0.100
679.800	6.329	0.100
679.900	-3.308	0.100
680.000	11.596	0.100
680.100	-4.688	0.100
680.200	1.480	0.100
680.300	-4.250	0.100
680.400	-9.378	0.100
680.500	-7.129	0.100
680.600	4.168	0.100
680.700	-10.166	0.100
680.800	2.027	0.100
680.900	-8.979	0.100
681.000	3.483	0.100
681.100	6.493	0.100
681.200	13.954	0.100
681.300	-0.794	0.100
681.400	-6.105	0.100
681.500	-1.598	0.100
681.600	-0.068	0.100
681.700	-21.207	0.100
681.800	0.498	0.100
681.900	1.010	0.100
682.000	-11.182	0.100
682.100	-2.818	0.100
682.200	1.783	0.100
682.300	2.728	0.100
682.400	-18.555	0.100
682.500	2.224	0.100
682.600	-3.756	0.100
682.700	-9.969	0.100
682.800	9.159	0.100
682.900	-4.022	0.100
683.000	-12.664	0.100
683.100	-14.935	0.100
683.200	-1.167	0.100
683.300	-0.177	0.100
683.400	12.704	0.100
683.500	-3.107	0.100
683.600	-2.970	0.100
683.700	-1.769	0.100
683.800	-5.705	0.100
683.900	0.801	0.100
684.000	9.506	0.100
684.100	-19.173	0.100
684.200	-8.256	0.100
684.300	-8.053	0.100
684.400	-13.245	0.100
684.500	-2.145	0.100
684.600	3.706	0.100
684.700	4.954	0.100
684.800	-12.429	0.100
684.900	-6.274	0.100
685.000	-15.941	0.100
685.100	-16.580	0.100
685.200	-2.209	0.100
685.300	-8.318	0.100
685.400	-12.052	0.100
685.500	-17.229	0.100
685.600	-8.072	0.100
685.700	-7.175	0.100
685.800	5.371	0.100
685.900	-7.990	0.100
686.000	-3.679	0.100
686.100	-21.140	0.100
686.200	-4.010	0.100
686.300	-15.049	0.100
686.400	-22.333	0.100
686.500	-8.043	0.100
686.600	-0.899	0.100
686.700	0.061	0.100
686.800	-17.282	0.100
686.900	4.810	0.100
687.000	3.696	0.100
687.100	-10.386	0.100
687.200	-4.235	0.100
687.300	-20.956	0.100
687.400	-11.987	0.100
687.500	-13.068	0.100
687.600	-8.487	0.100
687.700	-16.170	0.100
687.800	-0.488	0.100
687.900	1.431	0.100
688.000	-11.478	0.100
688.100	-6.071	0.100
688.200	-7.729	0.100
688.300	-14.865	0.100
688.400	0.902	0.100
688.500	-5.968	0.100
688.600	-5.115	0.100
688.700	0.371	0.100
688.800	-14.499	0.100
688.900	-19.229	0.100
689.000	-13.383	0.100
689.100	-5.949	0.100
689.200	-14.659	0.100
689.300	-20.974	0.100
689.400	-0.632	0.100
689.500	-9.020	0.100
689.600	-12.299	0.100
689.700	-27.613	0.100
689.800	-8.814	0.100
689.900	-12.750	0.100
690.000	-19.774	0.100
690.100	-4.088	0.100
690.200	-10.499	0.100
690.300	4.495	0.100
690.400	-12.000	0.100
690.500	-3.393	0.100
690.600	-19.768	0.100
690.700	-4.182	0.100
690.800	-13.120	0.100
690.900	-11.300	0.100
691.000	-10.893	0.100
691.100	-20.193	0.100
691.200	-0.114	0.100
691.300	-19.457	0.100
691.400	-21.573	0.100
691.500	-19.140	0.100
691.600	-10.884	0.100
691.700	-11.340	0.100
691.800	-2.549	0.100
691.900	-11.935	0.100
692.000	-19.330	0.100
692.100	-12.760	0.100
692.200	-19.568	0.100
692.300	-14.941	0.100
692.400	-8.032	0.100
692.500	0.307	0.100
692.600	3.826	0.100
692.700	-22.029	0.100
692.800	-15.861	0.100
692.900	-20.988	0.100
693.000	-14.404	0.100
693.100	-10.856	0.100
693.200	0.548	0.100
693.300	-9.495	0.100
693.400	-10.222	0.100
693.500	-22.441	0.100
693.600	-8.018	0.100
693.700	-26.088	0.100
693.800	-23.891	0.100
693.900	-22.420	0.100
694.000	-20.061	0.100
694.100	-11.053	0.100
694.200	-10.447	0.100
694.300	-11.331	0.100
694.400	-14.533	0.100
694.500	-10.139	0.100
694.600	-12.298	0.100
694.700	-16.960	0.100
694.800	-33.949	0.100
694.900	-18.594	0.100
695.000	-19.603	0.100
695.100	-17.585	0.100
695.200	-4.968	0.100
695.300	-12.202	0.100
695.400	-18.535	0.100
695.500	-18.768	0.100
695.600	-28.976	0.100
695.700	-15.370	0.100
695.800	-19.459	0.100
695.900	-17.257	0.100
696.000	-13.643	0.100
696.100	-11.514	0.100
696.200	-11.066	0.100
696.300	-6.406	0.100
696.400	-17.821	0.100
696.500	-14.505	0.100
696.600	-11.726	0.100
696.700	-16.545	0.100
696.800	-19.364	0.100
696.900	-21.983	0.100
697.000	-7.055	0.100
697.100	-9.735	0.100
697.200	-6.846	0.100
697.300	-18.901	0.100
697.400	-8.723	0.100
697.500	-27.752	0.100
697.600	-16.059	0.100
697.700	-29.235	0.100
697.800	-18.044	0.100
697.900	-17.358	0.100
698.000	-11.653	0.100
698.100	-9.555	0.100
698.200	-19.009	0.100
698.300	3.573	0.100
698.400	-11.748	0.100
698.500	-17.441	0.100
698.600	-29.647	0.100
698.700	-15.372	0.100
698.800	-20.897	0.100
698.900	-19.290	0.100
699.000	-20.583	0.100
699.100	-17.877	0.100
699.200	-10.305	0.100
699.300	-10.572	0.100
699.400	-26.596	0.100
699.500	-6.060	0.100
699.600	-23.245	0.100
699.700	-12.228	0.100
699.800	-29.449	0.100
699.900	-19.446	0.100
700.000	-30.896	0.100
700.100	-9.946	0.100
700.200	-15.842	0.100
700.300	-10.769	0.100
700.400	-14.933	0.100
700.500	-27.123	0.100
700.600	-15.001	0.100
700.700	-18.430	0.100
700.800	2.872	0.100
700.900	-9.324	0.100
701.000	-13.413	0.100
701.100	-16.588	0.100
701.200	-17.611	0.100
701.300	-9.274	0.100
701.400	-21.906	0.100
701.500	-14.087	0.100
701.600	-15.699	0.100
701.700	-21.606	0.100
701.800	-29.155	0.100
701.900	-15.222	0.100
702.000	-22.767	0.100
702.100	-15.650	0.100
702.200	-18.879	0.100
702.300	-16.897	0.100
702.400	-24.520	0.100
702.500	-5.408	0.100
702.600	-14.831	0.100
702.700	-12.086	0.100
702.800	-12.770	0.100
702.900	-14.607	0.100
703.000	-15.184	0.100
703.100	-17.773	0.100
703.200	-19.396	0.100
703.300	-21.983	0.100
703.400	-35.415	0.100
703.500	-14.583	0.100
703.600	-12.574	0.100
703.700	-25.974	0.100
703.800	-12.555	0.100
703.900	-11.489	0.100
704.000	-13.853	0.100
704.100	-25.428	0.100
704.200	-9.523	0.100
704.300	-19.425	0.100
704.400	-32.167	0.100
704.500	-6.959	0.100
704.600	-12.155	0.100
704.700	-30.061	0.100
704.800	-26.083	0.100
704.900	-17.185	0.100
705.000	-13.674	0.100
705.100	-17.048	0.100
705.200	-5.892	0.100
705.300	-10.449	0.100
705.400	-14.716	0.100
705.500	-11.866	0.100
705.600	-11.784	0.100
705.700	-19.676	0.100
705.800	-7.061	0.100
705.900	-16.350	0.100
706.000	-29.988	0.100
706.100	-26.968	0.100
706.200	-4.862	0.100
706.300	-19.820	0.100
706.400	-12.670	0.100
706.500	-24.442	0.100
706.600	-16.553	0.100
706.700	-5.352	0.100
706.800	-25.714	0.100
706.900	-17.749	0.100
707.000	-11.807	0.100
707.100	-12.998	0.100
707.200	-20.562	0.100
707.300	-18.229	0.100
707.400	-26.131	0.100
707.500	-13.821	0.100
707.600	-17.828	0.100
707.700	-18.076	0.100
707.800	-12.948	0.100
707.900	-10.415	0.100
708.000	-23.090	0.100
708.100	-15.175	0.100
708.200	-11.588	0.100
708.300	-19.185	0.100
708.400	-29.285	0.100
708.500	-12.641	0.100
708.600	-18.545	0.100
708.700	-14.742	0.100
708.800	-13.272	0.100
708.900	-18.629	0.100
709.000	-22.438	0.100
709.100	-12.925	0.100
709.200	-12.500	0.100
709.300	-16.626	0.100
709.400	-15.321	0.100
709.500	-11.207	0.100
709.600	-18.594	0.100
709.700	-11.530	0.100
709.800	-16.718	0.100
709.900	-14.370	0.100
710.000	-22.923	0.100
710.100	-19.150	0.100
710.200	-30.538	0.100
710.300	-15.060	0.100
710.400	-26.244	0.100
710.500	-20.559	0.100
710.600	-11.106	0.100
710.700	-5.835	0.100
710.800	-8.530	0.100
710.900	-35.226	0.100
711.000	-19.219	0.100
711.100	-21.227	0.100
711.200	-15.721	0.100
711.300	-11.648	0.100
711.400	-22.111	0.100
711.500	-26.029	0.100
711.600	-19.597	0.100
711.700	-20.909	0.100
711.800	-3.473	0.100
711.900	-9.858	0.100
712.000	-17.279	0.100
712.100	-19.926	0.100
712.200	-16.326	0.100
712.300	-11.926	0.100
712.400	-25.318	0.100
712.500	-18.983	0.100
712.600	-20.599	0.100
712.700	-19.324	0.100
712.800	-14.178	0.100
712.900	-13.317	0.100
713.000	-18.922	0.100
713.100	-16.115	0.100
713.200	-11.757	0.100
713.300	-25.167	0.100
713.400	-20.362	0.100
713.500	-18.615	0.100
713.600	-10.551	0.100
713.700	-17.526	0.100
713.800	-20.532	0.100
713.900	-17.685	0.100
714.000	-11.140	0.100
714.100	-7.364	0.100
714.200	-27.647	0.100
714.300	-26.581	0.100
714.400	-16.258	0.100
714.500	-28.015	0.100
714.600	-10.357	0.100
714.700	-29.608	0.100
714.800	-18.227	0.100
714.900	-24.491	0.100
715.000	-0.679	0.100
715.100	-14.124	0.100
715.200	-11.244	0.100
715.300	-22.525	0.100
715.400	-24.301	0.100
715.500	-22.228	0.100
715.600	-24.099	0.100
