time /s	I /nA	E /V
0.100	-22.750	0.100
0.200	9.506	0.100
0.300	-7.624	0.100
0.400	-40.990	0.100
0.500	-19.114	0.100
0.600	-15.185	0.100
0.700	-29.656	0.100
0.800	-22.705	0.100
0.900	-14.125	0.100
1.000	-21.361	0.100
1.100	-19.381	0.100
1.200	-18.064	0.100
1.300	-9.790	0.100
1.400	-13.065	0.100
1.500	-33.210	0.100
1.600	-28.351	0.100
1.700	-17.042	0.100
1.800	-15.270	0.100
1.900	-24.305	0.100
2.000	-34.023	0.100
2.100	-23.175	0.100
2.200	-18.876	0.100
2.300	-26.040	0.100
2.400	-21.805	0.100
2.500	-29.271	0.100
2.600	-18.570	0.100
2.700	-26.440	0.100
2.800	-10.373	0.100
2.900	-10.062	0.100
3.000	-6.491	0.100
3.100	-13.533	0.100
3.200	-10.879	0.100
3.300	-17.774	0.100
3.400	-16.919	0.100
3.500	-13.976	0.100
3.600	-22.903	0.100
3.700	-14.066	0.100
3.800	-2.189	0.100
3.900	-12.213	0.100
4.000	-30.573	0.100
4.100	-18.087	0.100
4.200	-18.702	0.100
4.300	-23.897	0.100
4.400	-22.863	0.100
4.500	-11.564	0.100
4.600	-18.120	0.100
4.700	-23.399	0.100
4.800	-24.457	0.100
4.900	-26.959	0.100
5.000	-17.188	0.100
5.100	-20.089	0.100
5.200	-27.038	0.100
5.300	-21.756	0.100
5.400	-13.713	0.100
5.500	-14.548	0.100
5.600	-6.794	0.100
5.700	-8.430	0.100
5.800	-32.498	0.100
5.900	-8.981	0.100
6.000	-17.033	0.100
6.100	-26.077	0.100
6.200	-20.454	0.100
6.300	-17.508	0.100
6.400	-17.485	0.100
6.500	-19.610	0.100
6.600	-33.756	0.100
6.700	-37.845	0.100
6.800	-22.048	0.100
6.900	-1.925	0.100
7.000	-17.873	0.100
7.100	-28.003	0.100
7.200	-26.651	0.100
7.300	-17.550	0.100
7.400	-4.203	0.100
7.500	-17.907	0.100
7.600	-14.566	0.100
7.700	-35.155	0.100
7.800	-21.231	0.100
7.900	-13.163	0.100
8.000	-12.241	0.100
8.100	-19.678	0.100
8.200	-23.514	0.100
8.300	-32.427	0.100
8.400	-28.951	0.100
8.500	-22.543	0.100
8.600	-18.943	0.100
8.700	-7.800	0.100
8.800	-16.887	0.100
8.900	-35.573	0.100
9.000	-28.213	0.100
9.100	-20.786	0.100
9.200	-20.015	0.100
9.300	-30.591	0.100
9.400	-3.214	0.100
9.500	-7.627	0.100
9.600	-16.995	0.100
9.700	-17.528	0.100
9.800	-10.886	0.100
9.900	-17.705	0.100
10.000	-23.631	0.100
10.100	-37.528	0.100
10.200	-14.841	0.100
10.300	-14.543	0.100
10.400	-6.071	0.100
10.500	-7.350	0.100
10.600	-16.433	0.100
10.700	-41.528	0.100
10.800	-19.595	0.100
10.900	-7.266	0.100
11.000	-14.929	0.100
11.100	-13.225	0.100
11.200	-40.735	0.100
11.300	-25.661	0.100
11.400	-16.098	0.100
11.500	-15.106	0.100
11.600	-25.620	0.100
11.700	-16.093	0.100
11.800	-15.324	0.100
11.900	-6.216	0.100
12.000	-24.763	0.100
12.100	-34.563	0.100
12.200	-18.381	0.100
12.300	-32.534	0.100
12.400	-23.534	0.100
12.500	-21.371	0.100
12.600	-9.595	0.100
12.700	-5.302	0.100
12.800	-9.870	0.100
12.900	-28.361	0.100
13.000	-16.818	0.100
13.100	-28.873	0.100
13.200	-12.191	0.100
13.300	-16.484	0.100
13.400	-13.852	0.100
13.500	-27.079	0.100
13.600	-16.010	0.100
13.700	-28.939	0.100
13.800	-17.079	0.100
13.900	-19.920	0.100
14.000	-4.251	0.100
14.100	-10.290	0.100
14.200	-15.130	0.100
14.300	-17.269	0.100
14.400	-25.414	0.100
14.500	-32.336	0.100
14.600	-15.073	0.100
14.700	-3.349	0.100
14.800	-12.587	0.100
14.900	-21.514	0.100
15.000	-35.297	0.100
15.100	-19.396	0.100
15.200	-10.780	0.100
15.300	-13.670	0.100
15.400	-19.375	0.100
15.500	-10.514	0.100
15.600	-9.655	0.100
15.700	-18.212	0.100
15.800	-19.212	0.100
15.900	-24.660	0.100
16.000	-12.800	0.100
16.100	-30.953	0.100
16.200	-24.597	0.100
16.300	-20.907	0.100
16.400	-17.236	0.100
16.500	-8.830	0.100
16.600	-31.211	0.100
16.700	-18.061	0.100
16.800	-21.764	0.100
16.900	-12.282	0.100
17.000	-0.405	0.100
17.100	-24.926	0.100
17.200	-28.139	0.100
17.300	-18.063	0.100
17.400	-7.792	0.100
17.500	-6.475	0.100
17.600	-32.346	0.100
17.700	-10.851	0.100
17.800	-18.680	0.100
17.900	-21.768	0.100
18.000	-23.474	0.100
18.100	-13.966	0.100
18.200	-23.125	0.100
18.300	-17.659	0.100
18.400	-26.014	0.100
18.500	-13.604	0.100
18.600	-16.878	0.100
18.700	-23.018	0.100
18.800	-26.132	0.100
18.900	-22.110	0.100
19.000	-5.936	0.100
19.100	-18.653	0.100
19.200	-18.773	0.100
19.300	-15.508	0.100
19.400	-28.714	0.100
19.500	-1.309	0.100
19.600	-12.725	0.100
19.700	3.201	0.100
19.800	-6.079	0.100
19.900	-18.620	0.100
20.000	-31.364	0.100
20.100	-17.521	0.100
20.200	-28.230	0.100
20.300	-17.898	0.100
20.400	-15.899	0.100
20.500	-24.905	0.100
20.600	-17.251	0.100
20.700	-30.544	0.100
20.800	-17.074	0.100
20.900	-13.018	0.100
21.000	-28.119	0.100
21.100	-14.652	0.100
21.200	-8.703	0.100
21.300	-6.981	0.100
21.400	-4.074	0.100
21.500	-8.952	0.100
21.600	-17.040	0.100
21.700	-23.303	0.100
21.800	-27.361	0.100
21.900	-25.931	0.100
22.000	-10.986	0.100
22.100	-38.280	0.100
22.200	-17.231	0.100
22.300	-2.604	0.100
22.400	-15.208	0.100
22.500	-24.414	0.100
22.600	-24.168	0.100
22.700	-12.091	0.100
22.800	-28.604	0.100
22.900	-10.278	0.100
23.000	-15.062	0.100
23.100	-35.355	0.100
23.200	-36.862	0.100
23.300	-13.008	0.100
23.400	-8.657	0.100
23.500	-11.882	0.100
23.600	-11.881	0.100
23.700	-20.970	0.100
23.800	-20.456	0.100
23.900	-25.776	0.100
24.000	-11.697	0.100
24.100	-28.343	0.100
24.200	-25.480	0.100
24.300	1.034	0.100
24.400	-9.419	0.100
24.500	-25.674	0.100
24.600	-17.055	0.100
24.700	-21.684	0.100
24.800	-23.753	0.100
24.900	-18.877	0.100
25.000	-4.953	0.100
25.100	-25.843	0.100
25.200	-14.793	0.100
25.300	-6.606	0.100
25.400	-9.549	0.100
25.500	-13.642	0.100
25.600	-17.799	0.100
25.700	-25.895	0.100
25.800	-17.325	0.100
25.900	-26.015	0.100
26.000	-16.833	0.100
26.100	-18.484	0.100
26.200	-19.887	0.100
26.300	-2.474	0.100
26.400	-12.064	0.100
26.500	-34.221	0.100
26.600	-11.714	0.100
26.700	-12.126	0.100
26.800	-6.910	0.100
26.900	-7.218	0.100
27.000	-20.256	0.100
27.100	-10.469	0.100
27.200	-19.094	0.100
27.300	-21.918	0.100
27.400	-25.439	0.100
27.500	-13.832	0.100
27.600	-11.135	0.100
27.700	-20.740	0.100
27.800	-18.173	0.100
27.900	-15.241	0.100
28.000	-20.594	0.100
28.100	-30.029	0.100
28.200	-24.534	0.100
28.300	-9.060	0.100
28.400	-14.105	0.100
28.500	-13.396	0.100
28.600	-11.036	0.100
28.700	-14.737	0.100
28.800	-26.220	0.100
28.900	-13.550	0.100
29.000	-28.987	0.100
29.100	-28.975	0.100
29.200	-22.000	0.100
29.300	-14.887	0.100
29.400	-18.205	0.100
29.500	-24.288	0.100
29.600	-10.746	0.100
29.700	-7.110	0.100
29.800	-12.768	0.100
29.900	-31.529	0.100
30.000	-10.684	0.100
30.100	-12.078	0.100
30.200	-15.568	0.100
30.300	-16.043	0.100
30.400	-11.551	0.100
30.500	-2.620	0.100
30.600	-1.555	0.100
30.700	-5.259	0.100
30.800	-10.967	0.100
30.900	-1.156	0.100
31.000	-14.067	0.100
31.100	4.347	0.100
31.200	-8.991	0.100
31.300	-5.341	0.100
31.400	5.724	0.100
31.500	-1.415	0.100
31.600	-10.865	0.100
31.700	1.986	0.100
31.800	2.902	0.100
31.900	2.718	0.100
32.000	2.484	0.100
32.100	4.057	0.100
32.200	5.274	0.100
32.300	1.685	0.100
32.400	8.858	0.100
32.500	0.607	0.100
32.600	7.566	0.100
32.700	-4.251	0.100
32.800	13.254	0.100
32.900	2.611	0.100
33.000	-3.278	0.100
33.100	1.487	0.100
33.200	-1.267	0.100
33.300	6.174	0.100
33.400	4.503	0.100
33.500	4.742	0.100
33.600	7.895	0.100
33.700	-6.686	0.100
33.800	16.393	0.100
33.900	-1.887	0.100
34.000	-10.390	0.100
34.100	16.722	0.100
34.200	20.081	0.100
34.300	5.746	0.100
34.400	3.099	0.100
34.500	14.824	0.100
34.600	-3.288	0.100
34.700	-0.185	0.100
34.800	3.862	0.100
34.900	2.188	0.100
35.000	16.670	0.100
35.100	-5.166	0.100
35.200	11.123	0.100
35.300	12.352	0.100
35.400	5.199	0.100
35.500	4.144	0.100
35.600	9.106	0.100
35.700	12.917	0.100
35.800	21.757	0.100
35.900	3.733	0.100
36.000	9.233	0.100
36.100	21.225	0.100
36.200	15.215	0.100
36.300	14.964	0.100
36.400	16.055	0.100
36.500	16.853	0.100
36.600	17.788	0.100
36.700	13.622	0.100
36.800	24.848	0.100
36.900	12.766	0.100
37.000	18.626	0.100
37.100	22.905	0.100
37.200	17.027	0.100
37.300	23.524	0.100
37.400	19.209	0.100
37.500	17.389	0.100
37.600	24.237	0.100
37.700	28.382	0.100
37.800	27.018	0.100
37.900	24.904	0.100
38.000	8.871	0.100
38.100	22.639	0.100
38.200	14.310	0.100
38.300	33.318	0.100
38.400	23.822	0.100
38.500	27.346	0.100
38.600	35.194	0.100
38.700	27.246	0.100
38.800	37.695	0.100
38.900	24.361	0.100
39.000	24.342	0.100
39.100	30.023	0.100
39.200	27.339	0.100
39.300	38.313	0.100
39.400	20.781	0.100
39.500	32.046	0.100
39.600	35.054	0.100
39.700	29.856	0.100
39.800	30.662	0.100
39.900	29.523	0.100
40.000	26.380	0.100
40.100	27.917	0.100
40.200	43.840	0.100
40.300	25.121	0.100
40.400	26.139	0.100
40.500	32.960	0.100
40.600	27.310	0.100
40.700	39.617	0.100
40.800	29.042	0.100
40.900	44.077	0.100
41.000	40.761	0.100
41.100	37.727	0.100
41.200	23.427	0.100
41.300	47.029	0.100
41.400	42.288	0.100
41.500	40.613	0.100
41.600	21.447	0.100
41.700	46.093	0.100
41.800	28.591	0.100
41.900	45.555	0.100
42.000	38.444	0.100
42.100	24.809	0.100
42.200	40.438	0.100
42.300	50.261	0.100
42.400	46.448	0.100
42.500	34.890	0.100
42.600	44.732	0.100
42.700	43.379	0.100
42.800	28.362	0.100
42.900	25.970	0.100
43.000	26.011	0.100
43.100	45.091	0.100
43.200	35.858	0.100
43.300	42.786	0.100
43.400	31.993	0.100
43.500	24.465	0.100
43.600	53.704	0.100
43.700	29.645	0.100
43.800	37.985	0.100
43.900	39.929	0.100
44.000	52.890	0.100
44.100	31.683	0.100
44.200	43.033	0.100
44.300	42.524	0.100
44.400	32.458	0.100
44.500	35.424	0.100
44.600	31.895	0.100
44.700	39.325	0.100
44.800	27.180	0.100
44.900	44.640	0.100
45.000	29.406	0.100
45.100	36.295	0.100
45.200	36.256	0.100
45.300	27.622	0.100
45.400	24.792	0.100
45.500	27.727	0.100
45.600	31.058	0.100
45.700	34.691	0.100
45.800	39.562	0.100
45.900	43.328	0.100
46.000	39.227	0.100
46.100	45.274	0.100
46.200	35.594	0.100
46.300	18.917	0.100
46.400	36.037	0.100
46.500	29.878	0.100
46.600	31.439	0.100
46.700	36.153	0.100
46.800	24.936	0.100
46.900	35.248	0.100
47.000	40.651	0.100
47.100	17.058	0.100
47.200	42.064	0.100
47.300	37.755	0.100
47.400	38.783	0.100
47.500	25.546	0.100
47.600	40.737	0.100
47.700	27.690	0.100
47.800	38.196	0.100
47.900	15.125	0.100
48.000	29.727	0.100
48.100	14.508	0.100
48.200	40.829	0.100
48.300	42.291	0.100
48.400	26.729	0.100
48.500	30.949	0.100
48.600	39.265	0.100
48.700	26.996	0.100
48.800	21.823	0.100
48.900	24.808	0.100
49.000	27.534	0.100
49.100	34.343	0.100
49.200	34.249	0.100
49.300	25.983	0.100
49.400	33.501	0.100
49.500	28.512	0.100
49.600	27.186	0.100
49.700	31.087	0.100
49.800	25.973	0.100
49.900	18.643	0.100
50.000	25.309	0.100
50.100	23.935	0.100
50.200	32.482	0.100
50.300	39.924	0.100
50.400	35.575	0.100
50.500	28.850	0.100
50.600	22.123	0.100
50.700	38.589	0.100
50.800	24.053	0.100
50.900	34.846	0.100
51.000	32.041	0.100
51.100	24.111	0.100
51.200	25.670	0.100
51.300	26.402	0.100
51.400	17.866	0.100
51.500	23.477	0.100
51.600	33.200	0.100
51.700	31.167	0.100
51.800	26.013	0.100
51.900	13.289	0.100
52.000	20.648	0.100
52.100	14.896	0.100
52.200	40.367	0.100
52.300	31.976	0.100
52.400	25.021	0.100
52.500	27.329	0.100
52.600	27.243	0.100
52.700	24.499	0.100
52.800	34.852	0.100
52.900	31.784	0.100
53.000	25.819	0.100
53.100	32.177	0.100
53.200	29.492	0.100
53.300	24.483	0.100
53.400	21.714	0.100
53.500	25.632	0.100
53.600	23.601	0.100
53.700	36.086	0.100
53.800	25.735	0.100
53.900	26.578	0.100
54.000	16.525	0.100
54.100	32.020	0.100
54.200	28.400	0.100
54.300	21.555	0.100
54.400	18.201	0.100
54.500	21.216	0.100
54.600	25.729	0.100
54.700	27.209	0.100
54.800	26.944	0.100
54.900	27.371	0.100
55.000	35.633	0.100
55.100	32.125	0.100
55.200	8.860	0.100
55.300	14.672	0.100
55.400	28.979	0.100
55.500	38.634	0.100
55.600	41.985	0.100
55.700	44.800	0.100
55.800	16.006	0.100
55.900	26.661	0.100
56.000	20.830	0.100
56.100	21.907	0.100
56.200	13.796	0.100
56.300	43.946	0.100
56.400	43.256	0.100
56.500	32.372	0.100
56.600	24.958	0.100
56.700	39.663	0.100
56.800	28.318	0.100
56.900	20.821	0.100
57.000	40.163	0.100
57.100	32.025	0.100
57.200	34.203	0.100
57.300	27.404	0.100
57.400	27.145	0.100
57.500	22.940	0.100
57.600	24.424	0.100
57.700	32.768	0.100
57.800	20.946	0.100
57.900	19.163	0.100
58.000	22.096	0.100
58.100	23.310	0.100
58.200	23.304	0.100
58.300	15.264	0.100
58.400	17.745	0.100
58.500	31.678	0.100
58.600	27.478	0.100
58.700	37.077	0.100
58.800	43.524	0.100
58.900	27.922	0.100
59.000	25.871	0.100
59.100	29.679	0.100
59.200	24.878	0.100
59.300	25.923	0.100
59.400	28.732	0.100
59.500	33.996	0.100
59.600	34.913	0.100
59.700	26.205	0.100
59.800	26.026	0.100
59.900	37.062	0.100
60.000	19.328	0.100
60.100	26.687	0.100
60.200	21.933	0.100
60.300	22.876	0.100
60.400	23.500	0.100
60.500	4.972	0.100
60.600	15.499	0.100
60.700	22.314	0.100
60.800	6.373	0.100
60.900	12.663	0.100
61.000	21.743	0.100
61.100	15.183	0.100
61.200	3.353	0.100
61.300	16.055	0.100
61.400	16.098	0.100
61.500	7.613	0.100
61.600	1.531	0.100
61.700	1.170	0.100
61.800	-1.433	0.100
61.900	-11.582	0.100
62.000	-5.474	0.100
62.100	2.220	0.100
62.200	11.394	0.100
62.300	-1.949	0.100
62.400	2.881	0.100
62.500	5.689	0.100
62.600	-11.896	0.100
62.700	-7.025	0.100
62.800	-10.512	0.100
62.900	-13.051	0.100
63.000	-7.810	0.100
63.100	-29.802	0.100
63.200	3.023	0.100
63.300	-19.864	0.100
63.400	-15.449	0.100
63.500	-7.797	0.100
63.600	-4.237	0.100
63.700	-9.819	0.100
63.800	-10.137	0.100
63.900	-20.316	0.100
64.000	-8.171	0.100
64.100	-11.265	0.100
64.200	-27.056	0.100
64.300	-10.019	0.100
64.400	-24.603	0.100
64.500	-19.400	0.100
64.600	-17.309	0.100
64.700	-10.659	0.100
64.800	-19.991	0.100
64.900	-34.526	0.100
65.000	-23.999	0.100
65.100	-23.278	0.100
65.200	-15.170	0.100
65.300	-25.245	0.100
65.400	-11.555	0.100
65.500	-22.139	0.100
65.600	-36.181	0.100
65.700	-33.189	0.100
65.800	-19.466	0.100
65.900	-21.654	0.100
66.000	-14.588	0.100
66.100	-12.090	0.100
66.200	-20.139	0.100
66.300	-33.827	0.100
66.400	-24.985	0.100
66.500	-15.695	0.100
66.600	-23.739	0.100
66.700	-13.967	0.100
66.800	-20.296	0.100
66.900	-25.267	0.100
67.000	-34.366	0.100
67.100	-13.358	0.100
67.200	0.640	0.100
67.300	-21.453	0.100
67.400	-17.949	0.100
67.500	-18.773	0.100
67.600	-22.053	0.100
67.700	-15.641	0.100
67.800	-27.951	0.100
67.900	-20.716	0.100
68.000	-26.212	0.100
68.100	-28.712	0.100
68.200	-27.286	0.100
68.300	-16.486	0.100
68.400	-16.361	0.100
68.500	-17.539	0.100
68.600	-27.500	0.100
68.700	-23.785	0.100
68.800	-10.758	0.100
68.900	-19.428	0.100
69.000	-15.335	0.100
69.100	-27.247	0.100
69.200	-20.971	0.100
69.300	-25.558	0.100
69.400	-13.476	0.100
69.500	-17.092	0.100
69.600	-22.944	0.100
69.700	-20.771	0.100
69.800	-20.855	0.100
69.900	-10.539	0.100
70.000	-15.781	0.100
70.100	-9.445	0.100
70.200	-16.973	0.100
70.300	-14.768	0.100
70.400	-26.262	0.100
70.500	-11.963	0.100
70.600	-22.946	0.100
70.700	-16.982	0.100
70.800	-17.378	0.100
70.900	-16.542	0.100
71.000	-7.730	0.100
71.100	-20.062	0.100
71.200	-13.673	0.100
71.300	-16.221	0.100
71.400	-18.013	0.100
71.500	-6.036	0.100
71.600	-18.269	0.100
71.700	-14.501	0.100
71.800	-3.399	0.100
71.900	-20.443	0.100
72.000	-19.480	0.100
72.100	-17.552	0.100
72.200	-11.106	0.100
72.300	-1.449	0.100
72.400	-9.497	0.100
72.500	-33.621	0.100
72.600	-10.138	0.100
72.700	-8.260	0.100
72.800	-4.223	0.100
72.900	-14.786	0.100
73.000	-25.422	0.100
73.100	-8.897	0.100
73.200	-11.870	0.100
73.300	-31.304	0.100
73.400	-8.621	0.100
73.500	-20.460	0.100
73.600	-11.584	0.100
73.700	-14.632	0.100
73.800	-10.761	0.100
73.900	-12.325	0.100
74.000	-11.362	0.100
74.100	-4.850	0.100
74.200	-22.217	0.100
74.300	-18.896	0.100
74.400	-6.991	0.100
74.500	-12.589	0.100
74.600	-8.330	0.100
74.700	-4.909	0.100
74.800	-10.027	0.100
74.900	-9.692	0.100
75.000	-20.254	0.100
75.100	-18.047	0.100
75.200	-16.115	0.100
75.300	-15.169	0.100
75.400	-12.618	0.100
75.500	-10.891	0.100
75.600	-11.292	0.100
75.700	-15.447	0.100
75.800	-12.516	0.100
75.900	-14.534	0.100
76.000	-19.231	0.100
76.100	-14.866	0.100
76.200	-7.890	0.100
76.300	-19.817	0.100
76.400	-14.454	0.100
76.500	-13.445	0.100
76.600	-23.118	0.100
76.700	-12.430	0.100
76.800	5.878	0.100
76.900	-1.817	0.100
77.000	-12.734	0.100
77.100	-27.997	0.100
77.200	-20.254	0.100
77.300	-15.178	0.100
77.400	-0.020	0.100
77.500	7.613	0.100
77.600	-2.430	0.100
77.700	-10.572	0.100
77.800	-11.220	0.100
77.900	-19.688	0.100
78.000	-13.957	0.100
78.100	-26.451	0.100
78.200	-2.335	0.100
78.300	-10.914	0.100
78.400	-9.549	0.100
78.500	0.888	0.100
78.600	-14.580	0.100
78.700	-5.872	0.100
78.800	-15.262	0.100
78.900	-8.122	0.100
79.000	-7.397	0.100
79.100	-7.642	0.100
79.200	-8.942	0.100
79.300	-21.617	0.100
79.400	-16.358	0.100
79.500	2.748	0.100
79.600	-17.962	0.100
79.700	-3.860	0.100
79.800	-12.453	0.100
79.900	-0.506	0.100
80.000	-13.997	0.100
80.100	-12.604	0.100
80.200	-18.877	0.100
80.300	-13.368	0.100
80.400	-11.788	0.100
80.500	-11.858	0.100
80.600	-4.127	0.100
80.700	-11.621	0.100
80.800	-20.209	0.100
80.900	-4.130	0.100
81.000	-18.129	0.100
81.100	-13.684	0.100
81.200	-15.173	0.100
81.300	-6.074	0.100
81.400	-2.719	0.100
81.500	-10.751	0.100
81.600	-16.376	0.100
81.700	-21.398	0.100
81.800	-15.407	0.100
81.900	-2.137	0.100
82.000	-7.703	0.100
82.100	-24.188	0.100
82.200	-1.252	0.100
82.300	-18.649	0.100
82.400	-17.684	0.100
82.500	-6.113	0.100
82.600	-13.921	0.100
82.700	-17.424	0.100
82.800	-5.219	0.100
82.900	-17.188	0.100
83.000	-9.131	0.100
83.100	-9.199	0.100
83.200	-13.247	0.100
83.300	-4.743	0.100
83.400	-10.595	0.100
83.500	-22.782	0.100
83.600	-3.632	0.100
83.700	-15.462	0.100
83.800	-21.992	0.100
83.900	-12.571	0.100
84.000	-15.928	0.100
84.100	-20.149	0.100
84.200	0.422	0.100
84.300	-20.343	0.100
84.400	-17.689	0.100
84.500	-15.313	0.100
84.600	-10.110	0.100
84.700	-14.656	0.100
84.800	-11.071	0.100
84.900	-11.558	0.100
85.000	-8.378	0.100
85.100	-4.680	0.100
85.200	-19.334	0.100
85.300	-9.117	0.100
85.400	-23.731	0.100
85.500	-19.919	0.100
85.600	-24.480	0.100
85.700	-1.150	0.100
85.800	-8.414	0.100
85.900	-13.555	0.100
86.000	-8.047	0.100
86.100	-7.481	0.100
86.200	-20.440	0.100
86.300	-23.250	0.100
86.400	-12.810	0.100
86.500	-4.925	0.100
86.600	-15.823	0.100
86.700	-8.386	0.100
86.800	-2.248	0.100
86.900	-0.659	0.100
87.000	-14.077	0.100
87.100	-12.331	0.100
87.200	-12.930	0.100
87.300	-11.900	0.100
87.400	-16.061	0.100
87.500	-25.682	0.100
87.600	-6.702	0.100
87.700	-1.983	0.100
87.800	-2.136	0.100
87.900	-17.875	0.100
88.000	-13.261	0.100
88.100	-1.564	0.100
88.200	-15.269	0.100
88.300	-19.871	0.100
88.400	-10.454	0.100
88.500	-28.820	0.100
88.600	-25.647	0.100
88.700	-23.134	0.100
88.800	-2.697	0.100
88.900	-13.010	0.100
89.000	-18.756	0.100
89.100	-15.625	0.100
89.200	-5.168	0.100
89.300	-19.712	0.100
89.400	-6.941	0.100
89.500	-15.850	0.100
89.600	-5.260	0.100
89.700	-25.986	0.100
89.800	-30.224	0.100
89.900	-15.267	0.100
90.000	-9.141	0.100
90.100	-11.451	0.100
90.200	-12.340	0.100
90.300	-12.896	0.100
90.400	-8.811	0.100
90.500	-24.489	0.100
90.600	-17.448	0.100
90.700	-13.240	0.100
90.800	-15.009	0.100
90.900	-3.718	0.100
91.000	-18.019	0.100
91.100	-15.897	0.100
91.200	-32.124	0.100
91.300	-9.913	0.100
91.400	-16.410	0.100
91.500	-4.981	0.100
91.600	-20.935	0.100
91.700	-28.553	0.100
91.800	-15.410	0.100
91.900	-15.456	0.100
92.000	-8.968	0.100
92.100	-16.688	0.100
92.200	-14.617	0.100
92.300	-15.782	0.100
92.400	-14.542	0.100
92.500	-21.168	0.100
92.600	-13.164	0.100
92.700	-9.535	0.100
92.800	-20.307	0.100
92.900	-19.029	0.100
93.000	-26.575	0.100
93.100	-20.424	0.100
93.200	-15.202	0.100
93.300	-14.659	0.100
93.400	-14.375	0.100
93.500	3.184	0.100
93.600	-17.504	0.100
93.700	-13.837	0.100
93.800	-14.482	0.100
93.900	-18.572	0.100
94.000	-30.222	0.100
94.100	-10.804	0.100
94.200	-2.151	0.100
94.300	-17.508	0.100
94.400	-16.717	0.100
94.500	-20.735	0.100
94.600	-14.123	0.100
94.700	-9.252	0.100
94.800	-12.470	0.100
94.900	-20.443	0.100
95.000	-18.179	0.100
95.100	-18.351	0.100
95.200	-14.208	0.100
95.300	-18.250	0.100
95.400	-12.252	0.100
95.500	-19.592	0.100
95.600	-13.952	0.100
95.700	-22.394	0.100
95.800	-27.530	0.100
95.900	-14.526	0.100
96.000	-4.503	0.100
96.100	-9.493	0.100
96.200	-3.523	0.100
96.300	-21.092	0.100
96.400	-36.517	0.100
96.500	-18.739	0.100
96.600	-24.244	0.100
96.700	-14.301	0.100
96.800	-18.550	0.100
96.900	-15.650	0.100
97.000	-10.309	0.100
97.100	-22.726	0.100
97.200	-21.547	0.100
97.300	-11.191	0.100
97.400	-18.362	0.100
97.500	-27.761	0.100
97.600	-0.918	0.100
97.700	-14.363	0.100
97.800	-17.982	0.100
97.900	-23.017	0.100
98.000	-11.055	0.100
98.100	-22.739	0.100
98.200	-19.673	0.100
98.300	-19.024	0.100
98.400	-17.394	0.100
98.500	-15.769	0.100
98.600	-28.311	0.100
98.700	-13.496	0.100
98.800	-21.206	0.100
98.900	-24.153	0.100
99.000	-12.529	0.100
99.100	-13.255	0.100
99.200	-20.982	0.100
99.300	-11.911	0.100
99.400	-12.181	0.100
99.500	-26.149	0.100
99.600	-8.847	0.100
99.700	-22.935	0.100
99.800	-16.459	0.100
99.900	-17.590	0.100
100.000	-13.030	0.100
100.100	-12.642	0.100
100.200	-25.272	0.100
100.300	-22.859	0.100
100.400	-21.903	0.100
100.500	-15.589	0.100
100.600	-19.625	0.100
100.700	-19.875	0.100
100.800	-0.855	0.100
100.900	-8.194	0.100
101.000	-24.689	0.100
101.100	-9.689	0.100
101.200	-31.902	0.100
101.300	-19.911	0.100
101.400	-5.312	0.100
101.500	-20.863	0.100
101.600	-13.570	0.100
101.700	-19.887	0.100
101.800	-22.158	0.100
101.900	-11.575	0.100
102.000	-16.204	0.100
102.100	-13.670	0.100
102.200	-16.753	0.100
102.300	-31.834	0.100
102.400	1.844	0.100
102.500	-30.819	0.100
102.600	-17.039	0.100
102.700	-22.099	0.100
102.800	-17.288	0.100
102.900	-5.308	0.100
103.000	-11.124	0.100
103.100	-18.073	0.100
103.200	-18.956	0.100
103.300	-10.581	0.100
103.400	-11.866	0.100
103.500	-28.474	0.100
103.600	-24.358	0.100
103.700	-18.489	0.100
103.800	-39.409	0.100
103.900	-29.146	0.100
104.000	-9.505	0.100
104.100	-12.924	0.100
104.200	-11.469	0.100
104.300	-24.481	0.100
104.400	-24.676	0.100
104.500	-8.428	0.100
104.600	-14.186	0.100
104.700	-22.730	0.100
104.800	-13.671	0.100
104.900	-18.808	0.100
105.000	-16.906	0.100
105.100	-12.019	0.100
105.200	-9.883	0.100
105.300	-13.932	0.100
105.400	-20.767	0.100
105.500	-28.769	0.100
105.600	-24.052	0.100
105.700	-21.066	0.100
105.800	-14.505	0.100
105.900	-18.552	0.100
106.000	-18.808	0.100
106.100	-21.655	0.100
106.200	-4.181	0.100
106.300	-27.766	0.100
106.400	-17.894	0.100
106.500	-16.321	0.100
106.600	-30.810	0.100
106.700	-17.982	0.100
106.800	-18.393	0.100
106.900	-27.134	0.100
107.000	-14.093	0.100
107.100	-21.678	0.100
107.200	-12.758	0.100
107.300	-3.437	0.100
107.400	-17.679	0.100
107.500	-29.628	0.100
107.600	-11.139	0.100
107.700	-13.065	0.100
107.800	-12.894	0.100
107.900	-12.211	0.100
108.000	-16.484	0.100
108.100	-21.248	0.100
108.200	-22.266	0.100
108.300	-16.343	0.100
108.400	-11.570	0.100
108.500	-31.963	0.100
108.600	-24.614	0.100
108.700	-13.841	0.100
108.800	-20.220	0.100
108.900	-14.957	0.100
109.000	-37.892	0.100
109.100	-21.704	0.100
109.200	-24.500	0.100
109.300	-15.858	0.100
109.400	-13.525	0.100
109.500	-26.793	0.100
109.600	-19.270	0.100
109.700	-8.276	0.100
109.800	-9.851	0.100
109.900	-12.062	0.100
110.000	-23.150	0.100
110.100	-15.335	0.100
110.200	-13.686	0.100
110.300	-9.924	0.100
110.400	-21.089	0.100
110.500	-18.178	0.100
110.600	-16.492	0.100
110.700	-10.309	0.100
110.800	-30.354	0.100
110.900	-26.175	0.100
111.000	-14.038	0.100
111.100	-13.234	0.100
111.200	-16.876	0.100
111.300	-10.904	0.100
111.400	-12.649	0.100
111.500	-32.249	0.100
111.600	-15.552	0.100
111.700	-18.900	0.100
111.800	-3.659	0.100
111.900	-22.167	0.100
112.000	-8.030	0.100
112.100	-10.828	0.100
112.200	-31.186	0.100
112.300	-37.844	0.100
112.400	-8.128	0.100
112.500	-14.838	0.100
112.600	-14.022	0.100
112.700	-24.532	0.100
112.800	-17.371	0.100
112.900	-13.059	0.100
113.000	-34.522	0.100
113.100	-10.063	0.100
113.200	-24.483	0.100
113.300	-11.164	0.100
113.400	-14.810	0.100
113.500	-27.878	0.100
113.600	-8.189	0.100
113.700	-8.492	0.100
113.800	-20.262	0.100
113.900	-37.094	0.100
114.000	-7.508	0.100
114.100	-13.024	0.100
114.200	-19.939	0.100
114.300	-22.095	0.100
114.400	-15.480	0.100
114.500	-29.145	0.100
114.600	-25.512	0.100
114.700	-23.032	0.100
114.800	-9.146	0.100
114.900	-25.565	0.100
115.000	-5.591	0.100
115.100	-11.967	0.100
115.200	-2.859	0.100
115.300	-30.957	0.100
115.400	-28.650	0.100
115.500	-7.963	0.100
115.600	-13.237	0.100
115.700	-18.128	0.100
115.800	-26.356	0.100
115.900	-5.624	0.100
116.000	-8.257	0.100
116.100	-15.181	0.100
116.200	-21.342	0.100
116.300	-21.155	0.100
116.400	-13.521	0.100
116.500	-31.173	0.100
116.600	-17.360	0.100
116.700	-11.528	0.100
116.800	-17.817	0.100
116.900	-21.515	0.100
117.000	-25.203	0.100
117.100	-13.928	0.100
117.200	-9.484	0.100
117.300	-14.468	0.100
117.400	-23.664	0.100
117.500	-26.817	0.100
117.600	-19.352	0.100
117.700	-20.840	0.100
117.800	-13.656	0.100
117.900	-24.560	0.100
118.000	-21.377	0.100
118.100	-9.714	0.100
118.200	-15.614	0.100
118.300	-16.590	0.100
118.400	-26.161	0.100
118.500	-8.041	0.100
118.600	-22.089	0.100
118.700	-19.129	0.100
118.800	-37.764	0.100
118.900	-9.016	0.100
119.000	-15.354	0.100
119.100	-17.666	0.100
119.200	-24.337	0.100
119.300	-14.777	0.100
119.400	-13.947	0.100
119.500	-17.176	0.100
119.600	-15.733	0.100
119.700	-18.186	0.100
119.800	-2.957	0.100
119.900	-11.430	0.100
120.000	-21.009	0.100
120.100	-19.887	0.100
120.200	-24.044	0.100
120.300	-28.669	0.100
120.400	-20.121	0.100
120.500	-9.636	0.100
120.600	-20.947	0.100
120.700	-19.044	0.100
120.800	-11.357	0.100
120.900	-26.165	0.100
121.000	-10.111	0.100
121.100	-21.430	0.100
121.200	-9.297	0.100
121.300	-14.865	0.100
121.400	-10.598	0.100
121.500	-17.776	0.100
121.600	-16.613	0.100
121.700	-27.078	0.100
121.800	-10.420	0.100
121.900	-13.090	0.100
122.000	-24.365	0.100
122.100	-23.936	0.100
122.200	0.480	0.100
122.300	-11.765	0.100
122.400	2.654	0.100
122.500	-23.508	0.100
122.600	-4.005	0.100
122.700	-21.143	0.100
122.800	-31.733	0.100
122.900	-10.303	0.100
123.000	-16.347	0.100
123.100	-7.895	0.100
123.200	-14.295	0.100
123.300	-19.659	0.100
123.400	-21.776	0.100
123.500	-18.041	0.100
123.600	-28.597	0.100
123.700	-12.509	0.100
123.800	-20.877	0.100
123.900	-15.767	0.100
124.000	-16.334	0.100
124.100	-3.069	0.100
124.200	-14.839	0.100
124.300	-15.310	0.100
124.400	-29.088	0.100
124.500	-29.399	0.100
124.600	-14.413	0.100
124.700	-22.735	0.100
124.800	-17.417	0.100
124.900	-11.592	0.100
125.000	-25.681	0.100
125.100	-10.126	0.100
125.200	-16.493	0.100
125.300	-19.864	0.100
125.400	-12.093	0.100
125.500	-21.420	0.100
125.600	-19.602	0.100
125.700	-13.073	0.100
125.800	-11.486	0.100
125.900	-27.187	0.100
126.000	-21.997	0.100
126.100	-23.553	0.100
126.200	-9.404	0.100
126.300	-13.731	0.100
126.400	-16.945	0.100
126.500	-25.371	0.100
126.600	2.023	0.100
126.700	-20.958	0.100
126.800	-23.348	0.100
126.900	-5.791	0.100
127.000	-17.472	0.100
127.100	-20.439	0.100
127.200	-12.669	0.100
127.300	-14.244	0.100
127.400	-11.013	0.100
127.500	-13.144	0.100
127.600	-9.083	0.100
127.700	-8.271	0.100
127.800	-17.060	0.100
127.900	-16.045	0.100
128.000	-18.264	0.100
128.100	-18.475	0.100
128.200	-12.518	0.100
128.300	-8.164	0.100
128.400	-8.868	0.100
128.500	-25.658	0.100
128.600	-29.020	0.100
128.700	-5.631	0.100
128.800	-12.290	0.100
128.900	-15.689	0.100
129.000	-14.348	0.100
129.100	-14.926	0.100
129.200	-3.195	0.100
129.300	-38.355	0.100
129.400	-30.845	0.100
129.500	-15.245	0.100
129.600	1.522	0.100
129.700	-5.864	0.100
129.800	-32.524	0.100
129.900	-17.503	0.100
130.000	-17.721	0.100
130.100	-17.188	0.100
130.200	-14.566	0.100
130.300	-22.361	0.100
130.400	-22.171	0.100
130.500	-8.137	0.100
130.600	-12.561	0.100
130.700	-18.552	0.100
130.800	-12.323	0.100
130.900	-13.247	0.100
131.000	-31.127	0.100
131.100	-12.011	0.100
131.200	-10.363	0.100
131.300	-18.976	0.100
131.400	-20.118	0.100
131.500	-13.510	0.100
131.600	-12.337	0.100
131.700	-21.282	0.100
131.800	-14.431	0.100
131.900	-23.795	0.100
132.000	-3.384	0.100
132.100	-8.224	0.100
132.200	-16.759	0.100
132.300	-6.852	0.100
132.400	-6.291	0.100
132.500	-29.329	0.100
132.600	-13.665	0.100
132.700	-9.861	0.100
132.800	-10.550	0.100
132.900	-20.385	0.100
133.000	-11.127	0.100
133.100	-12.702	0.100
133.200	-26.099	0.100
133.300	-14.003	0.100
133.400	-16.219	0.100
133.500	-10.233	0.100
133.600	-17.042	0.100
133.700	-9.549	0.100
133.800	-10.288	0.100
133.900	-25.224	0.100
134.000	-15.861	0.100
134.100	-20.221	0.100
134.200	-25.242	0.100
134.300	0.777	0.100
134.400	-23.903	0.100
134.500	-12.819	0.100
134.600	-17.056	0.100
134.700	-12.490	0.100
134.800	-9.850	0.100
134.900	-10.922	0.100
135.000	-28.141	0.100
135.100	-19.285	0.100
135.200	-16.866	0.100
135.300	-6.913	0.100
135.400	-13.215	0.100
135.500	-9.046	0.100
135.600	-18.825	0.100
135.700	-21.548	0.100
135.800	-36.739	0.100
135.900	-21.302	0.100
136.000	-3.936	0.100
136.100	-21.034	0.100
136.200	-8.869	0.100
136.300	-15.027	0.100
136.400	-16.776	0.100
136.500	-14.713	0.100
136.600	-8.007	0.100
136.700	-12.784	0.100
136.800	-12.320	0.100
136.900	-15.127	0.100
137.000	-20.406	0.100
137.100	-19.000	0.100
137.200	-13.030	0.100
137.300	-11.800	0.100
137.400	-21.363	0.100
137.500	-16.287	0.100
137.600	-12.383	0.100
137.700	-17.206	0.100
137.800	-5.740	0.100
137.900	-10.373	0.100
138.000	-19.895	0.100
138.100	-27.159	0.100
138.200	-26.515	0.100
138.300	-18.005	0.100
138.400	-5.759	0.100
138.500	-7.498	0.100
138.600	-16.400	0.100
138.700	-1.700	0.100
138.800	-15.249	0.100
138.900	-15.856	0.100
139.000	-12.071	0.100
139.100	-19.001	0.100
139.200	-24.305	0.100
139.300	-14.283	0.100
139.400	-12.634	0.100
139.500	-2.029	0.100
139.600	-16.459	0.100
139.700	-15.048	0.100
139.800	-16.965	0.100
139.900	-15.483	0.100
140.000	-10.004	0.100
140.100	-7.480	0.100
140.200	-16.862	0.100
140.300	-13.955	0.100
140.400	-20.224	0.100
140.500	-19.484	0.100
140.600	-25.137	0.100
140.700	-1.071	0.100
140.800	-6.107	0.100
140.900	-15.592	0.100
141.000	-22.191	0.100
141.100	-13.723	0.100
141.200	-18.053	0.100
141.300	-11.593	0.100
141.400	-18.354	0.100
141.500	-8.162	0.100
141.600	-9.547	0.100
141.700	-8.703	0.100
141.800	-25.664	0.100
141.900	-14.840	0.100
142.000	-21.487	0.100
142.100	-9.843	0.100
142.200	-13.658	0.100
142.300	-19.338	0.100
142.400	-18.425	0.100
142.500	-23.558	0.100
142.600	-19.221	0.100
142.700	-22.099	0.100
142.800	-11.841	0.100
142.900	-11.883	0.100
143.000	-8.770	0.100
143.100	-7.389	0.100
143.200	-14.834	0.100
143.300	-19.130	0.100
143.400	-22.489	0.100
143.500	-11.921	0.100
143.600	-20.686	0.100
143.700	-2.227	0.100
143.800	-12.608	0.100
143.900	-19.173	0.100
144.000	-14.670	0.100
144.100	-17.204	0.100
144.200	-4.627	0.100
144.300	-32.632	0.100
144.400	-19.686	0.100
144.500	-7.621	0.100
144.600	-14.969	0.100
144.700	-6.483	0.100
144.800	-17.834	0.100
144.900	-15.142	0.100
145.000	-6.586	0.100
145.100	-16.783	0.100
145.200	-18.977	0.100
145.300	-24.820	0.100
145.400	-13.372	0.100
145.500	-20.630	0.100
145.600	-10.555	0.100
145.700	-15.256	0.100
145.800	-11.087	0.100
145.900	-8.443	0.100
146.000	-14.402	0.100
146.100	-14.170	0.100
146.200	-17.460	0.100
146.300	-0.842	0.100
146.400	-16.816	0.100
146.500	-22.304	0.100
146.600	-16.998	0.100
146.700	-13.779	0.100
146.800	-16.588	0.100
146.900	-14.363	0.100
147.000	-8.985	0.100
147.100	-10.204	0.100
147.200	-12.452	0.100
147.300	-15.028	0.100
147.400	-24.494	0.100
147.500	-20.798	0.100
147.600	-6.678	0.100
147.700	-6.923	0.100
147.800	-10.114	0.100
147.900	-18.096	0.100
148.000	-16.543	0.100
148.100	-21.129	0.100
148.200	-16.215	0.100
148.300	-8.792	0.100
148.400	-14.575	0.100
148.500	-31.377	0.100
148.600	-21.171	0.100
148.700	-27.842	0.100
148.800	-5.379	0.100
148.900	-22.865	0.100
149.000	-4.075	0.100
149.100	-22.360	0.100
149.200	-5.845	0.100
149.300	-22.114	0.100
149.400	-17.450	0.100
149.500	-9.378	0.100
149.600	-2.253	0.100
149.700	-9.816	0.100
149.800	-22.027	0.100
149.900	-28.110	0.100
150.000	-15.532	0.100
150.100	-1.231	0.100
150.200	2.201	0.100
150.300	-10.197	0.100
150.400	2.626	0.100
150.500	-16.692	0.100
150.600	-5.059	0.100
150.700	-0.195	0.100
150.800	-2.141	0.100
150.900	3.664	0.100
151.000	-17.929	0.100
151.100	-0.303	0.100
151.200	3.521	0.100
151.300	0.014	0.100
151.400	0.188	0.100
151.500	8.575	0.100
151.600	7.241	0.100
151.700	4.670	0.100
151.800	16.702	0.100
151.900	-5.040	0.100
152.000	26.123	0.100
152.100	22.766	0.100
152.200	18.482	0.100
152.300	8.364	0.100
152.400	7.657	0.100
152.500	8.958	0.100
152.600	4.645	0.100
152.700	5.291	0.100
152.800	15.264	0.100
152.900	1.989	0.100
153.000	5.269	0.100
153.100	13.566	0.100
153.200	16.121	0.100
153.300	25.053	0.100
153.400	16.569	0.100
153.500	19.307	0.100
153.600	10.925	0.100
153.700	11.398	0.100
153.800	17.428	0.100
153.900	14.623	0.100
154.000	3.582	0.100
154.100	3.085	0.100
154.200	14.072	0.100
154.300	13.994	0.100
154.400	18.549	0.100
154.500	12.226	0.100
154.600	4.353	0.100
154.700	29.897	0.100
154.800	18.025	0.100
154.900	18.682	0.100
155.000	7.516	0.100
155.100	16.955	0.100
155.200	14.711	0.100
155.300	13.785	0.100
155.400	17.718	0.100
155.500	2.197	0.100
155.600	1.088	0.100
155.700	13.811	0.100
155.800	3.596	0.100
155.900	9.024	0.100
156.000	8.190	0.100
156.100	24.656	0.100
156.200	13.781	0.100
156.300	4.560	0.100
156.400	2.665	0.100
156.500	-2.943	0.100
156.600	21.498	0.100
156.700	7.575	0.100
156.800	21.265	0.100
156.900	13.851	0.100
157.000	19.896	0.100
157.100	16.563	0.100
157.200	10.723	0.100
157.300	4.719	0.100
157.400	25.855	0.100
157.500	16.039	0.100
157.600	11.841	0.100
157.700	9.169	0.100
157.800	26.802	0.100
157.900	19.700	0.100
158.000	22.550	0.100
158.100	19.204	0.100
158.200	11.999	0.100
158.300	2.899	0.100
158.400	21.895	0.100
158.500	26.513	0.100
158.600	20.151	0.100
158.700	28.909	0.100
158.800	20.783	0.100
158.900	30.145	0.100
159.000	23.736	0.100
159.100	13.203	0.100
159.200	21.364	0.100
159.300	18.423	0.100
159.400	22.987	0.100
159.500	8.459	0.100
159.600	21.513	0.100
159.700	35.961	0.100
159.800	30.832	0.100
159.900	18.993	0.100
160.000	20.098	0.100
160.100	23.782	0.100
160.200	24.570	0.100
160.300	29.387	0.100
160.400	20.139	0.100
160.500	35.155	0.100
160.600	39.547	0.100
160.700	28.299	0.100
160.800	39.708	0.100
160.900	28.690	0.100
161.000	14.380	0.100
161.100	29.799	0.100
161.200	33.774	0.100
161.300	34.402	0.100
161.400	25.857	0.100
161.500	40.712	0.100
161.600	24.744	0.100
161.700	34.072	0.100
161.800	41.299	0.100
161.900	37.632	0.100
162.000	20.928	0.100
162.100	35.523	0.100
162.200	41.444	0.100
162.300	31.453	0.100
162.400	37.716	0.100
162.500	39.100	0.100
162.600	36.660	0.100
162.700	40.910	0.100
162.800	31.333	0.100
162.900	35.035	0.100
163.000	28.730	0.100
163.100	49.229	0.100
163.200	35.212	0.100
163.300	48.916	0.100
163.400	31.870	0.100
163.500	43.065	0.100
163.600	43.059	0.100
163.700	33.378	0.100
163.800	35.991	0.100
163.900	40.808	0.100
164.000	53.503	0.100
164.100	46.403	0.100
164.200	35.543	0.100
164.300	55.307	0.100
164.400	35.526	0.100
164.500	53.571	0.100
164.600	50.201	0.100
164.700	57.772	0.100
164.800	38.583	0.100
164.900	38.056	0.100
165.000	45.841	0.100
165.100	37.143	0.100
165.200	43.486	0.100
165.300	50.628	0.100
165.400	45.328	0.100
165.500	42.033	0.100
165.600	45.140	0.100
165.700	53.037	0.100
165.800	45.476	0.100
165.900	27.532	0.100
166.000	59.027	0.100
166.100	39.350	0.100
166.200	59.942	0.100
166.300	42.506	0.100
166.400	62.444	0.100
166.500	45.868	0.100
166.600	56.939	0.100
166.700	47.832	0.100
166.800	43.554	0.100
166.900	42.384	0.100
167.000	51.124	0.100
167.100	49.619	0.100
167.200	43.774	0.100
167.300	43.581	0.100
167.400	39.374	0.100
167.500	57.640	0.100
167.600	51.381	0.100
167.700	51.214	0.100
167.800	42.528	0.100
167.900	35.159	0.100
168.000	42.287	0.100
168.100	38.410	0.100
168.200	52.187	0.100
168.300	59.831	0.100
168.400	48.700	0.100
168.500	53.168	0.100
168.600	43.904	0.100
168.700	59.641	0.100
168.800	50.635	0.100
168.900	43.796	0.100
169.000	42.071	0.100
169.100	45.879	0.100
169.200	45.333	0.100
169.300	43.648	0.100
169.400	47.156	0.100
169.500	47.048	0.100
169.600	45.837	0.100
169.700	60.383	0.100
169.800	55.955	0.100
169.900	44.358	0.100
170.000	43.749	0.100
170.100	22.456	0.100
170.200	41.693	0.100
170.300	54.022	0.100
170.400	43.055	0.100
170.500	68.124	0.100
170.600	50.422	0.100
170.700	45.666	0.100
170.800	41.259	0.100
170.900	46.400	0.100
171.000	58.676	0.100
171.100	45.277	0.100
171.200	49.107	0.100
171.300	50.814	0.100
171.400	33.631	0.100
171.500	46.523	0.100
171.600	52.037	0.100
171.700	51.760	0.100
171.800	53.532	0.100
171.900	60.559	0.100
172.000	55.151	0.100
172.100	39.354	0.100
172.200	48.830	0.100
172.300	46.561	0.100
172.400	49.146	0.100
172.500	42.847	0.100
172.600	51.994	0.100
172.700	48.442	0.100
172.800	54.019	0.100
172.900	47.616	0.100
173.000	56.266	0.100
173.100	41.853	0.100
173.200	47.000	0.100
173.300	59.226	0.100
173.400	41.159	0.100
173.500	57.793	0.100
173.600	46.940	0.100
173.700	47.733	0.100
173.800	53.125	0.100
173.900	43.009	0.100
174.000	42.276	0.100
174.100	60.468	0.100
174.200	50.217	0.100
174.300	47.218	0.100
174.400	48.063	0.100
174.500	48.003	0.100
174.600	50.460	0.100
174.700	51.146	0.100
174.800	50.354	0.100
174.900	43.443	0.100
175.000	46.652	0.100
175.100	48.158	0.100
175.200	47.773	0.100
175.300	40.637	0.100
175.400	51.605	0.100
175.500	37.065	0.100
175.600	48.743	0.100
175.700	54.242	0.100
175.800	60.552	0.100
175.900	50.702	0.100
176.000	46.615	0.100
176.100	48.448	0.100
176.200	46.055	0.100
176.300	46.069	0.100
176.400	48.761	0.100
176.500	56.038	0.100
176.600	50.808	0.100
176.700	45.816	0.100
176.800	44.587	0.100
176.900	48.700	0.100
177.000	43.923	0.100
177.100	60.459	0.100
177.200	45.079	0.100
177.300	47.837	0.100
177.400	46.429	0.100
177.500	50.057	0.100
177.600	50.180	0.100
177.700	60.599	0.100
177.800	48.594	0.100
177.900	42.574	0.100
178.000	56.302	0.100
178.100	41.535	0.100
178.200	50.051	0.100
178.300	31.577	0.100
178.400	45.998	0.100
178.500	40.376	0.100
178.600	48.137	0.100
178.700	50.526	0.100
178.800	59.918	0.100
178.900	47.494	0.100
179.000	42.685	0.100
179.100	57.550	0.100
179.200	49.096	0.100
179.300	43.637	0.100
179.400	48.797	0.100
179.500	43.638	0.100
179.600	44.468	0.100
179.700	36.430	0.100
179.800	46.800	0.100
179.900	50.996	0.100
180.000	33.589	0.100
180.100	36.723	0.100
180.200	45.282	0.100
180.300	36.815	0.100
180.400	46.317	0.100
180.500	40.361	0.100
180.600	34.357	0.100
180.700	47.511	0.100
180.800	35.680	0.100
180.900	37.466	0.100
181.000	31.446	0.100
181.100	45.088	0.100
181.200	39.758	0.100
181.300	25.578	0.100
181.400	29.177	0.100
181.500	23.692	0.100
181.600	22.607	0.100
181.700	16.235	0.100
181.800	20.811	0.100
181.900	15.979	0.100
182.000	20.328	0.100
182.100	25.494	0.100
182.200	12.064	0.100
182.300	13.292	0.100
182.400	15.975	0.100
182.500	15.769	0.100
182.600	21.586	0.100
182.700	12.538	0.100
182.800	10.994	0.100
182.900	19.304	0.100
183.000	5.393	0.100
183.100	6.287	0.100
183.200	22.592	0.100
183.300	16.059	0.100
183.400	16.414	0.100
183.500	5.176	0.100
183.600	9.924	0.100
183.700	10.469	0.100
183.800	-1.910	0.100
183.900	5.008	0.100
184.000	9.563	0.100
184.100	1.997	0.100
184.200	22.420	0.100
184.300	3.062	0.100
184.400	1.312	0.100
184.500	10.534	0.100
184.600	-2.011	0.100
184.700	5.514	0.100
184.800	-12.007	0.100
184.900	13.041	0.100
185.000	-2.494	0.100
185.100	6.406	0.100
185.200	9.722	0.100
185.300	-5.489	0.100
185.400	-5.433	0.100
185.500	-1.397	0.100
185.600	8.354	0.100
185.700	0.795	0.100
185.800	0.328	0.100
185.900	7.206	0.100
186.000	-3.299	0.100
186.100	7.020	0.100
186.200	-19.396	0.100
186.300	10.321	0.100
186.400	-11.282	0.100
186.500	4.074	0.100
186.600	3.030	0.100
186.700	-1.526	0.100
186.800	-5.650	0.100
186.900	-5.546	0.100
187.000	-2.135	0.100
187.100	3.531	0.100
187.200	-4.382	0.100
187.300	-4.011	0.100
187.400	-5.845	0.100
187.500	7.717	0.100
187.600	-8.425	0.100
187.700	-6.404	0.100
187.800	1.578	0.100
187.900	-13.439	0.100
188.000	0.145	0.100
188.100	2.710	0.100
188.200	-12.724	0.100
188.300	3.939	0.100
188.400	2.399	0.100
188.500	-1.630	0.100
188.600	9.500	0.100
188.700	3.225	0.100
188.800	-1.764	0.100
188.900	9.047	0.100
189.000	-6.920	0.100
189.100	-1.814	0.100
189.200	-1.633	0.100
189.300	7.343	0.100
189.400	-0.432	0.100
189.500	-5.557	0.100
189.600	-5.184	0.100
189.700	4.766	0.100
189.800	5.211	0.100
189.900	1.925	0.100
190.000	-8.227	0.100
190.100	0.724	0.100
190.200	-4.933	0.100
190.300	1.682	0.100
190.400	-5.372	0.100
190.500	3.965	0.100
190.600	3.818	0.100
190.700	2.223	0.100
190.800	0.582	0.100
190.900	-4.475	0.100
191.000	-8.747	0.100
191.100	-5.994	0.100
191.200	-10.533	0.100
191.300	18.247	0.100
191.400	-1.455	0.100
191.500	1.099	0.100
191.600	2.941	0.100
191.700	-1.525	0.100
191.800	-0.314	0.100
191.900	-6.845	0.100
192.000	5.480	0.100
192.100	1.801	0.100
192.200	-3.255	0.100
192.300	5.010	0.100
192.400	-4.617	0.100
192.500	-2.345	0.100
192.600	-10.338	0.100
192.700	0.460	0.100
192.800	3.742	0.100
192.900	1.578	0.100
193.000	-10.932	0.100
193.100	-0.756	0.100
193.200	-0.639	0.100
193.300	-9.223	0.100
193.400	-0.970	0.100
193.500	-2.474	0.100
193.600	-3.557	0.100
193.700	-9.193	0.100
193.800	-3.009	0.100
193.900	6.667	0.100
194.000	-6.809	0.100
194.100	9.766	0.100
194.200	8.851	0.100
194.300	0.332	0.100
194.400	-2.547	0.100
194.500	-6.689	0.100
194.600	-2.695	0.100
194.700	-8.183	0.100
194.800	2.464	0.100
194.900	4.933	0.100
195.000	3.786	0.100
195.100	10.621	0.100
195.200	0.921	0.100
195.300	-6.227	0.100
195.400	-7.911	0.100
195.500	-18.274	0.100
195.600	4.960	0.100
195.700	2.223	0.100
195.800	-6.208	0.100
195.900	-9.796	0.100
196.000	-25.370	0.100
196.100	2.284	0.100
196.200	7.980	0.100
196.300	0.116	0.100
196.400	-9.461	0.100
196.500	-12.177	0.100
196.600	-13.028	0.100
196.700	-1.406	0.100
196.800	-4.253	0.100
196.900	-7.791	0.100
197.000	7.501	0.100
197.100	-3.620	0.100
197.200	-15.877	0.100
197.300	-2.237	0.100
197.400	-2.895	0.100
197.500	-1.715	0.100
197.600	-15.587	0.100
197.700	-4.547	0.100
197.800	-8.907	0.100
197.900	3.546	0.100
198.000	-10.162	0.100
198.100	-8.632	0.100
198.200	-14.128	0.100
198.300	9.120	0.100
198.400	-3.909	0.100
198.500	-1.242	0.100
198.600	-7.700	0.100
198.700	5.608	0.100
198.800	5.770	0.100
198.900	-2.232	0.100
199.000	-4.839	0.100
199.100	-2.825	0.100
199.200	-11.015	0.100
199.300	-14.341	0.100
199.400	-29.122	0.100
199.500	-14.203	0.100
199.600	12.372	0.100
199.700	0.823	0.100
199.800	6.018	0.100
199.900	-6.147	0.100
200.000	-22.193	0.100
200.100	-18.492	0.100
200.200	0.387	0.100
200.300	0.510	0.100
200.400	-10.744	0.100
200.500	-1.179	0.100
200.600	-8.836	0.100
200.700	-5.688	0.100
200.800	-1.769	0.100
200.900	-2.162	0.100
201.000	-3.690	0.100
201.100	-4.537	0.100
201.200	-1.392	0.100
201.300	-11.133	0.100
201.400	-11.124	0.100
201.500	-9.384	0.100
201.600	-0.432	0.100
201.700	-9.407	0.100
201.800	-2.386	0.100
201.900	-9.943	0.100
202.000	14.920	0.100
202.100	-15.079	0.100
202.200	-15.916	0.100
202.300	-19.090	0.100
202.400	-12.444	0.100
202.500	-21.047	0.100
202.600	-6.861	0.100
202.700	-5.857	0.100
202.800	-3.753	0.100
202.900	-12.417	0.100
203.000	-0.053	0.100
203.100	-8.369	0.100
203.200	-6.266	0.100
203.300	-16.592	0.100
203.400	-8.095	0.100
203.500	-10.852	0.100
203.600	-19.136	0.100
203.700	-1.918	0.100
203.800	-12.411	0.100
203.900	0.449	0.100
204.000	-13.003	0.100
204.100	-5.212	0.100
204.200	-2.163	0.100
204.300	-9.077	0.100
204.400	-9.950	0.100
204.500	-10.294	0.100
204.600	-30.087	0.100
204.700	-10.923	0.100
204.800	-8.112	0.100
204.900	-15.685	0.100
205.000	-17.172	0.100
205.100	0.229	0.100
205.200	1.502	0.100
205.300	-14.165	0.100
205.400	-13.375	0.100
205.500	-12.210	0.100
205.600	-9.383	0.100
205.700	-2.102	0.100
205.800	-12.300	0.100
205.900	-5.274	0.100
206.000	-23.613	0.100
206.100	-25.231	0.100
206.200	-6.036	0.100
206.300	-19.167	0.100
206.400	-25.023	0.100
206.500	1.613	0.100
206.600	-8.023	0.100
206.700	-12.059	0.100
206.800	-0.718	0.100
206.900	-4.525	0.100
207.000	-14.426	0.100
207.100	-15.413	0.100
207.200	-20.022	0.100
207.300	-15.848	0.100
207.400	-0.355	0.100
207.500	-23.993	0.100
207.600	-4.784	0.100
207.700	-5.615	0.100
207.800	-6.937	0.100
207.900	-33.962	0.100
208.000	-30.269	0.100
208.100	-8.203	0.100
208.200	-1.422	0.100
208.300	-16.124	0.100
208.400	-20.151	0.100
208.500	-9.384	0.100
208.600	-18.077	0.100
208.700	-0.384	0.100
208.800	-13.674	0.100
208.900	-6.417	0.100
209.000	-17.867	0.100
209.100	-29.462	0.100
209.200	-8.029	0.100
209.300	-12.174	0.100
209.400	0.229	0.100
209.500	-26.023	0.100
209.600	-19.209	0.100
209.700	-26.990	0.100
209.800	-6.111	0.100
209.900	-0.856	0.100
210.000	-13.945	0.100
210.100	-20.330	0.100
210.200	-21.399	0.100
210.300	-33.149	0.100
210.400	-1.833	0.100
210.500	-2.122	0.100
210.600	5.811	0.100
210.700	-8.890	0.100
210.800	-12.513	0.100
210.900	-6.313	0.100
211.000	-12.647	0.100
211.100	-13.848	0.100
211.200	-15.518	0.100
211.300	-12.468	0.100
211.400	-13.725	0.100
211.500	-28.941	0.100
211.600	-15.100	0.100
211.700	-14.277	0.100
211.800	-16.826	0.100
211.900	1.781	0.100
212.000	-13.631	0.100
212.100	-11.336	0.100
212.200	-33.182	0.100
212.300	-8.651	0.100
212.400	-15.394	0.100
212.500	-19.427	0.100
212.600	-6.807	0.100
212.700	-22.059	0.100
212.800	-30.438	0.100
212.900	-11.138	0.100
213.000	-17.769	0.100
213.100	-4.296	0.100
213.200	-12.334	0.100
213.300	-13.378	0.100
213.400	-19.792	0.100
213.500	-17.398	0.100
213.600	-7.209	0.100
213.700	-23.237	0.100
213.800	-24.453	0.100
213.900	-11.388	0.100
214.000	-15.552	0.100
214.100	-30.722	0.100
214.200	-16.424	0.100
214.300	-19.610	0.100
214.400	-15.705	0.100
214.500	-12.397	0.100
214.600	-8.428	0.100
214.700	-33.018	0.100
214.800	-19.851	0.100
214.900	-15.321	0.100
215.000	-18.049	0.100
215.100	-21.177	0.100
215.200	-11.112	0.100
215.300	-11.056	0.100
215.400	-13.199	0.100
215.500	-21.025	0.100
215.600	-22.950	0.100
215.700	-26.248	0.100
215.800	-21.715	0.100
215.900	-9.269	0.100
216.000	-12.314	0.100
216.100	-12.177	0.100
216.200	-10.441	0.100
216.300	-23.885	0.100
216.400	-13.603	0.100
216.500	-23.513	0.100
216.600	-10.462	0.100
216.700	-5.194	0.100
216.800	-8.686	0.100
216.900	-21.093	0.100
217.000	-15.760	0.100
217.100	-23.182	0.100
217.200	-20.103	0.100
217.300	-23.614	0.100
217.400	-24.757	0.100
217.500	-27.278	0.100
217.600	-14.683	0.100
217.700	-12.511	0.100
217.800	-12.530	0.100
217.900	3.275	0.100
218.000	-17.078	0.100
218.100	-20.320	0.100
218.200	-19.748	0.100
218.300	-20.019	0.100
218.400	-19.289	0.100
218.500	-13.810	0.100
218.600	-14.246	0.100
218.700	-20.444	0.100
218.800	-12.357	0.100
218.900	-17.419	0.100
219.000	-34.507	0.100
219.100	-26.844	0.100
219.200	-5.950	0.100
219.300	-15.292	0.100
219.400	-16.350	0.100
219.500	-26.236	0.100
219.600	-24.090	0.100
219.700	-20.178	0.100
219.800	-17.431	0.100
219.900	-24.206	0.100
220.000	-25.131	0.100
220.100	-10.303	0.100
220.200	-17.097	0.100
220.300	-19.352	0.100
220.400	-29.138	0.100
220.500	-17.842	0.100
220.600	-20.363	0.100
220.700	-19.413	0.100
220.800	-23.317	0.100
220.900	-15.026	0.100
221.000	-20.286	0.100
221.100	-12.312	0.100
221.200	-15.984	0.100
221.300	-20.618	0.100
221.400	-10.457	0.100
221.500	-12.911	0.100
221.600	-23.485	0.100
221.700	-22.562	0.100
221.800	-14.051	0.100
221.900	-25.828	0.100
222.000	-7.750	0.100
222.100	-16.589	0.100
222.200	-12.921	0.100
222.300	-31.853	0.100
222.400	-24.161	0.100
222.500	-6.089	0.100
222.600	-14.115	0.100
222.700	-14.289	0.100
222.800	-6.576	0.100
222.900	-22.410	0.100
223.000	-18.300	0.100
223.100	-4.123	0.100
223.200	-25.749	0.100
223.300	-26.794	0.100
223.400	-12.638	0.100
223.500	-42.450	0.100
223.600	-30.205	0.100
223.700	-18.587	0.100
223.800	-17.005	0.100
223.900	-14.569	0.100
224.000	3.219	0.100
224.100	-18.565	0.100
224.200	-24.679	0.100
224.300	-28.230	0.100
224.400	-20.421	0.100
224.500	-8.758	0.100
224.600	-10.467	0.100
224.700	-26.345	0.100
224.800	-22.091	0.100
224.900	-30.394	0.100
225.000	-0.840	0.100
225.100	-18.531	0.100
225.200	-27.626	0.100
225.300	-29.774	0.100
225.400	-28.518	0.100
225.500	-17.714	0.100
225.600	-9.871	0.100
225.700	-26.101	0.100
225.800	-8.678	0.100
225.900	-19.290	0.100
226.000	-15.503	0.100
226.100	-26.547	0.100
226.200	-18.009	0.100
226.300	-19.984	0.100
226.400	-27.273	0.100
226.500	-15.420	0.100
226.600	-14.810	0.100
226.700	-10.726	0.100
226.800	-22.655	0.100
226.900	-21.098	0.100
227.000	-3.098	0.100
227.100	-18.543	0.100
227.200	-14.323	0.100
227.300	-20.629	0.100
227.400	-18.721	0.100
227.500	-23.987	0.100
227.600	-14.946	0.100
227.700	-20.948	0.100
227.800	-40.843	0.100
227.900	-22.939	0.100
228.000	-9.387	0.100
228.100	-10.537	0.100
228.200	-9.712	0.100
228.300	-11.512	0.100
228.400	-15.334	0.100
228.500	-15.148	0.100
228.600	-5.125	0.100
228.700	-27.986	0.100
228.800	-22.389	0.100
228.900	-19.314	0.100
229.000	-10.667	0.100
229.100	-7.697	0.100
229.200	-33.819	0.100
229.300	-14.117	0.100
229.400	-28.557	0.100
229.500	-12.836	0.100
229.600	-19.820	0.100
229.700	-5.930	0.100
229.800	-18.738	0.100
229.900	-30.012	0.100
230.000	-14.741	0.100
230.100	-20.225	0.100
230.200	-5.744	0.100
230.300	-12.228	0.100
230.400	-35.991	0.100
230.500	-15.137	0.100
230.600	-5.628	0.100
230.700	-25.049	0.100
230.800	-12.689	0.100
230.900	-25.448	0.100
231.000	-22.558	0.100
231.100	-16.766	0.100
231.200	-9.913	0.100
231.300	1.405	0.100
231.400	-8.283	0.100
231.500	-26.874	0.100
231.600	-18.943	0.100
231.700	-14.423	0.100
231.800	-45.374	0.100
231.900	-10.733	0.100
232.000	-21.139	0.100
232.100	-7.151	0.100
232.200	-8.418	0.100
232.300	-26.741	0.100
232.400	-19.073	0.100
232.500	-10.971	0.100
232.600	-6.968	0.100
232.700	-15.325	0.100
232.800	-11.628	0.100
232.900	-24.207	0.100
233.000	-18.459	0.100
233.100	-16.054	0.100
233.200	-28.549	0.100
233.300	-33.701	0.100
233.400	-11.294	0.100
233.500	-20.863	0.100
233.600	-13.403	0.100
233.700	-11.708	0.100
233.800	-16.757	0.100
233.900	-23.241	0.100
234.000	-29.188	0.100
234.100	-19.339	0.100
234.200	-21.057	0.100
234.300	-21.337	0.100
234.400	-30.620	0.100
234.500	-19.302	0.100
234.600	-16.914	0.100
234.700	-30.138	0.100
234.800	-16.261	0.100
234.900	-28.668	0.100
235.000	-19.449	0.100
235.100	-13.992	0.100
235.200	-6.587	0.100
235.300	-23.974	0.100
235.400	-19.289	0.100
235.500	-14.375	0.100
235.600	-24.657	0.100
235.700	-45.374	0.100
235.800	-26.052	0.100
235.900	-8.981	0.100
236.000	5.955	0.100
236.100	-12.600	0.100
236.200	-13.928	0.100
236.300	-18.381	0.100
236.400	-26.640	0.100
236.500	-20.337	0.100
236.600	-12.407	0.100
236.700	-15.812	0.100
236.800	-20.843	0.100
236.900	-16.928	0.100
237.000	-8.470	0.100
237.100	-19.740	0.100
237.200	-5.608	0.100
237.300	-14.107	0.100
237.400	-24.309	0.100
237.500	-10.610	0.100
237.600	-25.995	0.100
237.700	-11.406	0.100
237.800	-12.847	0.100
237.900	-17.621	0.100
238.000	-18.193	0.100
238.100	-11.864	0.100
238.200	-41.119	0.100
238.300	-14.598	0.100
238.400	-23.223	0.100
238.500	-21.647	0.100
238.600	-23.376	0.100
238.700	-19.493	0.100
238.800	-10.135	0.100
238.900	-19.341	0.100
239.000	-9.615	0.100
239.100	-14.184	0.100
239.200	-21.430	0.100
239.300	-13.510	0.100
239.400	-14.445	0.100
239.500	-23.934	0.100
239.600	-23.437	0.100
239.700	-12.328	0.100
239.800	-7.538	0.100
239.900	-32.810	0.100
240.000	-31.705	0.100
240.100	-4.050	0.100
240.200	-1.909	0.100
240.300	-28.432	0.100
240.400	-10.690	0.100
240.500	-25.211	0.100
240.600	-30.711	0.100
240.700	-19.963	0.100
240.800	3.268	0.100
240.900	-4.692	0.100
241.000	-20.415	0.100
241.100	-10.703	0.100
241.200	-30.304	0.100
241.300	-16.865	0.100
241.400	-18.296	0.100
241.500	-12.315	0.100
241.600	-31.581	0.100
241.700	-7.154	0.100
241.800	-15.542	0.100
241.900	-17.408	0.100
242.000	-9.740	0.100
242.100	-16.879	0.100
242.200	-25.781	0.100
242.300	-18.973	0.100
242.400	-20.140	0.100
242.500	-12.644	0.100
242.600	-18.019	0.100
242.700	-29.374	0.100
242.800	-7.789	0.100
242.900	-19.881	0.100
243.000	-15.496	0.100
243.100	-7.198	0.100
243.200	-21.343	0.100
243.300	-7.918	0.100
243.400	-20.727	0.100
243.500	-21.621	0.100
243.600	-40.072	0.100
243.700	-28.198	0.100
243.800	-8.934	0.100
243.900	-8.232	0.100
244.000	-16.511	0.100
244.100	-20.518	0.100
244.200	-38.260	0.100
244.300	-10.961	0.100
244.400	-17.387	0.100
244.500	-7.397	0.100
244.600	-19.880	0.100
244.700	-33.524	0.100
244.800	-13.939	0.100
244.900	-19.946	0.100
245.000	-30.131	0.100
245.100	-14.453	0.100
245.200	-20.375	0.100
245.300	-19.037	0.100
245.400	-23.922	0.100
245.500	-5.823	0.100
245.600	-20.521	0.100
245.700	-33.816	0.100
245.800	-7.804	0.100
245.900	4.447	0.100
246.000	-12.664	0.100
246.100	-21.402	0.100
246.200	-12.097	0.100
246.300	-24.267	0.100
246.400	-30.501	0.100
246.500	-12.719	0.100
246.600	-14.951	0.100
246.700	-20.211	0.100
246.800	-16.496	0.100
246.900	-6.771	0.100
247.000	-20.776	0.100
247.100	-24.713	0.100
247.200	-23.634	0.100
247.300	-9.954	0.100
247.400	-24.633	0.100
247.500	-18.020	0.100
247.600	-16.172	0.100
247.700	-17.966	0.100
247.800	-13.697	0.100
247.900	-19.547	0.100
248.000	-7.248	0.100
248.100	-10.409	0.100
248.200	-23.552	0.100
248.300	-26.955	0.100
248.400	-14.832	0.100
248.500	-6.916	0.100
248.600	-19.353	0.100
248.700	-16.505	0.100
248.800	-26.967	0.100
248.900	-16.672	0.100
249.000	-20.375	0.100
249.100	-32.116	0.100
249.200	-26.755	0.100
249.300	-0.582	0.100
249.400	-14.127	0.100
249.500	-29.731	0.100
249.600	-15.433	0.100
249.700	-17.222	0.100
249.800	-18.664	0.100
249.900	-16.436	0.100
250.000	-17.115	0.100
250.100	-19.748	0.100
250.200	-17.193	0.100
250.300	-16.612	0.100
250.400	-17.517	0.100
250.500	-23.395	0.100
250.600	-21.957	0.100
250.700	-11.125	0.100
250.800	-25.289	0.100
250.900	-4.628	0.100
251.000	-11.957	0.100
251.100	-20.181	0.100
251.200	-20.969	0.100
251.300	-19.670	0.100
251.400	-19.387	0.100
251.500	-15.191	0.100
251.600	-25.811	0.100
251.700	-20.186	0.100
251.800	-21.972	0.100
251.900	-15.564	0.100
252.000	-21.606	0.100
252.100	-29.178	0.100
252.200	-10.430	0.100
252.300	-24.075	0.100
252.400	-19.315	0.100
252.500	-18.085	0.100
252.600	-30.971	0.100
252.700	-14.399	0.100
252.800	-15.604	0.100
252.900	-12.117	0.100
253.000	-18.406	0.100
253.100	-22.746	0.100
253.200	-14.248	0.100
253.300	-17.903	0.100
253.400	-7.049	0.100
253.500	-22.115	0.100
253.600	-20.107	0.100
253.700	-19.022	0.100
253.800	-16.893	0.100
253.900	-17.088	0.100
254.000	-26.850	0.100
254.100	-14.531	0.100
254.200	-25.036	0.100
254.300	-8.345	0.100
254.400	-15.042	0.100
254.500	-14.433	0.100
254.600	-12.105	0.100
254.700	-14.865	0.100
254.800	-23.375	0.100
254.900	-32.992	0.100
255.000	-35.210	0.100
255.100	-17.353	0.100
255.200	-1.693	0.100
255.300	-13.089	0.100
255.400	-19.360	0.100
255.500	-19.263	0.100
255.600	-17.648	0.100
255.700	-15.551	0.100
255.800	-3.457	0.100
255.900	-10.454	0.100
256.000	-18.620	0.100
256.100	-22.570	0.100
256.200	-20.597	0.100
256.300	-22.039	0.100
256.400	-5.339	0.100
256.500	-18.352	0.100
256.600	-11.608	0.100
256.700	-16.705	0.100
256.800	-25.941	0.100
256.900	-13.229	0.100
257.000	-14.241	0.100
257.100	-18.749	0.100
257.200	-18.012	0.100
257.300	-16.816	0.100
257.400	-18.369	0.100
257.500	-12.255	0.100
257.600	-17.960	0.100
257.700	-9.427	0.100
257.800	-8.098	0.100
257.900	-3.059	0.100
258.000	-23.883	0.100
258.100	-21.358	0.100
258.200	-27.892	0.100
258.300	-35.637	0.100
258.400	-26.202	0.100
258.500	-13.118	0.100
258.600	-9.186	0.100
258.700	-24.679	0.100
258.800	-25.372	0.100
258.900	-18.137	0.100
259.000	-4.169	0.100
259.100	-10.428	0.100
259.200	-25.166	0.100
259.300	-13.825	0.100
259.400	-30.834	0.100
259.500	-25.112	0.100
259.600	-13.592	0.100
259.700	-3.628	0.100
259.800	-28.853	0.100
259.900	-9.821	0.100
260.000	-17.490	0.100
260.100	-10.095	0.100
260.200	-15.618	0.100
260.300	-8.466	0.100
260.400	-19.538	0.100
260.500	-15.510	0.100
260.600	-20.648	0.100
260.700	-29.750	0.100
260.800	-28.119	0.100
260.900	-6.429	0.100
261.000	-14.618	0.100
261.100	-17.671	0.100
261.200	-9.364	0.100
261.300	-12.686	0.100
261.400	-27.249	0.100
261.500	-24.987	0.100
261.600	-12.558	0.100
261.700	-23.506	0.100
261.800	-13.025	0.100
261.900	-17.400	0.100
262.000	-18.154	0.100
262.100	-22.434	0.100
262.200	-8.348	0.100
262.300	-10.520	0.100
262.400	-12.454	0.100
262.500	-19.074	0.100
262.600	-18.168	0.100
262.700	-5.938	0.100
262.800	-19.321	0.100
262.900	-21.191	0.100
263.000	-12.738	0.100
263.100	-15.311	0.100
263.200	-18.454	0.100
263.300	-17.677	0.100
263.400	-13.170	0.100
263.500	-16.705	0.100
263.600	-31.030	0.100
263.700	-11.920	0.100
263.800	-28.897	0.100
263.900	-4.243	0.100
264.000	-33.751	0.100
264.100	-30.048	0.100
264.200	-3.007	0.100
264.300	-9.665	0.100
264.400	-4.021	0.100
264.500	1.945	0.100
264.600	-13.990	0.100
264.700	-17.663	0.100
264.800	-25.987	0.100
264.900	-28.654	0.100
265.000	-19.054	0.100
265.100	-11.209	0.100
265.200	-33.030	0.100
265.300	-14.682	0.100
265.400	-0.188	0.100
265.500	-6.913	0.100
265.600	-28.774	0.100
265.700	-29.158	0.100
265.800	-26.087	0.100
265.900	-24.403	0.100
266.000	-10.569	0.100
266.100	-17.827	0.100
266.200	-14.547	0.100
266.300	-5.231	0.100
266.400	-33.590	0.100
266.500	-31.680	0.100
266.600	-17.086	0.100
266.700	-13.856	0.100
266.800	-19.153	0.100
266.900	-5.390	0.100
267.000	-7.037	0.100
267.100	-15.912	0.100
267.200	-31.346	0.100
267.300	-20.176	0.100
267.400	-20.458	0.100
267.500	-4.560	0.100
267.600	0.937	0.100
267.700	-6.105	0.100
267.800	-15.429	0.100
267.900	-16.140	0.100
268.000	-31.103	0.100
268.100	-22.568	0.100
268.200	-18.577	0.100
268.300	-17.217	0.100
268.400	-23.535	0.100
268.500	-11.227	0.100
268.600	-1.261	0.100
268.700	-26.542	0.100
268.800	-22.508	0.100
268.900	-8.336	0.100
269.000	-14.132	0.100
269.100	-17.640	0.100
269.200	-18.187	0.100
269.300	-10.692	0.100
269.400	-9.143	0.100
269.500	-20.902	0.100
269.600	-9.127	0.100
269.700	-10.138	0.100
269.800	-28.800	0.100
269.900	-15.126	0.100
270.000	-36.767	0.100
270.100	-12.481	0.100
270.200	-30.362	0.100
270.300	-10.953	0.100
270.400	4.088	0.100
270.500	-6.205	0.100
270.600	-6.449	0.100
270.700	-8.668	0.100
270.800	1.418	0.100
270.900	-6.866	0.100
271.000	0.970	0.100
271.100	8.701	0.100
271.200	3.859	0.100
271.300	0.968	0.100
271.400	2.505	0.100
271.500	-3.500	0.100
271.600	1.292	0.100
271.700	17.074	0.100
271.800	22.159	0.100
271.900	19.013	0.100
272.000	3.152	0.100
272.100	-4.867	0.100
272.200	17.488	0.100
272.300	21.208	0.100
272.400	-2.964	0.100
272.500	8.489	0.100
272.600	28.787	0.100
272.700	7.446	0.100
272.800	7.566	0.100
272.900	14.785	0.100
273.000	10.012	0.100
273.100	-1.521	0.100
273.200	15.775	0.100
273.300	24.061	0.100
273.400	8.151	0.100
273.500	12.320	0.100
273.600	-3.879	0.100
273.700	-6.290	0.100
273.800	13.323	0.100
273.900	14.280	0.100
274.000	22.096	0.100
274.100	10.174	0.100
274.200	17.147	0.100
274.300	21.589	0.100
274.400	21.161	0.100
274.500	8.755	0.100
274.600	17.453	0.100
274.700	21.554	0.100
274.800	4.281	0.100
274.900	17.548	0.100
275.000	3.395	0.100
275.100	22.036	0.100
275.200	-0.033	0.100
275.300	-2.277	0.100
275.400	16.621	0.100
275.500	-0.783	0.100
275.600	-5.682	0.100
275.700	9.318	0.100
275.800	5.810	0.100
275.900	16.509	0.100
276.000	9.009	0.100
276.100	22.666	0.100
276.200	3.420	0.100
276.300	19.285	0.100
276.400	10.371	0.100
276.500	4.799	0.100
276.600	8.173	0.100
276.700	9.210	0.100
276.800	17.874	0.100
276.900	18.851	0.100
277.000	12.785	0.100
277.100	18.107	0.100
277.200	4.334	0.100
277.300	-3.094	0.100
277.400	10.325	0.100
277.500	15.769	0.100
277.600	10.995	0.100
277.700	15.505	0.100
277.800	14.654	0.100
277.900	14.617	0.100
278.000	15.868	0.100
278.100	11.930	0.100
278.200	1.934	0.100
278.300	15.636	0.100
278.400	11.717	0.100
278.500	15.483	0.100
278.600	18.013	0.100
278.700	8.011	0.100
278.800	17.422	0.100
278.900	20.474	0.100
279.000	22.385	0.100
279.100	8.489	0.100
279.200	20.161	0.100
279.300	3.848	0.100
279.400	13.731	0.100
279.500	23.942	0.100
279.600	-4.880	0.100
279.700	5.065	0.100
279.800	16.007	0.100
279.900	27.012	0.100
280.000	27.136	0.100
280.100	32.448	0.100
280.200	29.253	0.100
280.300	25.902	0.100
280.400	16.528	0.100
280.500	23.730	0.100
280.600	20.686	0.100
280.700	10.517	0.100
280.800	28.478	0.100
280.900	19.085	0.100
281.000	28.654	0.100
281.100	25.529	0.100
281.200	-5.312	0.100
281.300	23.798	0.100
281.400	40.630	0.100
281.500	38.274	0.100
281.600	24.936	0.100
281.700	19.330	0.100
281.800	21.756	0.100
281.900	20.350	0.100
282.000	22.786	0.100
282.100	16.577	0.100
282.200	41.319	0.100
282.300	31.000	0.100
282.400	16.536	0.100
282.500	37.371	0.100
282.600	30.559	0.100
282.700	34.438	0.100
282.800	35.788	0.100
282.900	44.456	0.100
283.000	37.734	0.100
283.100	21.554	0.100
283.200	23.186	0.100
283.300	32.155	0.100
283.400	40.374	0.100
283.500	46.094	0.100
283.600	40.455	0.100
283.700	23.610	0.100
283.800	44.118	0.100
283.900	50.240	0.100
284.000	30.717	0.100
284.100	38.812	0.100
284.200	42.579	0.100
284.300	34.407	0.100
284.400	42.754	0.100
284.500	41.559	0.100
284.600	38.952	0.100
284.700	30.861	0.100
284.800	14.584	0.100
284.900	41.403	0.100
285.000	38.213	0.100
285.100	45.337	0.100
285.200	42.098	0.100
285.300	54.500	0.100
285.400	34.710	0.100
285.500	34.049	0.100
285.600	52.104	0.100
285.700	42.835	0.100
285.800	57.642	0.100
285.900	32.319	0.100
286.000	53.436	0.100
286.100	46.580	0.100
286.200	39.274	0.100
286.300	55.687	0.100
286.400	52.597	0.100
286.500	39.332	0.100
286.600	48.904	0.100
286.700	43.143	0.100
286.800	31.757	0.100
286.900	36.031	0.100
287.000	61.494	0.100
287.100	47.036	0.100
287.200	40.169	0.100
287.300	42.287	0.100
287.400	44.757	0.100
287.500	49.686	0.100
287.600	49.616	0.100
287.700	52.530	0.100
287.800	59.558	0.100
287.900	45.612	0.100
288.000	47.771	0.100
288.100	46.296	0.100
288.200	50.147	0.100
288.300	46.256	0.100
288.400	47.299	0.100
288.500	53.296	0.100
288.600	55.340	0.100
288.700	42.453	0.100
288.800	46.156	0.100
288.900	53.918	0.100
289.000	46.617	0.100
289.100	46.767	0.100
289.200	47.293	0.100
289.300	47.181	0.100
289.400	56.129	0.100
289.500	49.655	0.100
289.600	60.881	0.100
289.700	58.402	0.100
289.800	52.750	0.100
289.900	34.522	0.100
290.000	49.850	0.100
290.100	48.922	0.100
290.200	53.404	0.100
290.300	52.017	0.100
290.400	55.170	0.100
290.500	53.009	0.100
290.600	52.353	0.100
290.700	57.744	0.100
290.800	51.242	0.100
290.900	47.906	0.100
291.000	51.945	0.100
291.100	47.800	0.100
291.200	43.792	0.100
291.300	49.998	0.100
291.400	68.788	0.100
291.500	57.013	0.100
291.600	48.978	0.100
291.700	58.929	0.100
291.800	56.678	0.100
291.900	60.764	0.100
292.000	62.567	0.100
292.100	60.919	0.100
292.200	35.695	0.100
292.300	60.141	0.100
292.400	40.149	0.100
292.500	42.881	0.100
292.600	46.181	0.100
292.700	62.396	0.100
292.800	55.690	0.100
292.900	52.361	0.100
293.000	55.986	0.100
293.100	54.283	0.100
293.200	66.418	0.100
293.300	55.337	0.100
293.400	48.532	0.100
293.500	62.468	0.100
293.600	29.782	0.100
293.700	56.427	0.100
293.800	59.771	0.100
293.900	44.587	0.100
294.000	60.434	0.100
294.100	46.739	0.100
294.200	55.381	0.100
294.300	53.993	0.100
294.400	46.127	0.100
294.500	58.352	0.100
294.600	64.479	0.100
294.700	55.590	0.100
294.800	52.309	0.100
294.900	52.721	0.100
295.000	44.694	0.100
295.100	48.162	0.100
295.200	60.745	0.100
295.300	56.205	0.100
295.400	63.395	0.100
295.500	59.350	0.100
295.600	48.591	0.100
295.700	57.984	0.100
295.800	58.205	0.100
295.900	52.788	0.100
296.000	64.749	0.100
296.100	50.367	0.100
296.200	51.597	0.100
296.300	53.068	0.100
296.400	51.541	0.100
296.500	51.704	0.100
296.600	51.940	0.100
296.700	47.625	0.100
296.800	64.219	0.100
296.900	52.529	0.100
297.000	62.548	0.100
297.100	52.028	0.100
297.200	45.207	0.100
297.300	48.300	0.100
297.400	64.352	0.100
297.500	62.882	0.100
297.600	41.654	0.100
297.700	42.890	0.100
297.800	49.111	0.100
297.900	49.122	0.100
298.000	59.686	0.100
298.100	53.082	0.100
298.200	55.756	0.100
298.300	52.921	0.100
298.400	45.755	0.100
298.500	53.142	0.100
298.600	59.856	0.100
298.700	55.158	0.100
298.800	50.956	0.100
298.900	52.333	0.100
299.000	58.691	0.100
299.100	59.311	0.100
299.200	57.985	0.100
299.300	54.391	0.100
299.400	50.106	0.100
299.500	40.977	0.100
299.600	60.010	0.100
299.700	57.850	0.100
299.800	50.145	0.100
299.900	51.486	0.100
300.000	66.138	0.100
300.100	48.608	0.100
300.200	40.593	0.100
300.300	38.313	0.100
300.400	49.271	0.100
300.500	43.478	0.100
300.600	38.061	0.100
300.700	53.111	0.100
300.800	49.183	0.100
300.900	47.552	0.100
301.000	40.678	0.100
301.100	41.059	0.100
301.200	29.211	0.100
301.300	25.724	0.100
301.400	31.049	0.100
301.500	15.456	0.100
301.600	28.848	0.100
301.700	30.428	0.100
301.800	24.029	0.100
301.900	24.437	0.100
302.000	19.599	0.100
302.100	32.545	0.100
302.200	17.042	0.100
302.300	18.512	0.100
302.400	29.235	0.100
302.500	23.446	0.100
302.600	13.869	0.100
302.700	4.731	0.100
302.800	18.453	0.100
302.900	18.977	0.100
303.000	11.708	0.100
303.100	12.295	0.100
303.200	10.623	0.100
303.300	14.258	0.100
303.400	14.578	0.100
303.500	18.665	0.100
303.600	11.030	0.100
303.700	1.897	0.100
303.800	15.551	0.100
303.900	4.791	0.100
304.000	12.905	0.100
304.100	18.192	0.100
304.200	10.105	0.100
304.300	9.196	0.100
304.400	14.512	0.100
304.500	10.369	0.100
304.600	1.852	0.100
304.700	-12.449	0.100
304.800	5.932	0.100
304.900	7.276	0.100
305.000	6.792	0.100
305.100	5.287	0.100
305.200	-0.285	0.100
305.300	-6.435	0.100
305.400	8.395	0.100
305.500	15.809	0.100
305.600	-7.359	0.100
305.700	-1.047	0.100
305.800	2.499	0.100
305.900	17.118	0.100
306.000	6.472	0.100
306.100	3.242	0.100
306.200	1.008	0.100
306.300	-15.179	0.100
306.400	1.473	0.100
306.500	1.997	0.100
306.600	13.892	0.100
306.700	16.635	0.100
306.800	-1.267	0.100
306.900	2.048	0.100
307.000	-3.886	0.100
307.100	11.047	0.100
307.200	20.753	0.100
307.300	7.644	0.100
307.400	4.585	0.100
307.500	-6.510	0.100
307.600	15.730	0.100
307.700	7.344	0.100
307.800	-11.878	0.100
307.900	5.646	0.100
308.000	3.340	0.100
308.100	1.329	0.100
308.200	-7.028	0.100
308.300	-4.568	0.100
308.400	8.380	0.100
308.500	1.197	0.100
308.600	-4.358	0.100
308.700	9.102	0.100
308.800	13.441	0.100
308.900	17.838	0.100
309.000	-1.389	0.100
309.100	-1.093	0.100
309.200	9.570	0.100
309.300	7.823	0.100
309.400	-6.133	0.100
309.500	-0.807	0.100
309.600	4.120	0.100
309.700	2.077	0.100
309.800	5.065	0.100
309.900	10.379	0.100
310.000	0.098	0.100
310.100	-10.425	0.100
310.200	18.451	0.100
310.300	2.877	0.100
310.400	-4.917	0.100
310.500	5.265	0.100
310.600	-5.186	0.100
310.700	19.753	0.100
310.800	-2.469	0.100
310.900	0.376	0.100
311.000	5.611	0.100
311.100	4.144	0.100
311.200	9.401	0.100
311.300	0.294	0.100
311.400	-1.743	0.100
311.500	4.604	0.100
311.600	2.542	0.100
311.700	2.805	0.100
311.800	11.357	0.100
311.900	2.687	0.100
312.000	-7.260	0.100
312.100	5.284	0.100
312.200	7.116	0.100
312.300	-1.741	0.100
312.400	-11.978	0.100
312.500	2.781	0.100
312.600	-0.622	0.100
312.700	15.250	0.100
312.800	7.591	0.100
312.900	-4.924	0.100
313.000	-3.602	0.100
313.100	7.275	0.100
313.200	-1.286	0.100
313.300	-4.202	0.100
313.400	0.276	0.100
313.500	-6.205	0.100
313.600	10.303	0.100
313.700	8.981	0.100
313.800	-6.762	0.100
313.900	0.717	0.100
314.000	9.102	0.100
314.100	-2.192	0.100
314.200	-5.186	0.100
314.300	-1.022	0.100
314.400	-4.904	0.100
314.500	-5.122	0.100
314.600	5.419	0.100
314.700	9.977	0.100
314.800	0.259	0.100
314.900	-0.788	0.100
315.000	-0.157	0.100
315.100	-3.765	0.100
315.200	-4.217	0.100
315.300	-8.964	0.100
315.400	3.787	0.100
315.500	5.897	0.100
315.600	-0.646	0.100
315.700	-3.822	0.100
315.800	-2.293	0.100
315.900	-6.712	0.100
316.000	-2.330	0.100
316.100	1.958	0.100
316.200	4.701	0.100
316.300	-1.548	0.100
316.400	-4.906	0.100
316.500	2.727	0.100
316.600	4.627	0.100
316.700	-9.240	0.100
316.800	-0.390	0.100
316.900	-2.094	0.100
317.000	-9.880	0.100
317.100	1.529	0.100
317.200	-8.009	0.100
317.300	-1.177	0.100
317.400	-8.073	0.100
317.500	-2.999	0.100
317.600	3.062	0.100
317.700	-8.495	0.100
317.800	6.346	0.100
317.900	-7.691	0.100
318.000	-4.592	0.100
318.100	-0.005	0.100
318.200	-13.929	0.100
318.300	5.092	0.100
318.400	2.364	0.100
318.500	-19.825	0.100
318.600	-8.904	0.100
318.700	-1.676	0.100
318.800	-12.334	0.100
318.900	2.584	0.100
319.000	-0.718	0.100
319.100	-4.236	0.100
319.200	14.985	0.100
319.300	0.429	0.100
319.400	-0.764	0.100
319.500	1.224	0.100
319.600	-16.947	0.100
319.700	-7.293	0.100
319.800	-10.060	0.100
319.900	-9.306	0.100
320.000	8.671	0.100
320.100	-9.153	0.100
320.200	-2.641	0.100
320.300	1.214	0.100
320.400	0.307	0.100
320.500	-16.969	0.100
320.600	-12.313	0.100
320.700	-2.152	0.100
320.800	-6.537	0.100
320.900	-0.254	0.100
321.000	-7.005	0.100
321.100	-16.845	0.100
321.200	-4.567	0.100
321.300	-3.496	0.100
321.400	-2.046	0.100
321.500	-8.271	0.100
321.600	-4.446	0.100
321.700	-0.222	0.100
321.800	-10.703	0.100
321.900	-2.623	0.100
322.000	-5.880	0.100
322.100	-12.788	0.100
322.200	-16.425	0.100
322.300	-20.088	0.100
322.400	7.783	0.100
322.500	-9.898	0.100
322.600	-9.564	0.100
322.700	-15.086	0.100
322.800	-4.970	0.100
322.900	-14.366	0.100
323.000	-2.648	0.100
323.100	-0.413	0.100
323.200	-8.907	0.100
323.300	-1.507	0.100
323.400	-4.298	0.100
323.500	-4.515	0.100
323.600	-16.305	0.100
323.700	-6.789	0.100
323.800	-14.775	0.100
323.900	-1.903	0.100
324.000	-2.776	0.100
324.100	-20.206	0.100
324.200	-13.196	0.100
324.300	-6.676	0.100
324.400	-10.250	0.100
324.500	-10.099	0.100
324.600	-16.074	0.100
324.700	-8.597	0.100
324.800	-12.121	0.100
324.900	-14.031	0.100
325.000	-12.747	0.100
325.100	-11.952	0.100
325.200	-10.414	0.100
325.300	-7.203	0.100
325.400	-28.944	0.100
325.500	-10.686	0.100
325.600	2.824	0.100
325.700	-17.532	0.100
325.800	-19.571	0.100
325.900	-5.766	0.100
326.000	-24.931	0.100
326.100	-7.578	0.099
326.200	-2.292	0.100
326.300	-17.660	0.100
326.400	6.761	0.100
326.500	-4.516	0.100
326.600	-24.325	0.100
326.700	0.018	0.100
326.800	-10.114	0.100
326.900	-11.714	0.100
327.000	-16.969	0.100
327.100	-19.106	0.100
327.200	-6.347	0.100
327.300	-20.091	0.099
327.400	-12.732	0.100
327.500	-12.938	0.100
327.600	-6.055	0.100
327.700	-11.519	0.100
327.800	-17.113	0.100
327.900	-7.876	0.100
328.000	-6.888	0.100
328.100	-18.283	0.100
328.200	-16.176	0.100
328.300	-11.322	0.100
328.400	-6.874	0.100
328.500	-7.490	0.100
328.600	-11.049	0.100
328.700	-21.694	0.099
328.800	-15.417	0.099
328.900	-9.154	0.099
329.000	-12.233	0.099
329.100	-16.527	0.100
329.200	-29.363	0.099
329.300	-16.823	0.099
329.400	-20.943	0.100
329.500	-18.314	0.099
329.600	-3.308	0.100
329.700	0.556	0.100
329.800	-22.704	0.099
329.900	-24.656	0.100
330.000	-16.371	0.099
330.100	-10.065	0.099
330.200	-13.161	0.099
330.300	-5.228	0.099
330.400	-12.220	0.099
330.500	-27.089	0.099
330.600	-14.862	0.099
330.700	-18.079	0.099
330.800	-12.889	0.099
330.900	-14.507	0.099
331.000	-13.753	0.099
331.100	-21.840	0.099
331.200	-30.704	0.099
331.300	-13.512	0.099
331.400	-3.589	0.099
331.500	-16.467	0.099
331.600	-18.608	0.099
331.700	-25.007	0.099
331.800	-18.349	0.099
331.900	-14.141	0.099
332.000	-13.426	0.099
332.100	-14.977	0.099
332.200	-11.093	0.099
332.300	-14.542	0.099
332.400	-18.061	0.099
332.500	-18.033	0.099
332.600	-12.118	0.099
332.700	-20.968	0.099
332.800	-28.328	0.099
332.900	-13.488	0.099
333.000	-1.039	0.099
333.100	-21.080	0.099
333.200	-22.719	0.099
333.300	-7.395	0.099
333.400	-19.921	0.099
333.500	-12.361	0.099
333.600	-15.972	0.099
333.700	-12.484	0.099
333.800	-8.033	0.099
333.900	-14.083	0.099
334.000	-26.645	0.099
334.100	-23.933	0.099
334.200	-21.453	0.099
334.300	-21.772	0.099
334.400	-10.871	0.099
334.500	-11.961	0.099
334.600	-10.128	0.099
334.700	-11.080	0.099
334.800	-23.211	0.099
334.900	-13.304	0.099
335.000	-22.723	0.099
335.100	-22.378	0.099
335.200	-5.254	0.099
335.300	-8.925	0.099
335.400	-24.133	0.099
335.500	-28.685	0.099
335.600	-28.325	0.099
335.700	-8.480	0.099
335.800	-29.220	0.099
335.900	-16.946	0.099
336.000	-3.902	0.099
336.100	-12.561	0.099
336.200	-26.795	0.099
336.300	-10.129	0.099
336.400	-12.005	0.099
336.500	-19.959	0.099
336.600	-20.073	0.099
336.700	-21.944	0.099
336.800	-8.237	0.099
336.900	-26.568	0.099
337.000	-18.860	0.099
337.100	-18.409	0.099
337.200	-12.955	0.099
337.300	-13.968	0.099
337.400	-21.141	0.099
337.500	-27.455	0.099
337.600	-15.639	0.099
337.700	-17.353	0.099
337.800	-24.504	0.099
337.900	-10.963	0.099
338.000	-3.193	0.099
338.100	-14.079	0.099
338.200	-23.633	0.099
338.300	-24.373	0.099
338.400	-11.372	0.099
338.500	-21.329	0.099
338.600	-18.334	0.099
338.700	-22.357	0.099
338.800	-35.175	0.099
338.900	-20.747	0.099
339.000	-17.944	0.099
339.100	-9.147	0.099
339.200	-12.225	0.099
339.300	-2.015	0.099
339.400	-20.456	0.099
339.500	-29.072	0.099
339.600	-28.732	0.099
339.700	-16.776	0.099
339.800	-19.402	0.099
339.900	-1.107	0.099
340.000	-33.044	0.099
340.100	-8.919	0.099
340.200	-21.558	0.099
340.300	-26.029	0.099
340.400	-13.467	0.099
340.500	-27.244	0.099
340.600	-19.317	0.099
340.700	-33.160	0.099
340.800	-10.539	0.099
340.900	-4.230	0.099
341.000	-17.024	0.099
341.100	-16.176	0.099
341.200	-25.941	0.099
341.300	-27.104	0.099
341.400	-6.720	0.099
341.500	-16.566	0.099
341.600	-5.733	0.099
341.700	-21.424	0.099
341.800	-44.101	0.099
341.900	-27.244	0.099
342.000	-22.306	0.099
342.100	-22.104	0.099
342.200	-20.232	0.099
342.300	-11.794	0.099
342.400	-18.966	0.099
342.500	-13.207	0.099
342.600	-14.758	0.099
342.700	-29.105	0.099
342.800	-13.036	0.099
342.900	-24.512	0.099
343.000	-3.699	0.099
343.100	-13.174	0.099
343.200	-22.438	0.099
343.300	-11.701	0.099
343.400	-25.978	0.099
343.500	-15.578	0.099
343.600	-20.992	0.099
343.700	-20.509	0.099
343.800	-15.030	0.099
343.900	-24.033	0.099
344.000	-32.947	0.099
344.100	-16.655	0.099
344.200	-1.076	0.099
344.300	-25.965	0.099
344.400	-28.370	0.099
344.500	-7.845	0.099
344.600	-9.028	0.099
344.700	-19.318	0.099
344.800	-10.757	0.099
344.900	-21.260	0.099
345.000	-15.113	0.099
345.100	-0.257	0.099
345.200	-13.260	0.099
345.300	-13.676	0.099
345.400	-37.006	0.099
345.500	-8.395	0.099
345.600	-14.470	0.099
345.700	-17.372	0.099
345.800	-19.802	0.099
345.900	-31.175	0.099
346.000	-15.408	0.099
346.100	-15.339	0.099
346.200	-13.278	0.099
346.300	-25.727	0.099
346.400	-23.581	0.099
346.500	-24.621	0.099
346.600	-14.083	0.099
346.700	-21.810	0.099
346.800	-31.317	0.099
346.900	-16.069	0.099
347.000	-16.292	0.099
347.100	-23.031	0.099
347.200	-25.777	0.099
347.300	-19.259	0.099
347.400	-20.634	0.099
347.500	-19.923	0.099
347.600	-20.706	0.099
347.700	-10.327	0.099
347.800	-25.582	0.099
347.900	-18.112	0.099
348.000	-18.983	0.099
348.100	-9.898	0.099
348.200	-27.274	0.099
348.300	-17.784	0.099
348.400	-12.672	0.099
348.500	-17.704	0.099
348.600	-16.985	0.099
348.700	-19.237	0.099
348.800	-25.650	0.099
348.900	-22.816	0.099
349.000	-23.786	0.099
349.100	-22.093	0.099
349.200	-30.157	0.099
349.300	-15.664	0.099
349.400	-17.485	0.099
349.500	-22.463	0.099
349.600	-19.030	0.099
349.700	-16.434	0.099
349.800	-17.638	0.099
349.900	-14.508	0.099
350.000	-12.618	0.099
350.100	-30.541	0.099
350.200	-12.651	0.099
350.300	-18.405	0.099
350.400	-15.361	0.099
350.500	-21.641	0.099
350.600	-24.087	0.099
350.700	-0.515	0.099
350.800	-8.844	0.099
350.900	-25.029	0.099
351.000	-27.764	0.099
351.100	-17.249	0.099
351.200	-26.347	0.099
351.300	-26.343	0.099
351.400	-18.541	0.099
351.500	-35.712	0.099
351.600	-18.513	0.099
351.700	-0.122	0.099
351.800	-18.450	0.099
351.900	-26.620	0.099
352.000	-18.094	0.099
352.100	-11.770	0.099
352.200	-8.976	0.099
352.300	-21.656	0.099
352.400	-28.076	0.099
352.500	-19.393	0.099
352.600	-26.984	0.099
352.700	-20.362	0.099
352.800	-11.804	0.099
352.900	-16.502	0.099
353.000	-20.250	0.099
353.100	-21.143	0.099
353.200	-21.428	0.099
353.300	-19.949	0.099
353.400	-16.092	0.099
353.500	-29.648	0.099
353.600	-31.465	0.099
353.700	-21.558	0.099
353.800	-19.632	0.099
353.900	-31.541	0.099
354.000	-14.759	0.099
354.100	-10.956	0.099
354.200	1.249	0.099
354.300	-16.604	0.099
354.400	-18.269	0.099
354.500	-32.541	0.099
354.600	-27.905	0.099
354.700	-26.417	0.099
354.800	-14.856	0.099
354.900	-5.747	0.099
355.000	-16.776	0.099
355.100	-17.693	0.099
355.200	-16.176	0.099
355.300	-18.596	0.099
355.400	-19.442	0.099
355.500	-16.986	0.099
355.600	-25.575	0.099
355.700	-18.393	0.099
355.800	-31.565	0.099
355.900	-18.050	0.099
356.000	-11.580	0.099
356.100	-11.878	0.099
356.200	-1.233	0.099
356.300	-20.519	0.099
356.400	-23.106	0.099
356.500	-16.987	0.099
356.600	-25.552	0.099
356.700	-12.235	0.099
356.800	-17.393	0.099
356.900	-23.996	0.099
357.000	-27.841	0.099
357.100	-36.388	0.099
357.200	-7.436	0.099
357.300	-16.122	0.099
357.400	-21.116	0.099
357.500	-15.362	0.099
357.600	-12.113	0.099
357.700	-26.212	0.099
357.800	-16.917	0.099
357.900	-22.965	0.099
358.000	-33.973	0.099
358.100	-33.990	0.099
358.200	-15.539	0.099
358.300	-14.959	0.099
358.400	-11.207	0.099
358.500	-8.623	0.099
358.600	-25.085	0.099
358.700	-20.319	0.099
358.800	-31.289	0.099
358.900	-21.336	0.099
359.000	-15.066	0.099
359.100	-15.289	0.099
359.200	-23.011	0.099
359.300	-17.092	0.099
359.400	-22.399	0.099
359.500	-13.379	0.099
359.600	-28.338	0.099
359.700	-13.837	0.099
359.800	-19.381	0.099
359.900	-8.446	0.099
360.000	-28.549	0.099
360.100	-27.982	0.099
360.200	-7.276	0.099
360.300	-24.217	0.099
360.400	-6.094	0.099
360.500	-7.914	0.099
360.600	-19.821	0.099
360.700	-16.457	0.099
360.800	-21.064	0.099
360.900	-19.482	0.099
361.000	-31.561	0.099
361.100	-37.630	0.099
361.200	-21.481	0.099
361.300	-26.698	0.099
361.400	-11.886	0.099
361.500	-14.771	0.099
361.600	-18.533	0.099
361.700	-25.336	0.099
361.800	-12.236	0.099
361.900	-23.786	0.099
362.000	-11.635	0.099
362.100	-29.762	0.099
362.200	-18.933	0.099
362.300	-15.009	0.099
362.400	-10.437	0.099
362.500	-15.775	0.099
362.600	-22.509	0.099
362.700	-30.345	0.099
362.800	-15.466	0.099
362.900	-12.954	0.099
363.000	-30.920	0.099
363.100	-21.930	0.099
363.200	-19.582	0.099
363.300	-13.758	0.099
363.400	-21.890	0.099
363.500	-12.577	0.099
363.600	-22.428	0.099
363.700	-13.944	0.099
363.800	-32.386	0.099
363.900	-22.476	0.099
364.000	-21.591	0.099
364.100	-13.475	0.099
364.200	-11.296	0.099
364.300	-6.311	0.099
364.400	-23.176	0.099
364.500	-20.340	0.099
364.600	-26.032	0.099
364.700	-11.853	0.099
364.800	-12.890	0.099
364.900	-21.105	0.099
365.000	-20.873	0.099
365.100	-9.675	0.099
365.200	-14.461	0.099
365.300	-21.448	0.099
365.400	-8.688	0.099
365.500	-12.929	0.099
365.600	-20.775	0.099
365.700	-18.437	0.099
365.800	-20.044	0.099
365.900	-12.088	0.099
366.000	-21.230	0.099
366.100	-13.492	0.099
366.200	-28.728	0.099
366.300	-10.779	0.099
366.400	-22.877	0.099
366.500	-15.555	0.099
366.600	-11.888	0.099
366.700	-3.115	0.099
366.800	-15.246	0.099
366.900	-37.141	0.099
367.000	-18.574	0.099
367.100	-10.608	0.099
367.200	-16.580	0.099
367.300	-14.138	0.099
367.400	-12.754	0.099
367.500	-12.114	0.099
367.600	-14.198	0.099
367.700	-30.814	0.099
367.800	-32.336	0.099
367.900	-3.408	0.099
368.000	-27.388	0.099
368.100	-19.662	0.099
368.200	-19.564	0.099
368.300	-14.190	0.099
368.400	-7.720	0.099
368.500	-21.600	0.099
368.600	-8.767	0.099
368.700	-14.617	0.099
368.800	-11.948	0.099
368.900	-16.410	0.099
369.000	-29.045	0.099
369.100	-6.982	0.099
369.200	-6.705	0.099
369.300	-20.300	0.099
369.400	-30.878	0.099
369.500	-10.013	0.099
369.600	-26.805	0.099
369.700	-18.961	0.099
369.800	-11.126	0.099
369.900	-15.929	0.099
370.000	-21.315	0.099
370.100	-19.283	0.099
370.200	-23.094	0.099
370.300	-14.774	0.099
370.400	-23.304	0.099
370.500	-8.040	0.099
370.600	-24.081	0.099
370.700	-26.454	0.099
370.800	-20.732	0.099
370.900	-25.737	0.099
371.000	-14.973	0.099
371.100	-20.296	0.099
371.200	-25.461	0.099
371.300	-22.404	0.099
371.400	-23.641	0.099
371.500	-19.943	0.099
371.600	-14.063	0.099
371.700	-18.234	0.099
371.800	-13.867	0.099
371.900	-16.619	0.099
372.000	-35.511	0.099
372.100	-28.483	0.099
372.200	-11.288	0.099
372.300	-1.099	0.099
372.400	-12.561	0.099
372.500	-18.189	0.099
372.600	-18.021	0.099
372.700	-31.758	0.099
372.800	-10.133	0.099
372.900	-21.675	0.099
373.000	-32.211	0.099
373.100	-11.852	0.099
373.200	-15.067	0.099
373.300	-22.081	0.099
373.400	-15.940	0.099
373.500	-19.806	0.099
373.600	-28.698	0.099
373.700	-9.043	0.099
373.800	-17.771	0.099
373.900	-14.100	0.099
374.000	-18.689	0.099
374.100	-23.441	0.099
374.200	-19.489	0.099
374.300	-19.795	0.099
374.400	-5.632	0.099
374.500	-37.785	0.099
374.600	-28.555	0.099
374.700	-19.661	0.099
374.800	-23.142	0.099
374.900	-22.165	0.099
375.000	-31.092	0.099
375.100	-1.974	0.099
375.200	-6.028	0.099
375.300	-16.202	0.099
375.400	-24.091	0.099
375.500	-33.731	0.099
375.600	-24.000	0.099
375.700	-23.455	0.099
375.800	-14.382	0.099
375.900	-16.700	0.099
376.000	-29.823	0.099
376.100	-18.738	0.099
376.200	-24.815	0.099
376.300	-18.866	0.099
376.400	-11.212	0.099
376.500	-15.994	0.099
376.600	-17.175	0.099
376.700	-16.821	0.099
376.800	-16.013	0.099
376.900	-19.403	0.099
377.000	-21.684	0.099
377.100	-18.884	0.099
377.200	-30.129	0.099
377.300	-24.203	0.099
377.400	-0.842	0.099
377.500	-8.428	0.099
377.600	-28.896	0.099
377.700	-15.597	0.099
377.800	-23.292	0.099
377.900	-14.054	0.099
378.000	-8.207	0.099
378.100	-22.881	0.099
378.200	-22.143	0.099
378.300	-7.049	0.099
378.400	-20.478	0.099
378.500	-25.116	0.099
378.600	-32.536	0.099
378.700	-9.214	0.099
378.800	-8.181	0.099
378.900	-26.836	0.099
379.000	-17.321	0.099
379.100	-16.555	0.099
379.200	-5.366	0.099
379.300	-17.596	0.099
379.400	-17.008	0.099
379.500	-22.124	0.099
379.600	-17.805	0.099
379.700	-28.512	0.099
379.800	-22.796	0.099
379.900	-7.414	0.099
380.000	-27.877	0.099
380.100	-35.090	0.099
380.200	-18.267	0.099
380.300	-21.970	0.099
380.400	-28.412	0.099
380.500	-3.602	0.099
380.600	-14.613	0.099
380.700	-20.233	0.099
380.800	-16.526	0.099
380.900	-29.455	0.099
381.000	-14.497	0.099
381.100	-23.828	0.099
381.200	-9.657	0.099
381.300	-22.532	0.099
381.400	-14.200	0.099
381.500	-21.162	0.099
381.600	-17.592	0.099
381.700	-18.600	0.099
381.800	-15.804	0.099
381.900	-8.612	0.099
382.000	-11.652	0.099
382.100	-9.668	0.099
382.200	-16.034	0.099
382.300	-30.962	0.099
382.400	-20.079	0.099
382.500	-29.111	0.099
382.600	-18.122	0.099
382.700	-13.939	0.099
382.800	-10.992	0.099
382.900	-20.721	0.099
383.000	-18.749	0.099
383.100	-26.480	0.099
383.200	-13.189	0.099
383.300	-6.891	0.099
383.400	-15.453	0.099
383.500	-13.627	0.099
383.600	-22.828	0.099
383.700	-14.957	0.099
383.800	-23.431	0.099
383.900	-31.025	0.099
384.000	-23.624	0.099
384.100	-24.076	0.099
384.200	-21.066	0.099
384.300	-0.801	0.099
384.400	-13.040	0.099
384.500	-17.343	0.099
384.600	-18.502	0.099
384.700	-21.767	0.099
384.800	-25.806	0.099
384.900	-10.467	0.099
385.000	-5.433	0.099
385.100	-13.581	0.099
385.200	-14.689	0.099
385.300	-23.518	0.099
385.400	-23.313	0.099
385.500	-13.552	0.099
385.600	-23.993	0.099
385.700	-14.085	0.099
385.800	-22.439	0.099
385.900	-16.872	0.099
386.000	-29.103	0.099
386.100	-32.160	0.099
386.200	-16.301	0.099
386.300	-14.262	0.099
386.400	-11.408	0.099
386.500	-5.280	0.099
386.600	-14.138	0.099
386.700	-25.602	0.099
386.800	-19.536	0.099
386.900	-9.201	0.099
387.000	-22.814	0.099
387.100	-27.165	0.099
387.200	-9.913	0.099
387.300	-19.209	0.099
387.400	-13.233	0.099
387.500	-22.056	0.100
387.600	-15.611	0.100
387.700	-8.458	0.100
387.800	-25.797	0.100
387.900	-13.809	0.100
388.000	-15.055	0.100
388.100	-18.339	0.100
388.200	-2.977	0.100
388.300	-15.519	0.100
388.400	-28.161	0.100
388.500	-27.505	0.100
388.600	-12.882	0.100
388.700	-3.410	0.100
388.800	-22.378	0.100
388.900	-24.073	0.100
389.000	-30.979	0.100
389.100	-16.263	0.100
389.200	-26.076	0.100
389.300	-13.041	0.100
389.400	-16.208	0.100
389.500	-22.705	0.100
389.600	-21.254	0.100
389.700	-18.459	0.100
389.800	-22.723	0.100
389.900	-17.471	0.100
390.000	-8.068	0.100
390.100	-7.293	0.100
390.200	-16.597	0.100
390.300	-7.637	0.100
390.400	-10.408	0.100
390.500	6.169	0.100
390.600	-0.731	0.100
390.700	-2.365	0.100
390.800	5.713	0.100
390.900	-5.182	0.100
391.000	-1.809	0.100
391.100	-5.609	0.100
391.200	3.213	0.100
391.300	14.226	0.100
391.400	7.108	0.100
391.500	12.887	0.100
391.600	13.217	0.100
391.700	-8.814	0.100
391.800	-15.786	0.100
391.900	18.036	0.100
392.000	12.712	0.100
392.100	4.231	0.100
392.200	14.420	0.100
392.300	4.241	0.100
392.400	18.197	0.100
392.500	17.079	0.100
392.600	14.411	0.100
392.700	1.097	0.100
392.800	19.266	0.100
392.900	0.907	0.100
393.000	15.475	0.100
393.100	17.996	0.100
393.200	12.767	0.100
393.300	8.156	0.100
393.400	6.131	0.100
393.500	10.026	0.100
393.600	20.108	0.100
393.700	-11.267	0.100
393.800	17.077	0.100
393.900	27.198	0.100
394.000	24.437	0.100
394.100	16.853	0.100
394.200	4.427	0.100
394.300	16.545	0.100
394.400	10.480	0.100
394.500	11.482	0.100
394.600	-14.086	0.100
394.700	-0.439	0.100
394.800	16.533	0.100
394.900	15.841	0.100
395.000	17.306	0.100
395.100	9.677	0.100
395.200	-0.054	0.100
395.300	12.208	0.100
395.400	20.788	0.100
395.500	13.616	0.100
395.600	0.393	0.100
395.700	23.589	0.100
395.800	-3.270	0.100
395.900	9.708	0.100
396.000	-3.968	0.100
396.100	18.395	0.100
396.200	11.146	0.100
396.300	-1.839	0.100
396.400	11.995	0.100
396.500	5.573	0.100
396.600	10.609	0.100
396.700	12.702	0.100
396.800	11.596	0.100
396.900	8.413	0.100
397.000	6.878	0.100
397.100	3.111	0.100
397.200	7.844	0.100
397.300	-1.609	0.100
397.400	20.460	0.100
397.500	11.239	0.100
397.600	3.508	0.100
397.700	21.837	0.100
397.800	23.122	0.100
397.900	-4.321	0.100
398.000	11.799	0.100
398.100	10.666	0.100
398.200	15.797	0.100
398.300	13.346	0.100
398.400	3.105	0.100
398.500	16.221	0.100
398.600	17.859	0.100
398.700	8.022	0.100
398.800	14.297	0.100
398.900	-0.563	0.100
399.000	13.254	0.100
399.100	23.610	0.100
399.200	4.560	0.100
399.300	11.833	0.100
399.400	23.983	0.100
399.500	15.116	0.100
399.600	3.445	0.100
399.700	13.252	0.100
399.800	14.253	0.100
399.900	24.349	0.100
400.000	24.515	0.100
400.100	20.469	0.100
400.200	24.923	0.100
400.300	21.804	0.100
400.400	8.444	0.100
400.500	17.171	0.100
400.600	22.050	0.100
400.700	17.646	0.100
400.800	14.606	0.100
400.900	12.737	0.100
401.000	21.342	0.100
401.100	13.697	0.100
401.200	32.687	0.100
401.300	29.131	0.100
401.400	9.875	0.100
401.500	17.630	0.100
401.600	10.190	0.100
401.700	15.265	0.100
401.800	31.286	0.100
401.900	34.582	0.100
402.000	29.353	0.100
402.100	26.938	0.100
402.200	12.107	0.100
402.300	30.564	0.100
402.400	29.229	0.100
402.500	34.372	0.100
402.600	22.627	0.100
402.700	19.248	0.100
402.800	30.537	0.100
402.900	22.914	0.100
403.000	18.220	0.100
403.100	31.217	0.100
403.200	30.696	0.100
403.300	32.724	0.100
403.400	29.784	0.100
403.500	25.803	0.100
403.600	38.157	0.100
403.700	34.717	0.100
403.800	26.702	0.100
403.900	29.787	0.100
404.000	37.275	0.100
404.100	27.335	0.100
404.200	39.847	0.100
404.300	37.664	0.100
404.400	39.499	0.100
404.500	26.937	0.100
404.600	38.298	0.100
404.700	30.454	0.100
404.800	31.790	0.100
404.900	52.001	0.100
405.000	49.369	0.100
405.100	41.157	0.100
405.200	49.387	0.100
405.300	54.219	0.100
405.400	33.652	0.100
405.500	25.836	0.100
405.600	40.483	0.100
405.700	31.969	0.100
405.800	36.930	0.100
405.900	39.386	0.100
406.000	55.160	0.100
406.100	26.711	0.100
406.200	36.989	0.100
406.300	51.083	0.100
406.400	46.564	0.100
406.500	63.712	0.100
406.600	40.494	0.100
406.700	38.896	0.100
406.800	49.315	0.100
406.900	39.215	0.100
407.000	33.683	0.100
407.100	40.511	0.100
407.200	56.569	0.100
407.300	43.648	0.100
407.400	44.616	0.100
407.500	56.524	0.100
407.600	44.544	0.100
407.700	35.304	0.100
407.800	48.515	0.100
407.900	58.494	0.100
408.000	58.291	0.100
408.100	35.659	0.100
408.200	58.503	0.100
408.300	61.960	0.100
408.400	59.839	0.100
408.500	38.821	0.100
408.600	58.723	0.100
408.700	37.659	0.100
408.800	44.796	0.100
408.900	53.124	0.100
409.000	69.470	0.100
409.100	47.846	0.100
409.200	46.705	0.100
409.300	57.714	0.100
409.400	57.494	0.100
409.500	50.782	0.100
409.600	47.854	0.100
409.700	47.621	0.100
409.800	64.648	0.100
409.900	43.320	0.100
410.000	57.696	0.100
410.100	53.784	0.100
410.200	37.909	0.100
410.300	54.746	0.100
410.400	64.110	0.100
410.500	50.040	0.100
410.600	52.878	0.100
410.700	55.448	0.100
410.800	39.623	0.100
410.900	64.268	0.100
411.000	54.827	0.100
411.100	63.168	0.100
411.200	57.275	0.100
411.300	51.124	0.100
411.400	54.587	0.100
411.500	48.930	0.100
411.600	50.749	0.100
411.700	62.957	0.100
411.800	49.360	0.100
411.900	53.161	0.100
412.000	63.543	0.100
412.100	52.610	0.100
412.200	55.705	0.100
412.300	61.892	0.100
412.400	74.832	0.100
412.500	61.599	0.100
412.600	46.196	0.100
412.700	55.677	0.100
412.800	42.236	0.100
412.900	63.184	0.100
413.000	56.554	0.100
413.100	67.028	0.100
413.200	56.623	0.100
413.300	56.575	0.100
413.400	50.120	0.100
413.500	55.383	0.100
413.600	56.897	0.100
413.700	45.455	0.100
413.800	63.415	0.100
413.900	53.376	0.100
414.000	61.347	0.100
414.100	59.029	0.100
414.200	57.611	0.100
414.300	59.545	0.100
414.400	67.694	0.100
414.500	51.986	0.100
414.600	54.486	0.100
414.700	58.016	0.100
414.800	48.793	0.100
414.900	55.053	0.100
415.000	55.680	0.100
415.100	67.547	0.100
415.200	63.075	0.100
415.300	57.937	0.100
415.400	55.574	0.100
415.500	55.311	0.100
415.600	54.923	0.100
415.700	57.668	0.100
415.800	45.282	0.100
415.900	53.494	0.100
416.000	55.758	0.100
416.100	62.096	0.100
416.200	55.521	0.100
416.300	37.271	0.100
416.400	53.832	0.100
416.500	61.712	0.100
416.600	62.517	0.100
416.700	66.564	0.100
416.800	39.877	0.100
416.900	54.828	0.100
417.000	67.264	0.100
417.100	40.514	0.100
417.200	46.744	0.100
417.300	52.082	0.100
417.400	54.143	0.100
417.500	62.401	0.100
417.600	63.770	0.100
417.700	51.716	0.100
417.800	56.003	0.100
417.900	62.771	0.100
418.000	58.485	0.100
418.100	47.030	0.100
418.200	49.718	0.100
418.300	62.926	0.100
418.400	58.681	0.100
418.500	46.672	0.100
418.600	55.819	0.100
418.700	59.234	0.100
418.800	58.812	0.100
418.900	58.923	0.100
419.000	51.124	0.100
419.100	48.285	0.100
419.200	44.172	0.100
419.300	42.548	0.100
419.400	62.658	0.100
419.500	63.812	0.100
419.600	57.108	0.100
419.700	42.303	0.100
419.800	52.850	0.100
419.900	65.586	0.100
420.000	59.418	0.100
420.100	54.492	0.100
420.200	55.132	0.100
420.300	48.157	0.100
420.400	53.631	0.100
420.500	48.589	0.100
420.600	63.649	0.100
420.700	34.692	0.100
420.800	54.471	0.100
420.900	46.427	0.100
421.000	38.517	0.100
421.100	40.468	0.100
421.200	23.137	0.100
421.300	38.637	0.100
421.400	31.247	0.100
421.500	38.648	0.100
421.600	16.096	0.100
421.700	36.011	0.100
421.800	23.665	0.100
421.900	27.840	0.100
422.000	37.564	0.100
422.100	23.426	0.100
422.200	16.453	0.100
422.300	26.856	0.100
422.400	25.727	0.100
422.500	19.582	0.100
422.600	13.797	0.100
422.700	15.258	0.100
422.800	15.389	0.100
422.900	4.477	0.100
423.000	21.038	0.100
423.100	20.029	0.100
423.200	21.061	0.100
423.300	16.874	0.100
423.400	15.371	0.100
423.500	10.123	0.100
423.600	8.720	0.100
423.700	17.695	0.100
423.800	12.536	0.100
423.900	-2.874	0.100
424.000	22.366	0.100
424.100	19.337	0.100
424.200	3.081	0.100
424.300	17.161	0.100
424.400	24.800	0.100
424.500	4.835	0.100
424.600	16.533	0.100
424.700	9.529	0.100
424.800	8.382	0.100
424.900	12.038	0.100
425.000	3.476	0.100
425.100	5.840	0.100
425.200	-5.782	0.100
425.300	0.035	0.100
425.400	5.818	0.100
425.500	13.553	0.100
425.600	-12.009	0.100
425.700	2.436	0.100
425.800	8.892	0.100
425.900	4.990	0.100
426.000	16.832	0.100
426.100	0.787	0.100
426.200	5.014	0.100
426.300	20.512	0.100
426.400	15.481	0.100
426.500	6.194	0.100
426.600	1.762	0.100
426.700	12.061	0.100
426.800	8.183	0.100
426.900	14.359	0.100
427.000	4.791	0.100
427.100	-5.247	0.100
427.200	0.554	0.100
427.300	-2.797	0.100
427.400	6.737	0.100
427.500	4.818	0.100
427.600	16.571	0.100
427.700	5.700	0.100
427.800	13.138	0.100
427.900	0.676	0.100
428.000	10.729	0.100
428.100	13.807	0.100
428.200	3.912	0.100
428.300	17.275	0.100
428.400	3.682	0.100
428.500	10.079	0.100
428.600	-2.735	0.100
428.700	-6.245	0.100
428.800	13.915	0.100
428.900	7.309	0.100
429.000	1.060	0.100
429.100	6.535	0.100
429.200	6.398	0.100
429.300	16.054	0.100
429.400	-7.604	0.100
429.500	3.876	0.100
429.600	13.108	0.100
429.700	5.401	0.100
429.800	-5.715	0.100
429.900	-1.656	0.100
430.000	14.807	0.100
430.100	-2.600	0.100
430.200	1.942	0.100
430.300	15.336	0.100
430.400	14.781	0.100
430.500	4.320	0.100
430.600	-1.902	0.100
430.700	-8.417	0.100
430.800	5.047	0.100
430.900	8.028	0.100
431.000	1.329	0.100
431.100	-10.766	0.100
431.200	3.001	0.100
431.300	3.287	0.100
431.400	1.862	0.100
431.500	18.004	0.100
431.600	14.400	0.100
431.700	8.873	0.100
431.800	5.225	0.100
431.900	-0.620	0.100
432.000	0.546	0.100
432.100	15.836	0.100
432.200	-1.418	0.100
432.300	18.037	0.100
432.400	-4.694	0.100
432.500	2.292	0.100
432.600	9.141	0.100
432.700	5.089	0.100
432.800	6.953	0.100
432.900	6.125	0.100
433.000	0.465	0.100
433.100	5.276	0.100
433.200	0.320	0.100
433.300	-8.020	0.100
433.400	-12.682	0.100
433.500	-7.587	0.100
433.600	5.272	0.100
433.700	-6.089	0.100
433.800	3.665	0.100
433.900	1.362	0.100
434.000	-10.899	0.100
434.100	2.961	0.100
434.200	-5.720	0.100
434.300	0.044	0.100
434.400	7.898	0.100
434.500	11.259	0.100
434.600	-8.552	0.100
434.700	8.220	0.100
434.800	-4.536	0.100
434.900	16.607	0.100
435.000	9.220	0.100
435.100	-7.162	0.100
435.200	0.022	0.100
435.300	3.951	0.100
435.400	-0.349	0.100
435.500	-5.790	0.100
435.600	3.224	0.100
435.700	-5.555	0.100
435.800	-1.815	0.100
435.900	3.809	0.100
436.000	0.832	0.100
436.100	-2.565	0.100
436.200	1.625	0.100
436.300	-7.932	0.100
436.400	-4.263	0.100
436.500	-2.807	0.100
436.600	-11.889	0.100
436.700	-4.709	0.100
436.800	1.029	0.100
436.900	11.444	0.100
437.000	-15.104	0.100
437.100	-4.780	0.100
437.200	13.145	0.100
437.300	13.406	0.100
437.400	2.542	0.100
437.500	-2.928	0.100
437.600	0.438	0.100
437.700	3.590	0.100
437.800	-0.969	0.100
437.900	3.685	0.100
438.000	-2.563	0.100
438.100	11.541	0.100
438.200	2.526	0.100
438.300	-7.361	0.100
438.400	-1.709	0.100
438.500	-1.053	0.100
438.600	-8.828	0.100
438.700	-2.893	0.100
438.800	-16.596	0.100
438.900	-20.617	0.100
439.000	-7.845	0.100
439.100	-0.572	0.100
439.200	10.562	0.100
439.300	6.263	0.100
439.400	-11.692	0.100
439.500	-2.995	0.100
439.600	-3.935	0.100
439.700	-0.756	0.100
439.800	-13.222	0.100
439.900	0.319	0.100
440.000	-10.616	0.100
440.100	-3.696	0.100
440.200	-4.266	0.100
440.300	-1.928	0.100
440.400	-13.037	0.100
440.500	-8.559	0.100
440.600	-9.193	0.100
440.700	-2.959	0.100
440.800	-12.862	0.100
440.900	-10.255	0.100
441.000	-10.178	0.100
441.100	-15.655	0.100
441.200	-1.466	0.100
441.300	-2.087	0.100
441.400	-4.375	0.100
441.500	-1.163	0.100
441.600	-10.798	0.100
441.700	-11.318	0.100
441.800	-19.635	0.100
441.900	-0.988	0.100
442.000	-5.789	0.100
442.100	-5.740	0.100
442.200	-8.038	0.100
442.300	-23.112	0.100
442.400	-3.916	0.100
442.500	-6.896	0.100
442.600	-10.661	0.100
442.700	-16.529	0.100
442.800	-3.832	0.100
442.900	-10.805	0.100
443.000	-0.964	0.100
443.100	3.552	0.100
443.200	-11.152	0.100
443.300	-11.589	0.100
443.400	-0.685	0.100
443.500	-10.605	0.100
443.600	-7.671	0.100
443.700	-8.664	0.100
443.800	-17.216	0.100
443.900	-1.590	0.100
444.000	-27.476	0.100
444.100	1.378	0.100
444.200	-4.416	0.100
444.300	-13.166	0.100
444.400	-24.434	0.100
444.500	7.667	0.100
444.600	-10.465	0.100
444.700	-20.489	0.100
444.800	2.254	0.100
444.900	-15.783	0.100
445.000	-10.702	0.100
445.100	-2.597	0.100
445.200	1.458	0.100
445.300	-16.263	0.100
445.400	-19.509	0.100
445.500	-3.699	0.100
445.600	7.528	0.100
445.700	0.865	0.100
445.800	-10.194	0.100
445.900	-15.278	0.100
446.000	-25.012	0.100
446.100	-5.803	0.100
446.200	-1.067	0.100
446.300	-15.955	0.100
446.400	-8.147	0.100
446.500	-17.729	0.100
446.600	-7.156	0.100
446.700	-20.361	0.100
446.800	-12.424	0.100
446.900	-2.475	0.100
447.000	-20.028	0.100
447.100	-13.529	0.100
447.200	-11.512	0.100
447.300	-30.226	0.100
447.400	-30.473	0.100
447.500	-20.559	0.100
447.600	-14.134	0.100
447.700	-13.776	0.100
447.800	-13.802	0.100
447.900	-10.584	0.100
448.000	-9.842	0.100
448.100	-11.853	0.100
448.200	-8.164	0.100
448.300	-15.898	0.100
448.400	-15.160	0.100
448.500	-10.027	0.100
448.600	-10.893	0.100
448.700	-15.747	0.100
448.800	-13.763	0.100
448.900	-24.194	0.100
449.000	-24.895	0.100
449.100	-10.437	0.100
449.200	-8.805	0.100
449.300	-20.862	0.100
449.400	-18.820	0.100
449.500	-3.268	0.100
449.600	-8.119	0.100
449.700	-11.017	0.100
449.800	-8.833	0.100
449.900	-13.911	0.100
450.000	-18.072	0.100
450.100	-5.853	0.100
450.200	-13.039	0.100
450.300	-25.906	0.100
450.400	-16.833	0.100
450.500	-9.160	0.100
450.600	-13.068	0.100
450.700	-27.159	0.100
450.800	-6.908	0.100
450.900	-14.008	0.100
451.000	-14.893	0.100
451.100	-5.139	0.100
451.200	-11.296	0.100
451.300	-15.849	0.100
451.400	-12.327	0.100
451.500	-21.645	0.100
451.600	-16.939	0.100
451.700	-12.381	0.100
451.800	-11.949	0.100
451.900	-13.319	0.100
452.000	-23.270	0.100
452.100	-0.971	0.100
452.200	-8.765	0.100
452.300	-6.374	0.100
452.400	-13.327	0.100
452.500	-33.708	0.100
452.600	-27.566	0.100
452.700	-4.345	0.100
452.800	-21.866	0.100
452.900	-17.962	0.100
453.000	-2.803	0.100
453.100	-19.824	0.100
453.200	-19.095	0.100
453.300	-18.789	0.100
453.400	-18.281	0.100
453.500	-18.341	0.100
453.600	-5.236	0.100
453.700	-15.852	0.100
453.800	-8.843	0.100
453.900	-24.183	0.100
454.000	-20.624	0.100
454.100	-14.476	0.100
454.200	-20.614	0.100
454.300	-22.325	0.100
454.400	-21.249	0.100
454.500	-20.450	0.100
454.600	-12.450	0.100
454.700	-21.054	0.100
454.800	-41.184	0.100
454.900	-10.583	0.100
455.000	-12.451	0.100
455.100	-30.846	0.100
455.200	-16.038	0.100
455.300	-10.698	0.100
455.400	-2.135	0.100
455.500	-15.675	0.100
455.600	-11.005	0.100
455.700	-17.057	0.100
455.800	-20.037	0.100
455.900	-20.550	0.100
456.000	-26.470	0.100
456.100	-22.517	0.100
456.200	-14.033	0.100
456.300	-7.550	0.100
456.400	-9.092	0.100
456.500	-28.382	0.100
456.600	-15.425	0.100
456.700	-15.620	0.100
456.800	-15.869	0.100
456.900	-17.227	0.100
457.000	-16.000	0.100
457.100	-14.878	0.100
457.200	-39.634	0.100
457.300	-24.287	0.100
457.400	-18.293	0.100
457.500	-18.046	0.100
457.600	-18.701	0.100
457.700	-29.344	0.100
457.800	-16.419	0.100
457.900	-21.457	0.100
458.000	-18.619	0.100
458.100	-19.170	0.100
458.200	-10.944	0.100
458.300	-23.689	0.100
458.400	-14.112	0.100
458.500	-17.180	0.100
458.600	-22.228	0.100
458.700	-5.384	0.100
458.800	-16.149	0.100
458.900	-18.874	0.100
459.000	-12.415	0.100
459.100	-11.171	0.100
459.200	-18.704	0.100
459.300	-10.766	0.100
459.400	-24.777	0.100
459.500	-28.151	0.100
459.600	-19.790	0.100
459.700	-18.621	0.100
459.800	-18.250	0.100
459.900	-27.079	0.100
460.000	-22.891	0.100
460.100	-17.526	0.100
460.200	-26.779	0.100
460.300	-7.540	0.100
460.400	-16.548	0.100
460.500	-14.503	0.100
460.600	-15.214	0.100
460.700	-31.122	0.100
460.800	-27.174	0.100
460.900	-25.662	0.100
461.000	-10.256	0.100
461.100	-23.686	0.100
461.200	-21.745	0.100
461.300	-18.596	0.100
461.400	-26.609	0.100
461.500	-16.152	0.100
461.600	-25.412	0.100
461.700	-12.983	0.100
461.800	-12.745	0.100
461.900	-25.276	0.100
462.000	-28.874	0.100
462.100	-28.629	0.100
462.200	-11.181	0.100
462.300	-11.965	0.100
462.400	-18.599	0.100
462.500	-11.607	0.100
462.600	-9.741	0.100
462.700	-22.979	0.100
462.800	-10.924	0.100
462.900	-20.715	0.100
463.000	-13.343	0.100
463.100	-24.070	0.100
463.200	-26.947	0.100
463.300	-32.696	0.100
463.400	-15.000	0.100
463.500	-9.931	0.100
463.600	-14.488	0.100
463.700	-16.746	0.100
463.800	-23.782	0.100
463.900	-21.346	0.100
464.000	-25.168	0.100
464.100	-16.811	0.100
464.200	-16.269	0.100
464.300	-24.941	0.100
464.400	-29.154	0.100
464.500	-26.213	0.100
464.600	-14.430	0.100
464.700	-29.382	0.100
464.800	-7.983	0.100
464.900	-3.870	0.100
465.000	-14.951	0.100
465.100	-0.721	0.100
465.200	-18.748	0.100
465.300	-33.019	0.100
465.400	-6.326	0.100
465.500	-19.577	0.100
465.600	-30.361	0.100
465.700	-14.836	0.100
465.800	-20.968	0.100
465.900	-23.735	0.100
466.000	-20.655	0.100
466.100	-16.634	0.100
466.200	-13.653	0.100
466.300	-25.344	0.100
466.400	-18.452	0.100
466.500	-28.402	0.100
466.600	-18.494	0.100
466.700	-17.989	0.100
466.800	-19.830	0.100
466.900	-4.158	0.100
467.000	-27.389	0.100
467.100	-20.615	0.100
467.200	-21.895	0.100
467.300	-17.405	0.100
467.400	-35.169	0.100
467.500	-12.429	0.100
467.600	-7.467	0.100
467.700	-22.340	0.100
467.800	-17.037	0.100
467.900	-21.987	0.100
468.000	-18.949	0.100
468.100	-18.856	0.100
468.200	-29.997	0.100
468.300	-22.007	0.100
468.400	-9.018	0.100
468.500	-19.653	0.100
468.600	-15.985	0.100
468.700	-11.860	0.100
468.800	-20.717	0.100
468.900	-13.083	0.100
469.000	-18.267	0.100
469.100	-24.868	0.100
469.200	-32.990	0.100
469.300	-17.787	0.100
469.400	-28.036	0.100
469.500	-25.613	0.100
469.600	-21.156	0.100
469.700	-16.441	0.100
469.800	-20.558	0.100
469.900	-10.900	0.100
470.000	-31.555	0.100
470.100	-31.823	0.100
470.200	-27.761	0.100
470.300	-9.536	0.100
470.400	-19.894	0.100
470.500	-24.529	0.100
470.600	-17.072	0.100
470.700	-9.340	0.100
470.800	-9.463	0.100
470.900	-16.071	0.100
471.000	-19.003	0.100
471.100	-23.349	0.100
471.200	-20.151	0.100
471.300	-18.784	0.100
471.400	-10.584	0.100
471.500	-17.823	0.100
471.600	-27.836	0.100
471.700	-18.197	0.100
471.800	-25.263	0.100
471.900	-31.745	0.100
472.000	-11.637	0.100
472.100	-11.709	0.100
472.200	-20.346	0.100
472.300	-13.904	0.100
472.400	-31.255	0.100
472.500	-8.302	0.100
472.600	-13.664	0.100
472.700	-19.529	0.100
472.800	-15.255	0.100
472.900	-6.280	0.100
473.000	-13.275	0.100
473.100	-34.394	0.100
473.200	-31.532	0.100
473.300	-16.786	0.100
473.400	-10.661	0.100
473.500	-22.291	0.100
473.600	-24.274	0.100
473.700	-17.866	0.100
473.800	-10.334	0.100
473.900	-33.333	0.100
474.000	-14.093	0.100
474.100	-17.779	0.100
474.200	-29.439	0.100
474.300	-18.855	0.100
474.400	-25.627	0.100
474.500	-28.881	0.100
474.600	-0.858	0.100
474.700	-9.105	0.100
474.800	-25.126	0.100
474.900	-20.726	0.100
475.000	-32.808	0.100
475.100	-16.256	0.100
475.200	-19.918	0.100
475.300	-11.106	0.100
475.400	-24.277	0.100
475.500	-20.611	0.100
475.600	-25.710	0.100
475.700	-21.802	0.100
475.800	-25.924	0.100
475.900	-36.071	0.100
476.000	-18.468	0.100
476.100	0.146	0.100
476.200	-12.865	0.100
476.300	-20.499	0.100
476.400	-19.793	0.100
476.500	-26.299	0.100
476.600	-21.235	0.100
476.700	-40.971	0.100
476.800	-21.924	0.100
476.900	-16.615	0.100
477.000	-26.263	0.100
477.100	-17.546	0.100
477.200	-15.724	0.100
477.300	-7.642	0.100
477.400	-23.422	0.100
477.500	-22.172	0.100
477.600	-20.733	0.100
477.700	-28.163	0.100
477.800	-2.967	0.100
477.900	-19.125	0.100
478.000	-13.293	0.100
478.100	-18.306	0.100
478.200	-15.765	0.100
478.300	-31.245	0.100
478.400	-21.455	0.100
478.500	-28.438	0.100
478.600	-27.899	0.100
478.700	-18.702	0.100
478.800	-10.242	0.100
478.900	-17.623	0.100
479.000	-26.135	0.100
479.100	-12.145	0.100
479.200	-9.273	0.100
479.300	-13.578	0.100
479.400	-21.245	0.100
479.500	-22.162	0.100
479.600	-30.126	0.100
479.700	-20.646	0.100
479.800	-21.196	0.100
479.900	-19.730	0.100
480.000	-13.645	0.100
480.100	-9.234	0.100
480.200	-19.446	0.100
480.300	-26.222	0.100
480.400	-21.071	0.100
480.500	-20.756	0.100
480.600	-27.496	0.100
480.700	-17.091	0.100
480.800	-17.889	0.100
480.900	-27.607	0.100
481.000	-18.567	0.100
481.100	-21.979	0.100
481.200	-15.342	0.100
481.300	-9.142	0.100
481.400	-15.204	0.100
481.500	-20.391	0.100
481.600	-27.630	0.100
481.700	-9.580	0.100
481.800	-18.505	0.100
481.900	-28.943	0.100
482.000	-26.022	0.100
482.100	-23.141	0.100
482.200	-2.399	0.100
482.300	-14.704	0.100
482.400	-24.475	0.100
482.500	-26.882	0.100
482.600	-42.014	0.100
482.700	-6.556	0.100
482.800	-14.339	0.100
482.900	-9.524	0.100
483.000	-16.053	0.100
483.100	-20.411	0.100
483.200	-18.046	0.100
483.300	-18.186	0.100
483.400	-23.646	0.100
483.500	-22.645	0.100
483.600	-20.079	0.100
483.700	-32.663	0.100
483.800	-17.762	0.100
483.900	-11.721	0.100
484.000	-12.718	0.100
484.100	-14.572	0.100
484.200	-15.950	0.100
484.300	-19.361	0.100
484.400	-23.989	0.100
484.500	-23.436	0.100
484.600	-27.265	0.100
484.700	-18.484	0.100
484.800	-14.243	0.100
484.900	-19.301	0.100
485.000	-27.480	0.100
485.100	-19.419	0.100
485.200	-10.939	0.100
485.300	-22.220	0.100
485.400	-28.212	0.100
485.500	-23.082	0.100
485.600	-12.082	0.100
485.700	-15.752	0.100
485.800	-22.427	0.100
485.900	-13.545	0.100
486.000	-19.180	0.100
486.100	-17.307	0.100
486.200	-13.032	0.100
486.300	-28.759	0.100
486.400	-15.719	0.100
486.500	-9.320	0.100
486.600	-22.085	0.100
486.700	-23.580	0.100
486.800	-23.955	0.100
486.900	-24.142	0.100
487.000	-19.955	0.100
487.100	-20.551	0.100
487.200	-2.895	0.100
487.300	-29.848	0.100
487.400	-19.179	0.100
487.500	-13.784	0.100
487.600	-9.743	0.100
487.700	-15.116	0.100
487.800	-26.177	0.100
487.900	-19.907	0.100
488.000	-20.866	0.100
488.100	-12.543	0.100
488.200	-25.716	0.100
488.300	-2.321	0.100
488.400	-18.442	0.100
488.500	-24.670	0.100
488.600	-17.512	0.100
488.700	-21.300	0.100
488.800	-29.545	0.100
488.900	-34.023	0.100
489.000	-7.524	0.100
489.100	-16.119	0.100
489.200	-23.548	0.100
489.300	-12.820	0.100
489.400	-19.401	0.100
489.500	-23.798	0.100
489.600	-18.061	0.100
489.700	-22.070	0.100
489.800	-19.655	0.100
489.900	-20.743	0.100
490.000	-6.503	0.100
490.100	-37.496	0.100
490.200	-12.332	0.100
490.300	-20.577	0.100
490.400	-25.632	0.100
490.500	-13.059	0.100
490.600	-19.023	0.100
490.700	-28.430	0.100
490.800	-28.726	0.100
490.900	-20.348	0.100
491.000	-30.050	0.100
491.100	-14.622	0.100
491.200	-14.194	0.100
491.300	-16.600	0.100
491.400	-18.079	0.100
491.500	-22.459	0.100
491.600	-16.079	0.100
491.700	-26.912	0.100
491.800	-19.877	0.100
491.900	-16.726	0.100
492.000	-22.156	0.100
492.100	-13.112	0.100
492.200	-25.765	0.100
492.300	-23.624	0.100
492.400	-28.481	0.100
492.500	-11.192	0.100
492.600	-18.670	0.100
492.700	-6.913	0.100
492.800	-24.446	0.100
492.900	-22.610	0.100
493.000	4.719	0.100
493.100	-26.423	0.100
493.200	-18.020	0.100
493.300	-29.688	0.100
493.400	-19.290	0.100
493.500	-17.501	0.100
493.600	-26.613	0.100
493.700	-19.876	0.100
493.800	-29.541	0.100
493.900	-13.668	0.100
494.000	-16.578	0.100
494.100	-16.079	0.100
494.200	-23.934	0.100
494.300	-18.342	0.100
494.400	-18.709	0.100
494.500	-14.300	0.100
494.600	-16.073	0.100
494.700	-13.067	0.100
494.800	-23.987	0.100
494.900	-15.912	0.100
495.000	-16.304	0.100
495.100	-16.586	0.100
495.200	-24.890	0.100
495.300	-15.848	0.100
495.400	-14.089	0.100
495.500	-16.800	0.100
495.600	-15.045	0.100
495.700	-8.998	0.100
495.800	-13.659	0.100
495.900	-17.683	0.100
496.000	-22.155	0.100
496.100	-18.852	0.100
496.200	-19.294	0.100
496.300	-22.296	0.100
496.400	0.671	0.100
496.500	-26.554	0.100
496.600	-16.126	0.100
496.700	-36.765	0.100
496.800	-7.341	0.100
496.900	-18.749	0.100
497.000	-19.512	0.100
497.100	-13.579	0.100
497.200	-21.000	0.100
497.300	-34.796	0.100
497.400	-28.984	0.100
497.500	9.774	0.100
497.600	-21.304	0.100
497.700	-16.582	0.100
497.800	-27.448	0.100
497.900	-24.651	0.100
498.000	-24.482	0.100
498.100	-11.156	0.100
498.200	-27.146	0.100
498.300	-13.945	0.100
498.400	-24.224	0.100
498.500	-24.500	0.100
498.600	-23.350	0.100
498.700	-8.595	0.100
498.800	-8.815	0.100
498.900	-20.940	0.100
499.000	-23.843	0.100
499.100	-11.428	0.100
499.200	-32.449	0.100
499.300	-22.298	0.100
499.400	-18.296	0.100
499.500	-8.745	0.100
499.600	-8.551	0.100
499.700	-19.954	0.100
499.800	-22.888	0.100
499.900	-15.676	0.100
500.000	-22.579	0.100
500.100	-18.267	0.100
500.200	-20.494	0.100
500.300	-25.632	0.100
500.400	-19.529	0.100
500.500	-20.509	0.100
500.600	-21.166	0.100
500.700	-11.981	0.100
500.800	-14.368	0.100
500.900	-24.561	0.100
501.000	-22.562	0.100
501.100	-3.116	0.100
501.200	-19.537	0.100
501.300	-24.697	0.100
501.400	-23.992	0.100
501.500	-16.586	0.100
501.600	-33.795	0.100
501.700	-14.088	0.100
501.800	-3.510	0.100
501.900	-0.650	0.100
502.000	-20.687	0.100
502.100	-19.184	0.100
502.200	-29.504	0.100
502.300	-16.470	0.100
502.400	-9.883	0.100
502.500	-27.966	0.100
502.600	-15.636	0.100
502.700	-20.535	0.100
502.800	-17.101	0.100
502.900	-23.776	0.100
503.000	-21.719	0.100
503.100	-40.819	0.100
503.200	-7.693	0.100
503.300	0.198	0.100
503.400	-23.073	0.100
503.500	-14.571	0.100
503.600	-30.798	0.100
503.700	-18.113	0.100
503.800	-20.924	0.100
503.900	-12.840	0.100
504.000	-19.841	0.100
504.100	-24.282	0.100
504.200	-24.146	0.100
504.300	-18.565	0.100
504.400	-19.776	0.100
504.500	-12.888	0.100
504.600	-9.856	0.100
504.700	-12.774	0.100
504.800	-30.682	0.100
504.900	-23.751	0.100
505.000	-13.656	0.100
505.100	-14.664	0.100
505.200	-28.983	0.100
505.300	-20.715	0.100
505.400	-15.219	0.100
505.500	-22.695	0.100
505.600	-3.134	0.100
505.700	-10.167	0.100
505.800	-18.397	0.100
505.900	-10.598	0.100
506.000	-26.859	0.100
506.100	-7.214	0.100
506.200	-22.821	0.100
506.300	-23.636	0.100
506.400	-22.722	0.100
506.500	-23.707	0.100
506.600	-12.733	0.100
506.700	-9.566	0.100
506.800	-15.676	0.100
506.900	-20.332	0.100
507.000	-12.928	0.100
507.100	-21.062	0.100
507.200	-19.299	0.100
507.300	-24.141	0.100
507.400	-26.225	0.100
507.500	-13.415	0.100
507.600	-16.994	0.100
507.700	-15.130	0.100
507.800	-18.287	0.100
507.900	-21.899	0.100
508.000	-11.351	0.100
508.100	-11.268	0.100
508.200	-12.999	0.100
508.300	1.301	0.100
508.400	-24.466	0.100
508.500	-18.045	0.100
508.600	-21.157	0.100
508.700	-18.804	0.100
508.800	-9.837	0.100
508.900	-18.734	0.100
509.000	-25.016	0.100
509.100	-19.419	0.100
509.200	-13.593	0.100
509.300	-17.575	0.100
509.400	-25.420	0.100
509.500	-9.867	0.100
509.600	-29.976	0.100
509.700	-33.769	0.100
509.800	-18.110	0.100
509.900	0.299	0.100
510.000	-20.001	0.100
510.100	-30.250	0.100
510.200	-12.594	0.100
510.300	-5.279	0.100
510.400	-15.387	0.100
510.500	-3.681	0.100
510.600	-3.550	0.100
510.700	-0.380	0.100
510.800	0.660	0.100
510.900	-2.772	0.100
511.000	-6.209	0.100
511.100	5.697	0.100
511.200	13.448	0.100
511.300	3.082	0.100
511.400	7.878	0.100
511.500	10.539	0.100
511.600	2.911	0.100
511.700	-11.052	0.100
511.800	9.999	0.100
511.900	7.954	0.100
512.000	6.454	0.100
512.100	13.114	0.100
512.200	8.664	0.100
512.300	17.885	0.100
512.400	-0.458	0.100
512.500	3.883	0.100
512.600	15.640	0.100
512.700	16.759	0.100
512.800	5.379	0.100
512.900	20.969	0.100
513.000	19.952	0.100
513.100	13.788	0.100
513.200	11.196	0.100
513.300	17.620	0.100
513.400	26.902	0.100
513.500	-7.869	0.100
513.600	15.178	0.100
513.700	16.189	0.100
513.800	12.340	0.100
513.900	17.639	0.100
514.000	6.878	0.100
514.100	3.602	0.100
514.200	23.605	0.100
514.300	23.145	0.100
514.400	13.428	0.100
514.500	2.240	0.100
514.600	7.370	0.100
514.700	4.192	0.100
514.800	5.758	0.100
514.900	21.405	0.100
515.000	26.259	0.100
515.100	4.173	0.100
515.200	3.570	0.100
515.300	4.323	0.100
515.400	5.642	0.100
515.500	9.761	0.100
515.600	19.629	0.100
515.700	6.462	0.100
515.800	5.627	0.100
515.900	1.235	0.100
516.000	19.766	0.100
516.100	5.018	0.100
516.200	9.274	0.100
516.300	-1.439	0.100
516.400	9.349	0.100
516.500	-13.427	0.100
516.600	6.416	0.100
516.700	16.902	0.100
516.800	19.935	0.100
516.900	-1.284	0.100
517.000	-0.468	0.100
517.100	20.513	0.100
517.200	11.899	0.100
517.300	11.875	0.100
517.400	8.868	0.100
517.500	-1.638	0.100
517.600	-0.961	0.100
517.700	10.121	0.100
517.800	8.083	0.100
517.900	25.832	0.100
518.000	7.858	0.100
518.100	9.754	0.100
518.200	11.640	0.100
518.300	6.306	0.100
518.400	15.499	0.100
518.500	15.597	0.100
518.600	2.493	0.100
518.700	27.803	0.100
518.800	6.022	0.100
518.900	9.789	0.100
519.000	9.695	0.100
519.100	16.005	0.100
519.200	10.991	0.100
519.300	14.993	0.100
519.400	9.648	0.100
519.500	11.280	0.100
519.600	10.113	0.100
519.700	22.198	0.100
519.800	3.798	0.100
519.900	21.887	0.100
520.000	15.439	0.100
520.100	16.181	0.100
520.200	14.311	0.100
520.300	10.885	0.100
520.400	13.715	0.100
520.500	7.556	0.100
520.600	21.835	0.100
520.700	28.527	0.100
520.800	19.231	0.100
520.900	5.098	0.100
521.000	30.095	0.100
521.100	6.672	0.100
521.200	18.656	0.100
521.300	11.890	0.100
521.400	14.768	0.100
521.500	30.312	0.100
521.600	11.881	0.100
521.700	29.774	0.100
521.800	23.512	0.100
521.900	3.213	0.100
522.000	19.196	0.100
522.100	12.340	0.100
522.200	25.687	0.100
522.300	27.951	0.100
522.400	32.564	0.100
522.500	30.710	0.100
522.600	18.433	0.100
522.700	13.967	0.100
522.800	35.093	0.100
522.900	31.990	0.100
523.000	24.544	0.100
523.100	21.588	0.100
523.200	23.136	0.100
523.300	22.365	0.100
523.400	16.993	0.100
523.500	40.971	0.100
523.600	42.821	0.100
523.700	11.450	0.100
523.800	19.242	0.100
523.900	23.117	0.100
524.000	33.583	0.100
524.100	32.757	0.100
524.200	38.569	0.100
524.300	25.015	0.100
524.400	17.111	0.100
524.500	31.641	0.100
524.600	27.661	0.100
524.700	44.606	0.100
524.800	31.809	0.100
524.900	31.541	0.100
525.000	36.329	0.100
525.100	36.242	0.100
525.200	41.440	0.100
525.300	27.539	0.100
525.400	30.398	0.100
525.500	37.834	0.100
525.600	38.898	0.100
525.700	40.507	0.100
525.800	37.427	0.100
525.900	27.847	0.100
526.000	39.381	0.100
526.100	30.943	0.100
526.200	40.208	0.100
526.300	34.423	0.100
526.400	42.670	0.100
526.500	48.229	0.100
526.600	40.716	0.100
526.700	50.513	0.100
526.800	39.362	0.100
526.900	40.581	0.100
527.000	27.963	0.100
527.100	52.755	0.100
527.200	44.080	0.100
527.300	39.704	0.100
527.400	38.555	0.100
527.500	51.252	0.100
527.600	52.768	0.100
527.700	46.978	0.100
527.800	44.391	0.100
527.900	39.486	0.100
528.000	47.644	0.100
528.100	34.434	0.100
528.200	48.937	0.100
528.300	44.217	0.100
528.400	51.600	0.100
528.500	55.691	0.100
528.600	46.101	0.100
528.700	48.245	0.100
528.800	44.768	0.100
528.900	58.816	0.100
529.000	41.927	0.100
529.100	40.525	0.100
529.200	65.185	0.100
529.300	48.509	0.100
529.400	40.779	0.100
529.500	51.786	0.100
529.600	67.301	0.100
529.700	52.098	0.100
529.800	59.940	0.100
529.900	53.456	0.100
530.000	61.177	0.100
530.100	54.069	0.100
530.200	50.793	0.100
530.300	59.979	0.100
530.400	58.837	0.100
530.500	38.537	0.100
530.600	60.392	0.100
530.700	54.309	0.100
530.800	55.305	0.100
530.900	59.360	0.100
531.000	63.631	0.100
531.100	53.576	0.100
531.200	60.136	0.100
531.300	58.289	0.100
531.400	61.216	0.100
531.500	52.320	0.100
531.600	55.572	0.100
531.700	49.171	0.100
531.800	45.986	0.100
531.900	62.477	0.100
532.000	50.295	0.100
532.100	71.238	0.100
532.200	76.709	0.100
532.300	53.851	0.100
532.400	59.330	0.100
532.500	65.189	0.100
532.600	53.804	0.100
532.700	62.273	0.100
532.800	59.039	0.100
532.900	48.053	0.100
533.000	50.879	0.100
533.100	56.939	0.100
533.200	72.781	0.100
533.300	53.788	0.100
533.400	58.194	0.100
533.500	55.218	0.100
533.600	73.661	0.100
533.700	61.191	0.100
533.800	64.975	0.100
533.900	55.676	0.100
534.000	62.267	0.100
534.100	57.015	0.100
534.200	54.777	0.100
534.300	48.340	0.100
534.400	46.940	0.100
534.500	53.949	0.100
534.600	66.015	0.100
534.700	47.791	0.100
534.800	50.473	0.100
534.900	60.499	0.100
535.000	57.979	0.100
535.100	73.029	0.100
535.200	63.733	0.100
535.300	51.751	0.100
535.400	55.410	0.100
535.500	51.348	0.100
535.600	58.682	0.100
535.700	47.836	0.100
535.800	64.813	0.100
535.900	58.246	0.100
536.000	59.773	0.100
536.100	66.225	0.100
536.200	57.293	0.100
536.300	51.061	0.100
536.400	58.656	0.100
536.500	39.194	0.100
536.600	54.595	0.100
536.700	56.763	0.100
536.800	56.320	0.100
536.900	54.414	0.100
537.000	47.970	0.100
537.100	56.443	0.100
537.200	61.513	0.100
537.300	64.910	0.100
537.400	63.437	0.100
537.500	55.249	0.100
537.600	58.101	0.100
537.700	57.777	0.100
537.800	52.197	0.100
537.900	60.635	0.100
538.000	53.494	0.100
538.100	55.271	0.100
538.200	48.007	0.100
538.300	52.656	0.100
538.400	47.654	0.100
538.500	67.546	0.100
538.600	64.052	0.100
538.700	51.840	0.100
538.800	56.630	0.100
538.900	60.724	0.100
539.000	62.129	0.100
539.100	55.682	0.100
539.200	49.207	0.100
539.300	64.322	0.100
539.400	42.579	0.100
539.500	46.552	0.100
539.600	69.922	0.100
539.700	49.897	0.100
539.800	45.278	0.100
539.900	63.936	0.100
540.000	58.640	0.100
540.100	61.017	0.100
540.200	46.933	0.100
540.300	45.504	0.100
540.400	57.075	0.100
540.500	51.593	0.100
540.600	41.841	0.100
540.700	45.747	0.100
540.800	46.432	0.100
540.900	45.078	0.100
541.000	43.437	0.100
541.100	45.511	0.100
541.200	34.652	0.100
541.300	24.835	0.100
541.400	38.448	0.100
541.500	37.464	0.100
541.600	24.124	0.100
541.700	34.945	0.100
541.800	35.915	0.100
541.900	19.560	0.100
542.000	19.338	0.100
542.100	23.533	0.100
542.200	36.145	0.100
542.300	16.734	0.100
542.400	24.426	0.100
542.500	18.478	0.100
542.600	12.540	0.100
542.700	27.568	0.100
542.800	20.673	0.100
542.900	28.604	0.100
543.000	15.065	0.100
543.100	12.768	0.100
543.200	21.071	0.100
543.300	9.434	0.100
543.400	6.345	0.100
543.500	2.380	0.100
543.600	10.681	0.100
543.700	23.330	0.100
543.800	9.612	0.100
543.900	1.994	0.100
544.000	11.175	0.100
544.100	8.711	0.100
544.200	21.242	0.100
544.300	12.341	0.100
544.400	11.547	0.100
544.500	10.912	0.100
544.600	-1.331	0.100
544.700	17.919	0.100
544.800	13.896	0.100
544.900	10.405	0.100
545.000	-4.750	0.100
545.100	18.189	0.100
545.200	8.109	0.100
545.300	7.789	0.100
545.400	4.196	0.100
545.500	6.689	0.100
545.600	-0.639	0.100
545.700	-1.421	0.100
545.800	7.050	0.100
545.900	-6.500	0.100
546.000	11.131	0.100
546.100	4.817	0.100
546.200	0.608	0.100
546.300	15.269	0.100
546.400	-3.813	0.100
546.500	2.487	0.100
546.600	6.373	0.100
546.700	2.802	0.100
546.800	9.071	0.100
546.900	15.512	0.100
547.000	12.377	0.100
547.100	-5.904	0.100
547.200	3.471	0.100
547.300	-2.453	0.100
547.400	18.199	0.100
547.500	6.290	0.100
547.600	4.684	0.100
547.700	11.381	0.100
547.800	0.203	0.100
547.900	13.537	0.100
548.000	11.825	0.100
548.100	9.158	0.100
548.200	-6.957	0.100
548.300	-1.315	0.100
548.400	5.473	0.100
548.500	4.974	0.100
548.600	-0.894	0.100
548.700	17.013	0.100
548.800	8.489	0.100
548.900	23.451	0.100
549.000	-16.242	0.100
549.100	16.246	0.100
549.200	15.158	0.100
549.300	10.232	0.100
549.400	6.587	0.100
549.500	-5.123	0.100
549.600	-2.483	0.100
549.700	8.032	0.100
549.800	11.668	0.100
549.900	5.452	0.100
550.000	1.899	0.100
550.100	-2.092	0.100
550.200	5.598	0.100
550.300	-4.123	0.100
550.400	9.064	0.100
550.500	6.861	0.100
550.600	2.986	0.100
550.700	2.117	0.100
550.800	5.994	0.100
550.900	10.430	0.100
551.000	-2.049	0.100
551.100	18.513	0.100
551.200	4.451	0.100
551.300	-8.579	0.100
551.400	9.885	0.100
551.500	10.877	0.100
551.600	-0.635	0.100
551.700	-1.177	0.100
551.800	-7.710	0.100
551.900	14.153	0.100
552.000	3.388	0.100
552.100	3.769	0.100
552.200	1.930	0.100
552.300	3.129	0.100
552.400	18.894	0.100
552.500	4.842	0.100
552.600	2.818	0.100
552.700	2.744	0.100
552.800	3.868	0.100
552.900	-6.559	0.100
553.000	5.221	0.100
553.100	18.146	0.100
553.200	7.602	0.100
553.300	-1.638	0.100
553.400	4.509	0.100
553.500	0.771	0.100
553.600	-5.701	0.100
553.700	1.881	0.100
553.800	-5.908	0.100
553.900	8.905	0.100
554.000	0.091	0.100
554.100	4.623	0.100
554.200	-6.471	0.100
554.300	-5.656	0.100
554.400	12.762	0.100
554.500	-0.838	0.100
554.600	4.682	0.100
554.700	1.397	0.100
554.800	3.163	0.100
554.900	11.864	0.100
555.000	0.180	0.100
555.100	4.080	0.100
555.200	-13.902	0.100
555.300	3.994	0.100
555.400	7.412	0.100
555.500	-5.315	0.100
555.600	5.725	0.100
555.700	8.023	0.100
555.800	-0.297	0.100
555.900	-9.763	0.100
556.000	-4.847	0.100
556.100	3.534	0.100
556.200	10.717	0.100
556.300	-0.462	0.100
556.400	-11.859	0.100
556.500	7.079	0.100
556.600	-5.654	0.100
556.700	21.974	0.100
556.800	0.557	0.100
556.900	0.185	0.100
557.000	-10.967	0.100
557.100	-0.787	0.100
557.200	-2.562	0.100
557.300	-1.801	0.100
557.400	-6.711	0.100
557.500	0.942	0.100
557.600	-4.545	0.100
557.700	-6.960	0.100
557.800	-2.259	0.100
557.900	-8.254	0.100
558.000	0.628	0.100
558.100	-7.340	0.100
558.200	9.994	0.100
558.300	9.912	0.100
558.400	-11.882	0.100
558.500	3.830	0.100
558.600	-10.387	0.100
558.700	8.216	0.100
558.800	5.288	0.100
558.900	-8.993	0.100
559.000	5.208	0.100
559.100	-16.158	0.100
559.200	-4.448	0.100
559.300	-0.606	0.100
559.400	-8.820	0.100
559.500	-0.229	0.100
559.600	-0.145	0.100
559.700	-5.492	0.100
559.800	-8.786	0.100
559.900	-16.765	0.100
560.000	-6.333	0.100
560.100	-10.778	0.100
560.200	-19.193	0.100
560.300	3.391	0.100
560.400	-16.311	0.100
560.500	5.818	0.100
560.600	4.326	0.100
560.700	-2.411	0.100
560.800	-3.475	0.100
560.900	-3.189	0.100
561.000	-0.683	0.100
561.100	-8.529	0.100
561.200	-0.711	0.100
561.300	-1.858	0.100
561.400	-5.308	0.100
561.500	-3.005	0.100
561.600	2.282	0.100
561.700	-9.351	0.100
561.800	-15.424	0.100
561.900	-7.019	0.100
562.000	-15.212	0.100
562.100	-4.175	0.100
562.200	-2.570	0.100
562.300	-4.606	0.100
562.400	-1.620	0.100
562.500	6.774	0.100
562.600	-0.636	0.100
562.700	-11.115	0.100
562.800	-8.027	0.100
562.900	12.400	0.100
563.000	-2.334	0.100
563.100	-10.151	0.100
563.200	-24.998	0.100
563.300	-9.633	0.100
563.400	13.288	0.100
563.500	-1.757	0.100
563.600	-4.345	0.100
563.700	-21.411	0.100
563.800	-10.084	0.100
563.900	-7.506	0.100
564.000	-4.460	0.100
564.100	4.869	0.100
564.200	-5.920	0.100
564.300	-8.000	0.100
564.400	-11.361	0.100
564.500	-13.951	0.100
564.600	-9.643	0.100
564.700	-7.539	0.100
564.800	-10.209	0.100
564.900	-23.676	0.100
565.000	-1.750	0.100
565.100	-9.309	0.100
565.200	-3.868	0.100
565.300	-3.404	0.100
565.400	-8.773	0.100
565.500	-13.772	0.100
565.600	-13.855	0.100
565.700	-20.487	0.100
565.800	-4.269	0.100
565.900	-4.814	0.100
566.000	-2.521	0.100
566.100	-6.797	0.100
566.200	-6.849	0.100
566.300	-25.460	0.100
566.400	-6.440	0.100
566.500	-22.179	0.100
566.600	-9.027	0.100
566.700	-11.976	0.100
566.800	-5.347	0.100
566.900	-15.464	0.100
567.000	-4.660	0.100
567.100	-19.524	0.100
567.200	-18.547	0.100
567.300	-15.657	0.100
567.400	-2.781	0.100
567.500	-10.130	0.100
567.600	-18.732	0.100
567.700	-36.222	0.100
567.800	-15.901	0.100
567.900	-8.181	0.100
568.000	-1.924	0.100
568.100	4.067	0.100
568.200	-22.192	0.100
568.300	0.335	0.100
568.400	-11.751	0.100
568.500	-12.342	0.100
568.600	-14.446	0.100
568.700	-3.045	0.100
568.800	-1.857	0.100
568.900	-13.990	0.100
569.000	-8.468	0.100
569.100	-2.549	0.100
569.200	-25.534	0.100
569.300	-21.974	0.100
569.400	-4.657	0.100
569.500	-20.788	0.100
569.600	-14.018	0.100
569.700	5.247	0.100
569.800	-11.590	0.100
569.900	-8.300	0.100
570.000	-18.586	0.100
570.100	-4.085	0.100
570.200	-12.907	0.100
570.300	-13.134	0.100
570.400	-7.575	0.100
570.500	-16.431	0.100
570.600	-21.066	0.100
570.700	-11.176	0.100
570.800	-18.722	0.100
570.900	-11.027	0.100
571.000	-16.278	0.100
571.100	-12.467	0.100
571.200	-15.087	0.100
571.300	-11.255	0.100
571.400	-4.417	0.100
571.500	-8.571	0.100
571.600	-29.695	0.100
571.700	-3.709	0.100
571.800	-13.569	0.100
571.900	-23.558	0.100
572.000	-15.429	0.100
572.100	-13.675	0.100
572.200	-17.113	0.100
572.300	-15.831	0.100
572.400	-11.199	0.100
572.500	-18.128	0.100
572.600	-2.900	0.100
572.700	-18.013	0.100
572.800	-22.176	0.100
572.900	-25.201	0.100
573.000	-1.627	0.100
573.100	-15.083	0.100
573.200	-11.103	0.100
573.300	-15.032	0.100
573.400	-5.531	0.100
573.500	-20.806	0.100
573.600	-17.387	0.100
573.700	-7.256	0.100
573.800	-13.559	0.100
573.900	-17.711	0.100
574.000	-14.989	0.100
574.100	-16.836	0.100
574.200	-11.088	0.100
574.300	-20.958	0.100
574.400	-9.091	0.100
574.500	-9.237	0.100
574.600	-17.069	0.100
574.700	-24.211	0.100
574.800	-17.054	0.100
574.900	-30.784	0.100
575.000	-25.842	0.100
575.100	-19.054	0.100
575.200	-8.001	0.100
575.300	-5.762	0.100
575.400	-9.624	0.100
575.500	-18.691	0.100
575.600	-31.869	0.100
575.700	-6.861	0.100
575.800	1.298	0.100
575.900	-9.192	0.100
576.000	-22.414	0.100
576.100	-21.796	0.100
576.200	-22.579	0.100
576.300	-14.273	0.100
576.400	-16.018	0.100
576.500	-18.546	0.100
576.600	-5.539	0.100
576.700	-28.366	0.100
576.800	-8.138	0.100
576.900	-20.499	0.100
577.000	-26.489	0.100
577.100	-17.902	0.100
577.200	-13.222	0.100
577.300	-23.217	0.100
577.400	-22.113	0.100
577.500	-14.532	0.100
577.600	-21.753	0.100
577.700	-17.826	0.100
577.800	-12.698	0.100
577.900	-18.671	0.100
578.000	-11.343	0.100
578.100	-11.469	0.100
578.200	-28.818	0.100
578.300	-25.574	0.100
578.400	-17.586	0.100
578.500	-25.571	0.100
578.600	-20.506	0.100
578.700	-12.485	0.100
578.800	-22.505	0.100
578.900	-14.019	0.100
579.000	-20.205	0.100
579.100	-26.661	0.100
579.200	-19.466	0.100
579.300	-16.772	0.100
579.400	-23.755	0.100
579.500	-24.700	0.100
579.600	-9.330	0.100
579.700	-18.023	0.100
579.800	-20.712	0.100
579.900	-25.972	0.100
580.000	-11.555	0.100
580.100	-29.761	0.100
580.200	-14.745	0.100
580.300	-11.934	0.100
580.400	-17.960	0.100
580.500	-13.907	0.100
580.600	-26.063	0.100
580.700	-23.756	0.100
580.800	-30.186	0.100
580.900	-16.280	0.100
581.000	-9.899	0.100
581.100	-12.022	0.100
581.200	-18.664	0.100
581.300	-14.188	0.100
581.400	-16.787	0.100
581.500	-19.845	0.100
581.600	-13.894	0.100
581.700	-16.331	0.100
581.800	-18.861	0.100
581.900	-24.394	0.100
582.000	-40.071	0.100
582.100	-13.319	0.100
582.200	-10.620	0.100
582.300	-14.954	0.100
582.400	-10.908	0.100
582.500	-25.670	0.100
582.600	-23.903	0.100
582.700	-16.594	0.100
582.800	-8.124	0.100
582.900	-18.230	0.100
583.000	-12.878	0.100
583.100	-32.098	0.100
583.200	-31.500	0.100
583.300	-25.002	0.100
583.400	-25.461	0.100
583.500	-15.171	0.100
583.600	-15.136	0.100
583.700	-18.595	0.100
583.800	-20.581	0.100
583.900	-15.154	0.100
584.000	-6.565	0.100
584.100	-9.271	0.100
584.200	-12.691	0.100
584.300	-33.793	0.100
584.400	-16.862	0.100
584.500	-22.561	0.100
584.600	-16.202	0.100
584.700	-10.055	0.100
584.800	-23.228	0.100
584.900	-6.241	0.100
585.000	-27.847	0.100
585.100	-3.197	0.100
585.200	-40.914	0.100
585.300	-25.789	0.100
585.400	-1.612	0.100
585.500	-7.110	0.100
585.600	-18.408	0.100
585.700	-24.138	0.100
585.800	-23.250	0.100
585.900	-26.813	0.100
586.000	-20.087	0.100
586.100	-21.899	0.100
586.200	-10.287	0.100
586.300	-26.663	0.100
586.400	-14.746	0.100
586.500	-17.089	0.100
586.600	-1.465	0.100
586.700	-22.587	0.100
586.800	-18.086	0.100
586.900	-14.023	0.100
587.000	-13.729	0.100
587.100	-21.750	0.100
587.200	-14.323	0.100
587.300	-29.731	0.100
587.400	-17.899	0.100
587.500	-23.826	0.100
587.600	-18.814	0.100
587.700	-19.726	0.100
587.800	-21.287	0.100
587.900	-10.780	0.100
588.000	-15.227	0.100
588.100	-9.089	0.100
588.200	-25.967	0.100
588.300	-19.283	0.100
588.400	-15.354	0.100
588.500	-19.146	0.100
588.600	-22.301	0.100
588.700	-9.298	0.100
588.800	-19.319	0.100
588.900	-17.919	0.100
589.000	-16.964	0.100
589.100	-24.608	0.100
589.200	-29.926	0.100
589.300	-32.674	0.100
589.400	-16.716	0.100
589.500	-15.117	0.100
589.600	-15.819	0.100
589.700	-30.396	0.100
589.800	-13.930	0.100
589.900	-21.308	0.100
590.000	-24.636	0.100
590.100	-24.883	0.100
590.200	-18.147	0.100
590.300	-19.706	0.100
590.400	-19.805	0.100
590.500	-23.615	0.100
590.600	-12.012	0.100
590.700	-17.537	0.100
590.800	-32.011	0.100
590.900	-15.156	0.100
591.000	-11.297	0.100
591.100	-18.759	0.100
591.200	-10.374	0.100
591.300	-19.017	0.100
591.400	-28.515	0.100
591.500	-15.142	0.100
591.600	-31.300	0.100
591.700	-31.291	0.100
591.800	-20.718	0.100
591.900	-27.406	0.100
592.000	-19.030	0.100
592.100	-11.449	0.100
592.200	-13.727	0.100
592.300	-23.508	0.100
592.400	-23.839	0.100
592.500	-18.528	0.100
592.600	-19.368	0.100
592.700	-3.671	0.100
592.800	-29.004	0.100
592.900	-15.660	0.100
593.000	-28.867	0.100
593.100	-18.601	0.100
593.200	-29.560	0.100
593.300	-25.036	0.100
593.400	-9.200	0.100
593.500	-17.758	0.100
593.600	-9.193	0.100
593.700	-20.252	0.100
593.800	-22.511	0.100
593.900	-8.572	0.100
594.000	-20.593	0.100
594.100	-15.334	0.100
594.200	-20.015	0.100
594.300	-16.566	0.100
594.400	-24.236	0.100
594.500	-12.740	0.100
594.600	-14.535	0.100
594.700	-16.931	0.100
594.800	-17.161	0.100
594.900	-25.089	0.100
595.000	-26.213	0.100
595.100	-16.444	0.100
595.200	-14.998	0.100
595.300	-17.131	0.100
595.400	-16.089	0.100
595.500	-14.007	0.100
595.600	-31.805	0.100
595.700	-15.771	0.100
595.800	-11.945	0.100
595.900	-21.322	0.100
596.000	-29.567	0.100
596.100	-15.902	0.100
596.200	-17.595	0.100
596.300	-17.080	0.100
596.400	-14.350	0.100
596.500	-18.279	0.100
596.600	-24.678	0.100
596.700	-18.947	0.100
596.800	-14.357	0.100
596.900	-9.755	0.100
597.000	-21.971	0.100
597.100	-34.214	0.100
597.200	-37.347	0.100
597.300	-16.970	0.100
597.400	-22.991	0.100
597.500	-24.552	0.100
597.600	-19.065	0.100
597.700	-12.745	0.100
597.800	-23.321	0.100
597.900	-33.575	0.100
598.000	-22.348	0.100
598.100	-27.296	0.100
598.200	-0.718	0.100
598.300	-3.813	0.100
598.400	-33.754	0.100
598.500	-5.244	0.100
598.600	-27.123	0.100
598.700	-18.551	0.100
598.800	-12.485	0.100
598.900	-12.999	0.100
599.000	-18.965	0.100
599.100	-9.900	0.100
599.200	-21.845	0.100
599.300	-21.378	0.100
599.400	-26.241	0.100
599.500	-15.943	0.100
599.600	-21.406	0.100
599.700	-26.512	0.100
599.800	-9.500	0.100
599.900	-7.048	0.100
600.000	-14.517	0.100
600.100	-26.456	0.100
600.200	-30.430	0.100
600.300	-35.988	0.100
600.400	-10.275	0.100
600.500	-15.041	0.100
600.600	-25.914	0.100
600.700	-22.140	0.100
600.800	-7.576	0.100
600.900	-20.121	0.100
601.000	-12.232	0.100
601.100	-17.210	0.100
601.200	-18.490	0.100
601.300	-39.913	0.100
601.400	-14.534	0.100
601.500	-27.869	0.100
601.600	-6.966	0.100
601.700	-8.087	0.100
601.800	-14.097	0.100
601.900	-20.204	0.100
602.000	-16.947	0.100
602.100	-26.394	0.100
602.200	-28.622	0.100
602.300	-22.723	0.100
602.400	-16.996	0.100
602.500	-7.518	0.100
602.600	-21.301	0.100
602.700	-21.922	0.100
602.800	-9.916	0.100
602.900	-25.879	0.100
603.000	-18.576	0.100
603.100	-12.602	0.100
603.200	-20.571	0.100
603.300	-14.987	0.100
603.400	-21.023	0.100
603.500	-35.880	0.100
603.600	-14.809	0.100
603.700	-14.197	0.100
603.800	-13.176	0.100
603.900	-23.838	0.100
604.000	-26.494	0.100
604.100	-15.172	0.100
604.200	-10.348	0.100
604.300	-24.577	0.100
604.400	-29.434	0.100
604.500	-22.781	0.100
604.600	-10.877	0.100
604.700	-18.593	0.100
604.800	-19.872	0.100
604.900	-17.453	0.100
605.000	-34.800	0.100
605.100	-23.346	0.100
605.200	-12.268	0.100
605.300	-21.472	0.100
605.400	-11.239	0.100
605.500	-20.240	0.100
605.600	-20.266	0.100
605.700	-8.793	0.100
605.800	-8.761	0.100
605.900	-21.331	0.100
606.000	-21.663	0.100
606.100	-13.076	0.100
606.200	-12.903	0.100
606.300	-26.538	0.100
606.400	-22.482	0.100
606.500	-10.401	0.100
606.600	-18.796	0.100
606.700	-28.893	0.100
606.800	-29.061	0.100
606.900	-17.655	0.100
607.000	-20.308	0.100
607.100	-26.227	0.100
607.200	-25.626	0.100
607.300	-16.247	0.100
607.400	-24.212	0.100
607.500	-12.855	0.100
607.600	-13.708	0.100
607.700	-9.668	0.100
607.800	-19.856	0.100
607.900	-16.010	0.100
608.000	-20.628	0.100
608.100	-14.886	0.100
608.200	-21.546	0.100
608.300	-11.456	0.100
608.400	-18.876	0.100
608.500	-12.461	0.100
608.600	-29.069	0.100
608.700	-17.050	0.100
608.800	-4.944	0.100
608.900	-20.825	0.100
609.000	-17.385	0.100
609.100	-4.525	0.100
609.200	-21.919	0.100
609.300	-26.881	0.100
609.400	-23.921	0.100
609.500	-19.274	0.100
609.600	-29.305	0.100
609.700	0.225	0.100
609.800	-19.002	0.100
609.900	-30.096	0.100
610.000	-23.518	0.100
610.100	-11.126	0.100
610.200	-6.954	0.100
610.300	-11.174	0.100
610.400	-20.322	0.100
610.500	-10.668	0.100
610.600	-14.045	0.100
610.700	-31.631	0.100
610.800	-18.782	0.100
610.900	-21.970	0.100
611.000	-15.899	0.100
611.100	-29.248	0.100
611.200	-18.498	0.100
611.300	-30.426	0.100
611.400	-22.070	0.100
611.500	-13.883	0.100
611.600	-18.667	0.100
611.700	-15.486	0.100
611.800	-14.111	0.100
611.900	-13.954	0.100
612.000	-24.080	0.100
612.100	-20.671	0.100
612.200	-17.569	0.100
612.300	-19.230	0.100
612.400	-19.594	0.100
612.500	-17.531	0.100
612.600	-31.593	0.100
612.700	-15.456	0.100
612.800	-12.008	0.100
612.900	-15.382	0.100
613.000	-20.228	0.100
613.100	-19.834	0.100
613.200	-34.825	0.100
613.300	-25.175	0.100
613.400	-12.176	0.100
613.500	-14.553	0.100
613.600	-16.065	0.100
613.700	-19.563	0.100
613.800	-13.805	0.100
613.900	-29.067	0.100
614.000	-30.984	0.100
614.100	-27.495	0.100
614.200	-10.204	0.100
614.300	-19.889	0.100
614.400	-15.616	0.100
614.500	-17.647	0.100
614.600	-21.968	0.100
614.700	-14.000	0.100
614.800	-16.252	0.100
614.900	-18.309	0.100
615.000	-28.440	0.100
615.100	-14.984	0.100
615.200	-29.789	0.100
615.300	-34.059	0.100
615.400	-10.988	0.100
615.500	-30.330	0.100
615.600	-16.343	0.100
615.700	-7.154	0.100
615.800	-7.382	0.100
615.900	-14.211	0.100
616.000	-20.107	0.100
616.100	-15.317	0.100
616.200	-28.830	0.100
616.300	-23.940	0.100
616.400	-14.149	0.100
616.500	-11.277	0.100
616.600	-23.863	0.100
616.700	-35.564	0.100
616.800	-4.379	0.100
616.900	-28.621	0.100
617.000	-14.350	0.100
617.100	-8.593	0.100
617.200	-1.774	0.100
617.300	-20.648	0.100
617.400	-14.833	0.100
617.500	-17.341	0.100
617.600	-26.595	0.100
617.700	-27.725	0.100
617.800	-19.846	0.100
617.900	-18.929	0.100
618.000	-16.517	0.100
618.100	-11.926	0.100
618.200	-30.021	0.100
618.300	-20.601	0.100
618.400	-25.195	0.100
618.500	-21.985	0.100
618.600	-9.079	0.100
618.700	-12.239	0.100
618.800	-17.588	0.100
618.900	-13.496	0.100
619.000	-30.286	0.100
619.100	-12.106	0.100
619.200	-30.250	0.100
619.300	-31.392	0.100
619.400	-26.269	0.100
619.500	-3.921	0.100
619.600	-18.321	0.100
619.700	-10.326	0.100
619.800	-15.291	0.100
619.900	-24.018	0.100
620.000	-15.422	0.100
620.100	-29.795	0.100
620.200	-19.432	0.100
620.300	-23.640	0.100
620.400	-17.200	0.100
620.500	-16.621	0.100
620.600	-15.881	0.100
620.700	-8.083	0.100
620.800	-23.647	0.100
620.900	-23.557	0.100
621.000	-23.255	0.100
621.100	-18.315	0.100
621.200	-24.779	0.100
621.300	-21.429	0.100
621.400	-13.789	0.100
621.500	-24.732	0.100
621.600	-32.448	0.100
621.700	-18.937	0.100
621.800	-11.555	0.100
621.900	-19.994	0.100
622.000	-16.697	0.100
622.100	-10.219	0.100
622.200	-18.882	0.100
622.300	-16.864	0.100
622.400	-21.081	0.100
622.500	-17.669	0.100
622.600	-23.672	0.100
622.700	-6.115	0.100
622.800	-28.791	0.100
622.900	-9.754	0.100
623.000	-15.191	0.100
623.100	-15.957	0.100
623.200	-15.323	0.100
623.300	-16.703	0.100
623.400	-18.338	0.100
623.500	-16.033	0.100
623.600	-9.688	0.100
623.700	-17.721	0.100
623.800	-18.458	0.100
623.900	-34.946	0.100
624.000	-18.227	0.100
624.100	-20.908	0.100
624.200	-13.945	0.100
624.300	-20.502	0.100
624.400	-16.104	0.100
624.500	-15.828	0.100
624.600	-26.546	0.100
624.700	-19.255	0.100
624.800	-7.034	0.100
624.900	-9.105	0.100
625.000	-9.207	0.100
625.100	-28.720	0.100
625.200	-16.300	0.100
625.300	-18.701	0.100
625.400	-23.169	0.100
625.500	-11.512	0.100
625.600	-28.807	0.100
625.700	-7.066	0.100
625.800	-18.006	0.100
625.900	-14.299	0.100
626.000	-17.016	0.100
626.100	-7.457	0.100
626.200	-13.647	0.100
626.300	-25.190	0.100
626.400	-27.729	0.100
626.500	-15.822	0.100
626.600	-9.467	0.100
626.700	-33.680	0.100
626.800	-16.586	0.100
626.900	-12.361	0.100
627.000	-15.682	0.100
627.100	-22.248	0.100
627.200	-37.275	0.100
627.300	-36.081	0.100
627.400	-13.638	0.100
627.500	-10.832	0.100
627.600	1.417	0.100
627.700	-20.484	0.100
627.800	-10.816	0.100
627.900	-26.100	0.100
628.000	-18.386	0.100
628.100	-9.341	0.100
628.200	-19.816	0.100
628.300	-8.670	0.100
628.400	-26.174	0.100
628.500	-14.509	0.100
628.600	-17.320	0.100
628.700	-32.031	0.100
628.800	-7.438	0.100
628.900	-7.059	0.100
629.000	-13.438	0.100
629.100	-33.577	0.100
629.200	-19.019	0.100
629.300	-17.542	0.100
629.400	-29.330	0.100
629.500	-4.556	0.100
629.600	-25.217	0.100
629.700	-25.876	0.100
629.800	-16.561	0.100
629.900	-16.763	0.100
630.000	-17.861	0.100
630.100	-28.581	0.100
630.200	-13.793	0.100
630.300	-15.359	0.100
630.400	-19.398	0.100
630.500	5.604	0.100
630.600	-10.398	0.100
630.700	-11.908	0.100
630.800	-8.726	0.100
630.900	-13.829	0.100
631.000	4.340	0.100
631.100	5.479	0.100
631.200	7.312	0.100
631.300	6.844	0.100
631.400	6.502	0.100
631.500	5.259	0.100
631.600	15.560	0.100
631.700	-2.306	0.100
631.800	7.849	0.100
631.900	9.831	0.100
632.000	7.616	0.100
632.100	25.533	0.100
632.200	13.315	0.100
632.300	7.537	0.100
632.400	9.422	0.100
632.500	6.748	0.100
632.600	9.697	0.100
632.700	19.032	0.100
632.800	6.091	0.100
632.900	4.199	0.100
633.000	8.271	0.100
633.100	6.019	0.100
633.200	20.990	0.100
633.300	9.618	0.100
633.400	0.084	0.100
633.500	10.911	0.100
633.600	8.635	0.100
633.700	13.465	0.100
633.800	14.455	0.100
633.900	12.256	0.100
634.000	16.895	0.100
634.100	2.938	0.100
634.200	2.856	0.100
634.300	11.090	0.100
634.400	7.340	0.100
634.500	27.191	0.100
634.600	18.503	0.100
634.700	9.079	0.100
634.800	15.900	0.100
634.900	0.843	0.100
635.000	0.037	0.100
635.100	10.010	0.100
635.200	4.186	0.100
635.300	7.699	0.100
635.400	10.560	0.100
635.500	10.915	0.100
635.600	13.917	0.100
635.700	5.992	0.100
635.800	2.905	0.100
635.900	8.101	0.100
636.000	7.937	0.100
636.100	2.233	0.100
636.200	13.593	0.100
636.300	13.287	0.100
636.400	-5.307	0.100
636.500	-5.525	0.100
636.600	9.505	0.100
636.700	11.628	0.100
636.800	6.129	0.100
636.900	16.332	0.100
637.000	5.284	0.100
637.100	13.057	0.100
637.200	1.445	0.100
637.300	-0.265	0.100
637.400	17.685	0.100
637.500	4.139	0.100
637.600	13.435	0.100
637.700	1.685	0.100
637.800	0.415	0.100
637.900	6.618	0.100
638.000	2.075	0.100
638.100	13.236	0.100
638.200	17.756	0.100
638.300	15.602	0.100
638.400	9.532	0.100
638.500	1.001	0.100
638.600	4.561	0.100
638.700	14.074	0.100
638.800	23.623	0.100
638.900	10.136	0.100
639.000	3.664	0.100
639.100	3.515	0.100
639.200	11.394	0.100
639.300	11.225	0.100
639.400	26.953	0.100
639.500	6.179	0.100
639.600	3.987	0.100
639.700	12.581	0.100
639.800	9.766	0.100
639.900	16.987	0.100
640.000	11.948	0.100
