time /s	I /nA	E /V
0.100	-31.300	0.101
0.200	-37.601	0.101
0.300	-30.472	0.101
0.400	-16.840	0.101
0.500	-27.599	0.101
0.600	-40.180	0.101
0.700	-26.037	0.101
0.800	-34.493	0.101
0.900	-36.030	0.101
1.000	-32.283	0.101
1.100	-30.070	0.101
1.200	-40.712	0.101
1.300	-37.480	0.101
1.400	-28.516	0.101
1.500	-34.150	0.101
1.600	-46.626	0.101
1.700	-21.310	0.101
1.800	-41.570	0.100
1.900	-27.101	0.101
2.000	-24.744	0.100
2.100	-27.073	0.101
2.200	-28.790	0.101
2.300	-36.975	0.101
2.400	-36.979	0.101
2.500	-48.165	0.101
2.600	-34.917	0.100
2.700	-44.013	0.101
2.800	-23.274	0.101
2.900	-26.648	0.101
3.000	-40.822	0.100
3.100	-31.452	0.100
3.200	-26.320	0.100
3.300	-40.799	0.101
3.400	-39.912	0.100
3.500	-39.748	0.100
3.600	-42.645	0.101
3.700	-19.747	0.100
3.800	-31.308	0.101
3.900	-36.902	0.101
4.000	-36.869	0.101
4.100	-39.091	0.100
4.200	-35.533	0.101
4.300	-32.873	0.101
4.400	-32.084	0.100
4.500	-29.799	0.101
4.600	-30.910	0.101
4.700	-34.714	0.100
4.800	-37.031	0.101
4.900	-32.807	0.101
5.000	-22.246	0.100
5.100	-33.702	0.100
5.200	-44.837	0.100
5.300	-18.298	0.101
5.400	-42.692	0.101
5.500	-39.867	0.100
5.600	-33.826	0.101
5.700	-32.003	0.101
5.800	-27.515	0.101
5.900	-26.871	0.101
6.000	-24.807	0.101
6.100	-19.384	0.101
6.200	-39.283	0.101
6.300	-41.065	0.101
6.400	-39.618	0.101
6.500	-35.069	0.101
6.600	-44.113	0.101
6.700	-27.749	0.101
6.800	-41.849	0.100
6.900	-34.630	0.100
7.000	-29.123	0.101
7.100	-35.259	0.101
7.200	-34.605	0.101
7.300	-35.650	0.101
7.400	-31.488	0.100
7.500	-39.971	0.101
7.600	-38.369	0.100
7.700	-37.259	0.100
7.800	-20.722	0.100
7.900	-25.108	0.101
8.000	-30.484	0.100
8.100	-25.708	0.101
8.200	-33.129	0.101
8.300	-31.777	0.101
8.400	-44.609	0.101
8.500	-35.408	0.101
8.600	-31.631	0.101
8.700	-34.165	0.100
8.800	-42.219	0.101
8.900	-36.881	0.101
9.000	-35.732	0.101
9.100	-29.570	0.101
9.200	-42.693	0.101
9.300	-32.593	0.100
9.400	-22.137	0.101
9.500	-30.303	0.101
9.600	-35.956	0.100
9.700	-37.116	0.101
9.800	-34.354	0.101
9.900	-33.234	0.100
10.000	-43.628	0.101
10.100	-40.165	0.100
10.200	-28.585	0.101
10.300	-28.819	0.101
10.400	-24.551	0.101
10.500	-30.179	0.100
10.600	-30.432	0.100
10.700	-32.078	0.101
10.800	-27.217	0.101
10.900	-27.141	0.101
11.000	-27.812	0.101
11.100	-38.192	0.100
11.200	-28.073	0.101
11.300	-29.787	0.100
11.400	-26.926	0.101
11.500	-20.765	0.101
11.600	-28.710	0.101
11.700	-33.994	0.100
11.800	-38.109	0.101
11.900	-34.945	0.101
12.000	-27.979	0.101
12.100	-26.436	0.101
12.200	-33.200	0.101
12.300	-36.056	0.101
12.400	-29.700	0.101
12.500	-42.286	0.100
12.600	-26.995	0.101
12.700	-36.720	0.100
12.800	-39.382	0.101
12.900	-32.891	0.101
13.000	-32.461	0.101
13.100	-27.514	0.100
13.200	-26.577	0.101
13.300	-34.282	0.100
13.400	-41.962	0.101
13.500	-36.853	0.101
13.600	-32.528	0.101
13.700	-28.032	0.101
13.800	-39.603	0.101
13.900	-33.818	0.101
14.000	-43.544	0.101
14.100	-29.294	0.101
14.200	-31.069	0.101
14.300	-42.444	0.101
14.400	-32.037	0.101
14.500	-36.070	0.101
14.600	-32.168	0.100
14.700	-44.719	0.100
14.800	-26.510	0.101
14.900	-53.917	0.100
15.000	-21.782	0.101
15.100	-28.208	0.101
15.200	-20.550	0.101
15.300	-32.278	0.101
15.400	-42.280	0.101
15.500	-32.300	0.101
15.600	-32.715	0.100
15.700	-25.171	0.101
15.800	-17.033	0.101
15.900	-25.965	0.101
16.000	-33.555	0.101
16.100	-40.066	0.101
16.200	-39.264	0.101
16.300	-25.175	0.101
16.400	-22.981	0.101
16.500	-32.921	0.101
16.600	-36.061	0.101
16.700	-44.022	0.101
16.800	-27.966	0.101
16.900	-32.932	0.100
17.000	-28.934	0.101
17.100	-44.150	0.101
17.200	-27.683	0.100
17.300	-35.199	0.100
17.400	-40.390	0.101
17.500	-23.064	0.100
17.600	-31.295	0.101
17.700	-27.403	0.100
17.800	-31.234	0.101
17.900	-29.067	0.100
18.000	-39.529	0.101
18.100	-45.944	0.101
18.200	-22.090	0.101
18.300	-25.032	0.101
18.400	-28.205	0.101
18.500	-24.435	0.101
18.600	-28.725	0.101
18.700	-32.766	0.101
18.800	-31.749	0.101
18.900	-33.697	0.101
19.000	-34.407	0.101
19.100	-31.126	0.101
19.200	-18.379	0.101
19.300	-18.861	0.101
19.400	-32.986	0.101
19.500	-18.867	0.101
19.600	-39.675	0.100
19.700	-32.630	0.101
19.800	-36.413	0.101
19.900	-33.316	0.101
20.000	-43.572	0.101
20.100	-40.666	0.101
20.200	-39.117	0.101
20.300	-30.520	0.100
20.400	-26.774	0.100
20.500	-30.981	0.101
20.600	-45.561	0.100
20.700	-33.151	0.101
20.800	-18.241	0.101
20.900	-41.733	0.101
21.000	-40.670	0.101
21.100	-29.080	0.101
21.200	-23.069	0.101
21.300	-41.118	0.101
21.400	-30.236	0.101
21.500	-20.355	0.101
21.600	-36.625	0.100
21.700	-33.589	0.101
21.800	-43.740	0.101
21.900	-32.279	0.101
22.000	-26.234	0.101
22.100	-25.161	0.100
22.200	-28.748	0.101
22.300	-44.690	0.100
22.400	-28.193	0.101
22.500	-27.327	0.100
22.600	-35.779	0.101
22.700	-35.714	0.101
22.800	-27.525	0.101
22.900	-33.766	0.101
23.000	-25.614	0.101
23.100	-33.950	0.101
23.200	-20.293	0.101
23.300	-42.238	0.101
23.400	-33.816	0.101
23.500	-18.881	0.101
23.600	-31.687	0.101
23.700	-38.601	0.101
23.800	-40.344	0.101
23.900	-37.968	0.100
24.000	-31.224	0.101
24.100	-17.864	0.101
24.200	-37.379	0.101
24.300	-36.006	0.101
24.400	-35.496	0.100
24.500	-17.592	0.101
24.600	-31.552	0.100
24.700	-20.939	0.101
24.800	-33.734	0.101
24.900	-33.723	0.101
25.000	-35.059	0.100
25.100	-37.507	0.101
25.200	-36.393	0.101
25.300	-32.353	0.101
25.400	-31.720	0.101
25.500	-42.114	0.101
25.600	-18.057	0.101
25.700	-18.903	0.101
25.800	-37.557	0.101
25.900	-17.752	0.100
26.000	-22.912	0.100
26.100	-33.220	0.101
26.200	-29.055	0.101
26.300	-22.951	0.101
26.400	-34.107	0.100
26.500	-32.761	0.101
26.600	-31.336	0.101
26.700	-25.649	0.100
26.800	-41.684	0.100
26.900	-31.808	0.100
27.000	-34.063	0.101
27.100	-33.247	0.100
27.200	-41.368	0.100
27.300	-37.502	0.101
27.400	-30.449	0.101
27.500	-31.015	0.100
27.600	-25.700	0.101
27.700	-21.412	0.100
27.800	-38.500	0.101
27.900	-42.436	0.101
28.000	-34.153	0.101
28.100	-28.605	0.101
28.200	-34.633	0.101
28.300	-29.919	0.101
28.400	-32.689	0.100
28.500	-27.499	0.100
28.600	-33.121	0.101
28.700	-25.016	0.101
28.800	-16.008	0.101
28.900	-33.477	0.101
29.000	-30.577	0.101
29.100	-29.528	0.101
29.200	-39.039	0.101
29.300	-14.776	0.101
29.400	-42.989	0.101
29.500	-26.949	0.101
29.600	-40.433	0.101
29.700	-41.857	0.101
29.800	-24.841	0.101
29.900	-42.298	0.101
30.000	-36.644	0.101
30.100	-25.329	0.100
30.200	-22.617	0.101
30.300	-9.711	0.101
30.400	-14.536	0.101
30.500	-5.391	0.101
30.600	-6.790	0.101
30.700	2.173	0.101
30.800	13.318	0.101
30.900	12.559	0.101
31.000	22.854	0.101
31.100	21.233	0.101
31.200	13.892	0.101
31.300	17.209	0.101
31.400	21.788	0.101
31.500	18.129	0.101
31.600	18.453	0.101
31.700	28.168	0.101
31.800	8.644	0.101
31.900	18.233	0.101
32.000	1.498	0.101
32.100	12.752	0.101
32.200	13.430	0.101
32.300	27.920	0.101
32.400	18.700	0.101
32.500	3.945	0.101
32.600	20.220	0.101
32.700	18.376	0.101
32.800	7.777	0.101
32.900	8.204	0.101
33.000	2.958	0.101
33.100	9.452	0.101
33.200	9.263	0.101
33.300	17.271	0.100
33.400	2.476	0.101
33.500	11.443	0.101
33.600	3.577	0.101
33.700	-10.428	0.100
33.800	-0.110	0.100
33.900	11.040	0.101
34.000	6.206	0.100
34.100	14.633	0.101
34.200	-2.427	0.100
34.300	-2.464	0.100
34.400	-0.077	0.100
34.500	6.335	0.101
34.600	1.976	0.101
34.700	-9.872	0.101
34.800	-1.162	0.101
34.900	-2.492	0.101
35.000	-12.753	0.101
35.100	2.748	0.100
35.200	1.882	0.101
35.300	9.162	0.101
35.400	-1.662	0.101
35.500	-7.660	0.101
35.600	-6.047	0.101
35.700	8.059	0.101
35.800	-12.222	0.100
35.900	-2.693	0.101
36.000	-4.846	0.100
36.100	5.491	0.100
36.200	0.534	0.100
36.300	-3.663	0.101
36.400	-10.903	0.101
36.500	-4.429	0.101
36.600	-7.194	0.101
36.700	-4.319	0.100
36.800	-4.574	0.101
36.900	-13.869	0.101
37.000	-9.919	0.101
37.100	5.080	0.101
37.200	-2.806	0.101
37.300	0.117	0.101
37.400	-2.932	0.101
37.500	-3.940	0.100
37.600	1.728	0.101
37.700	-9.301	0.101
37.800	2.007	0.101
37.900	1.285	0.101
38.000	1.647	0.100
38.100	8.490	0.101
38.200	3.026	0.101
38.300	1.058	0.101
38.400	-5.990	0.101
38.500	11.782	0.101
38.600	-1.071	0.101
38.700	5.507	0.101
38.800	12.352	0.101
38.900	4.532	0.101
39.000	16.976	0.101
39.100	11.739	0.101
39.200	8.268	0.101
39.300	-9.158	0.101
39.400	9.393	0.101
39.500	9.641	0.101
39.600	1.050	0.101
39.700	9.918	0.101
39.800	15.552	0.101
39.900	15.700	0.101
40.000	4.512	0.101
40.100	4.524	0.101
40.200	3.046	0.101
40.300	-1.605	0.101
40.400	6.009	0.101
40.500	2.986	0.101
40.600	1.840	0.101
40.700	8.823	0.101
40.800	7.944	0.101
40.900	10.863	0.101
41.000	13.493	0.100
41.100	11.538	0.101
41.200	13.035	0.101
41.300	21.021	0.101
41.400	11.367	0.101
41.500	13.824	0.101
41.600	5.135	0.101
41.700	12.109	0.101
41.800	16.704	0.101
41.900	18.784	0.101
42.000	10.098	0.101
42.100	4.329	0.101
42.200	11.862	0.101
42.300	26.153	0.101
42.400	-0.767	0.100
42.500	18.228	0.101
42.600	13.085	0.101
42.700	9.446	0.101
42.800	12.210	0.100
42.900	13.463	0.101
43.000	25.482	0.101
43.100	21.655	0.100
43.200	17.226	0.101
43.300	17.805	0.101
43.400	18.528	0.101
43.500	22.328	0.101
43.600	6.017	0.101
43.700	23.641	0.101
43.800	22.095	0.101
43.900	29.742	0.101
44.000	35.344	0.101
44.100	12.173	0.101
44.200	33.562	0.101
44.300	33.138	0.101
44.400	23.725	0.101
44.500	12.981	0.101
44.600	36.783	0.101
44.700	33.533	0.101
44.800	23.119	0.101
44.900	24.023	0.101
45.000	34.755	0.101
45.100	20.679	0.100
45.200	26.241	0.101
45.300	25.697	0.101
45.400	35.593	0.101
45.500	41.986	0.101
45.600	30.473	0.101
45.700	38.256	0.101
45.800	44.931	0.101
45.900	31.954	0.101
46.000	32.880	0.101
46.100	40.159	0.101
46.200	39.196	0.101
46.300	41.760	0.101
46.400	24.062	0.101
46.500	40.949	0.101
46.600	39.133	0.101
46.700	46.162	0.101
46.800	40.966	0.101
46.900	35.811	0.101
47.000	31.828	0.101
47.100	49.940	0.101
47.200	48.150	0.101
47.300	38.466	0.101
47.400	30.927	0.101
47.500	45.626	0.101
47.600	41.808	0.101
47.700	40.039	0.101
47.800	53.278	0.101
47.900	48.567	0.101
48.000	33.258	0.100
48.100	51.715	0.101
48.200	43.024	0.101
48.300	42.571	0.101
48.400	43.446	0.100
48.500	44.059	0.101
48.600	50.262	0.101
48.700	38.481	0.100
48.800	37.553	0.101
48.900	51.786	0.101
49.000	42.801	0.101
49.100	40.320	0.101
49.200	51.486	0.101
49.300	38.768	0.101
49.400	58.952	0.100
49.500	52.051	0.100
49.600	42.337	0.100
49.700	35.146	0.101
49.800	55.976	0.101
49.900	55.733	0.100
50.000	48.768	0.100
50.100	52.217	0.101
50.200	47.557	0.100
50.300	49.081	0.101
50.400	59.548	0.100
50.500	42.046	0.100
50.600	56.274	0.100
50.700	42.047	0.101
50.800	48.440	0.101
50.900	50.200	0.100
51.000	42.988	0.101
51.100	52.823	0.101
51.200	44.129	0.101
51.300	49.235	0.101
51.400	58.426	0.101
51.500	55.530	0.101
51.600	50.293	0.100
51.700	32.756	0.100
51.800	56.261	0.100
51.900	52.253	0.101
52.000	51.520	0.100
52.100	53.097	0.100
52.200	62.883	0.101
52.300	60.591	0.101
52.400	41.438	0.100
52.500	46.933	0.101
52.600	55.164	0.101
52.700	49.730	0.101
52.800	57.679	0.100
52.900	55.567	0.101
53.000	61.350	0.101
53.100	37.018	0.101
53.200	67.666	0.101
53.300	48.074	0.100
53.400	55.410	0.101
53.500	56.086	0.100
53.600	53.718	0.100
53.700	52.002	0.101
53.800	54.996	0.100
53.900	61.131	0.100
54.000	57.807	0.101
54.100	55.925	0.101
54.200	64.239	0.101
54.300	50.204	0.100
54.400	67.831	0.101
54.500	41.883	0.101
54.600	61.370	0.100
54.700	35.807	0.101
54.800	69.195	0.101
54.900	58.325	0.101
55.000	54.658	0.101
55.100	41.621	0.101
55.200	51.534	0.101
55.300	49.821	0.101
55.400	48.018	0.100
55.500	54.118	0.101
55.600	56.051	0.100
55.700	40.872	0.101
55.800	59.374	0.100
55.900	61.459	0.101
56.000	48.741	0.100
56.100	43.721	0.101
56.200	51.957	0.100
56.300	46.214	0.101
56.400	61.819	0.100
56.500	50.360	0.101
56.600	57.844	0.101
56.700	55.916	0.101
56.800	58.498	0.101
56.900	51.378	0.100
57.000	49.104	0.101
57.100	52.044	0.101
57.200	63.490	0.101
57.300	52.681	0.101
57.400	57.719	0.101
57.500	45.560	0.101
57.600	48.297	0.100
57.700	45.622	0.101
57.800	51.685	0.101
57.900	41.386	0.101
58.000	57.227	0.101
58.100	42.275	0.101
58.200	46.989	0.101
58.300	60.448	0.101
58.400	52.637	0.101
58.500	49.493	0.101
58.600	51.682	0.101
58.700	56.397	0.100
58.800	62.745	0.101
58.900	38.378	0.101
59.000	44.310	0.100
59.100	49.897	0.101
59.200	49.009	0.101
59.300	49.717	0.101
59.400	45.297	0.100
59.500	45.228	0.100
59.600	51.401	0.101
59.700	44.947	0.101
59.800	62.805	0.100
59.900	50.437	0.100
60.000	44.145	0.101
60.100	51.417	0.101
60.200	56.570	0.101
60.300	39.709	0.100
60.400	36.089	0.101
60.500	38.694	0.101
60.600	32.193	0.101
60.700	43.823	0.101
60.800	41.963	0.101
60.900	55.065	0.101
61.000	51.736	0.101
61.100	48.945	0.101
61.200	47.456	0.101
61.300	51.339	0.101
61.400	50.278	0.101
61.500	40.638	0.101
61.600	52.931	0.101
61.700	45.218	0.101
61.800	39.277	0.101
61.900	39.106	0.101
62.000	49.829	0.101
62.100	48.760	0.101
62.200	55.660	0.100
62.300	48.417	0.101
62.400	47.113	0.101
62.500	59.621	0.101
62.600	37.271	0.101
62.700	48.892	0.101
62.800	43.466	0.101
62.900	41.987	0.101
63.000	50.140	0.101
63.100	43.577	0.101
63.200	37.013	0.101
63.300	39.343	0.101
63.400	44.214	0.101
63.500	45.921	0.101
63.600	49.499	0.101
63.700	45.196	0.101
63.800	42.560	0.101
63.900	39.303	0.101
64.000	50.890	0.101
64.100	47.410	0.101
64.200	45.977	0.101
64.300	44.466	0.101
64.400	40.778	0.101
64.500	50.847	0.101
64.600	40.632	0.101
64.700	49.998	0.101
64.800	37.781	0.101
64.900	41.241	0.101
65.000	45.294	0.101
65.100	50.048	0.101
65.200	29.187	0.101
65.300	30.751	0.101
65.400	42.951	0.101
65.500	44.677	0.101
65.600	45.835	0.101
65.700	43.123	0.101
65.800	27.352	0.101
65.900	44.076	0.101
66.000	46.179	0.101
66.100	49.974	0.100
66.200	54.727	0.101
66.300	35.949	0.101
66.400	40.517	0.101
66.500	47.191	0.101
66.600	46.501	0.101
66.700	39.901	0.101
66.800	50.817	0.101
66.900	40.590	0.101
67.000	32.476	0.101
67.100	50.651	0.101
67.200	54.175	0.101
67.300	40.766	0.101
67.400	36.014	0.101
67.500	49.392	0.101
67.600	49.612	0.101
67.700	46.433	0.101
67.800	35.561	0.101
67.900	52.384	0.101
68.000	35.496	0.101
68.100	39.784	0.101
68.200	37.110	0.101
68.300	44.378	0.101
68.400	39.162	0.101
68.500	49.362	0.101
68.600	40.706	0.101
68.700	45.881	0.101
68.800	46.371	0.101
68.900	40.307	0.101
69.000	48.971	0.101
69.100	45.643	0.101
69.200	43.242	0.101
69.300	48.663	0.101
69.400	42.030	0.101
69.500	46.316	0.101
69.600	29.290	0.101
69.700	28.890	0.101
69.800	36.143	0.101
69.900	52.621	0.101
70.000	39.851	0.101
70.100	40.949	0.100
70.200	36.003	0.101
70.300	39.864	0.101
70.400	31.567	0.101
70.500	34.988	0.101
70.600	37.730	0.101
70.700	43.696	0.101
70.800	39.976	0.101
70.900	60.384	0.101
71.000	45.926	0.101
71.100	42.994	0.101
71.200	44.468	0.101
71.300	39.365	0.101
71.400	45.891	0.101
71.500	37.455	0.101
71.600	34.752	0.101
71.700	37.735	0.101
71.800	44.793	0.100
71.900	52.405	0.101
72.000	47.838	0.101
72.100	41.810	0.100
72.200	38.883	0.101
72.300	31.166	0.101
72.400	54.242	0.101
72.500	38.229	0.101
72.600	50.239	0.101
72.700	36.283	0.101
72.800	39.813	0.101
72.900	34.768	0.101
73.000	47.386	0.101
73.100	48.799	0.101
73.200	49.756	0.101
73.300	41.534	0.101
73.400	39.382	0.101
73.500	40.079	0.101
73.600	41.853	0.101
73.700	44.681	0.101
73.800	47.750	0.101
73.900	36.244	0.101
74.000	38.495	0.101
74.100	39.382	0.101
74.200	40.828	0.101
74.300	35.805	0.101
74.400	47.085	0.101
74.500	42.406	0.101
74.600	44.598	0.101
74.700	37.273	0.101
74.800	36.970	0.101
74.900	46.357	0.101
75.000	33.633	0.101
75.100	46.603	0.101
75.200	43.263	0.101
75.300	42.240	0.101
75.400	54.884	0.101
75.500	51.181	0.101
75.600	45.852	0.101
75.700	43.518	0.101
75.800	39.671	0.101
75.900	42.732	0.101
76.000	31.823	0.100
76.100	50.807	0.101
76.200	44.859	0.101
76.300	29.066	0.101
76.400	46.005	0.101
76.500	40.336	0.101
76.600	48.365	0.101
76.700	34.888	0.101
76.800	38.829	0.101
76.900	32.084	0.101
77.000	39.200	0.101
77.100	44.715	0.101
77.200	46.692	0.101
77.300	50.773	0.101
77.400	43.911	0.101
77.500	30.295	0.101
77.600	33.696	0.101
77.700	30.011	0.101
77.800	40.539	0.101
77.900	36.631	0.101
78.000	41.773	0.101
78.100	31.225	0.101
78.200	39.329	0.101
78.300	37.365	0.101
78.400	47.498	0.100
78.500	38.665	0.101
78.600	34.785	0.100
78.700	44.972	0.101
78.800	46.958	0.101
78.900	37.029	0.101
79.000	41.366	0.101
79.100	44.722	0.101
79.200	48.512	0.101
79.300	48.306	0.101
79.400	40.276	0.101
79.500	25.874	0.101
79.600	41.711	0.101
79.700	40.028	0.101
79.800	40.174	0.101
79.900	35.035	0.101
80.000	43.166	0.100
80.100	48.938	0.101
80.200	39.954	0.100
80.300	30.987	0.101
80.400	42.187	0.101
80.500	33.178	0.101
80.600	47.855	0.101
80.700	45.890	0.101
80.800	40.579	0.101
80.900	36.802	0.101
81.000	39.013	0.101
81.100	45.192	0.101
81.200	41.054	0.101
81.300	39.996	0.101
81.400	38.064	0.101
81.500	43.520	0.101
81.600	28.509	0.101
81.700	22.820	0.101
81.800	49.120	0.101
81.900	32.669	0.101
82.000	33.229	0.101
82.100	43.996	0.101
82.200	40.574	0.101
82.300	33.711	0.101
82.400	49.342	0.101
82.500	40.186	0.101
82.600	35.209	0.101
82.700	40.861	0.101
82.800	42.018	0.101
82.900	37.905	0.101
83.000	44.050	0.101
83.100	28.345	0.101
83.200	37.245	0.101
83.300	33.506	0.101
83.400	37.578	0.101
83.500	40.799	0.101
83.600	44.285	0.101
83.700	39.518	0.101
83.800	37.091	0.101
83.900	34.355	0.101
84.000	39.947	0.101
84.100	37.985	0.101
84.200	35.593	0.101
84.300	39.455	0.101
84.400	40.874	0.101
84.500	37.705	0.101
84.600	39.179	0.101
84.700	36.025	0.101
84.800	37.295	0.101
84.900	36.946	0.101
85.000	42.022	0.101
85.100	42.709	0.101
85.200	42.618	0.101
85.300	30.855	0.101
85.400	31.906	0.101
85.500	49.447	0.101
85.600	46.828	0.101
85.700	43.956	0.101
85.800	30.848	0.101
85.900	44.270	0.101
86.000	47.255	0.101
86.100	56.409	0.101
86.200	30.984	0.101
86.300	41.418	0.101
86.400	35.617	0.101
86.500	29.007	0.101
86.600	33.185	0.101
86.700	51.660	0.101
86.800	30.679	0.101
86.900	20.134	0.101
87.000	44.262	0.101
87.100	40.712	0.101
87.200	32.162	0.101
87.300	36.070	0.101
87.400	31.129	0.101
87.500	36.761	0.101
87.600	47.265	0.101
87.700	34.362	0.101
87.800	31.597	0.101
87.900	41.818	0.101
88.000	37.413	0.101
88.100	39.312	0.101
88.200	46.745	0.101
88.300	33.658	0.101
88.400	31.730	0.101
88.500	36.557	0.101
88.600	45.477	0.101
88.700	36.293	0.101
88.800	39.953	0.101
88.900	37.831	0.101
89.000	38.915	0.101
89.100	43.138	0.101
89.200	35.954	0.101
89.300	32.450	0.101
89.400	47.065	0.101
89.500	41.946	0.101
89.600	36.188	0.101
89.700	33.194	0.101
89.800	42.403	0.101
89.900	40.432	0.101
90.000	43.708	0.101
90.100	17.024	0.101
90.200	20.608	0.101
90.300	17.380	0.101
90.400	13.791	0.101
90.500	21.812	0.101
90.600	4.495	0.101
90.700	11.161	0.101
90.800	8.136	0.101
90.900	-2.632	0.101
91.000	13.178	0.101
91.100	-2.544	0.101
91.200	-0.589	0.101
91.300	3.175	0.101
91.400	-14.014	0.101
91.500	1.504	0.101
91.600	-22.015	0.101
91.700	5.653	0.101
91.800	-17.726	0.101
91.900	-16.487	0.101
92.000	-11.271	0.101
92.100	-11.151	0.101
92.200	-12.474	0.101
92.300	-2.552	0.101
92.400	-24.012	0.101
92.500	-0.975	0.100
92.600	-16.157	0.101
92.700	-23.199	0.101
92.800	-24.849	0.101
92.900	-8.718	0.101
93.000	-25.545	0.100
93.100	-7.993	0.101
93.200	-17.290	0.101
93.300	-21.789	0.101
93.400	-30.607	0.101
93.500	-21.523	0.100
93.600	-25.765	0.101
93.700	-18.693	0.101
93.800	-22.778	0.101
93.900	-26.046	0.101
94.000	-25.441	0.101
94.100	-23.811	0.101
94.200	-29.048	0.101
94.300	-24.983	0.101
94.400	-15.455	0.101
94.500	-17.742	0.101
94.600	-26.880	0.101
94.700	-28.621	0.101
94.800	-18.854	0.101
94.900	-38.046	0.101
95.000	-33.575	0.101
95.100	-19.146	0.101
95.200	-31.039	0.101
95.300	-25.437	0.101
95.400	-24.550	0.101
95.500	-15.810	0.101
95.600	-19.446	0.101
95.700	-26.473	0.101
95.800	-30.176	0.101
95.900	-32.767	0.101
96.000	-39.710	0.101
96.100	-24.876	0.101
96.200	-24.011	0.101
96.300	-19.040	0.101
96.400	-31.757	0.101
96.500	-23.042	0.101
96.600	-16.841	0.101
96.700	-24.717	0.101
96.800	-17.575	0.101
96.900	-37.572	0.101
97.000	-34.389	0.101
97.100	-27.638	0.101
97.200	-23.201	0.101
97.300	-25.526	0.101
97.400	-36.054	0.101
97.500	-20.521	0.101
97.600	-31.277	0.101
97.700	-30.210	0.101
97.800	-23.013	0.101
97.900	-24.066	0.101
98.000	-30.612	0.101
98.100	-17.066	0.101
98.200	-32.202	0.101
98.300	-32.659	0.101
98.400	-11.008	0.101
98.500	-21.438	0.101
98.600	-16.039	0.101
98.700	-31.632	0.101
98.800	-28.167	0.101
98.900	-23.489	0.101
99.000	-22.319	0.101
99.100	-25.504	0.101
99.200	-34.714	0.101
99.300	-38.268	0.101
99.400	-8.134	0.101
99.500	-23.998	0.101
99.600	-34.655	0.101
99.700	-32.993	0.101
99.800	-23.582	0.101
99.900	-14.255	0.101
100.000	-19.013	0.101
100.100	-26.657	0.101
100.200	-3.155	0.101
100.300	3.665	0.101
100.400	17.786	0.101
100.500	30.405	0.101
100.600	25.263	0.101
100.700	34.648	0.101
100.800	37.962	0.101
100.900	24.579	0.101
101.000	49.860	0.101
101.100	47.184	0.101
101.200	55.733	0.101
101.300	48.940	0.101
101.400	31.814	0.101
101.500	68.110	0.101
101.600	50.970	0.101
101.700	41.987	0.101
101.800	55.581	0.101
101.900	40.706	0.101
102.000	38.579	0.101
102.100	45.960	0.101
102.200	45.408	0.101
102.300	29.905	0.101
102.400	41.805	0.101
102.500	32.693	0.101
102.600	36.589	0.101
102.700	18.366	0.101
102.800	17.209	0.101
102.900	34.543	0.101
103.000	30.565	0.101
103.100	14.483	0.101
103.200	19.687	0.101
103.300	18.846	0.101
103.400	8.746	0.101
103.500	27.029	0.101
103.600	12.453	0.101
103.700	11.997	0.101
103.800	16.698	0.101
103.900	22.924	0.101
104.000	15.562	0.101
104.100	21.091	0.101
104.200	12.775	0.101
104.300	11.454	0.101
104.400	17.352	0.101
104.500	20.151	0.101
104.600	17.887	0.101
104.700	16.821	0.101
104.800	10.156	0.101
104.900	2.640	0.101
105.000	8.940	0.101
105.100	1.071	0.101
105.200	20.177	0.101
105.300	19.855	0.101
105.400	12.945	0.101
105.500	9.461	0.101
105.600	12.663	0.101
105.700	13.679	0.101
105.800	5.375	0.101
105.900	16.907	0.101
106.000	31.979	0.101
106.100	5.751	0.101
106.200	13.615	0.101
106.300	24.262	0.101
106.400	19.471	0.101
106.500	7.798	0.101
106.600	13.462	0.101
106.700	15.327	0.101
106.800	23.986	0.101
106.900	28.191	0.101
107.000	18.048	0.101
107.100	11.846	0.101
107.200	17.550	0.101
107.300	11.059	0.101
107.400	17.506	0.101
107.500	23.420	0.101
107.600	16.509	0.101
107.700	26.136	0.101
107.800	29.269	0.101
107.900	26.884	0.101
108.000	29.100	0.101
108.100	20.126	0.101
108.200	3.794	0.101
108.300	26.062	0.101
108.400	22.106	0.101
108.500	29.726	0.101
108.600	29.187	0.101
108.700	31.582	0.101
108.800	17.593	0.101
108.900	39.104	0.101
109.000	27.279	0.101
109.100	28.316	0.101
109.200	26.981	0.101
109.300	25.547	0.101
109.400	24.321	0.101
109.500	17.961	0.101
109.600	35.350	0.101
109.700	34.399	0.101
109.800	32.130	0.101
109.900	21.988	0.101
110.000	17.864	0.101
110.100	27.040	0.100
110.200	35.057	0.101
110.300	32.754	0.101
110.400	53.064	0.101
110.500	36.947	0.101
110.600	25.471	0.101
110.700	26.233	0.101
110.800	35.719	0.101
110.900	32.643	0.101
111.000	37.840	0.101
111.100	24.931	0.101
111.200	30.563	0.101
111.300	45.223	0.101
111.400	30.473	0.101
111.500	29.053	0.101
111.600	35.388	0.101
111.700	30.130	0.101
111.800	26.858	0.101
111.900	43.717	0.101
112.000	40.399	0.101
112.100	33.117	0.101
112.200	33.656	0.101
112.300	19.710	0.101
112.400	41.483	0.101
112.500	35.544	0.101
112.600	48.493	0.101
112.700	28.111	0.101
112.800	29.418	0.101
112.900	35.873	0.101
113.000	32.569	0.101
113.100	21.914	0.101
113.200	33.893	0.101
113.300	30.711	0.101
113.400	30.448	0.101
113.500	44.682	0.101
113.600	35.859	0.101
113.700	21.110	0.101
113.800	35.816	0.101
113.900	39.434	0.101
114.000	48.584	0.101
114.100	34.393	0.101
114.200	31.036	0.101
114.300	17.609	0.101
114.400	33.855	0.101
114.500	34.749	0.101
114.600	36.361	0.101
114.700	34.630	0.101
114.800	27.920	0.101
114.900	46.733	0.101
115.000	18.715	0.101
115.100	31.388	0.101
115.200	35.237	0.101
115.300	33.387	0.101
115.400	29.995	0.101
115.500	34.846	0.101
115.600	45.818	0.101
115.700	17.335	0.101
115.800	42.397	0.101
115.900	29.376	0.101
116.000	38.140	0.101
116.100	38.447	0.101
116.200	26.864	0.101
116.300	38.086	0.101
116.400	21.305	0.101
116.500	37.442	0.101
116.600	42.981	0.101
116.700	44.085	0.101
116.800	26.609	0.101
116.900	28.213	0.101
117.000	37.997	0.101
117.100	44.500	0.101
117.200	31.546	0.101
117.300	28.671	0.101
117.400	32.109	0.101
117.500	40.372	0.101
117.600	25.688	0.101
117.700	34.818	0.101
117.800	37.229	0.101
117.900	39.712	0.101
118.000	40.747	0.101
118.100	33.227	0.101
118.200	32.733	0.101
118.300	36.688	0.101
118.400	27.204	0.101
118.500	31.539	0.101
118.600	34.746	0.101
118.700	29.362	0.101
118.800	26.423	0.101
118.900	34.426	0.101
119.000	28.334	0.100
119.100	42.875	0.101
119.200	31.182	0.101
119.300	46.228	0.101
119.400	37.051	0.101
119.500	28.803	0.101
119.600	33.545	0.101
119.700	26.159	0.101
119.800	37.648	0.101
119.900	19.423	0.101
120.000	34.975	0.101
120.100	25.124	0.101
120.200	49.503	0.101
120.300	37.851	0.101
120.400	36.794	0.101
120.500	36.838	0.101
120.600	37.411	0.101
120.700	33.068	0.101
120.800	33.949	0.101
120.900	30.470	0.101
121.000	34.523	0.101
121.100	49.573	0.101
121.200	43.847	0.101
121.300	41.331	0.101
121.400	36.255	0.101
121.500	31.199	0.101
121.600	28.465	0.101
121.700	42.926	0.101
121.800	32.747	0.101
121.900	36.725	0.101
122.000	32.423	0.101
122.100	36.659	0.101
122.200	19.622	0.101
122.300	47.656	0.101
122.400	33.603	0.101
122.500	20.958	0.101
122.600	42.569	0.101
122.700	41.570	0.101
122.800	28.863	0.101
122.900	25.130	0.101
123.000	35.333	0.101
123.100	33.070	0.101
123.200	27.720	0.101
123.300	30.959	0.101
123.400	49.171	0.101
123.500	54.748	0.101
123.600	32.427	0.101
123.700	33.413	0.101
123.800	26.628	0.101
123.900	33.939	0.101
124.000	41.031	0.101
124.100	37.928	0.101
124.200	32.518	0.101
124.300	33.022	0.101
124.400	25.209	0.101
124.500	38.858	0.101
124.600	42.116	0.101
124.700	44.364	0.101
124.800	38.764	0.101
124.900	19.795	0.101
125.000	32.422	0.101
125.100	33.166	0.101
125.200	27.091	0.100
125.300	47.302	0.101
125.400	45.704	0.101
125.500	31.056	0.101
125.600	41.985	0.100
125.700	27.319	0.101
125.800	35.778	0.101
125.900	19.357	0.101
126.000	20.701	0.101
126.100	38.833	0.101
126.200	26.062	0.101
126.300	32.322	0.101
126.400	42.298	0.100
126.500	31.385	0.101
126.600	35.512	0.101
126.700	37.484	0.101
126.800	36.135	0.101
126.900	25.666	0.100
127.000	24.146	0.101
127.100	29.631	0.100
127.200	49.018	0.101
127.300	40.239	0.100
127.400	24.114	0.101
127.500	31.694	0.101
127.600	35.802	0.101
127.700	38.037	0.100
127.800	39.505	0.101
127.900	28.866	0.101
128.000	42.818	0.101
128.100	42.822	0.101
128.200	29.548	0.101
128.300	31.335	0.101
128.400	34.168	0.100
128.500	40.213	0.101
128.600	30.790	0.101
128.700	43.849	0.101
128.800	40.494	0.101
128.900	34.238	0.101
129.000	39.633	0.101
129.100	33.107	0.101
129.200	36.078	0.101
129.300	37.427	0.101
129.400	43.671	0.101
129.500	29.366	0.101
129.600	27.282	0.101
129.700	27.306	0.101
129.800	18.067	0.101
129.900	36.736	0.101
130.000	27.615	0.101
130.100	41.034	0.101
130.200	25.800	0.101
130.300	52.202	0.101
130.400	38.863	0.101
130.500	26.505	0.101
130.600	36.721	0.101
130.700	27.095	0.101
130.800	35.680	0.101
130.900	33.181	0.101
131.000	36.449	0.101
131.100	26.165	0.101
131.200	42.759	0.101
131.300	27.227	0.101
131.400	33.559	0.101
131.500	40.878	0.101
131.600	29.880	0.101
131.700	40.482	0.101
131.800	27.990	0.101
131.900	36.621	0.101
132.000	32.077	0.100
132.100	33.902	0.101
132.200	38.683	0.101
132.300	41.588	0.101
132.400	36.610	0.101
132.500	33.320	0.101
132.600	47.773	0.101
132.700	46.057	0.101
132.800	36.310	0.101
132.900	17.604	0.101
133.000	36.462	0.101
133.100	24.979	0.101
133.200	39.419	0.101
133.300	44.931	0.101
133.400	26.648	0.101
133.500	32.167	0.101
133.600	28.132	0.101
133.700	33.476	0.101
133.800	25.753	0.101
133.900	27.413	0.101
134.000	48.122	0.101
134.100	42.903	0.101
134.200	40.178	0.101
134.300	38.519	0.101
134.400	50.919	0.101
134.500	30.241	0.101
134.600	35.500	0.101
134.700	37.852	0.101
134.800	37.826	0.101
134.900	23.951	0.101
135.000	24.322	0.101
135.100	38.453	0.101
135.200	26.720	0.101
135.300	32.106	0.101
135.400	38.797	0.101
135.500	35.536	0.101
135.600	17.068	0.101
135.700	28.909	0.101
135.800	34.603	0.101
135.900	33.833	0.101
136.000	32.425	0.101
136.100	29.375	0.101
136.200	39.323	0.101
136.300	16.946	0.101
136.400	36.967	0.101
136.500	46.193	0.101
136.600	42.233	0.101
136.700	40.142	0.100
136.800	40.120	0.101
136.900	44.223	0.101
137.000	37.300	0.101
137.100	31.007	0.101
137.200	35.633	0.101
137.300	37.549	0.101
137.400	38.643	0.101
137.500	26.793	0.101
137.600	35.958	0.101
137.700	24.060	0.101
137.800	31.418	0.101
137.900	37.710	0.101
138.000	40.699	0.101
138.100	32.672	0.100
138.200	32.077	0.101
138.300	30.961	0.101
138.400	42.434	0.101
138.500	36.257	0.101
138.600	31.250	0.101
138.700	43.636	0.101
138.800	27.052	0.101
138.900	33.319	0.101
139.000	37.263	0.101
139.100	33.575	0.101
139.200	21.168	0.101
139.300	41.528	0.101
139.400	39.019	0.101
139.500	34.062	0.101
139.600	35.814	0.101
139.700	41.227	0.101
139.800	24.564	0.101
139.900	21.718	0.101
140.000	45.469	0.101
140.100	35.902	0.101
140.200	36.270	0.100
140.300	29.473	0.101
140.400	26.943	0.101
140.500	36.328	0.101
140.600	24.245	0.101
140.700	23.725	0.101
140.800	32.076	0.101
140.900	44.516	0.101
141.000	40.067	0.101
141.100	31.095	0.101
141.200	42.521	0.101
141.300	44.863	0.101
141.400	21.931	0.101
141.500	34.432	0.101
141.600	33.626	0.101
141.700	29.062	0.100
141.800	28.629	0.101
141.900	27.988	0.100
142.000	33.234	0.101
142.100	40.272	0.101
142.200	44.729	0.101
142.300	44.298	0.101
142.400	30.427	0.101
142.500	33.492	0.101
142.600	31.663	0.101
142.700	36.006	0.101
142.800	16.610	0.100
142.900	36.462	0.101
143.000	45.050	0.101
143.100	30.786	0.101
143.200	31.462	0.101
143.300	26.604	0.101
143.400	38.948	0.101
143.500	30.179	0.101
143.600	28.423	0.101
143.700	40.789	0.101
143.800	40.891	0.101
143.900	16.724	0.101
144.000	35.897	0.101
144.100	34.235	0.101
144.200	44.003	0.101
144.300	39.661	0.100
144.400	40.070	0.101
144.500	37.087	0.101
144.600	33.853	0.101
144.700	34.071	0.101
144.800	26.873	0.101
144.900	34.048	0.101
145.000	34.303	0.101
145.100	54.653	0.101
145.200	37.200	0.101
145.300	33.192	0.101
145.400	20.948	0.101
145.500	48.024	0.101
145.600	16.625	0.101
145.700	27.388	0.101
145.800	34.397	0.101
145.900	33.842	0.101
146.000	27.189	0.100
146.100	38.930	0.101
146.200	25.619	0.100
146.300	37.385	0.101
146.400	31.065	0.101
146.500	40.971	0.101
146.600	41.230	0.101
146.700	22.548	0.101
146.800	28.395	0.101
146.900	39.017	0.101
147.000	36.771	0.101
147.100	35.130	0.101
147.200	32.675	0.101
147.300	37.940	0.101
147.400	23.608	0.101
147.500	45.562	0.101
147.600	28.304	0.101
147.700	30.858	0.101
147.800	33.799	0.101
147.900	30.763	0.101
148.000	41.117	0.101
148.100	38.218	0.101
148.200	23.782	0.101
148.300	42.401	0.101
148.400	36.111	0.101
148.500	46.634	0.101
148.600	34.647	0.101
148.700	25.980	0.101
148.800	34.947	0.101
148.900	37.811	0.101
149.000	31.980	0.101
149.100	33.199	0.101
149.200	34.872	0.101
149.300	38.025	0.101
149.400	33.403	0.101
149.500	34.037	0.101
149.600	12.769	0.101
149.700	45.578	0.101
149.800	28.413	0.101
149.900	6.219	0.101
150.000	32.400	0.101
150.100	22.032	0.101
150.200	43.815	0.101
150.300	29.470	0.101
150.400	25.338	0.101
150.500	30.892	0.100
150.600	36.972	0.101
150.700	33.503	0.101
150.800	29.958	0.101
150.900	26.540	0.101
151.000	27.264	0.101
151.100	26.594	0.101
151.200	41.891	0.101
151.300	25.873	0.101
151.400	31.141	0.101
151.500	37.157	0.101
151.600	40.443	0.101
151.700	28.745	0.101
151.800	29.357	0.101
151.900	32.695	0.101
152.000	30.651	0.101
152.100	44.280	0.101
152.200	25.265	0.101
152.300	31.676	0.101
152.400	42.959	0.101
152.500	27.494	0.101
152.600	32.625	0.101
152.700	26.516	0.101
152.800	27.064	0.101
152.900	27.256	0.101
153.000	37.308	0.101
153.100	41.649	0.101
153.200	34.103	0.101
153.300	26.063	0.101
153.400	23.629	0.101
153.500	28.409	0.101
153.600	39.975	0.101
153.700	31.566	0.101
153.800	23.757	0.101
153.900	41.695	0.101
154.000	38.339	0.101
154.100	31.080	0.101
154.200	36.253	0.101
154.300	26.928	0.101
154.400	27.419	0.101
154.500	32.763	0.101
154.600	32.115	0.101
154.700	31.189	0.101
154.800	39.721	0.101
154.900	28.849	0.101
155.000	33.240	0.101
155.100	36.666	0.101
155.200	37.955	0.101
155.300	28.337	0.101
155.400	34.594	0.101
155.500	27.346	0.101
155.600	24.990	0.101
155.700	38.258	0.101
155.800	34.965	0.101
155.900	32.460	0.101
156.000	42.157	0.101
156.100	35.855	0.101
156.200	30.407	0.101
156.300	34.173	0.101
156.400	29.351	0.101
156.500	30.259	0.101
156.600	27.718	0.101
156.700	41.996	0.101
156.800	34.382	0.101
156.900	34.663	0.101
157.000	38.398	0.101
157.100	34.814	0.101
157.200	22.795	0.101
157.300	32.682	0.101
157.400	36.712	0.101
157.500	31.098	0.101
157.600	20.528	0.101
157.700	35.902	0.101
157.800	25.113	0.101
157.900	21.435	0.101
158.000	39.490	0.101
158.100	28.512	0.101
158.200	27.310	0.101
158.300	43.312	0.101
158.400	31.015	0.101
158.500	25.196	0.101
158.600	33.737	0.101
158.700	40.343	0.101
158.800	19.074	0.101
158.900	28.506	0.101
159.000	38.430	0.101
159.100	34.444	0.101
159.200	35.343	0.101
159.300	33.200	0.101
159.400	45.711	0.101
159.500	32.520	0.101
159.600	23.456	0.101
159.700	34.778	0.101
159.800	27.512	0.101
159.900	31.780	0.101
160.000	30.869	0.101
160.100	24.592	0.101
160.200	22.039	0.101
160.300	20.115	0.101
160.400	9.874	0.101
160.500	7.862	0.101
160.600	7.600	0.101
160.700	3.552	0.101
160.800	5.497	0.101
160.900	0.890	0.101
161.000	4.133	0.101
161.100	0.238	0.101
161.200	-7.985	0.101
161.300	-5.660	0.101
161.400	-11.932	0.101
161.500	-24.851	0.101
161.600	-19.048	0.101
161.700	-21.074	0.101
161.800	-11.077	0.101
161.900	-6.011	0.101
162.000	2.560	0.101
162.100	-27.461	0.101
162.200	-25.227	0.101
162.300	-12.992	0.101
162.400	-18.781	0.101
162.500	-17.406	0.101
162.600	-12.788	0.101
162.700	-20.751	0.101
162.800	-12.641	0.101
162.900	-23.900	0.101
163.000	-24.054	0.101
163.100	-25.685	0.101
163.200	-19.482	0.101
163.300	-24.445	0.101
163.400	-14.253	0.101
163.500	-23.711	0.101
163.600	-8.664	0.101
163.700	-28.548	0.101
163.800	-25.747	0.101
163.900	-17.889	0.101
164.000	-17.198	0.101
164.100	-26.953	0.101
164.200	-39.437	0.101
164.300	-35.523	0.101
164.400	-17.850	0.101
164.500	-28.448	0.101
164.600	-26.888	0.101
164.700	-21.481	0.101
164.800	-30.983	0.101
164.900	-30.190	0.101
165.000	-27.723	0.101
165.100	-42.373	0.101
165.200	-27.905	0.101
165.300	-17.499	0.101
165.400	-31.481	0.101
165.500	-28.970	0.101
165.600	-43.030	0.101
165.700	-26.450	0.101
165.800	-19.124	0.101
165.900	-39.460	0.101
166.000	-32.033	0.101
166.100	-28.412	0.101
166.200	-25.919	0.101
166.300	-29.776	0.101
166.400	-33.913	0.101
166.500	-48.625	0.101
166.600	-35.827	0.101
166.700	-29.111	0.101
166.800	-37.891	0.101
166.900	-30.203	0.101
167.000	-28.613	0.101
167.100	-36.562	0.101
167.200	-35.267	0.101
167.300	-35.598	0.101
167.400	-24.597	0.101
167.500	-35.976	0.101
167.600	-20.084	0.101
167.700	-41.581	0.101
167.800	-32.846	0.101
167.900	-35.873	0.101
168.000	-18.634	0.101
168.100	-24.885	0.101
168.200	-28.200	0.101
168.300	-26.797	0.101
168.400	-34.260	0.101
168.500	-28.056	0.101
168.600	-42.462	0.101
168.700	-14.454	0.101
168.800	-26.424	0.101
168.900	-46.730	0.101
169.000	-25.153	0.101
169.100	-30.233	0.101
169.200	-38.059	0.101
169.300	-36.602	0.101
169.400	-24.056	0.101
169.500	-43.122	0.101
169.600	-38.056	0.101
169.700	-40.865	0.101
169.800	-39.019	0.101
169.900	-29.049	0.101
170.000	-20.994	0.101
170.100	-31.563	0.101
170.200	-22.405	0.101
170.300	-13.531	0.101
170.400	-7.169	0.101
170.500	6.804	0.101
170.600	6.863	0.101
170.700	23.870	0.101
170.800	35.187	0.101
170.900	27.461	0.101
171.000	22.934	0.101
171.100	22.267	0.101
171.200	20.314	0.101
171.300	25.053	0.101
171.400	27.189	0.101
171.500	34.306	0.101
171.600	29.064	0.101
171.700	33.452	0.101
171.800	33.006	0.101
171.900	29.803	0.101
172.000	28.080	0.101
172.100	17.765	0.101
172.200	30.093	0.101
172.300	9.780	0.101
172.400	25.154	0.101
172.500	17.604	0.101
172.600	18.537	0.101
172.700	16.280	0.101
172.800	14.060	0.101
172.900	6.873	0.101
173.000	22.295	0.101
173.100	12.259	0.101
173.200	12.170	0.101
173.300	17.621	0.101
173.400	11.376	0.101
173.500	9.412	0.101
173.600	9.798	0.101
173.700	0.989	0.101
173.800	2.413	0.101
173.900	2.260	0.101
174.000	1.696	0.101
174.100	20.682	0.101
174.200	8.339	0.101
174.300	1.095	0.101
174.400	-1.390	0.101
174.500	5.143	0.101
174.600	10.237	0.101
174.700	5.364	0.101
174.800	4.966	0.101
174.900	2.371	0.101
175.000	16.528	0.101
175.100	0.124	0.101
175.200	10.020	0.101
175.300	5.503	0.101
175.400	-2.290	0.101
175.500	4.738	0.101
175.600	-4.515	0.101
175.700	8.367	0.101
175.800	6.066	0.101
175.900	10.925	0.101
176.000	8.800	0.101
176.100	2.689	0.101
176.200	11.592	0.101
176.300	10.133	0.101
176.400	9.041	0.101
176.500	-0.766	0.101
176.600	8.826	0.101
176.700	5.311	0.100
176.800	-1.022	0.101
176.900	10.892	0.101
177.000	14.219	0.101
177.100	12.948	0.101
177.200	7.020	0.101
177.300	-1.005	0.101
177.400	19.827	0.101
177.500	9.903	0.101
177.600	7.709	0.101
177.700	18.306	0.101
177.800	17.548	0.101
177.900	19.957	0.101
178.000	20.145	0.101
178.100	1.804	0.101
178.200	14.383	0.101
178.300	12.070	0.101
178.400	9.646	0.101
178.500	19.466	0.101
178.600	13.144	0.101
178.700	20.109	0.101
178.800	25.688	0.101
178.900	25.195	0.101
179.000	20.214	0.101
179.100	30.188	0.101
179.200	14.033	0.101
179.300	32.414	0.101
179.400	9.804	0.101
179.500	17.504	0.101
179.600	29.242	0.101
179.700	24.019	0.101
179.800	19.933	0.101
179.900	41.738	0.101
180.000	28.001	0.101
180.100	32.452	0.101
180.200	12.437	0.101
180.300	21.087	0.101
180.400	26.050	0.101
180.500	22.166	0.101
180.600	17.568	0.101
180.700	25.470	0.101
180.800	18.279	0.101
180.900	21.021	0.101
181.000	22.179	0.101
181.100	19.828	0.101
181.200	33.305	0.101
181.300	24.274	0.101
181.400	35.403	0.101
181.500	33.415	0.101
181.600	17.622	0.101
181.700	29.122	0.101
181.800	32.906	0.101
181.900	17.440	0.101
182.000	21.856	0.101
182.100	25.222	0.101
182.200	14.349	0.101
182.300	26.811	0.101
182.400	22.445	0.101
182.500	32.430	0.100
182.600	26.938	0.101
182.700	31.319	0.101
182.800	24.437	0.101
182.900	20.046	0.101
183.000	25.217	0.101
183.100	30.400	0.101
183.200	29.274	0.101
183.300	28.875	0.101
183.400	34.021	0.101
183.500	32.093	0.101
183.600	37.696	0.101
183.700	36.875	0.101
183.800	24.306	0.101
183.900	26.808	0.101
184.000	23.131	0.101
184.100	25.795	0.101
184.200	38.401	0.101
184.300	28.201	0.101
184.400	25.848	0.101
184.500	34.490	0.101
184.600	23.541	0.101
184.700	34.897	0.101
184.800	21.345	0.101
184.900	26.970	0.101
185.000	40.073	0.101
185.100	19.121	0.101
185.200	26.262	0.101
185.300	28.189	0.101
185.400	31.615	0.101
185.500	28.058	0.101
185.600	41.332	0.101
185.700	27.808	0.101
185.800	18.946	0.101
185.900	25.770	0.101
186.000	21.949	0.101
186.100	25.122	0.101
186.200	29.945	0.101
186.300	31.316	0.101
186.400	33.048	0.101
186.500	23.923	0.101
186.600	27.679	0.101
186.700	24.361	0.101
186.800	18.396	0.101
186.900	29.343	0.101
187.000	24.870	0.101
187.100	22.597	0.101
187.200	34.777	0.101
187.300	27.899	0.101
187.400	36.539	0.101
187.500	28.637	0.101
187.600	34.088	0.101
187.700	18.247	0.101
187.800	30.184	0.101
187.900	28.298	0.101
188.000	32.728	0.101
188.100	20.432	0.101
188.200	35.516	0.101
188.300	24.052	0.101
188.400	30.953	0.101
188.500	31.520	0.101
188.600	18.988	0.101
188.700	49.031	0.101
188.800	28.865	0.101
188.900	17.577	0.101
189.000	24.787	0.101
189.100	25.364	0.101
189.200	21.326	0.101
189.300	33.319	0.101
189.400	29.643	0.101
189.500	18.648	0.101
189.600	37.693	0.101
189.700	31.259	0.101
189.800	29.715	0.101
189.900	27.929	0.101
190.000	27.503	0.101
190.100	27.293	0.101
190.200	27.763	0.101
190.300	35.014	0.101
190.400	28.237	0.101
190.500	31.518	0.101
190.600	22.562	0.101
190.700	32.701	0.101
190.800	28.644	0.101
190.900	38.332	0.101
191.000	34.796	0.101
191.100	33.979	0.101
191.200	26.777	0.101
191.300	21.815	0.101
191.400	24.485	0.101
191.500	33.222	0.101
191.600	27.740	0.101
191.700	13.572	0.101
191.800	31.545	0.101
191.900	37.636	0.101
192.000	31.841	0.101
192.100	32.111	0.101
192.200	29.668	0.101
192.300	36.166	0.101
192.400	21.242	0.101
192.500	33.603	0.101
192.600	25.144	0.101
192.700	33.537	0.101
192.800	22.566	0.101
192.900	32.658	0.101
193.000	26.788	0.101
193.100	32.205	0.101
193.200	18.072	0.101
193.300	27.731	0.101
193.400	22.443	0.101
193.500	24.433	0.101
193.600	38.870	0.101
193.700	40.149	0.101
193.800	29.782	0.101
193.900	33.028	0.101
194.000	26.492	0.101
194.100	28.774	0.101
194.200	30.461	0.101
194.300	27.497	0.101
194.400	38.040	0.101
194.500	27.445	0.101
194.600	25.463	0.101
194.700	25.284	0.101
194.800	25.457	0.101
194.900	18.781	0.101
195.000	22.860	0.101
195.100	28.686	0.101
195.200	26.570	0.101
195.300	35.011	0.101
195.400	39.836	0.101
195.500	25.836	0.101
195.600	26.134	0.101
195.700	25.553	0.101
195.800	30.790	0.101
195.900	20.068	0.101
196.000	31.872	0.101
196.100	25.164	0.101
196.200	30.525	0.101
196.300	24.963	0.101
196.400	26.491	0.101
196.500	22.899	0.101
196.600	41.873	0.101
196.700	35.962	0.101
196.800	30.502	0.101
196.900	17.742	0.101
197.000	25.139	0.101
197.100	37.029	0.101
197.200	26.192	0.101
197.300	39.468	0.101
197.400	28.363	0.101
197.500	37.364	0.101
197.600	23.635	0.101
197.700	27.080	0.101
197.800	28.387	0.101
197.900	27.123	0.101
198.000	44.221	0.101
198.100	15.529	0.101
198.200	33.980	0.101
198.300	22.143	0.100
198.400	33.222	0.101
198.500	20.458	0.101
198.600	30.620	0.101
198.700	28.596	0.101
198.800	22.098	0.101
198.900	9.507	0.101
199.000	30.304	0.101
199.100	39.462	0.101
199.200	37.515	0.101
199.300	23.320	0.101
199.400	41.627	0.101
199.500	32.283	0.101
199.600	36.224	0.101
199.700	42.386	0.101
199.800	22.991	0.101
199.900	25.452	0.101
200.000	27.101	0.101
200.100	27.929	0.101
200.200	41.683	0.101
200.300	23.846	0.101
200.400	31.736	0.101
200.500	29.703	0.101
200.600	32.932	0.101
200.700	29.114	0.101
200.800	32.687	0.101
200.900	39.115	0.101
201.000	23.457	0.101
201.100	19.357	0.101
201.200	24.267	0.101
201.300	20.715	0.100
201.400	37.922	0.101
201.500	34.279	0.101
201.600	34.886	0.101
201.700	38.786	0.101
201.800	34.107	0.101
201.900	29.845	0.101
202.000	27.264	0.101
202.100	36.646	0.101
202.200	29.335	0.101
202.300	30.234	0.101
202.400	27.096	0.101
202.500	28.808	0.101
202.600	26.016	0.101
202.700	26.059	0.101
202.800	25.042	0.101
202.900	20.341	0.101
203.000	37.635	0.101
203.100	30.535	0.101
203.200	29.783	0.101
203.300	28.218	0.101
203.400	41.489	0.100
203.500	28.548	0.101
203.600	41.663	0.101
203.700	19.730	0.101
203.800	29.153	0.101
203.900	17.713	0.101
204.000	29.328	0.101
204.100	26.970	0.101
204.200	26.658	0.101
204.300	29.237	0.101
204.400	29.282	0.101
204.500	32.278	0.101
204.600	23.465	0.101
204.700	40.194	0.101
204.800	32.895	0.101
204.900	25.373	0.101
205.000	29.316	0.101
205.100	22.557	0.101
205.200	15.510	0.101
205.300	44.525	0.101
205.400	27.761	0.101
205.500	37.087	0.100
205.600	24.832	0.101
205.700	22.967	0.101
205.800	30.896	0.101
205.900	36.284	0.101
206.000	22.969	0.101
206.100	29.540	0.101
206.200	25.148	0.101
206.300	23.539	0.101
206.400	26.793	0.101
206.500	29.332	0.101
206.600	20.396	0.101
206.700	27.612	0.101
206.800	27.405	0.101
206.900	24.642	0.101
207.000	45.125	0.101
207.100	33.833	0.101
207.200	28.576	0.101
207.300	20.848	0.101
207.400	30.012	0.101
207.500	31.084	0.101
207.600	41.187	0.101
207.700	23.364	0.101
207.800	24.658	0.101
207.900	21.132	0.101
208.000	32.077	0.100
208.100	29.969	0.101
208.200	27.104	0.101
208.300	33.203	0.101
208.400	32.482	0.101
208.500	29.858	0.101
208.600	22.588	0.101
208.700	34.969	0.101
208.800	35.885	0.101
208.900	37.053	0.101
209.000	24.712	0.101
209.100	30.401	0.101
209.200	21.839	0.101
209.300	37.227	0.101
209.400	27.949	0.101
209.500	43.075	0.101
209.600	23.671	0.101
209.700	27.335	0.101
209.800	20.368	0.101
209.900	34.042	0.101
210.000	28.969	0.101
210.100	17.711	0.101
210.200	31.074	0.101
210.300	22.137	0.101
210.400	19.138	0.101
210.500	41.178	0.101
210.600	23.716	0.101
210.700	40.446	0.101
210.800	17.134	0.101
210.900	26.187	0.100
211.000	34.331	0.101
211.100	26.686	0.101
211.200	20.696	0.101
211.300	42.923	0.101
211.400	34.398	0.100
211.500	35.234	0.101
211.600	33.312	0.101
211.700	17.277	0.101
211.800	22.830	0.101
211.900	21.286	0.101
212.000	36.499	0.101
212.100	36.093	0.101
212.200	24.176	0.101
212.300	34.497	0.101
212.400	31.438	0.101
212.500	31.762	0.101
212.600	29.264	0.101
212.700	29.666	0.101
212.800	35.176	0.101
212.900	16.841	0.101
213.000	29.554	0.101
213.100	34.122	0.101
213.200	27.603	0.101
213.300	39.324	0.101
213.400	36.391	0.101
213.500	30.444	0.101
213.600	32.113	0.101
213.700	40.791	0.101
213.800	22.567	0.101
213.900	21.828	0.101
214.000	32.428	0.101
214.100	21.861	0.101
214.200	33.562	0.101
214.300	28.526	0.101
214.400	32.644	0.101
214.500	31.725	0.101
214.600	20.193	0.101
214.700	32.741	0.101
214.800	30.369	0.101
214.900	27.170	0.101
215.000	31.376	0.101
215.100	29.837	0.101
215.200	32.194	0.101
215.300	17.405	0.101
215.400	33.767	0.101
215.500	31.384	0.101
215.600	26.806	0.101
215.700	31.913	0.101
215.800	32.178	0.101
215.900	27.679	0.101
216.000	24.370	0.101
216.100	25.884	0.101
216.200	28.130	0.101
216.300	30.440	0.101
216.400	24.650	0.101
216.500	37.702	0.101
216.600	25.527	0.101
216.700	33.625	0.101
216.800	26.547	0.101
216.900	33.488	0.101
217.000	28.383	0.101
217.100	23.182	0.101
217.200	24.204	0.101
217.300	34.896	0.101
217.400	35.527	0.101
217.500	30.072	0.101
217.600	19.488	0.101
217.700	30.295	0.101
217.800	32.432	0.101
217.900	24.637	0.101
218.000	34.359	0.101
218.100	35.946	0.101
218.200	29.297	0.101
218.300	22.810	0.101
218.400	24.912	0.101
218.500	30.586	0.101
218.600	40.596	0.101
218.700	26.397	0.101
218.800	19.877	0.101
218.900	34.004	0.101
219.000	27.738	0.101
219.100	25.546	0.101
219.200	28.347	0.101
219.300	25.365	0.101
219.400	37.156	0.101
219.500	17.227	0.101
219.600	29.691	0.101
219.700	28.619	0.101
219.800	32.182	0.101
219.900	21.301	0.101
220.000	20.302	0.101
220.100	18.414	0.101
220.200	30.609	0.101
220.300	25.949	0.101
220.400	38.901	0.101
220.500	35.076	0.101
220.600	29.835	0.101
220.700	23.859	0.101
220.800	26.807	0.101
220.900	38.409	0.101
221.000	31.344	0.101
221.100	26.900	0.101
221.200	28.953	0.101
221.300	32.058	0.101
221.400	26.553	0.101
221.500	23.120	0.101
221.600	31.232	0.101
221.700	30.178	0.101
221.800	36.973	0.101
221.900	30.216	0.101
222.000	18.166	0.101
222.100	7.222	0.101
222.200	29.311	0.101
222.300	33.914	0.101
222.400	36.194	0.101
222.500	24.728	0.101
222.600	28.363	0.101
222.700	19.159	0.101
222.800	34.199	0.101
222.900	31.548	0.101
223.000	17.693	0.101
223.100	18.878	0.101
223.200	28.287	0.101
223.300	33.862	0.101
223.400	33.789	0.101
223.500	25.851	0.101
223.600	17.929	0.101
223.700	27.451	0.101
223.800	39.206	0.101
223.900	31.930	0.101
224.000	33.979	0.101
224.100	40.805	0.101
224.200	26.221	0.101
224.300	23.675	0.101
224.400	36.587	0.101
224.500	27.757	0.101
224.600	33.305	0.101
224.700	29.280	0.101
224.800	30.006	0.101
224.900	23.225	0.101
225.000	25.936	0.101
225.100	30.266	0.101
225.200	37.659	0.101
225.300	21.390	0.101
225.400	30.531	0.101
225.500	23.565	0.101
225.600	32.194	0.101
225.700	25.364	0.101
225.800	33.051	0.101
225.900	36.457	0.101
226.000	32.018	0.101
226.100	15.015	0.101
226.200	40.912	0.101
226.300	26.858	0.101
226.400	32.593	0.101
226.500	22.877	0.101
226.600	21.954	0.101
226.700	34.082	0.101
226.800	31.282	0.101
226.900	27.928	0.101
227.000	12.489	0.101
227.100	33.860	0.101
227.200	28.780	0.101
227.300	33.558	0.101
227.400	35.717	0.101
227.500	30.500	0.101
227.600	22.505	0.101
227.700	34.849	0.101
227.800	25.641	0.101
227.900	23.000	0.101
228.000	28.582	0.101
228.100	16.859	0.101
228.200	29.691	0.101
228.300	44.083	0.101
228.400	32.937	0.101
228.500	15.969	0.101
228.600	11.501	0.101
228.700	34.179	0.101
228.800	30.571	0.101
228.900	30.502	0.101
229.000	34.064	0.101
229.100	34.225	0.101
229.200	25.340	0.101
229.300	14.634	0.101
229.400	23.969	0.101
229.500	21.273	0.101
229.600	28.677	0.101
229.700	30.341	0.101
229.800	32.850	0.101
229.900	21.556	0.101
230.000	21.961	0.101
230.100	28.351	0.101
230.200	17.055	0.101
230.300	10.201	0.101
230.400	8.992	0.101
230.500	-2.584	0.101
230.600	-2.906	0.101
230.700	-9.379	0.101
230.800	5.547	0.101
230.900	0.270	0.101
231.000	-12.526	0.101
231.100	-6.503	0.101
231.200	-18.881	0.101
231.300	-19.092	0.101
231.400	-15.572	0.101
231.500	-20.797	0.101
231.600	-3.104	0.101
231.700	-20.687	0.101
231.800	-31.462	0.101
231.900	-19.804	0.101
232.000	-23.748	0.101
232.100	-27.501	0.101
232.200	-25.639	0.101
232.300	-31.628	0.101
232.400	-31.482	0.101
232.500	-30.797	0.101
232.600	-26.548	0.101
232.700	-26.201	0.101
232.800	-25.689	0.101
232.900	-26.032	0.101
233.000	-27.164	0.101
233.100	-22.682	0.101
233.200	-33.030	0.101
233.300	-34.772	0.101
233.400	-32.134	0.101
233.500	-32.387	0.101
233.600	-54.869	0.101
233.700	-39.966	0.101
233.800	-31.282	0.101
233.900	-34.812	0.101
234.000	-31.455	0.101
234.100	-33.921	0.101
234.200	-36.646	0.101
234.300	-34.908	0.101
234.400	-36.104	0.100
234.500	-30.387	0.101
234.600	-39.609	0.101
234.700	-38.224	0.101
234.800	-38.099	0.101
234.900	-40.790	0.101
235.000	-39.358	0.101
235.100	-39.805	0.101
235.200	-49.845	0.101
235.300	-35.100	0.101
235.400	-44.165	0.101
235.500	-25.700	0.101
235.600	-43.973	0.101
235.700	-44.966	0.101
235.800	-44.683	0.101
235.900	-35.332	0.101
236.000	-35.604	0.101
236.100	-35.750	0.101
236.200	-56.064	0.101
236.300	-35.029	0.101
236.400	-32.171	0.101
236.500	-36.077	0.101
236.600	-40.539	0.101
236.700	-38.826	0.101
236.800	-58.423	0.101
236.900	-48.435	0.101
237.000	-37.707	0.101
237.100	-37.429	0.101
237.200	-36.264	0.101
237.300	-33.706	0.101
237.400	-32.552	0.101
237.500	-43.247	0.101
237.600	-42.169	0.101
237.700	-42.849	0.101
237.800	-35.447	0.101
237.900	-37.052	0.101
238.000	-47.426	0.101
238.100	-51.090	0.101
238.200	-38.840	0.101
238.300	-50.566	0.101
238.400	-34.576	0.101
238.500	-52.389	0.101
238.600	-44.512	0.101
238.700	-30.952	0.101
238.800	-39.436	0.101
238.900	-35.156	0.101
239.000	-44.019	0.101
239.100	-32.411	0.101
239.200	-40.320	0.101
239.300	-35.234	0.101
239.400	-36.180	0.101
239.500	-31.600	0.101
239.600	-39.999	0.101
239.700	-37.859	0.101
239.800	-42.342	0.101
239.900	-45.867	0.101
240.000	-40.946	0.101
240.100	-48.491	0.101
240.200	-25.456	0.101
240.300	-12.510	0.101
240.400	-20.592	0.101
240.500	-10.970	0.101
240.600	-9.066	0.101
240.700	15.992	0.101
240.800	20.084	0.101
240.900	12.429	0.101
241.000	18.489	0.101
241.100	27.257	0.101
241.200	6.856	0.101
241.300	16.610	0.101
241.400	14.684	0.101
241.500	24.371	0.101
241.600	18.366	0.101
241.700	17.593	0.101
241.800	19.761	0.101
241.900	18.168	0.101
242.000	32.631	0.101
242.100	14.608	0.101
242.200	24.749	0.101
242.300	14.080	0.101
242.400	20.437	0.101
242.500	14.227	0.101
242.600	17.496	0.101
242.700	17.483	0.101
242.800	10.460	0.101
242.900	4.422	0.101
243.000	20.525	0.101
243.100	3.494	0.101
243.200	1.179	0.101
243.300	4.119	0.101
243.400	10.310	0.101
243.500	14.880	0.101
243.600	13.210	0.101
243.700	13.539	0.101
243.800	-3.393	0.101
243.900	8.519	0.101
244.000	10.404	0.101
244.100	-7.167	0.101
244.200	3.879	0.101
244.300	-3.673	0.101
244.400	-7.147	0.101
244.500	-0.690	0.101
244.600	3.287	0.101
244.700	-1.376	0.101
244.800	7.511	0.101
244.900	7.964	0.101
245.000	12.379	0.101
245.100	7.683	0.101
245.200	3.182	0.101
245.300	0.501	0.101
245.400	-13.746	0.101
245.500	1.871	0.101
245.600	1.448	0.101
245.700	-4.558	0.101
245.800	7.090	0.101
245.900	-2.162	0.100
246.000	6.060	0.101
246.100	11.094	0.101
246.200	14.956	0.101
246.300	-2.294	0.101
246.400	-12.159	0.101
246.500	4.169	0.101
246.600	-11.392	0.101
246.700	14.096	0.101
246.800	5.632	0.101
246.900	5.290	0.101
247.000	7.256	0.101
247.100	9.741	0.101
247.200	5.287	0.101
247.300	-8.684	0.101
247.400	-0.694	0.101
247.500	21.680	0.101
247.600	13.945	0.101
247.700	17.109	0.101
247.800	12.091	0.101
247.900	14.784	0.101
248.000	18.882	0.101
248.100	9.640	0.101
248.200	11.063	0.101
248.300	14.575	0.101
248.400	12.283	0.101
248.500	17.319	0.101
248.600	8.837	0.101
248.700	14.674	0.101
248.800	16.951	0.101
248.900	10.479	0.101
249.000	23.106	0.101
249.100	11.646	0.101
249.200	14.839	0.101
249.300	16.908	0.101
249.400	19.480	0.101
249.500	19.726	0.101
249.600	30.143	0.101
249.700	39.064	0.101
249.800	13.272	0.101
249.900	12.333	0.101
250.000	19.974	0.101
250.100	15.865	0.101
250.200	40.389	0.101
250.300	14.085	0.101
250.400	25.296	0.101
250.500	2.976	0.101
250.600	29.233	0.101
250.700	31.794	0.101
250.800	22.599	0.101
250.900	10.882	0.101
251.000	21.023	0.101
251.100	24.134	0.101
251.200	9.797	0.101
251.300	28.243	0.101
251.400	22.026	0.101
251.500	34.449	0.101
251.600	23.941	0.101
251.700	28.023	0.101
251.800	26.954	0.101
251.900	18.250	0.101
252.000	34.251	0.101
252.100	17.782	0.101
252.200	29.123	0.101
252.300	25.241	0.101
252.400	30.454	0.101
252.500	26.723	0.101
252.600	33.867	0.101
252.700	24.085	0.101
252.800	29.376	0.101
252.900	23.844	0.101
253.000	14.395	0.101
253.100	24.906	0.101
253.200	26.369	0.101
253.300	32.918	0.101
253.400	27.840	0.101
253.500	16.007	0.101
253.600	18.086	0.101
253.700	33.740	0.101
253.800	38.562	0.101
253.900	23.587	0.101
254.000	26.759	0.101
254.100	31.991	0.101
254.200	12.685	0.101
254.300	21.271	0.101
254.400	29.769	0.101
254.500	40.182	0.101
254.600	13.632	0.101
254.700	24.963	0.101
254.800	30.754	0.101
254.900	22.073	0.101
255.000	24.987	0.101
255.100	43.891	0.101
255.200	14.126	0.101
255.300	26.632	0.101
255.400	35.250	0.101
255.500	30.596	0.101
255.600	36.480	0.101
255.700	26.010	0.101
255.800	16.653	0.101
255.900	13.420	0.101
256.000	20.790	0.101
256.100	30.444	0.101
256.200	33.483	0.101
256.300	40.857	0.101
256.400	25.086	0.101
256.500	30.558	0.101
256.600	25.879	0.101
256.700	24.181	0.101
256.800	20.113	0.101
256.900	22.943	0.101
257.000	33.429	0.101
257.100	32.474	0.101
257.200	17.617	0.101
257.300	31.535	0.101
257.400	33.281	0.101
257.500	23.167	0.101
257.600	36.498	0.101
257.700	25.267	0.101
257.800	24.460	0.101
257.900	19.829	0.100
258.000	35.524	0.101
258.100	35.604	0.101
258.200	29.562	0.101
258.300	25.119	0.101
258.400	22.451	0.101
258.500	31.266	0.101
258.600	17.972	0.101
258.700	31.118	0.101
258.800	27.198	0.101
258.900	36.007	0.101
259.000	27.642	0.101
259.100	24.703	0.101
259.200	25.449	0.101
259.300	21.402	0.101
259.400	31.809	0.101
259.500	28.849	0.101
259.600	32.919	0.101
259.700	36.011	0.101
259.800	16.797	0.101
259.900	24.445	0.101
260.000	24.965	0.101
260.100	19.878	0.101
260.200	29.371	0.101
260.300	28.047	0.101
260.400	23.254	0.101
260.500	26.597	0.101
260.600	17.891	0.101
260.700	32.499	0.101
260.800	34.170	0.101
260.900	29.480	0.101
261.000	27.210	0.101
261.100	21.950	0.101
261.200	32.092	0.101
261.300	25.960	0.101
261.400	22.768	0.101
261.500	20.996	0.101
261.600	15.854	0.101
261.700	11.672	0.101
261.800	22.388	0.101
261.900	33.163	0.101
262.000	28.902	0.101
262.100	20.976	0.101
262.200	23.885	0.101
262.300	34.268	0.101
262.400	22.341	0.100
262.500	24.073	0.101
262.600	27.433	0.101
262.700	30.239	0.101
262.800	19.842	0.100
262.900	30.812	0.101
263.000	32.803	0.101
263.100	30.405	0.101
263.200	22.431	0.101
263.300	25.574	0.101
263.400	25.182	0.101
263.500	23.196	0.100
263.600	27.476	0.101
263.700	18.480	0.100
263.800	38.349	0.101
263.900	39.466	0.101
264.000	30.730	0.101
264.100	31.737	0.101
264.200	36.604	0.101
264.300	18.997	0.101
264.400	4.377	0.101
264.500	32.279	0.101
264.600	27.031	0.101
264.700	15.777	0.101
264.800	24.784	0.101
264.900	34.368	0.101
265.000	26.408	0.101
265.100	24.378	0.101
265.200	24.561	0.101
265.300	22.545	0.101
265.400	24.217	0.101
265.500	21.084	0.101
265.600	29.446	0.101
265.700	22.650	0.101
265.800	22.441	0.101
265.900	32.870	0.101
266.000	25.233	0.101
266.100	18.593	0.101
266.200	23.311	0.101
266.300	30.339	0.100
266.400	17.879	0.101
266.500	37.542	0.100
266.600	22.736	0.101
266.700	33.927	0.101
266.800	32.578	0.101
266.900	27.925	0.101
267.000	32.499	0.101
267.100	22.725	0.101
267.200	23.644	0.100
267.300	28.929	0.100
267.400	12.567	0.101
267.500	22.147	0.101
267.600	35.599	0.101
267.700	24.951	0.101
267.800	18.597	0.101
267.900	33.936	0.101
268.000	25.934	0.101
268.100	32.177	0.101
268.200	34.834	0.101
268.300	30.438	0.101
268.400	21.349	0.101
268.500	18.380	0.101
268.600	17.241	0.101
268.700	23.948	0.101
268.800	30.065	0.100
268.900	31.478	0.101
269.000	17.860	0.101
269.100	28.600	0.101
269.200	36.655	0.101
269.300	41.806	0.101
269.400	26.852	0.100
269.500	22.478	0.101
269.600	16.925	0.101
269.700	30.079	0.100
269.800	20.612	0.101
269.900	25.710	0.101
270.000	30.116	0.101
270.100	28.040	0.101
270.200	38.351	0.101
270.300	33.277	0.101
270.400	22.442	0.101
270.500	28.029	0.101
270.600	29.674	0.101
270.700	31.183	0.100
270.800	39.089	0.101
270.900	17.826	0.101
271.000	19.265	0.101
271.100	23.384	0.101
271.200	20.384	0.101
271.300	27.203	0.101
271.400	24.786	0.101
271.500	16.618	0.101
271.600	27.259	0.101
271.700	31.234	0.101
271.800	34.485	0.101
271.900	22.266	0.101
272.000	21.414	0.101
272.100	23.761	0.101
272.200	19.097	0.101
272.300	27.428	0.101
272.400	33.813	0.101
272.500	36.869	0.101
272.600	31.760	0.101
272.700	21.948	0.101
272.800	32.589	0.101
272.900	26.779	0.101
273.000	29.396	0.101
273.100	26.359	0.101
273.200	25.405	0.101
273.300	35.199	0.101
273.400	32.487	0.101
273.500	24.847	0.101
273.600	38.844	0.101
273.700	28.986	0.101
273.800	27.147	0.101
273.900	20.320	0.101
274.000	24.129	0.101
274.100	33.954	0.101
274.200	20.866	0.101
274.300	28.816	0.101
274.400	29.644	0.101
274.500	29.596	0.101
274.600	33.102	0.101
274.700	21.620	0.101
274.800	23.807	0.101
274.900	27.052	0.101
275.000	18.592	0.101
275.100	23.173	0.101
275.200	33.899	0.101
275.300	28.158	0.101
275.400	17.506	0.101
275.500	15.266	0.101
275.600	33.432	0.101
275.700	26.752	0.101
275.800	31.960	0.101
275.900	37.804	0.101
276.000	22.565	0.101
276.100	22.061	0.101
276.200	34.453	0.101
276.300	18.835	0.101
276.400	31.152	0.101
276.500	17.902	0.101
276.600	23.630	0.101
276.700	20.046	0.101
276.800	33.117	0.101
276.900	19.991	0.101
277.000	35.611	0.101
277.100	15.369	0.101
277.200	35.816	0.101
277.300	19.522	0.101
277.400	18.824	0.101
277.500	26.782	0.101
277.600	19.173	0.101
277.700	35.412	0.100
277.800	12.478	0.101
277.900	31.637	0.101
278.000	28.461	0.101
278.100	28.475	0.101
278.200	28.236	0.101
278.300	19.004	0.101
278.400	26.904	0.101
278.500	24.958	0.101
278.600	18.406	0.101
278.700	35.992	0.101
278.800	23.288	0.101
278.900	31.005	0.101
279.000	35.820	0.101
279.100	25.216	0.101
279.200	26.141	0.101
279.300	30.796	0.101
279.400	26.339	0.101
279.500	31.409	0.101
279.600	26.170	0.101
279.700	12.540	0.101
279.800	23.622	0.101
279.900	26.320	0.101
280.000	33.417	0.101
280.100	23.678	0.101
280.200	26.620	0.101
280.300	30.811	0.101
280.400	26.271	0.101
280.500	30.294	0.101
280.600	43.912	0.101
280.700	25.655	0.101
280.800	22.233	0.101
280.900	21.286	0.101
281.000	38.351	0.101
281.100	25.057	0.101
281.200	26.066	0.101
281.300	26.926	0.101
281.400	42.200	0.101
281.500	21.604	0.101
281.600	20.119	0.101
281.700	28.613	0.101
281.800	17.544	0.101
281.900	26.934	0.101
282.000	37.231	0.101
282.100	24.641	0.101
282.200	34.066	0.101
282.300	23.678	0.101
282.400	25.746	0.101
282.500	19.176	0.101
282.600	20.958	0.101
282.700	19.455	0.101
282.800	23.948	0.101
282.900	28.765	0.101
283.000	34.257	0.100
283.100	15.913	0.101
283.200	43.076	0.101
283.300	16.883	0.101
283.400	30.382	0.101
283.500	23.693	0.101
283.600	30.026	0.101
283.700	20.213	0.101
283.800	25.596	0.101
283.900	29.139	0.101
284.000	20.895	0.101
284.100	20.148	0.101
284.200	40.065	0.100
284.300	28.953	0.101
284.400	22.506	0.101
284.500	11.096	0.100
284.600	30.294	0.101
284.700	25.190	0.101
284.800	40.425	0.101
284.900	23.721	0.101
285.000	36.438	0.101
285.100	18.763	0.101
285.200	19.754	0.101
285.300	30.359	0.101
285.400	23.014	0.101
285.500	24.496	0.101
285.600	35.399	0.101
285.700	31.040	0.101
285.800	20.689	0.101
285.900	24.672	0.101
286.000	31.090	0.101
286.100	22.649	0.101
286.200	19.901	0.101
286.300	28.161	0.101
286.400	23.360	0.101
286.500	26.724	0.101
286.600	25.569	0.101
286.700	25.170	0.101
286.800	19.125	0.101
286.900	32.651	0.101
287.000	28.718	0.101
287.100	24.252	0.100
287.200	22.262	0.101
287.300	12.645	0.101
287.400	25.981	0.100
287.500	23.179	0.101
287.600	26.483	0.101
287.700	22.867	0.101
287.800	27.119	0.101
287.900	37.093	0.101
288.000	21.543	0.101
288.100	25.749	0.101
288.200	16.970	0.101
288.300	26.606	0.100
288.400	29.135	0.101
288.500	28.312	0.101
288.600	38.097	0.100
288.700	21.250	0.101
288.800	24.196	0.101
288.900	31.024	0.101
289.000	30.742	0.101
289.100	30.345	0.101
289.200	31.596	0.101
289.300	24.306	0.100
289.400	24.745	0.101
289.500	31.732	0.101
289.600	31.348	0.101
289.700	41.495	0.101
289.800	25.120	0.101
289.900	17.980	0.101
290.000	14.917	0.101
290.100	24.707	0.101
290.200	35.975	0.101
290.300	23.713	0.101
290.400	21.217	0.101
290.500	34.957	0.101
290.600	28.178	0.101
290.700	17.398	0.101
290.800	26.356	0.101
290.900	23.426	0.101
291.000	22.758	0.101
291.100	32.766	0.101
291.200	13.368	0.101
291.300	23.032	0.101
291.400	21.022	0.101
291.500	19.083	0.101
291.600	14.232	0.101
291.700	28.781	0.101
291.800	28.458	0.101
291.900	29.362	0.101
292.000	23.976	0.101
292.100	26.973	0.101
292.200	31.664	0.100
292.300	27.748	0.100
292.400	32.869	0.101
292.500	23.929	0.101
292.600	23.323	0.101
292.700	21.325	0.101
292.800	22.465	0.101
292.900	26.653	0.101
293.000	30.753	0.101
293.100	32.559	0.101
293.200	29.175	0.101
293.300	30.445	0.101
293.400	21.244	0.101
293.500	25.940	0.101
293.600	33.820	0.101
293.700	22.919	0.101
293.800	23.943	0.101
293.900	32.376	0.101
294.000	25.438	0.101
294.100	29.668	0.101
294.200	28.914	0.101
294.300	26.166	0.101
294.400	27.177	0.101
294.500	26.919	0.101
294.600	21.626	0.101
294.700	29.363	0.101
294.800	29.964	0.101
294.900	27.473	0.101
295.000	32.577	0.101
295.100	23.682	0.101
295.200	22.725	0.101
295.300	25.180	0.101
295.400	23.970	0.101
295.500	26.913	0.101
295.600	33.742	0.101
295.700	25.031	0.101
295.800	30.125	0.101
295.900	35.657	0.101
296.000	15.870	0.101
296.100	34.254	0.101
296.200	23.541	0.101
296.300	14.047	0.101
296.400	12.417	0.101
296.500	28.059	0.101
296.600	31.909	0.101
296.700	21.803	0.101
296.800	30.062	0.101
296.900	29.650	0.101
297.000	33.033	0.101
297.100	34.857	0.101
297.200	16.411	0.101
297.300	27.467	0.101
297.400	21.015	0.101
297.500	32.604	0.101
297.600	38.135	0.101
297.700	10.219	0.101
297.800	22.870	0.101
297.900	26.041	0.101
298.000	28.498	0.101
298.100	20.913	0.101
298.200	27.516	0.101
298.300	33.373	0.101
298.400	18.511	0.101
298.500	31.151	0.100
298.600	22.245	0.101
298.700	15.286	0.101
298.800	26.718	0.101
298.900	28.005	0.101
299.000	22.200	0.101
299.100	30.922	0.101
299.200	33.241	0.101
299.300	25.203	0.101
299.400	16.986	0.101
299.500	15.528	0.101
299.600	20.507	0.100
299.700	33.792	0.101
299.800	31.831	0.100
299.900	24.426	0.101
300.000	22.558	0.101
300.100	24.748	0.100
300.200	19.401	0.101
300.300	23.233	0.101
300.400	0.960	0.101
300.500	6.985	0.101
300.600	11.412	0.101
300.700	-0.076	0.101
300.800	-4.031	0.101
300.900	-16.832	0.101
301.000	-11.693	0.100
301.100	-22.442	0.101
301.200	-22.759	0.100
301.300	-13.621	0.101
301.400	-19.023	0.101
301.500	-30.474	0.101
301.600	-24.381	0.101
301.700	-21.370	0.101
301.800	-21.636	0.101
301.900	-43.458	0.101
302.000	-29.635	0.101
302.100	-37.632	0.101
302.200	-21.610	0.101
302.300	-30.285	0.101
302.400	-31.603	0.101
302.500	-40.812	0.101
302.600	-46.169	0.100
302.700	-38.201	0.101
302.800	-26.865	0.101
302.900	-42.155	0.101
303.000	-37.058	0.101
303.100	-24.096	0.101
303.200	-58.720	0.101
303.300	-32.239	0.101
303.400	-37.055	0.101
303.500	-42.846	0.101
303.600	-32.773	0.101
303.700	-46.978	0.101
303.800	-52.458	0.101
303.900	-33.980	0.101
304.000	-40.973	0.101
304.100	-46.318	0.101
304.200	-48.696	0.101
304.300	-41.017	0.101
304.400	-49.352	0.101
304.500	-44.272	0.101
304.600	-40.074	0.101
304.700	-46.195	0.101
304.800	-45.873	0.100
304.900	-46.216	0.101
305.000	-47.204	0.101
305.100	-50.111	0.101
305.200	-42.611	0.101
305.300	-42.956	0.101
305.400	-51.596	0.100
305.500	-59.313	0.100
305.600	-46.597	0.101
305.700	-57.837	0.100
305.800	-40.732	0.101
305.900	-49.913	0.101
306.000	-61.737	0.101
306.100	-50.802	0.100
306.200	-46.223	0.101
306.300	-55.079	0.101
306.400	-49.441	0.101
306.500	-59.141	0.101
306.600	-43.730	0.101
306.700	-48.661	0.101
306.800	-55.717	0.100
306.900	-62.072	0.101
307.000	-39.719	0.100
307.100	-44.876	0.101
307.200	-51.068	0.101
307.300	-47.357	0.101
307.400	-51.538	0.101
307.500	-49.097	0.101
307.600	-30.727	0.101
307.700	-43.690	0.101
307.800	-42.850	0.101
307.900	-51.446	0.101
308.000	-47.668	0.101
308.100	-46.086	0.101
308.200	-58.397	0.101
308.300	-32.948	0.101
308.400	-46.803	0.101
308.500	-51.100	0.101
308.600	-57.513	0.101
308.700	-42.958	0.101
308.800	-42.148	0.101
308.900	-53.502	0.101
309.000	-41.961	0.101
309.100	-55.229	0.101
309.200	-48.935	0.101
309.300	-47.080	0.101
309.400	-42.604	0.101
309.500	-57.616	0.101
309.600	-48.797	0.101
309.700	-56.839	0.101
309.800	-42.511	0.101
309.900	-48.081	0.101
310.000	-48.121	0.101
310.100	-41.498	0.101
310.200	-42.111	0.101
310.300	-29.592	0.101
310.400	-14.396	0.101
310.500	-23.638	0.101
310.600	1.815	0.101
310.700	-10.801	0.101
310.800	6.406	0.101
310.900	-0.788	0.101
311.000	2.866	0.101
311.100	15.096	0.101
311.200	11.755	0.101
311.300	12.506	0.101
311.400	32.155	0.101
311.500	15.692	0.101
311.600	26.210	0.101
311.700	8.440	0.101
311.800	22.458	0.101
311.900	2.136	0.101
312.000	26.016	0.101
312.100	17.902	0.101
312.200	11.899	0.101
312.300	15.699	0.101
312.400	24.183	0.101
312.500	5.750	0.101
312.600	13.621	0.101
312.700	13.216	0.101
312.800	12.999	0.101
312.900	-3.593	0.101
313.000	12.287	0.101
313.100	9.356	0.101
313.200	12.038	0.101
313.300	4.107	0.101
313.400	3.141	0.101
313.500	1.788	0.101
313.600	13.676	0.101
313.700	3.782	0.101
313.800	-3.833	0.101
313.900	5.303	0.101
314.000	8.307	0.101
314.100	15.971	0.101
314.200	1.241	0.101
314.300	-0.963	0.101
314.400	-1.637	0.101
314.500	-3.967	0.101
314.600	6.621	0.101
314.700	-0.130	0.101
314.800	8.556	0.101
314.900	2.404	0.101
315.000	-4.864	0.101
315.100	5.191	0.101
315.200	4.288	0.101
315.300	7.999	0.101
315.400	0.094	0.101
315.500	1.289	0.101
315.600	-7.842	0.101
315.700	15.529	0.101
315.800	-0.334	0.101
315.900	-0.263	0.101
316.000	2.398	0.101
316.100	-4.095	0.101
316.200	15.531	0.101
316.300	-2.424	0.101
316.400	-2.997	0.101
316.500	-7.170	0.101
316.600	5.333	0.101
316.700	7.256	0.101
316.800	9.027	0.101
316.900	8.490	0.101
317.000	5.414	0.101
317.100	8.275	0.101
317.200	5.388	0.101
317.300	9.072	0.101
317.400	6.397	0.101
317.500	6.883	0.101
317.600	19.132	0.101
317.700	3.912	0.101
317.800	14.210	0.101
317.900	17.419	0.101
318.000	5.443	0.101
318.100	0.615	0.101
318.200	18.852	0.101
318.300	25.664	0.101
318.400	3.695	0.101
318.500	27.168	0.101
318.600	11.750	0.101
318.700	4.374	0.101
318.800	15.031	0.101
318.900	16.653	0.101
319.000	13.567	0.101
319.100	22.341	0.101
319.200	26.102	0.101
319.300	14.837	0.101
319.400	30.748	0.101
319.500	14.632	0.101
319.600	13.935	0.101
319.700	7.990	0.101
319.800	17.355	0.101
319.900	20.579	0.101
320.000	18.989	0.101
320.100	24.029	0.101
320.200	17.718	0.101
320.300	25.961	0.101
320.400	30.904	0.101
320.500	17.882	0.101
320.600	17.803	0.101
320.700	19.810	0.101
320.800	21.853	0.101
320.900	18.223	0.101
321.000	30.446	0.101
321.100	25.687	0.101
321.200	0.950	0.101
321.300	9.650	0.101
321.400	6.591	0.101
321.500	26.100	0.101
321.600	32.368	0.101
321.700	16.360	0.101
321.800	18.812	0.101
321.900	22.799	0.101
322.000	15.702	0.101
322.100	16.247	0.101
322.200	22.978	0.101
322.300	22.601	0.101
322.400	18.629	0.101
322.500	24.583	0.101
322.600	20.397	0.101
322.700	23.811	0.101
322.800	27.179	0.101
322.900	21.002	0.101
323.000	17.837	0.101
323.100	21.344	0.101
323.200	26.470	0.101
323.300	25.189	0.101
323.400	19.916	0.101
323.500	29.175	0.101
323.600	25.518	0.101
323.700	25.497	0.101
323.800	28.181	0.101
323.900	31.287	0.101
324.000	16.119	0.101
324.100	32.084	0.101
324.200	25.762	0.101
324.300	24.747	0.101
324.400	12.776	0.101
324.500	13.127	0.101
324.600	21.614	0.101
324.700	32.353	0.101
324.800	25.123	0.101
324.900	12.547	0.101
325.000	22.307	0.101
325.100	18.810	0.101
325.200	21.710	0.101
325.300	34.944	0.101
325.400	28.308	0.101
325.500	27.667	0.101
325.600	25.185	0.101
325.700	25.087	0.101
325.800	23.787	0.101
325.900	31.043	0.101
326.000	28.956	0.101
326.100	31.427	0.101
326.200	25.056	0.101
326.300	34.742	0.101
326.400	24.980	0.101
326.500	29.881	0.101
326.600	22.545	0.101
326.700	25.972	0.101
326.800	18.748	0.101
326.900	27.544	0.101
327.000	20.337	0.101
327.100	21.810	0.101
327.200	18.984	0.101
327.300	33.994	0.101
327.400	26.775	0.101
327.500	13.581	0.101
327.600	24.543	0.101
327.700	24.876	0.101
327.800	30.333	0.101
327.900	25.713	0.101
328.000	22.920	0.101
328.100	32.319	0.101
328.200	23.692	0.101
328.300	33.661	0.101
328.400	24.417	0.101
328.500	22.117	0.101
328.600	21.069	0.101
328.700	19.412	0.101
328.800	26.003	0.101
328.900	18.544	0.101
329.000	30.813	0.101
329.100	26.901	0.101
329.200	26.332	0.101
329.300	25.077	0.101
329.400	27.884	0.101
329.500	23.863	0.101
329.600	28.353	0.101
329.700	19.756	0.101
329.800	13.191	0.101
329.900	28.239	0.101
330.000	27.264	0.101
330.100	18.568	0.101
330.200	31.754	0.101
330.300	19.957	0.101
330.400	36.105	0.101
330.500	26.915	0.101
330.600	14.879	0.101
330.700	17.394	0.101
330.800	25.600	0.101
330.900	32.883	0.101
331.000	16.416	0.100
331.100	25.861	0.101
331.200	4.730	0.101
331.300	29.942	0.101
331.400	28.262	0.101
331.500	30.290	0.101
331.600	25.396	0.101
331.700	17.805	0.101
331.800	37.433	0.101
331.900	27.138	0.101
332.000	33.620	0.101
332.100	25.050	0.101
332.200	25.006	0.101
332.300	23.564	0.101
332.400	28.769	0.101
332.500	19.994	0.101
332.600	14.983	0.100
332.700	26.940	0.101
332.800	31.464	0.101
332.900	19.865	0.101
333.000	17.562	0.101
333.100	26.421	0.101
333.200	19.284	0.101
333.300	29.752	0.101
333.400	26.496	0.101
333.500	25.228	0.101
333.600	26.780	0.101
333.700	17.370	0.101
333.800	33.044	0.101
333.900	45.987	0.101
334.000	25.349	0.101
334.100	21.340	0.101
334.200	6.247	0.101
334.300	15.984	0.101
334.400	22.886	0.101
334.500	35.979	0.101
334.600	27.160	0.101
334.700	30.931	0.101
334.800	19.185	0.101
334.900	28.320	0.101
335.000	25.406	0.101
335.100	29.621	0.101
335.200	31.049	0.101
335.300	18.744	0.101
335.400	34.167	0.101
335.500	26.380	0.101
335.600	29.672	0.101
335.700	20.831	0.101
335.800	22.361	0.101
335.900	22.255	0.101
336.000	21.778	0.101
336.100	18.064	0.101
336.200	29.789	0.101
336.300	34.574	0.101
336.400	27.023	0.101
336.500	28.155	0.101
336.600	23.498	0.101
336.700	20.574	0.101
336.800	20.548	0.101
336.900	31.080	0.101
337.000	36.825	0.101
337.100	22.210	0.101
337.200	35.060	0.101
337.300	13.983	0.101
337.400	31.758	0.101
337.500	20.461	0.101
337.600	28.730	0.101
337.700	35.222	0.101
337.800	18.555	0.101
337.900	17.457	0.101
338.000	33.976	0.101
338.100	24.587	0.101
338.200	31.734	0.101
338.300	16.788	0.101
338.400	27.209	0.101
338.500	14.147	0.101
338.600	23.006	0.101
338.700	30.964	0.101
338.800	25.544	0.101
338.900	17.422	0.101
339.000	19.368	0.101
339.100	41.426	0.101
339.200	30.475	0.100
339.300	23.858	0.101
339.400	32.668	0.101
339.500	22.331	0.101
339.600	32.703	0.101
339.700	21.146	0.101
339.800	17.085	0.101
339.900	25.558	0.101
340.000	23.836	0.101
340.100	24.705	0.101
340.200	33.700	0.101
340.300	27.957	0.101
340.400	13.773	0.101
340.500	27.506	0.101
340.600	30.263	0.101
340.700	12.452	0.101
340.800	19.325	0.101
340.900	27.614	0.101
341.000	30.584	0.101
341.100	16.859	0.101
341.200	36.361	0.101
341.300	22.870	0.101
341.400	20.603	0.101
341.500	19.077	0.101
341.600	29.665	0.101
341.700	14.340	0.101
341.800	25.673	0.101
341.900	22.785	0.101
342.000	37.038	0.101
342.100	13.385	0.101
342.200	23.764	0.101
342.300	32.078	0.101
342.400	17.844	0.101
342.500	14.022	0.101
342.600	35.645	0.101
342.700	36.168	0.101
342.800	31.897	0.101
342.900	23.109	0.101
343.000	15.911	0.101
343.100	22.740	0.101
343.200	28.335	0.101
343.300	25.191	0.101
343.400	25.792	0.100
343.500	16.896	0.100
343.600	21.322	0.101
343.700	29.101	0.101
343.800	39.228	0.101
343.900	14.752	0.101
344.000	17.857	0.101
344.100	16.415	0.101
344.200	26.461	0.101
344.300	27.414	0.101
344.400	12.191	0.101
344.500	29.328	0.101
344.600	32.053	0.101
344.700	17.607	0.100
344.800	36.587	0.101
344.900	23.698	0.101
345.000	35.283	0.101
345.100	28.251	0.101
345.200	33.719	0.101
345.300	21.960	0.101
345.400	29.966	0.101
345.500	19.695	0.101
345.600	26.613	0.101
345.700	21.519	0.101
345.800	26.008	0.100
345.900	14.965	0.101
346.000	27.238	0.100
346.100	27.521	0.100
346.200	24.430	0.100
346.300	22.839	0.101
346.400	33.467	0.101
346.500	29.862	0.100
346.600	14.220	0.100
346.700	12.667	0.101
346.800	28.156	0.100
346.900	30.227	0.100
347.000	27.031	0.101
347.100	34.843	0.101
347.200	18.594	0.101
347.300	25.593	0.101
347.400	28.174	0.100
347.500	30.273	0.101
347.600	25.984	0.101
347.700	21.222	0.101
347.800	17.334	0.101
347.900	18.125	0.101
348.000	28.119	0.101
348.100	25.091	0.101
348.200	20.502	0.101
348.300	35.667	0.101
348.400	10.505	0.101
348.500	16.061	0.101
348.600	23.383	0.100
348.700	11.985	0.101
348.800	12.196	0.100
348.900	27.559	0.101
349.000	36.674	0.101
349.100	35.413	0.101
349.200	28.782	0.100
349.300	21.211	0.101
349.400	30.116	0.101
349.500	19.353	0.101
349.600	32.814	0.101
349.700	27.021	0.101
349.800	11.984	0.101
349.900	24.097	0.100
350.000	15.476	0.101
350.100	22.172	0.100
350.200	24.481	0.100
350.300	26.635	0.100
350.400	33.994	0.101
350.500	15.745	0.101
350.600	23.532	0.100
350.700	21.933	0.101
350.800	19.857	0.100
350.900	41.899	0.100
351.000	21.710	0.101
351.100	32.466	0.100
351.200	22.261	0.100
351.300	19.354	0.101
351.400	25.772	0.101
351.500	20.972	0.100
351.600	20.728	0.100
351.700	26.709	0.101
351.800	27.240	0.101
351.900	32.230	0.101
352.000	23.602	0.101
352.100	32.511	0.100
352.200	19.398	0.101
352.300	24.378	0.101
352.400	17.447	0.101
352.500	36.442	0.100
352.600	25.831	0.101
352.700	33.695	0.101
352.800	21.456	0.100
352.900	23.464	0.101
353.000	21.932	0.101
353.100	14.198	0.100
353.200	41.318	0.101
353.300	31.350	0.101
353.400	23.168	0.101
353.500	25.528	0.101
353.600	23.071	0.101
353.700	22.109	0.101
353.800	15.564	0.100
353.900	23.052	0.101
354.000	28.219	0.101
354.100	17.886	0.101
354.200	17.739	0.101
354.300	28.966	0.101
354.400	16.846	0.101
354.500	23.833	0.101
354.600	23.778	0.101
354.700	30.278	0.101
354.800	27.781	0.100
354.900	41.573	0.101
355.000	29.623	0.101
355.100	13.985	0.101
355.200	20.781	0.101
355.300	23.145	0.101
355.400	25.835	0.101
355.500	35.899	0.101
355.600	19.896	0.101
355.700	21.709	0.101
355.800	12.889	0.101
355.900	32.232	0.100
356.000	23.509	0.101
356.100	29.660	0.101
356.200	17.418	0.101
356.300	18.561	0.101
356.400	15.929	0.101
356.500	38.235	0.101
356.600	25.002	0.101
356.700	33.639	0.100
356.800	32.035	0.101
356.900	15.386	0.101
357.000	31.327	0.101
357.100	25.845	0.100
357.200	23.905	0.100
357.300	24.904	0.101
357.400	22.427	0.101
357.500	22.059	0.101
357.600	25.250	0.100
357.700	17.624	0.101
357.800	26.869	0.101
357.900	18.721	0.101
358.000	30.119	0.101
358.100	34.653	0.101
358.200	24.025	0.101
358.300	26.048	0.101
358.400	23.433	0.101
358.500	19.024	0.101
358.600	22.708	0.101
358.700	20.504	0.101
358.800	25.308	0.101
358.900	26.429	0.101
359.000	25.347	0.101
359.100	36.066	0.101
359.200	22.231	0.100
359.300	23.015	0.101
359.400	31.649	0.101
359.500	28.503	0.101
359.600	2.784	0.100
359.700	17.933	0.101
359.800	31.988	0.101
359.900	14.831	0.101
360.000	28.971	0.100
360.100	15.007	0.101
360.200	22.663	0.101
360.300	17.078	0.101
360.400	41.850	0.101
360.500	31.739	0.100
360.600	32.911	0.101
360.700	15.780	0.101
360.800	4.801	0.101
360.900	22.900	0.101
361.000	37.414	0.101
361.100	31.826	0.101
361.200	16.095	0.101
361.300	18.919	0.101
361.400	11.105	0.101
361.500	27.999	0.101
361.600	29.943	0.101
361.700	22.417	0.101
361.800	34.605	0.101
361.900	19.255	0.101
362.000	23.348	0.101
362.100	23.983	0.101
362.200	19.764	0.101
362.300	32.087	0.101
362.400	27.619	0.101
362.500	37.249	0.100
362.600	23.377	0.101
362.700	11.197	0.101
362.800	23.412	0.101
362.900	25.799	0.101
363.000	27.706	0.101
363.100	25.465	0.101
363.200	40.800	0.101
363.300	23.432	0.101
363.400	15.176	0.101
363.500	21.700	0.101
363.600	20.254	0.101
363.700	17.167	0.100
363.800	39.068	0.100
363.900	28.771	0.101
364.000	33.674	0.100
364.100	23.307	0.101
364.200	23.564	0.101
364.300	25.429	0.101
364.400	20.341	0.100
364.500	36.330	0.101
364.600	21.074	0.101
364.700	22.255	0.101
364.800	25.486	0.101
364.900	25.350	0.101
365.000	30.393	0.100
365.100	17.539	0.101
365.200	33.625	0.101
365.300	15.799	0.101
365.400	24.909	0.101
365.500	26.756	0.101
365.600	23.051	0.100
365.700	28.817	0.100
365.800	16.837	0.100
365.900	31.996	0.101
366.000	19.496	0.101
366.100	21.812	0.101
366.200	18.738	0.101
366.300	25.099	0.101
366.400	16.536	0.101
366.500	19.373	0.101
366.600	14.167	0.101
366.700	22.770	0.101
366.800	39.536	0.101
366.900	23.112	0.101
367.000	17.445	0.101
367.100	14.839	0.101
367.200	21.833	0.101
367.300	30.646	0.101
367.400	22.284	0.101
367.500	21.394	0.101
367.600	21.585	0.101
367.700	18.935	0.101
367.800	23.476	0.101
367.900	11.477	0.101
368.000	27.499	0.101
368.100	22.918	0.101
368.200	27.000	0.101
368.300	22.447	0.101
368.400	23.900	0.100
368.500	15.156	0.101
368.600	27.331	0.101
368.700	33.857	0.101
368.800	21.280	0.101
368.900	25.769	0.101
369.000	29.870	0.101
369.100	20.535	0.101
369.200	17.023	0.101
369.300	14.263	0.101
369.400	29.736	0.101
369.500	29.381	0.101
369.600	28.748	0.101
369.700	22.905	0.101
369.800	12.770	0.101
369.900	24.916	0.101
370.000	21.334	0.101
370.100	23.590	0.101
370.200	25.685	0.101
370.300	5.546	0.101
370.400	18.220	0.101
370.500	-8.058	0.101
370.600	4.739	0.101
370.700	-14.136	0.100
370.800	-7.850	0.101
370.900	-10.699	0.101
371.000	-13.762	0.101
371.100	-22.245	0.101
371.200	-37.831	0.101
371.300	-8.190	0.101
371.400	-30.752	0.101
371.500	-20.692	0.101
371.600	-40.048	0.101
371.700	-40.422	0.101
371.800	-24.564	0.101
371.900	-35.228	0.101
372.000	-30.422	0.101
372.100	-38.855	0.101
372.200	-31.768	0.101
372.300	-39.429	0.101
372.400	-26.872	0.101
372.500	-48.498	0.101
372.600	-50.329	0.101
372.700	-40.208	0.101
372.800	-51.992	0.101
372.900	-53.634	0.101
373.000	-46.305	0.101
373.100	-43.207	0.101
373.200	-38.563	0.101
373.300	-64.491	0.101
373.400	-56.240	0.101
373.500	-50.149	0.101
373.600	-41.443	0.101
373.700	-42.642	0.101
373.800	-33.541	0.101
373.900	-52.348	0.101
374.000	-54.162	0.101
374.100	-55.223	0.101
374.200	-48.253	0.101
374.300	-62.380	0.101
374.400	-47.965	0.101
374.500	-63.575	0.101
374.600	-51.003	0.101
374.700	-59.025	0.101
374.800	-48.729	0.101
374.900	-55.565	0.101
375.000	-44.775	0.101
375.100	-48.331	0.101
375.200	-56.585	0.100
375.300	-65.471	0.100
375.400	-46.692	0.101
375.500	-42.128	0.101
375.600	-72.919	0.101
375.700	-47.579	0.101
375.800	-59.062	0.101
375.900	-51.571	0.101
376.000	-50.461	0.101
376.100	-62.631	0.101
376.200	-55.245	0.101
376.300	-55.195	0.101
376.400	-54.465	0.101
376.500	-58.376	0.101
376.600	-43.668	0.101
376.700	-50.586	0.101
376.800	-59.330	0.101
376.900	-60.828	0.101
377.000	-49.280	0.101
377.100	-56.032	0.101
377.200	-49.364	0.101
377.300	-53.871	0.101
377.400	-62.645	0.101
377.500	-61.227	0.101
377.600	-55.877	0.101
377.700	-56.573	0.101
377.800	-46.622	0.100
377.900	-53.918	0.101
378.000	-63.905	0.100
378.100	-46.365	0.100
378.200	-50.853	0.101
378.300	-46.697	0.101
378.400	-48.384	0.101
378.500	-40.780	0.101
378.600	-44.152	0.101
378.700	-51.578	0.101
378.800	-47.201	0.101
378.900	-55.632	0.100
379.000	-50.551	0.101
379.100	-49.649	0.101
379.200	-49.271	0.101
379.300	-47.667	0.100
379.400	-56.320	0.101
379.500	-50.277	0.101
379.600	-58.201	0.101
379.700	-50.676	0.101
379.800	-55.767	0.101
379.900	-40.088	0.101
380.000	-55.503	0.101
380.100	-50.976	0.101
380.200	-44.615	0.101
380.300	-32.395	0.101
380.400	-18.370	0.101
380.500	-20.414	0.100
380.600	-2.847	0.101
380.700	0.601	0.101
380.800	-3.627	0.101
380.900	15.849	0.101
381.000	-0.443	0.101
381.100	12.719	0.101
381.200	8.995	0.101
381.300	11.563	0.101
381.400	7.847	0.101
381.500	13.516	0.101
381.600	6.288	0.101
381.700	15.664	0.101
381.800	14.532	0.101
381.900	22.710	0.101
382.000	11.321	0.101
382.100	14.907	0.101
382.200	7.038	0.101
382.300	26.382	0.101
382.400	16.186	0.101
382.500	15.955	0.101
382.600	6.459	0.101
382.700	18.031	0.101
382.800	19.450	0.101
382.900	11.314	0.101
383.000	17.179	0.101
383.100	17.987	0.101
383.200	4.522	0.101
383.300	2.292	0.101
383.400	11.940	0.101
383.500	10.784	0.101
383.600	12.716	0.101
383.700	5.830	0.101
383.800	-15.180	0.101
383.900	-5.822	0.101
384.000	-0.357	0.101
384.100	10.104	0.101
384.200	-2.607	0.101
384.300	-0.555	0.101
384.400	-10.360	0.101
384.500	3.845	0.101
384.600	-0.811	0.101
384.700	1.775	0.101
384.800	10.790	0.101
384.900	12.877	0.101
385.000	7.725	0.101
385.100	1.295	0.101
385.200	-6.616	0.101
385.300	3.616	0.101
385.400	7.158	0.101
385.500	-3.385	0.101
385.600	5.029	0.101
385.700	-7.450	0.101
385.800	2.189	0.101
385.900	3.269	0.101
386.000	4.189	0.101
386.100	13.104	0.101
386.200	5.523	0.101
386.300	4.871	0.101
386.400	-2.141	0.101
386.500	9.182	0.101
386.600	-7.458	0.101
386.700	6.185	0.101
386.800	0.827	0.101
386.900	3.696	0.101
387.000	11.881	0.101
387.100	17.108	0.101
387.200	-4.721	0.101
387.300	0.624	0.101
387.400	7.601	0.101
387.500	6.163	0.101
387.600	4.372	0.101
387.700	1.678	0.101
387.800	-0.130	0.101
387.900	9.280	0.101
388.000	7.273	0.101
388.100	18.197	0.101
388.200	6.999	0.101
388.300	15.135	0.101
388.400	11.756	0.101
388.500	10.510	0.101
388.600	13.908	0.101
388.700	8.274	0.101
388.800	10.780	0.101
388.900	15.619	0.101
389.000	6.774	0.100
389.100	-1.427	0.101
389.200	9.520	0.101
389.300	17.702	0.101
389.400	10.724	0.101
389.500	3.595	0.101
389.600	4.360	0.101
389.700	15.926	0.101
389.800	16.014	0.101
389.900	25.065	0.101
390.000	14.574	0.101
390.100	16.577	0.101
390.200	16.830	0.101
390.300	24.022	0.101
390.400	23.609	0.101
390.500	13.653	0.101
390.600	8.035	0.101
390.700	16.257	0.101
390.800	18.874	0.101
390.900	26.896	0.101
391.000	24.108	0.101
391.100	24.727	0.101
391.200	14.456	0.101
391.300	9.314	0.101
391.400	10.729	0.101
391.500	24.321	0.101
391.600	23.586	0.101
391.700	11.982	0.101
391.800	24.710	0.101
391.900	10.847	0.101
392.000	28.522	0.101
392.100	22.677	0.101
392.200	36.343	0.101
392.300	27.353	0.101
392.400	14.891	0.101
392.500	22.150	0.101
392.600	27.785	0.101
392.700	23.516	0.101
392.800	15.351	0.101
392.900	22.662	0.101
393.000	20.446	0.101
393.100	17.272	0.101
393.200	18.924	0.101
393.300	18.829	0.101
393.400	27.248	0.101
393.500	10.333	0.101
393.600	25.110	0.101
393.700	35.285	0.101
393.800	20.382	0.101
393.900	24.130	0.100
394.000	20.658	0.101
394.100	25.265	0.101
394.200	26.533	0.101
394.300	19.182	0.101
394.400	21.608	0.101
394.500	26.921	0.101
394.600	34.287	0.101
394.700	18.223	0.101
394.800	16.917	0.101
394.900	22.447	0.101
395.000	19.331	0.101
395.100	27.842	0.101
395.200	33.070	0.101
395.300	20.717	0.101
395.400	13.540	0.101
395.500	24.336	0.101
395.600	23.699	0.101
395.700	17.201	0.101
395.800	27.398	0.101
395.900	28.594	0.101
396.000	19.495	0.101
396.100	27.916	0.101
396.200	26.809	0.101
396.300	17.423	0.101
396.400	15.132	0.101
396.500	24.720	0.101
396.600	14.931	0.101
396.700	20.134	0.101
396.800	20.467	0.101
396.900	12.723	0.101
397.000	26.960	0.101
397.100	16.327	0.101
397.200	30.084	0.101
397.300	27.144	0.101
397.400	28.113	0.101
397.500	40.232	0.101
397.600	21.071	0.101
397.700	18.668	0.101
397.800	18.972	0.100
397.900	29.027	0.101
398.000	33.378	0.101
398.100	31.129	0.101
398.200	24.659	0.101
398.300	12.205	0.101
398.400	20.876	0.101
398.500	23.175	0.101
398.600	30.777	0.101
398.700	23.107	0.101
398.800	31.567	0.101
398.900	22.311	0.101
399.000	11.903	0.101
399.100	24.558	0.101
399.200	31.522	0.101
399.300	10.422	0.101
399.400	25.868	0.101
399.500	13.028	0.101
399.600	30.719	0.101
399.700	18.624	0.101
399.800	25.830	0.101
399.900	23.152	0.101
400.000	10.314	0.101
400.100	23.603	0.101
400.200	31.731	0.101
400.300	23.058	0.101
400.400	34.741	0.101
400.500	16.716	0.101
400.600	20.376	0.101
400.700	10.146	0.101
400.800	17.433	0.101
400.900	31.462	0.101
401.000	32.427	0.101
401.100	14.428	0.101
401.200	18.856	0.101
401.300	24.768	0.101
401.400	27.175	0.101
401.500	13.637	0.101
401.600	33.073	0.101
401.700	31.590	0.101
401.800	30.888	0.101
401.900	24.532	0.101
402.000	24.556	0.101
402.100	16.156	0.101
402.200	32.372	0.101
402.300	22.813	0.101
402.400	25.787	0.101
402.500	28.784	0.101
402.600	22.724	0.101
402.700	33.518	0.101
402.800	20.781	0.101
402.900	10.603	0.101
403.000	18.848	0.101
403.100	26.241	0.101
403.200	23.818	0.101
403.300	28.270	0.101
403.400	19.978	0.101
403.500	21.792	0.101
403.600	29.005	0.101
403.700	19.475	0.101
403.800	30.340	0.101
403.900	18.592	0.101
404.000	26.365	0.101
404.100	20.690	0.101
404.200	24.692	0.101
404.300	22.477	0.101
404.400	25.602	0.101
404.500	11.022	0.101
404.600	28.549	0.101
404.700	22.336	0.101
404.800	14.259	0.101
404.900	24.064	0.101
405.000	34.032	0.101
405.100	27.897	0.101
405.200	24.084	0.101
405.300	19.615	0.101
405.400	31.809	0.101
405.500	30.873	0.101
405.600	16.675	0.101
405.700	24.978	0.101
405.800	24.355	0.101
405.900	16.707	0.101
406.000	28.183	0.101
406.100	27.296	0.101
406.200	32.390	0.101
406.300	19.855	0.101
406.400	15.723	0.101
406.500	19.986	0.101
406.600	18.487	0.101
406.700	33.645	0.101
406.800	27.002	0.101
406.900	20.166	0.101
407.000	21.611	0.101
407.100	16.275	0.101
407.200	29.428	0.101
407.300	34.925	0.101
407.400	23.454	0.101
407.500	24.805	0.101
407.600	23.863	0.101
407.700	21.899	0.101
407.800	16.072	0.101
407.900	15.150	0.101
408.000	23.640	0.101
408.100	23.548	0.101
408.200	18.384	0.101
408.300	30.835	0.101
408.400	17.383	0.101
408.500	27.179	0.101
408.600	22.878	0.101
408.700	20.140	0.101
408.800	12.270	0.101
408.900	18.707	0.101
409.000	24.072	0.101
409.100	36.563	0.101
409.200	11.701	0.101
409.300	27.061	0.101
409.400	19.616	0.101
409.500	20.583	0.101
409.600	23.735	0.101
409.700	33.246	0.101
409.800	26.615	0.101
409.900	11.928	0.101
410.000	23.156	0.101
410.100	25.975	0.101
410.200	10.618	0.101
410.300	26.976	0.101
410.400	24.069	0.101
410.500	25.497	0.101
410.600	21.538	0.101
410.700	27.027	0.101
410.800	27.432	0.101
410.900	25.766	0.101
411.000	27.482	0.101
411.100	29.338	0.101
411.200	19.389	0.101
411.300	37.683	0.101
411.400	21.984	0.101
411.500	26.386	0.101
411.600	17.617	0.101
411.700	18.701	0.101
411.800	20.850	0.101
411.900	26.474	0.101
412.000	23.992	0.101
412.100	21.309	0.101
412.200	25.507	0.101
412.300	24.481	0.101
412.400	22.239	0.101
412.500	24.781	0.101
412.600	25.861	0.101
412.700	10.456	0.101
412.800	16.878	0.101
412.900	15.797	0.101
413.000	23.127	0.101
413.100	24.670	0.101
413.200	14.408	0.101
413.300	29.504	0.101
413.400	22.183	0.101
413.500	37.848	0.101
413.600	11.001	0.101
413.700	28.650	0.101
413.800	12.246	0.101
413.900	20.995	0.101
414.000	24.620	0.101
414.100	29.929	0.101
414.200	17.495	0.101
414.300	29.459	0.101
414.400	6.959	0.101
414.500	27.437	0.101
414.600	23.370	0.101
414.700	27.888	0.101
414.800	21.406	0.101
414.900	31.617	0.101
415.000	21.110	0.101
415.100	24.080	0.101
415.200	13.047	0.101
415.300	27.532	0.101
415.400	22.746	0.101
415.500	17.388	0.100
415.600	5.821	0.101
415.700	32.468	0.101
415.800	17.579	0.101
415.900	21.804	0.101
416.000	23.852	0.101
416.100	31.539	0.101
416.200	17.284	0.101
416.300	20.773	0.101
416.400	15.618	0.101
416.500	22.451	0.101
416.600	26.265	0.101
416.700	12.148	0.101
416.800	12.732	0.101
416.900	23.073	0.101
417.000	15.024	0.101
417.100	32.920	0.101
417.200	25.828	0.101
417.300	25.838	0.101
417.400	21.298	0.101
417.500	22.214	0.101
417.600	31.870	0.101
417.700	28.790	0.101
417.800	25.418	0.101
417.900	33.822	0.101
418.000	26.853	0.101
418.100	19.761	0.101
418.200	23.130	0.101
418.300	19.280	0.101
418.400	28.620	0.101
418.500	21.284	0.101
418.600	29.024	0.101
418.700	19.494	0.101
418.800	20.951	0.101
418.900	16.495	0.101
419.000	17.615	0.101
419.100	24.018	0.101
419.200	25.675	0.101
419.300	27.423	0.101
419.400	25.264	0.101
419.500	17.030	0.101
419.600	23.747	0.101
419.700	23.401	0.101
419.800	19.928	0.101
419.900	18.730	0.101
420.000	18.325	0.101
420.100	33.651	0.101
420.200	13.836	0.101
420.300	27.402	0.101
420.400	32.534	0.101
420.500	23.429	0.101
420.600	34.178	0.101
420.700	13.123	0.101
420.800	30.990	0.101
420.900	10.441	0.101
421.000	14.516	0.101
421.100	35.232	0.101
421.200	16.877	0.101
421.300	27.625	0.101
421.400	21.415	0.101
421.500	20.852	0.101
421.600	26.034	0.101
421.700	15.873	0.101
421.800	14.469	0.101
421.900	30.296	0.101
422.000	31.187	0.101
422.100	30.853	0.101
422.200	23.888	0.101
422.300	15.203	0.101
422.400	12.795	0.101
422.500	18.651	0.101
422.600	26.755	0.101
422.700	26.541	0.101
422.800	22.382	0.101
422.900	21.976	0.101
423.000	25.322	0.101
423.100	17.091	0.101
423.200	22.095	0.101
423.300	30.784	0.101
423.400	19.472	0.101
423.500	8.320	0.101
423.600	24.710	0.101
423.700	23.036	0.101
423.800	14.695	0.101
423.900	22.832	0.101
424.000	22.501	0.101
424.100	29.297	0.101
424.200	23.052	0.101
424.300	7.092	0.101
424.400	32.125	0.101
424.500	19.313	0.101
424.600	11.680	0.101
424.700	20.956	0.101
424.800	23.938	0.101
424.900	17.374	0.101
425.000	24.403	0.101
425.100	26.999	0.101
425.200	17.585	0.101
425.300	28.451	0.101
425.400	28.029	0.101
425.500	21.979	0.101
425.600	22.444	0.101
425.700	13.532	0.101
425.800	22.385	0.101
425.900	17.595	0.101
426.000	19.124	0.101
426.100	21.572	0.101
426.200	23.271	0.101
426.300	13.693	0.101
426.400	18.589	0.101
426.500	17.215	0.101
426.600	23.729	0.101
426.700	3.289	0.101
426.800	28.877	0.101
426.900	19.745	0.101
427.000	22.498	0.101
427.100	16.395	0.101
427.200	29.676	0.101
427.300	23.896	0.101
427.400	14.945	0.101
427.500	16.475	0.101
427.600	16.590	0.101
427.700	10.306	0.101
427.800	23.697	0.101
427.900	20.286	0.101
428.000	28.876	0.101
428.100	16.612	0.101
428.200	22.272	0.101
428.300	41.292	0.101
428.400	29.232	0.101
428.500	12.054	0.101
428.600	29.919	0.101
428.700	23.945	0.101
428.800	22.217	0.101
428.900	22.289	0.101
429.000	27.221	0.101
429.100	14.362	0.101
429.200	26.319	0.101
429.300	31.587	0.101
429.400	19.279	0.101
429.500	18.979	0.101
429.600	24.576	0.101
429.700	14.971	0.101
429.800	12.911	0.101
429.900	13.745	0.101
430.000	23.418	0.101
430.100	21.110	0.101
430.200	28.325	0.101
430.300	30.700	0.101
430.400	18.073	0.101
430.500	10.101	0.101
430.600	23.782	0.101
430.700	36.949	0.101
430.800	29.324	0.101
430.900	13.616	0.101
431.000	26.159	0.101
431.100	21.928	0.101
431.200	18.483	0.101
431.300	26.446	0.101
431.400	13.039	0.101
431.500	18.364	0.101
431.600	24.001	0.101
431.700	18.055	0.101
431.800	30.309	0.101
431.900	19.117	0.101
432.000	17.454	0.101
432.100	36.693	0.101
432.200	20.651	0.101
432.300	14.130	0.101
432.400	27.388	0.101
432.500	23.259	0.101
432.600	26.867	0.101
432.700	17.858	0.101
432.800	23.734	0.101
432.900	24.111	0.101
433.000	18.324	0.101
433.100	17.589	0.101
433.200	21.606	0.101
433.300	26.322	0.101
433.400	22.751	0.101
433.500	20.457	0.101
433.600	17.221	0.101
433.700	14.419	0.101
433.800	35.962	0.101
433.900	32.868	0.101
434.000	26.804	0.101
434.100	27.235	0.101
434.200	25.523	0.101
434.300	28.652	0.101
434.400	21.837	0.101
434.500	21.197	0.101
434.600	20.579	0.101
434.700	6.592	0.101
434.800	27.776	0.101
434.900	15.109	0.101
435.000	16.955	0.101
435.100	24.970	0.101
435.200	24.062	0.101
435.300	30.137	0.101
435.400	23.596	0.101
435.500	20.395	0.101
435.600	30.957	0.101
435.700	21.622	0.101
435.800	24.039	0.101
435.900	27.181	0.101
436.000	26.649	0.101
436.100	23.393	0.101
436.200	19.666	0.101
436.300	21.156	0.101
436.400	10.002	0.101
436.500	13.585	0.101
436.600	34.068	0.101
436.700	20.405	0.101
436.800	15.723	0.101
436.900	26.707	0.101
437.000	18.730	0.101
437.100	15.277	0.101
437.200	16.563	0.101
437.300	20.158	0.101
437.400	36.245	0.101
437.500	11.592	0.101
437.600	25.421	0.101
437.700	19.591	0.101
437.800	9.576	0.101
437.900	11.443	0.101
438.000	26.393	0.101
438.100	14.113	0.101
438.200	34.230	0.101
438.300	19.134	0.101
438.400	32.942	0.101
438.500	26.035	0.101
438.600	11.774	0.101
438.700	22.295	0.101
438.800	30.878	0.101
438.900	21.224	0.101
439.000	26.349	0.101
439.100	30.554	0.101
439.200	26.324	0.101
439.300	23.899	0.101
439.400	12.173	0.101
439.500	11.322	0.101
439.600	16.340	0.101
439.700	18.154	0.101
439.800	27.242	0.101
439.900	22.058	0.101
440.000	20.969	0.101
440.100	17.444	0.101
440.200	26.438	0.101
440.300	20.067	0.101
440.400	-0.287	0.101
440.500	4.672	0.101
440.600	-8.952	0.101
440.700	-17.643	0.101
440.800	-8.594	0.101
440.900	-23.537	0.101
441.000	-17.562	0.101
441.100	-24.868	0.101
441.200	-22.543	0.101
441.300	-25.130	0.101
441.400	-28.660	0.101
441.500	-40.359	0.101
441.600	-25.124	0.101
441.700	-29.916	0.101
441.800	-38.969	0.101
441.900	-48.411	0.101
442.000	-42.700	0.101
442.100	-36.426	0.101
442.200	-27.296	0.101
442.300	-35.325	0.101
442.400	-41.483	0.101
442.500	-46.195	0.101
442.600	-52.737	0.101
442.700	-42.958	0.101
442.800	-55.538	0.101
442.900	-45.229	0.101
443.000	-64.243	0.101
443.100	-45.363	0.101
443.200	-58.875	0.101
443.300	-43.254	0.101
443.400	-56.145	0.101
443.500	-55.199	0.101
443.600	-57.851	0.101
443.700	-54.499	0.101
443.800	-69.488	0.101
443.900	-64.917	0.101
444.000	-65.397	0.101
444.100	-48.615	0.101
444.200	-61.571	0.101
444.300	-67.530	0.101
444.400	-46.874	0.101
444.500	-52.574	0.101
444.600	-64.149	0.101
444.700	-56.622	0.101
444.800	-54.682	0.101
444.900	-60.102	0.101
445.000	-59.307	0.101
445.100	-64.372	0.101
445.200	-61.088	0.101
445.300	-58.336	0.101
445.400	-77.059	0.101
445.500	-46.419	0.101
445.600	-57.244	0.101
445.700	-46.943	0.101
445.800	-55.801	0.101
445.900	-61.418	0.101
446.000	-56.913	0.101
446.100	-59.824	0.101
446.200	-44.552	0.101
446.300	-63.251	0.101
446.400	-64.482	0.101
446.500	-60.122	0.101
446.600	-59.440	0.101
446.700	-56.013	0.101
446.800	-53.622	0.101
446.900	-59.580	0.101
447.000	-56.549	0.101
447.100	-57.745	0.101
447.200	-49.743	0.101
447.300	-51.790	0.101
447.400	-61.170	0.101
447.500	-64.398	0.101
447.600	-67.777	0.101
447.700	-54.996	0.101
447.800	-55.295	0.101
447.900	-51.962	0.101
448.000	-54.248	0.101
448.100	-61.439	0.101
448.200	-62.011	0.101
448.300	-60.716	0.101
448.400	-44.101	0.101
448.500	-50.873	0.101
448.600	-61.857	0.101
448.700	-63.238	0.101
448.800	-53.150	0.101
448.900	-49.364	0.101
449.000	-60.185	0.101
449.100	-54.242	0.101
449.200	-56.642	0.101
449.300	-49.349	0.101
449.400	-53.834	0.101
449.500	-54.298	0.101
449.600	-58.831	0.101
449.700	-50.626	0.101
449.800	-52.675	0.101
449.900	-49.962	0.101
450.000	-55.672	0.101
450.100	-45.927	0.101
450.200	-58.912	0.101
450.300	-46.547	0.101
450.400	-40.337	0.101
450.500	-18.825	0.101
450.600	-19.149	0.101
450.700	-1.243	0.101
450.800	-20.275	0.101
450.900	0.362	0.101
451.000	7.750	0.101
451.100	11.496	0.101
451.200	16.682	0.101
451.300	16.011	0.101
451.400	14.258	0.101
451.500	21.332	0.101
451.600	8.892	0.101
451.700	5.117	0.101
451.800	13.256	0.101
451.900	23.261	0.101
452.000	16.940	0.101
452.100	26.329	0.101
452.200	10.023	0.101
452.300	12.582	0.101
452.400	11.970	0.101
452.500	16.585	0.101
452.600	9.310	0.101
452.700	16.036	0.101
452.800	13.939	0.101
452.900	11.750	0.101
453.000	3.363	0.101
453.100	17.034	0.101
453.200	9.358	0.101
453.300	11.664	0.101
453.400	10.146	0.101
453.500	8.259	0.101
453.600	-3.674	0.101
453.700	11.238	0.101
453.800	7.152	0.101
453.900	-8.280	0.101
454.000	5.933	0.101
454.100	5.316	0.101
454.200	2.995	0.101
454.300	4.545	0.101
454.400	-5.847	0.101
454.500	-14.175	0.101
454.600	11.356	0.101
454.700	0.395	0.101
454.800	8.243	0.101
454.900	1.969	0.101
455.000	4.423	0.101
455.100	9.889	0.101
455.200	-0.382	0.101
455.300	1.507	0.101
455.400	-7.257	0.101
455.500	4.072	0.101
455.600	0.410	0.101
455.700	1.155	0.101
455.800	13.178	0.101
455.900	0.740	0.101
456.000	11.007	0.101
456.100	-1.574	0.101
456.200	-8.658	0.101
456.300	-5.236	0.101
456.400	9.978	0.101
456.500	-4.082	0.101
456.600	7.088	0.101
456.700	-5.132	0.101
456.800	3.818	0.101
456.900	3.086	0.101
457.000	-1.337	0.101
457.100	-2.947	0.101
457.200	3.181	0.101
457.300	18.530	0.101
457.400	-0.870	0.101
457.500	6.738	0.101
457.600	26.739	0.101
457.700	14.175	0.101
457.800	9.957	0.101
457.900	-2.110	0.101
458.000	1.880	0.101
458.100	9.988	0.101
458.200	0.029	0.101
458.300	6.134	0.101
458.400	12.411	0.101
458.500	4.806	0.101
458.600	29.668	0.101
458.700	12.929	0.101
458.800	17.421	0.101
458.900	8.065	0.101
459.000	10.683	0.101
459.100	12.125	0.101
459.200	9.553	0.101
459.300	3.236	0.101
459.400	21.634	0.101
459.500	14.572	0.101
459.600	18.698	0.101
459.700	16.098	0.101
459.800	9.399	0.101
459.900	3.947	0.101
460.000	16.887	0.101
460.100	18.905	0.101
460.200	12.744	0.101
460.300	8.384	0.101
460.400	10.890	0.101
460.500	14.043	0.101
460.600	21.695	0.101
460.700	14.395	0.101
460.800	25.615	0.101
460.900	23.048	0.101
461.000	27.705	0.101
461.100	18.122	0.101
461.200	12.987	0.101
461.300	14.678	0.101
461.400	11.518	0.101
461.500	26.178	0.101
461.600	20.716	0.101
461.700	9.200	0.101
461.800	4.405	0.101
461.900	25.501	0.101
462.000	20.541	0.101
462.100	17.205	0.101
462.200	26.094	0.101
462.300	12.289	0.101
462.400	20.365	0.101
462.500	7.586	0.101
462.600	20.444	0.101
462.700	21.483	0.101
462.800	14.219	0.101
462.900	20.629	0.101
463.000	31.028	0.101
463.100	12.243	0.101
463.200	19.608	0.101
463.300	10.687	0.101
463.400	16.071	0.101
463.500	21.356	0.101
463.600	18.002	0.101
463.700	29.174	0.101
463.800	20.796	0.101
463.900	15.269	0.101
464.000	19.281	0.101
464.100	12.081	0.101
464.200	6.030	0.101
464.300	26.380	0.101
464.400	35.789	0.101
464.500	20.931	0.101
464.600	10.258	0.101
464.700	23.962	0.101
464.800	12.215	0.101
464.900	15.704	0.101
465.000	21.575	0.101
465.100	16.354	0.101
465.200	23.061	0.101
465.300	24.274	0.101
465.400	27.290	0.101
465.500	22.799	0.101
465.600	27.188	0.101
465.700	15.955	0.101
465.800	24.761	0.101
465.900	9.769	0.101
466.000	26.323	0.101
466.100	12.992	0.101
466.200	14.869	0.101
466.300	43.765	0.101
466.400	27.270	0.101
466.500	31.520	0.101
466.600	12.216	0.101
466.700	17.863	0.101
466.800	21.739	0.101
466.900	27.377	0.101
467.000	27.948	0.101
467.100	27.297	0.101
467.200	20.284	0.101
467.300	30.864	0.101
467.400	17.508	0.101
467.500	17.901	0.101
467.600	19.252	0.101
467.700	24.549	0.101
467.800	30.133	0.101
467.900	11.314	0.101
468.000	22.404	0.101
468.100	41.363	0.101
468.200	13.973	0.101
468.300	26.411	0.101
468.400	21.334	0.101
468.500	9.198	0.101
468.600	18.336	0.101
468.700	20.894	0.101
468.800	19.977	0.101
468.900	18.238	0.101
469.000	26.575	0.101
469.100	25.268	0.101
469.200	28.562	0.101
469.300	21.552	0.101
469.400	26.605	0.101
469.500	26.872	0.101
469.600	30.117	0.101
469.700	9.861	0.101
469.800	21.844	0.101
469.900	26.385	0.101
470.000	21.446	0.101
470.100	29.023	0.101
470.200	34.364	0.101
470.300	24.261	0.101
470.400	19.261	0.101
470.500	22.948	0.101
470.600	22.605	0.101
470.700	26.157	0.101
470.800	33.505	0.101
470.900	28.973	0.101
471.000	10.220	0.101
471.100	31.372	0.101
471.200	13.913	0.101
471.300	19.669	0.101
471.400	15.952	0.101
471.500	25.731	0.101
471.600	20.449	0.101
471.700	18.774	0.101
471.800	24.078	0.101
471.900	22.432	0.101
472.000	25.192	0.101
472.100	31.546	0.101
472.200	27.002	0.101
472.300	28.658	0.101
472.400	22.909	0.101
472.500	16.453	0.101
472.600	22.113	0.101
472.700	4.758	0.101
472.800	0.109	0.101
472.900	29.701	0.101
473.000	21.093	0.101
473.100	24.691	0.101
473.200	12.419	0.101
473.300	28.784	0.101
473.400	17.305	0.101
473.500	21.231	0.101
473.600	19.878	0.101
473.700	16.789	0.101
473.800	37.006	0.101
473.900	27.471	0.101
474.000	21.642	0.101
474.100	32.507	0.101
474.200	21.226	0.101
474.300	27.709	0.101
474.400	5.468	0.101
474.500	18.753	0.101
474.600	13.579	0.101
474.700	23.388	0.101
474.800	14.362	0.101
474.900	17.500	0.101
475.000	16.203	0.101
475.100	30.935	0.101
475.200	23.979	0.101
475.300	33.547	0.101
475.400	21.545	0.101
475.500	18.095	0.101
475.600	30.324	0.101
475.700	27.415	0.101
475.800	31.072	0.101
475.900	26.480	0.101
476.000	13.664	0.101
476.100	19.575	0.101
476.200	30.029	0.101
476.300	18.413	0.101
476.400	22.257	0.101
476.500	31.876	0.101
476.600	17.132	0.101
476.700	15.013	0.101
476.800	31.858	0.101
476.900	21.670	0.101
477.000	21.690	0.101
477.100	35.410	0.100
477.200	22.688	0.101
477.300	22.546	0.101
477.400	19.910	0.101
477.500	26.283	0.101
477.600	17.442	0.101
477.700	22.190	0.101
477.800	25.593	0.101
477.900	27.942	0.101
478.000	31.446	0.101
478.100	23.122	0.101
478.200	30.758	0.101
478.300	26.890	0.101
478.400	17.910	0.101
478.500	10.414	0.101
478.600	18.255	0.101
478.700	23.500	0.101
478.800	27.932	0.101
478.900	30.685	0.101
479.000	21.591	0.101
479.100	27.914	0.101
479.200	28.809	0.101
479.300	24.145	0.101
479.400	18.809	0.101
479.500	31.492	0.101
479.600	14.063	0.101
479.700	23.335	0.101
479.800	18.017	0.101
479.900	11.390	0.101
480.000	30.869	0.101
480.100	30.694	0.101
480.200	20.765	0.101
480.300	13.410	0.101
480.400	17.751	0.101
480.500	18.347	0.101
480.600	33.532	0.101
480.700	28.131	0.101
480.800	3.169	0.101
480.900	30.211	0.101
481.000	26.833	0.101
481.100	22.486	0.101
481.200	9.709	0.101
481.300	28.922	0.101
481.400	31.229	0.101
481.500	10.291	0.101
481.600	22.581	0.101
481.700	27.245	0.101
481.800	35.433	0.101
481.900	22.862	0.101
482.000	17.601	0.101
482.100	30.742	0.101
482.200	21.462	0.101
482.300	12.809	0.101
482.400	13.784	0.101
482.500	31.791	0.101
482.600	19.538	0.101
482.700	10.690	0.101
482.800	21.800	0.101
482.900	34.895	0.101
483.000	16.773	0.101
483.100	22.329	0.101
483.200	20.782	0.101
483.300	27.809	0.101
483.400	24.204	0.101
483.500	34.687	0.101
483.600	15.638	0.101
483.700	21.367	0.101
483.800	19.998	0.101
483.900	23.171	0.101
484.000	17.271	0.101
484.100	10.066	0.101
484.200	22.844	0.101
484.300	17.919	0.101
484.400	19.326	0.101
484.500	23.090	0.101
484.600	27.451	0.101
484.700	10.978	0.101
484.800	20.058	0.101
484.900	11.420	0.101
485.000	26.318	0.101
485.100	26.551	0.101
485.200	10.463	0.101
485.300	13.765	0.101
485.400	20.435	0.101
485.500	24.775	0.101
485.600	34.276	0.101
485.700	13.617	0.101
485.800	11.851	0.101
485.900	19.594	0.101
486.000	23.040	0.101
486.100	21.309	0.101
486.200	28.547	0.101
486.300	18.266	0.101
486.400	24.901	0.101
486.500	18.531	0.101
486.600	25.586	0.101
486.700	3.179	0.101
486.800	25.677	0.101
486.900	21.040	0.101
487.000	16.563	0.101
487.100	11.076	0.101
487.200	36.444	0.101
487.300	21.576	0.101
487.400	25.621	0.101
487.500	25.375	0.101
487.600	27.029	0.101
487.700	30.532	0.101
487.800	18.972	0.101
487.900	19.859	0.101
488.000	28.745	0.101
488.100	11.667	0.101
488.200	20.105	0.101
488.300	26.795	0.101
488.400	21.617	0.101
488.500	18.589	0.101
488.600	12.405	0.101
488.700	21.418	0.101
488.800	18.444	0.101
488.900	14.913	0.101
489.000	25.045	0.101
489.100	31.868	0.101
489.200	26.586	0.101
489.300	18.949	0.101
489.400	26.607	0.101
489.500	15.711	0.101
489.600	15.642	0.101
489.700	21.916	0.101
489.800	27.881	0.101
489.900	30.815	0.101
490.000	11.401	0.101
490.100	26.342	0.101
490.200	30.387	0.101
490.300	11.998	0.101
490.400	17.562	0.101
490.500	2.824	0.101
490.600	21.702	0.101
490.700	14.052	0.101
490.800	25.083	0.101
490.900	26.854	0.101
491.000	31.584	0.101
491.100	24.938	0.101
491.200	20.500	0.101
491.300	15.161	0.101
491.400	28.420	0.101
491.500	18.442	0.101
491.600	33.631	0.101
491.700	14.553	0.101
491.800	22.706	0.101
491.900	21.487	0.101
492.000	11.994	0.101
492.100	25.443	0.101
492.200	28.407	0.101
492.300	10.679	0.101
492.400	22.886	0.101
492.500	15.371	0.101
492.600	29.925	0.101
492.700	13.392	0.101
492.800	16.423	0.101
492.900	20.800	0.101
493.000	34.305	0.101
493.100	15.017	0.101
493.200	25.811	0.101
493.300	26.793	0.101
493.400	13.388	0.101
493.500	33.165	0.101
493.600	14.751	0.101
493.700	10.434	0.101
493.800	13.382	0.101
493.900	24.881	0.101
494.000	24.269	0.101
494.100	20.947	0.101
494.200	15.255	0.101
494.300	16.978	0.101
494.400	19.301	0.101
494.500	22.514	0.101
494.600	17.876	0.101
494.700	21.850	0.101
494.800	23.891	0.101
494.900	17.307	0.101
495.000	22.254	0.101
495.100	12.919	0.101
495.200	22.189	0.101
495.300	26.340	0.101
495.400	18.753	0.101
495.500	15.554	0.101
495.600	17.806	0.101
495.700	19.615	0.101
495.800	28.778	0.101
495.900	36.015	0.101
496.000	12.932	0.101
496.100	16.608	0.101
496.200	14.485	0.101
496.300	17.221	0.101
496.400	15.191	0.101
496.500	29.948	0.101
496.600	8.170	0.101
496.700	24.904	0.101
496.800	22.348	0.101
496.900	29.395	0.101
497.000	15.061	0.101
497.100	30.408	0.101
497.200	17.076	0.101
497.300	11.346	0.101
497.400	15.209	0.101
497.500	25.710	0.101
497.600	26.850	0.101
497.700	16.613	0.101
497.800	24.481	0.101
497.900	23.024	0.101
498.000	27.092	0.101
498.100	23.450	0.101
498.200	20.212	0.101
498.300	17.417	0.101
498.400	29.048	0.101
498.500	24.292	0.101
498.600	21.284	0.101
498.700	28.979	0.101
498.800	22.330	0.101
498.900	16.930	0.101
499.000	19.835	0.101
499.100	27.150	0.101
499.200	17.505	0.101
499.300	30.446	0.101
499.400	9.756	0.101
499.500	18.017	0.101
499.600	30.884	0.101
499.700	19.850	0.101
499.800	30.922	0.101
499.900	19.695	0.101
500.000	23.176	0.101
500.100	27.141	0.101
500.200	16.407	0.101
500.300	7.573	0.101
500.400	19.142	0.101
500.500	29.509	0.101
500.600	12.919	0.101
500.700	22.503	0.101
500.800	29.304	0.101
500.900	18.890	0.101
501.000	17.859	0.101
501.100	0.435	0.101
501.200	24.826	0.101
501.300	9.428	0.101
501.400	10.656	0.101
501.500	30.184	0.101
501.600	9.397	0.101
501.700	30.455	0.101
501.800	25.554	0.101
501.900	22.062	0.101
502.000	7.393	0.101
502.100	22.138	0.101
502.200	6.050	0.101
502.300	8.375	0.101
502.400	15.365	0.101
502.500	24.592	0.101
502.600	14.192	0.101
502.700	20.379	0.101
502.800	29.280	0.101
502.900	23.158	0.101
503.000	31.031	0.101
503.100	16.840	0.101
503.200	3.668	0.101
503.300	20.108	0.101
503.400	19.550	0.101
503.500	21.592	0.101
503.600	17.698	0.101
503.700	25.984	0.101
503.800	13.772	0.101
503.900	20.124	0.101
504.000	19.386	0.101
504.100	18.742	0.101
504.200	24.119	0.101
504.300	6.167	0.101
504.400	38.740	0.101
504.500	27.855	0.101
504.600	14.750	0.101
504.700	19.537	0.101
504.800	19.126	0.101
504.900	18.636	0.101
505.000	24.472	0.101
505.100	22.108	0.101
505.200	5.440	0.101
505.300	17.277	0.101
505.400	27.242	0.101
505.500	16.942	0.101
505.600	15.383	0.101
505.700	19.137	0.101
505.800	30.946	0.101
505.900	29.080	0.101
506.000	18.136	0.101
506.100	13.793	0.101
506.200	26.402	0.101
506.300	3.585	0.101
506.400	24.887	0.101
506.500	16.141	0.101
506.600	12.538	0.101
506.700	36.662	0.101
506.800	18.975	0.101
506.900	18.864	0.101
507.000	20.406	0.101
507.100	30.369	0.101
507.200	22.816	0.101
507.300	14.235	0.101
507.400	15.869	0.101
507.500	11.664	0.101
507.600	30.420	0.101
507.700	26.127	0.101
507.800	18.026	0.101
507.900	17.210	0.101
508.000	23.033	0.101
508.100	23.187	0.101
508.200	16.973	0.101
508.300	12.490	0.101
508.400	21.730	0.101
508.500	18.655	0.101
508.600	28.205	0.101
508.700	25.136	0.101
508.800	9.716	0.101
508.900	11.819	0.101
509.000	14.128	0.101
509.100	23.791	0.101
509.200	17.013	0.101
509.300	17.182	0.101
509.400	27.526	0.101
509.500	14.570	0.101
509.600	25.624	0.101
509.700	18.851	0.101
509.800	16.410	0.101
509.900	24.545	0.101
510.000	26.809	0.101
510.100	19.225	0.101
510.200	13.133	0.101
510.300	16.540	0.101
510.400	3.267	0.101
510.500	-1.870	0.101
510.600	-3.189	0.101
510.700	-9.613	0.101
510.800	-12.023	0.101
510.900	-11.603	0.101
511.000	-15.780	0.101
511.100	-27.493	0.101
511.200	-25.934	0.101
511.300	-29.578	0.101
511.400	-40.980	0.101
511.500	-37.362	0.101
511.600	-32.550	0.101
511.700	-40.457	0.101
511.800	-38.415	0.101
511.900	-37.367	0.101
512.000	-55.750	0.101
512.100	-44.089	0.101
512.200	-42.246	0.101
512.300	-36.389	0.101
512.400	-61.201	0.101
512.500	-52.666	0.101
512.600	-52.308	0.101
512.700	-43.084	0.101
512.800	-60.659	0.101
512.900	-36.745	0.101
513.000	-57.341	0.101
513.100	-54.248	0.101
513.200	-57.802	0.101
513.300	-54.809	0.101
513.400	-47.972	0.101
513.500	-60.841	0.101
513.600	-63.589	0.101
513.700	-65.791	0.101
513.800	-65.645	0.101
513.900	-62.145	0.101
514.000	-56.367	0.101
514.100	-66.486	0.101
514.200	-58.721	0.101
514.300	-66.064	0.101
514.400	-74.188	0.101
514.500	-58.867	0.101
514.600	-64.569	0.101
514.700	-57.748	0.101
514.800	-61.006	0.101
514.900	-53.721	0.101
515.000	-58.416	0.101
515.100	-57.701	0.101
515.200	-58.937	0.101
515.300	-68.817	0.101
515.400	-50.287	0.101
515.500	-62.611	0.101
515.600	-57.457	0.101
515.700	-70.473	0.101
515.800	-62.851	0.101
515.900	-62.626	0.101
516.000	-64.234	0.101
516.100	-61.158	0.101
516.200	-60.179	0.101
516.300	-71.885	0.101
516.400	-78.665	0.101
516.500	-61.781	0.101
516.600	-60.112	0.101
516.700	-71.112	0.101
516.800	-65.637	0.101
516.900	-54.473	0.101
517.000	-50.285	0.101
517.100	-63.771	0.101
517.200	-51.855	0.101
517.300	-72.228	0.101
517.400	-64.580	0.101
517.500	-58.510	0.101
517.600	-56.641	0.101
517.700	-54.620	0.101
517.800	-61.399	0.101
517.900	-73.892	0.101
518.000	-60.740	0.101
518.100	-69.010	0.101
518.200	-56.091	0.101
518.300	-51.615	0.101
518.400	-48.575	0.101
518.500	-51.741	0.101
518.600	-56.731	0.101
518.700	-62.762	0.101
518.800	-58.413	0.101
518.900	-59.097	0.101
519.000	-50.427	0.101
519.100	-48.288	0.101
519.200	-55.848	0.101
519.300	-57.413	0.101
519.400	-67.840	0.101
519.500	-58.404	0.101
519.600	-54.120	0.101
519.700	-67.996	0.101
519.800	-49.292	0.101
519.900	-52.515	0.101
520.000	-69.339	0.101
520.100	-52.133	0.101
520.200	-51.824	0.101
520.300	-45.161	0.101
520.400	-40.512	0.101
520.500	-22.894	0.101
520.600	-13.382	0.101
520.700	-20.976	0.101
520.800	-13.474	0.101
520.900	2.375	0.101
521.000	-5.990	0.101
521.100	8.607	0.101
521.200	4.545	0.101
521.300	-4.267	0.101
521.400	5.840	0.101
521.500	10.221	0.101
521.600	17.138	0.101
521.700	1.533	0.101
521.800	21.061	0.101
521.900	10.033	0.101
522.000	10.031	0.101
522.100	14.807	0.101
522.200	26.864	0.101
522.300	10.392	0.101
522.400	24.140	0.101
522.500	4.976	0.101
522.600	4.012	0.101
522.700	9.110	0.101
522.800	17.654	0.101
522.900	13.082	0.101
523.000	7.695	0.101
523.100	15.641	0.101
523.200	11.177	0.101
523.300	11.152	0.101
523.400	9.088	0.101
523.500	-8.549	0.101
523.600	6.041	0.101
523.700	-5.060	0.101
523.800	7.224	0.101
523.900	15.362	0.101
524.000	16.847	0.101
524.100	-12.935	0.101
524.200	6.947	0.101
524.300	-0.932	0.101
524.400	2.659	0.101
524.500	11.577	0.101
524.600	0.771	0.101
524.700	12.862	0.101
524.800	9.282	0.101
524.900	-12.389	0.101
525.000	-13.915	0.101
525.100	5.410	0.101
525.200	-4.133	0.101
525.300	5.090	0.101
525.400	-4.897	0.101
525.500	-0.275	0.101
525.600	-4.750	0.101
525.700	-0.142	0.101
525.800	-2.511	0.101
525.900	-9.621	0.101
526.000	9.394	0.101
526.100	6.072	0.101
526.200	7.421	0.101
526.300	3.932	0.101
526.400	4.180	0.101
526.500	4.553	0.101
526.600	12.010	0.101
526.700	-7.872	0.101
526.800	-3.783	0.101
526.900	4.185	0.101
527.000	-4.423	0.101
527.100	19.036	0.101
527.200	-7.475	0.101
527.300	3.080	0.101
527.400	9.338	0.101
527.500	10.623	0.101
527.600	-1.562	0.101
527.700	-2.955	0.101
527.800	9.864	0.101
527.900	8.669	0.101
528.000	2.733	0.101
528.100	19.787	0.101
528.200	8.024	0.101
528.300	11.092	0.101
528.400	10.169	0.101
528.500	11.793	0.101
528.600	6.224	0.101
528.700	8.151	0.101
528.800	7.850	0.101
528.900	25.993	0.101
529.000	5.653	0.101
529.100	14.456	0.101
529.200	9.156	0.101
529.300	8.107	0.101
529.400	20.855	0.101
529.500	14.904	0.101
529.600	18.636	0.101
529.700	24.700	0.101
529.800	10.872	0.101
529.900	16.325	0.101
530.000	18.161	0.101
530.100	22.348	0.101
530.200	10.110	0.101
530.300	7.008	0.101
530.400	3.607	0.101
530.500	16.018	0.101
530.600	14.780	0.101
530.700	14.761	0.101
530.800	11.478	0.101
530.900	-1.775	0.101
531.000	18.112	0.101
531.100	20.190	0.101
531.200	21.164	0.101
531.300	11.263	0.101
531.400	29.429	0.101
531.500	12.898	0.101
531.600	22.409	0.101
531.700	15.656	0.101
531.800	22.834	0.101
531.900	37.657	0.101
532.000	17.237	0.101
532.100	23.993	0.101
532.200	20.460	0.101
532.300	19.336	0.101
532.400	12.740	0.101
532.500	10.423	0.101
532.600	15.527	0.101
532.700	21.784	0.101
532.800	10.725	0.101
532.900	24.460	0.101
533.000	10.531	0.101
533.100	12.255	0.101
533.200	11.586	0.101
533.300	22.686	0.101
533.400	13.212	0.101
533.500	19.464	0.101
533.600	20.558	0.101
533.700	20.472	0.101
533.800	13.290	0.101
533.900	34.452	0.101
534.000	13.899	0.101
534.100	27.017	0.101
534.200	7.596	0.101
534.300	35.212	0.101
534.400	27.855	0.101
534.500	17.218	0.101
534.600	20.922	0.101
534.700	17.335	0.101
534.800	12.182	0.101
534.900	13.894	0.101
535.000	28.655	0.101
535.100	28.199	0.101
535.200	28.209	0.101
535.300	18.392	0.101
535.400	12.512	0.101
535.500	13.609	0.101
535.600	28.792	0.101
535.700	24.357	0.101
535.800	12.541	0.101
535.900	18.932	0.101
536.000	25.259	0.101
536.100	19.341	0.101
536.200	3.707	0.101
536.300	25.424	0.101
536.400	25.453	0.101
536.500	23.916	0.101
536.600	21.112	0.101
536.700	27.550	0.101
536.800	16.481	0.101
536.900	14.989	0.101
537.000	27.507	0.101
537.100	29.243	0.101
537.200	18.887	0.101
537.300	14.195	0.101
537.400	27.199	0.101
537.500	11.879	0.101
537.600	24.264	0.101
537.700	24.308	0.101
537.800	22.671	0.101
537.900	24.221	0.101
538.000	26.472	0.101
538.100	8.017	0.101
538.200	19.509	0.101
538.300	19.368	0.101
538.400	26.069	0.101
538.500	20.709	0.101
538.600	12.370	0.101
538.700	18.491	0.101
538.800	27.415	0.101
538.900	28.289	0.101
539.000	13.476	0.101
539.100	23.549	0.101
539.200	14.237	0.101
539.300	26.506	0.101
539.400	23.213	0.101
539.500	20.133	0.101
539.600	24.435	0.101
539.700	20.101	0.101
539.800	25.931	0.101
539.900	15.299	0.101
540.000	30.416	0.101
540.100	36.220	0.101
540.200	7.235	0.101
540.300	13.034	0.101
540.400	20.231	0.101
540.500	14.527	0.101
540.600	40.963	0.101
540.700	24.758	0.101
540.800	9.618	0.101
540.900	30.559	0.101
541.000	25.454	0.101
541.100	31.715	0.101
541.200	28.357	0.101
541.300	14.098	0.101
541.400	21.279	0.101
541.500	18.194	0.101
541.600	11.213	0.101
541.700	33.414	0.101
541.800	24.369	0.101
541.900	44.210	0.101
542.000	17.457	0.101
542.100	29.534	0.101
542.200	17.202	0.101
542.300	20.767	0.101
542.400	13.679	0.101
542.500	7.601	0.101
542.600	21.151	0.101
542.700	29.949	0.101
542.800	27.358	0.101
542.900	30.679	0.101
543.000	14.912	0.101
543.100	22.466	0.101
543.200	25.227	0.101
543.300	15.768	0.101
543.400	28.203	0.101
543.500	13.273	0.101
543.600	26.923	0.101
543.700	20.509	0.101
543.800	5.109	0.101
543.900	19.506	0.101
544.000	21.796	0.101
544.100	10.990	0.101
544.200	5.994	0.101
544.300	32.636	0.101
544.400	19.528	0.101
544.500	11.967	0.101
544.600	30.193	0.101
544.700	31.761	0.101
544.800	18.329	0.101
544.900	15.996	0.101
545.000	40.278	0.101
545.100	13.311	0.101
545.200	30.225	0.101
545.300	28.528	0.101
545.400	28.141	0.101
545.500	21.159	0.101
545.600	9.299	0.101
545.700	22.967	0.101
545.800	21.107	0.101
545.900	20.857	0.101
546.000	23.352	0.101
546.100	16.468	0.101
546.200	25.245	0.101
546.300	32.998	0.101
546.400	15.514	0.101
546.500	28.726	0.101
546.600	22.959	0.101
546.700	20.371	0.101
546.800	26.508	0.101
546.900	15.559	0.101
547.000	21.422	0.101
547.100	19.076	0.101
547.200	24.838	0.101
547.300	15.216	0.101
547.400	11.176	0.101
547.500	13.252	0.101
547.600	28.642	0.101
547.700	16.227	0.101
547.800	31.804	0.101
547.900	22.711	0.101
548.000	21.650	0.101
548.100	12.051	0.101
548.200	29.886	0.101
548.300	23.968	0.101
548.400	26.103	0.101
548.500	28.593	0.101
548.600	19.246	0.101
548.700	17.334	0.101
548.800	14.367	0.101
548.900	21.182	0.101
549.000	24.960	0.101
549.100	11.808	0.101
549.200	30.880	0.101
549.300	11.429	0.101
549.400	15.736	0.101
549.500	21.980	0.101
549.600	19.794	0.101
549.700	31.831	0.101
549.800	20.889	0.101
549.900	26.712	0.101
550.000	16.932	0.101
550.100	18.166	0.101
550.200	26.957	0.101
550.300	18.218	0.101
550.400	39.373	0.101
550.500	4.626	0.101
550.600	22.654	0.101
550.700	14.727	0.101
550.800	15.480	0.101
550.900	17.124	0.101
551.000	18.270	0.101
551.100	18.503	0.101
551.200	22.011	0.101
551.300	17.268	0.101
551.400	17.122	0.101
551.500	16.131	0.101
551.600	25.411	0.101
551.700	29.308	0.101
551.800	16.085	0.101
551.900	28.279	0.101
552.000	11.996	0.101
552.100	20.409	0.101
552.200	17.810	0.101
552.300	36.033	0.101
552.400	21.024	0.101
552.500	12.847	0.101
552.600	4.210	0.101
552.700	21.141	0.101
552.800	33.897	0.101
552.900	14.696	0.101
553.000	33.474	0.101
553.100	17.070	0.101
553.200	18.952	0.101
553.300	19.991	0.101
553.400	20.899	0.101
553.500	25.600	0.101
553.600	5.978	0.101
553.700	14.971	0.101
553.800	19.439	0.101
553.900	23.208	0.101
554.000	27.118	0.101
554.100	15.321	0.101
554.200	24.552	0.101
554.300	29.914	0.101
554.400	12.277	0.101
554.500	22.473	0.101
554.600	23.099	0.101
554.700	21.466	0.101
554.800	24.539	0.101
554.900	19.483	0.101
555.000	18.814	0.101
555.100	26.386	0.101
555.200	15.381	0.101
555.300	25.257	0.101
555.400	22.436	0.101
555.500	18.818	0.101
555.600	8.952	0.101
555.700	22.168	0.101
555.800	21.041	0.101
555.900	8.749	0.101
556.000	19.340	0.101
556.100	24.913	0.101
556.200	38.523	0.101
556.300	25.655	0.101
556.400	19.741	0.101
556.500	17.081	0.101
556.600	17.305	0.101
556.700	14.965	0.101
556.800	26.684	0.101
556.900	13.714	0.101
557.000	8.882	0.101
557.100	32.554	0.101
557.200	24.880	0.101
557.300	26.394	0.101
557.400	10.328	0.101
557.500	12.476	0.101
557.600	29.827	0.101
557.700	8.737	0.101
557.800	18.912	0.101
557.900	18.637	0.101
558.000	0.950	0.101
558.100	16.654	0.101
558.200	23.115	0.101
558.300	24.019	0.101
558.400	16.994	0.101
558.500	19.712	0.101
558.600	29.200	0.101
558.700	20.509	0.101
558.800	9.853	0.101
558.900	25.690	0.101
559.000	22.264	0.101
559.100	11.616	0.101
559.200	12.492	0.101
559.300	33.577	0.101
559.400	21.868	0.101
559.500	19.627	0.101
559.600	15.654	0.101
559.700	27.850	0.101
559.800	26.890	0.101
559.900	17.644	0.101
560.000	25.145	0.101
560.100	28.281	0.101
560.200	18.410	0.101
560.300	18.001	0.101
560.400	16.000	0.101
560.500	8.888	0.101
560.600	21.186	0.101
560.700	21.451	0.101
560.800	32.013	0.101
560.900	24.326	0.101
561.000	27.695	0.101
561.100	19.452	0.101
561.200	8.240	0.101
561.300	9.472	0.101
561.400	29.116	0.101
561.500	15.153	0.101
561.600	16.944	0.101
561.700	22.931	0.101
561.800	28.509	0.101
561.900	17.566	0.101
562.000	26.279	0.101
562.100	24.596	0.101
562.200	28.140	0.101
562.300	28.116	0.101
562.400	15.362	0.101
562.500	15.741	0.101
562.600	18.015	0.101
562.700	26.797	0.101
562.800	24.017	0.101
562.900	28.446	0.101
563.000	10.816	0.101
563.100	19.392	0.101
563.200	18.706	0.101
563.300	22.001	0.101
563.400	19.116	0.101
563.500	17.291	0.101
563.600	30.773	0.101
563.700	28.092	0.101
563.800	5.677	0.101
563.900	19.995	0.101
564.000	27.575	0.101
564.100	29.089	0.101
564.200	22.588	0.101
564.300	20.710	0.101
564.400	18.679	0.101
564.500	14.762	0.101
564.600	24.767	0.101
564.700	7.874	0.101
564.800	32.612	0.101
564.900	11.205	0.101
565.000	24.372	0.101
565.100	24.333	0.101
565.200	9.362	0.101
565.300	30.259	0.101
565.400	26.561	0.101
565.500	30.543	0.101
565.600	13.187	0.101
565.700	11.958	0.101
565.800	1.891	0.101
565.900	31.205	0.101
566.000	11.478	0.101
566.100	11.264	0.101
566.200	34.473	0.101
566.300	26.905	0.101
566.400	27.998	0.101
566.500	16.919	0.101
566.600	21.518	0.101
566.700	27.041	0.101
566.800	12.886	0.101
566.900	20.287	0.101
567.000	20.679	0.101
567.100	34.974	0.101
567.200	23.022	0.101
567.300	19.626	0.101
567.400	14.179	0.101
567.500	18.767	0.101
567.600	18.229	0.101
567.700	29.598	0.101
567.800	23.607	0.101
567.900	11.677	0.101
568.000	27.728	0.101
568.100	24.301	0.101
568.200	12.386	0.101
568.300	11.826	0.101
568.400	25.768	0.101
568.500	31.940	0.101
568.600	23.248	0.101
568.700	18.964	0.101
568.800	29.219	0.101
568.900	11.049	0.101
569.000	20.824	0.101
569.100	14.195	0.101
569.200	20.290	0.101
569.300	8.416	0.101
569.400	14.249	0.101
569.500	26.634	0.101
569.600	28.640	0.101
569.700	22.519	0.101
569.800	16.033	0.101
569.900	19.135	0.101
570.000	24.064	0.101
570.100	20.986	0.101
570.200	16.975	0.101
570.300	17.411	0.101
570.400	16.113	0.101
570.500	22.120	0.101
570.600	23.476	0.101
570.700	23.359	0.101
570.800	16.070	0.101
570.900	17.435	0.101
571.000	18.844	0.101
571.100	16.221	0.101
571.200	18.533	0.101
571.300	18.128	0.101
571.400	16.275	0.101
571.500	21.070	0.101
571.600	19.912	0.101
571.700	14.363	0.101
571.800	29.864	0.101
571.900	21.575	0.101
572.000	19.515	0.101
572.100	11.818	0.101
572.200	14.169	0.101
572.300	20.904	0.101
572.400	16.627	0.101
572.500	21.365	0.101
572.600	19.800	0.101
572.700	8.662	0.101
572.800	18.994	0.101
572.900	32.997	0.101
573.000	24.106	0.101
573.100	29.048	0.101
573.200	13.184	0.101
573.300	23.899	0.101
573.400	29.830	0.101
573.500	8.906	0.101
573.600	7.288	0.101
573.700	21.119	0.101
573.800	19.056	0.101
573.900	22.419	0.101
574.000	18.024	0.101
574.100	29.628	0.101
574.200	27.037	0.101
574.300	20.417	0.101
574.400	23.587	0.101
574.500	29.821	0.101
574.600	21.711	0.101
574.700	23.388	0.101
574.800	13.833	0.101
574.900	16.558	0.101
575.000	25.892	0.101
575.100	19.942	0.101
575.200	27.318	0.101
575.300	7.747	0.101
575.400	21.912	0.101
575.500	15.475	0.101
575.600	23.844	0.101
575.700	19.835	0.101
575.800	16.702	0.101
575.900	24.700	0.101
576.000	13.484	0.101
576.100	27.816	0.101
576.200	25.821	0.101
576.300	22.685	0.101
576.400	22.828	0.101
576.500	18.047	0.101
576.600	13.963	0.101
576.700	23.489	0.101
576.800	17.496	0.101
576.900	4.372	0.101
577.000	26.312	0.101
577.100	27.361	0.101
577.200	17.890	0.101
577.300	24.579	0.101
577.400	30.375	0.101
577.500	22.341	0.101
577.600	22.897	0.101
577.700	17.598	0.101
577.800	10.650	0.101
577.900	21.617	0.101
578.000	19.820	0.101
578.100	18.304	0.101
578.200	34.217	0.101
578.300	27.097	0.101
578.400	19.172	0.101
578.500	13.177	0.101
578.600	7.901	0.101
578.700	22.082	0.101
578.800	28.560	0.101
578.900	20.943	0.101
579.000	29.410	0.101
579.100	19.762	0.101
579.200	14.418	0.101
579.300	18.223	0.101
579.400	19.980	0.101
579.500	23.320	0.101
579.600	19.557	0.101
579.700	14.386	0.101
579.800	14.417	0.101
579.900	27.697	0.101
580.000	15.991	0.101
580.100	10.105	0.101
580.200	22.052	0.100
580.300	14.913	0.101
580.400	13.127	0.101
580.500	12.355	0.101
580.600	9.007	0.101
580.700	3.616	0.101
580.800	-20.349	0.101
580.900	-10.535	0.101
581.000	-21.515	0.101
581.100	-37.657	0.100
581.200	-26.819	0.101
581.300	-30.680	0.101
581.400	-25.706	0.101
581.500	-47.432	0.100
581.600	-40.534	0.100
581.700	-35.060	0.100
581.800	-34.356	0.100
581.900	-38.638	0.100
582.000	-41.290	0.100
582.100	-47.488	0.100
582.200	-52.175	0.100
582.300	-60.472	0.100
582.400	-49.051	0.100
582.500	-61.242	0.100
582.600	-55.252	0.100
582.700	-50.677	0.100
582.800	-52.736	0.100
582.900	-58.785	0.100
583.000	-53.100	0.100
583.100	-64.496	0.100
583.200	-68.436	0.100
583.300	-61.637	0.100
583.400	-44.688	0.100
583.500	-63.560	0.100
583.600	-63.304	0.100
583.700	-73.123	0.100
583.800	-66.217	0.100
583.900	-66.349	0.100
584.000	-59.815	0.100
584.100	-78.315	0.100
584.200	-68.088	0.100
584.300	-54.692	0.100
584.400	-68.513	0.100
584.500	-77.966	0.100
584.600	-59.830	0.100
584.700	-64.391	0.100
584.800	-71.682	0.100
584.900	-62.859	0.100
585.000	-66.341	0.100
585.100	-70.201	0.100
585.200	-65.281	0.100
585.300	-74.043	0.100
585.400	-61.571	0.100
585.500	-61.633	0.100
585.600	-62.032	0.100
585.700	-76.125	0.100
585.800	-77.764	0.100
585.900	-64.312	0.100
586.000	-68.999	0.100
586.100	-72.479	0.100
586.200	-61.429	0.100
586.300	-67.638	0.100
586.400	-64.388	0.100
586.500	-58.473	0.100
586.600	-62.387	0.100
586.700	-66.751	0.100
586.800	-68.760	0.100
586.900	-42.659	0.100
587.000	-63.578	0.100
587.100	-69.496	0.100
587.200	-69.727	0.100
587.300	-66.254	0.100
587.400	-60.233	0.100
587.500	-56.044	0.100
587.600	-48.211	0.100
587.700	-77.122	0.100
587.800	-65.999	0.100
587.900	-63.092	0.100
588.000	-69.435	0.100
588.100	-57.084	0.100
588.200	-66.634	0.100
588.300	-66.046	0.100
588.400	-64.151	0.100
588.500	-49.634	0.100
588.600	-63.610	0.100
588.700	-58.171	0.100
588.800	-71.723	0.100
588.900	-55.174	0.100
589.000	-68.546	0.100
589.100	-67.309	0.100
589.200	-56.380	0.100
589.300	-59.617	0.100
589.400	-68.025	0.100
589.500	-47.926	0.100
589.600	-60.337	0.100
589.700	-63.814	0.100
589.800	-68.005	0.100
589.900	-58.658	0.100
590.000	-66.650	0.100
590.100	-61.522	0.100
590.200	-56.389	0.100
590.300	-54.576	0.100
590.400	-49.293	0.100
590.500	-29.105	0.100
590.600	-27.090	0.100
590.700	-11.972	0.100
590.800	-4.858	0.100
590.900	-2.260	0.100
591.000	4.223	0.100
591.100	1.636	0.100
591.200	5.743	0.100
591.300	-2.118	0.100
591.400	4.367	0.100
591.500	10.383	0.100
591.600	4.159	0.100
591.700	4.179	0.100
591.800	7.531	0.100
591.900	18.654	0.100
592.000	7.939	0.100
592.100	2.742	0.100
592.200	8.629	0.100
592.300	3.778	0.100
592.400	22.280	0.100
592.500	10.517	0.100
592.600	10.635	0.100
592.700	9.672	0.100
592.800	7.361	0.100
592.900	12.794	0.100
593.000	17.194	0.100
593.100	18.061	0.100
593.200	13.077	0.100
