time /s	I /nA	E /V
0.100	-2.267	0.101
0.200	-9.837	0.101
0.300	-7.830	0.101
0.400	-9.520	0.101
0.500	-0.647	0.101
0.600	-4.531	0.101
0.700	-4.012	0.101
0.800	-17.737	0.101
0.900	-7.185	0.101
1.000	-21.097	0.101
1.100	-11.008	0.101
1.200	-22.453	0.101
1.300	-12.286	0.101
1.400	-8.589	0.101
1.500	-13.700	0.101
1.600	-14.879	0.101
1.700	-14.400	0.101
1.800	-8.531	0.101
1.900	1.061	0.101
2.000	-6.254	0.101
2.100	-4.298	0.101
2.200	-18.405	0.101
2.300	-9.697	0.101
2.400	-21.630	0.101
2.500	1.340	0.101
2.600	-8.191	0.101
2.700	-19.441	0.101
2.800	-31.257	0.101
2.900	-22.820	0.101
3.000	-5.550	0.101
3.100	-16.839	0.101
3.200	-11.116	0.101
3.300	-9.146	0.101
3.400	-11.484	0.101
3.500	-2.608	0.101
3.600	-12.786	0.101
3.700	-22.612	0.101
3.800	-8.245	0.101
3.900	-10.480	0.101
4.000	-20.150	0.101
4.100	-5.583	0.101
4.200	-14.531	0.101
4.300	-19.939	0.101
4.400	-12.024	0.101
4.500	-17.981	0.101
4.600	-9.289	0.101
4.700	-10.751	0.101
4.800	-26.853	0.101
4.900	-6.204	0.101
5.000	-2.756	0.101
5.100	2.552	0.101
5.200	-12.729	0.101
5.300	-7.979	0.101
5.400	-17.654	0.101
5.500	-18.554	0.101
5.600	-25.272	0.101
5.700	-16.047	0.101
5.800	-12.392	0.101
5.900	-17.054	0.101
6.000	-11.849	0.101
6.100	-6.260	0.101
6.200	-12.264	0.101
6.300	-7.723	0.101
6.400	-10.276	0.101
6.500	-24.565	0.101
6.600	-23.513	0.101
6.700	-11.410	0.101
6.800	-11.423	0.101
6.900	-14.902	0.101
7.000	-14.017	0.101
7.100	-7.985	0.101
7.200	-11.699	0.101
7.300	-18.498	0.101
7.400	-12.209	0.101
7.500	-7.674	0.101
7.600	-14.096	0.101
7.700	-29.623	0.101
7.800	-20.007	0.101
7.900	-22.374	0.101
8.000	-10.838	0.101
8.100	-1.202	0.101
8.200	-10.681	0.101
8.300	-17.837	0.101
8.400	-7.046	0.101
8.500	-3.284	0.101
8.600	-14.001	0.101
8.700	-5.184	0.101
8.800	-15.220	0.101
8.900	-16.308	0.101
9.000	-13.298	0.101
9.100	-15.855	0.101
9.200	3.709	0.101
9.300	-18.618	0.101
9.400	-21.228	0.101
9.500	-21.231	0.101
9.600	-8.521	0.101
9.700	-6.124	0.101
9.800	-20.516	0.101
9.900	-4.547	0.101
10.000	-3.865	0.101
10.100	-21.994	0.101
10.200	-13.520	0.101
10.300	-16.308	0.101
10.400	-6.234	0.101
10.500	-17.284	0.101
10.600	-2.313	0.101
10.700	-14.600	0.101
10.800	-4.096	0.101
10.900	-18.891	0.101
11.000	-12.911	0.101
11.100	-18.974	0.101
11.200	-9.065	0.101
11.300	-5.816	0.101
11.400	-12.714	0.101
11.500	-24.256	0.101
11.600	-18.151	0.101
11.700	-10.937	0.101
11.800	-19.805	0.101
11.900	-16.295	0.101
12.000	-13.658	0.101
12.100	-15.226	0.101
12.200	-6.124	0.101
12.300	-5.713	0.101
12.400	-13.631	0.101
12.500	-13.112	0.101
12.600	-11.558	0.101
12.700	-5.961	0.101
12.800	-4.412	0.101
12.900	-7.394	0.101
13.000	-10.788	0.101
13.100	-14.642	0.101
13.200	-21.089	0.101
13.300	-6.968	0.101
13.400	-14.891	0.101
13.500	-15.731	0.101
13.600	-10.536	0.101
13.700	-6.810	0.101
13.800	-15.667	0.101
13.900	-13.531	0.101
14.000	-11.549	0.101
14.100	-28.199	0.101
14.200	-14.817	0.101
14.300	-11.272	0.101
14.400	-16.336	0.101
14.500	-11.602	0.101
14.600	-19.620	0.101
14.700	-4.351	0.101
14.800	-15.739	0.101
14.900	-8.643	0.101
15.000	-11.704	0.101
15.100	-7.067	0.101
15.200	-6.946	0.101
15.300	-6.234	0.101
15.400	-5.209	0.101
15.500	-12.268	0.101
15.600	-7.090	0.101
15.700	-26.561	0.101
15.800	-15.688	0.101
15.900	-9.270	0.101
16.000	-12.144	0.101
16.100	-24.169	0.101
16.200	-3.556	0.101
16.300	-8.710	0.101
16.400	-11.874	0.101
16.500	-25.781	0.101
16.600	-7.515	0.101
16.700	-7.017	0.101
16.800	-14.402	0.101
16.900	-22.534	0.101
17.000	-7.645	0.101
17.100	-0.795	0.101
17.200	-5.703	0.101
17.300	-11.439	0.101
17.400	-16.009	0.101
17.500	-11.025	0.101
17.600	-18.941	0.101
17.700	-22.302	0.101
17.800	2.839	0.101
17.900	-11.306	0.101
18.000	-11.424	0.101
18.100	-15.148	0.101
18.200	-16.016	0.101
18.300	-0.776	0.101
18.400	-16.941	0.101
18.500	-8.076	0.101
18.600	-3.673	0.101
18.700	-8.743	0.101
18.800	-11.452	0.101
18.900	-19.050	0.101
19.000	-2.069	0.101
19.100	-23.912	0.101
19.200	-8.726	0.101
19.300	-2.631	0.101
19.400	-14.572	0.101
19.500	-35.508	0.101
19.600	1.765	0.101
19.700	-9.397	0.101
19.800	-2.579	0.101
19.900	-23.590	0.101
20.000	-4.387	0.101
20.100	-5.350	0.101
20.200	-18.814	0.101
20.300	-17.723	0.101
20.400	-5.539	0.101
20.500	-12.439	0.101
20.600	-8.856	0.101
20.700	-6.850	0.101
20.800	-8.402	0.101
20.900	-14.037	0.101
21.000	-17.091	0.101
21.100	-12.822	0.101
21.200	-14.913	0.101
21.300	-6.450	0.101
21.400	-5.127	0.101
21.500	-13.064	0.101
21.600	-21.106	0.101
21.700	-8.667	0.101
21.800	-22.225	0.101
21.900	-18.677	0.101
22.000	-10.818	0.101
22.100	-4.826	0.101
22.200	-12.672	0.101
22.300	-2.469	0.101
22.400	-19.948	0.101
22.500	-10.979	0.101
22.600	-22.276	0.101
22.700	-16.364	0.101
22.800	-12.241	0.101
22.900	2.033	0.101
23.000	-12.794	0.101
23.100	-22.076	0.101
23.200	-13.425	0.101
23.300	1.268	0.101
23.400	-12.144	0.101
23.500	-22.286	0.101
23.600	1.064	0.101
23.700	-6.991	0.101
23.800	-10.938	0.101
23.900	-8.765	0.101
24.000	-15.532	0.101
24.100	-2.387	0.101
24.200	-17.469	0.101
24.300	-11.385	0.101
24.400	-22.691	0.101
24.500	-12.642	0.101
24.600	-20.201	0.101
24.700	-25.243	0.101
24.800	-12.797	0.101
24.900	-8.598	0.101
25.000	-14.308	0.101
25.100	-7.107	0.101
25.200	-10.429	0.101
25.300	-3.860	0.101
25.400	-20.752	0.101
25.500	-3.999	0.101
25.600	-8.071	0.101
25.700	-13.623	0.101
25.800	-16.306	0.101
25.900	-0.037	0.101
26.000	-18.168	0.101
26.100	-14.145	0.101
26.200	-14.917	0.101
26.300	-13.085	0.101
26.400	-15.620	0.101
26.500	-6.221	0.101
26.600	-12.263	0.101
26.700	-8.352	0.101
26.800	-11.299	0.101
26.900	-1.167	0.101
27.000	-18.011	0.101
27.100	-13.502	0.101
27.200	-7.764	0.101
27.300	-8.319	0.101
27.400	-8.379	0.101
27.500	-13.921	0.101
27.600	-0.386	0.101
27.700	-15.653	0.101
27.800	-12.980	0.101
27.900	-13.136	0.101
28.000	-2.703	0.101
28.100	-16.949	0.101
28.200	-19.094	0.101
28.300	-10.133	0.101
28.400	-18.458	0.101
28.500	-7.629	0.101
28.600	-13.808	0.101
28.700	2.749	0.101
28.800	-19.307	0.101
28.900	-12.061	0.101
29.000	-9.879	0.101
29.100	-2.425	0.101
29.200	-24.179	0.101
29.300	-4.443	0.101
29.400	-7.914	0.101
29.500	-29.127	0.101
29.600	-13.620	0.101
29.700	1.808	0.101
29.800	-5.112	0.101
29.900	-9.388	0.101
30.000	-6.552	0.101
30.100	-14.054	0.101
30.200	-9.207	0.101
30.300	-10.766	0.101
30.400	-9.848	0.101
30.500	-5.982	0.101
30.600	1.465	0.101
30.700	-12.420	0.101
30.800	-2.440	0.101
30.900	13.009	0.101
31.000	8.246	0.101
31.100	8.925	0.101
31.200	16.876	0.101
31.300	10.952	0.101
31.400	17.036	0.101
31.500	16.575	0.101
31.600	24.025	0.101
31.700	13.848	0.101
31.800	17.010	0.101
31.900	22.567	0.101
32.000	20.330	0.101
32.100	21.206	0.101
32.200	12.965	0.101
32.300	20.224	0.101
32.400	16.527	0.101
32.500	8.427	0.101
32.600	13.082	0.101
32.700	17.728	0.101
32.800	17.259	0.101
32.900	32.825	0.101
33.000	20.294	0.101
33.100	10.240	0.101
33.200	23.001	0.101
33.300	21.741	0.101
33.400	13.333	0.101
33.500	22.545	0.101
33.600	11.545	0.101
33.700	10.881	0.101
33.800	15.138	0.101
33.900	10.404	0.101
34.000	14.499	0.101
34.100	11.903	0.101
34.200	18.026	0.101
34.300	12.158	0.101
34.400	6.047	0.101
34.500	-2.981	0.101
34.600	5.679	0.101
34.700	13.612	0.101
34.800	4.832	0.101
34.900	8.479	0.101
35.000	10.017	0.101
35.100	14.638	0.101
35.200	13.623	0.101
35.300	20.068	0.101
35.400	17.378	0.101
35.500	3.253	0.101
35.600	-1.420	0.101
35.700	5.711	0.101
35.800	-1.820	0.101
35.900	15.201	0.101
36.000	12.479	0.101
36.100	13.210	0.101
36.200	6.029	0.101
36.300	-5.484	0.101
36.400	8.636	0.101
36.500	17.611	0.101
36.600	13.274	0.101
36.700	-4.278	0.101
36.800	7.410	0.101
36.900	24.183	0.101
37.000	1.659	0.101
37.100	26.559	0.101
37.200	4.965	0.101
37.300	5.620	0.101
37.400	15.111	0.101
37.500	15.754	0.101
37.600	8.117	0.101
37.700	5.541	0.101
37.800	9.642	0.101
37.900	7.043	0.101
38.000	-2.046	0.101
38.100	23.684	0.101
38.200	22.950	0.101
38.300	3.476	0.101
38.400	-1.326	0.101
38.500	15.821	0.101
38.600	8.420	0.101
38.700	16.477	0.101
38.800	1.156	0.101
38.900	16.566	0.101
39.000	5.826	0.101
39.100	19.637	0.101
39.200	10.996	0.101
39.300	5.088	0.101
39.400	10.320	0.101
39.500	19.738	0.101
39.600	21.394	0.101
39.700	29.748	0.101
39.800	-5.957	0.101
39.900	10.683	0.101
40.000	31.749	0.101
40.100	31.901	0.101
40.200	8.360	0.101
40.300	24.098	0.101
40.400	26.637	0.101
40.500	5.797	0.101
40.600	13.871	0.101
40.700	8.481	0.101
40.800	29.527	0.101
40.900	10.675	0.101
41.000	16.579	0.101
41.100	19.196	0.101
41.200	16.827	0.101
41.300	14.589	0.101
41.400	22.320	0.101
41.500	40.199	0.101
41.600	10.726	0.101
41.700	17.298	0.101
41.800	15.717	0.101
41.900	27.652	0.101
42.000	26.569	0.101
42.100	18.922	0.101
42.200	17.879	0.101
42.300	23.873	0.101
42.400	28.864	0.101
42.500	24.036	0.101
42.600	33.716	0.101
42.700	28.847	0.101
42.800	32.879	0.101
42.900	17.852	0.101
43.000	26.407	0.101
43.100	29.034	0.101
43.200	31.740	0.101
43.300	33.552	0.101
43.400	25.633	0.101
43.500	37.206	0.101
43.600	35.076	0.101
43.700	21.804	0.101
43.800	37.348	0.101
43.900	24.804	0.101
44.000	35.052	0.101
44.100	35.909	0.101
44.200	34.858	0.101
44.300	29.506	0.101
44.400	30.863	0.101
44.500	42.715	0.101
44.600	33.514	0.101
44.700	22.689	0.101
44.800	42.968	0.101
44.900	34.206	0.101
45.000	50.714	0.101
45.100	46.372	0.101
45.200	55.199	0.101
45.300	30.301	0.101
45.400	39.527	0.101
45.500	35.731	0.101
45.600	42.659	0.101
45.700	36.678	0.101
45.800	40.593	0.101
45.900	34.066	0.101
46.000	43.254	0.101
46.100	33.670	0.101
46.200	45.034	0.101
46.300	30.382	0.101
46.400	48.034	0.101
46.500	48.779	0.101
46.600	37.687	0.101
46.700	42.129	0.101
46.800	39.881	0.101
46.900	47.380	0.101
47.000	46.059	0.101
47.100	46.621	0.101
47.200	62.485	0.101
47.300	50.268	0.101
47.400	51.472	0.101
47.500	51.723	0.101
47.600	45.643	0.101
47.700	53.119	0.101
47.800	58.531	0.101
47.900	45.796	0.101
48.000	55.996	0.101
48.100	44.460	0.101
48.200	36.651	0.101
48.300	52.253	0.101
48.400	48.915	0.101
48.500	44.552	0.101
48.600	56.492	0.101
48.700	51.198	0.101
48.800	45.706	0.101
48.900	60.318	0.101
49.000	54.664	0.101
49.100	43.501	0.101
49.200	55.289	0.101
49.300	56.641	0.101
49.400	51.767	0.101
49.500	48.276	0.101
49.600	67.865	0.101
49.700	53.913	0.101
49.800	57.852	0.101
49.900	63.162	0.101
50.000	44.311	0.101
50.100	59.821	0.101
50.200	66.898	0.101
50.300	48.996	0.101
50.400	53.653	0.101
50.500	56.898	0.101
50.600	48.304	0.101
50.700	67.007	0.101
50.800	61.896	0.101
50.900	72.100	0.101
51.000	63.161	0.101
51.100	48.328	0.101
51.200	58.903	0.101
51.300	58.544	0.101
51.400	64.598	0.101
51.500	47.703	0.101
51.600	63.742	0.101
51.700	58.563	0.101
51.800	68.634	0.101
51.900	59.452	0.101
52.000	58.505	0.101
52.100	82.698	0.101
52.200	68.109	0.101
52.300	60.723	0.101
52.400	56.878	0.101
52.500	51.479	0.101
52.600	47.453	0.101
52.700	59.028	0.101
52.800	57.521	0.101
52.900	62.573	0.101
53.000	67.175	0.101
53.100	62.859	0.101
53.200	71.117	0.101
53.300	62.797	0.101
53.400	73.250	0.101
53.500	53.861	0.101
53.600	52.858	0.101
53.700	53.749	0.101
53.800	56.039	0.101
53.900	62.400	0.101
54.000	72.740	0.101
54.100	72.047	0.101
54.200	57.439	0.101
54.300	72.224	0.101
54.400	64.235	0.101
54.500	59.707	0.101
54.600	55.786	0.101
54.700	70.571	0.101
54.800	53.968	0.101
54.900	53.080	0.101
55.000	62.642	0.101
55.100	49.680	0.101
55.200	70.565	0.101
55.300	48.305	0.101
55.400	65.822	0.101
55.500	59.693	0.101
55.600	63.658	0.101
55.700	62.047	0.101
55.800	64.048	0.101
55.900	66.244	0.101
56.000	55.382	0.101
56.100	54.373	0.101
56.200	48.659	0.101
56.300	63.024	0.101
56.400	59.373	0.101
56.500	49.777	0.101
56.600	54.877	0.101
56.700	37.706	0.101
56.800	62.059	0.101
56.900	64.401	0.101
57.000	67.045	0.101
57.100	61.205	0.101
57.200	56.700	0.101
57.300	63.590	0.101
57.400	66.872	0.101
57.500	45.475	0.101
57.600	41.791	0.101
57.700	55.463	0.101
57.800	41.248	0.101
57.900	58.150	0.101
58.000	51.240	0.101
58.100	58.333	0.101
58.200	54.645	0.101
58.300	64.098	0.101
58.400	62.942	0.101
58.500	44.855	0.101
58.600	48.492	0.101
58.700	62.772	0.101
58.800	50.031	0.101
58.900	62.786	0.101
59.000	55.464	0.101
59.100	63.062	0.101
59.200	46.375	0.101
59.300	50.681	0.101
59.400	56.983	0.101
59.500	65.921	0.101
59.600	45.097	0.101
59.700	51.904	0.101
59.800	48.270	0.101
59.900	56.703	0.101
60.000	38.025	0.101
60.100	60.490	0.101
60.200	51.630	0.101
60.300	37.366	0.101
60.400	57.373	0.101
60.500	45.920	0.101
60.600	41.683	0.101
60.700	63.487	0.101
60.800	55.719	0.101
60.900	51.246	0.101
61.000	58.188	0.101
61.100	49.010	0.101
61.200	52.286	0.101
61.300	61.787	0.101
61.400	43.942	0.101
61.500	48.118	0.101
61.600	46.876	0.101
61.700	49.063	0.101
61.800	74.502	0.101
61.900	52.364	0.101
62.000	45.754	0.101
62.100	69.851	0.101
62.200	49.246	0.101
62.300	42.972	0.101
62.400	50.610	0.101
62.500	54.100	0.101
62.600	36.850	0.101
62.700	46.618	0.101
62.800	39.156	0.101
62.900	50.740	0.101
63.000	57.284	0.101
63.100	55.339	0.101
63.200	47.410	0.101
63.300	41.537	0.101
63.400	45.639	0.101
63.500	60.212	0.101
63.600	56.499	0.101
63.700	38.919	0.101
63.800	59.913	0.101
63.900	50.374	0.101
64.000	54.148	0.101
64.100	52.011	0.101
64.200	45.008	0.101
64.300	54.462	0.101
64.400	57.201	0.101
64.500	56.962	0.101
64.600	50.012	0.101
64.700	47.916	0.101
64.800	51.186	0.101
64.900	60.305	0.101
65.000	48.523	0.101
65.100	51.327	0.101
65.200	55.255	0.101
65.300	45.092	0.101
65.400	51.938	0.101
65.500	42.252	0.101
65.600	52.796	0.101
65.700	50.731	0.101
65.800	50.081	0.101
65.900	49.205	0.101
66.000	47.304	0.101
66.100	55.198	0.101
66.200	49.644	0.101
66.300	41.030	0.101
66.400	56.317	0.101
66.500	48.724	0.101
66.600	60.025	0.101
66.700	39.403	0.101
66.800	60.622	0.101
66.900	50.778	0.101
67.000	52.058	0.101
67.100	43.894	0.101
67.200	56.117	0.101
67.300	58.338	0.101
67.400	44.748	0.101
67.500	37.499	0.101
67.600	50.046	0.101
67.700	53.375	0.101
67.800	52.178	0.101
67.900	63.049	0.101
68.000	58.844	0.101
68.100	44.450	0.101
68.200	67.055	0.101
68.300	62.658	0.101
68.400	34.144	0.101
68.500	65.673	0.101
68.600	54.518	0.101
68.700	33.790	0.101
68.800	59.487	0.101
68.900	58.068	0.101
69.000	44.458	0.101
69.100	36.680	0.101
69.200	52.627	0.101
69.300	43.583	0.101
69.400	35.719	0.101
69.500	56.620	0.101
69.600	54.569	0.101
69.700	45.998	0.101
69.800	38.255	0.101
69.900	45.010	0.101
70.000	42.791	0.101
70.100	58.508	0.101
70.200	42.469	0.101
70.300	51.423	0.101
70.400	50.995	0.101
70.500	37.071	0.101
70.600	60.294	0.101
70.700	62.077	0.101
70.800	38.497	0.101
70.900	51.347	0.101
71.000	54.633	0.101
71.100	59.016	0.101
71.200	43.804	0.101
71.300	50.473	0.101
71.400	51.545	0.101
71.500	49.281	0.101
71.600	54.556	0.101
71.700	52.187	0.101
71.800	43.863	0.101
71.900	44.239	0.101
72.000	44.423	0.101
72.100	59.246	0.101
72.200	48.248	0.101
72.300	55.601	0.101
72.400	48.026	0.101
72.500	65.787	0.101
72.600	38.802	0.101
72.700	57.639	0.101
72.800	47.261	0.101
72.900	35.944	0.101
73.000	49.055	0.101
73.100	51.658	0.101
73.200	51.319	0.101
73.300	48.901	0.101
73.400	50.262	0.101
73.500	49.544	0.101
73.600	50.661	0.101
73.700	35.756	0.101
73.800	46.802	0.101
73.900	49.703	0.101
74.000	53.258	0.101
74.100	53.510	0.101
74.200	54.843	0.101
74.300	51.896	0.101
74.400	35.154	0.101
74.500	53.159	0.101
74.600	53.557	0.101
74.700	41.424	0.101
74.800	52.055	0.101
74.900	51.536	0.101
75.000	37.790	0.101
75.100	50.199	0.101
75.200	51.386	0.101
75.300	44.867	0.101
75.400	35.246	0.101
75.500	48.088	0.101
75.600	51.632	0.101
75.700	47.080	0.101
75.800	46.663	0.101
75.900	52.467	0.101
76.000	50.232	0.101
76.100	48.795	0.101
76.200	53.846	0.101
76.300	53.882	0.101
76.400	52.956	0.101
76.500	40.062	0.101
76.600	68.824	0.101
76.700	50.932	0.101
76.800	42.324	0.101
76.900	44.246	0.101
77.000	38.930	0.101
77.100	53.954	0.101
77.200	55.850	0.101
77.300	49.707	0.101
77.400	40.610	0.101
77.500	33.383	0.101
77.600	41.224	0.101
77.700	59.572	0.101
77.800	51.019	0.101
77.900	48.868	0.101
78.000	54.380	0.101
78.100	47.479	0.101
78.200	58.869	0.101
78.300	54.106	0.101
78.400	37.824	0.101
78.500	40.261	0.101
78.600	42.618	0.101
78.700	45.903	0.101
78.800	50.087	0.101
78.900	46.917	0.101
79.000	29.216	0.101
79.100	56.979	0.101
79.200	50.269	0.101
79.300	51.252	0.101
79.400	66.956	0.101
79.500	36.863	0.101
79.600	43.617	0.101
79.700	39.135	0.101
79.800	48.073	0.101
79.900	60.693	0.101
80.000	43.105	0.101
80.100	55.154	0.101
80.200	50.767	0.101
80.300	43.479	0.101
80.400	48.371	0.101
80.500	34.935	0.101
80.600	49.918	0.101
80.700	49.455	0.101
80.800	49.109	0.101
80.900	57.948	0.101
81.000	53.628	0.101
81.100	45.042	0.101
81.200	61.342	0.101
81.300	52.036	0.101
81.400	56.744	0.101
81.500	56.915	0.101
81.600	44.574	0.101
81.700	39.817	0.101
81.800	46.103	0.101
81.900	45.978	0.101
82.000	55.332	0.101
82.100	55.500	0.101
82.200	53.308	0.101
82.300	55.996	0.101
82.400	50.356	0.101
82.500	41.243	0.101
82.600	53.645	0.101
82.700	51.596	0.101
82.800	45.274	0.101
82.900	53.108	0.101
83.000	49.079	0.101
83.100	55.727	0.101
83.200	51.674	0.101
83.300	32.633	0.101
83.400	56.162	0.101
83.500	50.874	0.101
83.600	37.127	0.101
83.700	54.747	0.101
83.800	55.631	0.101
83.900	47.810	0.101
84.000	50.786	0.101
84.100	41.472	0.101
84.200	45.293	0.101
84.300	55.217	0.101
84.400	52.280	0.101
84.500	45.920	0.101
84.600	54.307	0.101
84.700	49.883	0.101
84.800	39.506	0.101
84.900	58.547	0.101
85.000	40.264	0.101
85.100	46.052	0.101
85.200	58.666	0.101
85.300	51.022	0.101
85.400	45.871	0.101
85.500	49.035	0.101
85.600	50.763	0.101
85.700	53.939	0.101
85.800	61.441	0.101
85.900	45.763	0.101
86.000	56.719	0.101
86.100	47.263	0.101
86.200	41.893	0.101
86.300	51.417	0.101
86.400	61.165	0.101
86.500	44.111	0.101
86.600	46.454	0.101
86.700	38.372	0.101
86.800	50.435	0.101
86.900	42.706	0.101
87.000	51.779	0.101
87.100	36.935	0.101
87.200	56.077	0.101
87.300	63.888	0.101
87.400	48.767	0.101
87.500	61.406	0.101
87.600	47.399	0.101
87.700	45.270	0.101
87.800	60.537	0.101
87.900	53.546	0.101
88.000	48.370	0.101
88.100	48.530	0.101
88.200	28.948	0.101
88.300	61.719	0.101
88.400	51.458	0.101
88.500	47.642	0.101
88.600	53.586	0.101
88.700	50.246	0.101
88.800	47.363	0.101
88.900	41.555	0.101
89.000	55.778	0.101
89.100	51.125	0.101
89.200	40.234	0.101
89.300	42.343	0.101
89.400	52.493	0.101
89.500	57.065	0.101
89.600	48.154	0.101
89.700	48.388	0.101
89.800	50.526	0.101
89.900	47.508	0.101
90.000	43.389	0.101
90.100	35.965	0.101
90.200	46.146	0.101
90.300	40.220	0.101
90.400	51.818	0.101
90.500	43.750	0.101
90.600	39.937	0.101
90.700	43.214	0.101
90.800	19.282	0.101
90.900	38.452	0.101
91.000	22.784	0.101
91.100	25.869	0.101
91.200	31.887	0.101
91.300	31.721	0.101
91.400	27.700	0.101
91.500	14.499	0.101
91.600	17.183	0.101
91.700	8.874	0.101
91.800	24.104	0.101
91.900	18.326	0.101
92.000	26.112	0.101
92.100	9.035	0.101
92.200	19.410	0.101
92.300	3.764	0.101
92.400	14.782	0.101
92.500	9.719	0.101
92.600	3.464	0.101
92.700	10.180	0.101
92.800	13.103	0.101
92.900	11.721	0.101
93.000	11.322	0.101
93.100	-0.191	0.101
93.200	14.259	0.101
93.300	14.068	0.101
93.400	6.685	0.101
93.500	6.971	0.101
93.600	11.604	0.101
93.700	5.946	0.101
93.800	-1.426	0.101
93.900	3.393	0.101
94.000	16.478	0.101
94.100	-1.831	0.101
94.200	-3.744	0.101
94.300	0.545	0.101
94.400	5.238	0.101
94.500	12.000	0.101
94.600	2.973	0.101
94.700	3.187	0.101
94.800	10.318	0.101
94.900	-8.400	0.101
95.000	-2.884	0.101
95.100	6.673	0.101
95.200	-13.735	0.101
95.300	2.959	0.101
95.400	2.179	0.101
95.500	0.271	0.101
95.600	-0.904	0.101
95.700	-11.196	0.101
95.800	-5.062	0.101
95.900	1.273	0.101
96.000	-1.044	0.101
96.100	2.512	0.101
96.200	1.271	0.101
96.300	12.685	0.101
96.400	-5.521	0.101
96.500	8.967	0.101
96.600	-3.218	0.101
96.700	6.698	0.101
96.800	10.143	0.101
96.900	-0.574	0.101
97.000	-7.227	0.101
97.100	-9.291	0.101
97.200	-4.743	0.101
97.300	-9.938	0.101
97.400	-14.631	0.101
97.500	9.072	0.101
97.600	8.923	0.101
97.700	2.894	0.101
97.800	0.919	0.101
97.900	0.814	0.101
98.000	-5.458	0.101
98.100	0.490	0.101
98.200	3.751	0.101
98.300	-14.266	0.101
98.400	11.563	0.101
98.500	-9.491	0.101
98.600	3.795	0.101
98.700	-5.118	0.101
98.800	6.676	0.101
98.900	-9.137	0.101
99.000	-5.162	0.101
99.100	-11.372	0.101
99.200	3.740	0.101
99.300	7.198	0.101
99.400	6.600	0.101
99.500	-0.553	0.101
99.600	7.253	0.101
99.700	-5.155	0.101
99.800	-0.940	0.101
99.900	-4.161	0.101
100.000	12.586	0.101
100.100	-0.203	0.101
100.200	-1.602	0.101
100.300	-5.166	0.101
100.400	2.636	0.101
100.500	-3.859	0.101
100.600	11.073	0.101
100.700	-14.719	0.101
100.800	4.197	0.101
100.900	-12.728	0.101
101.000	-1.469	0.101
101.100	1.642	0.101
101.200	1.106	0.101
101.300	-2.056	0.101
101.400	-0.036	0.101
101.500	1.874	0.101
101.600	-10.851	0.101
101.700	3.043	0.101
101.800	14.301	0.101
101.900	-13.209	0.101
102.000	-15.363	0.101
102.100	-5.099	0.101
102.200	-9.711	0.101
102.300	6.296	0.101
102.400	10.184	0.101
102.500	-8.797	0.101
102.600	-3.763	0.101
102.700	-13.016	0.101
102.800	-2.138	0.101
102.900	8.092	0.101
103.000	13.758	0.101
103.100	-11.446	0.101
103.200	-9.007	0.101
103.300	-6.760	0.101
103.400	-10.261	0.101
103.500	-3.863	0.101
103.600	-4.405	0.101
103.700	5.750	0.101
103.800	2.038	0.101
103.900	-6.102	0.101
104.000	-8.538	0.101
104.100	-0.583	0.101
104.200	-6.841	0.101
104.300	-11.766	0.101
104.400	2.653	0.101
104.500	-4.600	0.101
104.600	-0.364	0.101
104.700	6.935	0.101
104.800	-17.237	0.101
104.900	2.549	0.101
105.000	-12.288	0.101
105.100	-7.629	0.101
105.200	-1.716	0.101
105.300	0.846	0.101
105.400	-13.561	0.101
105.500	-10.360	0.101
105.600	1.471	0.101
105.700	-9.808	0.101
105.800	1.055	0.101
105.900	-2.342	0.101
106.000	-4.300	0.101
106.100	-17.528	0.101
106.200	-0.429	0.101
106.300	-0.630	0.101
106.400	5.752	0.101
106.500	-12.335	0.101
106.600	-3.866	0.101
106.700	-8.896	0.101
106.800	2.722	0.101
106.900	-1.266	0.101
107.000	-11.763	0.101
107.100	-3.516	0.101
107.200	-2.182	0.101
107.300	-2.072	0.101
107.400	-4.478	0.101
107.500	-7.967	0.101
107.600	-0.424	0.101
107.700	7.568	0.101
107.800	-16.497	0.101
107.900	-7.999	0.101
108.000	-13.180	0.101
108.100	-11.735	0.101
108.200	4.972	0.101
108.300	-11.109	0.101
108.400	-0.108	0.101
108.500	-16.990	0.101
108.600	-5.947	0.101
108.700	-14.020	0.101
108.800	-17.176	0.101
108.900	-5.388	0.101
109.000	-9.571	0.101
109.100	-1.300	0.101
109.200	4.198	0.101
109.300	-5.007	0.101
109.400	-16.931	0.101
109.500	-5.754	0.101
109.600	-6.385	0.101
109.700	-14.395	0.101
109.800	-4.375	0.101
109.900	3.757	0.101
110.000	-10.383	0.101
110.100	-12.010	0.101
110.200	4.618	0.101
110.300	-11.281	0.101
110.400	-6.784	0.101
110.500	-3.654	0.101
110.600	-6.278	0.101
110.700	-20.838	0.101
110.800	-10.784	0.101
110.900	-6.780	0.101
111.000	-9.351	0.101
111.100	-23.454	0.101
111.200	-11.308	0.101
111.300	-5.448	0.101
111.400	-8.007	0.101
111.500	-20.439	0.101
111.600	-10.144	0.101
111.700	-6.261	0.101
111.800	-5.113	0.101
111.900	-17.823	0.101
112.000	-5.509	0.101
112.100	-11.458	0.101
112.200	-15.806	0.101
112.300	3.892	0.101
112.400	-15.201	0.101
112.500	-15.342	0.101
112.600	-8.078	0.101
112.700	-20.016	0.101
112.800	-16.733	0.101
112.900	1.873	0.101
113.000	-10.946	0.101
113.100	-9.915	0.101
113.200	-21.264	0.101
113.300	-7.989	0.101
113.400	-27.527	0.101
113.500	-12.366	0.101
113.600	-0.886	0.101
113.700	-5.697	0.101
113.800	-18.380	0.101
113.900	-1.819	0.101
114.000	-12.117	0.101
114.100	-7.152	0.101
114.200	-6.201	0.101
114.300	-7.751	0.101
114.400	-12.700	0.101
114.500	-18.675	0.101
114.600	-22.870	0.101
114.700	-11.908	0.101
114.800	-17.587	0.101
114.900	-0.841	0.101
115.000	-9.023	0.101
115.100	-22.312	0.101
115.200	-6.887	0.101
115.300	-8.170	0.101
115.400	-11.376	0.101
115.500	-19.012	0.101
115.600	-7.851	0.101
115.700	-9.746	0.101
115.800	-9.120	0.101
115.900	-21.784	0.101
116.000	-24.349	0.101
116.100	-12.746	0.101
116.200	-14.497	0.101
116.300	-8.927	0.101
116.400	-21.029	0.101
116.500	-6.552	0.101
116.600	-21.675	0.101
116.700	-16.377	0.101
116.800	-19.173	0.101
116.900	-6.696	0.101
117.000	-21.474	0.101
117.100	-26.617	0.101
117.200	-6.685	0.101
117.300	-12.720	0.101
117.400	-9.946	0.101
117.500	-10.157	0.101
117.600	-14.066	0.101
117.700	-12.439	0.101
117.800	-8.006	0.101
117.900	-12.743	0.101
118.000	-13.506	0.101
118.100	-16.951	0.101
118.200	-16.677	0.101
118.300	-0.223	0.101
118.400	-22.019	0.101
118.500	-9.878	0.101
118.600	-18.225	0.101
118.700	-13.809	0.101
118.800	-8.024	0.101
118.900	-24.280	0.101
119.000	-11.019	0.101
119.100	-24.681	0.101
119.200	-8.483	0.101
119.300	-11.035	0.101
119.400	-28.480	0.101
119.500	-9.775	0.101
119.600	-17.400	0.101
119.700	-8.789	0.101
119.800	-7.643	0.101
119.900	-13.800	0.101
120.000	-14.201	0.101
120.100	-19.764	0.101
120.200	-23.165	0.101
120.300	-15.426	0.101
120.400	-8.907	0.101
120.500	-13.410	0.101
120.600	-28.666	0.101
120.700	-12.321	0.101
120.800	-14.558	0.101
120.900	-17.995	0.101
121.000	2.295	0.101
121.100	-12.837	0.101
121.200	-21.051	0.101
121.300	-10.417	0.101
121.400	-19.435	0.101
121.500	-19.647	0.101
121.600	-7.604	0.101
121.700	-13.044	0.101
121.800	-10.196	0.101
121.900	-16.267	0.101
122.000	-14.473	0.101
122.100	-22.886	0.101
122.200	-21.283	0.101
122.300	-14.734	0.101
122.400	-16.917	0.101
122.500	-17.345	0.101
122.600	-17.478	0.101
122.700	-15.984	0.101
122.800	-29.698	0.101
122.900	-8.460	0.101
123.000	-15.305	0.101
123.100	-20.222	0.101
123.200	-11.642	0.101
123.300	-8.938	0.101
123.400	-25.677	0.101
123.500	-18.430	0.101
123.600	-16.753	0.101
123.700	-16.602	0.101
123.800	-2.945	0.101
123.900	-12.088	0.101
124.000	-15.411	0.101
124.100	-13.556	0.101
124.200	-18.790	0.101
124.300	-27.608	0.101
124.400	-1.989	0.101
124.500	-16.989	0.101
124.600	-17.450	0.101
124.700	-17.297	0.101
124.800	-9.808	0.101
124.900	-20.157	0.101
125.000	-25.519	0.101
125.100	-19.196	0.101
125.200	-8.584	0.100
125.300	-8.306	0.101
125.400	-20.471	0.101
125.500	-15.103	0.100
125.600	-21.830	0.101
125.700	-25.463	0.101
125.800	-14.011	0.101
125.900	-13.702	0.101
126.000	-15.489	0.101
126.100	-20.509	0.101
126.200	-36.301	0.101
126.300	-30.925	0.101
126.400	-12.557	0.101
126.500	-6.714	0.101
126.600	-25.331	0.101
126.700	-18.387	0.101
126.800	-25.901	0.100
126.900	-32.671	0.100
127.000	-15.204	0.101
127.100	-25.240	0.100
127.200	-22.180	0.101
127.300	-21.586	0.101
127.400	-22.086	0.100
127.500	-28.086	0.100
127.600	-19.447	0.101
127.700	-20.939	0.100
127.800	-20.603	0.101
127.900	-4.557	0.101
128.000	-20.241	0.101
128.100	-8.819	0.101
128.200	-21.321	0.100
128.300	-24.917	0.101
128.400	-12.977	0.100
128.500	-11.898	0.100
128.600	-25.867	0.100
128.700	-22.665	0.100
128.800	-17.890	0.100
128.900	-25.207	0.100
129.000	-25.091	0.100
129.100	-15.456	0.100
129.200	-13.275	0.101
129.300	-17.536	0.100
129.400	-16.012	0.100
129.500	-26.217	0.100
129.600	-22.983	0.100
129.700	-25.931	0.100
129.800	-18.122	0.100
129.900	-25.542	0.100
130.000	-19.781	0.100
130.100	-17.887	0.100
130.200	-21.901	0.100
130.300	-25.457	0.100
130.400	-2.875	0.100
130.500	-19.680	0.100
130.600	-32.456	0.100
130.700	-10.339	0.100
130.800	-9.360	0.100
130.900	-22.024	0.100
131.000	-21.762	0.100
131.100	-10.638	0.100
131.200	-23.987	0.100
131.300	-24.279	0.100
131.400	-27.549	0.100
131.500	-28.744	0.100
131.600	-16.975	0.100
131.700	-31.933	0.100
131.800	-18.778	0.100
131.900	-26.366	0.100
132.000	-21.803	0.100
132.100	-29.928	0.100
132.200	-9.172	0.100
132.300	-12.338	0.100
132.400	-18.288	0.100
132.500	-18.601	0.100
132.600	-14.793	0.100
132.700	-16.878	0.100
132.800	-11.254	0.100
132.900	-32.761	0.100
133.000	-27.115	0.100
133.100	-11.795	0.100
133.200	-28.611	0.100
133.300	-26.282	0.100
133.400	-20.611	0.100
133.500	-11.447	0.100
133.600	-14.676	0.100
133.700	-18.750	0.100
133.800	-15.594	0.100
133.900	-21.844	0.100
134.000	-16.055	0.100
134.100	-31.066	0.100
134.200	-13.582	0.100
134.300	-30.347	0.100
134.400	-11.625	0.100
134.500	-26.598	0.100
134.600	-14.205	0.100
134.700	-14.526	0.100
134.800	-4.499	0.100
134.900	-14.883	0.100
135.000	-26.940	0.100
135.100	-18.019	0.100
135.200	-21.259	0.100
135.300	-21.982	0.100
135.400	-12.432	0.100
135.500	-25.265	0.100
135.600	-29.578	0.100
135.700	-21.312	0.100
135.800	-23.924	0.100
135.900	-12.348	0.100
136.000	-25.397	0.100
136.100	-11.053	0.100
136.200	-10.357	0.100
136.300	-27.378	0.100
136.400	-15.899	0.100
136.500	-19.470	0.100
136.600	-22.920	0.100
136.700	-28.708	0.100
136.800	-32.633	0.100
136.900	-17.848	0.100
137.000	-28.265	0.100
137.100	-19.127	0.100
137.200	-8.700	0.100
137.300	-28.085	0.100
137.400	-22.549	0.100
137.500	-20.963	0.100
137.600	-18.977	0.100
137.700	-33.535	0.100
137.800	1.782	0.100
137.900	-20.957	0.100
138.000	-19.161	0.100
138.100	-20.296	0.100
138.200	-20.086	0.100
138.300	-10.784	0.100
138.400	-15.566	0.100
138.500	-26.002	0.100
138.600	-30.140	0.100
138.700	-25.066	0.100
138.800	-16.581	0.100
138.900	-29.941	0.100
139.000	-10.130	0.100
139.100	-16.900	0.100
139.200	-23.855	0.100
139.300	-15.671	0.100
139.400	-26.409	0.100
139.500	-8.471	0.100
139.600	-20.500	0.100
139.700	-34.409	0.100
139.800	-21.591	0.100
139.900	-32.819	0.100
140.000	-20.637	0.100
140.100	-29.567	0.100
140.200	-1.504	0.100
140.300	-19.827	0.100
140.400	-13.830	0.100
140.500	-19.003	0.100
140.600	-23.812	0.100
140.700	-19.055	0.100
140.800	-19.377	0.100
140.900	-17.198	0.100
141.000	-15.944	0.100
141.100	-28.752	0.100
141.200	-17.507	0.100
141.300	-16.477	0.100
141.400	-21.370	0.100
141.500	-28.458	0.100
141.600	-25.310	0.100
141.700	-26.310	0.100
141.800	-9.133	0.100
141.900	-16.645	0.100
142.000	-27.676	0.100
142.100	-15.294	0.100
142.200	-29.871	0.100
142.300	-17.623	0.100
142.400	-16.782	0.100
142.500	-34.877	0.100
142.600	-23.462	0.100
142.700	-15.760	0.100
142.800	-8.595	0.100
142.900	-23.639	0.100
143.000	-31.532	0.100
143.100	-15.003	0.100
143.200	-23.182	0.100
143.300	-6.483	0.100
143.400	-15.737	0.100
143.500	-16.577	0.100
143.600	-18.327	0.100
143.700	-13.568	0.100
143.800	-14.968	0.100
143.900	-15.721	0.100
144.000	-22.915	0.100
144.100	-17.637	0.100
144.200	-22.775	0.100
144.300	-26.566	0.100
144.400	-16.239	0.100
144.500	-22.511	0.100
144.600	-23.336	0.100
144.700	-22.089	0.100
144.800	-7.421	0.100
144.900	-18.954	0.100
145.000	-29.308	0.100
145.100	-17.943	0.100
145.200	-24.634	0.100
145.300	-24.948	0.100
145.400	-17.054	0.100
145.500	-24.765	0.100
145.600	-26.912	0.100
145.700	-15.171	0.100
145.800	-14.390	0.100
145.900	-7.903	0.100
146.000	-19.326	0.100
146.100	-24.812	0.100
146.200	-21.751	0.100
146.300	-23.550	0.100
146.400	-22.186	0.100
146.500	-14.807	0.100
146.600	-29.964	0.100
146.700	-19.281	0.100
146.800	-25.309	0.100
146.900	-16.417	0.100
147.000	-23.868	0.100
147.100	-9.434	0.100
147.200	-10.780	0.100
147.300	-19.537	0.100
147.400	-25.399	0.100
147.500	-13.677	0.100
147.600	-20.411	0.100
147.700	-20.571	0.100
147.800	-24.561	0.100
147.900	-19.597	0.100
148.000	-21.012	0.100
148.100	-28.077	0.100
148.200	-21.786	0.100
148.300	-28.011	0.100
148.400	-21.957	0.100
148.500	-13.792	0.100
148.600	-14.831	0.100
148.700	-11.846	0.100
148.800	-21.461	0.100
148.900	-22.484	0.100
149.000	-22.931	0.100
149.100	-21.898	0.100
149.200	-34.390	0.100
149.300	-10.375	0.100
149.400	-19.118	0.100
149.500	-22.242	0.100
149.600	-18.021	0.100
149.700	-14.143	0.100
149.800	-16.668	0.100
149.900	-15.184	0.100
150.000	-7.108	0.100
150.100	-5.319	0.100
150.200	-29.226	0.100
150.300	-29.267	0.100
150.400	-21.987	0.100
150.500	-18.187	0.100
150.600	-13.220	0.100
150.700	-25.503	0.100
150.800	-10.588	0.100
150.900	-18.938	0.100
151.000	-24.503	0.100
151.100	-18.901	0.100
151.200	-18.111	0.100
151.300	-11.739	0.100
151.400	-17.828	0.100
151.500	-11.462	0.100
151.600	-12.551	0.100
151.700	-31.427	0.100
151.800	-19.585	0.100
151.900	-23.930	0.100
152.000	-9.075	0.100
152.100	-6.606	0.100
152.200	-20.428	0.100
152.300	-18.397	0.100
152.400	-37.509	0.100
152.500	-9.236	0.100
152.600	-13.803	0.100
152.700	-23.711	0.100
152.800	-14.428	0.100
152.900	-15.108	0.100
153.000	-32.495	0.100
153.100	-15.554	0.100
153.200	-20.576	0.100
153.300	-42.347	0.100
153.400	-3.200	0.100
153.500	-17.055	0.100
153.600	-14.538	0.100
153.700	-21.453	0.100
153.800	-24.668	0.100
153.900	-25.970	0.100
154.000	-20.748	0.100
154.100	-25.774	0.100
154.200	-24.068	0.100
154.300	-10.795	0.100
154.400	-16.916	0.100
154.500	-15.380	0.100
154.600	2.119	0.100
154.700	-25.555	0.100
154.800	-22.432	0.100
154.900	-25.364	0.100
155.000	-21.698	0.100
155.100	-17.545	0.100
155.200	-23.114	0.100
155.300	-25.330	0.100
155.400	-29.160	0.100
155.500	-8.136	0.100
155.600	-20.672	0.100
155.700	-17.660	0.100
155.800	-16.592	0.100
155.900	-27.282	0.100
156.000	-26.923	0.100
156.100	-10.789	0.100
156.200	-26.266	0.100
156.300	-15.367	0.100
156.400	-19.347	0.100
156.500	-29.737	0.100
156.600	-14.400	0.100
156.700	-18.925	0.100
156.800	-20.350	0.100
156.900	-3.700	0.100
157.000	-11.882	0.100
157.100	-17.596	0.100
157.200	-14.401	0.100
157.300	-12.421	0.100
157.400	-7.679	0.100
157.500	-24.186	0.100
157.600	-14.571	0.100
157.700	-12.986	0.100
157.800	-15.630	0.100
157.900	-26.202	0.100
158.000	-5.009	0.100
158.100	-22.356	0.100
158.200	-21.334	0.100
158.300	-30.912	0.100
158.400	-25.558	0.100
158.500	-15.477	0.100
158.600	-23.515	0.100
158.700	-9.719	0.100
158.800	-11.921	0.100
158.900	-25.041	0.100
159.000	-20.340	0.100
159.100	-18.151	0.100
159.200	-23.754	0.100
159.300	-19.223	0.100
159.400	-18.979	0.100
159.500	-21.792	0.100
159.600	-21.427	0.100
159.700	-20.749	0.100
159.800	-12.592	0.100
159.900	-17.665	0.100
160.000	-24.662	0.100
160.100	-18.831	0.100
160.200	-27.132	0.100
160.300	-12.640	0.100
160.400	-19.328	0.100
160.500	-19.109	0.100
160.600	-31.736	0.100
160.700	-22.539	0.100
160.800	-19.697	0.100
160.900	-24.014	0.100
161.000	-9.533	0.100
161.100	-12.231	0.100
161.200	-19.877	0.100
161.300	-13.878	0.100
161.400	-14.225	0.100
161.500	-7.043	0.100
161.600	-15.285	0.100
161.700	-12.749	0.100
161.800	-11.021	0.100
161.900	-11.482	0.100
162.000	-17.268	0.100
162.100	-22.405	0.100
162.200	-22.061	0.100
162.300	-31.923	0.100
162.400	-19.411	0.100
162.500	-10.739	0.100
162.600	-23.616	0.100
162.700	-15.363	0.100
162.800	-20.443	0.100
162.900	-29.931	0.100
163.000	-9.332	0.100
163.100	-12.336	0.100
163.200	-32.368	0.100
163.300	-10.514	0.100
163.400	-22.824	0.100
163.500	-16.292	0.100
163.600	-26.792	0.100
163.700	-5.906	0.100
163.800	-25.731	0.100
163.900	-5.292	0.100
164.000	-14.305	0.100
164.100	-24.181	0.100
164.200	-6.511	0.100
164.300	-26.628	0.100
164.400	-14.672	0.100
164.500	-34.378	0.100
164.600	-18.314	0.100
164.700	-18.953	0.100
164.800	-16.990	0.100
164.900	-22.703	0.100
165.000	-16.560	0.100
165.100	-2.095	0.100
165.200	-28.997	0.100
165.300	-15.843	0.100
165.400	-19.777	0.100
165.500	-16.326	0.100
165.600	-16.805	0.100
165.700	-16.594	0.100
165.800	-29.285	0.100
165.900	-14.876	0.100
166.000	-1.579	0.100
166.100	-15.798	0.100
166.200	-32.696	0.100
166.300	-31.508	0.100
166.400	-16.537	0.100
166.500	-22.937	0.100
166.600	-19.218	0.100
166.700	-17.946	0.100
166.800	-18.785	0.100
166.900	-13.060	0.100
167.000	-17.500	0.100
167.100	-11.948	0.100
167.200	-22.580	0.100
167.300	-21.610	0.100
167.400	-12.003	0.100
167.500	-12.388	0.100
167.600	-19.800	0.100
167.700	-20.710	0.100
167.800	-24.556	0.100
167.900	-13.776	0.100
168.000	-18.894	0.100
168.100	-12.376	0.100
168.200	-10.084	0.100
168.300	-15.378	0.100
168.400	-9.320	0.100
168.500	-20.705	0.100
168.600	-21.858	0.100
168.700	-17.274	0.100
168.800	-2.417	0.100
168.900	-10.732	0.100
169.000	-7.097	0.100
169.100	-22.656	0.100
169.200	-19.181	0.100
169.300	-23.866	0.100
169.400	-13.958	0.100
169.500	-16.591	0.100
169.600	-24.192	0.100
169.700	-16.044	0.100
169.800	-24.074	0.100
169.900	-24.661	0.100
170.000	-10.267	0.100
170.100	-15.025	0.100
170.200	-15.485	0.100
170.300	-7.063	0.100
170.400	-25.995	0.100
170.500	-23.082	0.100
170.600	-9.934	0.100
170.700	-9.146	0.100
170.800	-23.375	0.100
170.900	-14.257	0.100
171.000	-22.153	0.100
171.100	-19.100	0.100
171.200	-7.395	0.100
171.300	-25.777	0.100
171.400	-22.628	0.100
171.500	-16.577	0.100
171.600	-9.584	0.100
171.700	-13.721	0.100
171.800	-13.854	0.100
171.900	-7.457	0.100
172.000	-21.586	0.100
172.100	-27.944	0.100
172.200	-11.509	0.100
172.300	-29.602	0.100
172.400	-23.152	0.100
172.500	-8.507	0.100
172.600	-7.618	0.100
172.700	-19.631	0.100
172.800	-21.741	0.100
172.900	-22.290	0.100
173.000	-26.542	0.100
173.100	-5.048	0.100
173.200	-25.677	0.100
173.300	-18.342	0.100
173.400	-14.645	0.100
173.500	-17.893	0.100
173.600	-12.689	0.100
173.700	-17.015	0.100
173.800	-15.273	0.100
173.900	-19.466	0.100
174.000	-25.564	0.100
174.100	-18.394	0.100
174.200	-22.894	0.100
174.300	-21.838	0.100
174.400	-17.606	0.100
174.500	-15.173	0.101
174.600	-24.192	0.100
174.700	-15.236	0.100
174.800	-23.781	0.100
174.900	-17.117	0.100
175.000	-7.701	0.100
175.100	-0.245	0.101
175.200	-19.247	0.101
175.300	-20.382	0.100
175.400	-20.407	0.101
175.500	-7.888	0.100
175.600	-19.914	0.101
175.700	-28.539	0.101
175.800	-15.409	0.101
175.900	-7.713	0.100
176.000	-29.114	0.100
176.100	-17.731	0.101
176.200	-31.981	0.101
176.300	-14.195	0.101
176.400	-10.193	0.101
176.500	-9.146	0.101
176.600	-21.825	0.101
176.700	-13.912	0.101
176.800	-22.428	0.101
176.900	-13.902	0.101
177.000	-23.975	0.101
177.100	-6.905	0.101
177.200	-12.195	0.101
177.300	-10.696	0.101
177.400	-20.485	0.101
177.500	-18.277	0.101
177.600	-5.806	0.101
177.700	-17.066	0.101
177.800	-14.209	0.101
177.900	-21.713	0.101
178.000	-28.120	0.101
178.100	-14.251	0.101
178.200	-8.365	0.101
178.300	-3.360	0.101
178.400	-13.386	0.101
178.500	-19.961	0.101
178.600	-10.723	0.101
178.700	-23.401	0.101
178.800	-25.296	0.101
178.900	-12.242	0.101
179.000	-3.338	0.101
179.100	-12.319	0.101
179.200	-16.119	0.101
179.300	-9.146	0.101
179.400	-25.728	0.101
179.500	-18.539	0.101
179.600	-22.530	0.101
179.700	-22.594	0.101
179.800	-23.801	0.101
179.900	-12.879	0.101
180.000	-15.589	0.101
180.100	-19.825	0.101
180.200	-24.703	0.101
180.300	-17.340	0.101
180.400	-15.573	0.101
180.500	-7.241	0.101
180.600	0.685	0.101
180.700	4.588	0.101
180.800	2.205	0.101
180.900	5.043	0.101
181.000	5.016	0.101
181.100	8.239	0.101
181.200	-1.018	0.101
181.300	5.260	0.101
181.400	20.599	0.101
181.500	3.236	0.101
181.600	20.461	0.101
181.700	28.243	0.101
181.800	20.486	0.101
181.900	37.981	0.101
182.000	21.795	0.101
182.100	18.848	0.101
182.200	13.936	0.101
182.300	18.193	0.101
182.400	19.430	0.101
182.500	11.827	0.101
182.600	10.384	0.101
182.700	15.813	0.101
182.800	10.905	0.101
182.900	21.060	0.101
183.000	25.580	0.101
183.100	29.649	0.101
183.200	3.890	0.101
183.300	6.086	0.101
183.400	21.123	0.101
183.500	13.710	0.101
183.600	21.058	0.101
183.700	19.398	0.101
183.800	22.383	0.101
183.900	27.293	0.101
184.000	6.247	0.101
184.100	8.517	0.101
184.200	30.600	0.101
184.300	5.409	0.101
184.400	34.322	0.101
184.500	19.865	0.101
184.600	29.150	0.101
184.700	-0.272	0.101
184.800	13.102	0.101
184.900	35.530	0.101
185.000	3.931	0.101
185.100	16.298	0.101
185.200	7.549	0.101
185.300	16.588	0.101
185.400	19.395	0.101
185.500	9.974	0.101
185.600	9.280	0.101
185.700	9.759	0.101
185.800	5.200	0.101
185.900	18.072	0.101
186.000	18.841	0.101
186.100	16.555	0.101
186.200	23.993	0.101
186.300	-0.065	0.101
186.400	9.631	0.101
186.500	24.295	0.101
186.600	27.646	0.101
186.700	8.823	0.101
186.800	16.188	0.101
186.900	9.919	0.101
187.000	28.158	0.101
187.100	16.824	0.101
187.200	1.823	0.101
187.300	8.742	0.101
187.400	15.146	0.101
187.500	21.123	0.101
187.600	19.159	0.101
187.700	8.374	0.101
187.800	17.152	0.101
187.900	26.815	0.101
188.000	16.656	0.101
188.100	4.783	0.101
188.200	5.938	0.101
188.300	23.065	0.101
188.400	18.179	0.101
188.500	19.326	0.101
188.600	9.251	0.101
188.700	11.020	0.101
188.800	29.036	0.101
188.900	21.617	0.101
189.000	27.838	0.101
189.100	21.393	0.101
189.200	18.917	0.101
189.300	24.120	0.101
189.400	24.683	0.101
189.500	25.318	0.101
189.600	20.977	0.101
189.700	25.346	0.101
189.800	37.312	0.101
189.900	11.080	0.101
190.000	10.258	0.101
190.100	18.457	0.101
190.200	38.609	0.101
190.300	23.911	0.101
190.400	18.604	0.101
190.500	14.008	0.101
190.600	28.972	0.101
190.700	23.085	0.101
190.800	26.605	0.101
190.900	11.244	0.101
191.000	28.396	0.101
191.100	33.206	0.101
191.200	18.263	0.101
191.300	39.352	0.101
191.400	29.262	0.101
191.500	19.345	0.101
191.600	49.900	0.101
191.700	28.771	0.101
191.800	24.312	0.101
191.900	47.479	0.101
192.000	24.336	0.101
192.100	36.251	0.101
192.200	29.813	0.101
192.300	23.481	0.101
192.400	42.755	0.101
192.500	30.102	0.101
192.600	38.540	0.101
192.700	37.504	0.101
192.800	33.882	0.101
192.900	30.659	0.101
193.000	36.825	0.101
193.100	19.127	0.101
193.200	30.315	0.101
193.300	38.613	0.101
193.400	48.415	0.101
193.500	35.243	0.101
193.600	45.755	0.101
193.700	49.351	0.101
193.800	39.043	0.101
193.900	27.474	0.101
194.000	40.566	0.101
194.100	33.913	0.101
194.200	42.484	0.101
194.300	31.653	0.101
194.400	50.571	0.101
194.500	52.210	0.101
194.600	47.606	0.101
194.700	38.361	0.101
194.800	36.814	0.101
194.900	30.682	0.101
195.000	53.289	0.101
195.100	39.111	0.101
195.200	41.596	0.101
195.300	41.254	0.101
195.400	36.625	0.101
195.500	43.029	0.101
195.600	48.809	0.101
195.700	53.484	0.101
195.800	39.933	0.101
195.900	47.513	0.101
196.000	43.381	0.101
196.100	51.054	0.101
196.200	48.491	0.101
196.300	39.909	0.101
196.400	30.913	0.101
196.500	46.590	0.101
196.600	42.494	0.101
196.700	55.266	0.101
196.800	52.275	0.101
196.900	38.102	0.101
197.000	35.690	0.101
197.100	50.654	0.101
197.200	57.526	0.101
197.300	53.712	0.101
197.400	51.728	0.101
197.500	38.167	0.101
197.600	59.859	0.101
197.700	55.318	0.101
197.800	43.931	0.101
197.900	43.880	0.101
198.000	67.345	0.101
198.100	52.856	0.101
198.200	45.720	0.101
198.300	64.038	0.101
198.400	52.448	0.101
198.500	43.781	0.101
198.600	45.548	0.101
198.700	60.105	0.101
198.800	57.906	0.101
198.900	56.915	0.101
199.000	60.737	0.101
199.100	57.060	0.101
199.200	54.582	0.101
199.300	51.506	0.101
199.400	58.809	0.101
199.500	47.417	0.101
199.600	59.930	0.101
199.700	57.996	0.101
199.800	54.793	0.101
199.900	62.822	0.101
200.000	43.597	0.101
200.100	62.095	0.101
200.200	53.230	0.101
200.300	46.893	0.101
200.400	57.527	0.101
200.500	56.726	0.101
200.600	61.523	0.101
200.700	64.167	0.101
200.800	60.388	0.101
200.900	40.129	0.101
201.000	54.900	0.101
201.100	67.878	0.101
201.200	49.106	0.101
201.300	73.788	0.101
201.400	52.470	0.101
201.500	53.100	0.101
201.600	55.636	0.101
201.700	59.967	0.101
201.800	59.205	0.101
201.900	59.854	0.101
202.000	57.038	0.101
202.100	66.903	0.101
202.200	58.611	0.101
202.300	44.570	0.101
202.400	65.736	0.101
202.500	51.604	0.101
202.600	52.346	0.101
202.700	55.631	0.101
202.800	49.422	0.101
202.900	56.416	0.101
203.000	59.883	0.101
203.100	60.749	0.101
203.200	56.764	0.101
203.300	74.669	0.101
203.400	60.671	0.101
203.500	59.852	0.101
203.600	46.823	0.101
203.700	61.778	0.101
203.800	49.949	0.101
203.900	44.003	0.101
204.000	49.740	0.101
204.100	49.516	0.101
204.200	62.046	0.101
204.300	65.751	0.101
204.400	46.536	0.101
204.500	50.162	0.101
204.600	57.072	0.101
204.700	46.407	0.101
204.800	57.583	0.101
204.900	56.032	0.101
205.000	48.678	0.101
205.100	68.806	0.101
205.200	57.766	0.101
205.300	45.739	0.101
205.400	46.816	0.101
205.500	51.897	0.101
205.600	60.733	0.101
205.700	46.579	0.101
205.800	52.972	0.101
205.900	56.767	0.101
206.000	57.448	0.101
206.100	55.134	0.101
206.200	59.656	0.101
206.300	51.630	0.101
206.400	49.159	0.101
206.500	46.631	0.101
206.600	53.413	0.101
206.700	48.405	0.101
206.800	50.587	0.101
206.900	65.401	0.101
207.000	65.740	0.101
207.100	68.856	0.101
207.200	47.878	0.101
207.300	60.834	0.101
207.400	48.439	0.101
207.500	51.333	0.101
207.600	34.599	0.101
207.700	53.110	0.101
207.800	44.856	0.101
207.900	63.245	0.101
208.000	57.572	0.101
208.100	45.712	0.101
208.200	59.365	0.101
208.300	51.219	0.101
208.400	63.791	0.101
208.500	56.585	0.101
208.600	57.785	0.101
208.700	57.593	0.101
208.800	44.992	0.101
208.900	52.745	0.101
209.000	47.957	0.101
209.100	51.324	0.101
209.200	59.502	0.101
209.300	51.889	0.101
209.400	55.827	0.101
209.500	54.059	0.101
209.600	33.887	0.101
209.700	49.504	0.101
209.800	58.604	0.101
209.900	56.835	0.101
210.000	48.442	0.101
210.100	59.792	0.101
210.200	41.992	0.101
210.300	45.581	0.101
210.400	46.487	0.101
210.500	66.772	0.101
210.600	58.206	0.101
210.700	66.870	0.101
210.800	57.283	0.101
210.900	51.015	0.101
211.000	48.543	0.101
211.100	64.802	0.101
211.200	50.432	0.101
211.300	63.070	0.101
211.400	58.585	0.101
211.500	61.879	0.101
211.600	53.809	0.101
211.700	46.013	0.101
211.800	59.845	0.101
211.900	49.259	0.101
212.000	48.715	0.101
212.100	46.865	0.101
212.200	59.609	0.101
212.300	58.329	0.101
212.400	60.169	0.101
212.500	64.898	0.101
212.600	60.046	0.101
212.700	58.329	0.101
212.800	50.204	0.101
212.900	62.434	0.101
213.000	66.401	0.101
213.100	60.228	0.101
213.200	50.492	0.101
213.300	44.981	0.101
213.400	66.614	0.101
213.500	57.493	0.101
213.600	56.870	0.101
213.700	48.434	0.101
213.800	63.471	0.101
213.900	53.163	0.101
214.000	62.423	0.101
214.100	47.142	0.101
214.200	47.622	0.101
214.300	55.553	0.101
214.400	61.172	0.101
214.500	56.448	0.101
214.600	51.295	0.101
214.700	70.397	0.101
214.800	63.076	0.101
214.900	29.503	0.101
215.000	56.794	0.101
215.100	51.142	0.101
215.200	63.304	0.101
215.300	55.699	0.101
215.400	55.030	0.101
215.500	51.930	0.101
215.600	44.679	0.101
215.700	60.737	0.101
215.800	59.265	0.101
215.900	40.155	0.101
216.000	59.075	0.101
216.100	68.273	0.101
216.200	63.678	0.101
216.300	53.850	0.101
216.400	53.205	0.101
216.500	49.134	0.101
216.600	47.137	0.101
216.700	53.575	0.101
216.800	60.839	0.101
216.900	68.043	0.101
217.000	51.063	0.101
217.100	50.384	0.101
217.200	50.096	0.101
217.300	47.917	0.101
217.400	61.020	0.101
217.500	49.158	0.101
217.600	52.018	0.101
217.700	53.234	0.101
217.800	62.447	0.101
217.900	63.006	0.101
218.000	51.235	0.101
218.100	56.046	0.101
218.200	36.811	0.101
218.300	59.019	0.101
218.400	48.423	0.101
218.500	58.740	0.101
218.600	66.330	0.101
218.700	54.738	0.101
218.800	63.067	0.101
218.900	52.441	0.101
219.000	41.609	0.101
219.100	39.809	0.101
219.200	71.777	0.101
219.300	42.551	0.101
219.400	57.608	0.101
219.500	60.778	0.101
219.600	48.402	0.101
219.700	48.113	0.101
219.800	40.005	0.101
219.900	61.838	0.101
220.000	47.917	0.101
220.100	61.775	0.101
220.200	59.628	0.101
220.300	68.775	0.101
220.400	48.931	0.101
220.500	49.099	0.101
220.600	45.752	0.101
220.700	62.884	0.101
220.800	60.114	0.101
220.900	61.681	0.101
221.000	65.539	0.101
221.100	50.890	0.101
221.200	48.376	0.101
221.300	45.548	0.101
221.400	48.329	0.101
221.500	47.730	0.101
221.600	62.740	0.101
221.700	62.984	0.101
221.800	64.783	0.101
221.900	49.632	0.101
222.000	50.840	0.101
222.100	54.321	0.101
222.200	52.320	0.101
222.300	56.759	0.101
222.400	66.004	0.101
222.500	58.162	0.101
222.600	61.880	0.101
222.700	47.907	0.101
222.800	56.116	0.101
222.900	58.597	0.101
223.000	45.305	0.101
223.100	54.803	0.101
223.200	60.971	0.101
223.300	58.088	0.101
223.400	56.869	0.101
223.500	55.937	0.101
223.600	53.435	0.101
223.700	53.373	0.101
223.800	39.569	0.101
223.900	51.665	0.101
224.000	61.968	0.101
224.100	60.375	0.101
224.200	50.373	0.101
224.300	56.602	0.101
224.400	58.592	0.101
224.500	56.233	0.101
224.600	43.651	0.101
224.700	62.301	0.101
224.800	58.226	0.101
224.900	59.149	0.101
225.000	52.608	0.101
225.100	40.259	0.101
225.200	60.653	0.101
225.300	63.955	0.101
225.400	46.655	0.101
225.500	56.975	0.101
225.600	62.471	0.101
225.700	48.332	0.101
225.800	54.003	0.101
225.900	55.281	0.101
226.000	48.195	0.101
226.100	57.523	0.101
226.200	54.812	0.101
226.300	44.424	0.101
226.400	43.785	0.101
226.500	63.277	0.101
226.600	62.046	0.101
226.700	56.357	0.101
226.800	58.289	0.101
226.900	58.273	0.101
227.000	54.011	0.101
227.100	66.809	0.101
227.200	57.814	0.101
227.300	49.382	0.101
227.400	56.621	0.101
227.500	53.785	0.101
227.600	57.878	0.101
227.700	42.090	0.101
227.800	62.592	0.101
227.900	48.217	0.101
228.000	51.129	0.101
228.100	62.038	0.101
228.200	53.907	0.101
228.300	40.988	0.101
228.400	61.053	0.101
228.500	52.414	0.101
228.600	64.677	0.101
228.700	40.106	0.101
228.800	61.077	0.101
228.900	53.156	0.101
229.000	58.338	0.101
229.100	62.356	0.101
229.200	48.006	0.101
229.300	61.020	0.101
229.400	48.186	0.101
229.500	47.061	0.101
229.600	54.218	0.101
229.700	52.864	0.101
229.800	58.796	0.101
229.900	60.858	0.101
230.000	57.824	0.101
230.100	44.703	0.101
230.200	66.853	0.101
230.300	52.766	0.101
230.400	52.657	0.101
230.500	65.714	0.101
230.600	54.491	0.101
230.700	32.499	0.101
230.800	54.020	0.101
230.900	56.079	0.101
231.000	52.858	0.101
231.100	55.189	0.101
231.200	51.150	0.101
231.300	64.436	0.101
231.400	45.263	0.101
231.500	65.055	0.101
231.600	46.932	0.101
231.700	57.995	0.101
231.800	52.395	0.101
231.900	51.885	0.101
232.000	48.973	0.101
232.100	44.634	0.101
232.200	60.975	0.101
232.300	50.294	0.101
232.400	57.127	0.101
232.500	58.263	0.101
232.600	48.354	0.101
232.700	64.461	0.101
232.800	65.071	0.101
232.900	47.226	0.101
233.000	57.672	0.101
233.100	62.793	0.101
233.200	58.885	0.101
233.300	63.555	0.101
233.400	51.006	0.101
233.500	44.656	0.101
233.600	42.269	0.101
233.700	57.652	0.101
233.800	55.183	0.101
233.900	60.601	0.101
234.000	42.409	0.101
234.100	49.719	0.101
234.200	52.940	0.101
234.300	50.218	0.101
234.400	55.070	0.101
234.500	56.329	0.101
234.600	52.122	0.101
234.700	76.295	0.101
234.800	50.999	0.101
234.900	63.252	0.101
235.000	44.438	0.101
235.100	53.719	0.101
235.200	52.396	0.101
235.300	63.828	0.101
235.400	64.082	0.101
235.500	49.880	0.101
235.600	47.862	0.101
235.700	41.498	0.101
235.800	58.204	0.101
235.900	56.001	0.101
236.000	49.304	0.101
236.100	51.479	0.101
236.200	66.073	0.101
236.300	60.118	0.101
236.400	49.157	0.101
236.500	52.929	0.101
236.600	46.751	0.101
236.700	58.750	0.101
236.800	53.542	0.101
236.900	48.730	0.101
237.000	46.970	0.101
237.100	51.162	0.101
237.200	55.425	0.101
237.300	54.175	0.101
237.400	51.271	0.101
237.500	59.187	0.101
237.600	52.645	0.101
237.700	48.823	0.101
237.800	41.360	0.101
237.900	50.193	0.101
238.000	48.890	0.101
238.100	59.710	0.101
238.200	60.733	0.101
238.300	55.244	0.101
238.400	33.570	0.101
238.500	40.680	0.101
238.600	60.233	0.101
238.700	70.684	0.101
238.800	51.984	0.101
238.900	63.230	0.101
239.000	54.012	0.101
239.100	56.179	0.101
239.200	44.440	0.101
239.300	48.580	0.101
239.400	55.348	0.101
239.500	56.721	0.101
239.600	54.770	0.101
239.700	55.757	0.101
239.800	45.956	0.101
239.900	61.906	0.101
240.000	49.162	0.101
240.100	58.610	0.101
240.200	44.301	0.101
240.300	52.832	0.101
240.400	44.100	0.101
240.500	42.965	0.101
240.600	49.149	0.101
240.700	29.286	0.101
240.800	35.333	0.101
240.900	42.004	0.101
241.000	41.687	0.101
241.100	21.777	0.101
241.200	17.557	0.101
241.300	36.378	0.101
241.400	23.007	0.101
241.500	25.993	0.101
241.600	31.273	0.101
241.700	20.472	0.101
241.800	22.252	0.101
241.900	19.386	0.101
242.000	19.937	0.101
242.100	11.431	0.101
242.200	8.446	0.101
242.300	7.520	0.101
242.400	17.217	0.101
242.500	4.994	0.101
242.600	0.701	0.101
242.700	22.558	0.101
242.800	18.841	0.101
242.900	9.167	0.101
243.000	12.133	0.101
243.100	1.697	0.101
243.200	11.415	0.101
243.300	3.749	0.101
243.400	6.708	0.101
243.500	11.731	0.101
243.600	12.373	0.101
243.700	19.477	0.101
243.800	0.644	0.101
243.900	0.413	0.101
244.000	-3.148	0.101
244.100	7.303	0.101
244.200	-2.002	0.101
244.300	11.732	0.101
244.400	3.824	0.101
244.500	5.962	0.101
244.600	13.461	0.101
244.700	2.169	0.101
244.800	-14.928	0.101
244.900	-7.631	0.101
245.000	-8.887	0.101
245.100	2.951	0.101
245.200	-4.315	0.101
245.300	-11.858	0.101
245.400	-12.784	0.101
245.500	-4.667	0.101
245.600	-5.720	0.101
245.700	-9.615	0.101
245.800	1.774	0.101
245.900	-0.806	0.101
246.000	5.336	0.101
246.100	-0.345	0.101
246.200	-1.122	0.101
246.300	-13.113	0.101
246.400	8.514	0.101
246.500	-5.477	0.101
246.600	-9.256	0.101
246.700	3.855	0.101
246.800	9.884	0.101
246.900	-4.396	0.101
247.000	-11.363	0.101
247.100	0.966	0.101
247.200	6.927	0.101
247.300	2.961	0.101
247.400	2.450	0.101
247.500	-15.899	0.101
247.600	-0.530	0.101
247.700	1.067	0.101
247.800	-8.245	0.101
247.900	9.348	0.101
248.000	-7.348	0.101
248.100	-8.186	0.101
248.200	-1.831	0.101
248.300	1.330	0.101
248.400	-5.797	0.101
248.500	4.670	0.101
248.600	2.125	0.101
248.700	-4.747	0.101
248.800	-2.632	0.101
248.900	-17.036	0.101
249.000	-6.031	0.101
249.100	-2.095	0.101
249.200	-1.805	0.101
249.300	3.709	0.101
249.400	-8.492	0.101
249.500	-15.419	0.101
249.600	-4.404	0.101
249.700	-12.737	0.101
249.800	6.181	0.101
249.900	-9.308	0.101
250.000	0.708	0.101
250.100	-9.469	0.101
250.200	-15.921	0.101
250.300	-4.453	0.101
250.400	-2.854	0.101
250.500	-10.058	0.101
250.600	-0.576	0.101
250.700	-6.514	0.101
250.800	6.682	0.101
250.900	1.693	0.101
251.000	-11.089	0.101
251.100	6.014	0.101
251.200	-4.651	0.101
251.300	-10.330	0.101
251.400	-2.667	0.101
251.500	-5.667	0.101
251.600	-8.318	0.101
251.700	0.002	0.101
251.800	-2.937	0.101
251.900	-6.449	0.101
252.000	-16.804	0.101
252.100	-1.629	0.101
252.200	2.646	0.101
252.300	-9.112	0.101
252.400	-17.289	0.101
252.500	-2.030	0.101
252.600	-4.136	0.101
252.700	5.866	0.101
252.800	-3.781	0.101
252.900	-8.453	0.101
253.000	-8.153	0.101
253.100	0.199	0.101
253.200	4.262	0.101
253.300	-2.007	0.101
253.400	-6.523	0.101
253.500	4.673	0.101
253.600	-7.924	0.101
253.700	-10.745	0.101
253.800	-3.949	0.101
253.900	-13.588	0.101
254.000	-5.534	0.101
254.100	-8.774	0.101
254.200	3.836	0.101
254.300	-16.695	0.101
254.400	-12.205	0.101
254.500	1.567	0.101
254.600	-0.844	0.101
254.700	-5.573	0.101
254.800	-9.114	0.101
254.900	-22.149	0.101
255.000	-19.397	0.101
255.100	3.917	0.101
255.200	-12.357	0.101
255.300	-7.735	0.101
255.400	-3.948	0.101
255.500	-11.998	0.101
255.600	-6.854	0.101
255.700	-11.732	0.101
255.800	-5.473	0.101
255.900	-3.775	0.101
256.000	1.669	0.101
256.100	-14.889	0.101
256.200	-19.698	0.101
256.300	-7.968	0.101
256.400	-21.487	0.101
256.500	-5.121	0.101
256.600	-28.515	0.101
256.700	-16.912	0.101
256.800	4.524	0.101
256.900	2.609	0.101
257.000	-7.775	0.101
257.100	-12.203	0.101
257.200	-14.889	0.101
257.300	-11.852	0.101
257.400	-4.373	0.101
257.500	-9.264	0.101
257.600	-19.736	0.101
257.700	-10.771	0.101
257.800	-15.146	0.101
257.900	-15.959	0.101
258.000	5.469	0.101
258.100	-20.798	0.101
258.200	-6.609	0.101
258.300	-20.492	0.101
258.400	-0.043	0.101
258.500	-9.992	0.101
258.600	-17.326	0.101
258.700	-17.845	0.101
258.800	-7.886	0.101
258.900	-18.278	0.101
259.000	-11.261	0.101
259.100	-7.872	0.101
259.200	-18.036	0.101
259.300	-14.054	0.101
259.400	-8.513	0.101
259.500	-2.490	0.101
259.600	-4.442	0.101
259.700	-6.825	0.101
259.800	-10.677	0.101
259.900	-23.775	0.101
260.000	-29.194	0.101
260.100	-7.092	0.101
260.200	-5.883	0.101
260.300	-22.026	0.101
260.400	-25.169	0.101
260.500	-13.233	0.101
260.600	-26.227	0.101
260.700	-29.236	0.101
260.800	-15.970	0.101
260.900	-17.501	0.101
261.000	-3.992	0.101
261.100	-18.151	0.101
261.200	-6.873	0.101
261.300	-19.448	0.101
261.400	-22.601	0.101
261.500	-7.205	0.101
261.600	-21.692	0.101
261.700	-6.168	0.101
261.800	-16.617	0.101
261.900	-20.102	0.101
262.000	-29.864	0.101
262.100	-2.347	0.101
262.200	-11.924	0.101
262.300	-14.934	0.101
262.400	-4.742	0.101
262.500	-35.116	0.101
262.600	-23.027	0.101
262.700	-7.220	0.101
262.800	-11.277	0.101
262.900	-27.623	0.101
263.000	-9.188	0.101
263.100	-18.255	0.101
263.200	-25.263	0.101
263.300	-6.744	0.101
263.400	-2.757	0.101
263.500	-18.511	0.101
263.600	-16.661	0.101
263.700	-21.594	0.101
263.800	-16.079	0.101
263.900	-17.123	0.101
264.000	-16.725	0.101
264.100	-15.064	0.101
264.200	-21.005	0.101
264.300	-18.386	0.101
264.400	-18.984	0.101
264.500	-18.375	0.101
264.600	-13.778	0.101
264.700	3.455	0.101
264.800	-26.197	0.101
264.900	-10.908	0.101
265.000	-6.366	0.101
265.100	-24.975	0.101
265.200	-22.588	0.101
265.300	7.086	0.101
265.400	-16.615	0.101
265.500	-29.107	0.101
265.600	-13.923	0.101
265.700	-6.873	0.101
265.800	-11.136	0.101
265.900	-22.479	0.101
266.000	-16.827	0.101
266.100	-19.065	0.101
266.200	-7.387	0.101
266.300	-23.314	0.101
266.400	-8.608	0.101
266.500	-12.855	0.101
266.600	-36.597	0.101
266.700	-19.590	0.101
266.800	-11.872	0.101
266.900	-24.245	0.101
267.000	-17.035	0.101
267.100	-36.255	0.101
267.200	-13.626	0.101
267.300	-16.064	0.101
267.400	-12.404	0.101
267.500	-23.510	0.101
267.600	-29.397	0.101
267.700	-16.620	0.101
267.800	-18.208	0.101
267.900	-11.775	0.101
268.000	-31.622	0.101
268.100	-20.723	0.101
268.200	-23.404	0.101
268.300	-13.759	0.101
268.400	-23.761	0.101
268.500	-18.411	0.101
268.600	-32.705	0.101
268.700	-15.848	0.101
268.800	-14.851	0.101
268.900	-18.054	0.101
269.000	-11.640	0.101
269.100	-15.442	0.101
269.200	-26.784	0.101
269.300	-3.924	0.101
269.400	-36.645	0.101
269.500	-6.371	0.101
269.600	-26.527	0.101
269.700	-18.694	0.101
269.800	-15.360	0.101
269.900	-17.894	0.101
270.000	-0.087	0.101
270.100	-29.620	0.101
270.200	-24.043	0.101
270.300	-21.231	0.101
270.400	-26.986	0.101
270.500	-19.602	0.101
270.600	-16.188	0.101
270.700	-15.451	0.101
270.800	-16.212	0.101
270.900	-19.014	0.101
271.000	-17.833	0.101
271.100	-30.396	0.101
271.200	-20.412	0.101
271.300	-29.706	0.101
271.400	-8.468	0.101
271.500	-19.577	0.101
271.600	-27.968	0.101
271.700	-24.691	0.101
271.800	-16.135	0.101
271.900	-17.623	0.101
272.000	-19.310	0.101
272.100	-23.676	0.101
272.200	-18.002	0.101
272.300	-19.238	0.101
272.400	-31.492	0.101
272.500	-34.923	0.101
272.600	-24.673	0.101
272.700	-22.102	0.101
272.800	-16.270	0.101
272.900	-23.061	0.101
273.000	-31.190	0.101
273.100	-17.405	0.101
273.200	-33.053	0.101
273.300	-20.058	0.101
273.400	-24.988	0.101
273.500	-31.521	0.101
273.600	-16.868	0.101
273.700	-30.137	0.101
273.800	-27.714	0.101
273.900	-24.693	0.101
274.000	-27.201	0.101
274.100	-23.465	0.101
274.200	-25.249	0.101
274.300	-21.193	0.101
274.400	-25.083	0.101
274.500	-19.624	0.101
274.600	-16.138	0.101
274.700	-30.253	0.101
274.800	-24.332	0.101
274.900	-24.621	0.101
275.000	-11.771	0.101
275.100	-19.409	0.101
275.200	-23.367	0.101
275.300	-25.300	0.101
275.400	-20.474	0.101
275.500	-28.474	0.101
275.600	-30.127	0.101
275.700	-33.676	0.101
275.800	-16.280	0.101
275.900	-24.516	0.101
276.000	-28.539	0.101
276.100	-33.409	0.101
276.200	-17.273	0.101
276.300	-22.622	0.101
276.400	-20.656	0.101
276.500	-35.749	0.101
276.600	-31.236	0.101
276.700	-29.233	0.101
276.800	-17.044	0.101
276.900	-23.718	0.101
277.000	-18.618	0.101
277.100	-33.890	0.101
277.200	-26.059	0.101
277.300	-20.473	0.101
277.400	-28.175	0.101
277.500	-27.626	0.101
277.600	-22.742	0.101
277.700	-21.326	0.101
277.800	-18.110	0.101
277.900	-25.964	0.101
278.000	-7.196	0.101
278.100	-25.571	0.101
278.200	-22.004	0.101
278.300	-26.976	0.101
278.400	-31.928	0.101
278.500	-26.418	0.101
278.600	-27.380	0.101
278.700	-22.945	0.101
278.800	-9.571	0.101
278.900	-33.610	0.101
279.000	-12.051	0.101
279.100	-29.512	0.101
279.200	-30.359	0.101
279.300	-22.738	0.101
279.400	-13.209	0.101
279.500	-13.711	0.101
279.600	-25.785	0.101
279.700	-28.905	0.101
279.800	-30.619	0.101
279.900	-23.834	0.101
280.000	-15.699	0.101
280.100	-26.289	0.101
280.200	-18.918	0.101
280.300	-21.866	0.101
280.400	-21.377	0.101
280.500	-24.428	0.101
280.600	-16.086	0.101
280.700	-16.240	0.101
280.800	-19.368	0.101
280.900	-29.834	0.101
281.000	-16.524	0.101
281.100	-35.841	0.101
281.200	-32.407	0.101
281.300	-24.997	0.101
281.400	-20.911	0.101
281.500	-18.063	0.101
281.600	-29.216	0.101
281.700	-32.622	0.101
281.800	-19.603	0.101
281.900	-28.155	0.101
282.000	-20.491	0.101
282.100	-20.368	0.101
282.200	-26.987	0.101
282.300	-29.896	0.101
282.400	-30.155	0.101
282.500	-25.301	0.101
282.600	-39.521	0.101
282.700	-21.029	0.101
282.800	-9.389	0.101
282.900	-22.839	0.101
283.000	-24.560	0.101
283.100	-25.092	0.101
283.200	-26.753	0.101
283.300	-24.874	0.101
283.400	-8.124	0.101
283.500	-16.395	0.101
283.600	-32.081	0.101
283.700	-31.451	0.101
283.800	-14.048	0.101
283.900	-18.373	0.101
284.000	-30.402	0.101
284.100	-35.324	0.101
284.200	-10.500	0.101
284.300	-19.170	0.101
284.400	-12.239	0.101
284.500	-26.845	0.101
284.600	-26.836	0.101
284.700	-8.051	0.101
284.800	-21.379	0.101
284.900	-32.021	0.101
285.000	-24.213	0.101
285.100	-30.092	0.101
285.200	-18.214	0.101
285.300	-23.196	0.101
285.400	-23.414	0.101
285.500	-4.581	0.101
285.600	-14.022	0.101
285.700	-28.110	0.101
285.800	-22.224	0.101
285.900	-20.289	0.101
286.000	-35.819	0.101
286.100	-17.354	0.101
286.200	-16.134	0.101
286.300	-26.045	0.101
286.400	-24.660	0.101
286.500	-15.818	0.101
286.600	-22.316	0.101
286.700	-19.364	0.101
286.800	-20.226	0.101
286.900	-36.853	0.101
287.000	-28.610	0.101
287.100	-18.614	0.101
287.200	-14.446	0.101
287.300	-25.381	0.101
287.400	-20.458	0.101
287.500	-26.307	0.101
287.600	-21.216	0.101
287.700	-38.782	0.101
287.800	-33.096	0.101
287.900	-15.210	0.101
288.000	-25.608	0.101
288.100	-17.550	0.101
288.200	-26.346	0.101
288.300	-25.243	0.101
288.400	-23.128	0.101
288.500	-23.259	0.101
288.600	-16.117	0.101
288.700	-23.839	0.101
288.800	-37.540	0.101
288.900	-31.890	0.101
289.000	-24.149	0.101
289.100	-29.340	0.101
289.200	-26.007	0.101
289.300	-19.720	0.101
289.400	-29.665	0.101
289.500	-14.051	0.101
289.600	-30.908	0.101
289.700	-11.988	0.101
289.800	-24.063	0.101
289.900	-37.290	0.101
290.000	-16.466	0.101
290.100	-30.150	0.101
290.200	-41.781	0.101
290.300	-13.772	0.101
290.400	-21.440	0.101
290.500	-23.707	0.101
290.600	-21.301	0.101
290.700	-38.665	0.101
290.800	-23.083	0.101
290.900	-21.009	0.101
291.000	-19.640	0.101
291.100	-17.237	0.101
291.200	-12.159	0.101
291.300	-18.418	0.101
291.400	-40.208	0.101
291.500	-33.564	0.101
291.600	-7.314	0.101
291.700	-10.712	0.101
291.800	-24.622	0.101
291.900	-22.423	0.101
292.000	-24.964	0.101
292.100	-29.345	0.101
292.200	-39.396	0.101
292.300	-20.671	0.101
292.400	-12.518	0.101
292.500	-25.071	0.101
292.600	-18.994	0.101
292.700	-20.587	0.101
292.800	-19.771	0.101
292.900	-22.322	0.101
293.000	-27.785	0.101
293.100	-23.105	0.101
293.200	-16.069	0.101
293.300	-27.417	0.101
293.400	-25.315	0.101
293.500	-29.941	0.101
293.600	-24.082	0.101
293.700	-1.537	0.101
293.800	-32.662	0.101
293.900	-38.464	0.101
294.000	-15.264	0.101
294.100	-22.180	0.101
294.200	-15.720	0.101
294.300	-25.522	0.101
294.400	-37.964	0.101
294.500	-30.197	0.101
294.600	-15.192	0.101
294.700	-13.178	0.101
294.800	-18.431	0.101
294.900	-28.285	0.101
295.000	-37.747	0.101
295.100	-22.375	0.101
295.200	-28.684	0.101
295.300	-21.778	0.101
295.400	-17.681	0.101
295.500	-21.013	0.101
295.600	-31.945	0.101
295.700	-19.879	0.101
295.800	-27.125	0.101
295.900	-33.056	0.101
296.000	-21.666	0.101
296.100	-17.000	0.101
296.200	-30.459	0.101
296.300	-18.119	0.101
296.400	-15.679	0.101
296.500	-29.861	0.101
296.600	-39.041	0.101
296.700	-26.453	0.101
296.800	-15.559	0.101
296.900	-26.691	0.101
297.000	-38.544	0.101
297.100	-39.191	0.101
297.200	-17.965	0.101
297.300	-14.890	0.101
297.400	-30.743	0.101
297.500	-11.820	0.101
297.600	-29.329	0.101
297.700	-20.724	0.101
297.800	-28.335	0.101
297.900	-13.965	0.101
298.000	-6.869	0.101
298.100	-21.012	0.101
298.200	-24.708	0.101
298.300	-26.691	0.101
298.400	-21.156	0.101
298.500	-17.989	0.101
298.600	-22.601	0.101
298.700	-24.112	0.101
298.800	-11.090	0.101
298.900	-25.982	0.101
299.000	-32.534	0.101
299.100	-22.058	0.101
299.200	-15.018	0.101
299.300	-24.489	0.101
299.400	-28.863	0.101
299.500	-15.171	0.101
299.600	-29.967	0.101
299.700	-25.509	0.101
299.800	-20.785	0.101
299.900	-9.305	0.101
300.000	-15.034	0.101
300.100	-24.788	0.101
300.200	-23.709	0.101
300.300	-18.079	0.101
300.400	-29.201	0.101
300.500	-23.099	0.101
300.600	-15.025	0.101
300.700	-29.817	0.101
300.800	-27.997	0.101
300.900	-13.727	0.101
301.000	-21.067	0.101
301.100	-20.754	0.101
301.200	-13.849	0.101
301.300	-36.124	0.101
301.400	-32.149	0.101
301.500	-17.767	0.101
301.600	-16.352	0.101
301.700	-15.889	0.101
301.800	-19.026	0.101
301.900	-22.055	0.101
302.000	-21.483	0.101
302.100	-20.410	0.101
302.200	-27.719	0.101
302.300	-19.448	0.101
302.400	-20.006	0.101
302.500	-4.451	0.101
302.600	-26.277	0.101
302.700	-34.668	0.101
302.800	-26.213	0.101
302.900	-18.622	0.101
303.000	-30.228	0.101
303.100	-11.171	0.101
303.200	-15.869	0.101
303.300	-14.200	0.101
303.400	-30.585	0.101
303.500	-22.844	0.101
303.600	-22.680	0.101
303.700	-31.987	0.101
303.800	-20.282	0.101
303.900	-24.214	0.101
304.000	-23.767	0.101
304.100	-27.151	0.101
304.200	-26.248	0.101
304.300	-28.858	0.101
304.400	-26.307	0.101
304.500	-19.018	0.101
304.600	-28.024	0.101
304.700	-17.035	0.101
304.800	-28.649	0.101
304.900	-12.913	0.101
305.000	-20.947	0.101
305.100	-21.738	0.101
305.200	-27.555	0.101
305.300	-37.701	0.101
305.400	-12.615	0.101
305.500	-22.563	0.101
305.600	-27.698	0.101
305.700	-23.976	0.101
305.800	-26.082	0.101
305.900	-13.342	0.101
306.000	-16.883	0.101
306.100	-30.189	0.101
306.200	-32.886	0.101
306.300	-36.580	0.101
306.400	-22.467	0.101
306.500	-13.234	0.101
306.600	-19.949	0.101
306.700	-13.265	0.101
306.800	-12.885	0.101
306.900	-31.896	0.101
307.000	-23.267	0.101
307.100	-17.117	0.101
307.200	-10.102	0.101
307.300	-17.682	0.101
307.400	-13.370	0.101
307.500	-17.686	0.101
307.600	-38.387	0.101
307.700	-18.075	0.101
307.800	-24.985	0.101
307.900	-36.182	0.101
308.000	-9.426	0.101
308.100	-28.363	0.101
308.200	-8.957	0.101
308.300	-29.736	0.101
308.400	-23.132	0.101
308.500	-21.792	0.101
308.600	-10.692	0.101
308.700	-25.587	0.101
308.800	-15.583	0.101
308.900	-8.306	0.101
309.000	-22.173	0.101
309.100	-27.760	0.101
309.200	-25.879	0.101
309.300	-28.871	0.101
309.400	-17.142	0.101
309.500	-13.179	0.101
309.600	-20.168	0.101
309.700	-25.814	0.101
309.800	-20.154	0.101
309.900	-26.885	0.101
310.000	-29.195	0.101
310.100	-8.844	0.101
310.200	-21.419	0.101
310.300	-38.935	0.101
310.400	-19.688	0.101
310.500	-23.582	0.101
310.600	-21.669	0.101
310.700	-21.353	0.101
310.800	-22.827	0.101
310.900	-40.368	0.101
311.000	-21.042	0.101
311.100	-26.606	0.101
311.200	-23.814	0.101
311.300	-30.582	0.101
311.400	-26.704	0.101
311.500	-22.209	0.101
311.600	-28.386	0.101
311.700	-19.159	0.101
311.800	-22.866	0.101
311.900	-21.980	0.101
312.000	-28.560	0.101
312.100	-24.596	0.101
312.200	-20.248	0.101
312.300	-10.544	0.101
312.400	-21.826	0.101
312.500	-26.139	0.101
312.600	-19.499	0.101
312.700	-25.443	0.101
312.800	-22.507	0.101
312.900	-9.039	0.101
313.000	-10.285	0.101
313.100	-19.174	0.101
313.200	-31.644	0.101
313.300	-28.108	0.101
313.400	-15.913	0.101
313.500	-15.751	0.101
313.600	-30.453	0.101
313.700	-22.398	0.101
313.800	-20.955	0.101
313.900	-25.745	0.101
314.000	-21.252	0.101
314.100	-17.988	0.101
314.200	-29.902	0.101
314.300	-9.251	0.101
314.400	-25.087	0.101
314.500	-9.118	0.101
314.600	-29.387	0.101
314.700	-10.822	0.101
314.800	-16.259	0.101
314.900	-10.755	0.101
315.000	-15.223	0.101
315.100	-27.441	0.101
315.200	-27.741	0.101
315.300	-13.334	0.101
315.400	-20.743	0.101
315.500	-16.883	0.101
315.600	-18.253	0.101
315.700	-6.197	0.101
315.800	-13.557	0.101
315.900	-21.852	0.101
316.000	-16.671	0.101
316.100	-27.006	0.101
316.200	-12.533	0.101
316.300	-26.321	0.101
316.400	-14.066	0.101
316.500	-31.940	0.101
316.600	-30.064	0.101
316.700	-27.122	0.101
316.800	-15.894	0.101
316.900	-24.286	0.101
317.000	-15.626	0.101
317.100	-17.587	0.101
317.200	-17.691	0.101
317.300	-20.812	0.101
317.400	-21.465	0.101
317.500	-18.147	0.101
317.600	-24.229	0.101
317.700	-13.863	0.101
317.800	-24.568	0.101
317.900	-11.880	0.101
318.000	-19.943	0.101
318.100	-33.184	0.101
318.200	-16.707	0.101
318.300	-31.359	0.101
318.400	-14.195	0.101
318.500	-16.916	0.101
318.600	-9.582	0.101
318.700	-17.973	0.101
318.800	-27.623	0.101
318.900	-28.835	0.101
319.000	-31.551	0.101
319.100	-23.253	0.101
319.200	-7.599	0.101
319.300	-13.534	0.101
319.400	-21.394	0.101
319.500	-21.503	0.101
319.600	-15.050	0.101
319.700	-16.548	0.101
319.800	-33.883	0.101
319.900	-14.521	0.101
320.000	-16.582	0.101
320.100	-30.779	0.101
320.200	-25.284	0.101
320.300	-30.043	0.101
320.400	-27.873	0.101
320.500	-19.381	0.101
320.600	-6.382	0.101
320.700	-18.463	0.101
320.800	-29.687	0.101
320.900	-11.541	0.101
321.000	-17.068	0.101
321.100	-14.016	0.101
321.200	-7.172	0.101
321.300	-19.944	0.101
321.400	-24.326	0.101
321.500	-31.887	0.101
321.600	-19.789	0.101
321.700	-11.378	0.101
321.800	-20.334	0.101
321.900	-17.205	0.101
322.000	-32.128	0.101
322.100	-25.676	0.101
322.200	-19.318	0.101
322.300	-18.865	0.101
322.400	-18.302	0.101
322.500	-23.046	0.101
322.600	-12.980	0.101
322.700	-14.089	0.101
322.800	-32.419	0.101
322.900	-16.907	0.101
323.000	-26.140	0.101
323.100	-17.309	0.101
323.200	-27.699	0.101
323.300	-35.803	0.101
323.400	-24.439	0.101
323.500	-22.877	0.101
323.600	-17.446	0.101
323.700	-10.261	0.101
323.800	-26.544	0.101
323.900	-18.946	0.101
324.000	-22.017	0.101
324.100	-9.306	0.101
324.200	-16.494	0.101
324.300	-27.729	0.101
324.400	-8.803	0.101
324.500	-15.871	0.101
324.600	-26.789	0.101
324.700	-23.945	0.101
324.800	-13.082	0.101
324.900	-21.764	0.101
325.000	-19.564	0.101
325.100	-23.793	0.101
325.200	-23.706	0.101
325.300	-14.141	0.101
325.400	-15.662	0.101
325.500	-21.679	0.101
325.600	-20.304	0.101
325.700	-13.216	0.101
325.800	-28.535	0.101
325.900	-16.147	0.101
326.000	-22.124	0.101
326.100	-16.148	0.101
326.200	-22.604	0.101
326.300	-18.531	0.101
326.400	-18.055	0.101
326.500	-23.782	0.101
326.600	-33.402	0.101
326.700	-12.647	0.101
326.800	-12.240	0.101
326.900	-27.398	0.101
327.000	-21.127	0.101
327.100	-27.733	0.101
327.200	-21.297	0.101
327.300	-15.082	0.101
327.400	-29.680	0.101
327.500	-20.446	0.101
327.600	-12.574	0.101
327.700	-15.374	0.101
327.800	-23.721	0.101
327.900	-18.726	0.101
328.000	-12.728	0.101
328.100	-19.309	0.101
328.200	-26.974	0.101
328.300	-16.682	0.101
328.400	-17.275	0.101
328.500	-24.896	0.101
328.600	-27.265	0.101
328.700	-18.988	0.101
328.800	-15.447	0.101
328.900	-14.283	0.101
329.000	-31.998	0.101
329.100	-27.956	0.101
329.200	-13.533	0.101
329.300	-10.272	0.101
329.400	-28.324	0.101
329.500	-24.958	0.101
329.600	-21.738	0.101
329.700	-9.923	0.101
329.800	-9.039	0.101
329.900	-27.961	0.101
330.000	-13.419	0.101
330.100	-29.027	0.101
330.200	-5.399	0.101
330.300	-4.431	0.101
330.400	-16.239	0.101
330.500	-13.445	0.101
330.600	-6.914	0.101
330.700	-11.292	0.101
330.800	-6.580	0.101
330.900	8.408	0.101
331.000	6.771	0.101
331.100	4.302	0.101
331.200	12.537	0.101
331.300	12.564	0.101
331.400	7.184	0.101
331.500	21.308	0.101
331.600	23.501	0.101
331.700	20.480	0.101
331.800	5.767	0.101
331.900	2.362	0.101
332.000	12.571	0.101
332.100	17.026	0.101
332.200	11.243	0.101
332.300	20.456	0.101
332.400	22.161	0.101
332.500	23.372	0.101
332.600	-3.672	0.101
332.700	15.382	0.101
332.800	22.349	0.101
332.900	27.643	0.101
333.000	20.960	0.101
333.100	9.444	0.101
333.200	17.023	0.101
333.300	31.478	0.101
333.400	26.165	0.101
333.500	9.889	0.101
333.600	8.458	0.101
333.700	22.410	0.101
333.800	6.087	0.101
333.900	16.199	0.101
334.000	9.426	0.101
334.100	12.302	0.101
334.200	3.984	0.101
334.300	9.045	0.101
334.400	14.872	0.101
334.500	14.366	0.101
334.600	12.366	0.101
334.700	10.065	0.101
334.800	11.074	0.101
334.900	10.062	0.101
335.000	16.639	0.101
335.100	5.565	0.101
335.200	5.950	0.101
335.300	7.570	0.101
335.400	18.666	0.101
335.500	18.476	0.101
335.600	4.898	0.101
335.700	13.694	0.101
335.800	8.177	0.101
335.900	2.673	0.101
336.000	20.070	0.101
336.100	17.817	0.101
336.200	6.582	0.101
336.300	1.950	0.101
336.400	11.592	0.101
336.500	6.412	0.101
336.600	14.409	0.101
336.700	-5.742	0.101
336.800	8.181	0.101
336.900	0.184	0.101
337.000	1.721	0.101
337.100	5.042	0.101
337.200	14.200	0.101
337.300	21.174	0.101
337.400	9.666	0.101
337.500	2.497	0.101
337.600	14.719	0.101
337.700	7.064	0.101
337.800	7.829	0.101
337.900	5.840	0.101
338.000	9.050	0.101
338.100	12.753	0.101
338.200	16.467	0.101
338.300	3.772	0.101
338.400	22.847	0.101
338.500	25.596	0.101
338.600	14.405	0.101
338.700	9.837	0.101
338.800	14.854	0.101
338.900	1.425	0.101
339.000	13.327	0.101
339.100	16.312	0.101
339.200	17.342	0.101
339.300	14.577	0.101
339.400	18.702	0.101
339.500	12.582	0.101
339.600	11.311	0.101
339.700	16.655	0.101
339.800	6.152	0.101
339.900	2.524	0.101
340.000	23.233	0.101
340.100	16.445	0.101
340.200	11.492	0.101
340.300	11.371	0.101
340.400	15.548	0.101
340.500	22.868	0.101
340.600	33.910	0.101
340.700	3.576	0.101
340.800	22.423	0.101
340.900	21.942	0.101
341.000	20.786	0.101
341.100	17.617	0.101
341.200	15.615	0.101
341.300	18.589	0.101
341.400	19.321	0.101
341.500	15.373	0.101
341.600	40.450	0.101
341.700	25.383	0.101
341.800	18.946	0.101
341.900	13.383	0.101
342.000	24.723	0.101
342.100	27.606	0.101
342.200	26.962	0.101
342.300	12.413	0.101
342.400	35.315	0.101
342.500	27.437	0.101
342.600	28.792	0.101
342.700	13.697	0.101
342.800	43.775	0.101
342.900	14.221	0.101
343.000	34.860	0.101
343.100	26.491	0.101
343.200	30.701	0.101
343.300	17.701	0.101
343.400	37.771	0.101
343.500	23.926	0.101
343.600	39.620	0.101
343.700	27.855	0.101
343.800	23.892	0.101
343.900	24.590	0.101
344.000	35.461	0.101
344.100	23.689	0.101
344.200	19.937	0.101
344.300	31.289	0.101
344.400	27.674	0.101
344.500	33.342	0.101
344.600	31.241	0.101
344.700	42.069	0.101
344.800	25.180	0.101
344.900	30.904	0.101
345.000	36.232	0.101
345.100	39.313	0.101
345.200	47.842	0.101
345.300	38.823	0.101
345.400	26.181	0.101
345.500	26.174	0.101
345.600	41.103	0.101
345.700	42.160	0.101
345.800	47.437	0.101
345.900	37.211	0.101
346.000	40.834	0.101
346.100	34.035	0.101
346.200	41.029	0.101
346.300	38.848	0.101
346.400	34.594	0.101
346.500	48.900	0.101
346.600	43.763	0.101
346.700	48.050	0.101
346.800	31.235	0.101
346.900	48.775	0.101
347.000	50.649	0.101
347.100	42.965	0.101
347.200	49.999	0.101
347.300	41.489	0.101
347.400	51.490	0.101
347.500	47.466	0.101
347.600	42.229	0.101
347.700	38.649	0.101
347.800	48.122	0.101
347.900	40.890	0.101
348.000	47.555	0.101
348.100	47.531	0.101
348.200	46.809	0.101
348.300	53.486	0.101
348.400	64.970	0.101
348.500	48.919	0.101
348.600	50.787	0.101
348.700	51.618	0.101
348.800	63.764	0.101
348.900	61.280	0.101
349.000	48.267	0.101
349.100	50.458	0.101
349.200	41.035	0.101
349.300	57.076	0.101
349.400	43.065	0.101
349.500	40.407	0.101
349.600	55.644	0.101
349.700	63.169	0.101
349.800	47.123	0.101
349.900	54.012	0.101
350.000	53.535	0.101
350.100	55.434	0.101
350.200	59.332	0.101
350.300	55.200	0.101
350.400	63.325	0.101
350.500	51.484	0.101
350.600	61.820	0.101
350.700	61.398	0.101
350.800	59.818	0.101
350.900	55.253	0.101
351.000	51.447	0.101
351.100	62.095	0.101
351.200	59.471	0.101
351.300	53.000	0.101
351.400	45.075	0.101
351.500	67.539	0.101
351.600	47.428	0.101
351.700	41.242	0.101
351.800	60.869	0.101
351.900	55.451	0.101
352.000	58.292	0.101
352.100	47.861	0.101
352.200	66.710	0.101
352.300	61.465	0.101
352.400	57.682	0.101
352.500	48.390	0.101
352.600	53.676	0.101
352.700	60.632	0.101
352.800	53.698	0.101
352.900	62.376	0.101
353.000	65.186	0.101
353.100	55.583	0.101
353.200	54.622	0.101
353.300	55.450	0.101
353.400	61.812	0.101
353.500	58.508	0.101
353.600	50.960	0.101
353.700	58.704	0.101
353.800	62.368	0.101
353.900	63.969	0.101
354.000	59.248	0.101
354.100	48.892	0.101
354.200	43.797	0.101
354.300	62.494	0.101
354.400	65.922	0.101
354.500	57.973	0.101
354.600	51.356	0.101
354.700	64.916	0.101
354.800	61.955	0.101
354.900	55.737	0.101
355.000	57.268	0.101
355.100	58.500	0.101
355.200	63.100	0.101
355.300	52.842	0.101
355.400	58.803	0.101
355.500	55.193	0.101
355.600	48.854	0.101
355.700	57.547	0.101
355.800	53.454	0.101
355.900	56.286	0.101
356.000	67.518	0.101
356.100	61.531	0.101
356.200	60.419	0.101
356.300	47.465	0.101
356.400	50.521	0.101
356.500	59.279	0.101
356.600	56.045	0.101
356.700	60.872	0.101
356.800	55.095	0.101
356.900	44.846	0.101
357.000	55.725	0.101
357.100	65.735	0.101
357.200	58.016	0.101
357.300	52.380	0.101
357.400	48.442	0.101
357.500	49.664	0.101
357.600	55.311	0.101
357.700	62.395	0.101
357.800	60.486	0.101
357.900	59.230	0.101
358.000	61.150	0.101
358.100	55.810	0.101
358.200	48.377	0.101
358.300	50.633	0.101
358.400	53.554	0.101
358.500	64.220	0.101
358.600	55.279	0.101
358.700	67.757	0.101
358.800	59.498	0.101
358.900	52.872	0.101
359.000	54.728	0.101
359.100	54.039	0.101
359.200	48.517	0.101
359.300	53.168	0.101
359.400	66.303	0.101
359.500	54.545	0.101
359.600	49.882	0.101
359.700	53.728	0.101
359.800	56.826	0.101
359.900	55.802	0.101
360.000	62.022	0.101
360.100	56.157	0.101
360.200	44.155	0.101
360.300	69.225	0.101
360.400	50.978	0.101
360.500	50.757	0.101
360.600	52.856	0.101
360.700	59.834	0.101
360.800	49.520	0.101
360.900	52.816	0.101
361.000	47.563	0.101
361.100	65.348	0.101
361.200	59.165	0.101
361.300	47.906	0.101
361.400	51.842	0.101
361.500	63.436	0.101
361.600	51.954	0.101
361.700	64.422	0.101
361.800	50.662	0.101
361.900	63.386	0.101
362.000	48.688	0.101
362.100	69.101	0.101
362.200	44.485	0.101
362.300	58.538	0.101
362.400	59.378	0.101
362.500	43.433	0.101
362.600	64.700	0.101
362.700	50.713	0.101
362.800	54.842	0.101
362.900	63.931	0.101
363.000	64.439	0.101
363.100	62.992	0.101
363.200	57.738	0.101
363.300	69.478	0.101
363.400	58.584	0.101
363.500	40.070	0.101
363.600	53.432	0.101
363.700	58.911	0.101
363.800	42.656	0.101
363.900	50.415	0.101
364.000	61.325	0.101
364.100	50.427	0.101
364.200	60.585	0.101
364.300	55.376	0.101
364.400	55.598	0.101
364.500	51.288	0.101
364.600	63.115	0.101
364.700	57.448	0.101
364.800	48.360	0.101
364.900	58.930	0.101
365.000	58.132	0.101
365.100	45.966	0.101
365.200	44.435	0.101
365.300	54.447	0.101
365.400	53.636	0.101
365.500	45.989	0.101
365.600	65.035	0.101
365.700	49.087	0.101
365.800	48.563	0.101
365.900	45.547	0.101
366.000	54.587	0.101
366.100	67.256	0.101
366.200	51.662	0.101
366.300	44.781	0.101
366.400	58.401	0.101
366.500	53.566	0.101
366.600	53.685	0.101
366.700	49.667	0.101
366.800	56.962	0.101
366.900	49.269	0.101
367.000	50.728	0.101
367.100	48.769	0.101
367.200	51.012	0.101
367.300	52.065	0.101
367.400	49.739	0.101
367.500	58.045	0.101
367.600	57.917	0.101
367.700	64.570	0.101
367.800	48.708	0.101
367.900	43.838	0.101
368.000	50.915	0.101
368.100	53.822	0.101
368.200	63.371	0.101
368.300	54.842	0.101
368.400	54.788	0.101
368.500	60.125	0.101
368.600	65.614	0.101
368.700	54.020	0.101
368.800	44.571	0.101
368.900	54.665	0.101
369.000	69.198	0.101
369.100	41.959	0.101
369.200	49.042	0.101
369.300	57.290	0.101
369.400	52.598	0.101
369.500	60.486	0.101
369.600	70.505	0.101
369.700	54.289	0.101
369.800	56.825	0.101
369.900	39.469	0.101
370.000	68.320	0.101
370.100	59.435	0.101
370.200	60.803	0.101
370.300	48.446	0.101
370.400	56.485	0.101
370.500	50.576	0.101
370.600	52.631	0.101
370.700	58.302	0.101
370.800	65.078	0.101
370.900	57.026	0.101
371.000	57.865	0.101
371.100	53.026	0.101
371.200	48.435	0.101
371.300	65.422	0.101
371.400	50.095	0.101
371.500	42.894	0.101
371.600	62.435	0.101
371.700	58.736	0.101
371.800	42.432	0.101
371.900	55.386	0.101
372.000	52.942	0.101
372.100	50.654	0.101
372.200	44.900	0.101
372.300	54.113	0.101
372.400	54.885	0.101
372.500	47.935	0.101
372.600	58.416	0.101
372.700	42.015	0.101
372.800	60.541	0.101
372.900	50.831	0.101
373.000	56.988	0.101
373.100	57.905	0.101
373.200	54.935	0.101
373.300	51.977	0.101
373.400	50.570	0.101
373.500	40.669	0.101
373.600	50.986	0.101
373.700	58.599	0.101
373.800	51.551	0.101
373.900	59.360	0.101
374.000	52.899	0.101
374.100	48.747	0.101
374.200	59.725	0.101
374.300	70.285	0.101
374.400	45.512	0.101
374.500	47.939	0.101
374.600	52.095	0.101
374.700	42.289	0.101
374.800	55.155	0.101
374.900	56.740	0.101
375.000	72.831	0.101
375.100	39.544	0.101
375.200	61.143	0.101
375.300	55.576	0.101
375.400	50.016	0.101
375.500	50.179	0.101
375.600	43.107	0.101
375.700	54.818	0.101
375.800	61.970	0.101
375.900	52.130	0.101
376.000	52.884	0.101
376.100	60.180	0.101
376.200	62.143	0.101
376.300	35.981	0.101
376.400	50.226	0.101
376.500	72.826	0.101
376.600	58.594	0.101
376.700	61.590	0.101
376.800	51.677	0.101
376.900	47.310	0.101
377.000	56.575	0.101
377.100	49.044	0.101
377.200	58.809	0.101
377.300	57.213	0.101
377.400	39.095	0.101
377.500	59.025	0.101
377.600	55.883	0.101
377.700	50.199	0.101
377.800	59.494	0.101
377.900	53.618	0.101
378.000	52.523	0.101
378.100	49.746	0.101
378.200	42.662	0.101
378.300	51.743	0.101
378.400	58.789	0.101
378.500	44.575	0.101
378.600	54.271	0.101
378.700	48.281	0.101
378.800	52.762	0.101
378.900	58.659	0.101
379.000	45.811	0.101
379.100	46.780	0.101
379.200	70.860	0.101
379.300	43.468	0.101
379.400	47.209	0.101
379.500	51.167	0.101
379.600	47.907	0.101
379.700	55.377	0.101
379.800	40.062	0.101
379.900	48.881	0.101
380.000	56.979	0.101
380.100	54.881	0.101
380.200	57.568	0.101
380.300	69.555	0.101
380.400	50.540	0.101
380.500	52.532	0.101
380.600	56.796	0.101
380.700	50.949	0.101
380.800	56.622	0.101
380.900	47.301	0.101
381.000	44.787	0.101
381.100	53.676	0.101
381.200	66.301	0.101
381.300	42.705	0.101
381.400	46.998	0.101
381.500	64.794	0.101
381.600	43.910	0.101
381.700	52.824	0.101
381.800	54.785	0.101
381.900	47.737	0.101
382.000	49.275	0.101
382.100	45.260	0.101
382.200	49.796	0.101
382.300	57.987	0.101
382.400	49.094	0.101
382.500	57.833	0.101
382.600	52.813	0.101
382.700	51.747	0.101
382.800	69.123	0.101
382.900	49.634	0.101
383.000	50.929	0.101
383.100	48.734	0.101
383.200	42.916	0.101
383.300	50.225	0.101
383.400	63.745	0.101
383.500	57.014	0.101
383.600	55.357	0.101
383.700	49.060	0.101
383.800	59.126	0.101
383.900	49.101	0.101
384.000	52.150	0.101
384.100	55.285	0.101
384.200	59.618	0.101
384.300	64.921	0.101
384.400	65.883	0.101
384.500	47.093	0.101
384.600	55.435	0.101
384.700	44.449	0.101
384.800	50.830	0.101
384.900	57.023	0.101
385.000	44.326	0.101
385.100	52.480	0.101
385.200	61.312	0.101
385.300	49.295	0.101
385.400	50.359	0.101
385.500	56.597	0.101
385.600	38.747	0.101
385.700	34.907	0.101
385.800	59.534	0.101
385.900	43.858	0.101
386.000	50.892	0.101
386.100	63.920	0.101
386.200	49.035	0.101
386.300	65.603	0.101
386.400	44.653	0.101
386.500	50.692	0.101
386.600	43.495	0.101
386.700	44.438	0.101
386.800	52.585	0.101
386.900	46.518	0.101
387.000	57.556	0.101
387.100	65.420	0.101
387.200	55.067	0.101
387.300	54.314	0.101
387.400	54.808	0.101
387.500	39.202	0.101
387.600	55.638	0.101
387.700	62.881	0.101
387.800	38.195	0.101
387.900	64.590	0.101
388.000	52.924	0.101
388.100	47.050	0.101
388.200	39.089	0.101
388.300	58.548	0.101
388.400	58.317	0.101
388.500	44.546	0.101
388.600	51.571	0.101
388.700	63.560	0.101
388.800	52.011	0.101
388.900	47.396	0.101
389.000	51.105	0.101
389.100	65.250	0.101
389.200	54.290	0.101
389.300	49.218	0.101
389.400	50.166	0.101
389.500	53.222	0.101
389.600	47.357	0.101
389.700	59.803	0.101
389.800	49.952	0.101
389.900	50.889	0.101
390.000	53.187	0.101
390.100	48.954	0.101
390.200	48.813	0.101
390.300	50.230	0.101
390.400	37.337	0.101
390.500	40.403	0.101
390.600	53.588	0.101
390.700	42.923	0.101
390.800	28.382	0.101
390.900	36.780	0.101
391.000	40.128	0.101
391.100	28.593	0.101
391.200	17.416	0.101
391.300	39.636	0.101
391.400	18.293	0.101
391.500	16.970	0.101
391.600	23.389	0.101
391.700	15.499	0.101
391.800	10.344	0.101
391.900	21.532	0.101
392.000	9.759	0.101
392.100	24.136	0.101
392.200	19.325	0.101
392.300	19.020	0.101
392.400	17.194	0.101
392.500	11.688	0.101
392.600	13.650	0.101
392.700	19.985	0.101
392.800	4.947	0.101
392.900	6.644	0.101
393.000	10.258	0.101
393.100	-9.373	0.101
393.200	7.948	0.101
393.300	5.060	0.101
393.400	4.452	0.101
393.500	-8.802	0.101
393.600	-2.480	0.101
393.700	0.103	0.101
393.800	-0.236	0.101
393.900	6.483	0.101
394.000	8.914	0.101
394.100	9.883	0.101
394.200	-0.886	0.101
394.300	-7.810	0.101
394.400	3.520	0.101
394.500	-0.438	0.101
394.600	5.442	0.101
394.700	-10.089	0.101
394.800	-8.720	0.101
394.900	-2.134	0.101
395.000	-6.797	0.101
395.100	-2.953	0.101
395.200	0.432	0.101
395.300	-9.068	0.101
395.400	7.249	0.101
395.500	-9.008	0.101
395.600	-1.098	0.101
395.700	-3.336	0.101
395.800	-14.877	0.101
395.900	-5.615	0.101
396.000	-3.712	0.101
396.100	-5.249	0.101
396.200	-4.196	0.101
396.300	-1.462	0.101
396.400	-8.203	0.101
396.500	-6.273	0.101
396.600	-4.437	0.101
396.700	-1.317	0.101
396.800	-6.573	0.101
396.900	0.057	0.101
397.000	-10.971	0.101
397.100	-8.218	0.101
397.200	0.959	0.101
397.300	-15.501	0.101
397.400	-2.902	0.101
397.500	-0.654	0.101
397.600	-8.123	0.101
397.700	-6.947	0.101
397.800	-2.475	0.101
397.900	-0.017	0.101
398.000	10.685	0.101
398.100	2.453	0.101
398.200	-6.830	0.101
398.300	-22.270	0.101
398.400	-9.430	0.101
398.500	-2.909	0.101
398.600	2.597	0.101
398.700	-13.952	0.101
398.800	4.984	0.101
398.900	1.515	0.101
399.000	-11.665	0.101
399.100	-3.573	0.101
399.200	-14.992	0.101
399.300	-13.975	0.101
399.400	-5.368	0.101
399.500	-20.405	0.101
399.600	2.782	0.101
399.700	-7.184	0.101
399.800	-3.369	0.101
399.900	-9.090	0.101
400.000	-7.784	0.101
400.100	-6.143	0.101
400.200	-5.897	0.101
400.300	-10.346	0.101
400.400	-0.405	0.101
400.500	-12.691	0.101
400.600	-2.272	0.101
400.700	-15.105	0.101
400.800	13.637	0.101
400.900	-9.676	0.101
401.000	2.380	0.101
401.100	-8.560	0.101
401.200	-13.754	0.101
401.300	-17.051	0.101
401.400	-5.773	0.101
401.500	-14.848	0.101
401.600	-14.174	0.101
401.700	-10.333	0.101
401.800	-2.865	0.101
401.900	4.612	0.101
402.000	-1.453	0.101
402.100	-13.451	0.101
402.200	-3.897	0.101
402.300	-5.211	0.101
402.400	7.884	0.101
402.500	-12.577	0.101
402.600	-13.626	0.101
402.700	-13.978	0.101
402.800	-14.949	0.101
402.900	-7.194	0.101
403.000	-15.681	0.101
403.100	-5.354	0.101
403.200	-7.329	0.101
403.300	-18.744	0.101
403.400	-6.396	0.101
403.500	-5.116	0.101
403.600	-1.141	0.101
403.700	-9.755	0.101
403.800	-13.216	0.101
403.900	-11.787	0.101
404.000	-12.104	0.101
404.100	-12.860	0.101
404.200	-8.696	0.101
404.300	-0.425	0.101
404.400	7.906	0.101
404.500	-11.471	0.101
404.600	-7.565	0.101
404.700	-4.983	0.101
404.800	-10.861	0.101
404.900	-21.524	0.101
405.000	-1.950	0.101
405.100	-0.570	0.101
405.200	-27.319	0.101
405.300	-23.271	0.101
405.400	-14.940	0.101
405.500	-4.314	0.101
405.600	3.754	0.101
405.700	-19.607	0.101
405.800	-4.566	0.101
405.900	-8.986	0.101
406.000	-18.466	0.101
406.100	-3.582	0.101
406.200	-14.365	0.101
406.300	-17.381	0.101
406.400	-21.322	0.101
406.500	-3.391	0.101
406.600	-20.001	0.101
406.700	-13.851	0.101
406.800	-16.780	0.101
406.900	-2.419	0.101
407.000	-11.190	0.101
407.100	-2.267	0.101
407.200	-19.471	0.101
407.300	5.286	0.101
407.400	-2.858	0.101
407.500	-32.747	0.101
407.600	-20.604	0.101
407.700	2.287	0.101
407.800	-22.991	0.101
407.900	-17.543	0.101
408.000	-20.931	0.101
408.100	-29.102	0.101
408.200	-0.593	0.101
408.300	-28.981	0.101
408.400	-16.244	0.101
408.500	-7.230	0.101
408.600	-14.459	0.101
408.700	-12.168	0.101
408.800	-20.523	0.101
408.900	-14.087	0.101
409.000	-19.907	0.101
409.100	-20.210	0.101
409.200	-8.011	0.101
409.300	-16.781	0.101
409.400	-5.974	0.101
409.500	-7.306	0.101
409.600	-24.356	0.101
409.700	-11.217	0.101
409.800	-20.984	0.101
409.900	-22.170	0.101
410.000	-17.062	0.101
410.100	-10.940	0.101
410.200	-27.000	0.101
410.300	-8.855	0.101
410.400	-12.219	0.101
410.500	-15.267	0.101
410.600	-11.202	0.101
410.700	1.317	0.101
410.800	-25.434	0.101
410.900	-16.598	0.101
411.000	-25.024	0.101
411.100	-25.980	0.101
411.200	-17.515	0.101
411.300	-18.022	0.101
411.400	-16.997	0.101
411.500	-16.901	0.101
411.600	-17.525	0.101
411.700	-7.981	0.101
411.800	-13.998	0.101
411.900	-19.910	0.101
412.000	-18.790	0.101
412.100	-32.698	0.101
412.200	-15.846	0.101
412.300	-16.681	0.101
412.400	-15.927	0.101
412.500	-18.722	0.101
412.600	-9.489	0.101
412.700	-16.696	0.101
412.800	-23.074	0.101
412.900	-24.354	0.101
413.000	-22.738	0.101
413.100	-16.655	0.101
413.200	-19.783	0.101
413.300	-18.548	0.101
413.400	-15.365	0.101
413.500	-18.379	0.101
413.600	-17.468	0.101
413.700	-19.213	0.101
413.800	-25.467	0.101
413.900	-17.075	0.101
414.000	-10.424	0.101
414.100	-14.257	0.101
414.200	-22.748	0.101
414.300	-15.362	0.101
414.400	-37.973	0.101
414.500	-11.213	0.101
414.600	-29.905	0.101
414.700	-4.706	0.101
414.800	-2.781	0.101
414.900	-32.018	0.101
415.000	-17.883	0.101
415.100	-25.021	0.101
415.200	-21.149	0.101
415.300	-14.220	0.101
415.400	-10.727	0.101
415.500	-25.552	0.101
415.600	-18.355	0.101
415.700	-9.360	0.101
415.800	-23.383	0.101
415.900	-25.698	0.101
416.000	-27.120	0.101
416.100	-13.066	0.101
416.200	-15.049	0.101
416.300	-24.250	0.101
416.400	-21.950	0.101
416.500	-17.548	0.101
416.600	-13.973	0.101
416.700	-11.982	0.101
416.800	-6.276	0.101
416.900	-27.571	0.101
417.000	-36.083	0.101
417.100	-19.124	0.101
417.200	-20.299	0.101
417.300	-32.042	0.101
417.400	-27.116	0.101
417.500	-17.830	0.101
417.600	-15.276	0.101
417.700	-25.916	0.101
417.800	-26.526	0.101
417.900	-21.886	0.101
418.000	-19.557	0.101
418.100	-17.825	0.101
418.200	-23.188	0.101
418.300	-26.558	0.101
418.400	-19.075	0.101
418.500	-25.735	0.101
418.600	-20.268	0.101
418.700	-18.430	0.101
418.800	-21.505	0.101
418.900	-20.119	0.101
419.000	-30.625	0.101
419.100	-11.397	0.101
419.200	-3.319	0.101
419.300	-32.261	0.101
419.400	-26.947	0.101
419.500	-27.009	0.101
419.600	-20.206	0.101
419.700	-25.598	0.101
419.800	-14.959	0.101
419.900	-16.905	0.101
420.000	-27.110	0.101
420.100	-24.436	0.101
420.200	-16.494	0.101
420.300	-32.773	0.101
420.400	-11.371	0.101
420.500	-17.536	0.101
420.600	-22.873	0.101
420.700	-22.195	0.101
420.800	-17.434	0.101
420.900	-25.989	0.101
421.000	-24.470	0.101
421.100	-22.595	0.101
421.200	-26.118	0.101
421.300	-27.279	0.101
421.400	-19.592	0.101
421.500	-41.924	0.101
421.600	-32.546	0.101
421.700	-20.925	0.101
421.800	-16.456	0.101
421.900	-16.597	0.101
422.000	-7.804	0.101
422.100	-26.703	0.101
422.200	-26.998	0.101
422.300	-18.496	0.101
422.400	-31.186	0.101
422.500	-24.687	0.101
422.600	-21.288	0.101
422.700	-41.005	0.101
422.800	-29.621	0.101
422.900	-21.227	0.101
423.000	-30.188	0.101
423.100	-14.720	0.101
423.200	-13.934	0.101
423.300	-8.908	0.101
423.400	-25.300	0.101
423.500	-26.398	0.101
423.600	-26.270	0.101
423.700	-34.905	0.101
423.800	-24.958	0.101
423.900	-19.578	0.101
424.000	-18.282	0.101
424.100	-20.635	0.101
424.200	-20.882	0.101
424.300	-21.339	0.101
424.400	-16.711	0.101
424.500	-13.751	0.101
424.600	-24.693	0.101
424.700	-29.180	0.101
424.800	-25.004	0.101
424.900	-35.276	0.101
425.000	-20.434	0.101
425.100	-31.698	0.101
425.200	-29.775	0.101
425.300	-24.155	0.101
425.400	-28.461	0.101
425.500	-25.378	0.101
425.600	-18.801	0.101
425.700	-23.740	0.101
425.800	-19.956	0.101
425.900	-27.127	0.101
426.000	-24.909	0.101
426.100	-33.254	0.101
426.200	-33.697	0.101
426.300	-25.654	0.101
426.400	-19.139	0.101
426.500	-22.333	0.101
426.600	-20.689	0.101
426.700	-22.227	0.101
426.800	-22.293	0.101
426.900	-26.545	0.101
427.000	-29.524	0.101
427.100	-22.223	0.101
427.200	-29.933	0.101
427.300	-16.535	0.101
427.400	-19.803	0.101
427.500	-32.719	0.101
427.600	-44.573	0.101
427.700	-28.615	0.101
427.800	-9.693	0.101
427.900	-27.480	0.101
428.000	-17.524	0.101
428.100	-24.551	0.101
428.200	-17.768	0.101
428.300	-31.014	0.101
428.400	-33.675	0.101
428.500	-30.656	0.101
428.600	-33.483	0.101
428.700	-26.326	0.101
428.800	-29.957	0.101
428.900	-28.498	0.101
429.000	-18.079	0.101
429.100	-25.326	0.101
429.200	-38.654	0.101
429.300	-33.081	0.101
429.400	-21.743	0.101
429.500	-29.755	0.101
429.600	-24.258	0.101
429.700	-27.027	0.101
429.800	-9.512	0.101
429.900	-25.664	0.101
430.000	-28.333	0.101
430.100	-22.467	0.101
430.200	-16.049	0.101
430.300	-23.954	0.101
430.400	-30.446	0.101
430.500	-35.301	0.101
430.600	-22.466	0.101
430.700	-28.768	0.101
430.800	-34.522	0.101
430.900	-27.539	0.101
431.000	-21.887	0.101
431.100	-26.534	0.101
431.200	-26.245	0.101
431.300	-18.126	0.101
431.400	-27.419	0.101
431.500	-21.090	0.101
431.600	-10.671	0.101
431.700	-44.995	0.101
431.800	-35.676	0.101
431.900	-34.605	0.101
432.000	-32.163	0.101
432.100	-21.126	0.101
432.200	-18.458	0.101
432.300	-26.865	0.101
432.400	-12.379	0.101
432.500	-16.362	0.101
432.600	-19.239	0.101
432.700	-24.275	0.101
432.800	-22.104	0.101
432.900	-28.340	0.101
433.000	-28.268	0.101
433.100	-12.290	0.101
433.200	-25.562	0.101
433.300	-30.834	0.101
433.400	-28.339	0.101
433.500	-27.621	0.101
433.600	-26.202	0.101
433.700	-25.870	0.101
433.800	-28.742	0.101
433.900	-15.796	0.101
434.000	-26.037	0.101
434.100	-23.202	0.101
434.200	-41.436	0.101
434.300	-13.229	0.101
434.400	-29.299	0.101
434.500	-29.658	0.101
434.600	-26.795	0.101
434.700	-31.432	0.101
434.800	-11.903	0.101
434.900	-33.045	0.101
435.000	-38.193	0.101
435.100	-23.667	0.101
435.200	-14.184	0.101
435.300	-31.889	0.101
435.400	-50.422	0.101
435.500	-15.477	0.101
435.600	-18.971	0.101
435.700	-30.987	0.101
435.800	-16.814	0.101
435.900	-27.318	0.101
436.000	-20.855	0.101
436.100	-31.858	0.101
436.200	-33.956	0.101
436.300	-22.897	0.101
436.400	-25.676	0.101
436.500	-24.146	0.101
436.600	-19.037	0.101
436.700	-31.798	0.101
436.800	-30.518	0.101
436.900	-32.038	0.101
437.000	-22.522	0.101
437.100	-28.887	0.101
437.200	-30.514	0.101
437.300	-19.724	0.101
437.400	-28.193	0.101
437.500	-30.808	0.101
437.600	-36.704	0.101
437.700	-8.013	0.101
437.800	-33.144	0.101
437.900	-30.868	0.101
438.000	-25.304	0.101
438.100	-18.079	0.101
438.200	-15.775	0.101
438.300	-36.641	0.101
438.400	-24.037	0.101
438.500	-28.827	0.101
438.600	-24.583	0.101
438.700	-27.112	0.101
438.800	-17.028	0.101
438.900	-20.749	0.101
439.000	-21.658	0.101
439.100	-29.016	0.101
439.200	-29.373	0.101
439.300	-29.357	0.101
439.400	-28.394	0.101
439.500	-6.136	0.101
439.600	-35.384	0.101
439.700	-33.468	0.101
439.800	-28.920	0.101
439.900	-28.798	0.101
440.000	-33.160	0.101
440.100	-31.032	0.101
440.200	-27.806	0.101
440.300	-17.091	0.101
440.400	-22.653	0.101
440.500	-14.939	0.101
440.600	-27.541	0.101
440.700	-27.378	0.101
440.800	-29.558	0.101
440.900	-30.029	0.101
441.000	-19.847	0.101
441.100	-21.747	0.101
441.200	-24.955	0.101
441.300	-35.201	0.101
441.400	-26.059	0.101
441.500	-18.542	0.101
441.600	-23.013	0.101
441.700	-28.758	0.101
441.800	-23.890	0.101
441.900	-14.494	0.101
442.000	-33.742	0.101
442.100	-24.474	0.101
442.200	-32.848	0.101
442.300	-19.789	0.101
442.400	-21.050	0.101
442.500	-26.463	0.101
442.600	-21.663	0.101
442.700	-25.803	0.101
442.800	-24.374	0.101
442.900	-13.047	0.101
443.000	-14.090	0.101
443.100	-19.815	0.101
443.200	-38.441	0.101
443.300	-24.845	0.101
443.400	-35.507	0.101
443.500	-15.093	0.101
443.600	-11.553	0.101
443.700	-26.860	0.101
443.800	-19.595	0.101
443.900	-17.560	0.101
444.000	-23.897	0.101
444.100	-32.706	0.101
444.200	-12.438	0.101
444.300	-20.991	0.101
444.400	-27.593	0.101
444.500	-21.764	0.101
444.600	-27.443	0.101
444.700	-30.872	0.101
444.800	-27.722	0.101
444.900	-28.082	0.101
445.000	-33.146	0.101
445.100	-13.880	0.101
445.200	-34.446	0.101
445.300	-12.884	0.101
445.400	-27.392	0.101
445.500	-19.142	0.101
445.600	-30.400	0.101
445.700	-17.336	0.101
445.800	-23.326	0.101
445.900	-27.390	0.101
446.000	-22.299	0.101
446.100	-20.745	0.101
446.200	-39.785	0.101
446.300	-40.484	0.101
446.400	-19.808	0.101
446.500	-27.071	0.101
446.600	-35.738	0.101
446.700	-26.370	0.101
446.800	-31.764	0.101
446.900	-20.898	0.101
447.000	-23.269	0.101
447.100	-14.046	0.101
447.200	-19.442	0.101
447.300	-22.690	0.101
447.400	-14.934	0.101
447.500	-16.929	0.101
447.600	-27.189	0.101
447.700	-34.984	0.101
447.800	-21.261	0.101
447.900	-21.171	0.101
448.000	-29.464	0.101
448.100	-33.120	0.101
448.200	-32.929	0.101
448.300	-20.984	0.101
448.400	-31.037	0.101
448.500	-20.894	0.101
448.600	-24.274	0.101
448.700	-26.373	0.101
448.800	-30.411	0.101
448.900	-19.421	0.101
449.000	-28.216	0.101
449.100	-19.933	0.101
449.200	-14.097	0.101
449.300	-31.809	0.101
449.400	-25.982	0.101
449.500	-29.887	0.101
449.600	-36.803	0.101
449.700	-25.493	0.101
449.800	-14.607	0.101
449.900	-10.697	0.101
450.000	-25.075	0.101
450.100	-29.038	0.101
450.200	-26.020	0.101
450.300	-24.401	0.101
450.400	-23.571	0.101
450.500	-18.175	0.101
450.600	-18.579	0.101
450.700	-17.888	0.101
450.800	-29.111	0.101
450.900	-24.769	0.101
451.000	-23.599	0.101
451.100	-23.159	0.101
451.200	-28.282	0.101
451.300	-33.879	0.101
451.400	-28.207	0.101
451.500	-25.329	0.101
451.600	-28.841	0.101
451.700	-12.249	0.101
451.800	-23.124	0.101
451.900	-25.016	0.101
452.000	-28.614	0.101
452.100	-17.522	0.101
452.200	-20.712	0.101
452.300	-27.261	0.101
452.400	-20.778	0.101
452.500	-30.662	0.101
452.600	-24.809	0.101
452.700	-18.654	0.101
452.800	-6.489	0.101
452.900	-17.583	0.101
453.000	-30.969	0.101
453.100	-37.242	0.101
453.200	-10.736	0.101
453.300	-29.169	0.101
453.400	-10.271	0.101
453.500	-18.463	0.101
453.600	-27.570	0.101
453.700	-31.377	0.101
453.800	-22.816	0.101
453.900	-22.141	0.101
454.000	-26.863	0.101
454.100	-22.825	0.101
454.200	-10.505	0.101
454.300	-25.382	0.101
454.400	-27.645	0.101
454.500	-22.824	0.101
454.600	-32.290	0.101
454.700	-29.944	0.101
454.800	-23.998	0.101
454.900	-35.228	0.101
455.000	-22.233	0.101
455.100	-20.049	0.101
455.200	-13.294	0.101
455.300	-27.781	0.101
455.400	-14.909	0.101
455.500	-23.067	0.101
455.600	-10.607	0.101
455.700	-34.264	0.101
455.800	-22.011	0.101
455.900	-24.439	0.101
456.000	-26.040	0.101
456.100	-21.986	0.101
456.200	-20.000	0.101
456.300	-26.721	0.101
456.400	-26.024	0.101
456.500	-21.053	0.101
456.600	-18.587	0.101
456.700	-22.467	0.101
456.800	-18.845	0.101
456.900	-18.744	0.101
457.000	-14.186	0.101
457.100	-17.662	0.101
457.200	-19.635	0.101
457.300	-28.564	0.101
457.400	-3.491	0.101
457.500	-29.853	0.101
457.600	-22.797	0.101
457.700	-14.778	0.101
457.800	-24.120	0.101
457.900	-28.682	0.101
458.000	-11.009	0.101
458.100	-32.508	0.101
458.200	-20.416	0.101
458.300	-20.685	0.101
458.400	-17.623	0.101
458.500	-20.331	0.101
458.600	-17.890	0.101
458.700	-37.110	0.101
458.800	-18.476	0.101
458.900	-25.327	0.101
459.000	-19.720	0.101
459.100	-29.105	0.101
459.200	-30.096	0.101
459.300	-28.060	0.101
459.400	-15.925	0.101
459.500	-24.454	0.101
459.600	-19.416	0.101
459.700	-18.669	0.101
459.800	-29.081	0.101
459.900	-27.301	0.101
460.000	-23.902	0.101
460.100	-24.975	0.101
460.200	-28.671	0.101
460.300	-17.519	0.101
460.400	-5.572	0.101
460.500	-22.459	0.101
460.600	-22.553	0.101
460.700	-25.484	0.101
460.800	-15.548	0.101
460.900	-20.866	0.101
461.000	-26.578	0.101
461.100	-23.251	0.101
461.200	-24.125	0.101
461.300	-15.785	0.101
461.400	-21.959	0.101
461.500	-14.458	0.101
461.600	-25.105	0.101
461.700	-33.711	0.101
461.800	-26.422	0.101
461.900	-24.431	0.101
462.000	-17.903	0.101
462.100	-22.109	0.101
462.200	-24.329	0.101
462.300	-18.327	0.101
462.400	-27.642	0.101
462.500	-18.707	0.101
462.600	-8.126	0.101
462.700	-22.837	0.101
462.800	-11.755	0.101
462.900	-33.352	0.101
463.000	-13.643	0.101
463.100	-28.020	0.101
463.200	-19.094	0.101
463.300	-16.567	0.101
463.400	-26.339	0.101
463.500	-30.522	0.101
463.600	-27.200	0.101
463.700	-9.671	0.101
463.800	-22.264	0.101
463.900	-9.726	0.101
464.000	-23.020	0.101
464.100	-13.852	0.101
464.200	-15.621	0.101
464.300	-24.750	0.101
464.400	-29.266	0.101
464.500	-24.091	0.101
464.600	-17.175	0.101
464.700	-26.239	0.101
464.800	-35.667	0.101
464.900	-25.274	0.101
465.000	-21.930	0.101
465.100	-19.002	0.101
465.200	-13.907	0.101
465.300	-32.516	0.101
465.400	-28.133	0.101
465.500	-11.550	0.101
465.600	-13.297	0.101
465.700	-32.632	0.101
465.800	-8.536	0.101
465.900	-12.586	0.101
466.000	-24.954	0.101
466.100	-27.086	0.101
466.200	-18.271	0.101
466.300	-26.922	0.101
466.400	-15.835	0.101
466.500	-21.071	0.101
466.600	-7.633	0.101
466.700	-33.531	0.101
466.800	-18.783	0.101
466.900	-24.051	0.101
467.000	-22.857	0.101
467.100	-18.743	0.101
467.200	-23.484	0.101
467.300	-25.211	0.101
467.400	-25.261	0.101
467.500	-25.389	0.101
467.600	-23.333	0.101
467.700	-15.431	0.101
467.800	-12.549	0.101
467.900	-27.105	0.101
468.000	-21.515	0.101
468.100	-9.094	0.101
468.200	-18.965	0.101
468.300	-15.682	0.101
468.400	-29.890	0.101
468.500	-29.020	0.101
468.600	-32.322	0.101
468.700	-18.324	0.101
468.800	-13.379	0.101
468.900	-15.569	0.101
469.000	-11.776	0.101
469.100	-20.922	0.101
469.200	-30.528	0.101
469.300	-27.300	0.101
469.400	-16.041	0.101
469.500	-23.901	0.101
469.600	-20.953	0.101
469.700	-14.821	0.101
469.800	-29.673	0.101
469.900	-16.394	0.101
470.000	-35.573	0.101
470.100	-17.722	0.101
470.200	-15.034	0.101
470.300	-17.287	0.101
470.400	-22.534	0.101
470.500	-28.666	0.101
470.600	-12.491	0.101
470.700	-12.936	0.101
470.800	-27.099	0.101
470.900	-26.620	0.101
471.000	-21.433	0.101
471.100	-25.751	0.101
471.200	-28.422	0.101
471.300	-29.158	0.101
471.400	-22.837	0.101
471.500	-14.635	0.101
471.600	-26.922	0.101
471.700	-22.835	0.101
471.800	-26.922	0.101
471.900	-17.086	0.101
472.000	-12.497	0.101
472.100	-3.885	0.101
472.200	-13.192	0.101
472.300	-22.385	0.101
472.400	-15.674	0.101
472.500	-28.152	0.101
472.600	-27.161	0.101
472.700	-16.330	0.101
472.800	-18.389	0.101
472.900	-18.950	0.101
473.000	-21.388	0.101
473.100	-22.168	0.101
473.200	-31.514	0.101
473.300	-27.989	0.101
473.400	-13.644	0.101
473.500	-22.151	0.101
473.600	-31.485	0.101
473.700	-30.359	0.101
473.800	-26.532	0.101
473.900	-14.017	0.101
474.000	-31.975	0.101
474.100	-17.833	0.101
474.200	-19.496	0.101
474.300	-8.876	0.101
474.400	-15.787	0.101
474.500	-22.792	0.101
474.600	-21.715	0.101
474.700	-35.302	0.101
474.800	-27.016	0.101
474.900	-23.033	0.101
475.000	-18.400	0.101
475.100	-17.947	0.101
475.200	-23.465	0.101
475.300	-21.373	0.101
475.400	-25.981	0.101
475.500	-20.358	0.101
475.600	-28.356	0.101
475.700	-23.993	0.101
475.800	-10.143	0.101
475.900	-9.223	0.101
476.000	-19.212	0.101
476.100	-23.828	0.101
476.200	-15.612	0.101
476.300	-27.096	0.101
476.400	-17.966	0.101
476.500	-15.198	0.101
476.600	-30.969	0.101
476.700	-15.285	0.101
476.800	-24.580	0.101
476.900	-19.029	0.101
477.000	-17.841	0.101
477.100	-16.134	0.101
477.200	-25.596	0.101
477.300	-17.515	0.101
477.400	-29.488	0.101
477.500	-30.750	0.101
477.600	-17.678	0.101
477.700	-27.902	0.101
477.800	-13.053	0.101
477.900	-7.330	0.101
478.000	-16.926	0.101
478.100	-20.934	0.101
478.200	-22.273	0.101
478.300	-17.451	0.101
478.400	-2.648	0.101
478.500	-24.254	0.101
478.600	-20.373	0.101
478.700	-23.131	0.101
478.800	-27.186	0.101
478.900	-16.577	0.101
479.000	-20.591	0.101
479.100	-12.049	0.101
479.200	-22.965	0.101
479.300	-29.220	0.101
479.400	-20.824	0.101
479.500	-22.290	0.101
479.600	-22.204	0.101
479.700	-18.944	0.101
479.800	-16.234	0.101
479.900	-19.631	0.101
480.000	-16.805	0.101
480.100	-22.098	0.101
480.200	-24.616	0.101
480.300	-21.664	0.101
480.400	-26.156	0.101
480.500	-22.019	0.101
480.600	-3.953	0.101
480.700	-1.052	0.101
480.800	-17.357	0.101
480.900	3.372	0.101
481.000	-0.501	0.101
481.100	0.796	0.101
481.200	1.694	0.101
481.300	23.994	0.101
481.400	0.562	0.101
481.500	9.277	0.101
481.600	5.050	0.101
481.700	19.045	0.101
481.800	17.154	0.101
481.900	17.699	0.101
482.000	17.647	0.101
482.100	13.148	0.101
482.200	18.690	0.101
482.300	19.101	0.101
482.400	18.758	0.101
482.500	15.211	0.101
482.600	29.722	0.101
482.700	3.870	0.101
482.800	22.461	0.101
482.900	21.512	0.101
483.000	19.687	0.101
483.100	9.510	0.101
483.200	15.249	0.101
483.300	9.490	0.101
483.400	13.922	0.101
483.500	26.330	0.101
483.600	18.377	0.101
483.700	14.064	0.101
483.800	18.544	0.101
483.900	16.509	0.101
484.000	4.852	0.101
484.100	19.305	0.101
484.200	8.229	0.101
484.300	3.912	0.101
484.400	-2.787	0.101
484.500	28.871	0.101
484.600	28.907	0.101
484.700	4.953	0.101
484.800	12.711	0.101
484.900	11.520	0.101
485.000	8.818	0.101
485.100	23.607	0.101
485.200	0.678	0.101
485.300	-3.620	0.101
485.400	18.420	0.101
485.500	11.877	0.101
485.600	-1.550	0.101
485.700	2.336	0.101
485.800	3.715	0.101
485.900	10.404	0.101
486.000	13.440	0.101
486.100	15.844	0.101
486.200	15.263	0.101
486.300	13.460	0.101
486.400	-10.631	0.101
486.500	7.091	0.101
486.600	8.942	0.101
486.700	-3.369	0.101
486.800	5.366	0.101
486.900	8.884	0.101
487.000	11.564	0.101
487.100	3.433	0.101
487.200	14.787	0.101
487.300	-0.264	0.101
487.400	12.597	0.101
487.500	7.311	0.101
487.600	13.064	0.101
487.700	8.531	0.101
487.800	9.256	0.101
487.900	15.257	0.101
488.000	14.622	0.101
488.100	12.131	0.101
488.200	14.022	0.101
488.300	7.711	0.101
488.400	8.340	0.101
488.500	15.473	0.101
488.600	13.054	0.101
488.700	-1.547	0.101
488.800	8.973	0.101
488.900	14.626	0.101
489.000	22.978	0.101
489.100	14.799	0.101
489.200	21.638	0.101
489.300	5.352	0.101
489.400	11.020	0.101
489.500	34.623	0.101
489.600	21.153	0.101
489.700	2.173	0.101
489.800	20.384	0.101
489.900	8.076	0.101
490.000	13.102	0.101
490.100	22.193	0.101
490.200	14.573	0.101
490.300	11.933	0.101
490.400	18.084	0.101
490.500	18.904	0.101
490.600	20.090	0.101
490.700	23.337	0.101
490.800	21.491	0.101
490.900	17.728	0.101
491.000	16.892	0.101
491.100	20.030	0.101
491.200	22.501	0.101
491.300	29.364	0.101
491.400	26.797	0.101
491.500	19.458	0.101
491.600	28.852	0.101
491.700	29.445	0.101
491.800	12.122	0.101
491.900	29.653	0.101
492.000	21.429	0.101
492.100	12.424	0.101
492.200	22.754	0.101
492.300	18.674	0.101
492.400	22.809	0.101
492.500	31.745	0.101
492.600	32.808	0.101
492.700	25.219	0.101
492.800	19.548	0.101
492.900	17.195	0.101
493.000	19.759	0.101
493.100	26.380	0.101
493.200	21.225	0.101
493.300	18.398	0.101
493.400	42.234	0.101
493.500	31.080	0.101
493.600	37.009	0.101
493.700	30.490	0.101
493.800	35.594	0.101
493.900	28.059	0.101
494.000	37.135	0.101
494.100	19.945	0.101
494.200	28.719	0.101
494.300	39.355	0.101
494.400	35.888	0.101
494.500	39.019	0.101
494.600	49.414	0.101
494.700	24.317	0.101
494.800	21.664	0.101
494.900	44.887	0.101
495.000	27.878	0.101
495.100	32.453	0.101
495.200	32.946	0.101
495.300	32.713	0.101
495.400	35.080	0.101
495.500	39.949	0.101
495.600	44.208	0.101
495.700	48.711	0.101
495.800	38.983	0.101
495.900	39.645	0.101
496.000	20.266	0.101
496.100	44.648	0.101
496.200	23.497	0.101
496.300	41.580	0.101
496.400	42.200	0.101
496.500	46.321	0.101
496.600	32.338	0.101
496.700	25.889	0.101
496.800	36.578	0.101
496.900	42.596	0.101
497.000	35.576	0.101
497.100	47.851	0.101
497.200	37.495	0.101
497.300	40.210	0.101
497.400	39.954	0.101
497.500	45.148	0.101
497.600	53.055	0.101
497.700	41.965	0.101
497.800	37.355	0.101
497.900	39.920	0.101
498.000	32.146	0.101
498.100	51.908	0.101
498.200	47.984	0.101
498.300	37.474	0.101
498.400	47.321	0.101
498.500	45.001	0.101
498.600	48.102	0.101
498.700	48.660	0.101
498.800	46.455	0.101
498.900	43.482	0.101
499.000	47.424	0.101
499.100	53.993	0.101
499.200	45.319	0.101
499.300	47.165	0.101
499.400	46.225	0.101
499.500	59.799	0.101
499.600	58.520	0.101
499.700	39.974	0.101
499.800	43.335	0.101
499.900	72.923	0.101
500.000	59.632	0.101
500.100	55.915	0.101
500.200	50.335	0.101
500.300	52.568	0.101
500.400	61.159	0.101
500.500	52.606	0.101
500.600	47.010	0.101
500.700	59.998	0.101
500.800	65.948	0.101
500.900	50.211	0.101
501.000	41.117	0.101
501.100	54.873	0.101
501.200	48.983	0.101
501.300	66.711	0.101
501.400	61.565	0.101
501.500	42.840	0.101
501.600	60.123	0.101
501.700	46.600	0.101
501.800	46.322	0.101
501.900	58.002	0.101
502.000	61.401	0.101
502.100	59.270	0.101
502.200	56.968	0.101
502.300	46.871	0.101
502.400	59.873	0.101
502.500	47.870	0.101
502.600	50.909	0.101
502.700	58.500	0.101
502.800	65.628	0.101
502.900	47.617	0.101
503.000	52.752	0.101
503.100	64.662	0.101
503.200	62.170	0.101
503.300	63.234	0.101
503.400	58.089	0.101
503.500	53.320	0.101
503.600	57.387	0.101
503.700	52.058	0.101
503.800	58.686	0.101
503.900	72.088	0.101
504.000	46.729	0.101
504.100	64.677	0.101
504.200	51.142	0.101
504.300	60.194	0.101
504.400	48.796	0.101
504.500	50.181	0.101
504.600	55.892	0.101
504.700	42.853	0.101
504.800	69.570	0.101
504.900	67.433	0.101
505.000	57.594	0.101
505.100	52.134	0.101
505.200	48.720	0.101
505.300	55.593	0.101
505.400	57.163	0.101
505.500	52.370	0.101
505.600	46.666	0.101
505.700	56.337	0.101
505.800	61.913	0.101
505.900	53.639	0.101
506.000	55.544	0.101
506.100	61.968	0.101
506.200	55.681	0.101
506.300	50.534	0.101
506.400	51.037	0.101
506.500	57.194	0.101
506.600	61.685	0.101
506.700	65.449	0.101
506.800	62.418	0.101
506.900	58.477	0.101
507.000	43.329	0.101
507.100	63.224	0.101
507.200	58.477	0.101
507.300	50.419	0.101
507.400	51.416	0.101
507.500	60.199	0.101
507.600	44.701	0.101
507.700	49.548	0.101
507.800	37.977	0.101
507.900	65.074	0.101
508.000	69.675	0.101
508.100	47.650	0.101
508.200	57.366	0.101
508.300	51.796	0.101
508.400	49.297	0.101
508.500	54.047	0.101
508.600	52.982	0.101
508.700	53.502	0.101
508.800	57.767	0.101
508.900	68.427	0.101
509.000	46.537	0.101
509.100	47.732	0.101
509.200	53.702	0.101
509.300	59.126	0.101
509.400	58.630	0.101
509.500	62.472	0.101
509.600	47.362	0.101
509.700	63.889	0.101
509.800	66.247	0.101
509.900	49.473	0.101
510.000	65.596	0.101
510.100	45.963	0.101
510.200	54.865	0.101
510.300	47.365	0.101
510.400	47.380	0.101
510.500	64.118	0.101
510.600	37.913	0.101
510.700	52.847	0.101
510.800	74.563	0.101
510.900	58.797	0.101
511.000	60.864	0.101
511.100	48.827	0.101
511.200	63.690	0.101
511.300	46.395	0.101
511.400	54.503	0.101
511.500	38.427	0.101
511.600	49.116	0.101
511.700	54.298	0.101
511.800	65.149	0.101
511.900	61.386	0.101
512.000	55.780	0.101
512.100	49.661	0.101
512.200	47.424	0.101
512.300	56.776	0.101
512.400	60.112	0.101
512.500	58.163	0.101
512.600	52.398	0.101
512.700	58.645	0.101
512.800	49.105	0.101
512.900	43.684	0.101
513.000	64.971	0.101
513.100	65.243	0.101
513.200	68.177	0.101
513.300	46.820	0.101
513.400	53.790	0.101
513.500	55.080	0.101
513.600	46.076	0.101
513.700	54.860	0.101
513.800	54.420	0.101
513.900	54.637	0.101
514.000	57.919	0.101
514.100	49.800	0.101
514.200	60.209	0.101
514.300	46.159	0.101
514.400	70.907	0.101
514.500	56.545	0.101
514.600	53.446	0.101
514.700	65.444	0.101
514.800	71.597	0.101
514.900	52.922	0.101
515.000	60.370	0.101
515.100	37.780	0.101
515.200	60.411	0.101
515.300	56.994	0.101
515.400	57.780	0.101
515.500	56.185	0.101
515.600	54.661	0.101
515.700	58.124	0.101
515.800	49.220	0.101
515.900	50.212	0.101
516.000	61.574	0.101
516.100	62.612	0.101
516.200	58.479	0.101
516.300	47.685	0.101
516.400	58.972	0.101
516.500	56.873	0.101
516.600	62.163	0.101
516.700	53.730	0.101
516.800	57.982	0.101
516.900	53.355	0.101
517.000	42.100	0.101
517.100	57.243	0.101
517.200	56.551	0.101
517.300	59.151	0.101
517.400	64.105	0.101
517.500	53.781	0.101
517.600	63.667	0.101
517.700	57.965	0.101
517.800	41.368	0.101
517.900	56.961	0.101
518.000	53.508	0.101
518.100	56.777	0.101
518.200	45.585	0.101
518.300	49.230	0.101
518.400	45.949	0.101
518.500	49.131	0.101
518.600	66.492	0.101
518.700	59.234	0.101
518.800	44.939	0.101
518.900	59.060	0.101
519.000	50.985	0.101
519.100	49.680	0.101
519.200	47.284	0.101
519.300	63.595	0.101
519.400	55.295	0.101
519.500	52.833	0.101
519.600	66.348	0.101
519.700	60.380	0.101
519.800	57.207	0.101
519.900	49.413	0.101
520.000	60.076	0.101
520.100	54.780	0.101
520.200	62.462	0.101
520.300	69.888	0.101
520.400	49.778	0.101
520.500	53.906	0.101
520.600	53.018	0.101
520.700	51.640	0.101
520.800	44.882	0.101
520.900	39.986	0.101
521.000	51.232	0.101
521.100	48.749	0.101
521.200	55.147	0.101
521.300	62.907	0.101
521.400	50.667	0.101
521.500	50.576	0.101
521.600	55.791	0.101
521.700	49.614	0.101
521.800	57.843	0.101
521.900	60.446	0.101
522.000	58.653	0.101
522.100	50.607	0.101
522.200	54.407	0.101
522.300	51.342	0.101
522.400	38.871	0.101
522.500	51.724	0.101
522.600	63.129	0.101
522.700	59.543	0.101
522.800	51.245	0.101
522.900	53.332	0.101
523.000	69.625	0.101
523.100	57.521	0.101
523.200	52.031	0.101
523.300	50.435	0.101
523.400	47.185	0.101
523.500	52.075	0.101
523.600	52.492	0.101
523.700	47.874	0.101
523.800	62.024	0.101
523.900	67.526	0.101
524.000	45.119	0.101
524.100	56.106	0.101
524.200	53.160	0.101
524.300	59.285	0.101
524.400	59.100	0.101
524.500	44.932	0.101
524.600	53.079	0.101
524.700	39.623	0.101
524.800	43.714	0.101
524.900	48.659	0.101
525.000	48.780	0.101
525.100	49.191	0.101
525.200	49.305	0.101
525.300	56.684	0.101
525.400	48.787	0.101
525.500	58.517	0.101
525.600	48.457	0.101
525.700	49.195	0.101
525.800	62.601	0.101
525.900	60.022	0.101
526.000	51.886	0.101
526.100	60.042	0.101
526.200	59.863	0.101
526.300	50.068	0.101
526.400	49.700	0.101
526.500	58.982	0.101
526.600	51.276	0.101
526.700	39.063	0.101
526.800	61.652	0.101
526.900	50.655	0.101
527.000	52.290	0.101
527.100	54.904	0.101
527.200	59.786	0.101
527.300	47.217	0.101
527.400	59.871	0.101
527.500	56.004	0.101
527.600	56.132	0.101
527.700	52.012	0.101
527.800	60.463	0.101
527.900	45.598	0.101
528.000	45.512	0.101
528.100	51.241	0.101
528.200	50.200	0.101
528.300	46.817	0.101
528.400	48.662	0.101
528.500	53.620	0.101
528.600	62.568	0.101
528.700	50.094	0.101
528.800	56.013	0.101
528.900	63.646	0.101
529.000	54.147	0.101
529.100	60.173	0.101
529.200	53.853	0.101
529.300	34.380	0.101
529.400	47.761	0.101
529.500	67.120	0.101
529.600	55.527	0.101
529.700	66.524	0.101
529.800	48.912	0.101
529.900	38.867	0.101
530.000	59.786	0.101
530.100	56.333	0.101
530.200	42.949	0.101
530.300	44.458	0.101
530.400	59.239	0.101
530.500	74.338	0.101
530.600	44.400	0.101
530.700	50.414	0.101
530.800	57.359	0.101
530.900	55.557	0.101
531.000	66.981	0.101
531.100	49.134	0.101
531.200	57.925	0.101
531.300	58.532	0.101
531.400	50.377	0.101
531.500	46.042	0.101
531.600	46.283	0.101
531.700	60.764	0.101
531.800	48.006	0.101
531.900	63.348	0.101
532.000	50.943	0.101
532.100	43.694	0.101
532.200	54.196	0.101
532.300	47.089	0.101
532.400	44.056	0.101
532.500	58.515	0.101
532.600	46.034	0.101
532.700	60.259	0.101
532.800	51.174	0.101
532.900	61.716	0.101
533.000	43.140	0.101
533.100	64.116	0.101
533.200	44.201	0.101
533.300	44.259	0.101
533.400	54.485	0.101
533.500	54.989	0.101
533.600	54.426	0.101
533.700	58.949	0.101
533.800	48.405	0.101
533.900	64.248	0.101
534.000	48.696	0.101
534.100	63.900	0.101
534.200	55.088	0.101
534.300	44.347	0.101
534.400	56.762	0.101
534.500	51.084	0.101
534.600	52.024	0.101
534.700	50.698	0.101
534.800	49.083	0.101
534.900	62.347	0.101
535.000	56.730	0.101
535.100	43.983	0.101
535.200	45.106	0.101
535.300	43.230	0.101
535.400	50.407	0.101
535.500	53.929	0.101
535.600	35.096	0.101
535.700	54.888	0.101
535.800	54.220	0.101
535.900	56.538	0.101
536.000	44.344	0.101
536.100	57.592	0.101
536.200	55.575	0.101
536.300	36.437	0.101
536.400	40.720	0.101
536.500	63.415	0.101
536.600	64.207	0.101
536.700	47.600	0.101
536.800	47.154	0.101
536.900	56.168	0.101
537.000	44.521	0.101
537.100	52.401	0.101
537.200	54.904	0.101
537.300	60.074	0.101
537.400	53.429	0.101
537.500	51.687	0.101
537.600	43.882	0.101
537.700	54.944	0.101
537.800	52.458	0.101
537.900	59.617	0.101
538.000	59.881	0.101
538.100	50.261	0.101
538.200	54.302	0.101
538.300	45.065	0.101
538.400	58.263	0.101
538.500	60.417	0.101
538.600	63.349	0.101
538.700	68.213	0.101
538.800	47.645	0.101
538.900	53.826	0.101
539.000	41.681	0.101
539.100	53.219	0.101
539.200	45.784	0.101
539.300	47.612	0.101
539.400	47.615	0.101
539.500	44.773	0.101
539.600	61.408	0.101
539.700	43.334	0.101
539.800	57.886	0.101
539.900	42.158	0.101
540.000	53.895	0.101
540.100	53.544	0.101
540.200	47.711	0.101
540.300	53.011	0.101
540.400	69.971	0.101
540.500	46.303	0.101
540.600	52.004	0.101
540.700	41.228	0.101
540.800	23.175	0.101
540.900	35.041	0.101
541.000	33.134	0.101
541.100	31.011	0.101
541.200	26.358	0.101
541.300	8.545	0.101
541.400	15.257	0.101
541.500	22.556	0.101
541.600	12.958	0.101
541.700	16.562	0.101
541.800	13.037	0.101
541.900	10.180	0.101
542.000	11.687	0.101
542.100	18.064	0.101
542.200	12.648	0.101
542.300	4.554	0.101
542.400	6.000	0.101
542.500	16.195	0.101
542.600	12.506	0.101
542.700	13.280	0.101
542.800	-6.805	0.101
542.900	-4.667	0.101
543.000	21.957	0.101
543.100	2.375	0.101
543.200	-8.308	0.101
543.300	11.494	0.101
543.400	4.595	0.101
543.500	-5.744	0.101
543.600	5.805	0.101
543.700	-2.485	0.101
543.800	-7.519	0.101
543.900	1.032	0.101
544.000	-4.723	0.101
544.100	-1.445	0.101
544.200	4.198	0.101
544.300	-10.875	0.101
544.400	-14.426	0.101
544.500	-7.541	0.101
544.600	-7.781	0.101
544.700	-18.869	0.101
544.800	2.858	0.101
544.900	-6.331	0.101
545.000	-13.693	0.101
545.100	-11.255	0.101
545.200	-10.361	0.101
545.300	-6.974	0.101
545.400	2.130	0.101
545.500	-13.032	0.101
545.600	-0.168	0.101
545.700	-13.296	0.101
545.800	-0.292	0.101
545.900	-14.022	0.101
546.000	-13.533	0.101
546.100	3.212	0.101
546.200	-4.813	0.101
546.300	-5.144	0.101
546.400	-1.453	0.101
546.500	-7.912	0.101
546.600	-14.130	0.101
546.700	-4.131	0.101
546.800	-18.834	0.101
546.900	-2.058	0.101
547.000	-3.406	0.101
547.100	-25.851	0.101
547.200	-7.076	0.101
547.300	-7.278	0.101
547.400	-14.811	0.101
547.500	-5.513	0.101
547.600	-7.551	0.101
547.700	-1.224	0.101
547.800	-3.446	0.101
547.900	7.079	0.101
548.000	-10.505	0.101
548.100	-0.296	0.101
548.200	-10.399	0.101
548.300	-17.069	0.101
548.400	-10.755	0.101
548.500	-3.787	0.101
548.600	8.716	0.101
548.700	-13.882	0.101
548.800	0.708	0.101
548.900	-13.743	0.101
549.000	-2.996	0.101
549.100	-8.368	0.101
549.200	-2.001	0.101
549.300	-13.537	0.101
549.400	-9.437	0.101
549.500	-9.470	0.101
549.600	-0.441	0.101
549.700	-5.255	0.101
549.800	-10.928	0.101
549.900	-1.331	0.101
550.000	-14.762	0.101
550.100	-3.957	0.101
550.200	-3.343	0.101
550.300	0.980	0.101
550.400	-16.137	0.101
550.500	-0.515	0.101
550.600	-1.094	0.101
550.700	-13.275	0.101
550.800	-12.411	0.101
550.900	0.023	0.101
551.000	-3.557	0.101
551.100	-3.721	0.101
551.200	-11.996	0.101
551.300	-12.179	0.101
551.400	-15.179	0.101
551.500	-16.435	0.101
551.600	-5.416	0.101
551.700	-1.117	0.101
551.800	-2.447	0.101
551.900	-11.669	0.101
552.000	-12.521	0.101
552.100	-24.136	0.101
552.200	-11.472	0.101
552.300	-10.382	0.101
552.400	8.385	0.101
552.500	-11.194	0.101
552.600	-11.166	0.101
552.700	-17.735	0.101
552.800	-19.016	0.101
552.900	-6.302	0.101
553.000	-6.783	0.101
553.100	-20.030	0.101
553.200	-0.960	0.101
553.300	-9.748	0.101
553.400	-12.797	0.101
553.500	-7.105	0.101
553.600	-9.066	0.101
553.700	-17.565	0.101
553.800	-9.887	0.101
553.900	-15.694	0.101
554.000	-11.343	0.101
554.100	-19.606	0.101
554.200	-12.807	0.101
554.300	-13.886	0.101
554.400	-3.954	0.101
554.500	-19.848	0.101
554.600	-22.083	0.101
554.700	-13.221	0.101
554.800	-7.328	0.101
554.900	-18.079	0.101
555.000	-7.264	0.101
555.100	-7.904	0.101
555.200	-8.825	0.101
555.300	-18.157	0.101
555.400	-4.149	0.101
555.500	-8.507	0.101
555.600	-0.346	0.101
555.700	-23.947	0.101
555.800	-26.422	0.101
555.900	3.023	0.101
556.000	-8.526	0.101
556.100	-4.393	0.101
556.200	-30.133	0.101
556.300	-21.054	0.101
556.400	-11.254	0.101
556.500	-17.416	0.101
556.600	-10.932	0.101
556.700	-14.593	0.101
556.800	-11.691	0.101
556.900	-23.205	0.101
557.000	-18.586	0.101
557.100	-13.784	0.101
557.200	-6.172	0.101
557.300	-6.529	0.101
557.400	-4.274	0.101
557.500	-17.666	0.101
557.600	-14.185	0.101
557.700	-11.301	0.101
557.800	-13.309	0.101
557.900	-19.546	0.101
558.000	-11.847	0.101
558.100	-18.525	0.101
558.200	-23.882	0.101
558.300	-19.036	0.101
558.400	-11.214	0.101
558.500	-17.434	0.101
558.600	-5.365	0.101
558.700	-5.408	0.101
558.800	-18.418	0.101
558.900	-10.805	0.101
559.000	-22.458	0.101
559.100	-22.787	0.101
559.200	-14.161	0.101
559.300	-15.891	0.101
559.400	-23.093	0.101
559.500	-10.474	0.101
559.600	-16.418	0.101
559.700	-17.812	0.101
559.800	-12.477	0.101
559.900	-12.436	0.101
560.000	-7.378	0.101
560.100	-15.150	0.101
560.200	-21.092	0.101
560.300	-25.229	0.101
560.400	-22.094	0.101
560.500	-13.674	0.101
560.600	-6.566	0.101
560.700	-13.660	0.101
560.800	-30.204	0.101
560.900	-1.996	0.101
561.000	-7.667	0.101
561.100	-4.011	0.101
561.200	-4.988	0.101
561.300	-8.386	0.101
561.400	-21.319	0.101
561.500	-17.440	0.101
561.600	-7.259	0.101
561.700	-25.134	0.101
561.800	-17.816	0.101
561.900	-28.583	0.101
562.000	-28.491	0.101
562.100	-21.138	0.101
562.200	-18.898	0.101
562.300	-12.149	0.101
562.400	-19.166	0.101
562.500	-8.096	0.101
562.600	-24.172	0.101
562.700	-9.225	0.101
562.800	-18.629	0.101
562.900	-21.347	0.101
563.000	-21.904	0.101
563.100	-30.095	0.101
563.200	-25.035	0.101
563.300	-10.347	0.101
563.400	-19.241	0.101
563.500	-21.021	0.101
563.600	-24.760	0.101
563.700	-29.138	0.101
563.800	-26.541	0.101
563.900	-10.141	0.101
564.000	-12.323	0.101
564.100	-19.998	0.101
564.200	-21.050	0.101
564.300	-20.343	0.101
564.400	-19.498	0.101
564.500	-25.023	0.101
564.600	-30.942	0.101
564.700	-13.131	0.101
564.800	-8.944	0.101
564.900	-19.757	0.101
565.000	-11.041	0.101
565.100	-18.249	0.101
565.200	-24.916	0.101
565.300	-20.834	0.101
565.400	-29.170	0.101
565.500	-11.588	0.101
565.600	-26.931	0.101
565.700	-26.183	0.101
565.800	-6.754	0.101
565.900	-22.490	0.101
566.000	-23.219	0.101
566.100	-31.932	0.101
566.200	-16.511	0.101
566.300	-9.749	0.101
566.400	-20.996	0.101
566.500	-24.095	0.101
566.600	-23.156	0.101
566.700	-1.908	0.101
566.800	-21.281	0.101
566.900	-27.053	0.101
567.000	-23.813	0.101
567.100	-17.948	0.101
567.200	-20.454	0.101
567.300	-21.756	0.101
567.400	-28.878	0.101
567.500	-28.380	0.101
567.600	-28.732	0.101
567.700	-18.190	0.101
567.800	-16.275	0.101
567.900	-18.482	0.101
568.000	-27.192	0.101
568.100	-35.604	0.101
568.200	-21.904	0.101
568.300	-11.849	0.101
568.400	-26.149	0.101
568.500	-12.182	0.101
568.600	-23.218	0.101
568.700	-19.378	0.101
568.800	-30.780	0.101
568.900	-24.328	0.101
569.000	-25.812	0.101
569.100	-22.616	0.101
569.200	-19.047	0.101
569.300	-35.260	0.101
569.400	-23.439	0.101
569.500	-22.310	0.101
569.600	-36.659	0.101
569.700	-10.303	0.101
569.800	-32.243	0.101
569.900	-27.011	0.101
570.000	-36.709	0.101
570.100	-24.418	0.101
570.200	-26.063	0.101
570.300	-21.029	0.101
570.400	-20.458	0.101
570.500	-26.841	0.101
570.600	-30.434	0.101
570.700	-20.482	0.101
570.800	-25.789	0.101
570.900	-11.488	0.101
571.000	-22.679	0.101
571.100	-30.923	0.101
571.200	-23.443	0.101
571.300	-28.516	0.101
571.400	-26.489	0.101
571.500	-27.011	0.101
571.600	-13.080	0.101
571.700	-38.563	0.101
571.800	-23.356	0.101
571.900	-14.681	0.101
572.000	-32.284	0.101
572.100	-33.917	0.101
572.200	-38.132	0.101
572.300	-32.147	0.101
572.400	-30.812	0.101
572.500	-9.305	0.101
572.600	-21.919	0.101
572.700	-29.346	0.101
572.800	-16.236	0.101
572.900	-21.248	0.101
573.000	-39.481	0.101
573.100	-16.672	0.101
573.200	-32.892	0.101
573.300	-26.467	0.101
573.400	-35.161	0.101
573.500	-30.032	0.101
573.600	-41.921	0.101
573.700	-22.838	0.101
573.800	-31.291	0.101
573.900	-15.484	0.101
574.000	-26.416	0.101
574.100	-25.367	0.101
574.200	-26.573	0.101
574.300	-26.821	0.101
574.400	-28.018	0.101
574.500	-32.162	0.101
574.600	-13.897	0.101
574.700	-21.950	0.101
574.800	-28.648	0.101
574.900	-28.405	0.101
575.000	-23.300	0.101
575.100	-26.219	0.101
575.200	-10.111	0.101
575.300	-25.433	0.101
575.400	-40.551	0.101
575.500	-34.378	0.101
575.600	-15.726	0.101
575.700	-17.764	0.101
575.800	-19.167	0.101
575.900	-31.265	0.101
576.000	-31.166	0.101
576.100	-21.591	0.101
576.200	-21.739	0.101
576.300	-30.384	0.101
576.400	-26.927	0.101
576.500	-32.688	0.101
576.600	-31.741	0.101
576.700	-25.921	0.101
576.800	-39.710	0.101
576.900	-28.474	0.101
577.000	-19.142	0.101
577.100	-43.088	0.101
577.200	-19.262	0.101
577.300	-28.593	0.101
577.400	-28.212	0.101
577.500	-30.399	0.101
577.600	-29.065	0.101
577.700	-28.267	0.101
577.800	-13.964	0.101
577.900	-34.335	0.101
578.000	-28.746	0.101
578.100	-34.458	0.101
578.200	-17.052	0.101
578.300	-30.390	0.101
578.400	-37.215	0.101
578.500	-23.190	0.101
578.600	-24.650	0.101
578.700	-19.601	0.101
578.800	-16.489	0.101
578.900	-23.473	0.101
579.000	-28.662	0.101
579.100	-28.257	0.101
579.200	-25.007	0.101
579.300	-19.663	0.101
579.400	-20.070	0.101
579.500	-38.319	0.101
579.600	-33.646	0.101
579.700	-39.894	0.101
579.800	-36.095	0.101
579.900	-15.355	0.101
580.000	-28.670	0.101
580.100	-22.609	0.101
580.200	-35.317	0.101
580.300	-16.750	0.101
580.400	-32.910	0.101
580.500	-25.581	0.101
580.600	-14.211	0.101
580.700	-32.102	0.101
580.800	-18.784	0.101
580.900	-37.717	0.101
581.000	-19.007	0.101
581.100	-22.534	0.101
581.200	-23.806	0.101
581.300	-28.456	0.101
581.400	-24.482	0.101
581.500	-28.005	0.101
581.600	-13.689	0.101
581.700	-38.266	0.101
581.800	-15.983	0.101
581.900	-42.784	0.101
582.000	-26.130	0.101
582.100	-22.818	0.101
582.200	-30.419	0.101
582.300	-28.035	0.101
582.400	-30.551	0.101
582.500	-34.275	0.101
582.600	-33.605	0.101
582.700	-27.293	0.101
582.800	-12.408	0.101
582.900	-18.894	0.101
583.000	-42.104	0.101
583.100	-28.339	0.101
583.200	-31.428	0.101
583.300	-29.603	0.101
583.400	-23.432	0.101
583.500	-35.159	0.101
583.600	-35.425	0.101
583.700	-19.686	0.101
583.800	-8.591	0.101
583.900	-45.713	0.101
584.000	-30.519	0.101
584.100	-30.278	0.101
584.200	-22.337	0.101
584.300	-22.004	0.101
584.400	-18.075	0.101
584.500	-41.823	0.101
584.600	-24.808	0.101
584.700	-21.405	0.101
584.800	-26.917	0.101
584.900	-23.392	0.101
585.000	-39.606	0.101
585.100	-20.225	0.101
585.200	-17.449	0.101
585.300	-33.543	0.101
585.400	-23.810	0.101
585.500	-29.145	0.101
585.600	-21.649	0.101
585.700	-31.958	0.101
585.800	-44.268	0.101
585.900	-21.153	0.101
586.000	-26.262	0.101
586.100	-31.094	0.101
586.200	-26.122	0.101
586.300	-41.551	0.101
586.400	-12.418	0.101
586.500	-23.622	0.101
586.600	-24.991	0.101
586.700	-23.364	0.101
586.800	-31.640	0.101
586.900	-20.279	0.101
587.000	-30.285	0.101
587.100	-43.314	0.101
587.200	-15.061	0.101
587.300	-38.219	0.101
587.400	-26.585	0.101
587.500	-26.601	0.101
587.600	-20.466	0.101
587.700	-42.817	0.101
587.800	-29.705	0.101
587.900	-26.532	0.101
588.000	-12.997	0.101
588.100	-28.743	0.101
588.200	-29.162	0.101
588.300	-38.200	0.101
588.400	-27.828	0.101
588.500	-28.110	0.101
588.600	-31.454	0.101
588.700	-24.474	0.101
588.800	-25.198	0.101
588.900	-32.749	0.101
589.000	-30.368	0.101
589.100	-25.719	0.101
589.200	-26.066	0.101
589.300	-23.081	0.101
589.400	-33.410	0.101
589.500	-14.739	0.101
589.600	-20.495	0.101
589.700	-30.690	0.101
589.800	-30.556	0.101
589.900	-33.315	0.101
590.000	-13.036	0.101
590.100	-20.534	0.101
590.200	-26.150	0.101
590.300	-34.221	0.101
590.400	-26.041	0.101
590.500	-16.524	0.101
590.600	-19.517	0.101
590.700	-33.581	0.101
590.800	-18.514	0.101
590.900	-21.836	0.101
591.000	-23.939	0.101
591.100	-38.764	0.101
591.200	-27.400	0.101
591.300	-19.766	0.101
591.400	-24.636	0.101
591.500	-23.968	0.101
591.600	-28.775	0.101
591.700	-29.953	0.101
591.800	-26.469	0.101
591.900	-31.950	0.101
592.000	-15.613	0.101
592.100	-22.420	0.101
592.200	-29.766	0.101
592.300	-24.728	0.101
592.400	-20.715	0.101
592.500	-29.999	0.101
592.600	-17.905	0.101
592.700	-24.490	0.101
592.800	-36.030	0.101
592.900	-26.132	0.101
593.000	-19.460	0.101
593.100	-21.624	0.101
593.200	-31.761	0.101
593.300	-7.122	0.101
593.400	-33.210	0.101
593.500	-35.411	0.101
593.600	-37.223	0.101
593.700	-24.724	0.101
593.800	-16.886	0.101
593.900	-20.658	0.101
594.000	-29.717	0.101
594.100	-29.544	0.101
594.200	-24.110	0.101
594.300	-34.026	0.101
594.400	-34.936	0.101
594.500	-24.227	0.101
594.600	-26.303	0.101
594.700	-20.939	0.101
594.800	-26.246	0.101
594.900	-19.974	0.101
595.000	-49.266	0.101
595.100	-30.860	0.101
595.200	-24.311	0.101
595.300	-17.559	0.101
595.400	-26.429	0.101
595.500	-25.176	0.101
595.600	-28.472	0.101
595.700	-13.389	0.101
595.800	-20.224	0.101
595.900	-12.330	0.101
596.000	-26.340	0.101
596.100	-29.539	0.101
596.200	-27.260	0.101
596.300	-31.181	0.101
596.400	-15.707	0.101
596.500	-28.781	0.101
596.600	-31.221	0.101
596.700	-38.227	0.101
596.800	-26.264	0.101
596.900	-24.715	0.101
597.000	-19.978	0.101
597.100	-25.795	0.101
597.200	-26.076	0.101
597.300	-27.079	0.101
597.400	-26.277	0.101
597.500	-30.993	0.101
597.600	-10.383	0.101
597.700	-21.690	0.101
597.800	-34.424	0.101
597.900	-25.693	0.101
598.000	-26.842	0.101
598.100	-33.778	0.101
598.200	-27.762	0.101
598.300	-22.233	0.101
598.400	-32.264	0.101
598.500	-30.757	0.101
598.600	-22.751	0.101
598.700	-13.464	0.101
598.800	-36.790	0.101
598.900	-25.281	0.101
599.000	-30.376	0.101
599.100	-18.176	0.101
599.200	-28.349	0.101
599.300	-30.510	0.101
599.400	-14.096	0.101
599.500	-32.263	0.101
599.600	-24.468	0.101
599.700	-26.402	0.101
599.800	-22.977	0.101
599.900	-10.808	0.101
600.000	-17.480	0.101
600.100	-39.485	0.101
600.200	-27.677	0.101
600.300	-22.077	0.101
600.400	-20.606	0.101
600.500	-16.892	0.101
600.600	-33.269	0.101
600.700	-25.906	0.101
600.800	-31.155	0.101
600.900	-15.917	0.101
601.000	-30.322	0.101
601.100	-21.554	0.101
601.200	-28.737	0.101
601.300	-20.895	0.101
601.400	-21.416	0.101
601.500	-24.757	0.101
601.600	-16.015	0.101
601.700	-32.444	0.101
601.800	-24.144	0.101
601.900	-33.853	0.101
602.000	-23.704	0.101
602.100	-27.276	0.101
602.200	-32.191	0.101
602.300	-20.672	0.101
602.400	-29.261	0.101
602.500	-20.339	0.101
602.600	-21.847	0.101
602.700	-30.681	0.101
602.800	-17.102	0.101
602.900	-19.232	0.101
603.000	-30.835	0.101
603.100	-27.361	0.101
603.200	-14.955	0.101
603.300	-37.262	0.101
603.400	-30.081	0.101
603.500	-16.169	0.101
603.600	-7.561	0.101
603.700	-21.174	0.101
603.800	-22.106	0.101
603.900	-26.386	0.101
604.000	-25.111	0.101
604.100	-22.082	0.101
604.200	-27.869	0.101
604.300	-19.495	0.101
604.400	-29.544	0.101
604.500	-16.741	0.101
604.600	-26.830	0.101
604.700	-28.316	0.101
604.800	-37.959	0.101
604.900	-26.917	0.101
605.000	-33.076	0.101
605.100	-27.466	0.101
605.200	-23.625	0.101
605.300	-23.717	0.101
605.400	-19.877	0.101
605.500	-28.046	0.101
605.600	-25.831	0.101
605.700	-22.263	0.101
605.800	-25.276	0.101
605.900	-13.687	0.101
606.000	-37.105	0.101
606.100	-26.100	0.101
606.200	-8.659	0.101
606.300	-19.275	0.101
606.400	-27.997	0.101
606.500	-23.650	0.101
606.600	-20.194	0.101
606.700	-30.481	0.101
606.800	-23.047	0.101
606.900	-27.607	0.101
607.000	-29.489	0.101
607.100	-29.130	0.101
607.200	-18.627	0.101
607.300	-23.672	0.101
607.400	-17.594	0.101
607.500	-31.336	0.101
607.600	-23.920	0.101
607.700	-34.193	0.101
607.800	-33.482	0.101
607.900	-26.015	0.101
608.000	-25.648	0.101
608.100	-21.371	0.101
608.200	-23.726	0.101
608.300	-23.633	0.101
608.400	-17.298	0.101
608.500	-33.402	0.101
608.600	-15.915	0.101
608.700	-22.457	0.101
608.800	-19.852	0.101
608.900	-41.377	0.101
609.000	-11.508	0.101
609.100	-26.353	0.101
609.200	-27.258	0.101
609.300	-24.995	0.101
609.400	-14.820	0.101
609.500	-25.263	0.101
609.600	-20.853	0.101
609.700	-17.961	0.101
609.800	-23.832	0.101
609.900	-25.473	0.101
610.000	-25.968	0.101
610.100	-22.261	0.101
610.200	-25.180	0.101
610.300	-19.932	0.101
610.400	-22.526	0.101
610.500	-33.596	0.101
610.600	-20.838	0.101
610.700	-23.127	0.101
610.800	-24.080	0.101
610.900	-21.506	0.101
611.000	-13.454	0.101
611.100	-28.951	0.101
611.200	-20.903	0.101
611.300	-12.473	0.101
611.400	-20.783	0.101
611.500	-34.389	0.101
611.600	-21.351	0.101
611.700	-23.106	0.101
611.800	-26.147	0.101
611.900	-19.087	0.101
612.000	-18.752	0.101
612.100	-42.099	0.101
612.200	-31.277	0.101
612.300	-19.755	0.101
612.400	-22.780	0.101
612.500	-19.461	0.101
612.600	-11.581	0.101
612.700	-36.327	0.101
612.800	-20.939	0.101
612.900	-17.841	0.101
613.000	-31.602	0.101
613.100	-18.084	0.101
613.200	-15.544	0.101
613.300	-24.328	0.101
613.400	-12.828	0.101
613.500	-32.123	0.101
613.600	-18.609	0.101
613.700	-31.072	0.101
613.800	-8.052	0.101
613.900	-24.913	0.101
614.000	-20.432	0.101
614.100	-5.843	0.101
614.200	-33.787	0.101
614.300	-22.027	0.101
614.400	-24.989	0.101
614.500	-36.438	0.101
614.600	-39.203	0.101
614.700	-13.542	0.101
614.800	-11.227	0.101
614.900	-17.259	0.101
615.000	-23.428	0.101
615.100	-19.815	0.101
615.200	-29.336	0.101
615.300	-38.107	0.101
615.400	-19.261	0.101
615.500	-24.412	0.101
615.600	-14.081	0.101
615.700	-12.572	0.101
615.800	-28.765	0.101
615.900	-23.635	0.101
616.000	-15.726	0.101
616.100	-26.798	0.101
616.200	-31.251	0.101
616.300	-22.593	0.101
616.400	-24.436	0.101
616.500	-31.188	0.101
616.600	-29.066	0.101
616.700	-17.869	0.101
616.800	-16.779	0.101
616.900	-8.784	0.101
617.000	-21.454	0.101
617.100	-16.821	0.101
617.200	-37.976	0.101
617.300	-33.427	0.101
617.400	-13.630	0.101
617.500	-15.865	0.101
617.600	-29.195	0.101
617.700	-12.987	0.101
617.800	-23.847	0.101
617.900	-20.966	0.101
618.000	-16.945	0.101
618.100	-31.959	0.101
618.200	-21.826	0.101
618.300	-26.293	0.101
618.400	-13.734	0.101
618.500	-18.022	0.101
618.600	-17.528	0.101
618.700	-34.126	0.101
618.800	-36.853	0.101
618.900	-15.591	0.101
619.000	-16.155	0.101
619.100	-15.452	0.101
619.200	-21.804	0.101
619.300	-18.067	0.101
619.400	-26.988	0.101
619.500	-9.618	0.101
619.600	-30.572	0.101
619.700	-18.036	0.101
619.800	-26.043	0.101
619.900	-19.195	0.101
620.000	-17.386	0.101
620.100	-27.302	0.101
620.200	-5.264	0.101
620.300	-12.533	0.101
620.400	-39.484	0.101
620.500	-6.730	0.101
620.600	-25.560	0.101
620.700	-14.063	0.101
620.800	-30.802	0.101
620.900	-41.382	0.101
621.000	-16.236	0.101
621.100	-26.767	0.101
621.200	-14.190	0.101
621.300	-26.361	0.101
621.400	-23.458	0.101
621.500	-19.740	0.101
621.600	-21.173	0.101
621.700	-18.411	0.101
621.800	-23.405	0.101
621.900	-15.025	0.101
622.000	-9.096	0.101
622.100	-32.700	0.101
622.200	-35.673	0.101
622.300	-28.132	0.101
622.400	-13.590	0.101
622.500	-26.595	0.101
622.600	-13.136	0.101
622.700	-24.610	0.101
622.800	-27.180	0.101
622.900	-23.064	0.101
623.000	-21.727	0.101
623.100	-13.342	0.101
623.200	-24.417	0.101
623.300	-17.892	0.101
623.400	-17.267	0.101
623.500	-33.785	0.101
623.600	-29.042	0.101
623.700	-14.469	0.101
623.800	-28.215	0.101
623.900	-21.191	0.101
624.000	-26.807	0.101
624.100	-34.225	0.101
624.200	-17.148	0.101
624.300	-16.594	0.101
624.400	-21.316	0.101
624.500	-15.302	0.101
624.600	-21.729	0.101
624.700	-23.449	0.101
624.800	-14.916	0.101
624.900	-14.943	0.101
625.000	-26.225	0.101
625.100	-24.832	0.101
625.200	-31.220	0.101
625.300	-13.535	0.101
625.400	-26.658	0.101
625.500	-22.885	0.101
625.600	-24.391	0.101
625.700	-24.689	0.101
625.800	-23.277	0.101
625.900	-25.186	0.101
626.000	-13.138	0.101
626.100	-14.669	0.101
626.200	-19.249	0.101
626.300	-26.907	0.101
626.400	-16.555	0.101
626.500	-23.296	0.101
626.600	-18.597	0.101
626.700	-32.917	0.101
626.800	-25.009	0.101
626.900	-15.465	0.101
627.000	-26.623	0.101
627.100	-19.879	0.101
627.200	-8.449	0.101
627.300	-23.024	0.101
627.400	-13.126	0.101
627.500	-6.992	0.101
627.600	-30.931	0.101
627.700	-29.413	0.101
627.800	-30.657	0.101
627.900	-27.137	0.101
628.000	-18.601	0.101
628.100	-25.934	0.101
628.200	-18.748	0.101
628.300	-25.138	0.101
628.400	-17.759	0.101
628.500	-20.326	0.101
628.600	-10.799	0.101
628.700	-8.649	0.101
628.800	-18.744	0.101
628.900	-22.896	0.101
629.000	-33.522	0.101
629.100	-25.970	0.101
629.200	-19.112	0.101
629.300	-16.867	0.101
629.400	-19.764	0.101
629.500	-10.592	0.101
629.600	-21.886	0.101
629.700	-19.631	0.101
629.800	-23.671	0.101
629.900	-21.973	0.101
630.000	-21.583	0.101
630.100	-24.230	0.101
630.200	-25.990	0.101
630.300	-21.686	0.101
630.400	-21.549	0.101
630.500	-28.957	0.101
630.600	-7.160	0.101
630.700	-3.674	0.101
630.800	-12.587	0.101
630.900	-17.184	0.101
631.000	6.678	0.101
631.100	-0.650	0.101
631.200	12.566	0.101
631.300	11.552	0.101
631.400	17.725	0.101
631.500	15.543	0.101
631.600	13.535	0.101
631.700	13.041	0.101
631.800	17.908	0.101
631.900	36.739	0.101
632.000	24.602	0.101
632.100	17.558	0.101
632.200	17.013	0.101
632.300	12.316	0.101
632.400	29.738	0.101
632.500	22.001	0.101
632.600	8.784	0.101
632.700	4.501	0.101
632.800	15.907	0.101
632.900	20.610	0.101
633.000	16.897	0.101
633.100	13.654	0.101
633.200	14.535	0.101
633.300	22.295	0.101
633.400	23.975	0.101
633.500	13.105	0.101
633.600	26.876	0.101
633.700	20.577	0.101
633.800	12.413	0.101
633.900	-5.972	0.101
634.000	23.545	0.101
634.100	9.660	0.101
634.200	17.006	0.101
634.300	12.000	0.101
634.400	19.854	0.101
634.500	14.114	0.101
634.600	12.240	0.101
634.700	7.259	0.101
634.800	11.813	0.101
634.900	18.774	0.101
635.000	7.681	0.101
635.100	26.764	0.101
635.200	5.643	0.101
635.300	1.085	0.101
635.400	17.523	0.101
635.500	6.106	0.101
635.600	11.664	0.101
635.700	-9.602	0.101
635.800	10.981	0.101
635.900	5.490	0.101
636.000	11.484	0.101
636.100	0.521	0.101
636.200	5.065	0.101
636.300	-2.971	0.101
636.400	12.748	0.101
636.500	-1.959	0.101
636.600	20.069	0.101
636.700	10.058	0.101
636.800	9.073	0.101
636.900	11.822	0.101
637.000	-2.441	0.101
637.100	16.945	0.101
637.200	13.739	0.101
637.300	1.584	0.101
637.400	7.205	0.101
637.500	3.258	0.101
637.600	14.757	0.101
637.700	6.758	0.101
637.800	-0.676	0.101
637.900	-3.043	0.101
638.000	7.167	0.101
638.100	5.827	0.101
638.200	1.415	0.101
638.300	19.096	0.101
638.400	9.222	0.101
638.500	7.457	0.101
638.600	17.489	0.101
638.700	10.784	0.101
638.800	15.379	0.101
638.900	14.696	0.101
639.000	22.491	0.101
639.100	4.905	0.101
639.200	37.055	0.101
639.300	0.651	0.101
639.400	11.201	0.101
639.500	6.739	0.101
639.600	13.133	0.101
639.700	9.025	0.101
639.800	19.096	0.101
639.900	26.521	0.101
640.000	20.587	0.101
