time /s	I /nA	E /V
0.100	-13.316	0.101
0.200	-25.632	0.101
0.300	-5.060	0.101
0.400	-14.236	0.101
0.500	-11.424	0.101
0.600	-23.439	0.101
0.700	2.464	0.101
0.800	-13.771	0.101
0.900	-27.493	0.101
1.000	-3.847	0.101
1.100	-22.513	0.101
1.200	-3.837	0.101
1.300	-4.041	0.101
1.400	-15.705	0.101
1.500	-8.729	0.101
1.600	-12.106	0.101
1.700	-8.961	0.101
1.800	-20.077	0.101
1.900	-11.624	0.101
2.000	-15.011	0.101
2.100	-25.520	0.101
2.200	-18.947	0.101
2.300	-15.242	0.101
2.400	-18.717	0.101
2.500	-21.521	0.101
2.600	-14.620	0.101
2.700	-8.158	0.101
2.800	-11.927	0.101
2.900	-22.937	0.101
3.000	-5.137	0.101
3.100	-20.900	0.101
3.200	-2.136	0.101
3.300	-14.356	0.101
3.400	-16.926	0.101
3.500	-6.698	0.101
3.600	1.543	0.101
3.700	-20.658	0.101
3.800	-13.370	0.101
3.900	-18.128	0.101
4.000	-30.194	0.101
4.100	-14.300	0.101
4.200	-18.758	0.101
4.300	-10.326	0.101
4.400	-30.765	0.101
4.500	-13.685	0.101
4.600	-5.440	0.101
4.700	-1.442	0.101
4.800	-14.025	0.101
4.900	-18.551	0.101
5.000	-23.643	0.101
5.100	-18.550	0.101
5.200	-25.571	0.101
5.300	-9.664	0.101
5.400	-16.935	0.101
5.500	-3.927	0.101
5.600	-26.822	0.101
5.700	-14.661	0.101
5.800	-24.476	0.101
5.900	-14.813	0.101
6.000	-16.677	0.101
6.100	-28.308	0.101
6.200	0.334	0.101
6.300	-23.009	0.101
6.400	-10.675	0.101
6.500	-10.093	0.101
6.600	-17.318	0.101
6.700	-23.049	0.101
6.800	-9.314	0.101
6.900	-8.767	0.101
7.000	-11.830	0.101
7.100	-13.848	0.101
7.200	-10.181	0.101
7.300	-5.342	0.101
7.400	-10.724	0.101
7.500	-1.087	0.101
7.600	-17.497	0.101
7.700	-21.698	0.101
7.800	-27.920	0.101
7.900	-18.446	0.101
8.000	-24.424	0.101
8.100	-23.744	0.101
8.200	-17.195	0.101
8.300	-6.168	0.101
8.400	-13.662	0.101
8.500	-12.158	0.101
8.600	-24.372	0.101
8.700	-19.001	0.101
8.800	-7.825	0.101
8.900	-14.376	0.101
9.000	-9.951	0.101
9.100	-12.791	0.101
9.200	-12.162	0.101
9.300	-4.730	0.101
9.400	-22.862	0.101
9.500	-8.015	0.101
9.600	-7.828	0.101
9.700	-25.655	0.101
9.800	-9.572	0.101
9.900	-22.175	0.101
10.000	-9.231	0.101
10.100	-10.542	0.101
10.200	-7.416	0.101
10.300	-14.597	0.101
10.400	-9.072	0.101
10.500	-0.929	0.101
10.600	-30.078	0.101
10.700	-13.135	0.101
10.800	-19.836	0.101
10.900	-9.043	0.101
11.000	-21.445	0.101
11.100	-19.871	0.101
11.200	-14.871	0.101
11.300	-19.949	0.101
11.400	-1.820	0.101
11.500	-19.571	0.101
11.600	-16.731	0.101
11.700	-17.653	0.101
11.800	-6.581	0.101
11.900	-4.407	0.101
12.000	-20.028	0.101
12.100	-26.062	0.101
12.200	-22.975	0.101
12.300	5.162	0.101
12.400	-17.331	0.101
12.500	-16.412	0.101
12.600	-21.039	0.101
12.700	-14.407	0.101
12.800	-22.969	0.101
12.900	-11.463	0.101
13.000	-7.037	0.101
13.100	-27.538	0.101
13.200	-20.909	0.101
13.300	-15.037	0.101
13.400	-18.749	0.101
13.500	-20.723	0.101
13.600	-17.744	0.101
13.700	-15.547	0.101
13.800	-3.809	0.101
13.900	-19.522	0.101
14.000	-28.729	0.101
14.100	-2.897	0.101
14.200	-22.160	0.101
14.300	-14.262	0.101
14.400	-22.177	0.101
14.500	-25.294	0.101
14.600	-20.090	0.101
14.700	-12.328	0.101
14.800	-19.717	0.101
14.900	-7.175	0.101
15.000	-17.318	0.101
15.100	-24.464	0.101
15.200	-12.778	0.101
15.300	-23.784	0.101
15.400	-7.180	0.101
15.500	-20.895	0.101
15.600	-16.411	0.101
15.700	-3.071	0.101
15.800	-9.680	0.101
15.900	-13.115	0.101
16.000	-2.560	0.101
16.100	-7.968	0.101
16.200	-9.411	0.101
16.300	-7.082	0.101
16.400	-19.890	0.101
16.500	-5.212	0.101
16.600	-9.134	0.101
16.700	-13.978	0.101
16.800	-9.756	0.101
16.900	-22.552	0.101
17.000	-10.327	0.101
17.100	-12.402	0.101
17.200	-19.996	0.101
17.300	-6.715	0.101
17.400	-24.597	0.101
17.500	-12.026	0.101
17.600	-10.539	0.101
17.700	-16.016	0.101
17.800	-9.630	0.101
17.900	-13.308	0.101
18.000	4.966	0.101
18.100	-10.861	0.101
18.200	-19.577	0.101
18.300	-27.635	0.101
18.400	-0.490	0.101
18.500	-16.043	0.101
18.600	-8.235	0.101
18.700	-10.641	0.101
18.800	-30.520	0.101
18.900	-6.524	0.101
19.000	-16.988	0.101
19.100	-22.353	0.101
19.200	-3.015	0.101
19.300	-24.726	0.101
19.400	-13.016	0.101
19.500	-13.529	0.101
19.600	-15.801	0.101
19.700	-13.598	0.101
19.800	-17.481	0.101
19.900	-6.738	0.101
20.000	-2.398	0.101
20.100	-12.114	0.101
20.200	-13.457	0.101
20.300	-8.340	0.101
20.400	-7.645	0.101
20.500	-4.887	0.101
20.600	-10.514	0.101
20.700	-11.796	0.101
20.800	-14.298	0.101
20.900	-10.227	0.101
21.000	-14.114	0.101
21.100	-7.916	0.101
21.200	-6.782	0.101
21.300	-22.444	0.101
21.400	-5.742	0.101
21.500	-5.489	0.101
21.600	-1.369	0.101
21.700	-17.494	0.101
21.800	-9.255	0.101
21.900	-4.208	0.101
22.000	-7.785	0.101
22.100	-17.648	0.101
22.200	-1.183	0.101
22.300	-3.653	0.101
22.400	-19.119	0.101
22.500	3.415	0.101
22.600	-12.615	0.101
22.700	-26.612	0.101
22.800	-8.627	0.101
22.900	-6.063	0.101
23.000	-8.761	0.101
23.100	-12.272	0.101
23.200	-13.517	0.101
23.300	-14.753	0.101
23.400	-17.262	0.101
23.500	-0.384	0.101
23.600	-15.130	0.101
23.700	-18.665	0.101
23.800	-8.750	0.101
23.900	-11.314	0.101
24.000	-18.285	0.101
24.100	-8.564	0.101
24.200	-16.056	0.101
24.300	1.427	0.101
24.400	-16.335	0.101
24.500	-21.280	0.101
24.600	-23.922	0.101
24.700	-17.750	0.101
24.800	-7.535	0.101
24.900	-18.832	0.101
25.000	-18.292	0.101
25.100	-19.813	0.101
25.200	-21.750	0.101
25.300	-3.400	0.101
25.400	-20.379	0.101
25.500	0.015	0.101
25.600	-1.305	0.101
25.700	4.403	0.101
25.800	-3.289	0.101
25.900	-11.587	0.101
26.000	-6.818	0.101
26.100	-28.368	0.101
26.200	-7.099	0.101
26.300	-12.707	0.101
26.400	-14.111	0.101
26.500	-9.101	0.101
26.600	-11.869	0.101
26.700	-10.471	0.101
26.800	-6.309	0.101
26.900	-13.873	0.101
27.000	-20.582	0.101
27.100	-10.177	0.101
27.200	-4.162	0.101
27.300	-17.934	0.101
27.400	-22.848	0.101
27.500	-14.570	0.101
27.600	-7.641	0.101
27.700	-3.906	0.101
27.800	-13.909	0.101
27.900	-6.453	0.101
28.000	-20.342	0.101
28.100	-15.212	0.101
28.200	-10.523	0.101
28.300	-1.132	0.101
28.400	-17.130	0.101
28.500	-16.693	0.101
28.600	-16.622	0.101
28.700	-22.586	0.101
28.800	-9.644	0.101
28.900	-5.850	0.101
29.000	4.687	0.101
29.100	-12.513	0.101
29.200	-4.881	0.101
29.300	-13.324	0.101
29.400	-7.760	0.101
29.500	-24.174	0.101
29.600	-27.977	0.101
29.700	2.115	0.101
29.800	-2.908	0.101
29.900	-5.398	0.101
30.000	-6.181	0.101
30.100	-6.168	0.101
30.200	-21.171	0.101
30.300	-3.045	0.101
30.400	-5.230	0.101
30.500	9.198	0.101
30.600	-0.731	0.101
30.700	-1.252	0.101
30.800	2.222	0.101
30.900	11.395	0.101
31.000	13.322	0.101
31.100	18.599	0.101
31.200	16.956	0.101
31.300	15.274	0.101
31.400	-8.425	0.101
31.500	11.377	0.101
31.600	13.048	0.101
31.700	13.197	0.101
31.800	13.242	0.101
31.900	25.249	0.101
32.000	1.871	0.101
32.100	18.437	0.101
32.200	31.285	0.101
32.300	11.631	0.101
32.400	27.894	0.101
32.500	30.382	0.101
32.600	13.801	0.101
32.700	23.917	0.101
32.800	15.085	0.101
32.900	16.856	0.101
33.000	13.626	0.101
33.100	14.688	0.101
33.200	10.929	0.101
33.300	10.166	0.101
33.400	9.825	0.101
33.500	26.827	0.101
33.600	23.286	0.101
33.700	20.404	0.101
33.800	23.109	0.101
33.900	16.426	0.101
34.000	16.403	0.101
34.100	2.805	0.101
34.200	24.420	0.101
34.300	25.870	0.101
34.400	33.331	0.101
34.500	19.495	0.101
34.600	21.682	0.101
34.700	40.213	0.101
34.800	32.096	0.101
34.900	21.644	0.101
35.000	25.042	0.101
35.100	10.908	0.101
35.200	38.158	0.101
35.300	23.985	0.101
35.400	45.037	0.101
35.500	27.863	0.101
35.600	35.394	0.101
35.700	41.216	0.101
35.800	37.252	0.101
35.900	26.179	0.101
36.000	28.007	0.101
36.100	35.890	0.101
36.200	45.271	0.101
36.300	50.333	0.101
36.400	48.005	0.101
36.500	51.051	0.101
36.600	43.468	0.101
36.700	45.866	0.101
36.800	41.247	0.101
36.900	51.610	0.101
37.000	37.573	0.101
37.100	32.010	0.101
37.200	42.408	0.101
37.300	40.162	0.101
37.400	48.156	0.101
37.500	51.968	0.101
37.600	49.478	0.101
37.700	35.362	0.101
37.800	51.623	0.101
37.900	46.090	0.101
38.000	56.528	0.101
38.100	70.845	0.101
38.200	61.034	0.101
38.300	53.954	0.101
38.400	49.686	0.101
38.500	43.091	0.101
38.600	38.285	0.101
38.700	40.253	0.101
38.800	59.286	0.101
38.900	57.670	0.101
39.000	70.973	0.101
39.100	36.822	0.101
39.200	63.234	0.101
39.300	51.620	0.101
39.400	41.257	0.101
39.500	58.988	0.101
39.600	73.308	0.101
39.700	59.861	0.101
39.800	56.605	0.101
39.900	64.226	0.101
40.000	45.303	0.101
40.100	56.525	0.101
40.200	51.271	0.101
40.300	57.109	0.101
40.400	65.167	0.101
40.500	54.299	0.101
40.600	55.943	0.101
40.700	59.905	0.101
40.800	64.740	0.101
40.900	55.126	0.101
41.000	47.860	0.101
41.100	51.053	0.101
41.200	68.018	0.101
41.300	41.989	0.101
41.400	48.887	0.101
41.500	69.178	0.101
41.600	50.829	0.101
41.700	45.075	0.101
41.800	47.771	0.101
41.900	53.802	0.101
42.000	41.823	0.101
42.100	62.908	0.101
42.200	59.714	0.101
42.300	43.996	0.101
42.400	59.900	0.101
42.500	59.762	0.101
42.600	56.119	0.101
42.700	44.750	0.101
42.800	39.556	0.101
42.900	54.899	0.101
43.000	53.501	0.101
43.100	47.595	0.101
43.200	52.486	0.101
43.300	46.374	0.101
43.400	53.973	0.101
43.500	41.455	0.101
43.600	57.478	0.101
43.700	47.568	0.101
43.800	46.632	0.101
43.900	41.664	0.101
44.000	56.522	0.101
44.100	53.167	0.101
44.200	50.464	0.101
44.300	30.988	0.101
44.400	39.473	0.101
44.500	45.436	0.101
44.600	51.322	0.101
44.700	48.039	0.101
44.800	44.734	0.101
44.900	51.132	0.101
45.000	36.429	0.101
45.100	39.139	0.101
45.200	44.076	0.101
45.300	48.506	0.101
45.400	35.207	0.101
45.500	30.109	0.101
45.600	43.347	0.101
45.700	47.689	0.101
45.800	27.924	0.101
45.900	39.665	0.101
46.000	40.153	0.101
46.100	51.989	0.101
46.200	29.617	0.101
46.300	43.262	0.101
46.400	39.669	0.101
46.500	34.147	0.101
46.600	36.993	0.101
46.700	36.219	0.101
46.800	32.333	0.101
46.900	38.292	0.101
47.000	29.552	0.101
47.100	40.397	0.101
47.200	39.755	0.101
47.300	37.411	0.101
47.400	34.475	0.101
47.500	32.219	0.101
47.600	33.627	0.101
47.700	29.493	0.101
47.800	22.595	0.101
47.900	47.431	0.101
48.000	32.821	0.101
48.100	36.494	0.101
48.200	29.270	0.101
48.300	18.703	0.101
48.400	18.638	0.101
48.500	29.638	0.101
48.600	33.912	0.101
48.700	39.023	0.101
48.800	43.121	0.101
48.900	38.898	0.101
49.000	46.847	0.101
49.100	25.610	0.101
49.200	31.588	0.101
49.300	36.026	0.101
49.400	25.361	0.101
49.500	38.087	0.101
49.600	42.095	0.101
49.700	24.260	0.101
49.800	21.465	0.101
49.900	34.825	0.101
50.000	34.000	0.101
50.100	38.398	0.101
50.200	22.426	0.101
50.300	11.263	0.101
50.400	37.252	0.101
50.500	35.905	0.101
50.600	18.558	0.101
50.700	33.054	0.101
50.800	25.272	0.101
50.900	24.573	0.101
51.000	30.941	0.101
51.100	35.890	0.101
51.200	43.433	0.101
51.300	32.749	0.101
51.400	28.025	0.101
51.500	23.753	0.101
51.600	34.241	0.101
51.700	22.230	0.101
51.800	14.501	0.101
51.900	23.826	0.101
52.000	23.232	0.101
52.100	24.716	0.101
52.200	27.266	0.101
52.300	22.664	0.101
52.400	22.940	0.101
52.500	30.159	0.101
52.600	28.657	0.101
52.700	27.363	0.101
52.800	21.498	0.101
52.900	33.278	0.101
53.000	20.640	0.101
53.100	28.116	0.101
53.200	23.433	0.101
53.300	39.221	0.101
53.400	32.348	0.101
53.500	30.166	0.101
53.600	9.108	0.101
53.700	16.073	0.101
53.800	17.452	0.101
53.900	23.927	0.101
54.000	30.365	0.101
54.100	11.455	0.101
54.200	19.472	0.101
54.300	29.409	0.101
54.400	9.815	0.101
54.500	19.450	0.101
54.600	26.958	0.101
54.700	14.465	0.101
54.800	14.472	0.101
54.900	32.970	0.101
55.000	16.728	0.101
55.100	13.298	0.101
55.200	25.687	0.101
55.300	18.559	0.101
55.400	22.993	0.101
55.500	19.867	0.101
55.600	13.194	0.101
55.700	37.823	0.101
55.800	24.906	0.101
55.900	21.018	0.101
56.000	21.083	0.101
56.100	16.720	0.101
56.200	23.899	0.101
56.300	21.176	0.101
56.400	26.610	0.101
56.500	21.794	0.101
56.600	7.372	0.101
56.700	18.151	0.101
56.800	32.530	0.101
56.900	29.308	0.101
57.000	15.622	0.101
57.100	20.147	0.101
57.200	27.103	0.101
57.300	19.567	0.101
57.400	20.150	0.101
57.500	26.713	0.101
57.600	25.889	0.101
57.700	7.937	0.101
57.800	8.447	0.101
57.900	29.158	0.101
58.000	22.106	0.101
58.100	-2.335	0.101
58.200	29.362	0.101
58.300	14.971	0.101
58.400	30.455	0.101
58.500	20.063	0.101
58.600	10.661	0.101
58.700	16.182	0.101
58.800	15.018	0.101
58.900	27.458	0.101
59.000	26.714	0.101
59.100	15.692	0.101
59.200	16.720	0.101
59.300	19.665	0.101
59.400	26.425	0.101
59.500	7.104	0.101
59.600	19.253	0.101
59.700	18.841	0.101
59.800	35.597	0.101
59.900	32.012	0.101
60.000	20.744	0.101
60.100	8.831	0.101
60.200	20.152	0.101
60.300	14.952	0.101
60.400	4.184	0.101
60.500	8.283	0.101
60.600	4.481	0.101
60.700	14.215	0.101
60.800	9.586	0.101
60.900	0.203	0.101
61.000	2.012	0.101
61.100	-5.082	0.101
61.200	-1.592	0.101
61.300	-4.488	0.101
61.400	2.400	0.101
61.500	-15.401	0.101
61.600	-11.717	0.101
61.700	-7.145	0.101
61.800	-12.088	0.101
61.900	-3.691	0.101
62.000	-4.315	0.101
62.100	-31.829	0.101
62.200	1.386	0.101
62.300	-23.612	0.101
62.400	-11.546	0.101
62.500	-21.060	0.101
62.600	-12.560	0.101
62.700	-24.863	0.101
62.800	-34.149	0.101
62.900	-26.966	0.101
63.000	-22.200	0.101
63.100	-32.165	0.101
63.200	-22.221	0.101
63.300	-36.189	0.101
63.400	-27.707	0.101
63.500	-29.174	0.101
63.600	-47.481	0.101
63.700	-26.717	0.101
63.800	-39.350	0.101
63.900	-52.886	0.101
64.000	-26.573	0.101
64.100	-45.325	0.101
64.200	-37.830	0.101
64.300	-33.989	0.101
64.400	-54.145	0.101
64.500	-45.774	0.101
64.600	-43.091	0.101
64.700	-45.441	0.101
64.800	-52.406	0.101
64.900	-33.978	0.101
65.000	-37.737	0.101
65.100	-36.719	0.101
65.200	-52.684	0.101
65.300	-50.935	0.101
65.400	-53.636	0.101
65.500	-52.889	0.101
65.600	-46.497	0.101
65.700	-57.522	0.101
65.800	-51.196	0.101
65.900	-39.539	0.101
66.000	-49.676	0.101
66.100	-53.812	0.101
66.200	-44.245	0.101
66.300	-42.836	0.101
66.400	-36.873	0.101
66.500	-57.656	0.101
66.600	-55.230	0.101
66.700	-54.309	0.101
66.800	-53.905	0.101
66.900	-46.851	0.101
67.000	-51.178	0.101
67.100	-57.838	0.101
67.200	-26.225	0.101
67.300	-53.637	0.101
67.400	-36.353	0.101
67.500	-47.379	0.101
67.600	-38.792	0.101
67.700	-43.898	0.101
67.800	-52.652	0.101
67.900	-32.050	0.101
68.000	-48.827	0.101
68.100	-57.529	0.101
68.200	-32.629	0.101
68.300	-42.397	0.101
68.400	-44.600	0.101
68.500	-27.735	0.101
68.600	-33.586	0.101
68.700	-38.129	0.101
68.800	-37.816	0.101
68.900	-39.066	0.101
69.000	-23.297	0.101
69.100	-35.062	0.101
69.200	-46.727	0.101
69.300	-48.629	0.101
69.400	-34.277	0.101
69.500	-50.632	0.101
69.600	-47.906	0.101
69.700	-41.208	0.101
69.800	-42.914	0.101
69.900	-37.796	0.101
70.000	-47.389	0.101
70.100	-30.569	0.101
70.200	-35.718	0.101
70.300	-25.851	0.101
70.400	-33.463	0.101
70.500	-26.491	0.101
70.600	-35.121	0.101
70.700	-23.143	0.101
70.800	-34.627	0.101
70.900	-37.023	0.101
71.000	-39.839	0.101
71.100	-25.792	0.101
71.200	-32.713	0.101
71.300	-36.674	0.101
71.400	-34.426	0.101
71.500	-29.040	0.101
71.600	-42.263	0.101
71.700	-40.020	0.101
71.800	-14.109	0.101
71.900	-17.556	0.101
72.000	-29.915	0.101
72.100	-27.061	0.101
72.200	-41.780	0.101
72.300	-34.139	0.101
72.400	-33.153	0.101
72.500	-31.498	0.101
72.600	-20.608	0.101
72.700	-13.193	0.101
72.800	-30.743	0.101
72.900	-43.984	0.101
73.000	-26.587	0.101
73.100	-33.742	0.101
73.200	-33.624	0.101
73.300	-23.652	0.101
73.400	-13.333	0.101
73.500	-13.995	0.101
73.600	-39.140	0.101
73.700	-20.843	0.101
73.800	-40.142	0.101
73.900	-7.355	0.101
74.000	-19.849	0.101
74.100	-37.883	0.101
74.200	-26.340	0.101
74.300	-23.918	0.101
74.400	-23.011	0.101
74.500	-26.816	0.101
74.600	-9.865	0.101
74.700	-27.344	0.101
74.800	-15.800	0.101
74.900	-11.011	0.101
75.000	-24.935	0.101
75.100	-20.645	0.101
75.200	-10.856	0.101
75.300	-14.578	0.101
75.400	-18.558	0.101
75.500	-28.149	0.101
75.600	-18.470	0.101
75.700	-18.871	0.101
75.800	-24.121	0.101
75.900	-16.369	0.101
76.000	-14.380	0.101
76.100	-23.287	0.101
76.200	-8.076	0.101
76.300	-11.216	0.101
76.400	-30.133	0.101
76.500	-12.602	0.101
76.600	-28.034	0.101
76.700	-26.048	0.101
76.800	-10.118	0.101
76.900	-9.224	0.101
77.000	-10.895	0.101
77.100	-26.742	0.101
77.200	-27.674	0.101
77.300	-4.174	0.101
77.400	-20.490	0.101
77.500	-10.502	0.101
77.600	-12.269	0.101
77.700	-33.267	0.101
77.800	-26.245	0.101
77.900	-10.472	0.101
78.000	-12.153	0.101
78.100	-9.322	0.101
78.200	-18.712	0.101
78.300	-16.992	0.101
78.400	-28.562	0.101
78.500	-14.744	0.101
78.600	-16.729	0.101
78.700	0.713	0.101
78.800	-27.263	0.101
78.900	-6.861	0.101
79.000	-17.037	0.101
79.100	-8.488	0.101
79.200	-11.416	0.101
79.300	-23.053	0.101
79.400	-20.838	0.101
79.500	3.614	0.101
79.600	-18.188	0.101
79.700	-8.149	0.101
79.800	-11.697	0.101
79.900	-18.932	0.101
80.000	-9.031	0.101
80.100	-18.877	0.101
80.200	2.581	0.101
80.300	-14.582	0.101
80.400	-20.117	0.101
80.500	-6.439	0.101
80.600	-10.246	0.101
80.700	-21.029	0.101
80.800	-16.901	0.101
80.900	-9.720	0.101
81.000	-20.875	0.101
81.100	-4.090	0.101
81.200	-15.440	0.101
81.300	-21.994	0.101
81.400	-17.349	0.101
81.500	-2.271	0.101
81.600	-12.933	0.101
81.700	-6.009	0.101
81.800	3.480	0.101
81.900	-3.803	0.101
82.000	-18.307	0.101
82.100	-19.297	0.101
82.200	-18.920	0.101
82.300	-4.332	0.101
82.400	-11.426	0.101
82.500	-13.881	0.101
82.600	-5.687	0.101
82.700	-8.641	0.101
82.800	-17.605	0.101
82.900	-14.431	0.101
83.000	-5.901	0.101
83.100	5.972	0.101
83.200	-3.784	0.101
83.300	-15.528	0.101
83.400	-15.499	0.101
83.500	-16.368	0.101
83.600	-7.696	0.101
83.700	-5.221	0.101
83.800	-11.792	0.101
83.900	-19.436	0.101
84.000	-20.058	0.101
84.100	-16.168	0.101
84.200	-8.553	0.101
84.300	2.414	0.101
84.400	-9.874	0.101
84.500	-4.728	0.101
84.600	-8.412	0.101
84.700	-17.593	0.101
84.800	0.008	0.101
84.900	-13.976	0.101
85.000	-13.096	0.101
85.100	-6.213	0.101
85.200	-11.217	0.101
85.300	-20.338	0.101
85.400	-10.110	0.101
85.500	-9.813	0.101
85.600	-8.004	0.101
85.700	-8.916	0.101
85.800	3.370	0.101
85.900	-13.444	0.101
86.000	-12.789	0.101
86.100	-14.349	0.101
86.200	1.539	0.101
86.300	-1.296	0.101
86.400	-18.339	0.101
86.500	-26.736	0.101
86.600	-20.110	0.101
86.700	-10.624	0.101
86.800	-16.083	0.101
86.900	-14.644	0.101
87.000	1.483	0.101
87.100	-6.254	0.101
87.200	-11.806	0.101
87.300	-11.808	0.101
87.400	-5.578	0.101
87.500	-2.037	0.101
87.600	-18.139	0.101
87.700	-6.934	0.101
87.800	-3.683	0.101
87.900	-12.810	0.101
88.000	-16.271	0.101
88.100	-7.041	0.101
88.200	-7.124	0.101
88.300	-19.032	0.101
88.400	-14.535	0.101
88.500	-9.385	0.101
88.600	-13.364	0.101
88.700	-14.683	0.101
88.800	-3.569	0.101
88.900	-19.848	0.101
89.000	-2.781	0.101
89.100	-14.456	0.101
89.200	-12.410	0.101
89.300	-22.473	0.101
89.400	-15.596	0.101
89.500	-9.859	0.101
89.600	-6.184	0.101
89.700	-5.126	0.101
89.800	-22.831	0.101
89.900	-5.862	0.101
90.000	-13.196	0.101
90.100	-7.991	0.101
90.200	3.971	0.101
90.300	-21.657	0.101
90.400	-16.940	0.101
90.500	-19.554	0.101
90.600	-4.434	0.101
90.700	-4.256	0.101
90.800	-10.346	0.101
90.900	-16.982	0.101
91.000	-2.080	0.101
91.100	-22.521	0.101
91.200	-18.230	0.101
91.300	0.413	0.101
91.400	-21.406	0.101
91.500	-2.365	0.101
91.600	-29.520	0.101
91.700	-6.680	0.101
91.800	-16.030	0.101
91.900	-12.997	0.101
92.000	-12.965	0.101
92.100	-13.759	0.101
92.200	-5.375	0.101
92.300	-2.430	0.101
92.400	-3.984	0.101
92.500	-19.885	0.101
92.600	-15.815	0.101
92.700	-14.209	0.101
92.800	-12.905	0.101
92.900	-4.647	0.101
93.000	-14.962	0.101
93.100	-11.436	0.101
93.200	-4.511	0.101
93.300	-18.842	0.101
93.400	-7.023	0.101
93.500	-11.058	0.101
93.600	-15.998	0.101
93.700	-9.690	0.101
93.800	-16.558	0.101
93.900	-0.479	0.101
94.000	-3.445	0.101
94.100	-15.552	0.101
94.200	-23.152	0.101
94.300	-9.792	0.101
94.400	-11.740	0.101
94.500	-16.754	0.101
94.600	-7.176	0.101
94.700	2.053	0.101
94.800	-8.466	0.101
94.900	-2.378	0.101
95.000	-1.438	0.101
95.100	-13.378	0.101
95.200	-17.911	0.101
95.300	-10.744	0.101
95.400	-22.598	0.101
95.500	-15.889	0.101
95.600	-7.841	0.101
95.700	-20.358	0.101
95.800	-14.130	0.101
95.900	-18.177	0.101
96.000	-10.147	0.101
96.100	-2.867	0.101
96.200	-3.592	0.101
96.300	-26.118	0.101
96.400	-0.441	0.101
96.500	-22.644	0.101
96.600	-5.797	0.101
96.700	-13.311	0.101
96.800	-17.325	0.101
96.900	-20.718	0.101
97.000	-15.679	0.101
97.100	-22.051	0.101
97.200	-11.619	0.101
97.300	-15.230	0.101
97.400	-15.137	0.101
97.500	-3.559	0.101
97.600	-8.118	0.101
97.700	-16.440	0.101
97.800	-17.337	0.101
97.900	-22.476	0.101
98.000	-16.175	0.101
98.100	-16.468	0.101
98.200	-9.070	0.101
98.300	-4.123	0.101
98.400	-11.623	0.101
98.500	-16.931	0.101
98.600	-7.961	0.101
98.700	-8.292	0.101
98.800	-9.949	0.101
98.900	-4.491	0.101
99.000	-21.929	0.101
99.100	-14.373	0.101
99.200	-19.519	0.101
99.300	-23.646	0.101
99.400	-8.582	0.101
99.500	-21.555	0.101
99.600	-8.218	0.101
99.700	-11.714	0.101
99.800	-11.457	0.101
99.900	-24.587	0.101
100.000	-17.740	0.101
100.100	-14.042	0.101
100.200	-3.743	0.101
100.300	-13.504	0.101
100.400	-17.966	0.101
100.500	-13.414	0.101
100.600	-13.202	0.101
100.700	-14.063	0.101
100.800	-10.266	0.101
100.900	-11.917	0.101
101.000	-14.964	0.101
101.100	-16.851	0.101
101.200	-19.728	0.101
101.300	-5.341	0.101
101.400	-14.523	0.101
101.500	-18.629	0.101
101.600	-16.271	0.101
101.700	-6.096	0.101
101.800	-12.136	0.101
101.900	-15.049	0.101
102.000	-17.246	0.101
102.100	-14.151	0.101
102.200	-15.776	0.101
102.300	-20.273	0.101
102.400	-22.227	0.101
102.500	-4.683	0.101
102.600	-10.602	0.101
102.700	-4.084	0.101
102.800	-18.495	0.101
102.900	-17.852	0.101
103.000	-4.517	0.101
103.100	-9.221	0.101
103.200	-20.148	0.101
103.300	-22.425	0.101
103.400	-11.568	0.101
103.500	-7.850	0.101
103.600	-3.259	0.101
103.700	-10.301	0.101
103.800	-17.258	0.101
103.900	-21.748	0.101
104.000	-15.108	0.101
104.100	-16.186	0.101
104.200	-10.220	0.101
104.300	-14.339	0.101
104.400	-20.059	0.101
104.500	-16.032	0.101
104.600	-14.161	0.101
104.700	-14.099	0.101
104.800	-11.174	0.101
104.900	-13.411	0.101
105.000	-18.397	0.101
105.100	-4.449	0.101
105.200	-17.810	0.101
105.300	-24.872	0.101
105.400	-11.602	0.101
105.500	-11.291	0.101
105.600	-9.007	0.101
105.700	-21.160	0.101
105.800	-10.853	0.101
105.900	-9.884	0.101
106.000	-25.546	0.101
106.100	-4.152	0.101
106.200	-15.534	0.101
106.300	-5.819	0.101
106.400	-13.470	0.101
106.500	-20.063	0.101
106.600	-4.466	0.101
106.700	-13.896	0.101
106.800	-17.438	0.101
106.900	-11.359	0.101
107.000	-11.292	0.101
107.100	-15.033	0.101
107.200	-6.474	0.101
107.300	-9.824	0.101
107.400	-8.405	0.101
107.500	-21.313	0.101
107.600	-14.445	0.101
107.700	0.780	0.101
107.800	-11.407	0.101
107.900	-18.060	0.101
108.000	-20.157	0.101
108.100	-9.430	0.101
108.200	-26.150	0.101
108.300	-11.553	0.101
108.400	-3.345	0.101
108.500	-14.861	0.101
108.600	-19.272	0.101
108.700	-22.364	0.101
108.800	-4.640	0.101
108.900	-18.631	0.101
109.000	-12.478	0.101
109.100	-5.594	0.101
109.200	-10.286	0.101
109.300	-11.015	0.101
109.400	-6.221	0.101
109.500	-15.173	0.101
109.600	-12.463	0.101
109.700	-27.584	0.101
109.800	-9.803	0.101
109.900	-10.483	0.101
110.000	-14.384	0.101
110.100	-7.018	0.101
110.200	-17.253	0.101
110.300	-17.480	0.101
110.400	-7.772	0.101
110.500	-1.476	0.101
110.600	-9.675	0.101
110.700	-12.218	0.101
110.800	-16.528	0.101
110.900	-11.456	0.101
111.000	-18.308	0.101
111.100	-15.214	0.101
111.200	-12.933	0.101
111.300	-14.622	0.101
111.400	-6.489	0.101
111.500	-16.051	0.101
111.600	-20.579	0.101
111.700	-10.201	0.101
111.800	-11.699	0.101
111.900	-12.627	0.101
112.000	-11.918	0.101
112.100	1.889	0.101
112.200	-4.814	0.101
112.300	-3.056	0.101
112.400	-30.932	0.101
112.500	-16.206	0.101
112.600	-9.745	0.101
112.700	-16.970	0.101
112.800	-10.723	0.101
112.900	-20.264	0.101
113.000	-6.526	0.101
113.100	-19.954	0.101
113.200	-5.650	0.101
113.300	-20.220	0.101
113.400	-11.030	0.101
113.500	-16.738	0.101
113.600	-9.996	0.101
113.700	-15.277	0.101
113.800	-11.336	0.101
113.900	-11.612	0.101
114.000	-22.842	0.101
114.100	-13.767	0.101
114.200	-5.173	0.101
114.300	-19.676	0.101
114.400	5.491	0.101
114.500	0.176	0.101
114.600	-16.195	0.101
114.700	-15.599	0.101
114.800	-11.439	0.101
114.900	-21.781	0.101
115.000	-15.740	0.101
115.100	-28.986	0.101
115.200	-9.585	0.101
115.300	-34.706	0.101
115.400	-10.236	0.101
115.500	-14.933	0.101
115.600	3.106	0.101
115.700	-20.667	0.101
115.800	-17.324	0.101
115.900	-4.212	0.101
116.000	-12.887	0.101
116.100	-18.056	0.101
116.200	-9.728	0.101
116.300	-11.506	0.101
116.400	-15.303	0.101
116.500	-6.795	0.101
116.600	3.296	0.101
116.700	-21.713	0.101
116.800	-28.664	0.101
116.900	-19.892	0.101
117.000	-4.276	0.101
117.100	-11.906	0.101
117.200	-22.043	0.101
117.300	2.242	0.101
117.400	-16.079	0.101
117.500	-19.468	0.101
117.600	-18.561	0.101
117.700	-16.057	0.101
117.800	-5.814	0.101
117.900	-2.038	0.101
118.000	-23.366	0.101
118.100	-17.708	0.101
118.200	-11.788	0.101
118.300	-12.970	0.101
118.400	-16.071	0.101
118.500	-3.145	0.101
118.600	-16.205	0.101
118.700	-7.737	0.101
118.800	-15.262	0.101
118.900	-17.588	0.101
119.000	-10.128	0.101
119.100	-1.829	0.101
119.200	-13.991	0.101
119.300	-9.382	0.101
119.400	-18.031	0.101
119.500	-22.202	0.101
119.600	-15.137	0.101
119.700	-5.424	0.101
119.800	2.374	0.101
119.900	-15.551	0.101
120.000	-18.316	0.101
120.100	-9.027	0.101
120.200	-24.146	0.101
120.300	-24.720	0.101
120.400	-12.151	0.101
120.500	-8.146	0.101
120.600	-0.439	0.101
120.700	-23.287	0.101
120.800	-7.556	0.101
120.900	-12.929	0.101
121.000	-18.585	0.101
121.100	-4.952	0.101
121.200	-17.630	0.101
121.300	-13.080	0.101
121.400	1.067	0.101
121.500	-18.729	0.101
121.600	-12.000	0.101
121.700	-28.753	0.101
121.800	-9.510	0.101
121.900	-8.805	0.101
122.000	-8.289	0.101
122.100	2.931	0.101
122.200	-13.441	0.101
122.300	-11.708	0.101
122.400	-14.178	0.101
122.500	-17.353	0.101
122.600	-17.506	0.101
122.700	-27.106	0.101
122.800	-10.508	0.101
122.900	-16.249	0.101
123.000	-13.326	0.101
123.100	-3.011	0.101
123.200	-1.435	0.101
123.300	-17.270	0.101
123.400	-18.705	0.101
123.500	-3.790	0.101
123.600	-15.392	0.101
123.700	-4.001	0.101
123.800	-21.113	0.101
123.900	-4.908	0.101
124.000	-9.599	0.101
124.100	-9.435	0.101
124.200	-24.441	0.101
124.300	-5.603	0.101
124.400	-16.813	0.101
124.500	-7.681	0.101
124.600	-20.471	0.101
124.700	-13.955	0.101
124.800	-10.533	0.101
124.900	-14.031	0.101
125.000	-14.059	0.101
125.100	-15.036	0.101
125.200	-13.069	0.101
125.300	-12.248	0.101
125.400	-3.831	0.101
125.500	-5.490	0.101
125.600	-14.934	0.101
125.700	-12.874	0.101
125.800	-3.917	0.101
125.900	4.329	0.101
126.000	-15.245	0.101
126.100	-7.627	0.101
126.200	-14.451	0.101
126.300	-8.321	0.101
126.400	-10.555	0.101
126.500	-14.131	0.101
126.600	-21.700	0.101
126.700	-17.185	0.101
126.800	-16.638	0.101
126.900	-19.341	0.101
127.000	-12.175	0.101
127.100	-12.905	0.101
127.200	-13.115	0.101
127.300	-12.035	0.101
127.400	-23.615	0.101
127.500	-4.986	0.101
127.600	-12.492	0.101
127.700	-30.200	0.101
127.800	-7.367	0.101
127.900	-9.858	0.101
128.000	-12.057	0.101
128.100	-4.259	0.101
128.200	-16.058	0.101
128.300	-7.019	0.101
128.400	-24.067	0.101
128.500	-5.652	0.101
128.600	2.864	0.101
128.700	-14.739	0.101
128.800	-6.575	0.101
128.900	-12.807	0.101
129.000	-14.138	0.101
129.100	-21.071	0.101
129.200	-19.815	0.101
129.300	-5.224	0.101
129.400	-4.715	0.101
129.500	-18.929	0.101
129.600	-11.378	0.101
129.700	-14.612	0.101
129.800	-12.236	0.101
129.900	-5.854	0.101
130.000	-11.243	0.101
130.100	-5.218	0.101
130.200	-18.522	0.101
130.300	-24.341	0.101
130.400	-4.799	0.101
130.500	-8.549	0.101
130.600	-11.448	0.101
130.700	-17.509	0.101
130.800	-9.303	0.101
130.900	-0.394	0.101
131.000	-9.670	0.101
131.100	-0.978	0.101
131.200	-11.901	0.101
131.300	-8.919	0.101
131.400	-21.238	0.101
131.500	-9.598	0.101
131.600	-17.597	0.101
131.700	-10.701	0.101
131.800	-14.929	0.101
131.900	-10.313	0.101
132.000	-9.447	0.101
132.100	-7.746	0.101
132.200	-3.120	0.101
132.300	-19.053	0.101
132.400	-13.802	0.101
132.500	-11.180	0.101
132.600	3.653	0.101
132.700	0.740	0.101
132.800	-12.704	0.101
132.900	0.144	0.101
133.000	-8.264	0.101
133.100	-2.206	0.101
133.200	-23.334	0.101
133.300	-30.417	0.101
133.400	-16.460	0.101
133.500	-9.290	0.101
133.600	-12.613	0.101
133.700	-10.305	0.101
133.800	-13.816	0.101
133.900	-15.987	0.101
134.000	3.377	0.101
134.100	-13.591	0.101
134.200	-18.448	0.101
134.300	-9.461	0.101
134.400	-19.668	0.101
134.500	1.517	0.101
134.600	0.873	0.101
134.700	3.826	0.101
134.800	-17.803	0.101
134.900	-17.249	0.101
135.000	-4.252	0.101
135.100	-8.199	0.101
135.200	-25.073	0.101
135.300	-28.835	0.101
135.400	-15.077	0.101
135.500	2.039	0.101
135.600	-22.164	0.101
135.700	-11.755	0.101
135.800	-14.540	0.101
135.900	-6.666	0.101
136.000	-4.435	0.101
136.100	-1.778	0.101
136.200	-11.197	0.101
136.300	-17.265	0.101
136.400	-21.102	0.101
136.500	-0.846	0.101
136.600	-16.398	0.101
136.700	-25.013	0.101
136.800	-10.240	0.101
136.900	-10.583	0.101
137.000	3.489	0.101
137.100	-8.803	0.101
137.200	-6.792	0.101
137.300	-8.886	0.101
137.400	-19.912	0.101
137.500	-16.631	0.101
137.600	-12.303	0.101
137.700	1.111	0.101
137.800	-5.213	0.101
137.900	-14.090	0.101
138.000	-9.424	0.101
138.100	-19.089	0.101
138.200	-27.575	0.101
138.300	-6.997	0.101
138.400	-12.424	0.101
138.500	-8.249	0.101
138.600	-12.159	0.101
138.700	-7.599	0.101
138.800	-0.714	0.101
138.900	-6.546	0.101
139.000	-5.444	0.101
139.100	-23.230	0.101
139.200	-15.921	0.101
139.300	-12.636	0.101
139.400	-13.716	0.101
139.500	-11.044	0.101
139.600	-2.675	0.101
139.700	-19.361	0.101
139.800	-10.848	0.101
139.900	-6.487	0.101
140.000	-8.068	0.101
140.100	6.004	0.101
140.200	-16.928	0.101
140.300	-11.890	0.101
140.400	-12.576	0.101
140.500	-14.849	0.101
140.600	-6.050	0.101
140.700	-0.482	0.101
140.800	-18.908	0.101
140.900	-8.264	0.101
141.000	2.213	0.101
141.100	-5.877	0.101
141.200	-18.977	0.101
141.300	-12.390	0.101
141.400	-10.710	0.101
141.500	-14.617	0.101
141.600	-8.676	0.101
141.700	-2.550	0.101
141.800	-10.082	0.101
141.900	-19.784	0.101
142.000	-13.588	0.101
142.100	-14.616	0.101
142.200	-0.924	0.101
142.300	-18.156	0.101
142.400	-2.843	0.101
142.500	-18.250	0.101
142.600	-17.701	0.101
142.700	-14.096	0.101
142.800	-4.520	0.101
142.900	-13.000	0.101
143.000	-8.311	0.101
143.100	-1.004	0.101
143.200	-11.022	0.101
143.300	-5.380	0.101
143.400	-12.898	0.101
143.500	-13.761	0.101
143.600	-3.351	0.101
143.700	-24.838	0.101
143.800	-24.162	0.101
143.900	1.634	0.101
144.000	-3.639	0.101
144.100	-19.142	0.101
144.200	-4.546	0.101
144.300	-18.105	0.101
144.400	-8.096	0.101
144.500	-0.264	0.101
144.600	-9.764	0.101
144.700	-19.772	0.101
144.800	5.143	0.101
144.900	-16.064	0.101
145.000	-4.294	0.101
145.100	-5.727	0.101
145.200	-4.648	0.101
145.300	-11.173	0.101
145.400	-0.696	0.101
145.500	-10.334	0.101
145.600	-10.365	0.101
145.700	-3.938	0.101
145.800	-3.802	0.101
145.900	-5.279	0.101
146.000	-2.030	0.101
146.100	-24.302	0.101
146.200	-0.753	0.101
146.300	-11.390	0.101
146.400	-2.560	0.101
146.500	-21.398	0.101
146.600	-15.186	0.101
146.700	-1.172	0.101
146.800	-10.998	0.101
146.900	-2.515	0.101
147.000	-2.976	0.101
147.100	-19.339	0.101
147.200	-1.038	0.101
147.300	-14.314	0.101
147.400	-10.100	0.101
147.500	-26.905	0.101
147.600	-7.018	0.101
147.700	-8.580	0.101
147.800	-13.100	0.101
147.900	-18.096	0.101
148.000	-5.053	0.101
148.100	-6.060	0.101
148.200	-18.069	0.101
148.300	-1.038	0.101
148.400	-24.727	0.101
148.500	-3.019	0.101
148.600	-3.191	0.101
148.700	-11.619	0.101
148.800	-13.496	0.101
148.900	-11.067	0.101
149.000	1.941	0.101
149.100	-12.791	0.101
149.200	-8.672	0.101
149.300	-3.976	0.101
149.400	-12.496	0.101
149.500	-22.041	0.101
149.600	-9.883	0.101
149.700	-17.233	0.101
149.800	-18.292	0.101
149.900	-14.156	0.101
150.000	-7.660	0.101
150.100	6.762	0.101
150.200	-6.296	0.101
150.300	-8.745	0.101
150.400	-7.768	0.101
150.500	-1.091	0.101
150.600	9.689	0.101
150.700	-2.966	0.101
150.800	24.595	0.101
150.900	2.346	0.101
151.000	15.157	0.101
151.100	8.110	0.101
151.200	22.839	0.101
151.300	13.549	0.101
151.400	11.484	0.101
151.500	14.563	0.101
151.600	21.883	0.101
151.700	20.268	0.101
151.800	24.408	0.101
151.900	25.194	0.101
152.000	10.613	0.101
152.100	16.063	0.101
152.200	19.470	0.101
152.300	28.547	0.101
152.400	31.337	0.101
152.500	24.335	0.101
152.600	18.056	0.101
152.700	13.093	0.101
152.800	28.172	0.101
152.900	34.483	0.101
153.000	29.625	0.101
153.100	19.622	0.101
153.200	18.058	0.101
153.300	23.335	0.101
153.400	28.470	0.101
153.500	31.752	0.101
153.600	28.453	0.101
153.700	40.231	0.101
153.800	26.424	0.101
153.900	23.933	0.101
154.000	21.297	0.101
154.100	21.973	0.101
154.200	31.500	0.101
154.300	25.624	0.101
154.400	23.775	0.101
154.500	25.592	0.101
154.600	21.418	0.101
154.700	17.001	0.101
154.800	13.375	0.101
154.900	27.640	0.101
155.000	34.585	0.101
155.100	20.194	0.101
155.200	23.042	0.101
155.300	31.532	0.101
155.400	19.234	0.101
155.500	22.671	0.101
155.600	23.994	0.101
155.700	14.518	0.101
155.800	41.782	0.101
155.900	12.067	0.101
156.000	19.209	0.101
156.100	27.318	0.101
156.200	34.037	0.101
156.300	38.772	0.101
156.400	23.176	0.101
156.500	24.670	0.101
156.600	27.761	0.101
156.700	23.751	0.101
156.800	29.946	0.101
156.900	31.663	0.101
157.000	24.802	0.101
157.100	35.503	0.101
157.200	29.083	0.101
157.300	37.590	0.101
157.400	32.771	0.101
157.500	37.889	0.101
157.600	34.360	0.101
157.700	43.144	0.101
157.800	44.163	0.101
157.900	49.454	0.101
158.000	50.197	0.101
158.100	39.617	0.101
158.200	40.256	0.101
158.300	33.589	0.101
158.400	51.972	0.101
158.500	45.456	0.101
158.600	33.916	0.101
158.700	45.127	0.101
158.800	51.039	0.101
158.900	48.020	0.101
159.000	45.372	0.101
159.100	32.798	0.101
159.200	47.546	0.101
159.300	37.619	0.101
159.400	52.772	0.101
159.500	42.087	0.101
159.600	48.199	0.101
159.700	43.632	0.101
159.800	53.545	0.101
159.900	56.952	0.101
160.000	44.499	0.101
160.100	49.257	0.101
160.200	49.977	0.101
160.300	53.198	0.101
160.400	45.669	0.101
160.500	51.143	0.101
160.600	47.126	0.101
160.700	47.156	0.101
160.800	55.742	0.101
160.900	63.815	0.101
161.000	38.258	0.101
161.100	60.590	0.101
161.200	39.765	0.101
161.300	54.909	0.101
161.400	58.409	0.101
161.500	56.575	0.101
161.600	55.867	0.101
161.700	44.616	0.101
161.800	47.181	0.101
161.900	52.096	0.101
162.000	49.826	0.101
162.100	57.438	0.101
162.200	59.101	0.101
162.300	59.744	0.101
162.400	54.781	0.101
162.500	58.684	0.101
162.600	55.653	0.101
162.700	63.648	0.101
162.800	48.502	0.101
162.900	49.630	0.101
163.000	62.148	0.101
163.100	44.143	0.101
163.200	46.122	0.101
163.300	43.454	0.101
163.400	56.412	0.101
163.500	70.833	0.101
163.600	66.296	0.101
163.700	45.527	0.101
163.800	56.787	0.101
163.900	50.639	0.101
164.000	43.011	0.101
164.100	32.360	0.101
164.200	64.815	0.101
164.300	60.379	0.101
164.400	39.398	0.101
164.500	44.582	0.101
164.600	45.879	0.101
164.700	52.659	0.101
164.800	59.858	0.101
164.900	56.085	0.101
165.000	56.216	0.101
165.100	61.352	0.101
165.200	48.539	0.101
165.300	49.538	0.101
165.400	35.007	0.101
165.500	46.002	0.101
165.600	54.565	0.101
165.700	63.222	0.101
165.800	53.738	0.101
165.900	44.131	0.101
166.000	53.311	0.101
166.100	59.690	0.101
166.200	56.342	0.101
166.300	42.639	0.101
166.400	48.871	0.101
166.500	55.849	0.101
166.600	56.622	0.101
166.700	34.938	0.101
166.800	48.775	0.101
166.900	48.839	0.101
167.000	59.167	0.101
167.100	46.946	0.101
167.200	51.364	0.101
167.300	33.285	0.101
167.400	49.274	0.101
167.500	45.493	0.101
167.600	59.670	0.101
167.700	44.615	0.101
167.800	47.080	0.101
167.900	43.762	0.101
168.000	51.111	0.101
168.100	45.333	0.101
168.200	52.444	0.101
168.300	57.289	0.101
168.400	50.583	0.101
168.500	41.851	0.101
168.600	43.882	0.101
168.700	64.299	0.101
168.800	37.062	0.101
168.900	53.182	0.101
169.000	64.767	0.101
169.100	60.303	0.101
169.200	51.483	0.101
169.300	36.753	0.101
169.400	63.724	0.101
169.500	43.043	0.101
169.600	56.134	0.101
169.700	41.794	0.101
169.800	47.400	0.101
169.900	40.183	0.101
170.000	38.591	0.101
170.100	60.102	0.101
170.200	61.643	0.101
170.300	42.406	0.101
170.400	44.788	0.101
170.500	37.812	0.101
170.600	55.293	0.101
170.700	41.117	0.101
170.800	43.014	0.101
170.900	43.194	0.101
171.000	49.899	0.101
171.100	42.504	0.101
171.200	39.502	0.101
171.300	44.519	0.101
171.400	53.290	0.101
171.500	47.803	0.101
171.600	41.867	0.101
171.700	53.573	0.101
171.800	48.092	0.101
171.900	49.269	0.101
172.000	54.367	0.101
172.100	41.398	0.101
172.200	43.244	0.101
172.300	44.875	0.101
172.400	45.560	0.101
172.500	47.632	0.101
172.600	39.555	0.101
172.700	41.479	0.101
172.800	52.674	0.101
172.900	28.972	0.101
173.000	34.336	0.101
173.100	41.892	0.101
173.200	39.113	0.101
173.300	53.279	0.101
173.400	40.368	0.101
173.500	41.366	0.101
173.600	42.289	0.101
173.700	46.417	0.101
173.800	56.729	0.101
173.900	44.343	0.101
174.000	46.377	0.101
174.100	53.359	0.101
174.200	36.752	0.101
174.300	38.996	0.101
174.400	54.499	0.101
174.500	50.087	0.101
174.600	57.510	0.101
174.700	48.136	0.101
174.800	43.226	0.101
174.900	46.311	0.101
175.000	36.017	0.101
175.100	29.728	0.101
175.200	49.038	0.101
175.300	44.310	0.101
175.400	37.002	0.101
175.500	46.903	0.101
175.600	56.017	0.101
175.700	51.879	0.101
175.800	33.305	0.101
175.900	29.539	0.101
176.000	49.448	0.101
176.100	47.654	0.101
176.200	22.569	0.101
176.300	39.425	0.101
176.400	48.351	0.101
176.500	50.694	0.101
176.600	44.694	0.101
176.700	54.483	0.101
176.800	50.450	0.101
176.900	47.294	0.101
177.000	40.244	0.101
177.100	39.141	0.101
177.200	36.688	0.101
177.300	54.430	0.101
177.400	52.652	0.101
177.500	34.072	0.101
177.600	38.780	0.101
177.700	46.319	0.101
177.800	41.842	0.101
177.900	49.899	0.101
178.000	32.121	0.101
178.100	34.798	0.101
178.200	49.676	0.101
178.300	35.691	0.101
178.400	46.420	0.101
178.500	35.668	0.101
178.600	52.229	0.101
178.700	48.941	0.101
178.800	41.550	0.101
178.900	52.447	0.101
179.000	30.689	0.101
179.100	38.933	0.101
179.200	46.645	0.101
179.300	44.417	0.101
179.400	33.895	0.101
179.500	55.485	0.101
179.600	42.332	0.101
179.700	38.450	0.101
179.800	59.439	0.101
179.900	33.201	0.101
180.000	40.069	0.101
180.100	35.907	0.101
180.200	39.818	0.101
180.300	39.423	0.101
180.400	33.113	0.101
180.500	30.495	0.101
180.600	28.210	0.101
180.700	21.177	0.101
180.800	20.899	0.101
180.900	16.977	0.101
181.000	17.094	0.101
181.100	8.874	0.101
181.200	18.262	0.101
181.300	26.347	0.101
181.400	5.987	0.101
181.500	27.792	0.101
181.600	8.758	0.101
181.700	11.719	0.101
181.800	1.424	0.101
181.900	6.956	0.101
182.000	19.022	0.101
182.100	11.373	0.101
182.200	-1.472	0.101
182.300	11.350	0.101
182.400	-1.578	0.101
182.500	-2.241	0.101
182.600	0.710	0.101
182.700	-4.878	0.101
182.800	-1.101	0.101
182.900	-9.169	0.101
183.000	-13.739	0.101
183.100	-6.681	0.101
183.200	-10.304	0.101
183.300	-11.281	0.101
183.400	-4.713	0.101
183.500	-10.493	0.101
183.600	-13.556	0.101
183.700	-12.225	0.101
183.800	-8.995	0.101
183.900	4.066	0.101
184.000	0.634	0.101
184.100	-32.804	0.101
184.200	-23.764	0.101
184.300	-16.259	0.101
184.400	-17.940	0.101
184.500	-17.963	0.101
184.600	-32.767	0.101
184.700	-13.392	0.101
184.800	-18.656	0.101
184.900	-14.398	0.101
185.000	-24.400	0.101
185.100	-16.414	0.101
185.200	-34.191	0.101
185.300	-21.007	0.101
185.400	-21.377	0.101
185.500	-12.611	0.101
185.600	-38.186	0.101
185.700	-29.306	0.101
185.800	-27.253	0.101
185.900	-29.846	0.101
186.000	-20.075	0.101
186.100	-34.328	0.101
186.200	-26.086	0.101
186.300	-2.974	0.101
186.400	-29.119	0.101
186.500	-20.677	0.101
186.600	-17.477	0.101
186.700	-28.957	0.101
186.800	-25.322	0.101
186.900	-14.609	0.101
187.000	-26.629	0.101
187.100	-18.834	0.101
187.200	-17.491	0.101
187.300	-19.734	0.101
187.400	-18.946	0.101
187.500	-9.202	0.101
187.600	-18.811	0.101
187.700	-26.690	0.101
187.800	-19.495	0.101
187.900	-10.164	0.101
188.000	-30.161	0.101
188.100	-22.480	0.101
188.200	-8.883	0.101
188.300	-20.801	0.101
188.400	-23.644	0.101
188.500	-11.826	0.101
188.600	-20.224	0.101
188.700	-7.061	0.101
188.800	-19.562	0.101
188.900	-11.022	0.101
189.000	-7.708	0.101
189.100	-18.748	0.101
189.200	-17.550	0.101
189.300	-18.321	0.101
189.400	-15.748	0.101
189.500	-8.101	0.101
189.600	-8.547	0.101
189.700	-19.510	0.101
189.800	-16.298	0.101
189.900	-17.438	0.101
190.000	-5.396	0.101
190.100	-1.153	0.101
190.200	-6.967	0.101
190.300	-31.989	0.101
190.400	-6.803	0.101
190.500	-13.271	0.101
190.600	-4.638	0.101
190.700	-0.559	0.101
190.800	-12.746	0.101
190.900	-12.506	0.101
191.000	-18.472	0.101
191.100	-18.286	0.101
191.200	-4.782	0.101
191.300	-10.334	0.101
191.400	-5.685	0.101
191.500	-4.626	0.101
191.600	-5.275	0.101
191.700	-2.426	0.101
191.800	-10.004	0.101
191.900	-30.496	0.101
192.000	-12.380	0.101
192.100	4.420	0.101
192.200	-4.004	0.101
192.300	0.194	0.101
192.400	-10.917	0.101
192.500	-7.700	0.101
192.600	-16.222	0.101
192.700	-6.759	0.101
192.800	-19.158	0.101
192.900	-7.730	0.101
193.000	-23.930	0.101
193.100	-5.932	0.101
193.200	-11.317	0.101
193.300	-16.563	0.101
193.400	-4.765	0.101
193.500	-12.009	0.101
193.600	-9.470	0.101
193.700	-9.882	0.101
193.800	-10.132	0.101
193.900	-19.773	0.101
194.000	-1.223	0.101
194.100	-7.803	0.101
194.200	-14.316	0.101
194.300	-8.366	0.101
194.400	-7.586	0.101
194.500	12.798	0.101
194.600	8.573	0.101
194.700	-12.667	0.101
194.800	-18.152	0.101
194.900	-0.223	0.101
195.000	-3.372	0.101
195.100	-17.050	0.101
195.200	-19.801	0.101
195.300	-15.513	0.101
195.400	4.211	0.101
195.500	-13.518	0.101
195.600	-1.980	0.101
195.700	-16.153	0.101
195.800	-7.890	0.101
195.900	-7.894	0.101
196.000	-9.916	0.101
196.100	7.193	0.101
196.200	-1.045	0.101
196.300	-15.126	0.101
196.400	5.202	0.101
196.500	-4.738	0.101
196.600	0.093	0.101
196.700	-1.918	0.101
196.800	-3.180	0.101
196.900	-13.952	0.101
197.000	-2.348	0.101
197.100	-12.226	0.101
197.200	-18.001	0.101
197.300	-10.677	0.101
197.400	-4.918	0.101
197.500	-0.886	0.101
197.600	-13.028	0.101
197.700	-8.581	0.101
197.800	-19.240	0.101
197.900	0.730	0.101
198.000	2.714	0.101
198.100	4.995	0.101
198.200	-12.651	0.101
198.300	-8.186	0.101
198.400	-12.855	0.101
198.500	-11.713	0.101
198.600	10.696	0.101
198.700	-21.982	0.101
198.800	-12.450	0.101
198.900	-15.627	0.101
199.000	-12.035	0.101
199.100	-5.035	0.101
199.200	-9.987	0.101
199.300	3.397	0.101
199.400	4.945	0.101
199.500	-9.353	0.101
199.600	-8.623	0.101
199.700	-22.673	0.101
199.800	-9.144	0.101
199.900	1.235	0.101
200.000	-15.097	0.101
200.100	-4.041	0.101
200.200	-0.408	0.101
200.300	-3.181	0.101
200.400	-3.435	0.101
200.500	-15.849	0.101
200.600	-7.300	0.101
200.700	-10.207	0.101
200.800	1.060	0.101
200.900	-15.074	0.101
201.000	-19.010	0.101
201.100	-11.482	0.101
201.200	9.843	0.101
201.300	-6.939	0.101
201.400	-16.360	0.101
201.500	-0.503	0.101
201.600	-9.308	0.101
201.700	-17.895	0.101
201.800	-5.743	0.101
201.900	-11.158	0.101
202.000	-4.910	0.101
202.100	-2.146	0.101
202.200	-2.526	0.101
202.300	-10.213	0.101
202.400	0.613	0.101
202.500	-9.303	0.101
202.600	0.890	0.101
202.700	-9.482	0.101
202.800	-13.497	0.101
202.900	-14.009	0.101
203.000	-9.673	0.101
203.100	-11.525	0.101
203.200	4.974	0.101
203.300	-15.944	0.101
203.400	-18.397	0.101
203.500	-18.108	0.101
203.600	-4.686	0.101
203.700	1.405	0.101
203.800	-12.457	0.101
203.900	-7.583	0.101
204.000	-8.355	0.101
204.100	0.328	0.101
204.200	-10.846	0.101
204.300	-10.081	0.101
204.400	-7.107	0.101
204.500	-2.550	0.101
204.600	-4.467	0.101
204.700	-21.390	0.101
204.800	-4.737	0.101
204.900	-17.773	0.101
205.000	-7.404	0.101
205.100	-10.145	0.101
205.200	0.125	0.101
205.300	-6.365	0.101
205.400	-18.974	0.101
205.500	-15.100	0.101
205.600	-3.769	0.101
205.700	-14.298	0.101
205.800	-10.491	0.101
205.900	-6.046	0.101
206.000	-19.576	0.101
206.100	2.035	0.101
206.200	-5.086	0.101
206.300	-12.807	0.101
206.400	-11.871	0.101
206.500	-3.609	0.101
206.600	-12.066	0.101
206.700	-12.269	0.101
206.800	-3.472	0.101
206.900	-12.301	0.101
207.000	-14.336	0.101
207.100	-7.914	0.101
207.200	-6.444	0.101
207.300	-12.183	0.101
207.400	-2.555	0.101
207.500	-2.035	0.101
207.600	-17.790	0.101
207.700	-19.620	0.101
207.800	-13.644	0.101
207.900	-2.565	0.101
208.000	-13.116	0.101
208.100	1.378	0.101
208.200	-7.408	0.101
208.300	-16.354	0.101
208.400	-10.229	0.101
208.500	-23.317	0.101
208.600	-4.672	0.101
208.700	-20.492	0.101
208.800	-6.928	0.101
208.900	-5.770	0.101
209.000	-9.664	0.101
209.100	-20.116	0.101
209.200	-9.098	0.101
209.300	-5.583	0.101
209.400	-9.971	0.101
209.500	-1.052	0.101
209.600	-5.936	0.101
209.700	-19.418	0.101
209.800	-10.152	0.101
209.900	-10.974	0.101
210.000	-16.428	0.101
210.100	-7.949	0.101
210.200	-17.478	0.101
210.300	-12.912	0.101
210.400	-5.304	0.101
210.500	-8.309	0.101
210.600	-18.381	0.101
210.700	-14.356	0.101
210.800	-12.070	0.101
210.900	-12.470	0.101
211.000	-13.537	0.101
211.100	3.227	0.101
211.200	-5.299	0.101
211.300	-10.516	0.101
211.400	-15.833	0.101
211.500	-11.770	0.101
211.600	-10.117	0.101
211.700	-15.394	0.101
211.800	-19.606	0.101
211.900	0.604	0.101
212.000	-9.353	0.101
212.100	-26.955	0.101
212.200	-3.277	0.101
212.300	-6.257	0.101
212.400	-11.889	0.101
212.500	-15.278	0.101
212.600	-12.536	0.101
212.700	-10.717	0.101
212.800	-7.986	0.101
212.900	-19.235	0.101
213.000	-21.189	0.101
213.100	-7.263	0.101
213.200	-14.795	0.101
213.300	-5.396	0.101
213.400	-11.761	0.101
213.500	-5.684	0.101
213.600	-23.863	0.101
213.700	-11.130	0.101
213.800	-19.160	0.101
213.900	-17.757	0.101
214.000	-8.318	0.101
214.100	-23.127	0.101
214.200	-9.428	0.101
214.300	-20.562	0.101
214.400	-5.010	0.101
214.500	-5.749	0.101
214.600	-22.657	0.101
214.700	-7.705	0.101
214.800	-14.873	0.101
214.900	0.209	0.101
215.000	-15.955	0.101
215.100	-12.041	0.101
215.200	-9.366	0.101
215.300	-9.797	0.101
215.400	-8.839	0.101
215.500	-19.070	0.101
215.600	-0.459	0.101
215.700	-18.356	0.101
215.800	-22.210	0.101
215.900	-2.137	0.101
216.000	-10.484	0.101
216.100	-21.405	0.101
216.200	-13.376	0.101
216.300	-14.466	0.101
216.400	-12.878	0.101
216.500	-22.305	0.101
216.600	-29.035	0.101
216.700	-0.705	0.101
216.800	-6.158	0.101
216.900	-6.759	0.101
217.000	-7.707	0.101
217.100	-14.853	0.101
217.200	-17.264	0.101
217.300	-8.286	0.101
217.400	-35.505	0.101
217.500	-19.214	0.101
217.600	-15.052	0.101
217.700	-10.238	0.101
217.800	-16.355	0.101
217.900	-12.218	0.101
218.000	-16.530	0.101
218.100	-10.434	0.101
218.200	-4.047	0.101
218.300	-0.896	0.101
218.400	-18.384	0.101
218.500	-12.252	0.101
218.600	-14.901	0.101
218.700	-6.189	0.101
218.800	-12.648	0.101
218.900	-11.399	0.101
219.000	-22.227	0.101
219.100	-10.336	0.101
219.200	-14.902	0.101
219.300	-9.872	0.101
219.400	-24.181	0.101
219.500	-22.217	0.101
219.600	-6.874	0.101
219.700	-8.568	0.101
219.800	-21.875	0.101
219.900	-5.463	0.101
220.000	-10.823	0.101
220.100	-16.467	0.101
220.200	-8.264	0.101
220.300	-25.166	0.101
220.400	-21.341	0.101
220.500	-24.467	0.101
220.600	-20.440	0.101
220.700	-19.356	0.101
220.800	-13.434	0.101
220.900	-14.088	0.101
221.000	-13.117	0.101
221.100	-8.707	0.101
221.200	-9.943	0.101
221.300	-3.721	0.101
221.400	-14.744	0.101
221.500	-19.120	0.101
221.600	-7.373	0.101
221.700	-26.333	0.101
221.800	-16.185	0.101
221.900	-10.631	0.101
222.000	-24.072	0.101
222.100	-1.975	0.101
222.200	-28.823	0.101
222.300	-15.283	0.101
222.400	-21.483	0.101
222.500	-19.106	0.101
222.600	-10.214	0.101
222.700	-12.356	0.101
222.800	-24.162	0.101
222.900	-14.461	0.101
223.000	-3.242	0.101
223.100	-4.564	0.101
223.200	-24.422	0.101
223.300	-14.732	0.101
223.400	-3.655	0.101
223.500	-10.860	0.101
223.600	-10.538	0.101
223.700	-20.210	0.101
223.800	-10.000	0.101
223.900	-23.639	0.101
224.000	-11.956	0.101
224.100	0.304	0.101
224.200	-22.560	0.101
224.300	-20.439	0.101
224.400	-11.031	0.101
224.500	-8.217	0.101
224.600	-19.134	0.101
224.700	-16.204	0.101
224.800	-12.772	0.101
224.900	-19.115	0.101
225.000	-16.484	0.101
225.100	-21.196	0.101
225.200	-6.970	0.101
225.300	-19.505	0.101
225.400	-4.689	0.101
225.500	-18.736	0.101
225.600	-12.798	0.101
225.700	-9.596	0.101
225.800	-14.190	0.101
225.900	-6.777	0.101
226.000	-26.094	0.101
226.100	-33.570	0.101
226.200	0.816	0.101
226.300	-13.224	0.101
226.400	-7.248	0.101
226.500	-30.027	0.101
226.600	-14.878	0.101
226.700	-10.182	0.101
226.800	-20.728	0.101
226.900	-9.563	0.101
227.000	-11.562	0.101
227.100	-10.155	0.101
227.200	-9.627	0.101
227.300	-19.424	0.101
227.400	-25.273	0.101
227.500	-17.119	0.101
227.600	-24.752	0.101
227.700	-25.629	0.101
227.800	-6.289	0.101
227.900	-20.812	0.101
228.000	-6.129	0.101
228.100	-9.347	0.101
228.200	6.808	0.101
228.300	-24.937	0.101
228.400	-21.234	0.101
228.500	-23.838	0.101
228.600	-15.420	0.101
228.700	-3.918	0.101
228.800	-14.938	0.101
228.900	-16.849	0.101
229.000	-13.908	0.101
229.100	-14.576	0.101
229.200	-5.773	0.101
229.300	-23.029	0.101
229.400	-25.147	0.101
229.500	-17.835	0.101
229.600	-13.331	0.101
229.700	-9.760	0.101
229.800	7.018	0.101
229.900	-17.871	0.101
230.000	-20.004	0.101
230.100	-19.906	0.101
230.200	0.138	0.101
230.300	-10.607	0.101
230.400	-4.218	0.101
230.500	-9.007	0.101
230.600	-27.069	0.101
230.700	-8.887	0.101
230.800	1.164	0.101
230.900	-20.319	0.101
231.000	-17.375	0.101
231.100	-5.089	0.101
231.200	-9.381	0.101
231.300	-11.323	0.101
231.400	-13.476	0.101
231.500	-17.249	0.101
231.600	-20.873	0.101
231.700	-14.544	0.101
231.800	1.083	0.101
231.900	-16.682	0.101
232.000	-25.883	0.101
232.100	-26.372	0.101
232.200	-7.821	0.101
232.300	-9.685	0.101
232.400	-14.398	0.101
232.500	-15.370	0.101
232.600	-15.377	0.101
232.700	-20.961	0.101
232.800	-14.645	0.101
232.900	-11.423	0.101
233.000	-14.483	0.101
233.100	-3.735	0.101
233.200	-27.961	0.101
233.300	-21.739	0.101
233.400	-16.655	0.101
233.500	-10.898	0.101
233.600	-17.024	0.101
233.700	-26.767	0.101
233.800	0.652	0.101
233.900	-14.184	0.101
234.000	-22.892	0.101
234.100	-29.411	0.101
234.200	-17.779	0.101
234.300	-13.839	0.101
234.400	1.106	0.101
234.500	-31.909	0.101
234.600	-17.406	0.101
234.700	-20.840	0.101
234.800	-4.117	0.101
234.900	-9.664	0.101
235.000	-15.045	0.101
235.100	-19.589	0.101
235.200	-16.799	0.101
235.300	-12.557	0.101
235.400	-12.712	0.101
235.500	-10.171	0.101
235.600	-18.711	0.101
235.700	-2.382	0.101
235.800	-8.193	0.101
235.900	-19.134	0.101
236.000	-6.447	0.101
236.100	-15.275	0.101
236.200	-9.601	0.101
236.300	-8.752	0.101
236.400	-16.884	0.101
236.500	-1.049	0.101
236.600	-10.153	0.101
236.700	-7.337	0.101
236.800	-19.013	0.101
236.900	-21.492	0.101
237.000	-16.001	0.101
237.100	-10.076	0.101
237.200	-5.758	0.101
237.300	-4.994	0.101
237.400	-16.948	0.101
237.500	-14.154	0.101
237.600	-14.407	0.101
237.700	-17.471	0.101
237.800	-16.483	0.101
237.900	-7.713	0.101
238.000	-22.479	0.101
238.100	-6.073	0.101
238.200	-19.174	0.101
238.300	-9.120	0.101
238.400	-5.691	0.101
238.500	-14.196	0.101
238.600	-8.156	0.101
238.700	-18.487	0.101
238.800	-5.381	0.101
238.900	-26.373	0.101
239.000	-12.178	0.101
239.100	-8.590	0.101
239.200	-4.685	0.101
239.300	-15.889	0.101
239.400	-28.082	0.101
239.500	-8.558	0.101
239.600	-22.733	0.101
239.700	1.760	0.101
239.800	-8.062	0.101
239.900	-14.491	0.101
240.000	-19.503	0.101
240.100	-16.141	0.101
240.200	-8.026	0.101
240.300	0.046	0.101
240.400	-13.664	0.101
240.500	-15.020	0.101
240.600	-12.083	0.101
240.700	-22.756	0.101
240.800	-26.202	0.101
240.900	-5.051	0.101
241.000	-9.183	0.101
241.100	-4.248	0.101
241.200	-20.758	0.101
241.300	-7.116	0.101
241.400	-16.220	0.101
241.500	-14.619	0.101
241.600	-14.770	0.101
241.700	-15.917	0.101
241.800	-5.581	0.101
241.900	-10.698	0.101
242.000	-9.618	0.101
242.100	-4.449	0.101
242.200	-12.148	0.101
242.300	-12.506	0.101
242.400	-8.784	0.101
242.500	-19.348	0.101
242.600	-22.098	0.101
242.700	-11.918	0.101
242.800	-4.007	0.101
242.900	-17.929	0.101
243.000	-10.562	0.101
243.100	-9.593	0.101
243.200	-19.708	0.101
243.300	-9.963	0.101
243.400	-9.391	0.101
243.500	-24.936	0.101
243.600	-20.668	0.101
243.700	-8.520	0.101
243.800	-16.883	0.101
243.900	-8.031	0.101
244.000	-24.106	0.101
244.100	-22.149	0.101
244.200	-15.967	0.101
244.300	-19.351	0.101
244.400	-27.559	0.101
244.500	-15.234	0.101
244.600	-10.256	0.101
244.700	-11.430	0.101
244.800	-4.973	0.101
244.900	-13.828	0.101
245.000	-14.859	0.101
245.100	-12.805	0.101
245.200	-8.620	0.101
245.300	-1.868	0.101
245.400	-19.570	0.101
245.500	-18.509	0.101
245.600	-20.544	0.101
245.700	0.501	0.101
245.800	-5.542	0.101
245.900	-18.593	0.101
246.000	-16.566	0.101
246.100	-11.895	0.101
246.200	-13.305	0.101
246.300	-16.608	0.101
246.400	-8.378	0.101
246.500	-4.515	0.101
246.600	-6.778	0.101
246.700	-26.987	0.101
246.800	-15.483	0.101
246.900	-10.755	0.101
247.000	-10.726	0.101
247.100	-18.012	0.101
247.200	-19.144	0.101
247.300	-16.410	0.101
247.400	-8.240	0.101
247.500	-7.946	0.101
247.600	-8.629	0.101
247.700	-9.171	0.101
247.800	-27.860	0.101
247.900	-15.500	0.101
248.000	-12.434	0.101
248.100	-7.223	0.101
248.200	-11.587	0.101
248.300	-18.098	0.101
248.400	-23.352	0.101
248.500	-11.520	0.101
248.600	-13.123	0.101
248.700	-14.967	0.101
248.800	-14.953	0.101
248.900	-8.051	0.101
249.000	-10.985	0.101
249.100	-15.292	0.101
249.200	-0.710	0.101
249.300	-2.136	0.101
249.400	-1.616	0.101
249.500	-1.777	0.101
249.600	-13.615	0.101
249.700	-17.699	0.101
249.800	-28.741	0.101
249.900	-13.097	0.101
250.000	-9.482	0.101
250.100	-23.037	0.101
250.200	-8.938	0.101
250.300	-9.067	0.101
250.400	-12.425	0.101
250.500	-19.263	0.101
250.600	-9.986	0.101
250.700	-17.480	0.101
250.800	-6.466	0.101
250.900	-21.406	0.101
251.000	-16.579	0.101
251.100	-12.211	0.101
251.200	-11.212	0.101
251.300	3.278	0.101
251.400	-25.438	0.101
251.500	-1.444	0.101
251.600	-8.619	0.101
251.700	-9.712	0.101
251.800	-14.442	0.101
251.900	-14.337	0.101
252.000	-10.090	0.101
252.100	-7.998	0.101
252.200	-16.265	0.101
252.300	-13.709	0.101
252.400	-16.642	0.101
252.500	-12.670	0.101
252.600	1.348	0.101
252.700	-22.067	0.101
252.800	-6.482	0.101
252.900	-5.971	0.101
253.000	-20.935	0.101
253.100	-2.618	0.101
253.200	-6.124	0.101
253.300	-13.328	0.101
253.400	2.576	0.101
253.500	-16.838	0.101
253.600	1.164	0.101
253.700	-8.520	0.101
253.800	-9.400	0.101
253.900	-24.614	0.101
254.000	-20.292	0.101
254.100	-23.336	0.101
254.200	-20.264	0.101
254.300	-10.946	0.101
254.400	-23.735	0.101
254.500	-11.944	0.101
254.600	-10.049	0.101
254.700	-14.640	0.101
254.800	-2.290	0.101
254.900	-18.546	0.101
255.000	-12.721	0.101
255.100	-8.466	0.101
255.200	-16.913	0.101
255.300	-7.630	0.101
255.400	-7.416	0.101
255.500	-14.288	0.101
255.600	-7.688	0.101
255.700	-17.904	0.101
255.800	-30.329	0.101
255.900	-10.880	0.101
256.000	-13.876	0.101
256.100	-15.290	0.101
256.200	-9.841	0.101
256.300	-10.486	0.101
256.400	-20.745	0.101
256.500	-22.235	0.101
256.600	-9.452	0.101
256.700	-11.517	0.101
256.800	-15.127	0.101
256.900	-27.431	0.101
257.000	-13.098	0.101
257.100	-23.279	0.101
257.200	-2.057	0.101
257.300	-15.023	0.101
257.400	-15.989	0.101
257.500	1.116	0.101
257.600	-3.667	0.101
257.700	-13.743	0.101
257.800	-24.514	0.101
257.900	-19.416	0.101
258.000	-9.056	0.101
258.100	0.933	0.101
258.200	-10.766	0.101
258.300	-21.599	0.101
258.400	-15.166	0.101
258.500	-2.768	0.101
258.600	-10.594	0.101
258.700	-26.976	0.101
258.800	-26.485	0.101
258.900	-10.635	0.101
259.000	-12.389	0.101
259.100	-16.920	0.101
259.200	-16.257	0.101
259.300	-12.631	0.101
259.400	-24.741	0.101
259.500	-8.489	0.101
259.600	-20.788	0.101
259.700	-6.193	0.101
259.800	-4.351	0.101
259.900	-19.877	0.101
260.000	-9.013	0.101
260.100	-29.457	0.101
260.200	0.122	0.101
260.300	-25.442	0.101
260.400	-3.398	0.101
260.500	-5.733	0.101
260.600	-18.720	0.101
260.700	-11.909	0.101
260.800	-10.211	0.101
260.900	-20.358	0.101
261.000	-19.683	0.101
261.100	-14.478	0.101
261.200	-3.640	0.101
261.300	-27.553	0.101
261.400	-16.188	0.101
261.500	-6.228	0.101
261.600	-4.146	0.101
261.700	-13.883	0.101
261.800	-19.592	0.101
261.900	-5.256	0.101
262.000	-16.679	0.101
262.100	-16.372	0.101
262.200	-25.999	0.101
262.300	-13.270	0.101
262.400	-12.486	0.101
262.500	-12.516	0.101
262.600	-20.700	0.101
262.700	-21.103	0.101
262.800	-13.665	0.101
262.900	-11.041	0.101
263.000	-5.556	0.101
263.100	-21.541	0.101
263.200	-20.721	0.101
263.300	-21.933	0.101
263.400	-7.927	0.101
263.500	-6.679	0.101
263.600	-27.633	0.101
263.700	-0.357	0.101
263.800	-10.116	0.101
263.900	-10.326	0.101
264.000	-8.785	0.101
264.100	-14.610	0.101
264.200	-14.314	0.101
264.300	-30.429	0.101
264.400	-23.781	0.101
264.500	-5.826	0.101
264.600	-23.946	0.101
264.700	-8.492	0.101
264.800	-11.725	0.101
264.900	-13.292	0.101
265.000	-13.432	0.101
265.100	1.220	0.101
265.200	-4.711	0.101
265.300	-21.800	0.101
265.400	-23.916	0.101
265.500	-11.672	0.101
265.600	-17.215	0.101
265.700	-15.604	0.101
265.800	-8.106	0.101
265.900	-12.339	0.101
266.000	-7.448	0.101
266.100	-6.411	0.101
266.200	-11.217	0.101
266.300	-22.333	0.101
266.400	-22.524	0.101
266.500	-24.009	0.101
266.600	-5.520	0.101
266.700	5.465	0.101
266.800	-13.219	0.101
266.900	-17.217	0.101
267.000	-23.794	0.101
267.100	-21.032	0.101
267.200	-4.014	0.101
267.300	-13.332	0.101
267.400	-14.909	0.101
267.500	-17.627	0.101
267.600	-17.919	0.101
267.700	-27.375	0.101
267.800	-6.819	0.101
267.900	-6.545	0.101
268.000	-23.408	0.101
268.100	-13.682	0.101
268.200	-9.479	0.101
268.300	-11.943	0.101
268.400	-10.986	0.101
268.500	-9.322	0.101
268.600	-7.158	0.101
268.700	-5.605	0.101
268.800	-25.773	0.101
268.900	-26.149	0.101
269.000	-13.447	0.101
269.100	-14.257	0.101
269.200	-12.040	0.101
269.300	-6.536	0.101
269.400	-22.124	0.101
269.500	-20.010	0.101
269.600	-15.448	0.101
269.700	-9.545	0.101
269.800	-9.864	0.101
269.900	-14.313	0.101
270.000	-8.290	0.101
270.100	-14.420	0.101
270.200	-14.779	0.101
270.300	-14.802	0.101
270.400	-6.758	0.101
270.500	-9.037	0.101
270.600	2.180	0.101
270.700	11.005	0.101
270.800	13.128	0.101
270.900	14.796	0.101
271.000	6.743	0.101
271.100	-4.819	0.101
271.200	16.063	0.101
271.300	12.754	0.101
271.400	6.029	0.101
271.500	21.695	0.101
271.600	15.778	0.101
271.700	13.596	0.101
271.800	16.652	0.101
271.900	25.618	0.101
272.000	21.234	0.101
272.100	15.732	0.101
272.200	27.121	0.101
272.300	24.092	0.101
272.400	1.813	0.101
272.500	26.811	0.101
272.600	26.136	0.101
272.700	23.259	0.101
272.800	14.982	0.101
272.900	21.993	0.101
273.000	25.270	0.101
273.100	23.068	0.101
273.200	22.226	0.101
273.300	30.455	0.101
273.400	18.432	0.101
273.500	9.725	0.101
273.600	13.524	0.101
273.700	25.919	0.101
273.800	8.437	0.101
273.900	29.303	0.101
274.000	28.265	0.101
274.100	16.461	0.101
274.200	13.740	0.101
274.300	28.652	0.101
274.400	31.873	0.101
274.500	22.909	0.101
274.600	11.435	0.101
274.700	10.042	0.101
274.800	22.573	0.101
274.900	16.154	0.101
275.000	9.298	0.101
275.100	30.763	0.101
275.200	26.288	0.101
275.300	7.173	0.101
275.400	23.908	0.101
275.500	24.521	0.101
275.600	16.167	0.101
275.700	14.689	0.101
275.800	17.066	0.101
275.900	16.770	0.101
276.000	21.600	0.101
276.100	7.600	0.101
276.200	17.798	0.101
276.300	28.590	0.101
276.400	16.332	0.101
276.500	19.101	0.101
276.600	18.771	0.101
276.700	23.589	0.101
276.800	26.372	0.101
276.900	17.188	0.101
277.000	0.624	0.101
277.100	19.266	0.101
277.200	19.566	0.101
277.300	31.223	0.101
277.400	19.000	0.101
277.500	30.006	0.101
277.600	28.329	0.101
277.700	38.786	0.101
277.800	15.463	0.101
277.900	20.284	0.101
278.000	28.457	0.101
278.100	18.533	0.101
278.200	16.338	0.101
278.300	35.482	0.101
278.400	29.172	0.101
278.500	33.225	0.101
278.600	23.765	0.101
278.700	27.622	0.101
278.800	36.612	0.101
278.900	19.666	0.101
279.000	30.323	0.101
279.100	25.127	0.101
279.200	40.442	0.101
279.300	36.399	0.101
279.400	43.176	0.101
279.500	23.903	0.101
279.600	34.162	0.101
279.700	30.442	0.101
279.800	36.373	0.101
279.900	22.726	0.101
280.000	38.571	0.101
280.100	35.678	0.101
280.200	59.951	0.101
280.300	50.174	0.101
280.400	26.304	0.101
280.500	31.274	0.101
280.600	33.838	0.101
280.700	44.123	0.101
280.800	44.655	0.101
280.900	41.419	0.101
281.000	42.713	0.101
281.100	46.038	0.101
281.200	49.011	0.101
281.300	44.701	0.101
281.400	33.590	0.101
281.500	50.995	0.101
281.600	43.847	0.101
281.700	47.963	0.101
281.800	42.322	0.101
281.900	47.975	0.101
282.000	36.381	0.101
282.100	47.487	0.101
282.200	44.372	0.101
282.300	44.517	0.101
282.400	39.723	0.101
282.500	57.345	0.101
282.600	38.014	0.101
282.700	46.537	0.101
282.800	37.582	0.101
282.900	59.521	0.101
283.000	57.985	0.101
283.100	46.654	0.101
283.200	52.299	0.101
283.300	43.067	0.101
283.400	48.989	0.101
283.500	48.279	0.101
283.600	44.947	0.101
283.700	41.144	0.101
283.800	63.467	0.101
283.900	69.960	0.101
284.000	51.953	0.101
284.100	64.593	0.101
284.200	59.148	0.101
284.300	58.272	0.101
284.400	60.460	0.101
284.500	43.290	0.101
284.600	55.518	0.101
284.700	57.399	0.101
284.800	51.852	0.101
284.900	53.680	0.101
285.000	49.620	0.101
285.100	66.512	0.101
285.200	48.154	0.101
285.300	50.176	0.101
285.400	58.683	0.101
285.500	67.547	0.101
285.600	52.324	0.101
285.700	44.843	0.101
285.800	69.626	0.101
285.900	46.626	0.101
286.000	47.891	0.101
286.100	55.098	0.101
286.200	65.792	0.101
286.300	58.707	0.101
286.400	46.659	0.101
286.500	54.076	0.101
286.600	51.168	0.101
286.700	62.113	0.101
286.800	45.960	0.101
286.900	51.964	0.101
287.000	51.380	0.101
287.100	48.299	0.101
287.200	46.802	0.101
287.300	45.410	0.101
287.400	57.220	0.101
287.500	63.731	0.101
287.600	54.033	0.101
287.700	41.182	0.101
287.800	43.595	0.101
287.900	62.790	0.101
288.000	46.985	0.101
288.100	48.553	0.101
288.200	59.929	0.101
288.300	47.676	0.101
288.400	62.843	0.101
288.500	55.648	0.101
288.600	50.601	0.101
288.700	50.294	0.101
288.800	63.389	0.101
288.900	38.325	0.101
289.000	51.861	0.101
289.100	66.567	0.101
289.200	56.850	0.101
289.300	45.698	0.101
289.400	51.480	0.101
289.500	47.216	0.101
289.600	60.814	0.101
289.700	54.526	0.101
289.800	54.290	0.101
289.900	50.370	0.101
290.000	47.118	0.101
290.100	42.014	0.101
290.200	54.059	0.101
290.300	58.645	0.101
290.400	54.102	0.101
290.500	46.745	0.101
290.600	50.958	0.101
290.700	45.941	0.101
290.800	58.977	0.101
290.900	55.766	0.101
291.000	60.913	0.101
291.100	44.461	0.101
291.200	46.594	0.101
291.300	63.966	0.101
291.400	41.005	0.101
291.500	54.386	0.101
291.600	36.297	0.101
291.700	51.014	0.101
291.800	65.132	0.101
291.900	50.443	0.101
292.000	46.686	0.101
292.100	52.029	0.101
292.200	63.993	0.101
292.300	61.667	0.101
292.400	48.475	0.101
292.500	44.690	0.101
292.600	61.433	0.101
292.700	33.144	0.101
292.800	51.912	0.101
292.900	55.805	0.101
293.000	46.896	0.101
293.100	57.730	0.101
293.200	58.106	0.101
293.300	60.919	0.101
293.400	42.534	0.101
293.500	57.649	0.101
293.600	44.479	0.101
293.700	74.014	0.101
293.800	48.444	0.101
293.900	44.759	0.101
294.000	39.745	0.101
294.100	53.826	0.101
294.200	52.061	0.101
294.300	55.687	0.101
294.400	50.761	0.101
294.500	54.990	0.101
294.600	42.403	0.101
294.700	40.870	0.101
294.800	59.573	0.101
294.900	53.458	0.101
295.000	60.630	0.101
295.100	45.780	0.101
295.200	47.220	0.101
295.300	51.327	0.101
295.400	54.716	0.101
295.500	55.120	0.101
295.600	52.091	0.101
295.700	38.093	0.101
295.800	39.527	0.101
295.900	42.867	0.101
296.000	52.723	0.101
296.100	59.210	0.101
296.200	51.395	0.101
296.300	58.793	0.101
296.400	48.506	0.101
296.500	46.694	0.101
296.600	42.207	0.101
296.700	54.858	0.101
296.800	39.952	0.101
296.900	57.601	0.101
297.000	44.609	0.101
297.100	54.108	0.101
297.200	49.690	0.101
297.300	38.218	0.101
297.400	56.989	0.101
297.500	62.040	0.101
297.600	47.221	0.101
297.700	34.901	0.101
297.800	42.904	0.101
297.900	47.689	0.101
298.000	50.389	0.101
298.100	35.324	0.101
298.200	47.634	0.101
298.300	57.579	0.101
298.400	38.899	0.101
298.500	48.511	0.101
298.600	54.678	0.101
298.700	48.240	0.101
298.800	44.547	0.101
298.900	46.270	0.101
299.000	53.060	0.101
299.100	55.156	0.101
299.200	45.263	0.101
299.300	56.716	0.101
299.400	44.990	0.101
299.500	51.530	0.101
299.600	52.319	0.101
299.700	59.664	0.101
299.800	46.682	0.101
299.900	56.563	0.101
300.000	52.067	0.101
300.100	36.818	0.101
300.200	33.981	0.101
300.300	43.883	0.101
300.400	33.843	0.101
300.500	37.717	0.101
300.600	33.208	0.101
300.700	44.084	0.101
300.800	13.845	0.101
300.900	31.474	0.101
301.000	12.256	0.101
301.100	25.980	0.101
301.200	34.811	0.101
301.300	29.303	0.101
301.400	4.792	0.101
301.500	20.861	0.101
301.600	11.874	0.101
301.700	18.862	0.101
301.800	24.918	0.101
301.900	7.486	0.101
302.000	14.993	0.101
302.100	-1.108	0.101
302.200	4.855	0.101
302.300	11.492	0.101
302.400	11.134	0.101
302.500	10.668	0.101
302.600	8.405	0.101
302.700	4.690	0.101
302.800	-6.086	0.101
302.900	-2.197	0.101
303.000	12.420	0.101
303.100	-4.056	0.101
303.200	-1.891	0.101
303.300	9.500	0.101
303.400	-7.336	0.101
303.500	-2.300	0.101
303.600	-2.591	0.101
303.700	-8.362	0.101
303.800	-2.807	0.101
303.900	16.317	0.101
304.000	-8.713	0.101
304.100	-9.876	0.101
304.200	-12.022	0.101
304.300	-9.302	0.101
304.400	-18.604	0.101
304.500	-16.145	0.101
304.600	-10.582	0.101
304.700	-16.903	0.101
304.800	-17.294	0.101
304.900	-2.787	0.101
305.000	-12.577	0.101
305.100	-2.803	0.101
305.200	-25.891	0.101
305.300	-12.789	0.101
305.400	-27.465	0.101
305.500	-8.458	0.101
305.600	-8.593	0.101
305.700	-19.790	0.101
305.800	-14.533	0.101
305.900	-9.847	0.101
306.000	-18.538	0.101
306.100	-6.783	0.101
306.200	-17.278	0.101
306.300	-5.940	0.101
306.400	-2.177	0.101
306.500	-13.999	0.101
306.600	-9.453	0.101
306.700	-8.183	0.101
306.800	-15.115	0.101
306.900	-15.845	0.101
307.000	-16.959	0.101
307.100	-7.149	0.101
307.200	-7.874	0.101
307.300	-14.618	0.101
307.400	-2.006	0.101
307.500	-5.889	0.101
307.600	-11.950	0.101
307.700	-6.888	0.101
307.800	-11.150	0.101
307.900	0.656	0.101
308.000	-6.776	0.101
308.100	-6.282	0.101
308.200	13.475	0.101
308.300	-1.414	0.101
308.400	-12.635	0.101
308.500	-11.635	0.101
308.600	2.079	0.101
308.700	-6.031	0.101
308.800	2.119	0.101
308.900	-21.279	0.101
309.000	-19.385	0.101
309.100	-12.908	0.101
309.200	-4.513	0.101
309.300	-3.346	0.101
309.400	-9.686	0.101
309.500	-4.130	0.101
309.600	-7.952	0.101
309.700	-0.903	0.101
309.800	-2.199	0.101
309.900	-12.372	0.101
310.000	-13.465	0.101
310.100	-0.678	0.101
310.200	-3.247	0.101
310.300	7.598	0.101
310.400	-2.666	0.101
310.500	-1.015	0.101
310.600	-11.665	0.101
310.700	-5.252	0.101
310.800	0.350	0.101
310.900	-3.901	0.101
311.000	-4.862	0.101
311.100	-4.250	0.101
311.200	-9.750	0.101
311.300	-15.116	0.101
311.400	2.410	0.101
311.500	-13.369	0.101
311.600	-4.286	0.101
311.700	-4.489	0.101
311.800	4.989	0.101
311.900	-18.831	0.101
312.000	-9.091	0.101
312.100	-2.004	0.101
312.200	-4.893	0.101
312.300	-3.544	0.101
312.400	15.672	0.101
312.500	-2.442	0.101
312.600	-8.918	0.101
312.700	-10.485	0.101
312.800	0.940	0.101
312.900	-12.016	0.101
313.000	-7.268	0.101
313.100	16.131	0.101
313.200	0.919	0.101
313.300	-2.889	0.101
313.400	-1.789	0.101
313.500	-8.640	0.101
313.600	-11.713	0.101
313.700	-4.928	0.101
313.800	-1.252	0.101
313.900	-11.649	0.101
314.000	-12.482	0.101
314.100	-3.312	0.101
314.200	7.957	0.101
314.300	10.956	0.101
314.400	6.687	0.101
314.500	-5.866	0.101
314.600	4.715	0.101
314.700	-12.215	0.101
314.800	-14.061	0.101
314.900	-4.214	0.101
315.000	-3.887	0.101
315.100	5.946	0.101
315.200	-5.277	0.101
315.300	-0.385	0.101
315.400	0.622	0.101
315.500	2.174	0.101
315.600	-4.097	0.101
315.700	-13.061	0.101
315.800	-6.595	0.101
315.900	-9.938	0.101
316.000	4.709	0.101
316.100	-2.293	0.101
316.200	-10.177	0.101
316.300	-3.654	0.101
316.400	-5.552	0.101
316.500	-4.904	0.101
316.600	0.296	0.101
316.700	-14.156	0.101
316.800	-4.598	0.101
316.900	-4.471	0.101
317.000	-3.572	0.101
317.100	-2.164	0.101
317.200	-14.630	0.101
317.300	-9.145	0.101
317.400	5.014	0.101
317.500	-4.887	0.101
317.600	2.098	0.101
317.700	-3.126	0.101
317.800	-7.628	0.101
317.900	-7.210	0.101
318.000	3.830	0.101
318.100	-11.203	0.101
318.200	-3.533	0.101
318.300	-11.238	0.101
318.400	0.928	0.101
318.500	-5.044	0.101
318.600	5.419	0.101
318.700	-11.078	0.101
318.800	-2.646	0.101
318.900	-13.638	0.101
319.000	0.127	0.101
319.100	-6.346	0.101
319.200	3.156	0.101
319.300	-9.664	0.101
319.400	-6.056	0.101
319.500	-13.345	0.101
319.600	-11.297	0.101
319.700	4.689	0.101
319.800	5.353	0.101
319.900	-2.500	0.101
320.000	3.609	0.101
320.100	-7.544	0.101
320.200	-15.490	0.101
320.300	-6.409	0.101
320.400	-3.432	0.101
320.500	-6.210	0.101
320.600	-5.843	0.101
320.700	-6.503	0.101
320.800	-15.702	0.101
320.900	-2.675	0.101
321.000	-20.569	0.101
321.100	-4.220	0.101
321.200	-5.252	0.101
321.300	-4.951	0.101
321.400	-12.064	0.101
321.500	-3.576	0.101
321.600	1.799	0.101
321.700	-8.125	0.101
321.800	4.455	0.101
321.900	-11.302	0.101
322.000	-14.790	0.101
322.100	-8.398	0.101
322.200	-12.980	0.101
322.300	-27.182	0.101
322.400	-8.046	0.101
322.500	-3.400	0.101
322.600	-9.409	0.101
322.700	2.175	0.101
322.800	-15.174	0.101
322.900	-8.568	0.101
323.000	-28.809	0.101
323.100	-16.464	0.101
323.200	1.958	0.101
323.300	-3.237	0.101
323.400	3.214	0.101
323.500	-4.748	0.101
323.600	-15.478	0.101
323.700	2.049	0.101
323.800	-8.702	0.101
323.900	-5.282	0.101
324.000	-13.465	0.101
324.100	-11.042	0.101
324.200	-3.456	0.101
324.300	1.064	0.101
324.400	-7.584	0.101
324.500	-22.082	0.101
324.600	-10.311	0.101
324.700	-1.402	0.101
324.800	-0.164	0.101
324.900	-12.245	0.101
325.000	-29.787	0.101
325.100	-6.274	0.101
325.200	-10.934	0.101
325.300	-3.771	0.101
325.400	-8.371	0.101
325.500	5.009	0.101
325.600	-11.086	0.101
325.700	-21.063	0.101
325.800	-14.014	0.101
325.900	-7.949	0.101
326.000	-15.883	0.101
326.100	0.066	0.101
326.200	-3.093	0.101
326.300	-15.609	0.101
326.400	-15.406	0.101
326.500	-7.781	0.101
326.600	-16.239	0.101
326.700	-6.739	0.101
326.800	-8.352	0.101
326.900	0.071	0.101
327.000	-7.384	0.101
327.100	-9.143	0.101
327.200	-13.821	0.101
327.300	-8.240	0.101
327.400	-12.243	0.101
327.500	-15.166	0.101
327.600	0.225	0.101
327.700	-15.401	0.101
327.800	-11.222	0.101
327.900	-15.421	0.101
328.000	-6.762	0.101
328.100	-15.478	0.101
328.200	-1.648	0.101
328.300	-13.587	0.101
328.400	-12.872	0.101
328.500	-7.571	0.101
328.600	-9.966	0.101
328.700	-16.399	0.101
328.800	-3.272	0.101
328.900	-16.996	0.101
329.000	-10.879	0.101
329.100	-7.342	0.101
329.200	-13.367	0.101
329.300	-19.342	0.101
329.400	-12.622	0.101
329.500	-16.792	0.101
329.600	-8.910	0.101
329.700	-5.485	0.101
329.800	-3.163	0.101
329.900	-13.413	0.101
330.000	-7.881	0.101
330.100	-14.194	0.101
330.200	0.600	0.101
330.300	-18.263	0.101
330.400	-12.736	0.101
330.500	-7.579	0.101
330.600	-16.718	0.101
330.700	-16.456	0.101
330.800	-13.458	0.101
330.900	-2.354	0.101
331.000	-15.229	0.101
331.100	-9.176	0.101
331.200	2.090	0.101
331.300	-17.312	0.101
331.400	-23.802	0.101
331.500	-17.069	0.101
331.600	-16.301	0.101
331.700	-14.773	0.101
331.800	-0.699	0.101
331.900	-5.233	0.101
332.000	-13.524	0.101
332.100	-20.896	0.101
332.200	-19.609	0.101
332.300	-3.070	0.101
332.400	1.679	0.101
332.500	-13.761	0.101
332.600	-13.589	0.101
332.700	-19.909	0.101
332.800	-10.651	0.101
332.900	-5.419	0.101
333.000	-15.791	0.101
333.100	-4.131	0.101
333.200	-16.510	0.101
333.300	-12.704	0.101
333.400	-12.315	0.101
333.500	-3.502	0.101
333.600	-23.868	0.101
333.700	-17.044	0.101
333.800	-22.080	0.101
333.900	-16.477	0.101
334.000	-10.841	0.101
334.100	-2.699	0.101
334.200	-17.658	0.101
334.300	-5.716	0.101
334.400	-16.103	0.101
334.500	-1.914	0.101
334.600	-22.696	0.101
334.700	-24.300	0.101
334.800	-20.109	0.101
334.900	-11.550	0.101
335.000	-19.373	0.101
335.100	-9.066	0.101
335.200	-9.160	0.101
335.300	-11.122	0.101
335.400	-10.922	0.101
335.500	-24.650	0.101
335.600	-10.472	0.101
335.700	-11.319	0.101
335.800	-8.678	0.101
335.900	-19.034	0.101
336.000	-19.596	0.101
336.100	-12.246	0.101
336.200	-13.666	0.101
336.300	-19.066	0.101
336.400	-19.796	0.101
336.500	-9.313	0.101
336.600	-12.369	0.101
336.700	-0.272	0.101
336.800	-16.181	0.101
336.900	-5.287	0.101
337.000	-21.727	0.101
337.100	-16.757	0.101
337.200	-12.329	0.101
337.300	1.121	0.101
337.400	-15.607	0.101
337.500	-21.099	0.101
337.600	-18.921	0.101
337.700	-18.779	0.101
337.800	-17.434	0.101
337.900	-13.905	0.101
338.000	-8.896	0.101
338.100	-17.377	0.101
338.200	-21.212	0.101
338.300	-18.392	0.101
338.400	-15.809	0.101
338.500	-23.487	0.101
338.600	-16.925	0.101
338.700	-9.752	0.101
338.800	-4.172	0.101
338.900	-23.627	0.101
339.000	-6.177	0.101
339.100	-12.681	0.101
339.200	-21.404	0.101
339.300	-6.414	0.101
339.400	-16.645	0.101
339.500	-23.994	0.101
339.600	-14.201	0.101
339.700	-22.335	0.101
339.800	-1.929	0.101
339.900	-14.827	0.101
340.000	-20.762	0.101
340.100	-12.871	0.101
340.200	-13.799	0.101
340.300	-29.947	0.101
340.400	-12.626	0.101
340.500	-16.575	0.101
340.600	-17.572	0.101
340.700	-6.182	0.101
340.800	-14.056	0.101
340.900	-27.681	0.101
341.000	-10.375	0.101
341.100	-5.755	0.101
341.200	-22.838	0.101
341.300	-13.019	0.101
341.400	-16.729	0.101
341.500	-20.381	0.101
341.600	-9.565	0.101
341.700	-22.268	0.101
341.800	-6.362	0.101
341.900	-15.185	0.101
342.000	-21.428	0.101
342.100	-14.742	0.101
342.200	-12.783	0.101
342.300	-15.679	0.101
342.400	-8.000	0.101
342.500	-20.891	0.101
342.600	-17.338	0.101
342.700	-17.689	0.101
342.800	-11.191	0.101
342.900	-15.252	0.101
343.000	-16.770	0.101
343.100	-18.447	0.101
343.200	-31.792	0.101
343.300	-16.449	0.101
343.400	-20.629	0.101
343.500	-15.369	0.101
343.600	-11.821	0.101
343.700	-23.594	0.101
343.800	-31.831	0.101
343.900	-33.849	0.101
344.000	-4.782	0.101
344.100	-7.126	0.101
344.200	-10.823	0.101
344.300	-16.800	0.101
344.400	-9.670	0.101
344.500	-1.964	0.101
344.600	-19.206	0.101
344.700	-12.710	0.101
344.800	-20.252	0.101
344.900	-24.918	0.101
345.000	-15.691	0.101
345.100	-2.659	0.101
345.200	-17.820	0.101
345.300	-22.363	0.101
345.400	-14.263	0.101
345.500	-17.262	0.101
345.600	-17.149	0.101
345.700	-22.505	0.101
345.800	-28.311	0.101
345.900	-4.524	0.101
346.000	-3.177	0.101
346.100	-15.600	0.101
346.200	-6.044	0.101
346.300	-17.500	0.101
346.400	-6.369	0.101
346.500	-18.296	0.101
346.600	-7.765	0.101
346.700	-13.198	0.101
346.800	-18.848	0.101
346.900	-11.183	0.101
347.000	1.142	0.101
347.100	-24.179	0.101
347.200	-7.540	0.101
347.300	-21.892	0.101
347.400	-25.708	0.101
347.500	-22.483	0.101
347.600	-16.349	0.101
347.700	-25.264	0.101
347.800	-46.091	0.101
347.900	-4.126	0.101
348.000	-15.166	0.101
348.100	-13.521	0.101
348.200	-5.519	0.101
348.300	-20.314	0.101
348.400	-26.374	0.101
348.500	-23.850	0.101
348.600	-10.375	0.101
348.700	-8.128	0.101
348.800	-9.499	0.101
348.900	-23.624	0.101
349.000	-13.678	0.101
349.100	-13.506	0.101
349.200	-11.899	0.101
349.300	-24.240	0.101
349.400	-8.574	0.101
349.500	-12.855	0.101
349.600	-20.209	0.101
349.700	-14.653	0.101
349.800	-15.825	0.101
349.900	-1.521	0.101
350.000	-16.815	0.101
350.100	-16.607	0.101
350.200	-10.861	0.101
350.300	-10.462	0.101
350.400	-10.263	0.101
350.500	-18.007	0.101
350.600	-22.751	0.101
350.700	-21.682	0.101
350.800	-11.449	0.101
350.900	-34.207	0.101
351.000	-17.172	0.101
351.100	-4.882	0.101
351.200	-14.562	0.101
351.300	-23.589	0.101
351.400	-23.131	0.101
351.500	-10.683	0.101
351.600	-26.817	0.101
351.700	-25.220	0.101
351.800	5.984	0.101
351.900	-8.781	0.101
352.000	-13.234	0.101
352.100	-16.398	0.101
352.200	-7.825	0.101
352.300	-13.113	0.101
352.400	-20.618	0.101
352.500	-5.837	0.101
352.600	-12.739	0.101
352.700	-8.273	0.101
352.800	-23.765	0.101
352.900	-13.972	0.101
353.000	-25.617	0.101
353.100	-23.459	0.101
353.200	-19.241	0.101
353.300	-10.868	0.101
353.400	-19.387	0.101
353.500	-17.230	0.101
353.600	-33.347	0.101
353.700	-13.555	0.101
353.800	-14.447	0.101
353.900	-32.791	0.101
354.000	-11.725	0.101
354.100	-2.324	0.101
354.200	-4.045	0.101
354.300	-8.390	0.101
354.400	-35.099	0.101
354.500	-14.078	0.101
354.600	-12.217	0.101
354.700	-9.849	0.101
354.800	-13.778	0.101
354.900	-16.774	0.101
355.000	-11.175	0.101
355.100	-12.929	0.101
355.200	-20.427	0.101
355.300	-4.232	0.101
355.400	-21.363	0.101
355.500	-6.708	0.101
355.600	-20.175	0.101
355.700	-6.938	0.101
355.800	-8.659	0.101
355.900	-16.799	0.101
356.000	-8.878	0.101
356.100	-16.673	0.101
356.200	-21.572	0.101
356.300	-29.702	0.101
356.400	-26.952	0.101
356.500	-8.802	0.101
356.600	-7.523	0.101
356.700	-20.417	0.101
356.800	-33.215	0.101
356.900	-17.138	0.101
357.000	-2.903	0.101
357.100	-9.647	0.101
357.200	-14.584	0.101
357.300	-20.721	0.101
357.400	-12.975	0.101
357.500	-13.044	0.101
357.600	-23.718	0.101
357.700	-8.153	0.101
357.800	-8.020	0.101
357.900	-2.255	0.101
358.000	-20.158	0.101
358.100	-12.077	0.101
358.200	-14.201	0.101
358.300	-18.999	0.101
358.400	-9.850	0.101
358.500	-20.513	0.101
358.600	-17.197	0.101
358.700	-7.968	0.101
358.800	-4.203	0.101
358.900	-19.577	0.101
359.000	-21.497	0.101
359.100	-22.843	0.101
359.200	-25.605	0.101
359.300	-15.358	0.101
359.400	-9.440	0.101
359.500	-16.195	0.101
359.600	-17.657	0.101
359.700	-11.818	0.101
359.800	-24.434	0.101
359.900	-12.098	0.101
360.000	-14.185	0.101
360.100	-10.573	0.101
360.200	-12.574	0.101
360.300	-14.190	0.101
360.400	-28.327	0.101
360.500	-8.606	0.101
360.600	-21.513	0.101
360.700	-12.082	0.101
360.800	-6.768	0.101
360.900	-7.682	0.101
361.000	-16.990	0.101
361.100	-20.247	0.101
361.200	-23.671	0.101
361.300	-14.025	0.101
361.400	-10.901	0.101
361.500	-13.674	0.101
361.600	-25.508	0.101
361.700	-19.440	0.101
361.800	-16.377	0.101
361.900	-20.213	0.101
362.000	-13.973	0.101
362.100	-15.219	0.101
362.200	-24.779	0.101
362.300	-10.903	0.101
362.400	-14.726	0.101
362.500	-19.290	0.101
362.600	-19.211	0.101
362.700	-24.706	0.101
362.800	-8.611	0.101
362.900	-8.414	0.101
363.000	-3.054	0.101
363.100	-14.168	0.101
363.200	-35.026	0.101
363.300	-3.437	0.101
363.400	-17.571	0.101
363.500	-6.497	0.101
363.600	-11.673	0.101
363.700	-13.470	0.101
363.800	-6.286	0.101
363.900	-10.183	0.101
364.000	-12.393	0.101
364.100	-20.596	0.101
364.200	-16.197	0.101
364.300	-23.208	0.101
364.400	-21.936	0.101
364.500	-3.979	0.101
364.600	-8.879	0.101
364.700	-16.252	0.101
364.800	-16.746	0.101
364.900	-12.817	0.101
365.000	-12.956	0.101
365.100	-21.626	0.101
365.200	-16.484	0.101
365.300	-15.754	0.101
365.400	-17.244	0.101
365.500	-40.089	0.101
365.600	-18.500	0.101
365.700	-13.089	0.101
365.800	-1.643	0.101
365.900	-9.906	0.101
366.000	-15.999	0.101
366.100	-17.716	0.101
366.200	-4.512	0.101
366.300	-30.857	0.101
366.400	-8.753	0.101
366.500	-13.164	0.101
366.600	-15.724	0.101
366.700	-11.967	0.101
366.800	-31.828	0.101
366.900	0.718	0.101
367.000	-2.567	0.101
367.100	-17.753	0.101
367.200	-12.030	0.101
367.300	-13.061	0.101
367.400	-11.647	0.101
367.500	-22.026	0.101
367.600	-28.599	0.101
367.700	-16.788	0.101
367.800	-4.444	0.101
367.900	-12.102	0.101
368.000	-7.245	0.101
368.100	-16.268	0.101
368.200	-21.700	0.101
368.300	-14.537	0.101
368.400	-16.253	0.101
368.500	-20.863	0.101
368.600	-17.908	0.101
368.700	-14.065	0.101
368.800	-16.753	0.101
368.900	-17.911	0.101
369.000	-20.492	0.101
369.100	-17.950	0.101
369.200	-8.832	0.101
369.300	-5.950	0.101
369.400	-12.222	0.101
369.500	-5.617	0.101
369.600	-12.694	0.101
369.700	-25.287	0.101
369.800	-19.815	0.101
369.900	-7.365	0.101
370.000	-18.023	0.101
370.100	-19.177	0.101
370.200	-10.208	0.101
370.300	-14.775	0.101
370.400	-21.974	0.101
370.500	-20.525	0.101
370.600	-19.866	0.101
370.700	-11.107	0.101
370.800	-6.199	0.101
370.900	-18.345	0.101
371.000	-16.700	0.101
371.100	-23.173	0.101
371.200	-6.506	0.101
371.300	-23.143	0.101
371.400	-22.120	0.101
371.500	-31.855	0.101
371.600	-17.160	0.101
371.700	-6.850	0.101
371.800	-16.282	0.101
371.900	-12.295	0.101
372.000	-10.111	0.101
372.100	-21.745	0.101
372.200	-12.333	0.101
372.300	-4.809	0.101
372.400	-10.068	0.101
372.500	-29.130	0.101
372.600	-15.166	0.101
372.700	-15.544	0.101
372.800	-23.933	0.101
372.900	-24.762	0.101
373.000	-17.064	0.101
373.100	-0.374	0.101
373.200	-8.101	0.101
373.300	-14.115	0.101
373.400	-32.474	0.101
373.500	-11.617	0.101
373.600	0.076	0.101
373.700	-17.811	0.101
373.800	-8.233	0.101
373.900	-8.503	0.101
374.000	-14.528	0.101
374.100	-17.296	0.101
374.200	-29.561	0.101
374.300	-9.690	0.101
374.400	-23.029	0.101
374.500	-9.735	0.101
374.600	-5.294	0.101
374.700	-18.145	0.101
374.800	-30.980	0.101
374.900	-14.223	0.101
375.000	-6.255	0.101
375.100	-22.337	0.101
375.200	-3.899	0.101
375.300	-8.838	0.101
375.400	-17.736	0.101
375.500	-25.652	0.101
375.600	-10.399	0.101
375.700	-14.865	0.101
375.800	-18.334	0.101
375.900	-7.459	0.101
376.000	-21.221	0.101
376.100	-27.261	0.101
376.200	-20.088	0.101
376.300	-15.269	0.101
376.400	-12.340	0.101
376.500	-26.466	0.101
376.600	-12.475	0.101
376.700	-17.616	0.101
376.800	-8.437	0.101
376.900	-15.324	0.101
377.000	-5.261	0.101
377.100	-25.117	0.101
377.200	-19.703	0.101
377.300	-10.056	0.101
377.400	-10.218	0.101
377.500	-11.738	0.101
377.600	-4.110	0.101
377.700	-8.367	0.101
377.800	-21.377	0.101
377.900	-17.076	0.101
378.000	-22.924	0.101
378.100	-19.380	0.101
378.200	-16.479	0.101
378.300	-9.592	0.101
378.400	-9.427	0.101
378.500	-30.700	0.101
378.600	-24.152	0.101
378.700	-25.148	0.101
378.800	-7.402	0.101
378.900	-12.773	0.101
379.000	-13.270	0.101
379.100	-1.600	0.101
379.200	-17.966	0.101
379.300	-15.976	0.101
379.400	-13.029	0.101
379.500	-20.561	0.101
379.600	-19.377	0.101
379.700	-13.553	0.101
379.800	-11.979	0.101
379.900	-22.594	0.101
380.000	-16.199	0.101
380.100	2.893	0.101
380.200	-13.539	0.101
380.300	-16.170	0.101
380.400	-31.198	0.101
380.500	-15.938	0.101
380.600	-11.881	0.101
380.700	-15.803	0.101
380.800	-10.647	0.101
380.900	-9.317	0.101
381.000	-3.108	0.101
381.100	-26.326	0.101
381.200	-26.607	0.101
381.300	-18.805	0.101
381.400	1.102	0.101
381.500	-8.688	0.101
381.600	-11.021	0.101
381.700	-20.021	0.101
381.800	-12.066	0.101
381.900	-15.620	0.101
382.000	-18.930	0.101
382.100	-8.771	0.101
382.200	-18.533	0.101
382.300	-7.778	0.101
382.400	-11.543	0.101
382.500	-19.425	0.101
382.600	-21.294	0.101
382.700	-9.343	0.101
382.800	-7.636	0.101
382.900	-21.730	0.101
383.000	-27.380	0.101
383.100	-18.445	0.101
383.200	-13.586	0.101
383.300	-20.501	0.101
383.400	-15.642	0.101
383.500	-15.322	0.101
383.600	-15.190	0.101
383.700	-25.004	0.101
383.800	-2.520	0.101
383.900	-21.114	0.101
384.000	-15.626	0.101
384.100	-14.645	0.101
384.200	-14.892	0.101
384.300	-15.610	0.101
384.400	-18.293	0.101
384.500	-14.066	0.101
384.600	-4.678	0.101
384.700	-15.941	0.101
384.800	-11.290	0.101
384.900	-6.863	0.101
385.000	-22.112	0.101
385.100	-17.662	0.101
385.200	-1.881	0.101
385.300	-20.974	0.101
385.400	-25.157	0.101
385.500	-15.604	0.101
385.600	-15.057	0.101
385.700	-13.619	0.101
385.800	-14.781	0.101
385.900	-5.714	0.101
386.000	-25.654	0.101
386.100	-16.159	0.101
386.200	-13.750	0.101
386.300	-15.768	0.101
386.400	-29.158	0.101
386.500	-24.937	0.101
386.600	-8.362	0.101
386.700	-16.648	0.101
386.800	-12.797	0.101
386.900	-24.285	0.101
387.000	-17.877	0.101
387.100	-5.317	0.101
387.200	-11.168	0.101
387.300	-21.020	0.101
387.400	-11.129	0.101
387.500	-8.587	0.101
387.600	-18.637	0.101
387.700	-5.436	0.101
387.800	-9.385	0.101
387.900	-20.418	0.101
388.000	-13.816	0.101
388.100	-18.393	0.101
388.200	-16.676	0.101
388.300	-10.422	0.101
388.400	-21.828	0.101
388.500	-3.950	0.101
388.600	-29.446	0.101
388.700	-15.781	0.101
388.800	-2.837	0.101
388.900	-3.128	0.101
389.000	-11.527	0.101
389.100	-12.019	0.101
389.200	-16.032	0.101
389.300	-13.655	0.101
389.400	-26.093	0.101
389.500	-9.963	0.101
389.600	-13.077	0.101
389.700	-11.666	0.101
389.800	-28.433	0.101
389.900	-21.089	0.101
390.000	-18.091	0.101
390.100	-7.208	0.101
390.200	-5.387	0.101
390.300	-8.635	0.101
390.400	-2.194	0.101
390.500	3.999	0.101
390.600	-4.492	0.101
390.700	21.628	0.101
390.800	-2.169	0.101
390.900	12.047	0.101
391.000	8.505	0.101
391.100	6.852	0.101
391.200	20.002	0.101
391.300	23.097	0.101
391.400	12.853	0.101
391.500	2.448	0.101
391.600	36.217	0.101
391.700	16.896	0.101
391.800	3.329	0.101
391.900	30.041	0.101
392.000	23.028	0.101
392.100	20.853	0.101
392.200	9.171	0.101
392.300	27.008	0.101
392.400	27.785	0.101
392.500	15.493	0.101
392.600	23.038	0.101
392.700	24.182	0.101
392.800	24.056	0.101
392.900	4.336	0.101
393.000	25.902	0.101
393.100	25.789	0.101
393.200	25.144	0.101
393.300	19.526	0.101
393.400	9.423	0.101
393.500	11.856	0.101
393.600	9.909	0.101
393.700	32.041	0.101
393.800	29.324	0.101
393.900	9.353	0.101
394.000	16.380	0.101
394.100	7.932	0.101
394.200	27.721	0.101
394.300	3.573	0.101
394.400	7.211	0.101
394.500	19.441	0.101
394.600	20.668	0.101
394.700	17.174	0.101
394.800	21.033	0.101
394.900	-0.428	0.101
395.000	23.792	0.101
395.100	15.386	0.101
395.200	19.542	0.101
395.300	10.738	0.101
395.400	11.966	0.101
395.500	9.146	0.101
395.600	13.658	0.101
395.700	-0.252	0.101
395.800	18.974	0.101
395.900	12.116	0.101
396.000	18.165	0.101
396.100	26.415	0.101
396.200	9.772	0.101
396.300	7.808	0.101
396.400	14.520	0.101
396.500	4.288	0.101
396.600	15.512	0.101
396.700	11.264	0.101
396.800	14.010	0.101
396.900	22.540	0.101
397.000	27.977	0.101
397.100	15.797	0.101
397.200	13.595	0.101
397.300	14.145	0.101
397.400	26.204	0.101
397.500	14.685	0.101
397.600	24.027	0.101
397.700	2.303	0.101
397.800	27.807	0.101
397.900	37.983	0.101
398.000	23.685	0.101
398.100	9.006	0.101
398.200	27.553	0.101
398.300	14.257	0.101
398.400	14.700	0.101
398.500	21.639	0.101
398.600	25.979	0.101
398.700	14.446	0.101
398.800	21.644	0.101
398.900	26.956	0.101
399.000	16.949	0.101
399.100	18.656	0.101
399.200	20.543	0.101
399.300	23.748	0.101
399.400	32.089	0.101
399.500	30.789	0.101
399.600	22.255	0.101
399.700	25.188	0.101
399.800	30.109	0.101
399.900	23.525	0.101
400.000	30.587	0.101
400.100	21.198	0.101
400.200	27.350	0.101
400.300	25.226	0.101
400.400	29.123	0.101
400.500	39.191	0.101
400.600	29.880	0.101
400.700	26.078	0.101
400.800	32.677	0.101
400.900	23.247	0.101
401.000	30.168	0.101
401.100	32.737	0.101
401.200	42.753	0.101
401.300	36.743	0.101
401.400	34.432	0.101
401.500	32.419	0.101
401.600	30.114	0.101
401.700	31.091	0.101
401.800	39.977	0.101
401.900	33.394	0.101
402.000	53.583	0.101
402.100	29.557	0.101
402.200	52.737	0.101
402.300	30.639	0.101
402.400	38.269	0.101
402.500	43.891	0.101
402.600	53.450	0.101
402.700	45.368	0.101
402.800	32.317	0.101
402.900	43.892	0.101
403.000	42.800	0.101
403.100	43.412	0.101
403.200	45.103	0.101
403.300	51.949	0.101
403.400	43.386	0.101
403.500	43.825	0.101
403.600	58.398	0.101
403.700	53.819	0.101
403.800	43.941	0.101
403.900	34.311	0.101
404.000	44.240	0.101
404.100	54.797	0.101
404.200	60.311	0.101
404.300	49.699	0.101
404.400	61.120	0.101
404.500	62.386	0.101
404.600	56.236	0.101
404.700	44.061	0.101
404.800	47.555	0.101
404.900	64.134	0.101
405.000	65.225	0.101
405.100	58.059	0.101
405.200	54.563	0.101
405.300	51.484	0.101
405.400	35.569	0.101
405.500	66.454	0.101
405.600	61.646	0.101
405.700	45.949	0.101
405.800	69.545	0.101
405.900	60.486	0.101
406.000	53.955	0.101
406.100	57.891	0.101
406.200	67.021	0.101
406.300	54.577	0.101
406.400	56.848	0.101
406.500	56.433	0.101
406.600	54.994	0.101
406.700	62.617	0.101
406.800	55.477	0.101
406.900	62.705	0.101
407.000	46.904	0.101
407.100	66.423	0.101
407.200	63.234	0.101
407.300	62.878	0.101
407.400	64.494	0.101
407.500	51.716	0.101
407.600	55.634	0.101
407.700	46.567	0.101
407.800	66.942	0.101
407.900	64.061	0.101
408.000	55.948	0.101
408.100	51.516	0.101
408.200	68.881	0.101
408.300	60.868	0.101
408.400	58.075	0.101
408.500	50.147	0.101
408.600	54.761	0.101
408.700	59.390	0.101
408.800	62.520	0.101
408.900	62.454	0.101
409.000	58.100	0.101
409.100	53.011	0.101
409.200	64.451	0.101
409.300	59.091	0.101
409.400	46.784	0.101
409.500	57.730	0.101
409.600	50.896	0.101
409.700	66.478	0.101
409.800	51.983	0.101
409.900	57.839	0.101
410.000	59.482	0.101
410.100	51.475	0.101
410.200	57.611	0.101
410.300	54.885	0.101
410.400	44.170	0.101
410.500	56.937	0.101
410.600	48.808	0.101
410.700	54.115	0.101
410.800	62.517	0.101
410.900	64.986	0.101
411.000	44.612	0.101
411.100	50.058	0.101
411.200	52.262	0.101
411.300	49.406	0.101
411.400	55.951	0.101
411.500	56.599	0.101
411.600	50.387	0.101
411.700	56.982	0.101
411.800	56.503	0.101
411.900	45.496	0.101
412.000	63.131	0.101
412.100	64.214	0.101
412.200	55.459	0.101
412.300	60.027	0.101
412.400	53.897	0.101
412.500	42.465	0.101
412.600	46.356	0.101
412.700	56.302	0.101
412.800	52.873	0.101
412.900	65.037	0.101
413.000	52.017	0.101
413.100	63.325	0.101
413.200	59.498	0.101
413.300	58.985	0.101
413.400	54.864	0.101
413.500	50.789	0.101
413.600	61.923	0.101
413.700	56.649	0.101
413.800	62.804	0.101
413.900	44.223	0.101
414.000	68.416	0.101
414.100	41.463	0.101
414.200	54.127	0.101
414.300	58.707	0.101
414.400	59.280	0.101
414.500	68.113	0.101
414.600	33.606	0.101
414.700	52.619	0.101
414.800	66.922	0.101
414.900	58.044	0.101
415.000	43.065	0.101
415.100	55.621	0.101
415.200	50.403	0.101
415.300	64.758	0.101
415.400	60.251	0.101
415.500	43.928	0.101
415.600	61.298	0.101
415.700	56.250	0.101
415.800	64.087	0.101
415.900	46.219	0.101
416.000	56.451	0.101
416.100	62.969	0.101
416.200	49.186	0.101
416.300	61.446	0.101
416.400	39.791	0.101
416.500	43.094	0.101
416.600	43.450	0.101
416.700	61.324	0.101
416.800	49.857	0.101
416.900	46.920	0.101
417.000	49.225	0.101
417.100	56.970	0.101
417.200	66.941	0.101
417.300	65.545	0.101
417.400	41.494	0.101
417.500	56.703	0.101
417.600	56.582	0.101
417.700	43.676	0.101
417.800	37.463	0.101
417.900	62.326	0.101
418.000	59.173	0.101
418.100	44.258	0.101
418.200	59.053	0.101
418.300	65.390	0.101
418.400	55.292	0.101
418.500	49.330	0.101
418.600	62.397	0.101
418.700	53.371	0.101
418.800	44.646	0.101
418.900	64.790	0.101
419.000	48.318	0.101
419.100	54.843	0.101
419.200	63.544	0.101
419.300	55.355	0.101
419.400	63.922	0.101
419.500	41.697	0.101
419.600	57.195	0.101
419.700	51.447	0.101
419.800	62.863	0.101
419.900	58.787	0.101
420.000	42.553	0.101
420.100	41.694	0.101
420.200	49.638	0.101
420.300	43.500	0.101
420.400	40.752	0.101
420.500	38.184	0.101
420.600	40.062	0.101
420.700	42.320	0.101
420.800	37.248	0.101
420.900	32.713	0.101
421.000	35.110	0.101
421.100	29.958	0.101
421.200	22.083	0.101
421.300	27.394	0.101
421.400	30.485	0.101
421.500	9.663	0.101
421.600	20.471	0.101
421.700	32.990	0.101
421.800	25.468	0.101
421.900	14.330	0.101
422.000	17.934	0.101
422.100	-0.002	0.101
422.200	10.736	0.101
422.300	-2.775	0.101
422.400	11.621	0.101
422.500	10.381	0.101
422.600	10.844	0.101
422.700	7.383	0.101
422.800	1.201	0.101
422.900	-4.875	0.101
423.000	3.867	0.101
423.100	15.810	0.101
423.200	7.658	0.101
423.300	-5.996	0.100
423.400	-19.895	0.101
423.500	-7.070	0.100
423.600	3.674	0.101
423.700	1.454	0.101
423.800	-5.255	0.101
423.900	-12.695	0.101
424.000	-1.556	0.100
424.100	4.522	0.101
424.200	-2.675	0.100
424.300	-8.632	0.100
424.400	-5.707	0.100
424.500	-10.375	0.100
424.600	-1.351	0.100
424.700	-8.670	0.101
424.800	-5.039	0.100
424.900	-12.701	0.100
425.000	-8.799	0.100
425.100	-4.022	0.100
425.200	-11.622	0.100
425.300	-13.576	0.100
425.400	-4.284	0.101
425.500	-15.058	0.100
425.600	-9.611	0.100
425.700	-6.639	0.101
425.800	-1.198	0.101
425.900	-3.615	0.100
426.000	-3.215	0.100
426.100	-9.868	0.101
426.200	-15.773	0.100
426.300	-2.920	0.101
426.400	1.025	0.100
426.500	-16.207	0.101
426.600	-17.050	0.100
426.700	-4.026	0.100
426.800	-18.744	0.100
426.900	-18.721	0.100
427.000	1.583	0.101
427.100	-5.907	0.100
427.200	-8.644	0.100
427.300	-11.236	0.100
427.400	-10.441	0.100
427.500	11.162	0.100
427.600	-14.283	0.100
427.700	-14.941	0.100
427.800	-1.313	0.100
427.900	-7.224	0.100
428.000	-12.690	0.101
428.100	-11.368	0.100
428.200	-6.059	0.100
428.300	-5.522	0.100
428.400	-0.092	0.100
428.500	-9.471	0.100
428.600	-0.583	0.100
428.700	-6.139	0.100
428.800	9.347	0.100
428.900	-6.333	0.100
429.000	-9.021	0.100
429.100	-1.111	0.100
429.200	-5.125	0.100
429.300	-2.616	0.100
429.400	0.215	0.100
429.500	-6.855	0.100
429.600	2.140	0.100
429.700	2.296	0.100
429.800	2.094	0.100
429.900	-8.143	0.100
430.000	-4.376	0.100
430.100	0.073	0.100
430.200	-6.483	0.100
430.300	5.956	0.100
430.400	2.835	0.100
430.500	-6.012	0.100
430.600	-7.536	0.100
430.700	-19.150	0.100
430.800	3.912	0.100
430.900	11.603	0.100
431.000	-1.676	0.100
431.100	-10.939	0.100
431.200	1.570	0.100
431.300	-6.307	0.100
431.400	-7.163	0.100
431.500	-4.648	0.100
431.600	-7.033	0.100
431.700	7.224	0.100
431.800	-3.137	0.100
431.900	6.740	0.100
432.000	-3.773	0.100
432.100	-2.976	0.100
432.200	-3.497	0.100
432.300	2.532	0.100
432.400	-5.864	0.100
432.500	4.993	0.100
432.600	1.527	0.100
432.700	-7.407	0.100
432.800	-6.090	0.100
432.900	-23.083	0.100
433.000	-8.333	0.100
433.100	-5.987	0.100
433.200	-4.473	0.100
433.300	-4.422	0.100
433.400	-5.778	0.100
433.500	1.878	0.100
433.600	0.098	0.100
433.700	-18.776	0.100
433.800	8.594	0.100
433.900	10.039	0.100
434.000	-10.602	0.100
434.100	14.189	0.100
434.200	10.792	0.100
434.300	-6.762	0.100
434.400	18.285	0.100
434.500	-4.787	0.100
434.600	-4.637	0.100
434.700	1.625	0.100
434.800	-2.416	0.100
434.900	-4.423	0.100
435.000	-3.941	0.100
435.100	6.418	0.100
435.200	-7.577	0.100
435.300	-20.396	0.100
435.400	1.049	0.100
435.500	6.626	0.100
435.600	2.050	0.100
435.700	0.204	0.100
435.800	-4.617	0.100
435.900	-11.701	0.100
436.000	-9.882	0.100
436.100	11.038	0.100
436.200	-3.424	0.100
436.300	7.169	0.100
436.400	-8.977	0.100
436.500	-5.685	0.100
436.600	-3.979	0.100
436.700	-8.760	0.100
436.800	0.443	0.100
436.900	-1.889	0.100
437.000	3.913	0.100
437.100	0.169	0.100
437.200	-5.304	0.100
437.300	-4.401	0.100
437.400	-2.734	0.100
437.500	20.523	0.100
437.600	-20.003	0.100
437.700	-2.160	0.100
437.800	-4.383	0.100
437.900	-6.990	0.100
438.000	0.981	0.100
438.100	6.006	0.100
438.200	1.238	0.100
438.300	-5.406	0.100
438.400	-7.962	0.100
438.500	2.515	0.100
438.600	-14.258	0.100
438.700	-3.028	0.100
438.800	-10.561	0.100
438.900	-1.356	0.100
439.000	-0.409	0.100
439.100	-5.352	0.100
439.200	-14.441	0.100
439.300	-11.919	0.100
439.400	-9.849	0.100
439.500	-2.272	0.100
439.600	1.607	0.100
439.700	-1.643	0.100
439.800	-10.317	0.100
439.900	-1.709	0.100
440.000	-7.623	0.100
440.100	-18.701	0.100
440.200	-20.583	0.100
440.300	-19.545	0.100
440.400	4.272	0.100
440.500	5.674	0.100
440.600	-7.060	0.100
440.700	-5.516	0.100
440.800	-5.706	0.100
440.900	-9.000	0.100
441.000	-5.531	0.100
441.100	-5.611	0.100
441.200	-2.351	0.100
441.300	0.063	0.100
441.400	-22.428	0.100
441.500	-1.047	0.100
441.600	-13.490	0.100
441.700	6.041	0.100
441.800	-15.326	0.100
441.900	-12.260	0.100
442.000	1.469	0.100
442.100	-14.304	0.100
442.200	-2.638	0.100
442.300	3.750	0.100
442.400	-7.689	0.100
442.500	-2.953	0.100
442.600	-28.409	0.100
442.700	-5.987	0.100
442.800	-18.885	0.100
442.900	2.479	0.100
443.000	-8.214	0.100
443.100	-13.081	0.100
443.200	-10.183	0.100
443.300	-17.626	0.100
443.400	-10.489	0.100
443.500	3.370	0.100
443.600	-10.319	0.100
443.700	-6.996	0.100
443.800	-6.356	0.100
443.900	-0.850	0.100
444.000	-23.128	0.100
444.100	9.821	0.100
444.200	-9.563	0.100
444.300	-9.680	0.100
444.400	-18.879	0.100
444.500	-24.498	0.100
444.600	-13.044	0.100
444.700	-2.517	0.100
444.800	-7.259	0.100
444.900	-4.574	0.100
445.000	-3.074	0.100
445.100	-12.040	0.100
445.200	-11.494	0.100
445.300	-2.056	0.100
445.400	-18.635	0.100
445.500	-13.201	0.100
445.600	-11.392	0.100
445.700	-21.275	0.100
445.800	-9.602	0.100
445.900	-6.617	0.100
446.000	-9.276	0.100
446.100	-0.091	0.100
446.200	-24.338	0.100
446.300	-14.314	0.100
446.400	-1.186	0.100
446.500	-17.194	0.100
446.600	-6.281	0.100
446.700	-7.933	0.100
446.800	-6.257	0.100
446.900	-12.226	0.100
447.000	-6.127	0.100
447.100	-15.259	0.100
447.200	-17.260	0.100
447.300	5.337	0.100
447.400	-12.350	0.100
447.500	-7.538	0.100
447.600	-16.154	0.100
447.700	-12.588	0.100
447.800	-11.288	0.100
447.900	-4.989	0.100
448.000	-10.385	0.100
448.100	-9.198	0.100
448.200	-12.358	0.100
448.300	-29.208	0.100
448.400	-1.958	0.100
448.500	-6.775	0.100
448.600	-10.250	0.100
448.700	-11.449	0.100
448.800	-13.011	0.100
448.900	-21.889	0.100
449.000	-13.112	0.100
449.100	-15.645	0.100
449.200	-16.752	0.100
449.300	-6.476	0.100
449.400	-1.510	0.100
449.500	-17.608	0.100
449.600	-19.335	0.100
449.700	-23.668	0.100
449.800	-10.287	0.100
449.900	0.565	0.100
450.000	-16.118	0.100
450.100	0.411	0.100
450.200	-14.381	0.100
450.300	-5.068	0.100
450.400	-19.626	0.100
450.500	-23.366	0.100
450.600	-5.850	0.100
450.700	-2.835	0.100
450.800	-12.248	0.100
450.900	-14.161	0.100
451.000	-15.120	0.100
451.100	-11.648	0.100
451.200	-15.363	0.100
451.300	-25.105	0.100
451.400	-0.646	0.100
451.500	-9.964	0.100
451.600	-10.830	0.100
451.700	-16.193	0.100
451.800	-21.739	0.100
451.900	-28.741	0.100
452.000	-9.116	0.100
452.100	-6.039	0.100
452.200	-22.295	0.100
452.300	-18.288	0.100
452.400	-12.068	0.100
452.500	-15.455	0.100
452.600	-19.421	0.100
452.700	-9.804	0.100
452.800	-10.775	0.100
452.900	-1.009	0.100
453.000	-9.046	0.100
453.100	-8.868	0.100
453.200	-15.535	0.100
453.300	-22.953	0.100
453.400	-12.444	0.100
453.500	-20.197	0.100
453.600	-17.922	0.100
453.700	-19.352	0.100
453.800	-18.405	0.100
453.900	-12.247	0.100
454.000	-15.400	0.100
454.100	1.146	0.100
454.200	-11.212	0.100
454.300	-9.663	0.100
454.400	-18.104	0.100
454.500	-13.184	0.100
454.600	-23.174	0.100
454.700	-12.903	0.100
454.800	9.426	0.100
454.900	-21.594	0.100
455.000	-7.840	0.100
455.100	-13.678	0.100
455.200	-12.184	0.100
455.300	-17.399	0.100
455.400	-20.351	0.100
455.500	-6.272	0.100
455.600	-34.498	0.100
455.700	-14.894	0.100
455.800	-16.208	0.100
455.900	-20.067	0.100
456.000	-15.171	0.100
456.100	-15.189	0.100
456.200	-14.920	0.100
456.300	-18.282	0.100
456.400	-13.822	0.100
456.500	-18.844	0.100
456.600	-17.078	0.100
456.700	-16.439	0.100
456.800	-11.819	0.100
456.900	-12.750	0.100
457.000	-23.843	0.100
457.100	-18.252	0.100
457.200	-9.012	0.100
457.300	-15.364	0.100
457.400	-13.845	0.100
457.500	-19.688	0.100
457.600	-18.955	0.100
457.700	-26.301	0.100
457.800	2.645	0.100
457.900	-6.811	0.100
458.000	-14.581	0.100
458.100	-16.120	0.100
458.200	-16.228	0.100
458.300	-13.793	0.100
458.400	-15.070	0.100
458.500	-13.494	0.100
458.600	-6.573	0.100
458.700	-6.351	0.100
458.800	-25.694	0.100
458.900	-14.247	0.100
459.000	-5.465	0.100
459.100	-10.470	0.100
459.200	-20.798	0.100
459.300	-22.626	0.100
459.400	-24.538	0.100
459.500	-14.423	0.100
459.600	-8.659	0.100
459.700	-23.456	0.100
459.800	-3.067	0.100
459.900	-16.743	0.100
460.000	-11.448	0.100
460.100	-26.897	0.100
460.200	-10.243	0.100
460.300	-24.143	0.100
460.400	-7.666	0.100
460.500	-8.759	0.100
460.600	-12.816	0.100
460.700	-22.253	0.100
460.800	-9.849	0.100
460.900	-10.537	0.100
461.000	-11.147	0.100
461.100	-17.925	0.100
461.200	-6.504	0.100
461.300	-19.611	0.100
461.400	-17.624	0.100
461.500	-15.599	0.100
461.600	-19.520	0.100
461.700	-3.562	0.100
461.800	-14.448	0.100
461.900	-20.898	0.100
462.000	-26.141	0.100
462.100	-8.599	0.100
462.200	-15.372	0.100
462.300	-17.016	0.100
462.400	-10.703	0.100
462.500	-10.107	0.100
462.600	-16.761	0.100
462.700	-25.715	0.100
462.800	-17.186	0.100
462.900	-8.601	0.100
463.000	-32.788	0.100
463.100	-9.532	0.100
463.200	-17.586	0.100
463.300	-16.994	0.100
463.400	-2.006	0.100
463.500	-18.253	0.100
463.600	-21.214	0.100
463.700	-17.242	0.100
463.800	-14.995	0.100
463.900	-26.954	0.100
464.000	-16.898	0.100
464.100	-17.601	0.100
464.200	-19.191	0.100
464.300	-24.409	0.100
464.400	-16.301	0.100
464.500	-19.151	0.100
464.600	-20.889	0.100
464.700	-10.439	0.100
464.800	-24.644	0.100
464.900	-27.768	0.100
465.000	-16.884	0.100
465.100	-23.286	0.100
465.200	-7.247	0.100
465.300	-21.096	0.100
465.400	-16.232	0.100
465.500	-12.355	0.100
465.600	-17.965	0.100
465.700	-26.153	0.100
465.800	-20.809	0.100
465.900	-27.433	0.100
466.000	-15.984	0.100
466.100	-6.663	0.100
466.200	-18.899	0.100
466.300	-14.900	0.100
466.400	-13.467	0.100
466.500	-17.303	0.100
466.600	-18.443	0.100
466.700	-20.781	0.100
466.800	-16.109	0.100
466.900	-15.053	0.100
467.000	-18.181	0.100
467.100	-22.409	0.100
467.200	-27.331	0.100
467.300	-22.286	0.100
467.400	-15.974	0.100
467.500	-7.464	0.100
467.600	-15.931	0.100
467.700	-16.304	0.100
467.800	-4.892	0.100
467.900	-20.485	0.100
468.000	-18.492	0.100
468.100	-15.729	0.100
468.200	-17.667	0.100
468.300	-21.274	0.100
468.400	-18.517	0.100
468.500	-2.976	0.100
468.600	-23.857	0.100
468.700	-4.226	0.100
468.800	-22.626	0.100
468.900	-9.183	0.100
469.000	-11.637	0.100
469.100	-23.103	0.100
469.200	-16.638	0.100
469.300	-21.743	0.100
469.400	-26.562	0.100
469.500	-11.673	0.100
469.600	-18.265	0.100
469.700	-27.268	0.100
469.800	-22.948	0.100
469.900	-16.434	0.100
470.000	-13.983	0.100
470.100	-11.181	0.100
470.200	-11.124	0.100
470.300	-19.873	0.100
470.400	-21.588	0.100
470.500	-15.981	0.100
470.600	-29.935	0.100
470.700	-9.667	0.100
470.800	-16.626	0.100
470.900	-15.326	0.100
471.000	-6.491	0.100
471.100	-18.850	0.100
471.200	-17.510	0.100
471.300	-15.659	0.100
471.400	-17.410	0.100
471.500	-23.255	0.100
471.600	-24.100	0.100
471.700	-17.267	0.100
471.800	-21.554	0.100
471.900	-20.297	0.100
472.000	-20.979	0.100
472.100	-12.586	0.100
472.200	-12.862	0.100
472.300	-18.578	0.100
472.400	-19.818	0.100
472.500	-7.888	0.100
472.600	-23.874	0.100
472.700	-12.301	0.100
472.800	-25.434	0.100
472.900	-23.071	0.100
473.000	-17.241	0.100
473.100	-24.359	0.100
473.200	-25.164	0.100
473.300	-12.099	0.100
473.400	-17.687	0.100
473.500	-22.323	0.100
473.600	-17.625	0.100
473.700	-30.546	0.100
473.800	-15.746	0.100
473.900	-14.098	0.100
474.000	-21.031	0.100
474.100	-5.510	0.100
474.200	-11.444	0.100
474.300	-21.611	0.100
474.400	-10.399	0.100
474.500	-8.784	0.100
474.600	-19.124	0.100
474.700	-6.897	0.100
474.800	-9.618	0.100
474.900	-21.519	0.100
475.000	-32.678	0.100
475.100	-0.790	0.100
475.200	0.930	0.100
475.300	-13.558	0.100
475.400	-7.499	0.100
475.500	-27.567	0.100
475.600	-27.524	0.100
475.700	-18.104	0.100
475.800	-5.914	0.100
475.900	-14.521	0.100
476.000	-24.462	0.100
476.100	-6.470	0.100
476.200	-12.910	0.100
476.300	-5.395	0.100
476.400	-17.873	0.100
476.500	-13.630	0.100
476.600	-4.487	0.100
476.700	-29.505	0.100
476.800	-17.368	0.100
476.900	-21.015	0.101
477.000	-7.378	0.100
477.100	7.928	0.101
477.200	-19.537	0.101
477.300	-18.222	0.101
477.400	-26.954	0.101
477.500	-9.633	0.101
477.600	-18.842	0.101
477.700	-13.322	0.100
477.800	-32.570	0.101
477.900	-1.356	0.101
478.000	-17.706	0.101
478.100	-23.141	0.101
478.200	-28.300	0.101
478.300	-3.483	0.101
478.400	-14.127	0.101
478.500	-16.031	0.101
478.600	-28.229	0.101
478.700	-24.427	0.101
478.800	-12.005	0.101
478.900	-7.766	0.101
479.000	-6.156	0.101
479.100	-37.555	0.101
479.200	-13.503	0.101
479.300	-4.414	0.101
479.400	-24.065	0.101
479.500	-29.968	0.101
479.600	-16.798	0.101
479.700	-17.727	0.101
479.800	-19.925	0.101
479.900	-25.438	0.101
480.000	-30.526	0.101
480.100	-16.086	0.101
480.200	-13.862	0.101
480.300	-9.752	0.101
480.400	-10.946	0.101
480.500	-13.384	0.101
480.600	-17.816	0.101
480.700	-19.004	0.101
480.800	-12.646	0.101
480.900	-18.531	0.101
481.000	-17.232	0.101
481.100	-26.120	0.101
481.200	-6.277	0.101
481.300	-19.150	0.101
481.400	-20.258	0.101
481.500	-8.294	0.101
481.600	-3.644	0.101
481.700	-14.206	0.101
481.800	-10.311	0.101
481.900	-10.261	0.101
482.000	-3.346	0.101
482.100	-17.366	0.101
482.200	-2.494	0.101
482.300	-14.288	0.101
482.400	-22.039	0.101
482.500	-25.339	0.101
482.600	-23.404	0.101
482.700	-5.793	0.101
482.800	-15.702	0.101
482.900	-16.652	0.101
483.000	-14.422	0.101
483.100	-17.151	0.101
483.200	-4.564	0.101
483.300	-14.665	0.101
483.400	-19.658	0.101
483.500	-26.138	0.101
483.600	-10.863	0.101
483.700	-20.925	0.101
483.800	-11.919	0.101
483.900	-16.705	0.101
484.000	-13.093	0.101
484.100	-18.100	0.101
484.200	2.079	0.101
484.300	-28.143	0.101
484.400	-28.715	0.101
484.500	-17.326	0.101
484.600	-6.953	0.101
484.700	-19.867	0.101
484.800	-23.153	0.101
484.900	0.833	0.101
485.000	-16.934	0.101
485.100	-19.642	0.101
485.200	-22.217	0.101
485.300	-5.691	0.101
485.400	-14.869	0.101
485.500	-18.852	0.101
485.600	-5.911	0.101
485.700	-26.462	0.101
485.800	-13.103	0.101
485.900	-21.383	0.101
486.000	-17.186	0.101
486.100	-17.785	0.101
486.200	-10.390	0.101
486.300	-13.176	0.101
486.400	-4.661	0.101
486.500	-21.299	0.101
486.600	-5.623	0.101
486.700	-9.711	0.101
486.800	-20.305	0.101
486.900	-12.326	0.101
487.000	-17.860	0.101
487.100	-19.130	0.101
487.200	-21.743	0.101
487.300	-19.582	0.101
487.400	-21.574	0.101
487.500	-4.928	0.101
487.600	-16.994	0.101
487.700	-8.950	0.101
487.800	-12.325	0.101
487.900	-17.106	0.101
488.000	-23.460	0.101
488.100	-13.867	0.101
488.200	-14.305	0.101
488.300	-16.765	0.101
488.400	-0.701	0.101
488.500	-19.346	0.101
488.600	-10.637	0.101
488.700	-16.870	0.101
488.800	-3.245	0.101
488.900	-7.731	0.101
489.000	-27.344	0.101
489.100	-8.812	0.101
489.200	-16.714	0.101
489.300	-17.532	0.101
489.400	-14.949	0.101
489.500	-11.063	0.101
489.600	-23.759	0.101
489.700	-18.384	0.101
489.800	-2.570	0.101
489.900	-13.419	0.101
490.000	-22.331	0.101
490.100	-17.904	0.101
490.200	-12.163	0.101
490.300	-13.207	0.101
490.400	-0.896	0.101
490.500	-17.529	0.101
490.600	-22.536	0.101
490.700	-25.534	0.101
490.800	-17.322	0.101
490.900	-26.796	0.101
491.000	-6.335	0.101
491.100	-2.958	0.101
491.200	-21.997	0.101
491.300	-7.350	0.101
491.400	-10.399	0.101
491.500	-9.095	0.101
491.600	-18.159	0.101
491.700	-7.782	0.101
491.800	-24.656	0.101
491.900	-10.709	0.101
492.000	-19.719	0.101
492.100	-16.699	0.101
492.200	-6.180	0.101
492.300	-14.011	0.101
492.400	-19.604	0.101
492.500	0.964	0.101
492.600	-22.358	0.101
492.700	-16.951	0.101
492.800	-15.814	0.101
492.900	-24.964	0.101
493.000	-9.679	0.101
493.100	-23.867	0.101
493.200	-23.108	0.101
493.300	-12.836	0.101
493.400	-13.146	0.101
493.500	3.479	0.101
493.600	-7.108	0.101
493.700	-20.901	0.101
493.800	-15.998	0.101
493.900	-22.341	0.101
494.000	-13.941	0.101
494.100	-17.337	0.101
494.200	-16.512	0.101
494.300	-10.288	0.101
494.400	-2.574	0.101
494.500	-20.614	0.101
494.600	-22.803	0.101
494.700	-13.531	0.101
494.800	-16.508	0.101
494.900	-22.401	0.101
495.000	-17.414	0.101
495.100	-6.669	0.101
495.200	-5.896	0.101
495.300	-16.392	0.101
495.400	-18.770	0.101
495.500	-15.341	0.101
495.600	-21.278	0.101
495.700	-16.850	0.101
495.800	-28.426	0.101
495.900	-9.033	0.101
496.000	-6.570	0.101
496.100	-13.029	0.101
496.200	-20.929	0.101
496.300	-15.012	0.101
496.400	-10.026	0.101
496.500	-8.878	0.101
496.600	-20.638	0.101
496.700	-10.277	0.101
496.800	-23.188	0.101
496.900	-9.811	0.101
497.000	-23.550	0.101
497.100	-18.653	0.101
497.200	-13.174	0.101
497.300	-18.829	0.101
497.400	-16.243	0.101
497.500	-14.700	0.101
497.600	-4.420	0.101
497.700	-14.919	0.101
497.800	-8.166	0.101
497.900	-13.967	0.101
498.000	-12.488	0.101
498.100	-19.800	0.101
498.200	-16.481	0.101
498.300	-22.442	0.101
498.400	-20.432	0.101
498.500	-9.285	0.101
498.600	-9.272	0.101
498.700	-13.293	0.101
498.800	-10.124	0.101
498.900	-14.042	0.101
499.000	-17.399	0.101
499.100	-22.145	0.101
499.200	-18.015	0.101
499.300	-10.684	0.101
499.400	-21.988	0.101
499.500	-21.235	0.101
499.600	-16.600	0.101
499.700	-13.154	0.101
499.800	-11.513	0.101
499.900	-5.474	0.101
500.000	-8.464	0.101
500.100	-13.157	0.101
500.200	-12.395	0.101
500.300	-17.457	0.101
500.400	-11.738	0.101
500.500	-4.651	0.101
500.600	-15.921	0.101
500.700	-16.002	0.101
500.800	-20.722	0.101
500.900	-14.907	0.101
501.000	-19.632	0.101
501.100	-7.181	0.101
501.200	-26.574	0.101
501.300	-23.044	0.101
501.400	-18.728	0.101
501.500	-5.649	0.101
501.600	-24.566	0.101
501.700	-9.877	0.101
501.800	-17.954	0.101
501.900	-14.109	0.101
502.000	-9.588	0.101
502.100	-23.472	0.101
502.200	-21.646	0.101
502.300	-12.377	0.101
502.400	-16.505	0.101
502.500	-18.806	0.101
502.600	-9.524	0.101
502.700	-22.951	0.101
502.800	-16.700	0.101
502.900	-19.350	0.101
503.000	-9.651	0.101
503.100	-18.616	0.101
503.200	-15.533	0.101
503.300	-18.103	0.101
503.400	-11.932	0.101
503.500	3.888	0.101
503.600	-11.736	0.101
503.700	-28.087	0.101
503.800	-3.235	0.101
503.900	-14.875	0.101
504.000	-19.608	0.101
504.100	-17.099	0.101
504.200	-20.708	0.101
504.300	-12.306	0.101
504.400	-13.431	0.101
504.500	-10.825	0.101
504.600	-16.780	0.101
504.700	-15.661	0.101
504.800	-26.770	0.101
504.900	-19.496	0.101
505.000	-7.872	0.101
505.100	-19.537	0.101
505.200	-18.667	0.101
505.300	-16.586	0.101
505.400	1.234	0.101
505.500	-13.809	0.101
505.600	-29.391	0.101
505.700	-20.868	0.101
505.800	-19.329	0.101
505.900	-7.397	0.101
506.000	-10.535	0.101
506.100	-16.165	0.101
506.200	-20.709	0.101
506.300	-19.320	0.101
506.400	-3.756	0.101
506.500	-13.815	0.101
506.600	-18.446	0.101
506.700	-6.972	0.101
506.800	-18.194	0.101
506.900	-8.417	0.101
507.000	-6.228	0.101
507.100	-15.017	0.101
507.200	-15.566	0.101
507.300	-25.197	0.101
507.400	-19.267	0.101
507.500	-13.110	0.101
507.600	-6.004	0.101
507.700	-18.153	0.101
507.800	-34.367	0.101
507.900	-18.225	0.101
508.000	-25.887	0.101
508.100	-16.055	0.101
508.200	-4.489	0.101
508.300	-22.536	0.101
508.400	-19.296	0.101
508.500	-18.886	0.101
508.600	-18.621	0.101
508.700	-2.981	0.101
508.800	-4.555	0.101
508.900	-17.982	0.101
509.000	-9.849	0.101
509.100	-23.054	0.101
509.200	-20.779	0.101
509.300	-15.748	0.101
509.400	-11.666	0.101
509.500	-21.916	0.101
509.600	-17.741	0.101
509.700	-6.951	0.101
509.800	-14.861	0.101
509.900	-13.003	0.101
510.000	-1.632	0.101
510.100	-7.359	0.101
510.200	-13.621	0.101
510.300	-11.874	0.101
510.400	-8.910	0.101
510.500	-6.205	0.101
510.600	7.483	0.101
510.700	3.240	0.101
510.800	3.636	0.101
510.900	6.242	0.101
511.000	11.065	0.101
511.100	9.643	0.101
511.200	22.929	0.101
511.300	6.721	0.101
511.400	19.853	0.101
511.500	22.674	0.101
511.600	19.513	0.101
511.700	14.021	0.101
511.800	16.264	0.101
511.900	14.918	0.101
512.000	26.341	0.101
512.100	14.657	0.101
512.200	15.350	0.101
512.300	15.957	0.101
512.400	27.304	0.101
512.500	26.386	0.101
512.600	15.701	0.101
512.700	19.666	0.101
512.800	30.309	0.101
512.900	13.070	0.101
513.000	13.858	0.101
513.100	19.042	0.101
513.200	19.472	0.101
513.300	11.592	0.101
513.400	17.915	0.101
513.500	11.352	0.101
513.600	21.109	0.101
513.700	21.027	0.101
513.800	9.802	0.101
513.900	11.123	0.101
514.000	23.565	0.101
514.100	19.586	0.101
514.200	21.445	0.101
514.300	0.348	0.101
514.400	22.617	0.101
514.500	5.386	0.101
514.600	1.611	0.101
514.700	-8.610	0.101
514.800	21.144	0.101
514.900	21.866	0.101
515.000	17.822	0.101
515.100	9.758	0.101
515.200	26.539	0.101
515.300	7.909	0.101
515.400	21.146	0.101
515.500	14.380	0.101
515.600	13.458	0.101
515.700	4.759	0.101
515.800	15.004	0.101
515.900	5.954	0.101
516.000	13.193	0.101
516.100	25.277	0.101
516.200	15.199	0.101
516.300	2.146	0.101
516.400	20.419	0.101
516.500	7.367	0.101
516.600	9.786	0.101
516.700	5.074	0.101
516.800	19.169	0.101
516.900	7.093	0.101
517.000	4.848	0.101
517.100	21.767	0.101
517.200	10.483	0.101
517.300	14.659	0.101
517.400	14.993	0.101
517.500	1.859	0.101
517.600	3.264	0.101
517.700	23.601	0.101
517.800	11.504	0.101
517.900	26.064	0.101
518.000	17.288	0.101
518.100	33.655	0.101
518.200	4.029	0.101
518.300	19.589	0.101
518.400	5.613	0.101
518.500	11.204	0.101
518.600	11.274	0.101
518.700	15.336	0.101
518.800	20.784	0.101
518.900	8.720	0.101
519.000	3.811	0.101
519.100	22.383	0.101
519.200	22.252	0.101
519.300	22.959	0.101
519.400	4.134	0.101
519.500	22.056	0.101
519.600	24.707	0.101
519.700	25.039	0.101
519.800	22.007	0.101
519.900	12.355	0.101
520.000	23.742	0.101
520.100	40.414	0.101
520.200	15.920	0.101
520.300	21.332	0.101
520.400	26.526	0.101
520.500	29.652	0.101
520.600	22.345	0.101
520.700	21.537	0.101
520.800	30.567	0.101
520.900	13.725	0.101
521.000	40.265	0.101
521.100	12.476	0.101
521.200	15.319	0.101
521.300	29.326	0.101
521.400	33.983	0.101
521.500	24.480	0.101
521.600	32.024	0.101
521.700	30.422	0.101
521.800	34.276	0.101
521.900	29.713	0.101
522.000	43.648	0.101
522.100	43.032	0.101
522.200	35.443	0.101
522.300	30.804	0.101
522.400	34.085	0.101
522.500	26.054	0.101
522.600	37.818	0.101
522.700	24.701	0.101
522.800	50.318	0.101
522.900	50.344	0.101
523.000	36.123	0.101
523.100	36.181	0.101
523.200	28.366	0.101
523.300	35.144	0.101
523.400	39.685	0.101
523.500	42.978	0.101
523.600	47.600	0.101
523.700	48.397	0.101
523.800	50.487	0.101
523.900	45.809	0.101
524.000	48.993	0.101
524.100	36.337	0.101
524.200	40.266	0.101
524.300	41.066	0.101
524.400	50.177	0.101
524.500	34.237	0.101
524.600	55.990	0.101
524.700	44.109	0.101
524.800	39.954	0.101
524.900	43.870	0.101
525.000	53.956	0.101
525.100	50.257	0.101
525.200	45.668	0.101
525.300	56.317	0.101
525.400	65.752	0.101
525.500	66.064	0.101
525.600	41.420	0.101
525.700	55.237	0.101
525.800	45.566	0.101
525.900	55.921	0.101
526.000	42.504	0.101
526.100	43.152	0.101
526.200	59.548	0.101
526.300	66.068	0.101
526.400	55.154	0.101
526.500	54.548	0.101
526.600	54.942	0.101
526.700	61.477	0.101
526.800	52.434	0.101
526.900	63.114	0.101
527.000	62.778	0.101
527.100	46.317	0.101
527.200	57.156	0.101
527.300	63.351	0.101
527.400	56.811	0.101
527.500	60.796	0.101
527.600	63.137	0.101
527.700	61.879	0.101
527.800	45.627	0.101
527.900	61.278	0.101
528.000	54.297	0.101
528.100	57.416	0.101
528.200	60.488	0.101
528.300	70.285	0.101
528.400	59.289	0.101
528.500	57.717	0.101
528.600	59.869	0.101
528.700	50.988	0.101
528.800	44.588	0.101
528.900	68.476	0.101
529.000	60.478	0.101
529.100	56.719	0.101
529.200	65.239	0.101
529.300	55.337	0.101
529.400	53.261	0.101
529.500	49.570	0.101
529.600	54.409	0.101
529.700	76.499	0.101
529.800	57.520	0.101
529.900	65.123	0.101
530.000	53.292	0.101
530.100	64.608	0.101
530.200	59.173	0.101
530.300	51.343	0.101
530.400	56.277	0.101
530.500	69.856	0.101
530.600	55.289	0.101
530.700	66.373	0.101
530.800	58.986	0.101
530.900	65.270	0.101
531.000	51.534	0.101
531.100	62.276	0.101
531.200	72.383	0.101
531.300	56.402	0.101
531.400	47.042	0.101
531.500	68.746	0.101
531.600	63.067	0.101
531.700	58.396	0.101
531.800	67.772	0.101
531.900	58.524	0.101
532.000	48.272	0.101
532.100	65.047	0.101
532.200	58.748	0.101
532.300	64.873	0.101
532.400	67.701	0.101
532.500	76.176	0.101
532.600	47.957	0.101
532.700	51.446	0.101
532.800	63.891	0.101
532.900	57.039	0.101
533.000	58.456	0.101
533.100	59.264	0.101
533.200	68.541	0.101
533.300	55.372	0.101
533.400	63.951	0.101
533.500	49.469	0.101
533.600	56.689	0.101
533.700	62.835	0.101
533.800	57.387	0.101
533.900	61.263	0.101
534.000	55.701	0.101
534.100	62.469	0.101
534.200	51.063	0.101
534.300	67.132	0.101
534.400	64.992	0.101
534.500	53.905	0.101
534.600	74.319	0.101
534.700	70.990	0.101
534.800	57.808	0.101
534.900	60.449	0.101
535.000	54.599	0.101
535.100	52.379	0.101
535.200	60.295	0.101
535.300	49.186	0.101
535.400	41.727	0.101
535.500	61.485	0.101
535.600	49.891	0.101
535.700	50.259	0.101
535.800	63.766	0.101
535.900	55.861	0.101
536.000	40.465	0.101
536.100	59.112	0.101
536.200	48.100	0.101
536.300	56.350	0.101
536.400	61.878	0.101
536.500	46.274	0.101
536.600	46.173	0.101
536.700	59.831	0.101
536.800	46.303	0.101
536.900	55.915	0.101
537.000	49.430	0.101
537.100	60.915	0.101
537.200	50.471	0.101
537.300	54.511	0.101
537.400	47.566	0.101
537.500	49.998	0.101
537.600	43.689	0.101
537.700	57.236	0.101
537.800	49.815	0.101
537.900	65.582	0.101
538.000	65.616	0.101
538.100	63.070	0.101
538.200	41.817	0.101
538.300	53.359	0.101
538.400	54.207	0.101
538.500	61.250	0.101
538.600	54.107	0.101
538.700	70.524	0.101
538.800	59.791	0.101
538.900	51.442	0.101
539.000	45.591	0.101
539.100	60.823	0.101
539.200	51.825	0.101
539.300	52.498	0.101
539.400	43.098	0.101
539.500	49.011	0.101
539.600	49.535	0.101
539.700	67.553	0.101
539.800	44.265	0.101
539.900	53.146	0.101
540.000	60.078	0.101
540.100	59.591	0.101
540.200	52.753	0.101
540.300	42.722	0.101
540.400	47.572	0.101
540.500	36.176	0.101
540.600	29.641	0.101
540.700	31.835	0.101
540.800	28.250	0.101
540.900	33.735	0.101
541.000	36.631	0.101
541.100	39.300	0.101
541.200	25.341	0.101
541.300	19.690	0.101
541.400	15.635	0.101
541.500	24.190	0.101
541.600	35.338	0.101
541.700	22.458	0.101
541.800	7.940	0.101
541.900	21.717	0.101
542.000	15.295	0.101
542.100	15.780	0.101
542.200	-2.731	0.101
542.300	5.573	0.101
542.400	18.651	0.101
542.500	-5.894	0.101
542.600	3.244	0.101
542.700	4.065	0.101
542.800	4.879	0.101
542.900	18.347	0.101
543.000	10.226	0.101
543.100	1.028	0.101
543.200	0.845	0.101
543.300	0.803	0.101
543.400	11.996	0.101
543.500	-4.809	0.101
543.600	-5.387	0.101
543.700	-8.138	0.101
543.800	-6.445	0.101
543.900	-3.730	0.101
544.000	-3.509	0.101
544.100	5.465	0.101
544.200	-2.461	0.101
544.300	-2.528	0.101
544.400	-4.334	0.101
544.500	-4.354	0.101
544.600	-4.919	0.101
544.700	-8.943	0.101
544.800	3.480	0.101
544.900	-17.261	0.101
545.000	-14.465	0.101
545.100	-7.157	0.101
545.200	-17.826	0.101
545.300	-5.599	0.101
545.400	-3.965	0.101
545.500	-10.813	0.101
545.600	-8.787	0.101
545.700	-16.666	0.101
545.800	5.056	0.101
545.900	-3.627	0.101
546.000	-7.159	0.101
546.100	-9.062	0.101
546.200	-10.744	0.101
546.300	-5.435	0.101
546.400	-7.228	0.101
546.500	-3.055	0.101
546.600	-3.925	0.101
546.700	-8.260	0.101
546.800	1.119	0.101
546.900	-5.143	0.101
547.000	-21.552	0.101
547.100	-5.160	0.101
547.200	-0.948	0.101
547.300	-2.416	0.101
547.400	-10.959	0.101
547.500	-13.127	0.101
547.600	-3.929	0.101
547.700	-10.395	0.101
547.800	2.255	0.101
547.900	9.888	0.101
548.000	10.339	0.101
548.100	-14.407	0.101
548.200	-12.441	0.101
548.300	-11.143	0.101
548.400	10.085	0.101
548.500	-5.963	0.101
548.600	-12.538	0.101
548.700	5.970	0.101
548.800	4.650	0.101
548.900	-7.905	0.101
549.000	-1.991	0.101
549.100	1.381	0.101
549.200	5.083	0.101
549.300	-5.040	0.101
549.400	-5.829	0.101
549.500	2.052	0.101
549.600	-5.442	0.101
549.700	-5.037	0.101
549.800	-10.266	0.101
549.900	-4.538	0.101
550.000	11.422	0.101
550.100	-11.585	0.101
550.200	-2.807	0.101
550.300	2.859	0.101
550.400	12.252	0.101
550.500	-10.521	0.101
550.600	-8.308	0.101
550.700	-2.211	0.101
550.800	1.164	0.101
550.900	-16.790	0.101
551.000	-0.422	0.101
551.100	6.636	0.101
551.200	4.180	0.101
551.300	10.411	0.101
551.400	1.858	0.101
551.500	3.771	0.101
551.600	-8.701	0.101
551.700	-11.233	0.101
551.800	-3.371	0.101
551.900	3.936	0.101
552.000	7.094	0.101
552.100	-15.189	0.101
552.200	12.799	0.101
552.300	4.761	0.101
552.400	-1.846	0.101
552.500	0.075	0.101
552.600	-12.771	0.101
552.700	-2.272	0.101
552.800	-2.563	0.101
552.900	-2.079	0.101
553.000	3.760	0.101
553.100	-11.201	0.101
553.200	-7.457	0.101
553.300	-13.299	0.101
553.400	5.783	0.101
553.500	4.879	0.101
553.600	9.918	0.101
553.700	4.874	0.101
553.800	-3.230	0.101
553.900	-5.809	0.101
554.000	-4.358	0.101
554.100	-7.394	0.101
554.200	5.579	0.101
554.300	-7.299	0.101
554.400	-17.072	0.101
554.500	12.519	0.101
554.600	-6.025	0.101
554.700	13.904	0.101
554.800	-3.056	0.101
554.900	-3.622	0.101
555.000	-1.577	0.101
555.100	-5.700	0.101
555.200	1.823	0.101
555.300	-1.621	0.101
555.400	-6.680	0.101
555.500	2.389	0.101
555.600	2.929	0.101
555.700	-7.159	0.101
555.800	-12.980	0.101
555.900	4.235	0.101
556.000	-7.830	0.101
556.100	6.437	0.101
556.200	-9.926	0.101
556.300	-4.284	0.101
556.400	-8.308	0.101
556.500	-9.362	0.101
556.600	-7.286	0.101
556.700	-15.529	0.101
556.800	-2.631	0.101
556.900	4.698	0.101
557.000	-2.487	0.101
557.100	-8.352	0.101
557.200	-3.988	0.101
557.300	15.931	0.101
557.400	-10.467	0.101
557.500	-10.847	0.101
557.600	-5.154	0.101
557.700	5.618	0.101
557.800	-4.623	0.101
557.900	-15.840	0.101
558.000	9.397	0.101
558.100	-11.333	0.101
558.200	-17.884	0.101
558.300	8.141	0.101
558.400	-0.802	0.101
558.500	-8.869	0.101
558.600	-22.231	0.101
558.700	-8.689	0.101
558.800	-10.912	0.101
558.900	-10.504	0.101
559.000	-0.038	0.101
559.100	-8.254	0.101
559.200	5.700	0.101
559.300	-8.597	0.101
559.400	-15.933	0.101
559.500	6.785	0.101
559.600	-15.123	0.101
559.700	0.202	0.101
559.800	0.715	0.101
559.900	-8.162	0.101
560.000	-15.539	0.101
560.100	-4.632	0.101
560.200	3.605	0.101
560.300	-6.946	0.101
560.400	-5.261	0.101
560.500	-13.579	0.101
560.600	-13.257	0.101
560.700	5.179	0.101
560.800	5.432	0.101
560.900	-6.164	0.101
561.000	-9.243	0.101
561.100	8.706	0.101
561.200	-5.549	0.101
561.300	-13.651	0.101
561.400	-7.289	0.101
561.500	0.473	0.101
561.600	-11.257	0.101
561.700	-11.566	0.101
561.800	-1.651	0.101
561.900	-13.545	0.101
562.000	-26.127	0.101
562.100	-1.700	0.101
562.200	-2.811	0.101
562.300	1.863	0.101
562.400	-2.945	0.101
562.500	-4.200	0.101
562.600	-6.767	0.101
562.700	-16.663	0.101
562.800	-10.610	0.101
562.900	-10.596	0.101
563.000	-10.014	0.101
563.100	-1.109	0.101
563.200	-18.687	0.101
563.300	-5.783	0.101
563.400	-4.798	0.101
563.500	-1.920	0.101
563.600	-10.029	0.101
563.700	-2.597	0.101
563.800	-18.913	0.101
563.900	-12.360	0.101
564.000	-7.468	0.101
564.100	-17.661	0.101
564.200	0.620	0.101
564.300	-16.646	0.101
564.400	-8.839	0.101
564.500	-0.976	0.101
564.600	-22.764	0.101
564.700	-9.649	0.101
564.800	-20.222	0.101
564.900	-10.740	0.101
565.000	0.203	0.101
565.100	-12.265	0.101
565.200	-13.356	0.101
565.300	-6.373	0.101
565.400	-10.355	0.101
565.500	-7.081	0.101
565.600	1.177	0.101
565.700	-6.327	0.101
565.800	-2.462	0.101
565.900	-23.423	0.101
566.000	-1.819	0.101
566.100	-8.590	0.101
566.200	-15.584	0.101
566.300	-12.601	0.101
566.400	-16.620	0.101
566.500	-6.914	0.101
566.600	-12.866	0.101
566.700	-10.351	0.101
566.800	-8.129	0.101
566.900	-5.667	0.101
567.000	-14.622	0.101
567.100	-19.083	0.101
567.200	-5.304	0.101
567.300	-10.849	0.101
567.400	-18.434	0.101
567.500	4.625	0.101
567.600	-10.443	0.101
567.700	-3.223	0.101
567.800	-6.938	0.101
567.900	-9.545	0.101
568.000	-3.303	0.101
568.100	-17.630	0.101
568.200	-13.275	0.101
568.300	-9.598	0.101
568.400	-8.074	0.101
568.500	-9.938	0.101
568.600	-18.540	0.101
568.700	-7.274	0.101
568.800	-11.753	0.101
568.900	-23.294	0.101
569.000	-12.898	0.101
569.100	-9.245	0.101
569.200	-7.813	0.101
569.300	-13.007	0.101
569.400	-2.856	0.101
569.500	-12.067	0.101
569.600	-10.324	0.101
569.700	-11.779	0.101
569.800	-20.242	0.101
569.900	-24.649	0.101
570.000	-18.100	0.101
570.100	-16.726	0.101
570.200	-5.742	0.101
570.300	-8.397	0.101
570.400	-2.797	0.101
570.500	-25.030	0.101
570.600	-10.802	0.101
570.700	-22.944	0.101
570.800	-7.895	0.101
570.900	-20.812	0.101
571.000	-4.234	0.101
571.100	-28.498	0.101
571.200	-23.016	0.101
571.300	-15.552	0.101
571.400	-3.798	0.101
571.500	-12.999	0.101
571.600	-18.189	0.101
571.700	2.292	0.101
571.800	-17.999	0.101
571.900	-25.512	0.101
572.000	-10.955	0.101
572.100	-10.051	0.101
572.200	-12.511	0.101
572.300	-18.328	0.101
572.400	-27.047	0.101
572.500	-16.241	0.101
572.600	-5.625	0.101
572.700	-9.040	0.101
572.800	-35.203	0.101
572.900	-8.989	0.101
573.000	4.414	0.101
573.100	-14.111	0.101
573.200	-16.707	0.101
573.300	-10.779	0.101
573.400	-9.417	0.101
573.500	-8.990	0.101
573.600	-16.379	0.101
573.700	-34.130	0.101
573.800	-0.481	0.101
573.900	-21.164	0.101
574.000	-19.763	0.101
574.100	-16.023	0.101
574.200	-19.057	0.101
574.300	-15.992	0.101
574.400	-4.399	0.101
574.500	-15.015	0.101
574.600	-1.538	0.101
574.700	-17.849	0.101
574.800	-15.959	0.101
574.900	-6.864	0.101
575.000	-14.534	0.101
575.100	-7.473	0.101
575.200	-30.494	0.101
575.300	-11.523	0.101
575.400	-14.566	0.101
575.500	-11.717	0.101
575.600	-23.469	0.101
575.700	-19.353	0.101
575.800	-4.855	0.101
575.900	-15.103	0.101
576.000	-6.210	0.101
576.100	-10.786	0.101
576.200	-19.682	0.101
576.300	-5.291	0.101
576.400	-27.571	0.101
576.500	-8.821	0.101
576.600	-25.275	0.101
576.700	-18.400	0.101
576.800	-20.117	0.101
576.900	-10.994	0.101
577.000	-7.766	0.101
577.100	-19.167	0.101
577.200	-13.252	0.101
577.300	-15.411	0.101
577.400	-12.639	0.101
577.500	-14.754	0.101
577.600	-8.050	0.101
577.700	-19.914	0.101
577.800	-16.452	0.101
577.900	-13.290	0.101
578.000	-4.809	0.101
578.100	-28.243	0.101
578.200	-15.376	0.101
578.300	-21.836	0.101
578.400	-16.688	0.101
578.500	-15.895	0.101
578.600	-17.648	0.101
578.700	-23.226	0.101
578.800	-21.279	0.101
578.900	-1.262	0.101
579.000	-1.965	0.101
579.100	-19.921	0.101
579.200	-28.407	0.101
579.300	-24.015	0.101
579.400	0.311	0.101
579.500	-11.490	0.101
579.600	-18.258	0.101
579.700	-20.903	0.101
579.800	-17.245	0.101
579.900	-27.842	0.101
580.000	-17.298	0.101
580.100	-22.237	0.101
580.200	-21.866	0.101
580.300	-16.072	0.101
580.400	-12.565	0.101
580.500	-18.113	0.101
580.600	-12.676	0.101
580.700	-33.575	0.101
580.800	-19.418	0.101
580.900	-4.678	0.101
581.000	-14.725	0.101
581.100	-17.669	0.101
581.200	-9.339	0.101
581.300	-20.231	0.101
581.400	-14.567	0.101
581.500	-13.057	0.101
581.600	-15.711	0.101
581.700	-20.203	0.101
581.800	-16.961	0.101
581.900	-7.054	0.101
582.000	-8.815	0.101
582.100	-9.976	0.101
582.200	-17.273	0.101
582.300	-18.443	0.101
582.400	-6.882	0.101
582.500	-15.631	0.101
582.600	-25.516	0.101
582.700	-10.337	0.101
582.800	-11.470	0.101
582.900	-9.851	0.101
583.000	-15.968	0.101
583.100	-16.980	0.101
583.200	-27.196	0.101
583.300	-16.357	0.101
583.400	-13.392	0.101
583.500	-22.340	0.101
583.600	-17.882	0.101
583.700	-22.658	0.101
583.800	-31.515	0.101
583.900	-10.994	0.101
584.000	-19.404	0.101
584.100	-17.259	0.101
584.200	-18.209	0.101
584.300	-5.122	0.101
584.400	-34.983	0.101
584.500	2.463	0.101
584.600	-12.631	0.101
584.700	-23.803	0.101
584.800	-16.129	0.101
584.900	-21.830	0.101
585.000	-20.828	0.101
585.100	-8.404	0.101
585.200	-9.322	0.101
585.300	-24.987	0.101
585.400	-12.570	0.101
585.500	-27.150	0.101
585.600	-20.290	0.101
585.700	-18.736	0.101
585.800	-8.564	0.101
585.900	-11.323	0.101
586.000	-21.787	0.101
586.100	-27.297	0.101
586.200	-11.116	0.101
586.300	-19.421	0.101
586.400	-1.358	0.101
586.500	-16.376	0.101
586.600	-13.446	0.101
586.700	-17.116	0.101
586.800	-17.190	0.101
586.900	-26.405	0.101
587.000	-9.926	0.101
587.100	-13.053	0.101
587.200	-11.298	0.101
587.300	-19.912	0.101
587.400	-2.974	0.101
587.500	-11.185	0.101
587.600	-25.852	0.101
587.700	-34.398	0.101
587.800	-18.477	0.101
587.900	-12.719	0.101
588.000	-9.411	0.101
588.100	-9.648	0.101
588.200	-13.848	0.101
588.300	-23.024	0.101
588.400	-12.465	0.101
588.500	-6.139	0.101
588.600	-27.682	0.101
588.700	-11.934	0.101
588.800	-13.967	0.101
588.900	-22.147	0.101
589.000	-18.317	0.101
589.100	-10.357	0.101
589.200	-18.521	0.101
589.300	-18.599	0.101
589.400	-18.096	0.101
589.500	-5.097	0.101
589.600	-16.132	0.101
589.700	-4.308	0.101
589.800	-25.524	0.101
589.900	-23.626	0.101
590.000	-28.229	0.101
590.100	-10.117	0.101
590.200	-20.184	0.101
590.300	-18.591	0.101
590.400	-0.367	0.101
590.500	-8.386	0.101
590.600	-26.460	0.101
590.700	-17.915	0.101
590.800	-23.096	0.101
590.900	-17.133	0.101
591.000	-16.707	0.101
591.100	-30.686	0.101
591.200	-4.154	0.101
591.300	-7.311	0.101
591.400	-24.989	0.101
591.500	-11.666	0.101
591.600	-16.962	0.101
591.700	-29.240	0.101
591.800	-20.092	0.101
591.900	-15.639	0.101
592.000	-11.151	0.101
592.100	-16.686	0.101
592.200	-12.740	0.101
592.300	-25.677	0.101
592.400	-11.019	0.101
592.500	-25.212	0.101
592.600	-8.331	0.101
592.700	-10.586	0.101
592.800	-17.804	0.101
592.900	-13.947	0.101
593.000	-16.913	0.101
593.100	-19.590	0.101
593.200	-21.986	0.101
593.300	-17.974	0.101
593.400	-8.324	0.101
593.500	-12.979	0.101
593.600	-10.078	0.101
593.700	-19.369	0.101
593.800	-21.226	0.101
593.900	-19.590	0.101
594.000	-17.531	0.101
594.100	-15.715	0.101
594.200	-10.928	0.101
594.300	-21.756	0.101
594.400	-24.325	0.101
594.500	-26.444	0.101
594.600	-19.581	0.101
594.700	-22.672	0.101
594.800	-20.599	0.101
594.900	-14.411	0.101
595.000	-17.049	0.101
595.100	-25.720	0.101
595.200	-30.758	0.101
595.300	-10.939	0.101
595.400	-3.109	0.101
595.500	-7.371	0.101
595.600	-19.236	0.101
595.700	-26.029	0.101
595.800	-20.159	0.101
595.900	-4.498	0.101
596.000	-21.964	0.101
596.100	-17.761	0.101
596.200	-11.832	0.101
596.300	-14.463	0.101
596.400	-17.354	0.101
596.500	-28.013	0.101
596.600	-16.859	0.101
596.700	-23.096	0.101
596.800	4.760	0.101
596.900	-11.033	0.101
597.000	-6.646	0.101
597.100	-19.546	0.101
597.200	-22.302	0.101
597.300	-26.010	0.101
597.400	-21.833	0.101
597.500	-29.688	0.101
597.600	-19.917	0.101
597.700	-17.549	0.101
597.800	-10.021	0.101
597.900	-19.917	0.101
598.000	-22.646	0.101
598.100	-21.813	0.101
598.200	-6.259	0.101
598.300	-2.069	0.101
598.400	-21.661	0.101
598.500	-17.273	0.101
598.600	-9.973	0.101
598.700	-5.004	0.101
598.800	-15.501	0.101
598.900	-10.073	0.101
599.000	-9.518	0.101
599.100	-30.216	0.101
599.200	-6.272	0.101
599.300	-18.153	0.101
599.400	-23.195	0.101
599.500	-25.964	0.101
599.600	-9.028	0.101
599.700	-23.592	0.101
599.800	-14.281	0.101
599.900	-19.709	0.101
600.000	-14.509	0.101
600.100	-12.215	0.101
600.200	-4.328	0.101
600.300	-13.275	0.101
600.400	-24.323	0.101
600.500	-20.773	0.101
600.600	-23.448	0.101
600.700	-15.796	0.101
600.800	-29.648	0.101
600.900	-13.955	0.101
601.000	-12.564	0.101
601.100	-11.409	0.101
601.200	-33.147	0.101
601.300	-15.502	0.101
601.400	-14.574	0.101
601.500	-12.393	0.101
601.600	-26.460	0.101
601.700	-4.696	0.101
601.800	-7.637	0.101
601.900	-24.381	0.101
602.000	-13.544	0.101
602.100	-11.501	0.101
602.200	-12.119	0.101
602.300	-18.994	0.101
602.400	-8.563	0.101
602.500	-23.687	0.101
602.600	-17.844	0.101
602.700	-22.170	0.101
602.800	-1.413	0.101
602.900	-22.105	0.101
603.000	-23.389	0.101
603.100	-19.502	0.101
603.200	-2.291	0.101
603.300	-17.317	0.101
603.400	-27.081	0.101
603.500	-19.388	0.101
603.600	-6.902	0.101
603.700	-6.760	0.101
603.800	-12.997	0.101
603.900	-33.297	0.101
604.000	-12.979	0.101
604.100	-10.945	0.101
604.200	-23.777	0.101
604.300	-19.791	0.101
604.400	-13.489	0.101
604.500	-21.498	0.101
604.600	-12.828	0.101
604.700	-19.856	0.101
604.800	-18.166	0.101
604.900	-13.579	0.101
605.000	-27.294	0.101
605.100	-25.833	0.101
605.200	17.133	0.101
605.300	-26.212	0.101
605.400	-9.215	0.101
605.500	-31.838	0.101
605.600	-8.813	0.101
605.700	-23.846	0.101
605.800	-12.788	0.101
605.900	-17.844	0.101
606.000	-26.621	0.101
606.100	-17.501	0.101
606.200	-21.167	0.101
606.300	-14.005	0.101
606.400	-17.175	0.101
606.500	-18.070	0.101
606.600	-14.538	0.101
606.700	-20.777	0.101
606.800	-15.504	0.101
606.900	-25.677	0.101
607.000	-18.534	0.101
607.100	-27.821	0.101
607.200	-14.977	0.101
607.300	-16.176	0.101
607.400	-10.516	0.101
607.500	-17.053	0.101
607.600	-23.952	0.101
607.700	-11.731	0.101
607.800	-11.756	0.101
607.900	-13.852	0.101
608.000	-19.349	0.101
608.100	-25.595	0.101
608.200	-27.939	0.101
608.300	-7.458	0.101
608.400	-22.794	0.101
608.500	-23.897	0.101
608.600	-4.041	0.101
608.700	-16.219	0.101
608.800	-2.217	0.101
608.900	-19.487	0.101
609.000	-25.037	0.101
609.100	-24.459	0.101
609.200	-23.728	0.101
609.300	-9.909	0.101
609.400	-9.363	0.101
609.500	-16.638	0.101
609.600	-9.686	0.101
609.700	-24.740	0.101
609.800	-0.172	0.101
609.900	-24.263	0.101
610.000	-21.547	0.101
610.100	-11.131	0.101
610.200	-19.619	0.101
610.300	-23.068	0.101
610.400	-11.565	0.101
610.500	-10.202	0.101
610.600	-24.757	0.101
610.700	-1.717	0.101
610.800	-11.928	0.101
610.900	-16.789	0.101
611.000	-14.997	0.101
611.100	-19.300	0.101
611.200	-31.378	0.101
611.300	-14.697	0.101
611.400	6.315	0.101
611.500	-28.280	0.101
611.600	-24.153	0.101
611.700	-14.104	0.101
611.800	-13.356	0.101
611.900	-15.870	0.101
612.000	-17.537	0.101
612.100	-16.072	0.101
612.200	-14.818	0.101
612.300	-17.319	0.101
612.400	-30.112	0.101
612.500	-20.964	0.101
612.600	-10.622	0.101
612.700	-14.592	0.101
612.800	-13.447	0.101
612.900	-11.933	0.101
613.000	-29.322	0.101
613.100	-10.686	0.101
613.200	-18.880	0.101
613.300	-12.962	0.101
613.400	-22.563	0.101
613.500	-12.038	0.101
613.600	-12.691	0.101
613.700	-21.424	0.101
613.800	-11.047	0.101
613.900	-6.912	0.101
614.000	-14.789	0.101
614.100	-18.418	0.101
614.200	-13.344	0.101
614.300	-25.073	0.101
614.400	-19.503	0.101
614.500	0.666	0.101
614.600	-20.857	0.101
614.700	-26.498	0.101
614.800	-21.744	0.101
614.900	-16.693	0.101
615.000	-12.311	0.101
615.100	-16.485	0.101
615.200	-20.768	0.101
615.300	-19.887	0.101
615.400	-19.738	0.101
615.500	-11.485	0.101
615.600	-19.198	0.101
615.700	-15.568	0.101
615.800	-15.891	0.101
615.900	-22.229	0.101
616.000	-19.151	0.101
616.100	-5.650	0.101
616.200	-21.781	0.101
616.300	-6.901	0.101
616.400	-19.813	0.101
616.500	-24.022	0.101
616.600	-18.144	0.101
616.700	-16.548	0.101
616.800	-19.099	0.101
616.900	-24.767	0.101
617.000	-16.353	0.101
617.100	-13.357	0.101
617.200	-6.949	0.101
617.300	-16.049	0.101
617.400	-15.522	0.101
617.500	-11.059	0.101
617.600	-12.065	0.101
617.700	-2.160	0.101
617.800	-11.254	0.101
617.900	-18.013	0.101
618.000	-23.319	0.101
618.100	-11.976	0.101
618.200	-18.038	0.101
618.300	-21.150	0.101
618.400	-13.626	0.101
618.500	-15.884	0.101
618.600	-26.593	0.101
618.700	-23.176	0.101
618.800	-17.964	0.101
618.900	-16.582	0.101
619.000	-7.435	0.101
619.100	-16.557	0.101
619.200	-15.242	0.101
619.300	-11.630	0.101
619.400	-13.985	0.101
619.500	-27.310	0.101
619.600	-18.935	0.101
619.700	-0.349	0.101
619.800	-20.456	0.101
619.900	-8.959	0.101
620.000	-3.862	0.101
620.100	-13.655	0.101
620.200	-13.772	0.101
620.300	-26.359	0.101
620.400	-10.718	0.101
620.500	-8.137	0.101
620.600	-19.223	0.101
620.700	-28.204	0.101
620.800	-17.230	0.101
620.900	-19.506	0.101
621.000	-16.045	0.101
621.100	-16.452	0.101
621.200	-6.448	0.101
621.300	-21.226	0.101
621.400	-27.848	0.101
621.500	-13.208	0.101
621.600	-9.984	0.101
621.700	7.141	0.101
621.800	-17.088	0.101
621.900	-19.609	0.101
622.000	-16.192	0.101
622.100	-20.853	0.101
622.200	-16.192	0.101
622.300	-26.590	0.101
622.400	-13.614	0.101
622.500	-13.078	0.101
622.600	-17.175	0.101
622.700	-17.389	0.101
622.800	-7.628	0.101
622.900	-28.794	0.101
623.000	-14.373	0.101
623.100	-20.903	0.101
623.200	-2.635	0.101
623.300	-2.745	0.101
623.400	-33.544	0.101
623.500	-16.880	0.101
623.600	-23.180	0.101
623.700	-9.440	0.101
623.800	-17.438	0.101
623.900	-16.433	0.101
624.000	-17.456	0.101
624.100	-12.292	0.101
624.200	-19.298	0.101
624.300	-19.302	0.101
624.400	-21.751	0.101
624.500	-13.439	0.101
624.600	-12.104	0.101
624.700	-19.541	0.101
624.800	-8.784	0.101
624.900	-32.884	0.101
625.000	-8.981	0.101
625.100	-22.403	0.101
625.200	-11.520	0.101
625.300	-22.335	0.101
625.400	-18.398	0.101
625.500	-8.761	0.101
625.600	-6.644	0.101
625.700	-12.049	0.101
625.800	-22.947	0.101
625.900	-24.522	0.101
626.000	-22.305	0.101
626.100	-2.894	0.101
626.200	-10.696	0.101
626.300	-16.549	0.101
626.400	-5.664	0.101
626.500	-18.626	0.101
626.600	-19.347	0.101
626.700	-11.751	0.101
626.800	-14.888	0.101
626.900	-14.562	0.101
627.000	-20.507	0.101
627.100	-17.872	0.101
627.200	-19.506	0.101
627.300	-20.364	0.101
627.400	-10.040	0.101
627.500	-29.732	0.101
627.600	-0.178	0.101
627.700	7.949	0.101
627.800	-9.863	0.101
627.900	-26.861	0.101
628.000	-13.306	0.101
628.100	-23.924	0.101
628.200	-7.593	0.101
628.300	-10.323	0.101
628.400	-21.617	0.101
628.500	-33.595	0.101
628.600	-18.096	0.101
628.700	-17.692	0.101
628.800	-18.576	0.101
628.900	-14.354	0.101
629.000	-15.326	0.101
629.100	-18.966	0.101
629.200	-21.666	0.101
629.300	-22.823	0.101
629.400	-14.437	0.101
629.500	-13.200	0.101
629.600	-31.267	0.101
629.700	-24.419	0.101
629.800	-16.863	0.101
629.900	-13.048	0.101
630.000	-12.032	0.101
630.100	-24.562	0.101
630.200	-12.574	0.101
630.300	-4.230	0.101
630.400	-4.568	0.101
630.500	-6.716	0.101
630.600	-8.680	0.101
630.700	-3.179	0.101
630.800	9.794	0.101
630.900	14.829	0.101
631.000	11.518	0.101
631.100	12.223	0.101
631.200	6.890	0.101
631.300	1.294	0.101
631.400	22.547	0.101
631.500	16.792	0.101
631.600	14.713	0.101
631.700	26.665	0.101
631.800	32.527	0.101
631.900	12.343	0.101
632.000	22.916	0.101
632.100	25.431	0.101
632.200	19.699	0.101
632.300	23.149	0.101
632.400	30.671	0.101
632.500	16.262	0.101
632.600	26.938	0.101
632.700	9.619	0.101
632.800	20.053	0.101
632.900	0.891	0.101
633.000	13.837	0.101
633.100	31.384	0.101
633.200	32.263	0.101
633.300	14.958	0.101
633.400	21.788	0.101
633.500	11.790	0.101
633.600	18.162	0.101
633.700	10.163	0.101
633.800	14.295	0.101
633.900	21.737	0.101
634.000	26.264	0.101
634.100	20.325	0.101
634.200	8.013	0.101
634.300	23.440	0.101
634.400	10.589	0.101
634.500	5.212	0.101
634.600	9.541	0.101
634.700	9.530	0.101
634.800	11.005	0.101
634.900	4.699	0.101
635.000	16.253	0.101
635.100	18.295	0.101
635.200	-10.413	0.101
635.300	10.776	0.101
635.400	9.137	0.101
635.500	5.202	0.101
635.600	6.472	0.101
635.700	10.365	0.101
635.800	11.284	0.101
635.900	-1.966	0.101
636.000	18.050	0.101
636.100	-7.387	0.101
636.200	21.310	0.101
636.300	16.814	0.101
636.400	14.849	0.101
636.500	18.083	0.101
636.600	3.758	0.101
636.700	17.412	0.101
636.800	13.394	0.101
636.900	5.950	0.101
637.000	3.494	0.101
637.100	7.190	0.101
637.200	12.966	0.101
637.300	25.247	0.101
637.400	13.993	0.101
637.500	1.713	0.101
637.600	10.052	0.101
637.700	17.205	0.101
637.800	13.910	0.101
637.900	12.035	0.101
638.000	3.649	0.101
638.100	10.607	0.101
638.200	18.353	0.101
638.300	15.132	0.101
638.400	5.255	0.101
638.500	5.897	0.101
638.600	27.074	0.101
638.700	4.779	0.101
638.800	15.488	0.101
638.900	12.889	0.101
639.000	10.632	0.101
639.100	20.116	0.101
639.200	13.629	0.101
639.300	17.520	0.101
639.400	8.949	0.101
639.500	20.994	0.101
639.600	17.183	0.101
639.700	15.362	0.101
639.800	19.389	0.101
639.900	11.792	0.101
640.000	15.466	0.101
