time /s	I /nA	E /V
0.100	1.797	0.099
0.200	0.404	0.099
0.300	5.174	0.099
0.400	6.480	0.099
0.500	2.991	0.099
0.600	4.039	0.099
0.700	5.010	0.099
0.800	5.700	0.099
0.900	-0.968	0.099
1.000	-1.874	0.099
1.100	1.774	0.099
1.200	0.956	0.099
1.300	5.207	0.099
1.400	6.843	0.099
1.500	5.880	0.099
1.600	8.993	0.099
1.700	6.019	0.099
1.800	5.635	0.099
1.900	5.713	0.099
2.000	2.944	0.099
2.100	-1.146	0.099
2.200	0.246	0.099
2.300	6.501	0.099
2.400	4.179	0.099
2.500	2.298	0.099
2.600	2.451	0.099
2.700	3.416	0.099
2.800	3.407	0.099
2.900	5.370	0.099
3.000	2.030	0.099
3.100	5.701	0.099
3.200	-1.537	0.099
3.300	4.283	0.099
3.400	4.087	0.099
3.500	-0.791	0.099
3.600	2.065	0.099
3.700	8.124	0.099
3.800	-2.501	0.099
3.900	-0.320	0.099
4.000	-0.214	0.099
4.100	2.914	0.099
4.200	2.843	0.099
4.300	0.913	0.099
4.400	3.946	0.099
4.500	2.727	0.099
4.600	1.908	0.099
4.700	7.109	0.099
4.800	-1.942	0.099
4.900	3.312	0.099
5.000	5.448	0.099
5.100	9.606	0.099
5.200	6.420	0.099
5.300	8.503	0.099
5.400	-1.218	0.099
5.500	5.407	0.099
5.600	6.615	0.099
5.700	0.459	0.099
5.800	3.454	0.099
5.900	5.597	0.099
6.000	-2.056	0.099
6.100	2.945	0.099
6.200	1.063	0.099
6.300	3.277	0.099
6.400	7.575	0.099
6.500	1.781	0.099
6.600	4.224	0.099
6.700	4.706	0.099
6.800	3.016	0.099
6.900	4.152	0.099
7.000	6.865	0.099
7.100	4.404	0.099
7.200	3.528	0.099
7.300	0.253	0.099
7.400	2.986	0.099
7.500	-3.138	0.099
7.600	3.338	0.099
7.700	1.758	0.099
7.800	3.500	0.099
7.900	-2.432	0.099
8.000	0.486	0.099
8.100	3.386	0.099
8.200	8.602	0.099
8.300	6.150	0.099
8.400	0.823	0.099
8.500	7.867	0.099
8.600	2.324	0.099
8.700	1.593	0.099
8.800	4.644	0.099
8.900	10.964	0.099
9.000	6.333	0.099
9.100	8.043	0.099
9.200	5.426	0.099
9.300	5.396	0.099
9.400	3.436	0.099
9.500	2.713	0.099
9.600	0.867	0.099
9.700	7.629	0.099
9.800	7.305	0.099
9.900	0.554	0.099
10.000	4.816	0.099
10.100	6.394	0.099
10.200	1.969	0.099
10.300	1.342	0.099
10.400	1.654	0.099
10.500	6.887	0.099
10.600	13.000	0.099
10.700	10.792	0.099
10.800	6.042	0.099
10.900	7.623	0.099
11.000	0.705	0.099
11.100	-4.496	0.099
11.200	-0.773	0.099
11.300	3.771	0.099
11.400	3.752	0.099
11.500	5.449	0.099
11.600	9.730	0.099
11.700	12.027	0.099
11.800	9.343	0.099
11.900	7.721	0.099
12.000	5.797	0.099
12.100	5.895	0.099
12.200	1.672	0.099
12.300	2.497	0.099
12.400	2.919	0.099
12.500	2.186	0.099
12.600	2.803	0.099
12.700	3.230	0.099
12.800	4.492	0.099
12.900	4.394	0.099
13.000	2.697	0.099
13.100	-5.212	0.099
13.200	2.241	0.099
13.300	4.126	0.099
13.400	4.587	0.099
13.500	-0.427	0.099
13.600	2.825	0.099
13.700	1.988	0.099
13.800	-0.633	0.099
13.900	4.459	0.099
14.000	1.654	0.100
14.100	3.398	0.100
14.200	5.962	0.100
14.300	8.069	0.100
14.400	6.154	0.100
14.500	2.634	0.100
14.600	-1.781	0.100
14.700	3.167	0.100
14.800	7.345	0.100
14.900	9.408	0.100
15.000	5.570	0.100
15.100	9.131	0.100
15.200	0.860	0.100
15.300	2.401	0.100
15.400	-1.962	0.100
15.500	3.552	0.100
15.600	-1.076	0.100
15.700	4.718	0.100
15.800	-3.501	0.100
15.900	-2.326	0.100
16.000	3.375	0.100
16.100	6.694	0.100
16.200	8.330	0.100
16.300	5.758	0.100
16.400	3.568	0.100
16.500	5.942	0.100
16.600	3.806	0.100
16.700	1.861	0.100
16.800	2.481	0.100
16.900	0.130	0.100
17.000	1.690	0.100
17.100	6.267	0.100
17.200	10.070	0.100
17.300	7.053	0.100
17.400	1.735	0.100
17.500	3.166	0.100
17.600	5.979	0.100
17.700	7.519	0.100
17.800	3.384	0.100
17.900	3.185	0.100
18.000	4.749	0.100
18.100	-4.045	0.100
18.200	5.794	0.100
18.300	5.312	0.100
18.400	9.433	0.100
18.500	3.373	0.100
18.600	-0.195	0.100
18.700	3.662	0.100
18.800	1.078	0.100
18.900	2.661	0.100
19.000	6.162	0.100
19.100	1.926	0.100
19.200	1.546	0.100
19.300	6.644	0.100
19.400	7.069	0.100
19.500	0.957	0.100
19.600	3.366	0.100
19.700	8.037	0.100
19.800	4.680	0.100
19.900	1.992	0.100
20.000	3.179	0.100
20.100	6.990	0.100
20.200	6.381	0.100
20.300	0.933	0.100
20.400	1.468	0.100
20.500	2.962	0.100
20.600	9.124	0.100
20.700	5.472	0.100
20.800	3.671	0.100
20.900	3.366	0.100
21.000	-1.436	0.100
21.100	2.160	0.100
21.200	8.713	0.100
21.300	8.975	0.100
21.400	7.347	0.100
21.500	2.596	0.100
21.600	0.593	0.100
21.700	0.862	0.100
21.800	-3.157	0.100
21.900	6.448	0.100
22.000	4.397	0.100
22.100	7.453	0.100
22.200	0.511	0.100
22.300	7.631	0.100
22.400	9.636	0.100
22.500	5.393	0.100
22.600	8.526	0.100
22.700	8.264	0.100
22.800	6.282	0.100
22.900	1.166	0.100
23.000	5.141	0.100
23.100	4.733	0.100
23.200	3.157	0.100
23.300	4.732	0.100
23.400	5.836	0.100
23.500	7.620	0.100
23.600	4.597	0.100
23.700	0.245	0.100
23.800	1.024	0.100
23.900	7.897	0.100
24.000	-1.512	0.100
24.100	-1.874	0.100
24.200	-4.723	0.100
24.300	4.397	0.100
24.400	5.858	0.100
24.500	7.126	0.100
24.600	2.770	0.100
24.700	-2.707	0.100
24.800	1.124	0.100
24.900	3.216	0.100
25.000	4.827	0.100
25.100	6.366	0.100
25.200	6.765	0.100
25.300	8.891	0.100
25.400	8.430	0.100
25.500	3.236	0.100
25.600	6.281	0.100
25.700	7.441	0.100
25.800	-0.301	0.100
25.900	3.999	0.100
26.000	4.277	0.100
26.100	2.759	0.100
26.200	5.111	0.100
26.300	0.799	0.100
26.400	4.677	0.100
26.500	7.076	0.100
26.600	6.513	0.100
26.700	3.392	0.100
26.800	4.679	0.100
26.900	0.280	0.100
27.000	0.026	0.100
27.100	7.772	0.100
27.200	-1.419	0.100
27.300	-1.995	0.100
27.400	-3.556	0.100
27.500	3.014	0.100
27.600	3.327	0.100
27.700	6.695	0.100
27.800	5.528	0.100
27.900	0.043	0.100
28.000	3.665	0.100
28.100	2.417	0.100
28.200	6.026	0.100
28.300	3.113	0.100
28.400	0.620	0.100
28.500	-2.856	0.100
28.600	-1.933	0.100
28.700	5.681	0.100
28.800	7.075	0.100
28.900	2.003	0.100
29.000	3.978	0.100
29.100	6.514	0.100
29.200	3.780	0.100
29.300	6.398	0.100
29.400	6.078	0.100
29.500	1.134	0.100
29.600	-5.019	0.100
29.700	1.036	0.100
29.800	3.313	0.100
29.900	2.148	0.100
30.000	8.906	0.100
30.100	5.084	0.100
30.200	0.221	0.100
30.300	0.566	0.100
30.400	-1.354	0.100
30.500	3.222	0.100
30.600	3.442	0.100
30.700	5.985	0.100
30.800	6.202	0.100
30.900	6.656	0.100
31.000	3.202	0.100
31.100	7.614	0.100
31.200	8.081	0.100
31.300	9.944	0.100
31.400	12.527	0.100
31.500	15.262	0.100
31.600	14.549	0.100
31.700	10.583	0.100
31.800	9.011	0.100
31.900	9.975	0.100
32.000	10.599	0.100
32.100	13.390	0.100
32.200	11.644	0.100
32.300	13.379	0.100
32.400	11.506	0.100
32.500	12.109	0.100
32.600	6.502	0.100
32.700	5.389	0.100
32.800	14.702	0.100
32.900	16.247	0.100
33.000	14.961	0.100
33.100	11.215	0.100
33.200	14.728	0.100
33.300	19.872	0.100
33.400	11.994	0.100
33.500	12.380	0.100
33.600	19.869	0.100
33.700	20.751	0.100
33.800	17.979	0.100
33.900	21.545	0.100
34.000	16.257	0.100
34.100	21.199	0.100
34.200	16.356	0.100
34.300	17.762	0.100
34.400	15.658	0.100
34.500	20.390	0.100
34.600	20.244	0.100
34.700	23.424	0.100
34.800	17.700	0.100
34.900	19.143	0.100
35.000	27.154	0.100
35.100	32.031	0.100
35.200	26.236	0.100
35.300	27.445	0.100
35.400	24.280	0.100
35.500	25.411	0.100
35.600	28.061	0.100
35.700	30.953	0.100
35.800	26.210	0.100
35.900	25.845	0.100
36.000	25.206	0.100
36.100	24.250	0.100
36.200	29.185	0.100
36.300	24.468	0.100
36.400	23.785	0.100
36.500	27.168	0.100
36.600	31.865	0.100
36.700	23.856	0.100
36.800	20.404	0.100
36.900	30.598	0.100
37.000	31.373	0.100
37.100	29.507	0.100
37.200	31.002	0.100
37.300	32.250	0.100
37.400	33.534	0.100
37.500	33.470	0.100
37.600	26.367	0.100
37.700	26.609	0.100
37.800	36.141	0.100
37.900	34.428	0.100
38.000	32.953	0.100
38.100	29.246	0.100
38.200	25.080	0.100
38.300	29.228	0.100
38.400	29.896	0.100
38.500	36.785	0.100
38.600	33.871	0.100
38.700	36.208	0.100
38.800	29.734	0.100
38.900	30.288	0.100
39.000	30.132	0.100
39.100	30.855	0.100
39.200	36.401	0.100
39.300	36.405	0.100
39.400	35.222	0.100
39.500	32.984	0.100
39.600	37.455	0.100
39.700	35.329	0.100
39.800	32.611	0.100
39.900	33.978	0.100
40.000	31.379	0.100
40.100	37.557	0.100
40.200	36.820	0.100
40.300	37.624	0.100
40.400	31.775	0.100
40.500	32.143	0.100
40.600	29.227	0.100
40.700	38.164	0.100
40.800	38.714	0.100
40.900	31.870	0.100
41.000	28.433	0.100
41.100	31.336	0.100
41.200	35.831	0.100
41.300	36.514	0.100
41.400	33.800	0.100
41.500	28.502	0.100
41.600	26.592	0.100
41.700	33.888	0.100
41.800	37.397	0.100
41.900	41.958	0.100
42.000	36.959	0.100
42.100	33.484	0.100
42.200	27.247	0.100
42.300	35.359	0.100
42.400	35.768	0.100
42.500	35.479	0.100
42.600	36.895	0.100
42.700	32.229	0.100
42.800	35.566	0.100
42.900	38.511	0.100
43.000	33.310	0.100
43.100	34.879	0.100
43.200	36.674	0.100
43.300	33.624	0.100
43.400	34.635	0.100
43.500	30.839	0.100
43.600	32.438	0.100
43.700	33.501	0.100
43.800	35.236	0.100
43.900	32.079	0.100
44.000	31.709	0.100
44.100	33.897	0.100
44.200	34.876	0.100
44.300	33.249	0.100
44.400	33.287	0.100
44.500	34.605	0.100
44.600	33.686	0.100
44.700	36.881	0.100
44.800	34.635	0.100
44.900	33.044	0.100
45.000	30.673	0.100
45.100	29.433	0.100
45.200	30.938	0.100
45.300	36.196	0.100
45.400	35.615	0.100
45.500	37.525	0.100
45.600	37.392	0.100
45.700	30.412	0.100
45.800	26.500	0.100
45.900	30.520	0.100
46.000	34.210	0.100
46.100	31.548	0.100
46.200	31.406	0.100
46.300	36.078	0.100
46.400	36.387	0.100
46.500	38.094	0.100
46.600	35.732	0.100
46.700	28.406	0.100
46.800	28.661	0.100
46.900	30.884	0.100
47.000	42.303	0.100
47.100	39.178	0.100
47.200	40.803	0.100
47.300	37.319	0.100
47.400	38.432	0.100
47.500	31.522	0.100
47.600	33.607	0.100
47.700	36.564	0.100
47.800	35.163	0.100
47.900	24.909	0.100
48.000	34.969	0.100
48.100	33.612	0.100
48.200	33.566	0.100
48.300	34.629	0.100
48.400	29.969	0.100
48.500	30.089	0.100
48.600	35.872	0.100
48.700	33.077	0.100
48.800	30.516	0.100
48.900	33.025	0.100
49.000	34.039	0.100
49.100	29.151	0.100
49.200	31.395	0.100
49.300	26.337	0.100
49.400	29.473	0.100
49.500	33.785	0.100
49.600	40.228	0.100
49.700	30.179	0.100
49.800	36.694	0.100
49.900	28.043	0.100
50.000	29.373	0.100
50.100	31.487	0.100
50.200	33.577	0.100
50.300	28.423	0.100
50.400	31.547	0.100
50.500	27.874	0.100
50.600	38.882	0.100
50.700	34.723	0.100
50.800	37.613	0.100
50.900	28.616	0.100
51.000	32.155	0.100
51.100	38.725	0.100
51.200	34.900	0.100
51.300	32.649	0.100
51.400	24.539	0.100
51.500	24.016	0.100
51.600	31.783	0.100
51.700	32.833	0.100
51.800	31.140	0.100
51.900	33.132	0.100
52.000	35.100	0.100
52.100	34.965	0.100
52.200	34.095	0.100
52.300	30.817	0.100
52.400	28.428	0.100
52.500	31.857	0.100
52.600	35.488	0.100
52.700	29.798	0.100
52.800	32.919	0.100
52.900	31.536	0.100
53.000	28.947	0.100
53.100	28.523	0.100
53.200	36.675	0.100
53.300	34.689	0.100
53.400	35.888	0.100
53.500	34.779	0.100
53.600	27.170	0.100
53.700	28.445	0.100
53.800	32.205	0.100
53.900	33.432	0.100
54.000	34.337	0.100
54.100	27.498	0.100
54.200	31.765	0.100
54.300	32.703	0.100
54.400	31.892	0.100
54.500	27.780	0.100
54.600	24.783	0.100
54.700	30.894	0.100
54.800	31.840	0.100
54.900	32.820	0.100
55.000	32.148	0.100
55.100	30.292	0.100
55.200	30.546	0.100
55.300	33.639	0.100
55.400	32.838	0.100
55.500	26.844	0.100
55.600	27.736	0.100
55.700	26.287	0.100
55.800	32.831	0.100
55.900	37.609	0.100
56.000	35.931	0.100
56.100	30.172	0.100
56.200	32.618	0.100
56.300	30.562	0.100
56.400	29.169	0.100
56.500	35.143	0.100
56.600	34.606	0.100
56.700	29.286	0.100
56.800	30.467	0.100
56.900	30.372	0.100
57.000	27.703	0.100
57.100	28.272	0.100
57.200	29.703	0.100
57.300	37.990	0.100
57.400	37.540	0.100
57.500	33.785	0.100
57.600	32.291	0.100
57.700	30.456	0.100
57.800	33.252	0.100
57.900	35.086	0.100
58.000	31.997	0.100
58.100	24.701	0.100
58.200	30.209	0.100
58.300	28.736	0.100
58.400	31.507	0.100
58.500	32.116	0.100
58.600	31.584	0.100
58.700	29.467	0.100
58.800	30.448	0.100
58.900	35.491	0.100
59.000	31.069	0.100
59.100	31.649	0.100
59.200	32.480	0.100
59.300	27.607	0.100
59.400	29.842	0.100
59.500	29.351	0.100
59.600	30.056	0.100
59.700	25.735	0.100
59.800	33.266	0.100
59.900	31.257	0.100
60.000	28.088	0.100
60.100	32.776	0.100
60.200	29.791	0.100
60.300	28.773	0.100
60.400	30.145	0.100
60.500	33.381	0.100
60.600	32.076	0.100
60.700	31.883	0.100
60.800	27.848	0.100
60.900	30.354	0.100
61.000	32.411	0.100
61.100	31.557	0.100
61.200	29.321	0.100
61.300	31.592	0.100
61.400	32.269	0.100
61.500	28.324	0.100
61.600	30.374	0.100
61.700	31.382	0.100
61.800	32.502	0.100
61.900	32.702	0.100
62.000	31.777	0.100
62.100	31.305	0.100
62.200	38.026	0.100
62.300	36.149	0.100
62.400	36.024	0.100
62.500	32.296	0.100
62.600	33.958	0.100
62.700	33.228	0.100
62.800	30.479	0.100
62.900	35.863	0.100
63.000	32.837	0.100
63.100	38.516	0.100
63.200	37.589	0.100
63.300	28.164	0.100
63.400	30.973	0.100
63.500	28.348	0.100
63.600	31.016	0.100
63.700	30.827	0.100
63.800	29.173	0.100
63.900	30.281	0.100
64.000	34.926	0.100
64.100	37.214	0.100
64.200	32.619	0.100
64.300	29.442	0.100
64.400	34.245	0.100
64.500	29.053	0.100
64.600	31.726	0.100
64.700	34.821	0.100
64.800	40.660	0.100
64.900	31.274	0.100
65.000	30.343	0.100
65.100	34.858	0.100
65.200	32.624	0.100
65.300	37.029	0.100
65.400	29.113	0.100
65.500	30.913	0.100
65.600	30.478	0.100
65.700	34.503	0.100
65.800	37.776	0.100
65.900	41.072	0.100
66.000	35.064	0.100
66.100	36.518	0.100
66.200	29.172	0.100
66.300	35.901	0.100
66.400	29.295	0.100
66.500	31.461	0.100
66.600	30.316	0.100
66.700	29.439	0.100
66.800	33.789	0.100
66.900	33.984	0.100
67.000	30.535	0.100
67.100	40.266	0.100
67.200	40.693	0.100
67.300	34.425	0.100
67.400	35.246	0.100
67.500	32.745	0.100
67.600	31.826	0.100
67.700	35.958	0.100
67.800	26.871	0.100
67.900	32.870	0.100
68.000	37.640	0.100
68.100	31.146	0.100
68.200	34.022	0.100
68.300	30.789	0.100
68.400	26.961	0.100
68.500	28.196	0.100
68.600	35.903	0.100
68.700	38.015	0.100
68.800	29.507	0.100
68.900	40.200	0.100
69.000	30.489	0.100
69.100	34.168	0.100
69.200	35.661	0.100
69.300	36.083	0.100
69.400	32.956	0.100
69.500	35.060	0.100
69.600	31.791	0.100
69.700	33.342	0.100
69.800	39.605	0.100
69.900	36.288	0.100
70.000	35.163	0.100
70.100	37.274	0.100
70.200	28.626	0.100
70.300	35.128	0.100
70.400	39.136	0.100
70.500	35.930	0.100
70.600	33.947	0.100
70.700	33.772	0.100
70.800	33.143	0.100
70.900	30.347	0.100
71.000	27.400	0.100
71.100	34.671	0.100
71.200	35.174	0.100
71.300	36.809	0.100
71.400	34.190	0.100
71.500	22.122	0.100
71.600	31.314	0.100
71.700	33.680	0.100
71.800	32.902	0.100
71.900	34.881	0.100
72.000	36.594	0.100
72.100	38.255	0.100
72.200	37.750	0.100
72.300	34.692	0.100
72.400	34.986	0.100
72.500	36.219	0.100
72.600	34.399	0.100
72.700	32.778	0.100
72.800	36.528	0.100
72.900	41.577	0.100
73.000	37.135	0.100
73.100	38.137	0.100
73.200	35.819	0.100
73.300	36.621	0.100
73.400	35.220	0.100
73.500	39.126	0.100
73.600	35.620	0.100
73.700	38.882	0.100
73.800	32.562	0.100
73.900	30.307	0.100
74.000	36.629	0.100
74.100	35.434	0.100
74.200	38.488	0.100
74.300	31.749	0.100
74.400	34.086	0.100
74.500	35.341	0.100
74.600	33.840	0.100
74.700	41.344	0.100
74.800	32.877	0.100
74.900	35.487	0.100
75.000	31.697	0.100
75.100	31.995	0.100
75.200	38.178	0.100
75.300	44.069	0.100
75.400	30.894	0.100
75.500	38.546	0.100
75.600	34.048	0.100
75.700	33.443	0.100
75.800	36.781	0.100
75.900	34.632	0.100
76.000	33.925	0.100
76.100	38.183	0.100
76.200	36.747	0.100
76.300	34.828	0.100
76.400	40.262	0.100
76.500	37.478	0.100
76.600	35.480	0.100
76.700	35.028	0.100
76.800	38.147	0.100
76.900	34.808	0.100
77.000	32.709	0.100
77.100	32.401	0.100
77.200	36.323	0.100
77.300	36.338	0.100
77.400	34.161	0.100
77.500	35.686	0.100
77.600	40.247	0.100
77.700	37.061	0.100
77.800	35.349	0.100
77.900	39.992	0.100
78.000	38.473	0.100
78.100	34.165	0.100
78.200	32.378	0.100
78.300	31.904	0.100
78.400	35.246	0.100
78.500	33.912	0.100
78.600	35.219	0.100
78.700	27.604	0.100
78.800	41.015	0.100
78.900	39.128	0.100
79.000	38.737	0.100
79.100	39.699	0.100
79.200	40.176	0.100
79.300	36.149	0.100
79.400	31.342	0.100
79.500	34.070	0.100
79.600	34.342	0.100
79.700	37.225	0.100
79.800	34.524	0.100
79.900	33.638	0.100
80.000	41.018	0.100
80.100	42.688	0.100
80.200	34.527	0.100
80.300	40.300	0.100
80.400	36.668	0.100
80.500	34.028	0.100
80.600	37.118	0.100
80.700	40.996	0.100
80.800	37.753	0.100
80.900	38.799	0.100
81.000	39.260	0.100
81.100	35.693	0.100
81.200	36.532	0.100
81.300	40.725	0.100
81.400	33.653	0.100
81.500	34.979	0.100
81.600	40.295	0.100
81.700	30.362	0.100
81.800	39.850	0.100
81.900	39.925	0.100
82.000	33.529	0.100
82.100	36.943	0.100
82.200	37.134	0.100
82.300	37.142	0.100
82.400	37.774	0.100
82.500	44.152	0.100
82.600	38.671	0.100
82.700	42.204	0.100
82.800	39.232	0.100
82.900	38.612	0.100
83.000	34.761	0.100
83.100	37.546	0.100
83.200	33.963	0.100
83.300	37.204	0.100
83.400	41.641	0.100
83.500	37.367	0.100
83.600	37.122	0.100
83.700	38.468	0.100
83.800	36.121	0.100
83.900	36.967	0.100
84.000	35.873	0.100
84.100	40.265	0.100
84.200	42.116	0.100
84.300	38.263	0.100
84.400	39.348	0.100
84.500	36.358	0.100
84.600	39.694	0.100
84.700	38.720	0.100
84.800	40.180	0.100
84.900	38.620	0.100
85.000	33.943	0.100
85.100	35.702	0.100
85.200	29.846	0.100
85.300	35.304	0.100
85.400	35.225	0.100
85.500	42.195	0.100
85.600	37.042	0.100
85.700	36.719	0.100
85.800	46.092	0.100
85.900	37.519	0.100
86.000	35.037	0.100
86.100	42.666	0.100
86.200	37.314	0.100
86.300	39.564	0.100
86.400	41.364	0.100
86.500	37.300	0.100
86.600	39.374	0.100
86.700	36.960	0.100
86.800	45.180	0.100
86.900	41.142	0.100
87.000	33.554	0.100
87.100	39.933	0.100
87.200	34.308	0.100
87.300	38.412	0.100
87.400	41.796	0.100
87.500	41.800	0.100
87.600	29.250	0.100
87.700	36.068	0.100
87.800	43.807	0.100
87.900	38.354	0.100
88.000	35.683	0.100
88.100	36.911	0.100
88.200	41.484	0.100
88.300	36.616	0.100
88.400	37.822	0.100
88.500	33.422	0.100
88.600	33.803	0.100
88.700	40.113	0.100
88.800	33.587	0.100
88.900	34.999	0.100
89.000	34.985	0.100
89.100	42.319	0.100
89.200	34.936	0.100
89.300	39.898	0.100
89.400	38.844	0.100
89.500	37.884	0.100
89.600	40.687	0.100
89.700	42.250	0.100
89.800	42.226	0.100
89.900	37.612	0.100
90.000	34.703	0.100
90.100	41.072	0.100
90.200	38.936	0.100
90.300	41.847	0.100
90.400	39.265	0.100
90.500	35.543	0.100
90.600	32.339	0.100
90.700	35.748	0.100
90.800	32.425	0.100
90.900	39.719	0.100
91.000	34.950	0.100
91.100	29.648	0.100
91.200	27.508	0.100
91.300	30.116	0.100
91.400	22.683	0.100
91.500	28.884	0.100
91.600	22.434	0.100
91.700	27.358	0.100
91.800	27.162	0.100
91.900	21.484	0.100
92.000	28.204	0.100
92.100	23.909	0.100
92.200	19.581	0.100
92.300	16.085	0.100
92.400	24.417	0.100
92.500	18.407	0.100
92.600	12.515	0.100
92.700	14.511	0.100
92.800	13.433	0.100
92.900	9.276	0.100
93.000	11.364	0.100
93.100	15.314	0.100
93.200	11.712	0.100
93.300	11.228	0.100
93.400	9.571	0.100
93.500	13.310	0.100
93.600	5.051	0.100
93.700	4.998	0.100
93.800	10.236	0.100
93.900	10.419	0.100
94.000	16.238	0.100
94.100	12.311	0.100
94.200	3.354	0.100
94.300	7.364	0.100
94.400	12.131	0.100
94.500	12.147	0.100
94.600	6.116	0.100
94.700	3.546	0.100
94.800	0.066	0.100
94.900	8.652	0.100
95.000	11.021	0.100
95.100	11.216	0.100
95.200	7.623	0.100
95.300	11.638	0.100
95.400	3.733	0.100
95.500	9.052	0.100
95.600	0.640	0.100
95.700	1.408	0.100
95.800	9.679	0.100
95.900	1.259	0.100
96.000	-3.604	0.100
96.100	-0.169	0.100
96.200	0.775	0.100
96.300	11.022	0.100
96.400	9.229	0.100
96.500	4.224	0.100
96.600	2.256	0.100
96.700	4.421	0.100
96.800	6.314	0.100
96.900	7.905	0.100
97.000	3.737	0.100
97.100	-2.128	0.100
97.200	-3.019	0.100
97.300	1.095	0.100
97.400	3.034	0.100
97.500	-1.035	0.100
97.600	3.338	0.100
97.700	2.923	0.100
97.800	5.575	0.100
97.900	7.772	0.100
98.000	2.570	0.100
98.100	1.526	0.100
98.200	2.131	0.100
98.300	1.928	0.100
98.400	-1.080	0.100
98.500	-3.613	0.100
98.600	0.266	0.100
98.700	7.162	0.100
98.800	4.711	0.100
98.900	4.992	0.100
99.000	4.203	0.100
99.100	-1.160	0.100
99.200	-0.127	0.100
99.300	5.962	0.100
99.400	0.110	0.100
99.500	3.832	0.100
99.600	4.211	0.100
99.700	0.746	0.100
99.800	0.124	0.100
99.900	-2.610	0.100
100.000	3.460	0.100
100.100	-2.480	0.100
100.200	1.495	0.100
100.300	3.606	0.100
100.400	0.777	0.100
100.500	3.569	0.100
100.600	7.039	0.100
100.700	6.469	0.100
100.800	4.304	0.100
100.900	2.516	0.100
101.000	7.798	0.100
101.100	0.291	0.100
101.200	8.615	0.100
101.300	4.268	0.100
101.400	1.631	0.100
101.500	5.245	0.100
101.600	1.437	0.100
101.700	0.999	0.100
101.800	5.099	0.100
101.900	-0.332	0.100
102.000	3.158	0.100
102.100	1.161	0.100
102.200	4.570	0.100
102.300	5.858	0.100
102.400	3.130	0.100
102.500	6.190	0.100
102.600	9.094	0.100
102.700	3.192	0.100
102.800	1.121	0.100
102.900	1.167	0.100
103.000	-0.069	0.100
103.100	1.529	0.100
103.200	3.453	0.100
103.300	11.497	0.100
103.400	5.390	0.100
103.500	5.403	0.100
103.600	8.669	0.100
103.700	7.890	0.100
103.800	1.025	0.100
103.900	9.187	0.100
104.000	5.408	0.100
104.100	6.164	0.100
104.200	3.248	0.100
104.300	5.652	0.100
104.400	4.721	0.100
104.500	2.190	0.100
104.600	3.959	0.100
104.700	7.201	0.100
104.800	7.088	0.100
104.900	8.255	0.100
105.000	7.046	0.100
105.100	6.881	0.100
105.200	0.102	0.100
105.300	3.480	0.100
105.400	5.581	0.100
105.500	2.514	0.100
105.600	-0.908	0.100
105.700	8.370	0.100
105.800	8.351	0.100
105.900	7.450	0.100
106.000	5.433	0.100
106.100	4.229	0.100
106.200	6.836	0.100
106.300	3.106	0.100
106.400	7.257	0.100
106.500	5.540	0.100
106.600	3.246	0.100
106.700	-0.305	0.100
106.800	6.542	0.100
106.900	-0.170	0.100
107.000	4.771	0.100
107.100	-0.759	0.100
107.200	10.698	0.100
107.300	7.732	0.100
107.400	6.422	0.100
107.500	10.764	0.100
107.600	5.137	0.100
107.700	5.595	0.100
107.800	15.320	0.100
107.900	0.207	0.100
108.000	3.053	0.100
108.100	7.012	0.100
108.200	-1.243	0.100
108.300	-3.004	0.100
108.400	11.357	0.100
108.500	7.796	0.100
108.600	4.576	0.100
108.700	6.418	0.100
108.800	10.999	0.100
108.900	4.041	0.100
109.000	4.093	0.100
109.100	7.858	0.100
109.200	6.952	0.100
109.300	7.961	0.100
109.400	8.933	0.100
109.500	8.421	0.100
109.600	5.825	0.100
109.700	6.615	0.100
109.800	6.051	0.100
109.900	8.654	0.100
110.000	5.719	0.100
110.100	4.564	0.100
110.200	1.782	0.100
110.300	5.793	0.100
110.400	7.272	0.100
110.500	5.463	0.100
110.600	4.526	0.100
110.700	2.485	0.100
110.800	10.804	0.100
110.900	6.284	0.100
111.000	4.861	0.100
111.100	13.410	0.100
111.200	3.973	0.100
111.300	7.226	0.100
111.400	12.446	0.100
111.500	10.357	0.100
111.600	4.467	0.100
111.700	6.579	0.100
111.800	1.603	0.100
111.900	-0.703	0.100
112.000	0.609	0.100
112.100	3.284	0.100
112.200	7.116	0.100
112.300	3.536	0.100
112.400	1.120	0.100
112.500	5.541	0.100
112.600	6.422	0.100
112.700	6.340	0.100
112.800	6.912	0.100
112.900	2.875	0.100
113.000	6.687	0.100
113.100	0.041	0.100
113.200	7.101	0.100
113.300	3.602	0.100
113.400	3.676	0.100
113.500	5.123	0.100
113.600	2.386	0.100
113.700	2.039	0.100
113.800	2.869	0.100
113.900	6.308	0.100
114.000	8.352	0.100
114.100	11.377	0.100
114.200	6.761	0.100
114.300	5.433	0.100
114.400	3.568	0.100
114.500	5.965	0.100
114.600	2.120	0.100
114.700	7.186	0.100
114.800	13.338	0.100
114.900	5.325	0.100
115.000	2.428	0.100
115.100	1.908	0.100
115.200	-0.040	0.100
115.300	10.082	0.100
115.400	7.003	0.100
115.500	4.737	0.100
115.600	4.408	0.100
115.700	4.995	0.100
115.800	6.558	0.100
115.900	2.399	0.100
116.000	2.308	0.100
116.100	7.971	0.100
116.200	5.087	0.100
116.300	6.342	0.100
116.400	9.054	0.100
116.500	7.142	0.100
116.600	3.605	0.100
116.700	5.566	0.100
116.800	-0.269	0.100
116.900	5.754	0.100
117.000	8.468	0.100
117.100	1.206	0.100
117.200	2.702	0.100
117.300	7.264	0.100
117.400	6.133	0.100
117.500	8.304	0.100
117.600	2.613	0.100
117.700	7.328	0.100
117.800	3.755	0.100
117.900	3.419	0.100
118.000	6.696	0.100
118.100	2.636	0.100
118.200	3.998	0.100
118.300	-0.158	0.100
118.400	0.286	0.100
118.500	2.558	0.100
118.600	3.811	0.100
118.700	4.728	0.100
118.800	5.795	0.100
118.900	1.355	0.100
119.000	10.705	0.100
119.100	7.192	0.100
119.200	-0.363	0.100
119.300	9.879	0.100
119.400	5.658	0.100
119.500	0.521	0.100
119.600	3.279	0.100
119.700	-2.579	0.100
119.800	-1.194	0.100
119.900	0.152	0.100
120.000	0.039	0.100
120.100	6.116	0.100
120.200	2.609	0.100
120.300	-0.261	0.100
120.400	2.092	0.100
120.500	5.778	0.100
120.600	2.160	0.100
120.700	2.748	0.100
120.800	5.910	0.100
120.900	12.422	0.100
121.000	2.077	0.100
121.100	-2.241	0.100
121.200	2.489	0.100
121.300	2.692	0.100
121.400	6.222	0.100
121.500	3.343	0.100
121.600	4.844	0.100
121.700	6.125	0.100
121.800	3.151	0.100
121.900	-3.039	0.100
122.000	4.832	0.100
122.100	-0.645	0.100
122.200	-5.220	0.100
122.300	-1.268	0.100
122.400	-1.648	0.100
122.500	3.873	0.100
122.600	7.295	0.100
122.700	3.964	0.100
122.800	5.727	0.100
122.900	4.036	0.100
123.000	1.166	0.100
123.100	-3.026	0.100
123.200	3.417	0.100
123.300	2.302	0.100
123.400	3.062	0.100
123.500	3.887	0.100
123.600	3.482	0.100
123.700	9.469	0.100
123.800	5.470	0.100
123.900	3.503	0.100
124.000	3.363	0.100
124.100	2.040	0.100
124.200	-0.526	0.100
124.300	2.349	0.100
124.400	0.033	0.100
124.500	1.786	0.100
124.600	2.038	0.100
124.700	7.844	0.100
124.800	2.367	0.100
124.900	2.251	0.100
125.000	9.749	0.100
125.100	-1.836	0.100
125.200	5.285	0.100
125.300	3.741	0.100
125.400	-1.315	0.100
125.500	0.317	0.100
125.600	4.777	0.100
125.700	9.124	0.100
125.800	5.555	0.100
125.900	6.407	0.100
126.000	-0.085	0.100
126.100	-4.775	0.100
126.200	0.950	0.100
126.300	6.117	0.100
126.400	3.790	0.100
126.500	1.936	0.100
126.600	5.376	0.100
126.700	3.146	0.100
126.800	5.741	0.100
126.900	0.940	0.100
127.000	1.962	0.100
127.100	0.478	0.100
127.200	5.956	0.100
127.300	3.212	0.100
127.400	4.219	0.100
127.500	-1.177	0.100
127.600	1.031	0.100
127.700	0.420	0.100
127.800	2.329	0.100
127.900	6.599	0.100
128.000	4.093	0.100
128.100	2.568	0.100
128.200	0.902	0.100
128.300	1.491	0.100
128.400	0.515	0.100
128.500	-3.214	0.100
128.600	0.273	0.100
128.700	1.319	0.100
128.800	-2.817	0.100
128.900	-1.623	0.100
129.000	4.711	0.100
129.100	5.583	0.100
129.200	7.047	0.100
129.300	5.193	0.100
129.400	2.870	0.100
129.500	-1.178	0.100
129.600	-3.522	0.100
129.700	-2.190	0.100
129.800	-0.334	0.100
129.900	3.695	0.100
130.000	3.271	0.100
130.100	6.412	0.100
130.200	6.014	0.100
130.300	-0.451	0.100
130.400	6.444	0.100
130.500	2.383	0.100
130.600	2.096	0.100
130.700	-0.119	0.100
130.800	-4.933	0.100
130.900	-1.685	0.100
131.000	-8.307	0.100
131.100	2.190	0.100
131.200	1.501	0.100
131.300	-1.286	0.100
131.400	-0.962	0.100
131.500	2.474	0.100
131.600	0.483	0.100
131.700	3.058	0.100
131.800	4.914	0.100
131.900	0.750	0.100
132.000	0.842	0.100
132.100	-2.524	0.100
132.200	-3.953	0.100
132.300	-0.823	0.100
132.400	1.800	0.100
132.500	-3.999	0.100
132.600	0.048	0.100
132.700	2.566	0.100
132.800	0.231	0.100
132.900	-1.537	0.100
133.000	-3.798	0.100
133.100	3.037	0.100
133.200	1.357	0.100
133.300	3.708	0.100
133.400	1.786	0.100
133.500	4.400	0.100
133.600	-3.082	0.100
133.700	-2.978	0.100
133.800	0.293	0.100
133.900	-1.353	0.100
134.000	-1.387	0.100
134.100	-3.352	0.100
134.200	5.582	0.100
134.300	2.559	0.100
134.400	2.998	0.100
134.500	-0.080	0.100
134.600	4.313	0.100
134.700	3.401	0.100
134.800	-3.535	0.100
134.900	-1.947	0.100
135.000	2.128	0.100
135.100	-5.004	0.100
135.200	-6.187	0.100
135.300	-4.555	0.100
135.400	1.607	0.100
135.500	1.431	0.100
135.600	-1.024	0.100
135.700	-1.589	0.100
135.800	2.590	0.100
135.900	-3.963	0.100
136.000	-2.196	0.100
136.100	-2.901	0.100
136.200	4.222	0.100
136.300	4.028	0.100
136.400	1.769	0.100
136.500	3.511	0.100
136.600	1.623	0.100
136.700	-3.345	0.100
136.800	4.230	0.100
136.900	0.698	0.100
137.000	-2.007	0.100
137.100	-1.464	0.100
137.200	-0.625	0.100
137.300	0.436	0.100
137.400	-2.304	0.100
137.500	-1.845	0.100
137.600	0.516	0.100
137.700	1.039	0.100
137.800	-4.034	0.100
137.900	-2.265	0.100
138.000	-1.131	0.100
138.100	-4.632	0.100
138.200	-4.096	0.100
138.300	-2.381	0.100
138.400	0.131	0.100
138.500	-2.782	0.100
138.600	-0.645	0.100
138.700	-4.271	0.100
138.800	0.744	0.100
138.900	-0.970	0.100
139.000	1.381	0.100
139.100	0.257	0.100
139.200	3.219	0.100
139.300	-1.407	0.100
139.400	0.380	0.100
139.500	4.909	0.100
139.600	-4.235	0.100
139.700	-9.298	0.100
139.800	0.386	0.100
139.900	2.735	0.100
140.000	1.196	0.100
140.100	5.348	0.100
140.200	-3.958	0.100
140.300	-3.158	0.100
140.400	1.798	0.100
140.500	-2.253	0.100
140.600	0.904	0.100
140.700	0.893	0.100
140.800	-4.809	0.100
140.900	-1.983	0.100
141.000	-5.682	0.100
141.100	-0.999	0.100
141.200	0.434	0.100
141.300	0.499	0.100
141.400	-4.890	0.100
141.500	-1.880	0.100
141.600	0.639	0.100
141.700	-0.675	0.100
141.800	-3.333	0.100
141.900	1.967	0.100
142.000	-6.541	0.100
142.100	-1.100	0.100
142.200	1.984	0.100
142.300	-1.773	0.100
142.400	-2.142	0.100
142.500	2.296	0.100
142.600	5.449	0.100
142.700	1.275	0.100
142.800	-0.866	0.100
142.900	-2.150	0.100
143.000	-3.018	0.100
143.100	-6.109	0.100
143.200	-4.302	0.100
143.300	4.138	0.100
143.400	-0.954	0.100
143.500	-3.026	0.100
143.600	-5.235	0.100
143.700	1.731	0.100
143.800	-3.202	0.100
143.900	-3.935	0.100
144.000	-3.395	0.100
144.100	-4.997	0.100
144.200	-8.613	0.100
144.300	-7.139	0.100
144.400	-1.189	0.100
144.500	1.843	0.100
144.600	1.673	0.100
144.700	-1.018	0.100
144.800	-3.283	0.100
144.900	-2.992	0.100
145.000	2.042	0.100
145.100	2.949	0.100
145.200	-1.790	0.100
145.300	-5.908	0.100
145.400	-5.131	0.100
145.500	-3.491	0.100
145.600	0.403	0.100
145.700	-7.098	0.100
145.800	0.658	0.100
145.900	-0.873	0.100
146.000	-4.059	0.100
146.100	-2.675	0.100
146.200	4.237	0.100
146.300	-2.422	0.100
146.400	-1.413	0.100
146.500	-3.368	0.100
146.600	-2.987	0.100
146.700	1.331	0.100
146.800	0.203	0.100
146.900	-2.942	0.100
147.000	-1.618	0.100
147.100	1.680	0.100
147.200	-7.963	0.100
147.300	-4.008	0.100
147.400	-1.483	0.100
147.500	-4.207	0.100
147.600	-7.601	0.100
147.700	3.330	0.100
147.800	-6.359	0.100
147.900	-0.619	0.100
148.000	-1.679	0.100
148.100	-0.783	0.100
148.200	-3.220	0.100
148.300	-2.692	0.100
148.400	-5.486	0.100
148.500	-6.858	0.100
148.600	-1.197	0.100
148.700	-3.274	0.100
148.800	1.761	0.100
148.900	2.621	0.100
149.000	-6.200	0.100
149.100	-0.640	0.100
149.200	-0.957	0.100
149.300	-2.883	0.100
149.400	-0.354	0.100
149.500	-3.909	0.100
149.600	-2.513	0.100
149.700	-4.023	0.100
149.800	-0.434	0.100
149.900	-6.215	0.100
150.000	-5.156	0.100
150.100	-3.815	0.100
150.200	-2.362	0.100
150.300	-5.381	0.100
150.400	1.894	0.100
150.500	-5.776	0.100
150.600	-4.463	0.100
150.700	-3.628	0.100
150.800	-2.351	0.100
150.900	-0.399	0.100
151.000	-0.484	0.100
151.100	-0.723	0.100
151.200	1.319	0.100
151.300	-1.748	0.100
151.400	-1.900	0.100
151.500	-4.556	0.100
151.600	-7.301	0.100
151.700	-7.252	0.100
151.800	0.124	0.100
151.900	-0.682	0.100
152.000	-6.335	0.100
152.100	-3.310	0.100
152.200	-6.109	0.100
152.300	-3.946	0.100
152.400	-1.517	0.100
152.500	-1.115	0.100
152.600	-3.141	0.100
152.700	-3.891	0.100
152.800	-0.098	0.100
152.900	2.460	0.100
153.000	-1.893	0.100
153.100	-6.464	0.100
153.200	-6.062	0.100
153.300	-3.628	0.100
153.400	1.052	0.100
153.500	-5.241	0.100
153.600	0.235	0.100
153.700	-0.781	0.100
153.800	-4.839	0.100
153.900	-5.161	0.100
154.000	-5.026	0.100
154.100	-5.633	0.100
154.200	-6.563	0.100
154.300	-0.360	0.100
154.400	2.049	0.100
154.500	-0.729	0.100
154.600	-4.878	0.100
154.700	-3.838	0.100
154.800	-7.212	0.100
154.900	-1.664	0.100
155.000	-2.503	0.100
155.100	-4.648	0.100
155.200	-3.988	0.100
155.300	-4.530	0.100
155.400	-6.930	0.100
155.500	-5.867	0.100
155.600	-1.760	0.100
155.700	-4.743	0.100
155.800	-3.396	0.100
155.900	-4.671	0.100
156.000	-1.742	0.100
156.100	2.238	0.100
156.200	-0.823	0.100
156.300	-5.734	0.100
156.400	-1.243	0.100
156.500	-5.921	0.100
156.600	-6.965	0.100
156.700	-3.220	0.100
156.800	0.505	0.100
156.900	-2.114	0.100
157.000	-3.653	0.100
157.100	-1.324	0.100
157.200	-3.152	0.100
157.300	-0.035	0.100
157.400	-0.183	0.100
157.500	-3.183	0.100
157.600	1.936	0.100
157.700	-6.037	0.100
157.800	-3.277	0.100
157.900	-4.013	0.100
158.000	-0.164	0.100
158.100	-5.541	0.100
158.200	-4.803	0.100
158.300	-2.591	0.100
158.400	-3.754	0.100
158.500	-0.863	0.100
158.600	-2.826	0.100
158.700	-11.575	0.100
158.800	-6.022	0.100
158.900	-0.315	0.100
159.000	-1.536	0.100
159.100	-1.569	0.100
159.200	-4.285	0.100
159.300	-6.040	0.100
159.400	-6.883	0.100
159.500	-0.641	0.100
159.600	-9.179	0.100
159.700	-9.025	0.100
159.800	-6.137	0.100
159.900	-3.431	0.100
160.000	-7.299	0.100
160.100	1.898	0.100
160.200	-1.885	0.100
160.300	1.957	0.100
160.400	2.512	0.100
160.500	-3.514	0.100
160.600	-4.690	0.100
160.700	-2.883	0.100
160.800	-5.179	0.100
160.900	-1.395	0.100
161.000	-2.707	0.100
161.100	-1.018	0.100
161.200	-5.351	0.100
161.300	-1.748	0.100
161.400	-0.074	0.100
161.500	-4.825	0.100
161.600	-2.358	0.100
161.700	-1.337	0.100
161.800	-3.643	0.100
161.900	-3.366	0.100
162.000	-3.447	0.100
162.100	-2.070	0.100
162.200	-9.919	0.100
162.300	-8.091	0.100
162.400	-3.818	0.100
162.500	-1.448	0.100
162.600	-5.809	0.100
162.700	2.577	0.100
162.800	-9.949	0.100
162.900	-4.890	0.100
163.000	2.189	0.100
163.100	-2.979	0.100
163.200	2.536	0.100
163.300	1.536	0.100
163.400	-6.870	0.100
163.500	-6.274	0.100
163.600	-2.108	0.100
163.700	4.303	0.100
163.800	1.142	0.100
163.900	-0.279	0.100
164.000	1.851	0.100
164.100	-4.284	0.100
164.200	-7.759	0.100
164.300	-7.651	0.100
164.400	-6.976	0.100
164.500	-5.880	0.100
164.600	-8.090	0.100
164.700	-3.866	0.100
164.800	-2.723	0.100
164.900	-3.337	0.100
165.000	-4.299	0.100
165.100	-6.594	0.100
165.200	3.398	0.100
165.300	-3.906	0.100
165.400	-9.155	0.100
165.500	-5.261	0.100
165.600	-5.460	0.100
165.700	-4.726	0.100
165.800	-0.640	0.100
165.900	-6.358	0.100
166.000	-5.114	0.100
166.100	0.251	0.100
166.200	-2.038	0.100
166.300	-0.730	0.100
166.400	-0.457	0.100
166.500	-3.697	0.100
166.600	-3.922	0.100
166.700	0.062	0.100
166.800	-4.781	0.100
166.900	-7.348	0.100
167.000	-3.520	0.100
167.100	-2.822	0.100
167.200	-2.008	0.100
167.300	-3.122	0.100
167.400	-3.775	0.100
167.500	-5.786	0.100
167.600	-0.718	0.100
167.700	-2.906	0.100
167.800	-1.935	0.100
167.900	-7.525	0.100
168.000	-3.574	0.100
168.100	-3.849	0.100
168.200	0.457	0.100
168.300	-6.890	0.100
168.400	-2.966	0.100
168.500	-4.238	0.100
168.600	-0.066	0.100
168.700	-6.115	0.100
168.800	0.613	0.100
168.900	-2.592	0.100
169.000	-4.084	0.100
169.100	-5.255	0.100
169.200	-4.052	0.100
169.300	2.724	0.100
169.400	0.152	0.100
169.500	-3.102	0.100
169.600	-0.679	0.100
169.700	0.637	0.100
169.800	-3.980	0.100
169.900	-4.625	0.100
170.000	-1.837	0.100
170.100	-1.850	0.100
170.200	-3.297	0.100
170.300	-6.514	0.100
170.400	-4.134	0.100
170.500	-6.016	0.100
170.600	-5.216	0.100
170.700	-7.663	0.100
170.800	4.306	0.100
170.900	4.039	0.100
171.000	0.255	0.100
171.100	-5.881	0.100
171.200	-6.082	0.100
171.300	-2.308	0.100
171.400	-4.123	0.100
171.500	-2.137	0.100
171.600	-0.868	0.100
171.700	-1.002	0.100
171.800	-4.790	0.100
171.900	-8.457	0.100
172.000	-8.170	0.100
172.100	-3.311	0.100
172.200	-7.304	0.100
172.300	-5.227	0.100
172.400	2.757	0.100
172.500	0.716	0.100
172.600	-3.452	0.100
172.700	1.927	0.100
172.800	0.413	0.100
172.900	-4.693	0.100
173.000	-2.284	0.100
173.100	1.050	0.100
173.200	-0.439	0.100
173.300	1.110	0.100
173.400	-4.424	0.100
173.500	-3.799	0.100
173.600	-3.435	0.100
173.700	-6.328	0.100
173.800	-7.133	0.100
173.900	-7.397	0.100
174.000	-2.294	0.100
174.100	-4.312	0.100
174.200	-4.491	0.100
174.300	2.748	0.100
174.400	-0.315	0.100
174.500	-1.152	0.100
174.600	-3.372	0.100
174.700	-5.217	0.100
174.800	-5.679	0.100
174.900	-2.904	0.100
175.000	-5.639	0.100
175.100	-4.411	0.100
175.200	-4.837	0.100
175.300	-0.290	0.100
175.400	0.635	0.100
175.500	-2.189	0.100
175.600	-3.679	0.100
175.700	-3.689	0.100
175.800	-3.728	0.100
175.900	-5.910	0.100
176.000	3.879	0.100
176.100	-0.676	0.100
176.200	-5.399	0.100
176.300	-1.637	0.100
176.400	-1.366	0.100
176.500	-3.488	0.100
176.600	-2.066	0.100
176.700	-0.972	0.100
176.800	-5.073	0.100
176.900	-3.203	0.100
177.000	-7.449	0.100
177.100	-4.426	0.100
177.200	0.378	0.100
177.300	2.011	0.100
177.400	-1.490	0.100
177.500	0.625	0.100
177.600	-1.234	0.100
177.700	-3.375	0.100
177.800	-2.352	0.100
177.900	-7.695	0.100
178.000	-5.454	0.100
178.100	1.216	0.100
178.200	-6.763	0.100
178.300	-4.581	0.100
178.400	-4.318	0.100
178.500	-1.288	0.100
178.600	-4.581	0.100
178.700	-1.850	0.100
178.800	-1.092	0.100
178.900	-8.246	0.100
179.000	-0.364	0.100
179.100	1.803	0.100
179.200	-3.829	0.100
179.300	-5.822	0.100
179.400	-9.259	0.100
179.500	-1.081	0.100
179.600	-3.697	0.100
179.700	1.694	0.100
179.800	-1.205	0.100
179.900	2.083	0.100
180.000	-4.014	0.100
180.100	-2.255	0.100
180.200	-1.793	0.100
180.300	0.601	0.100
180.400	-4.587	0.100
180.500	-5.148	0.100
180.600	-3.125	0.100
180.700	-7.163	0.100
180.800	-1.119	0.100
180.900	2.423	0.100
181.000	3.366	0.100
181.100	1.901	0.100
181.200	4.841	0.100
181.300	8.662	0.100
181.400	12.175	0.100
181.500	10.098	0.100
181.600	3.657	0.100
181.700	11.078	0.100
181.800	14.738	0.100
181.900	13.577	0.100
182.000	16.282	0.100
182.100	15.953	0.100
182.200	17.182	0.100
182.300	22.931	0.100
182.400	24.278	0.100
182.500	25.332	0.100
182.600	25.295	0.100
182.700	25.327	0.100
182.800	26.944	0.100
182.900	24.432	0.100
183.000	24.323	0.100
183.100	26.468	0.100
183.200	30.477	0.100
183.300	32.692	0.100
183.400	27.446	0.100
183.500	21.603	0.100
183.600	29.587	0.100
183.700	29.528	0.100
183.800	30.632	0.100
183.900	35.754	0.100
184.000	30.588	0.100
184.100	30.209	0.100
184.200	30.886	0.100
184.300	26.496	0.100
184.400	26.380	0.100
184.500	32.294	0.100
184.600	25.573	0.100
184.700	29.641	0.100
184.800	27.958	0.100
184.900	24.715	0.100
185.000	28.568	0.100
185.100	19.413	0.100
185.200	26.515	0.100
185.300	28.798	0.100
185.400	27.384	0.100
185.500	24.793	0.100
185.600	23.829	0.100
185.700	24.051	0.100
185.800	22.401	0.100
185.900	29.838	0.100
186.000	25.914	0.100
186.100	24.704	0.100
186.200	21.970	0.100
186.300	27.831	0.100
186.400	22.182	0.100
186.500	21.980	0.100
186.600	28.392	0.100
186.700	17.121	0.100
186.800	22.152	0.100
186.900	21.187	0.100
187.000	21.113	0.100
187.100	24.623	0.100
187.200	23.834	0.100
187.300	22.205	0.100
187.400	22.523	0.100
187.500	19.511	0.100
187.600	16.981	0.100
187.700	15.041	0.100
187.800	17.707	0.100
187.900	18.861	0.100
188.000	23.579	0.100
188.100	25.638	0.100
188.200	20.539	0.100
188.300	19.310	0.100
188.400	22.593	0.100
188.500	28.929	0.100
188.600	20.136	0.100
188.700	24.850	0.100
188.800	25.891	0.100
188.900	22.903	0.100
189.000	28.085	0.100
189.100	23.456	0.100
189.200	34.118	0.100
189.300	30.959	0.100
189.400	30.418	0.100
189.500	27.109	0.100
189.600	27.060	0.100
189.700	27.444	0.100
189.800	28.233	0.100
189.900	28.411	0.100
190.000	26.631	0.100
190.100	28.146	0.100
190.200	25.423	0.100
190.300	31.212	0.100
190.400	26.918	0.100
190.500	30.157	0.100
190.600	26.624	0.100
190.700	32.317	0.100
190.800	31.597	0.100
190.900	31.000	0.100
191.000	27.148	0.100
191.100	24.145	0.100
191.200	27.717	0.100
191.300	27.992	0.100
191.400	27.343	0.100
191.500	28.292	0.100
191.600	22.798	0.100
191.700	27.906	0.100
191.800	30.656	0.100
191.900	33.297	0.100
192.000	35.371	0.100
192.100	34.079	0.100
192.200	35.986	0.100
192.300	33.861	0.100
192.400	33.775	0.100
192.500	27.530	0.100
192.600	27.733	0.100
192.700	28.826	0.100
192.800	29.000	0.100
192.900	33.315	0.100
193.000	32.975	0.100
193.100	34.015	0.100
193.200	38.619	0.100
193.300	37.353	0.100
193.400	30.751	0.100
193.500	30.096	0.100
193.600	35.885	0.100
193.700	37.210	0.100
193.800	35.415	0.100
193.900	34.508	0.100
194.000	29.853	0.100
194.100	32.424	0.100
194.200	39.273	0.100
194.300	30.295	0.100
194.400	35.545	0.100
194.500	34.156	0.100
194.600	38.010	0.100
194.700	32.752	0.100
194.800	37.420	0.100
194.900	35.417	0.100
195.000	40.903	0.100
195.100	37.646	0.100
195.200	31.407	0.100
195.300	34.707	0.100
195.400	36.519	0.100
195.500	40.458	0.100
195.600	36.073	0.100
195.700	43.265	0.100
195.800	39.233	0.100
195.900	40.185	0.100
196.000	38.362	0.100
196.100	39.571	0.100
196.200	37.255	0.100
196.300	40.796	0.100
196.400	35.368	0.100
196.500	44.068	0.100
196.600	42.669	0.100
196.700	38.799	0.100
196.800	42.935	0.100
196.900	39.297	0.100
197.000	42.560	0.100
197.100	39.089	0.100
197.200	36.085	0.100
197.300	33.988	0.100
197.400	38.574	0.100
197.500	37.117	0.100
197.600	32.984	0.100
197.700	40.862	0.100
197.800	45.193	0.100
197.900	39.193	0.100
198.000	35.525	0.100
198.100	44.122	0.100
198.200	43.186	0.100
198.300	37.186	0.100
198.400	41.256	0.100
198.500	46.205	0.100
198.600	40.070	0.100
198.700	42.421	0.100
198.800	38.921	0.100
198.900	40.156	0.100
199.000	43.221	0.100
199.100	45.408	0.100
199.200	44.009	0.100
199.300	39.054	0.100
199.400	37.921	0.100
199.500	40.503	0.100
199.600	37.256	0.100
199.700	42.553	0.100
199.800	43.587	0.100
199.900	47.555	0.100
200.000	48.537	0.100
200.100	40.961	0.100
200.200	42.252	0.100
200.300	37.978	0.100
200.400	35.934	0.100
200.500	32.073	0.100
200.600	36.974	0.100
200.700	43.570	0.100
200.800	51.991	0.100
200.900	48.370	0.100
201.000	42.430	0.100
201.100	46.739	0.100
201.200	42.960	0.100
201.300	39.044	0.100
201.400	39.785	0.100
201.500	37.793	0.100
201.600	40.986	0.100
201.700	48.128	0.100
201.800	54.663	0.100
201.900	50.284	0.100
202.000	38.686	0.100
202.100	42.323	0.100
202.200	43.803	0.100
202.300	38.993	0.100
202.400	46.414	0.100
202.500	40.987	0.100
202.600	44.079	0.100
202.700	41.934	0.100
202.800	42.177	0.100
202.900	39.118	0.100
203.000	40.632	0.100
203.100	41.518	0.100
203.200	42.989	0.100
203.300	44.529	0.100
203.400	39.887	0.100
203.500	47.659	0.100
203.600	46.692	0.100
203.700	47.653	0.100
203.800	43.137	0.100
203.900	39.247	0.100
204.000	43.946	0.100
204.100	44.424	0.100
204.200	37.989	0.100
204.300	36.003	0.100
204.400	42.976	0.100
204.500	43.176	0.100
204.600	46.225	0.100
204.700	48.026	0.100
204.800	42.348	0.100
204.900	45.528	0.100
205.000	48.174	0.100
205.100	43.318	0.100
205.200	46.373	0.100
205.300	43.771	0.100
205.400	42.170	0.100
205.500	43.407	0.100
205.600	46.863	0.100
205.700	46.530	0.100
205.800	38.056	0.100
205.900	41.029	0.100
206.000	45.593	0.100
206.100	38.295	0.100
206.200	49.532	0.100
206.300	42.088	0.100
206.400	43.482	0.100
206.500	46.374	0.100
206.600	45.098	0.100
206.700	44.771	0.100
206.800	49.385	0.100
206.900	48.629	0.100
207.000	41.586	0.100
207.100	43.461	0.100
207.200	41.857	0.100
207.300	41.823	0.100
207.400	42.551	0.100
207.500	42.629	0.100
207.600	46.486	0.100
207.700	47.449	0.100
207.800	45.286	0.100
207.900	43.593	0.100
208.000	40.144	0.100
208.100	44.793	0.100
208.200	42.739	0.100
208.300	40.989	0.100
208.400	45.520	0.100
208.500	44.493	0.100
208.600	47.578	0.100
208.700	47.868	0.100
208.800	44.152	0.100
208.900	46.160	0.100
209.000	47.985	0.100
209.100	49.453	0.100
209.200	43.187	0.100
209.300	46.560	0.100
209.400	37.072	0.100
209.500	45.125	0.100
209.600	49.186	0.100
209.700	45.714	0.100
209.800	45.988	0.100
209.900	49.772	0.100
210.000	43.418	0.100
210.100	44.127	0.100
210.200	41.784	0.100
210.300	40.933	0.100
210.400	49.735	0.100
210.500	43.877	0.100
210.600	38.362	0.100
210.700	43.500	0.100
210.800	46.172	0.100
210.900	39.132	0.100
211.000	36.198	0.100
211.100	39.949	0.100
211.200	45.189	0.100
211.300	40.239	0.100
211.400	45.397	0.100
211.500	46.386	0.100
211.600	45.597	0.100
211.700	43.395	0.100
211.800	42.491	0.100
211.900	40.463	0.100
212.000	43.232	0.100
212.100	41.225	0.100
212.200	42.945	0.100
212.300	45.170	0.100
212.400	44.947	0.100
212.500	39.636	0.100
212.600	40.235	0.100
212.700	35.315	0.100
212.800	46.605	0.100
212.900	45.523	0.100
213.000	48.052	0.100
213.100	48.482	0.100
213.200	49.586	0.100
213.300	43.452	0.100
213.400	46.889	0.100
213.500	44.009	0.100
213.600	43.315	0.100
213.700	44.645	0.100
213.800	44.042	0.100
213.900	43.398	0.100
214.000	43.912	0.100
214.100	45.490	0.100
214.200	45.287	0.100
214.300	43.295	0.100
214.400	43.977	0.100
214.500	43.424	0.100
214.600	43.673	0.100
214.700	47.857	0.100
214.800	47.407	0.100
214.900	39.313	0.100
215.000	38.918	0.100
215.100	41.448	0.100
215.200	41.216	0.100
215.300	43.826	0.100
215.400	43.045	0.100
215.500	48.254	0.100
215.600	46.940	0.100
215.700	43.870	0.100
215.800	42.806	0.100
215.900	42.131	0.100
216.000	44.644	0.100
216.100	45.437	0.100
216.200	44.143	0.100
216.300	41.269	0.100
216.400	41.170	0.100
216.500	45.441	0.100
216.600	42.672	0.100
216.700	41.415	0.100
216.800	43.757	0.100
216.900	46.692	0.100
217.000	39.140	0.100
217.100	46.166	0.100
217.200	39.626	0.100
217.300	44.115	0.100
217.400	38.269	0.100
217.500	38.741	0.100
217.600	47.573	0.100
217.700	43.945	0.100
217.800	46.618	0.100
217.900	44.789	0.100
218.000	35.105	0.100
218.100	43.801	0.100
218.200	38.720	0.100
218.300	45.025	0.100
218.400	45.510	0.100
218.500	44.332	0.100
218.600	46.210	0.100
218.700	44.720	0.100
218.800	41.923	0.100
218.900	41.934	0.100
219.000	44.092	0.100
219.100	42.845	0.100
219.200	47.105	0.100
219.300	43.203	0.100
219.400	46.441	0.100
219.500	45.177	0.100
219.600	46.602	0.100
219.700	44.793	0.100
219.800	47.664	0.100
219.900	43.956	0.100
220.000	37.311	0.100
220.100	40.506	0.100
220.200	41.937	0.100
220.300	39.136	0.100
220.400	43.067	0.100
220.500	44.939	0.100
220.600	45.976	0.100
220.700	46.294	0.100
220.800	45.719	0.100
220.900	43.263	0.100
221.000	47.425	0.100
221.100	46.878	0.100
221.200	40.016	0.100
221.300	39.368	0.100
221.400	44.179	0.100
221.500	42.497	0.100
221.600	44.437	0.100
221.700	43.792	0.100
221.800	41.327	0.100
221.900	45.175	0.100
222.000	39.335	0.100
222.100	35.083	0.100
222.200	42.228	0.100
222.300	45.744	0.100
222.400	43.665	0.100
222.500	45.181	0.100
222.600	46.856	0.100
222.700	45.396	0.100
222.800	43.629	0.100
222.900	45.424	0.100
223.000	41.094	0.100
223.100	43.320	0.100
223.200	49.209	0.100
223.300	45.669	0.100
223.400	42.919	0.100
223.500	40.032	0.100
223.600	41.475	0.100
223.700	39.511	0.100
223.800	42.183	0.100
223.900	45.423	0.100
224.000	44.703	0.100
224.100	42.902	0.100
224.200	44.027	0.100
224.300	41.520	0.100
224.400	36.791	0.100
224.500	42.080	0.100
224.600	43.437	0.100
224.700	41.920	0.100
224.800	44.007	0.100
224.900	51.539	0.100
225.000	49.661	0.100
225.100	49.631	0.100
225.200	43.364	0.100
225.300	45.903	0.100
225.400	39.671	0.100
225.500	44.284	0.100
225.600	46.826	0.100
225.700	44.798	0.100
225.800	48.869	0.100
225.900	47.152	0.100
226.000	41.487	0.100
226.100	42.366	0.100
226.200	41.791	0.100
226.300	39.128	0.100
226.400	47.290	0.100
226.500	45.863	0.100
226.600	47.258	0.100
226.700	44.872	0.100
226.800	40.942	0.100
226.900	38.192	0.100
227.000	38.495	0.100
227.100	44.048	0.100
227.200	44.987	0.100
227.300	43.345	0.100
227.400	47.506	0.100
227.500	45.992	0.100
227.600	40.905	0.100
227.700	43.705	0.100
227.800	41.237	0.100
227.900	43.069	0.100
228.000	42.927	0.100
228.100	41.014	0.100
228.200	35.891	0.100
228.300	47.459	0.100
228.400	49.894	0.100
228.500	50.083	0.100
228.600	45.380	0.100
228.700	36.054	0.100
228.800	40.536	0.100
228.900	42.379	0.100
229.000	40.214	0.100
229.100	40.770	0.100
229.200	47.962	0.100
229.300	39.081	0.100
229.400	43.998	0.100
229.500	36.322	0.100
229.600	42.551	0.100
229.700	50.942	0.100
229.800	48.018	0.100
229.900	42.871	0.100
230.000	42.428	0.100
230.100	45.864	0.100
230.200	46.575	0.100
230.300	46.846	0.100
230.400	44.400	0.100
230.500	43.181	0.100
230.600	42.984	0.100
230.700	44.006	0.100
230.800	48.877	0.100
230.900	39.052	0.100
231.000	48.740	0.100
231.100	46.695	0.100
231.200	46.557	0.100
231.300	46.175	0.100
231.400	46.381	0.100
231.500	46.230	0.100
231.600	39.830	0.100
231.700	43.190	0.100
231.800	40.329	0.100
231.900	42.701	0.100
232.000	40.292	0.100
232.100	41.080	0.100
232.200	42.149	0.100
232.300	44.862	0.100
232.400	45.782	0.100
232.500	47.663	0.100
232.600	40.959	0.100
232.700	39.383	0.100
232.800	41.739	0.100
232.900	49.745	0.100
233.000	44.505	0.100
233.100	44.036	0.100
233.200	41.263	0.100
233.300	43.904	0.100
233.400	40.457	0.100
233.500	43.898	0.100
233.600	46.787	0.100
233.700	44.583	0.100
233.800	45.630	0.100
233.900	41.818	0.100
234.000	42.096	0.100
234.100	43.313	0.100
234.200	34.769	0.100
234.300	44.405	0.100
234.400	46.869	0.100
234.500	44.333	0.100
234.600	43.037	0.100
234.700	44.878	0.100
234.800	42.023	0.100
234.900	39.328	0.100
235.000	44.018	0.100
235.100	42.922	0.100
235.200	48.537	0.100
235.300	49.007	0.100
235.400	43.216	0.100
235.500	44.656	0.100
235.600	45.728	0.100
235.700	41.869	0.100
235.800	44.873	0.100
235.900	43.178	0.100
236.000	42.566	0.100
236.100	46.494	0.100
236.200	43.927	0.100
236.300	39.954	0.100
236.400	46.724	0.100
236.500	44.911	0.100
236.600	43.773	0.100
236.700	44.768	0.100
236.800	45.107	0.100
236.900	46.106	0.100
237.000	47.117	0.100
237.100	45.194	0.100
237.200	41.808	0.100
237.300	39.779	0.100
237.400	46.713	0.100
237.500	42.012	0.100
237.600	41.012	0.100
237.700	43.452	0.100
237.800	40.763	0.100
237.900	44.613	0.100
238.000	44.456	0.100
238.100	42.405	0.100
238.200	44.318	0.100
238.300	41.636	0.100
238.400	45.444	0.100
238.500	48.778	0.100
238.600	45.660	0.100
238.700	45.660	0.100
238.800	49.542	0.100
238.900	46.684	0.100
239.000	39.710	0.100
239.100	42.907	0.100
239.200	45.423	0.100
239.300	42.194	0.100
239.400	46.135	0.100
239.500	46.984	0.100
239.600	41.012	0.100
239.700	43.651	0.100
239.800	38.871	0.100
239.900	41.086	0.100
240.000	48.189	0.100
240.100	41.715	0.100
240.200	42.916	0.100
240.300	35.588	0.100
240.400	44.083	0.100
240.500	44.293	0.100
240.600	41.038	0.100
240.700	42.738	0.100
240.800	44.159	0.100
240.900	44.012	0.100
241.000	41.530	0.100
241.100	35.205	0.100
241.200	38.182	0.100
241.300	35.334	0.100
241.400	39.873	0.100
241.500	33.128	0.100
241.600	30.270	0.100
241.700	24.209	0.100
241.800	23.202	0.100
241.900	22.857	0.100
242.000	21.800	0.100
242.100	22.659	0.100
242.200	22.438	0.100
242.300	22.597	0.100
242.400	19.096	0.100
242.500	21.267	0.100
242.600	14.840	0.100
242.700	12.022	0.100
242.800	14.382	0.100
242.900	14.983	0.100
243.000	12.587	0.100
243.100	19.223	0.100
243.200	15.799	0.100
243.300	13.183	0.100
243.400	20.140	0.100
243.500	12.299	0.100
243.600	13.450	0.100
243.700	15.906	0.100
243.800	9.703	0.100
243.900	12.389	0.100
244.000	19.402	0.100
244.100	11.807	0.100
244.200	10.432	0.100
244.300	8.105	0.100
244.400	14.281	0.100
244.500	16.397	0.100
244.600	9.815	0.100
244.700	11.053	0.100
244.800	5.900	0.100
244.900	11.343	0.100
245.000	15.003	0.100
245.100	15.066	0.100
245.200	10.949	0.100
245.300	12.932	0.100
245.400	9.616	0.100
245.500	12.458	0.100
245.600	11.865	0.100
245.700	8.879	0.100
245.800	12.453	0.100
245.900	13.279	0.100
246.000	9.676	0.100
246.100	6.448	0.100
246.200	7.810	0.100
246.300	11.179	0.100
246.400	9.757	0.100
246.500	8.126	0.100
246.600	10.151	0.100
246.700	15.340	0.100
246.800	12.637	0.100
246.900	6.901	0.100
247.000	12.496	0.100
247.100	11.641	0.100
247.200	13.302	0.100
247.300	10.269	0.100
247.400	8.394	0.100
247.500	9.264	0.100
247.600	13.887	0.100
247.700	9.515	0.100
247.800	7.381	0.100
247.900	12.922	0.100
248.000	16.142	0.100
248.100	9.392	0.100
248.200	8.755	0.100
248.300	6.304	0.100
248.400	9.564	0.100
248.500	13.919	0.100
248.600	9.029	0.100
248.700	11.488	0.100
248.800	11.480	0.100
248.900	6.168	0.100
249.000	1.338	0.100
249.100	12.581	0.100
249.200	12.194	0.100
249.300	10.864	0.100
249.400	11.059	0.100
249.500	9.313	0.100
249.600	6.703	0.100
249.700	7.036	0.100
249.800	2.768	0.100
249.900	3.306	0.100
250.000	5.771	0.100
250.100	7.814	0.100
250.200	12.712	0.100
250.300	5.399	0.100
250.400	10.239	0.100
250.500	8.637	0.100
250.600	9.180	0.100
250.700	8.415	0.100
250.800	4.503	0.100
250.900	7.399	0.100
251.000	5.067	0.100
251.100	12.008	0.100
251.200	8.013	0.100
251.300	6.581	0.100
251.400	10.755	0.100
251.500	2.749	0.100
251.600	8.426	0.100
251.700	6.851	0.100
251.800	6.150	0.100
251.900	8.352	0.100
252.000	13.981	0.100
252.100	11.930	0.100
252.200	8.864	0.100
252.300	6.472	0.100
252.400	9.151	0.100
252.500	9.011	0.100
252.600	4.414	0.100
252.700	5.993	0.100
252.800	13.402	0.100
252.900	10.057	0.100
253.000	1.276	0.100
253.100	8.388	0.100
253.200	11.657	0.100
253.300	9.375	0.100
253.400	6.674	0.100
253.500	5.367	0.100
253.600	8.562	0.100
253.700	4.838	0.100
253.800	5.380	0.100
253.900	10.966	0.100
254.000	12.248	0.100
254.100	3.332	0.100
254.200	5.279	0.100
254.300	4.649	0.100
254.400	7.510	0.100
254.500	5.415	0.100
254.600	7.934	0.100
254.700	6.577	0.100
254.800	11.190	0.100
254.900	4.097	0.100
255.000	2.617	0.100
255.100	12.348	0.100
255.200	5.045	0.100
255.300	4.234	0.100
255.400	0.459	0.100
255.500	-3.047	0.100
255.600	3.617	0.100
255.700	7.451	0.100
255.800	14.971	0.100
255.900	4.171	0.100
256.000	1.464	0.100
256.100	1.219	0.100
256.200	13.025	0.100
256.300	5.737	0.100
256.400	4.987	0.100
256.500	4.582	0.100
256.600	5.437	0.100
256.700	2.534	0.100
256.800	2.634	0.100
256.900	3.905	0.100
257.000	5.338	0.100
257.100	-2.764	0.100
257.200	4.642	0.100
257.300	9.073	0.100
257.400	8.582	0.100
257.500	4.306	0.100
257.600	5.044	0.100
257.700	-0.826	0.100
257.800	5.063	0.100
257.900	5.153	0.100
258.000	5.481	0.100
258.100	5.521	0.100
258.200	2.768	0.100
258.300	2.487	0.100
258.400	2.879	0.100
258.500	6.405	0.100
258.600	8.362	0.100
258.700	5.634	0.100
258.800	7.207	0.100
258.900	4.681	0.100
259.000	2.046	0.100
259.100	3.178	0.100
259.200	-0.282	0.100
259.300	2.434	0.100
259.400	8.223	0.100
259.500	0.296	0.100
259.600	2.674	0.100
259.700	-1.733	0.100
259.800	2.902	0.100
259.900	8.625	0.100
260.000	8.486	0.100
260.100	2.905	0.100
260.200	1.700	0.100
260.300	6.562	0.100
260.400	9.274	0.100
260.500	4.880	0.100
260.600	5.500	0.100
260.700	2.836	0.100
260.800	2.527	0.100
260.900	4.373	0.100
261.000	-4.411	0.100
261.100	3.654	0.100
261.200	-3.211	0.100
261.300	-6.174	0.100
261.400	-2.889	0.100
261.500	3.992	0.100
261.600	0.918	0.100
261.700	2.114	0.100
261.800	6.900	0.100
261.900	3.496	0.100
262.000	0.927	0.100
262.100	-0.638	0.100
262.200	1.941	0.100
262.300	-1.024	0.100
262.400	3.992	0.100
262.500	4.341	0.100
262.600	3.765	0.100
262.700	3.508	0.100
262.800	-0.015	0.100
262.900	2.970	0.100
263.000	-2.882	0.100
263.100	-2.829	0.100
263.200	-4.744	0.100
263.300	1.028	0.100
263.400	4.334	0.100
263.500	-3.709	0.100
263.600	3.472	0.100
263.700	3.744	0.100
263.800	-6.012	0.100
263.900	2.439	0.100
264.000	3.620	0.100
264.100	1.880	0.100
264.200	-3.591	0.100
264.300	2.969	0.100
264.400	1.577	0.100
264.500	-3.059	0.100
264.600	-1.543	0.100
264.700	-0.578	0.100
264.800	1.195	0.100
264.900	0.984	0.100
265.000	0.464	0.100
265.100	-2.642	0.100
265.200	-1.346	0.100
265.300	1.211	0.100
265.400	-0.999	0.100
265.500	-1.467	0.100
265.600	-3.637	0.100
265.700	1.549	0.100
265.800	-8.555	0.100
265.900	-5.062	0.100
266.000	-6.238	0.100
266.100	-4.375	0.100
266.200	-0.276	0.100
266.300	-1.824	0.100
266.400	-0.139	0.100
266.500	-5.981	0.100
266.600	-3.276	0.100
266.700	-0.793	0.100
266.800	1.001	0.100
266.900	1.087	0.100
267.000	2.156	0.100
267.100	-0.752	0.100
267.200	5.420	0.100
267.300	2.810	0.100
267.400	3.185	0.100
267.500	-5.775	0.100
267.600	-1.334	0.100
267.700	0.805	0.100
267.800	4.383	0.100
267.900	-1.874	0.100
268.000	-4.431	0.100
268.100	-1.379	0.100
268.200	-0.381	0.100
268.300	0.148	0.100
268.400	2.758	0.100
268.500	-1.129	0.100
268.600	-4.965	0.100
268.700	-2.877	0.100
268.800	6.331	0.100
268.900	-1.028	0.100
269.000	-2.614	0.100
269.100	-2.443	0.100
269.200	-6.508	0.100
269.300	-2.631	0.100
269.400	-2.689	0.100
269.500	-6.494	0.100
269.600	-0.969	0.100
269.700	-0.902	0.100
269.800	-2.230	0.100
269.900	-0.717	0.100
270.000	2.437	0.100
270.100	-0.433	0.100
270.200	-1.735	0.100
270.300	-1.404	0.100
270.400	-2.767	0.100
270.500	2.594	0.100
270.600	1.147	0.100
270.700	-3.768	0.100
270.800	-1.491	0.100
270.900	-4.845	0.100
271.000	-11.195	0.100
271.100	-4.264	0.100
271.200	3.550	0.100
271.300	-8.143	0.100
271.400	-6.444	0.100
271.500	-2.497	0.100
271.600	-4.503	0.100
271.700	-1.985	0.100
271.800	0.942	0.100
271.900	-4.215	0.100
272.000	-4.672	0.100
272.100	-7.099	0.100
272.200	-5.009	0.100
272.300	-5.541	0.100
272.400	-2.110	0.100
272.500	1.714	0.100
272.600	-5.876	0.100
272.700	-6.143	0.100
272.800	-8.635	0.100
272.900	-7.904	0.100
273.000	-9.060	0.100
273.100	-7.462	0.100
273.200	4.558	0.100
273.300	-2.944	0.100
273.400	2.013	0.100
273.500	-3.739	0.100
273.600	-5.296	0.100
273.700	-3.490	0.100
273.800	-3.798	0.100
273.900	-2.443	0.100
274.000	-7.614	0.100
274.100	-7.723	0.100
274.200	-0.609	0.100
274.300	-2.373	0.100
274.400	-1.179	0.100
274.500	0.561	0.100
274.600	-2.757	0.100
274.700	-5.552	0.100
274.800	-7.502	0.100
274.900	-1.750	0.100
275.000	-6.540	0.100
275.100	-4.884	0.100
275.200	-3.255	0.100
275.300	-3.169	0.100
275.400	-1.616	0.100
275.500	-3.480	0.100
275.600	-6.253	0.100
275.700	-5.938	0.100
275.800	-2.715	0.100
275.900	-2.468	0.100
276.000	-6.800	0.100
276.100	-6.028	0.100
276.200	-5.149	0.100
276.300	-2.135	0.100
276.400	-4.717	0.100
276.500	-8.328	0.100
276.600	-5.832	0.100
276.700	-7.643	0.100
276.800	-3.298	0.100
276.900	-5.658	0.100
277.000	-4.356	0.100
277.100	-3.769	0.100
277.200	-1.640	0.100
277.300	-2.375	0.100
277.400	0.436	0.100
277.500	-4.435	0.100
277.600	-5.457	0.100
277.700	-6.149	0.100
277.800	-5.685	0.100
277.900	-7.738	0.100
278.000	-6.760	0.100
278.100	-5.837	0.100
278.200	-5.607	0.100
278.300	-4.135	0.100
278.400	-8.258	0.100
278.500	-10.650	0.100
278.600	-5.600	0.100
278.700	-5.292	0.100
278.800	-1.174	0.100
278.900	-4.992	0.100
279.000	-2.690	0.100
279.100	-11.890	0.100
279.200	-13.465	0.100
279.300	-3.374	0.100
279.400	-10.011	0.100
279.500	-9.015	0.100
279.600	2.458	0.100
279.700	0.392	0.100
279.800	-7.545	0.100
279.900	-4.772	0.100
280.000	-9.930	0.100
280.100	-11.994	0.100
280.200	-2.845	0.100
280.300	-8.325	0.100
280.400	-14.978	0.100
280.500	-6.675	0.100
280.600	-6.645	0.100
280.700	-14.620	0.100
280.800	-6.024	0.100
280.900	-8.557	0.100
281.000	-6.251	0.100
281.100	-1.051	0.100
281.200	-3.625	0.100
281.300	-5.686	0.100
281.400	-5.149	0.100
281.500	-11.411	0.100
281.600	-9.629	0.100
281.700	-6.235	0.100
281.800	-6.018	0.100
281.900	-11.414	0.100
282.000	-4.111	0.100
282.100	-10.822	0.100
282.200	-1.314	0.100
282.300	-5.081	0.100
282.400	-4.298	0.100
282.500	-7.844	0.100
282.600	-9.498	0.100
282.700	-10.640	0.100
282.800	-11.232	0.100
282.900	-6.423	0.100
283.000	-8.140	0.100
283.100	1.062	0.100
283.200	-6.492	0.100
283.300	-9.255	0.100
283.400	-7.566	0.100
283.500	-6.734	0.100
283.600	-4.346	0.100
283.700	-8.263	0.100
283.800	-6.984	0.100
283.900	-7.785	0.100
284.000	-6.390	0.100
284.100	-9.364	0.100
284.200	-13.861	0.100
284.300	-8.221	0.100
284.400	-1.545	0.100
284.500	-8.820	0.100
284.600	-5.302	0.100
284.700	-8.851	0.100
284.800	-4.185	0.100
284.900	-4.805	0.100
285.000	-6.592	0.100
285.100	-5.546	0.100
285.200	-8.466	0.100
285.300	-7.540	0.100
285.400	-9.310	0.100
285.500	-9.184	0.100
285.600	-6.641	0.100
285.700	-8.878	0.100
285.800	-7.999	0.100
285.900	-13.631	0.100
286.000	-14.997	0.100
286.100	-11.897	0.100
286.200	-6.033	0.100
286.300	-3.841	0.100
286.400	-13.880	0.100
286.500	-10.550	0.100
286.600	-10.825	0.100
286.700	-10.328	0.100
286.800	-1.492	0.100
286.900	-6.036	0.100
287.000	-12.897	0.100
287.100	-10.763	0.100
287.200	-2.054	0.100
287.300	-9.409	0.100
287.400	-9.444	0.100
287.500	-14.092	0.100
287.600	-14.099	0.100
287.700	-10.784	0.100
287.800	-9.102	0.100
287.900	-8.371	0.100
288.000	-9.763	0.100
288.100	-10.839	0.100
288.200	-5.921	0.100
288.300	-8.248	0.100
288.400	-5.965	0.100
288.500	-9.182	0.100
288.600	-13.069	0.100
288.700	-8.597	0.100
288.800	-8.675	0.100
288.900	-9.763	0.100
289.000	-12.867	0.100
289.100	-17.191	0.100
289.200	-14.542	0.100
289.300	-4.210	0.100
289.400	-4.205	0.100
289.500	-6.748	0.100
289.600	-7.044	0.100
289.700	-11.222	0.100
289.800	-9.377	0.100
289.900	-9.974	0.100
290.000	-11.170	0.100
290.100	-7.580	0.100
290.200	-5.448	0.100
290.300	-11.844	0.100
290.400	-12.308	0.100
290.500	-3.880	0.100
290.600	-9.746	0.100
290.700	-3.760	0.100
290.800	-3.388	0.100
290.900	-6.274	0.100
291.000	-12.833	0.100
291.100	-9.556	0.100
291.200	-11.183	0.100
291.300	-8.323	0.100
291.400	-4.603	0.100
291.500	-8.606	0.100
291.600	-11.042	0.100
291.700	-4.710	0.100
291.800	-8.802	0.100
291.900	-9.866	0.100
292.000	-11.701	0.100
292.100	-8.168	0.100
292.200	-15.952	0.100
292.300	-12.468	0.100
292.400	-12.060	0.100
292.500	-6.839	0.100
292.600	-1.439	0.100
292.700	-13.131	0.100
292.800	-4.476	0.100
292.900	-8.828	0.100
293.000	-13.454	0.100
293.100	-8.828	0.100
293.200	-7.521	0.100
293.300	-7.633	0.100
293.400	-12.155	0.100
293.500	-12.521	0.100
293.600	-12.318	0.100
293.700	-5.853	0.100
293.800	-5.663	0.100
293.900	-10.218	0.100
294.000	-14.219	0.100
294.100	-13.551	0.100
294.200	-11.356	0.100
294.300	-7.887	0.100
294.400	-11.041	0.100
294.500	-9.930	0.100
294.600	-13.457	0.100
294.700	-13.150	0.100
294.800	-14.369	0.100
294.900	-5.684	0.100
295.000	-6.321	0.100
295.100	-10.576	0.100
295.200	-9.251	0.100
295.300	-3.161	0.100
295.400	-1.858	0.100
295.500	-9.438	0.100
295.600	-8.969	0.100
295.700	-15.743	0.100
295.800	-10.279	0.100
295.900	-10.930	0.100
296.000	-13.718	0.100
296.100	-8.123	0.100
296.200	-7.589	0.100
296.300	-13.015	0.100
296.400	-10.521	0.100
296.500	-13.306	0.100
296.600	-10.431	0.100
296.700	-11.927	0.100
296.800	-12.752	0.100
296.900	-9.731	0.100
297.000	-8.774	0.100
297.100	-10.200	0.100
297.200	-11.794	0.100
297.300	-10.042	0.100
297.400	-11.630	0.100
297.500	-7.635	0.100
297.600	-3.902	0.100
297.700	-3.361	0.100
297.800	-9.204	0.100
297.900	-10.813	0.100
298.000	-12.267	0.100
298.100	-9.778	0.100
298.200	-11.880	0.100
298.300	-9.657	0.100
298.400	-14.916	0.100
298.500	-12.211	0.100
298.600	-7.919	0.100
298.700	-7.193	0.100
298.800	-5.239	0.100
298.900	-13.812	0.100
299.000	-5.440	0.100
299.100	-8.443	0.100
299.200	-5.920	0.100
299.300	-9.040	0.100
299.400	-7.172	0.100
299.500	-10.644	0.100
299.600	-10.895	0.100
299.700	-10.874	0.100
299.800	-5.379	0.100
299.900	-4.440	0.100
300.000	-8.190	0.100
300.100	-12.440	0.100
300.200	-10.835	0.100
300.300	-12.381	0.100
300.400	-11.610	0.100
300.500	-13.048	0.100
300.600	-13.214	0.100
300.700	-13.457	0.100
300.800	-9.871	0.100
300.900	-9.190	0.100
301.000	-6.208	0.100
301.100	-8.137	0.100
301.200	-12.208	0.100
301.300	-7.680	0.100
301.400	-7.313	0.100
301.500	-10.942	0.100
301.600	-11.354	0.100
301.700	-16.100	0.100
301.800	-13.558	0.100
301.900	-11.372	0.100
302.000	-8.028	0.100
302.100	-8.544	0.100
302.200	-11.358	0.100
302.300	-13.922	0.100
302.400	-11.224	0.100
302.500	-6.708	0.100
302.600	-9.225	0.100
302.700	-14.927	0.100
302.800	-11.394	0.100
302.900	-12.087	0.100
303.000	-7.683	0.100
303.100	-11.622	0.100
303.200	-15.902	0.100
303.300	-12.686	0.100
303.400	-8.740	0.100
303.500	-8.955	0.100
303.600	-3.381	0.100
303.700	-3.547	0.100
303.800	-9.371	0.100
303.900	-12.799	0.100
304.000	-16.516	0.100
304.100	-13.805	0.100
304.200	-13.164	0.100
304.300	-10.166	0.100
304.400	-8.805	0.100
304.500	-7.033	0.100
304.600	-13.032	0.100
304.700	-17.187	0.100
304.800	-15.893	0.100
304.900	-6.757	0.100
305.000	-8.924	0.100
305.100	-6.515	0.100
305.200	-6.592	0.100
305.300	-8.494	0.100
305.400	-12.348	0.100
305.500	-14.193	0.100
305.600	-9.020	0.100
305.700	-7.497	0.100
305.800	-8.825	0.100
305.900	-9.579	0.100
306.000	-8.012	0.100
306.100	-12.805	0.100
306.200	-10.511	0.100
306.300	-14.740	0.100
306.400	-11.655	0.100
306.500	-10.259	0.100
306.600	-12.143	0.100
306.700	-10.016	0.100
306.800	-8.005	0.100
306.900	-9.551	0.100
307.000	-10.465	0.100
307.100	-13.792	0.100
307.200	-12.009	0.100
307.300	-11.766	0.100
307.400	-12.276	0.100
307.500	-12.235	0.100
307.600	-9.068	0.100
307.700	-14.066	0.100
307.800	-8.324	0.100
307.900	-8.262	0.100
308.000	-7.093	0.100
308.100	-10.848	0.100
308.200	-6.734	0.100
308.300	-13.596	0.100
308.400	-13.778	0.100
308.500	-11.212	0.100
308.600	-3.514	0.100
308.700	-8.321	0.100
308.800	-10.150	0.100
308.900	-8.939	0.100
309.000	-16.041	0.100
309.100	-17.253	0.100
309.200	-11.082	0.100
309.300	-3.110	0.100
309.400	-8.855	0.100
309.500	-9.553	0.100
309.600	-7.407	0.100
309.700	-8.059	0.100
309.800	-9.620	0.100
309.900	-6.934	0.100
310.000	-6.650	0.100
310.100	-8.865	0.100
310.200	-10.740	0.100
310.300	-13.113	0.100
310.400	-9.943	0.100
310.500	-10.338	0.100
310.600	-8.792	0.100
310.700	-9.105	0.100
310.800	-8.470	0.100
310.900	-7.431	0.100
311.000	-6.959	0.100
311.100	-11.771	0.100
311.200	-9.534	0.100
311.300	-9.791	0.100
311.400	-8.958	0.100
311.500	-5.997	0.100
311.600	-7.913	0.100
311.700	-6.780	0.100
311.800	-14.380	0.100
311.900	-9.055	0.100
312.000	-12.333	0.100
312.100	-9.600	0.100
312.200	-11.610	0.100
312.300	-7.537	0.100
312.400	-7.076	0.100
312.500	-8.528	0.100
312.600	-7.752	0.100
312.700	-11.503	0.100
312.800	-10.208	0.100
312.900	-11.426	0.100
313.000	-12.308	0.100
313.100	-15.969	0.100
313.200	-16.218	0.100
313.300	-15.907	0.100
313.400	-13.132	0.100
313.500	-12.149	0.100
313.600	-11.513	0.100
313.700	-3.973	0.100
313.800	-13.641	0.100
313.900	-5.108	0.100
314.000	-5.997	0.100
314.100	-8.949	0.100
314.200	-9.006	0.100
314.300	-11.085	0.100
314.400	-14.608	0.100
314.500	-16.027	0.100
314.600	-8.913	0.100
314.700	-12.200	0.100
314.800	-13.605	0.100
314.900	-10.459	0.100
315.000	-11.652	0.100
315.100	-8.169	0.100
315.200	-9.334	0.100
315.300	-7.363	0.100
315.400	-7.311	0.100
315.500	-6.672	0.100
315.600	-9.168	0.100
315.700	-8.256	0.100
315.800	-10.279	0.100
315.900	-6.819	0.100
316.000	-9.899	0.100
316.100	-6.111	0.100
316.200	-7.148	0.100
316.300	-12.143	0.100
316.400	-14.218	0.100
316.500	-13.354	0.100
316.600	-7.420	0.100
316.700	-13.954	0.100
316.800	-8.416	0.100
316.900	-14.983	0.100
317.000	-8.023	0.100
317.100	-8.266	0.100
317.200	-8.005	0.100
317.300	-11.569	0.100
317.400	-14.811	0.100
317.500	-11.104	0.100
317.600	-10.833	0.100
317.700	-6.587	0.100
317.800	-7.874	0.100
317.900	-12.186	0.100
318.000	-16.056	0.100
318.100	-9.172	0.100
318.200	-5.246	0.100
318.300	-9.009	0.100
318.400	-8.476	0.100
318.500	-6.521	0.100
318.600	-7.518	0.100
318.700	-8.298	0.100
318.800	-2.911	0.100
318.900	-12.915	0.100
319.000	-16.352	0.100
319.100	-7.200	0.100
319.200	-9.895	0.100
319.300	-10.246	0.100
319.400	-13.278	0.100
319.500	-8.255	0.100
319.600	-12.780	0.100
319.700	-15.423	0.100
319.800	-8.817	0.100
319.900	-14.624	0.100
320.000	-7.577	0.100
320.100	-9.282	0.100
320.200	-9.308	0.100
320.300	-10.871	0.100
320.400	-7.766	0.100
320.500	-12.986	0.100
320.600	-9.663	0.100
320.700	-12.856	0.100
320.800	-12.727	0.100
320.900	-5.183	0.100
321.000	-9.543	0.100
321.100	-11.444	0.100
321.200	-6.389	0.100
321.300	-8.383	0.100
321.400	-6.815	0.100
321.500	-12.912	0.100
321.600	-11.112	0.100
321.700	-8.404	0.100
321.800	-14.818	0.100
321.900	-10.524	0.100
322.000	-10.814	0.100
322.100	-13.792	0.100
322.200	-6.091	0.100
322.300	-12.643	0.100
322.400	-17.116	0.100
322.500	-13.262	0.100
322.600	-9.165	0.100
322.700	-4.186	0.100
322.800	-6.371	0.100
322.900	-7.928	0.100
323.000	-8.707	0.100
323.100	-15.988	0.100
323.200	-8.185	0.100
323.300	-11.115	0.100
323.400	-1.926	0.100
323.500	0.904	0.100
323.600	-6.258	0.100
323.700	-8.030	0.100
323.800	-7.733	0.100
323.900	-11.519	0.100
324.000	-9.373	0.100
324.100	-12.203	0.100
324.200	-8.619	0.100
324.300	-9.021	0.100
324.400	-10.471	0.100
324.500	-6.866	0.100
324.600	-6.868	0.100
324.700	-10.057	0.100
324.800	-12.253	0.100
324.900	-6.728	0.100
325.000	-9.629	0.100
325.100	-7.798	0.100
325.200	-6.128	0.100
325.300	-9.771	0.100
325.400	-10.351	0.100
325.500	-8.856	0.100
325.600	-11.100	0.100
325.700	-11.837	0.100
325.800	-11.624	0.100
325.900	-10.983	0.100
326.000	-10.938	0.100
326.100	-12.266	0.100
326.200	-7.669	0.100
326.300	-7.366	0.100
326.400	-7.147	0.100
326.500	-7.264	0.100
326.600	-4.681	0.100
326.700	-7.694	0.100
326.800	-11.196	0.100
326.900	-7.452	0.100
327.000	-6.568	0.100
327.100	-9.293	0.100
327.200	-13.555	0.100
327.300	-14.943	0.100
327.400	-9.058	0.100
327.500	-12.248	0.100
327.600	-13.280	0.100
327.700	-8.282	0.100
327.800	-11.780	0.100
327.900	-4.366	0.100
328.000	-6.550	0.100
328.100	-7.219	0.100
328.200	-12.081	0.100
328.300	-9.688	0.100
328.400	-14.132	0.100
328.500	-11.794	0.100
328.600	-8.006	0.100
328.700	-11.264	0.100
328.800	-10.682	0.100
328.900	-11.151	0.100
329.000	-8.287	0.100
329.100	-6.789	0.100
329.200	-7.292	0.100
329.300	-6.905	0.100
329.400	-8.883	0.100
329.500	-6.616	0.100
329.600	-7.440	0.100
329.700	-8.919	0.100
329.800	-10.291	0.100
329.900	-10.779	0.100
330.000	-13.084	0.100
330.100	-16.667	0.100
330.200	-13.126	0.100
330.300	-5.751	0.100
330.400	-5.039	0.100
330.500	-2.631	0.100
330.600	-1.088	0.100
330.700	-3.536	0.100
330.800	-5.096	0.100
330.900	-1.814	0.100
331.000	-6.027	0.100
331.100	-4.101	0.100
331.200	5.313	0.100
331.300	8.724	0.100
331.400	8.236	0.100
331.500	14.567	0.100
331.600	14.103	0.100
331.700	12.416	0.100
331.800	16.365	0.100
331.900	20.144	0.100
332.000	22.772	0.100
332.100	25.597	0.100
332.200	24.217	0.100
332.300	23.730	0.100
332.400	17.931	0.100
332.500	22.946	0.100
332.600	25.539	0.100
332.700	20.108	0.100
332.800	24.671	0.100
332.900	22.985	0.100
333.000	25.350	0.100
333.100	20.733	0.100
333.200	31.001	0.100
333.300	28.512	0.100
333.400	28.999	0.100
333.500	27.810	0.100
333.600	23.544	0.100
333.700	23.508	0.100
333.800	25.256	0.100
333.900	24.319	0.100
334.000	26.709	0.100
334.100	25.854	0.100
334.200	23.102	0.100
334.300	25.630	0.100
334.400	22.359	0.100
334.500	24.182	0.100
334.600	18.987	0.100
334.700	22.095	0.100
334.800	22.190	0.100
334.900	24.212	0.100
335.000	22.361	0.100
335.100	26.115	0.100
335.200	28.126	0.100
335.300	30.772	0.100
335.400	23.890	0.100
335.500	24.604	0.100
335.600	25.351	0.100
335.700	25.003	0.100
335.800	18.107	0.100
335.900	19.543	0.100
336.000	21.294	0.100
336.100	24.451	0.100
336.200	21.481	0.100
336.300	18.181	0.100
336.400	20.171	0.100
336.500	16.958	0.100
336.600	16.125	0.100
336.700	18.504	0.100
336.800	19.820	0.100
336.900	22.814	0.100
337.000	24.517	0.100
337.100	15.006	0.100
337.200	19.323	0.100
337.300	20.581	0.100
337.400	16.558	0.100
337.500	16.317	0.100
337.600	24.650	0.100
337.700	19.618	0.100
337.800	17.946	0.100
337.900	15.882	0.100
338.000	17.278	0.100
338.100	18.128	0.100
338.200	15.889	0.100
338.300	21.883	0.100
338.400	14.845	0.100
338.500	17.509	0.100
338.600	13.352	0.100
338.700	19.553	0.100
338.800	20.668	0.100
338.900	20.562	0.100
339.000	19.407	0.100
339.100	18.590	0.100
339.200	16.829	0.100
339.300	26.794	0.100
339.400	23.890	0.100
339.500	18.724	0.100
339.600	25.686	0.100
339.700	22.023	0.100
339.800	19.812	0.100
339.900	20.576	0.100
340.000	22.436	0.100
340.100	24.682	0.100
340.200	18.108	0.100
340.300	21.726	0.100
340.400	27.879	0.100
340.500	21.331	0.100
340.600	27.925	0.100
340.700	23.871	0.100
340.800	26.768	0.100
340.900	21.533	0.100
341.000	23.521	0.100
341.100	28.336	0.100
341.200	31.852	0.100
341.300	22.900	0.100
341.400	26.287	0.100
341.500	25.884	0.100
341.600	27.338	0.100
341.700	24.175	0.100
341.800	29.725	0.100
341.900	28.959	0.100
342.000	27.962	0.100
342.100	23.286	0.100
342.200	22.488	0.100
342.300	22.947	0.100
342.400	26.387	0.100
342.500	24.045	0.100
342.600	23.376	0.100
342.700	26.884	0.100
342.800	26.413	0.100
342.900	26.177	0.100
343.000	24.777	0.100
343.100	28.198	0.100
343.200	24.989	0.100
343.300	31.703	0.100
343.400	31.545	0.100
343.500	33.071	0.100
343.600	29.250	0.100
343.700	30.837	0.100
343.800	31.318	0.100
343.900	31.848	0.100
344.000	28.700	0.100
344.100	28.857	0.100
344.200	25.791	0.100
344.300	26.898	0.100
344.400	32.013	0.100
344.500	31.338	0.100
344.600	31.866	0.100
344.700	31.278	0.100
344.800	32.772	0.100
344.900	26.875	0.100
345.000	30.150	0.100
345.100	29.030	0.100
345.200	30.164	0.100
345.300	27.312	0.100
345.400	32.952	0.100
345.500	36.250	0.100
345.600	33.778	0.100
345.700	36.554	0.100
345.800	40.615	0.100
345.900	35.642	0.100
346.000	36.274	0.100
346.100	34.646	0.100
346.200	30.014	0.100
346.300	34.201	0.100
346.400	32.523	0.100
346.500	32.101	0.100
346.600	30.650	0.100
346.700	37.836	0.100
346.800	34.654	0.100
346.900	39.666	0.100
347.000	36.219	0.100
347.100	37.133	0.100
347.200	32.560	0.100
347.300	35.748	0.100
347.400	32.687	0.100
347.500	37.707	0.100
347.600	39.954	0.100
347.700	35.878	0.100
347.800	37.709	0.100
347.900	41.812	0.100
348.000	39.028	0.100
348.100	40.782	0.100
348.200	37.771	0.100
348.300	39.008	0.100
348.400	38.656	0.100
348.500	41.457	0.100
348.600	33.556	0.100
348.700	32.927	0.100
348.800	38.028	0.100
348.900	37.658	0.100
349.000	40.052	0.100
349.100	30.125	0.100
349.200	36.251	0.100
349.300	41.460	0.100
349.400	43.898	0.100
349.500	42.087	0.100
349.600	40.142	0.100
349.700	41.446	0.100
349.800	41.394	0.100
349.900	44.320	0.100
350.000	38.004	0.100
350.100	38.604	0.100
350.200	31.678	0.100
350.300	40.484	0.100
350.400	42.079	0.100
350.500	37.192	0.100
350.600	35.746	0.100
350.700	44.791	0.100
350.800	38.975	0.100
350.900	42.261	0.100
351.000	37.778	0.100
351.100	40.676	0.100
351.200	37.102	0.100
351.300	37.289	0.100
351.400	43.492	0.100
351.500	43.904	0.100
351.600	41.954	0.100
351.700	45.020	0.100
351.800	40.958	0.100
351.900	42.957	0.100
352.000	43.718	0.100
352.100	46.915	0.100
352.200	43.158	0.100
352.300	45.192	0.100
352.400	41.636	0.100
352.500	38.349	0.100
352.600	41.206	0.100
352.700	44.592	0.100
352.800	40.223	0.100
352.900	45.136	0.100
353.000	43.260	0.100
353.100	50.748	0.100
353.200	44.012	0.100
353.300	42.503	0.100
353.400	44.394	0.100
353.500	43.767	0.100
353.600	40.930	0.100
353.700	43.525	0.100
353.800	44.990	0.100
353.900	40.843	0.100
354.000	44.655	0.100
354.100	43.132	0.100
354.200	42.735	0.100
354.300	42.736	0.100
354.400	45.051	0.100
354.500	42.914	0.100
354.600	42.187	0.100
354.700	46.642	0.100
354.800	40.177	0.100
354.900	40.817	0.100
355.000	45.318	0.100
355.100	48.465	0.100
355.200	47.300	0.100
355.300	46.060	0.100
355.400	44.530	0.100
355.500	48.859	0.100
355.600	41.593	0.100
355.700	45.225	0.100
355.800	42.464	0.100
355.900	43.280	0.100
356.000	43.692	0.100
356.100	40.141	0.100
356.200	43.551	0.100
356.300	42.630	0.100
356.400	40.859	0.100
356.500	41.976	0.100
356.600	44.761	0.100
356.700	47.172	0.100
356.800	45.923	0.100
356.900	45.514	0.100
357.000	44.761	0.100
357.100	44.292	0.100
357.200	48.200	0.100
357.300	44.457	0.100
357.400	40.069	0.100
357.500	39.905	0.100
357.600	47.173	0.100
357.700	44.147	0.100
357.800	44.587	0.100
357.900	47.302	0.100
358.000	40.457	0.100
358.100	44.937	0.100
358.200	47.065	0.100
358.300	41.158	0.100
358.400	43.893	0.100
358.500	47.079	0.100
358.600	39.549	0.100
358.700	46.863	0.100
358.800	41.050	0.100
358.900	44.271	0.100
359.000	46.527	0.100
359.100	46.443	0.100
359.200	46.569	0.100
359.300	51.765	0.100
359.400	45.531	0.100
359.500	40.687	0.100
359.600	42.024	0.100
359.700	44.807	0.100
359.800	45.747	0.100
359.900	45.434	0.100
360.000	43.392	0.100
360.100	44.612	0.100
360.200	43.010	0.100
360.300	41.352	0.100
360.400	44.385	0.100
360.500	47.747	0.100
360.600	40.235	0.100
360.700	52.453	0.100
360.800	51.663	0.100
360.900	46.458	0.100
361.000	42.572	0.100
361.100	44.678	0.100
361.200	45.547	0.100
361.300	44.230	0.100
361.400	46.845	0.100
361.500	44.816	0.100
361.600	44.733	0.100
361.700	41.892	0.100
361.800	39.744	0.100
361.900	45.284	0.100
362.000	47.622	0.100
362.100	43.031	0.100
362.200	44.956	0.100
362.300	44.284	0.100
362.400	49.456	0.100
362.500	48.372	0.100
362.600	49.650	0.100
362.700	42.374	0.100
362.800	44.960	0.100
362.900	41.501	0.100
363.000	45.597	0.100
363.100	43.151	0.100
363.200	46.430	0.100
363.300	44.339	0.100
363.400	40.171	0.100
363.500	43.190	0.100
363.600	46.019	0.100
363.700	38.812	0.100
363.800	44.831	0.100
363.900	47.273	0.100
364.000	46.117	0.100
364.100	46.196	0.100
364.200	48.599	0.100
364.300	38.996	0.100
364.400	50.022	0.100
364.500	47.486	0.100
364.600	47.378	0.100
364.700	47.103	0.100
364.800	45.070	0.100
364.900	41.654	0.100
365.000	45.358	0.100
365.100	43.758	0.100
365.200	47.863	0.100
365.300	47.341	0.100
365.400	44.052	0.100
365.500	42.034	0.100
365.600	39.933	0.100
365.700	47.829	0.100
365.800	42.819	0.100
365.900	45.193	0.100
366.000	46.123	0.100
366.100	43.973	0.100
366.200	44.561	0.100
366.300	46.229	0.100
366.400	45.418	0.100
366.500	46.679	0.100
366.600	47.771	0.100
366.700	43.695	0.100
366.800	43.094	0.100
366.900	48.203	0.100
367.000	39.153	0.100
367.100	42.713	0.100
367.200	46.687	0.100
367.300	43.838	0.100
367.400	43.462	0.100
367.500	47.504	0.100
367.600	41.282	0.100
367.700	44.142	0.100
367.800	44.960	0.100
367.900	40.549	0.100
368.000	44.864	0.100
368.100	48.783	0.100
368.200	46.424	0.100
368.300	45.922	0.100
368.400	44.801	0.100
368.500	44.956	0.100
368.600	46.080	0.100
368.700	46.278	0.100
368.800	44.679	0.100
368.900	45.678	0.100
369.000	42.934	0.100
369.100	40.546	0.100
369.200	41.090	0.100
369.300	46.395	0.100
369.400	44.804	0.100
369.500	37.634	0.100
369.600	43.628	0.100
369.700	45.648	0.100
369.800	44.524	0.100
369.900	47.459	0.100
370.000	42.958	0.100
370.100	41.859	0.100
370.200	45.014	0.100
370.300	46.533	0.100
370.400	42.757	0.100
370.500	48.261	0.100
370.600	49.271	0.100
370.700	44.058	0.100
370.800	46.530	0.100
370.900	39.982	0.100
371.000	44.100	0.100
371.100	46.501	0.100
371.200	48.885	0.100
371.300	46.288	0.100
371.400	48.015	0.100
371.500	45.167	0.100
371.600	43.012	0.100
371.700	45.734	0.100
371.800	41.864	0.100
371.900	44.707	0.100
372.000	39.271	0.100
372.100	43.614	0.100
372.200	46.698	0.100
372.300	44.108	0.100
372.400	40.947	0.100
372.500	40.146	0.100
372.600	46.989	0.100
372.700	48.833	0.100
372.800	41.049	0.100
372.900	40.255	0.100
373.000	39.188	0.100
373.100	48.562	0.100
373.200	50.390	0.100
373.300	43.447	0.100
373.400	43.512	0.100
373.500	43.986	0.100
373.600	45.726	0.100
373.700	45.542	0.100
373.800	47.642	0.100
373.900	48.649	0.100
374.000	41.834	0.100
374.100	44.182	0.100
374.200	39.289	0.100
374.300	40.448	0.100
374.400	44.395	0.100
374.500	45.454	0.100
374.600	44.006	0.100
374.700	44.959	0.100
374.800	45.339	0.100
374.900	41.781	0.100
375.000	46.527	0.100
375.100	45.329	0.100
375.200	45.709	0.100
375.300	44.001	0.100
375.400	42.994	0.100
375.500	40.111	0.100
375.600	45.310	0.100
375.700	43.678	0.100
375.800	43.093	0.100
375.900	43.235	0.100
376.000	35.120	0.100
376.100	36.781	0.100
376.200	48.803	0.100
376.300	45.324	0.100
376.400	40.620	0.100
376.500	48.292	0.100
376.600	47.255	0.100
376.700	39.260	0.100
376.800	45.517	0.100
376.900	42.506	0.100
377.000	41.161	0.100
377.100	41.227	0.100
377.200	37.979	0.100
377.300	43.993	0.100
377.400	44.913	0.100
377.500	46.191	0.100
377.600	45.939	0.100
377.700	43.245	0.100
377.800	46.088	0.100
377.900	43.124	0.100
378.000	47.304	0.100
378.100	41.043	0.100
378.200	39.690	0.100
378.300	48.392	0.100
378.400	43.490	0.100
378.500	44.929	0.100
378.600	41.398	0.100
378.700	44.972	0.100
378.800	44.546	0.100
378.900	49.365	0.100
379.000	40.672	0.100
379.100	39.375	0.100
379.200	46.425	0.100
379.300	42.742	0.100
379.400	44.844	0.100
379.500	42.705	0.100
379.600	44.652	0.100
379.700	44.201	0.100
379.800	40.257	0.100
379.900	44.329	0.100
380.000	44.021	0.100
380.100	46.314	0.100
380.200	39.165	0.100
380.300	45.956	0.100
380.400	43.913	0.100
380.500	43.126	0.100
380.600	38.865	0.100
380.700	49.481	0.100
380.800	47.357	0.100
380.900	51.265	0.100
381.000	47.330	0.100
381.100	45.843	0.100
381.200	43.837	0.100
381.300	46.694	0.100
381.400	43.376	0.100
381.500	40.955	0.100
381.600	45.701	0.100
381.700	47.848	0.100
381.800	42.521	0.100
381.900	39.319	0.100
382.000	44.009	0.100
382.100	43.483	0.100
382.200	44.123	0.100
382.300	49.074	0.100
382.400	43.586	0.100
382.500	46.531	0.100
382.600	40.815	0.100
382.700	42.500	0.100
382.800	40.731	0.100
382.900	48.980	0.100
383.000	41.928	0.100
383.100	49.003	0.100
383.200	43.892	0.100
383.300	44.939	0.100
383.400	41.595	0.100
383.500	39.978	0.100
383.600	40.267	0.100
383.700	39.860	0.100
383.800	45.274	0.100
383.900	43.671	0.100
384.000	45.817	0.100
384.100	40.715	0.100
384.200	50.405	0.100
384.300	50.695	0.100
384.400	44.807	0.100
384.500	39.116	0.100
384.600	52.770	0.100
384.700	42.723	0.100
384.800	48.652	0.100
384.900	44.653	0.100
385.000	41.529	0.100
385.100	43.970	0.100
385.200	47.185	0.100
385.300	43.668	0.100
385.400	45.827	0.100
385.500	41.896	0.100
385.600	38.702	0.100
385.700	37.796	0.100
385.800	45.694	0.100
385.900	47.087	0.100
386.000	41.197	0.100
386.100	46.234	0.100
386.200	47.243	0.100
386.300	38.570	0.100
386.400	46.131	0.100
386.500	42.400	0.100
386.600	41.087	0.100
386.700	48.257	0.100
386.800	46.718	0.100
386.900	45.812	0.100
387.000	38.612	0.100
387.100	41.402	0.100
387.200	40.304	0.100
387.300	42.996	0.100
387.400	43.822	0.100
387.500	46.249	0.100
387.600	50.256	0.100
387.700	53.379	0.100
387.800	46.177	0.100
387.900	48.439	0.100
388.000	46.954	0.100
388.100	38.711	0.100
388.200	38.492	0.100
388.300	39.481	0.100
388.400	42.504	0.100
388.500	40.701	0.100
388.600	47.966	0.100
388.700	46.224	0.100
388.800	45.623	0.100
388.900	44.116	0.100
389.000	47.685	0.100
389.100	46.611	0.100
389.200	45.427	0.100
389.300	40.644	0.100
389.400	50.156	0.100
389.500	43.106	0.100
389.600	40.547	0.100
389.700	44.485	0.100
389.800	43.058	0.100
389.900	44.252	0.100
390.000	45.987	0.100
390.100	43.022	0.100
390.200	44.053	0.100
390.300	46.330	0.100
390.400	46.946	0.100
390.500	45.743	0.100
390.600	40.525	0.100
390.700	42.541	0.100
390.800	38.929	0.100
390.900	39.549	0.100
391.000	41.522	0.100
391.100	36.776	0.100
391.200	26.595	0.100
391.300	29.122	0.100
391.400	25.072	0.100
391.500	20.938	0.100
391.600	22.522	0.100
391.700	21.352	0.100
391.800	16.671	0.100
391.900	20.982	0.100
392.000	20.284	0.100
392.100	25.910	0.100
392.200	19.371	0.100
392.300	24.562	0.100
392.400	16.922	0.100
392.500	14.409	0.100
392.600	15.738	0.100
392.700	17.043	0.100
392.800	19.276	0.100
392.900	14.430	0.100
393.000	10.871	0.100
393.100	9.092	0.100
393.200	8.006	0.100
393.300	8.384	0.100
393.400	13.863	0.100
393.500	3.551	0.100
393.600	9.813	0.100
393.700	9.674	0.100
393.800	11.108	0.100
393.900	12.615	0.100
394.000	12.499	0.100
394.100	11.488	0.100
394.200	11.690	0.100
394.300	13.516	0.100
394.400	10.232	0.100
394.500	5.186	0.100
394.600	10.507	0.100
394.700	10.803	0.100
394.800	3.548	0.100
394.900	5.636	0.100
395.000	11.359	0.100
395.100	10.443	0.100
395.200	12.096	0.100
395.300	12.245	0.100
395.400	12.001	0.100
395.500	8.737	0.100
395.600	3.258	0.100
395.700	7.707	0.100
395.800	11.172	0.100
395.900	9.362	0.100
396.000	11.219	0.100
396.100	10.721	0.100
396.200	11.862	0.100
396.300	8.147	0.100
396.400	10.053	0.100
396.500	7.918	0.100
396.600	11.387	0.100
396.700	5.620	0.100
396.800	4.591	0.100
396.900	5.193	0.100
397.000	10.764	0.100
397.100	7.189	0.100
397.200	8.679	0.100
397.300	11.871	0.100
397.400	5.874	0.100
397.500	5.531	0.100
397.600	5.341	0.100
397.700	7.227	0.100
397.800	13.190	0.100
397.900	8.618	0.100
398.000	7.672	0.100
398.100	3.511	0.100
398.200	9.860	0.100
398.300	11.084	0.100
398.400	10.757	0.100
398.500	10.814	0.100
398.600	10.749	0.100
398.700	10.465	0.100
398.800	14.232	0.100
398.900	8.861	0.100
399.000	3.342	0.100
399.100	3.094	0.100
399.200	9.385	0.100
399.300	8.653	0.100
399.400	4.158	0.100
399.500	6.601	0.100
399.600	10.313	0.100
399.700	8.888	0.100
399.800	9.448	0.100
399.900	2.207	0.100
400.000	6.540	0.100
400.100	9.452	0.100
400.200	7.576	0.100
400.300	3.802	0.100
400.400	4.869	0.100
400.500	7.221	0.100
400.600	10.882	0.100
400.700	7.666	0.100
400.800	5.294	0.100
400.900	9.077	0.100
401.000	6.779	0.100
401.100	-0.367	0.100
401.200	2.545	0.100
401.300	9.348	0.100
401.400	4.278	0.100
401.500	2.515	0.100
401.600	6.154	0.100
401.700	4.473	0.100
401.800	8.246	0.100
401.900	6.993	0.100
402.000	6.787	0.100
402.100	8.279	0.100
402.200	8.903	0.100
402.300	-3.308	0.100
402.400	6.611	0.100
402.500	4.971	0.100
402.600	4.748	0.100
402.700	10.747	0.100
402.800	9.555	0.100
402.900	7.175	0.100
403.000	2.453	0.100
403.100	3.365	0.100
403.200	1.128	0.100
403.300	2.549	0.100
403.400	-0.633	0.100
403.500	6.159	0.100
403.600	5.809	0.100
403.700	3.263	0.100
403.800	7.730	0.100
403.900	6.682	0.100
404.000	3.673	0.100
404.100	6.882	0.100
404.200	3.419	0.100
404.300	6.513	0.100
404.400	2.026	0.100
404.500	1.919	0.100
404.600	2.492	0.100
404.700	-6.639	0.100
404.800	1.216	0.100
404.900	9.107	0.100
405.000	-1.875	0.100
405.100	-1.741	0.100
405.200	4.101	0.100
405.300	7.611	0.100
405.400	8.606	0.100
405.500	6.232	0.100
405.600	6.993	0.100
405.700	5.070	0.100
405.800	0.555	0.100
405.900	1.239	0.100
406.000	0.158	0.100
406.100	1.380	0.100
406.200	7.695	0.100
406.300	3.853	0.100
406.400	-0.873	0.100
406.500	-3.203	0.100
406.600	-3.507	0.100
406.700	5.688	0.100
406.800	1.544	0.100
406.900	0.015	0.100
407.000	0.021	0.100
407.100	2.368	0.100
407.200	5.992	0.100
407.300	1.029	0.100
407.400	2.870	0.100
407.500	0.901	0.100
407.600	2.415	0.100
407.700	3.662	0.100
407.800	1.780	0.100
407.900	4.629	0.100
408.000	-2.983	0.100
408.100	-4.609	0.100
408.200	-0.503	0.100
408.300	-0.831	0.100
408.400	-0.515	0.100
408.500	2.056	0.100
408.600	-0.532	0.100
408.700	3.565	0.100
408.800	-0.825	0.100
408.900	1.826	0.100
409.000	0.664	0.100
409.100	2.464	0.100
409.200	-2.380	0.100
409.300	2.618	0.100
409.400	-0.884	0.100
409.500	-5.105	0.100
409.600	-4.304	0.100
409.700	1.256	0.100
409.800	-0.874	0.100
409.900	2.146	0.100
410.000	-7.136	0.100
410.100	-2.939	0.100
410.200	-2.443	0.100
410.300	-2.711	0.100
410.400	4.367	0.100
410.500	-0.747	0.100
410.600	1.299	0.100
410.700	-0.794	0.100
410.800	-1.081	0.100
410.900	0.179	0.100
411.000	-5.284	0.100
411.100	-3.533	0.100
411.200	0.781	0.100
411.300	0.583	0.100
411.400	0.453	0.100
411.500	-0.999	0.100
411.600	-3.765	0.100
411.700	-2.964	0.100
411.800	-4.035	0.100
411.900	1.673	0.100
412.000	-2.908	0.100
412.100	-3.528	0.100
412.200	-4.141	0.100
412.300	-1.247	0.100
412.400	-0.156	0.100
412.500	1.142	0.100
412.600	-5.038	0.100
412.700	-8.530	0.100
412.800	-2.225	0.100
412.900	-0.484	0.100
413.000	-8.952	0.100
413.100	-4.316	0.100
413.200	-2.213	0.100
413.300	-3.099	0.100
413.400	1.059	0.100
413.500	-1.309	0.100
413.600	-5.802	0.100
413.700	1.072	0.100
413.800	-2.527	0.100
413.900	2.088	0.100
414.000	0.955	0.100
414.100	-1.905	0.100
414.200	-4.005	0.100
414.300	-10.837	0.100
414.400	-2.524	0.100
414.500	-1.287	0.100
414.600	-3.926	0.100
414.700	-7.826	0.100
414.800	1.685	0.100
414.900	1.207	0.100
415.000	-3.696	0.100
415.100	-3.646	0.100
415.200	-3.232	0.100
415.300	-1.949	0.100
415.400	4.722	0.100
415.500	-2.962	0.100
415.600	-3.692	0.100
415.700	-4.608	0.100
415.800	-5.152	0.100
415.900	-2.568	0.100
416.000	-0.417	0.100
416.100	0.980	0.100
416.200	-4.384	0.100
416.300	-6.115	0.100
416.400	-2.326	0.100
416.500	-9.211	0.100
416.600	-8.427	0.100
416.700	-0.194	0.100
416.800	-3.065	0.100
416.900	-1.897	0.100
417.000	-10.704	0.100
417.100	-9.602	0.100
417.200	-4.486	0.100
417.300	-4.603	0.100
417.400	-7.376	0.100
417.500	-6.045	0.100
417.600	-5.927	0.100
417.700	-5.995	0.100
417.800	-8.621	0.100
417.900	-5.136	0.100
418.000	-7.476	0.100
418.100	-5.367	0.100
418.200	-4.954	0.100
418.300	-5.574	0.100
418.400	-6.190	0.100
418.500	-4.030	0.100
418.600	-7.617	0.100
418.700	-11.180	0.100
418.800	-12.457	0.100
418.900	-9.375	0.100
419.000	-9.811	0.100
419.100	-8.789	0.100
419.200	-5.145	0.100
419.300	-4.670	0.100
419.400	-6.832	0.100
419.500	-9.429	0.100
419.600	-11.812	0.100
419.700	-9.872	0.100
419.800	-1.581	0.100
419.900	-5.920	0.100
420.000	-4.153	0.100
420.100	-5.534	0.100
420.200	-4.986	0.100
420.300	-7.736	0.100
420.400	-7.940	0.100
420.500	-6.883	0.100
420.600	-9.060	0.100
420.700	-12.177	0.100
420.800	-7.751	0.100
420.900	-8.978	0.100
421.000	-11.087	0.100
421.100	-6.353	0.100
421.200	-6.167	0.100
421.300	-4.910	0.100
421.400	-9.138	0.100
421.500	-7.416	0.100
421.600	-8.805	0.100
421.700	-4.490	0.100
421.800	-9.487	0.100
421.900	-10.300	0.100
422.000	-10.458	0.100
422.100	-10.489	0.100
422.200	-7.090	0.100
422.300	-2.079	0.100
422.400	-3.656	0.100
422.500	-10.101	0.100
422.600	-9.056	0.100
422.700	-14.073	0.100
422.800	-8.146	0.100
422.900	-8.580	0.100
423.000	-12.774	0.100
423.100	-13.627	0.100
423.200	-9.690	0.100
423.300	-17.295	0.100
423.400	-4.748	0.100
423.500	-4.441	0.100
423.600	-6.214	0.100
423.700	-12.867	0.100
423.800	-9.645	0.100
423.900	-10.723	0.100
424.000	-10.436	0.100
424.100	-11.896	0.100
424.200	-11.758	0.100
424.300	-11.047	0.100
424.400	-10.677	0.100
424.500	-13.735	0.100
424.600	-11.925	0.100
424.700	-10.682	0.100
424.800	-10.182	0.100
424.900	-6.384	0.100
425.000	-7.750	0.100
425.100	-5.326	0.100
425.200	-6.164	0.100
425.300	-10.544	0.100
425.400	-9.508	0.100
425.500	-14.773	0.100
425.600	-13.779	0.100
425.700	-11.954	0.100
425.800	-6.291	0.100
425.900	-12.970	0.100
426.000	-7.529	0.100
426.100	-4.057	0.100
426.200	-6.603	0.100
426.300	-11.677	0.100
426.400	-9.343	0.100
426.500	-9.067	0.100
426.600	-4.556	0.100
426.700	-12.078	0.100
426.800	-11.752	0.100
426.900	-10.386	0.100
427.000	-14.971	0.100
427.100	-7.380	0.100
427.200	-6.507	0.100
427.300	-11.369	0.100
427.400	-17.329	0.100
427.500	-9.588	0.100
427.600	-8.670	0.100
427.700	-5.947	0.100
427.800	-11.584	0.100
427.900	-12.335	0.100
428.000	-16.510	0.100
428.100	-8.097	0.100
428.200	-8.418	0.100
428.300	-10.802	0.100
428.400	-5.243	0.100
428.500	-11.007	0.100
428.600	-8.002	0.100
428.700	-12.788	0.100
428.800	-19.412	0.100
428.900	-15.722	0.100
429.000	-9.482	0.100
429.100	-9.028	0.100
429.200	-12.960	0.100
429.300	-10.537	0.100
429.400	-10.475	0.100
429.500	-13.909	0.100
429.600	-8.290	0.100
429.700	-13.010	0.100
429.800	-15.202	0.100
429.900	-10.293	0.100
430.000	-15.098	0.100
430.100	-12.103	0.100
430.200	-11.522	0.100
430.300	-10.954	0.100
430.400	-11.977	0.100
430.500	-12.060	0.100
430.600	-12.525	0.100
430.700	-14.436	0.100
430.800	-9.526	0.100
430.900	-6.671	0.100
431.000	-13.104	0.100
431.100	-11.914	0.100
431.200	-11.232	0.100
431.300	-9.185	0.100
431.400	-13.758	0.100
431.500	-6.993	0.100
431.600	-14.261	0.100
431.700	-7.566	0.100
431.800	-11.425	0.100
431.900	-14.059	0.100
432.000	-13.892	0.100
432.100	-13.311	0.100
432.200	-16.158	0.100
432.300	-9.674	0.100
432.400	-11.096	0.100
432.500	-13.420	0.100
432.600	-11.125	0.100
432.700	-11.761	0.100
432.800	-16.162	0.100
432.900	-11.766	0.100
433.000	-17.531	0.100
433.100	-10.154	0.100
433.200	-14.737	0.100
433.300	-15.335	0.100
433.400	-13.893	0.100
433.500	-12.337	0.100
433.600	-9.980	0.100
433.700	-15.737	0.100
433.800	-11.475	0.100
433.900	-11.050	0.100
434.000	-17.349	0.100
434.100	-16.682	0.100
434.200	-16.266	0.100
434.300	-17.533	0.100
434.400	-15.497	0.100
434.500	-12.295	0.100
434.600	-11.604	0.100
434.700	-14.741	0.100
434.800	-14.015	0.100
434.900	-11.471	0.100
435.000	-13.145	0.100
435.100	-14.486	0.100
435.200	-12.614	0.100
435.300	-3.283	0.100
435.400	-8.506	0.100
435.500	-11.374	0.100
435.600	-21.154	0.100
435.700	-14.153	0.100
435.800	-15.630	0.100
435.900	-13.316	0.100
436.000	-10.190	0.100
436.100	-10.997	0.100
436.200	-10.526	0.100
436.300	-9.679	0.100
436.400	-7.808	0.100
436.500	-15.656	0.100
436.600	-12.584	0.100
436.700	-15.047	0.100
436.800	-16.890	0.100
436.900	-10.826	0.100
437.000	-16.325	0.100
437.100	-16.040	0.100
437.200	-11.682	0.100
437.300	-15.130	0.100
437.400	-16.377	0.100
437.500	-16.127	0.100
437.600	-15.117	0.100
437.700	-13.115	0.100
437.800	-14.293	0.100
437.900	-17.979	0.100
438.000	-12.488	0.100
438.100	-13.608	0.100
438.200	-12.502	0.100
438.300	-16.912	0.100
438.400	-13.501	0.100
438.500	-15.662	0.100
438.600	-16.747	0.100
438.700	-12.832	0.100
438.800	-15.834	0.100
438.900	-16.511	0.100
439.000	-14.124	0.100
439.100	-15.405	0.100
439.200	-15.834	0.100
439.300	-13.668	0.100
439.400	-16.288	0.100
439.500	-12.669	0.100
439.600	-16.519	0.100
439.700	-12.481	0.100
439.800	-15.559	0.100
439.900	-14.352	0.100
440.000	-15.837	0.100
440.100	-14.548	0.100
440.200	-11.877	0.100
440.300	-13.609	0.100
440.400	-13.902	0.100
440.500	-17.379	0.100
440.600	-12.400	0.100
440.700	-11.592	0.100
440.800	-8.879	0.100
440.900	-14.061	0.100
441.000	-15.861	0.100
441.100	-16.268	0.100
441.200	-15.127	0.100
441.300	-9.044	0.100
441.400	-9.600	0.100
441.500	-13.575	0.100
441.600	-12.580	0.100
441.700	-15.046	0.100
441.800	-19.535	0.100
441.900	-20.040	0.100
442.000	-14.350	0.100
442.100	-13.233	0.100
442.200	-15.333	0.100
442.300	-13.739	0.100
442.400	-14.965	0.100
442.500	-13.464	0.100
442.600	-10.352	0.100
442.700	-13.086	0.100
442.800	-15.794	0.100
442.900	-18.711	0.100
443.000	-15.232	0.100
443.100	-12.425	0.100
443.200	-8.096	0.100
443.300	-7.445	0.100
443.400	-12.813	0.100
443.500	-20.660	0.100
443.600	-14.673	0.100
443.700	-15.746	0.100
443.800	-13.433	0.100
443.900	-10.678	0.100
444.000	-17.809	0.100
444.100	-19.783	0.100
444.200	-22.358	0.100
444.300	-12.537	0.100
444.400	-10.293	0.100
444.500	-12.644	0.100
444.600	-17.806	0.100
444.700	-15.843	0.100
444.800	-15.533	0.100
444.900	-14.543	0.100
445.000	-16.520	0.100
445.100	-16.583	0.100
445.200	-13.324	0.100
445.300	-9.270	0.100
445.400	-17.990	0.100
445.500	-14.856	0.100
445.600	-13.413	0.100
445.700	-12.881	0.100
445.800	-18.623	0.100
445.900	-13.859	0.100
446.000	-16.363	0.100
446.100	-17.990	0.100
446.200	-13.882	0.100
446.300	-16.131	0.100
446.400	-17.728	0.100
446.500	-15.653	0.100
446.600	-15.580	0.100
446.700	-17.977	0.100
446.800	-10.337	0.100
446.900	-16.275	0.100
447.000	-15.691	0.100
447.100	-13.039	0.100
447.200	-14.501	0.100
447.300	-15.441	0.100
447.400	-15.591	0.100
447.500	-14.869	0.100
447.600	-17.580	0.100
447.700	-8.204	0.100
447.800	-14.730	0.100
447.900	-16.177	0.100
448.000	-10.651	0.100
448.100	-12.695	0.100
448.200	-10.054	0.100
448.300	-12.018	0.100
448.400	-14.745	0.100
448.500	-13.021	0.100
448.600	-13.121	0.100
448.700	-14.007	0.100
448.800	-12.480	0.100
448.900	-13.638	0.100
449.000	-15.857	0.100
449.100	-23.261	0.100
449.200	-15.040	0.100
449.300	-12.406	0.100
449.400	-15.178	0.100
449.500	-14.484	0.100
449.600	-17.865	0.100
449.700	-13.675	0.100
449.800	-10.256	0.100
449.900	-10.276	0.100
450.000	-14.850	0.100
450.100	-17.026	0.100
450.200	-12.932	0.100
450.300	-23.184	0.100
450.400	-20.540	0.100
450.500	-15.569	0.100
450.600	-13.468	0.100
450.700	-13.090	0.100
450.800	-9.474	0.100
450.900	-10.458	0.100
451.000	-11.323	0.100
451.100	-13.454	0.100
451.200	-16.521	0.100
451.300	-11.541	0.100
451.400	-14.687	0.100
451.500	-19.574	0.100
451.600	-16.611	0.100
451.700	-11.879	0.100
451.800	-12.154	0.100
451.900	-12.803	0.100
452.000	-11.588	0.100
452.100	-8.021	0.100
452.200	-11.265	0.100
452.300	-11.405	0.100
452.400	-17.001	0.100
452.500	-14.669	0.100
452.600	-16.213	0.100
452.700	-9.750	0.100
452.800	-9.695	0.100
452.900	-11.915	0.100
453.000	-15.690	0.100
453.100	-17.290	0.100
453.200	-15.277	0.100
453.300	-9.930	0.100
453.400	-11.989	0.100
453.500	-14.746	0.100
453.600	-17.596	0.100
453.700	-16.475	0.100
453.800	-14.534	0.100
453.900	-11.978	0.100
454.000	-10.088	0.100
454.100	-15.403	0.100
454.200	-20.285	0.100
454.300	-9.931	0.100
454.400	-10.254	0.100
454.500	-12.237	0.100
454.600	-11.701	0.100
454.700	-12.438	0.100
454.800	-15.148	0.100
454.900	-11.668	0.100
455.000	-13.356	0.100
455.100	-18.536	0.100
455.200	-17.505	0.100
455.300	-13.074	0.100
455.400	-17.317	0.100
455.500	-13.704	0.100
455.600	-8.903	0.100
455.700	-17.862	0.100
455.800	-12.748	0.100
455.900	-8.773	0.100
456.000	-11.360	0.100
456.100	-16.813	0.100
456.200	-11.501	0.100
456.300	-17.175	0.100
456.400	-18.469	0.100
456.500	-12.745	0.100
456.600	-13.870	0.100
456.700	-6.572	0.100
456.800	-16.883	0.100
456.900	-15.547	0.100
457.000	-8.404	0.100
457.100	-12.234	0.100
457.200	-11.760	0.100
457.300	-15.146	0.100
457.400	-14.211	0.100
457.500	-13.076	0.100
457.600	-14.949	0.100
457.700	-15.417	0.100
457.800	-13.518	0.100
457.900	-9.855	0.100
458.000	-16.322	0.100
458.100	-18.164	0.100
458.200	-17.044	0.100
458.300	-13.790	0.100
458.400	-16.184	0.100
458.500	-13.264	0.100
458.600	-11.147	0.100
458.700	-14.745	0.100
458.800	-15.495	0.100
458.900	-12.989	0.100
459.000	-16.068	0.100
459.100	-14.261	0.100
459.200	-10.628	0.100
459.300	-14.102	0.100
459.400	-19.921	0.100
459.500	-19.070	0.100
459.600	-11.397	0.100
459.700	-10.624	0.100
459.800	-13.860	0.100
459.900	-12.213	0.100
460.000	-8.934	0.100
460.100	-15.506	0.100
460.200	-19.401	0.100
460.300	-16.702	0.100
460.400	-12.158	0.100
460.500	-19.892	0.100
460.600	-14.057	0.100
460.700	-10.220	0.100
460.800	-12.736	0.100
460.900	-13.511	0.100
461.000	-19.444	0.100
461.100	-15.926	0.100
461.200	-12.030	0.100
461.300	-12.861	0.100
461.400	-14.144	0.100
461.500	-17.821	0.100
461.600	-8.330	0.100
461.700	-6.249	0.100
461.800	-9.702	0.100
461.900	-12.224	0.100
462.000	-16.181	0.100
462.100	-13.879	0.100
462.200	-17.287	0.100
462.300	-15.593	0.100
462.400	-12.582	0.100
462.500	-13.270	0.100
462.600	-12.678	0.100
462.700	-15.075	0.100
462.800	-14.535	0.100
462.900	-17.948	0.100
463.000	-20.778	0.100
463.100	-15.498	0.100
463.200	-15.465	0.100
463.300	-16.838	0.100
463.400	-13.678	0.100
463.500	-10.362	0.100
463.600	-6.974	0.100
463.700	-12.118	0.100
463.800	-13.816	0.100
463.900	-15.129	0.100
464.000	-15.191	0.100
464.100	-11.753	0.100
464.200	-11.161	0.100
464.300	-15.269	0.100
464.400	-13.513	0.100
464.500	-11.161	0.100
464.600	-10.821	0.100
464.700	-11.762	0.100
464.800	-14.453	0.100
464.900	-16.210	0.100
465.000	-13.224	0.100
465.100	-15.994	0.100
465.200	-10.043	0.100
465.300	-17.928	0.100
465.400	-16.234	0.100
465.500	-16.198	0.100
465.600	-10.959	0.100
465.700	-17.276	0.100
465.800	-16.752	0.100
465.900	-5.823	0.100
466.000	-14.350	0.100
466.100	-11.424	0.100
466.200	-11.919	0.100
466.300	-14.800	0.100
466.400	-12.384	0.100
466.500	-17.456	0.100
466.600	-12.563	0.100
466.700	-9.263	0.100
466.800	-9.590	0.100
466.900	-13.095	0.100
467.000	-9.762	0.100
467.100	-14.684	0.100
467.200	-13.494	0.100
467.300	-11.134	0.100
467.400	-7.381	0.100
467.500	-13.249	0.100
467.600	-11.382	0.100
467.700	-11.657	0.100
467.800	-15.455	0.100
467.900	-16.224	0.100
468.000	-16.278	0.100
468.100	-11.742	0.100
468.200	-15.040	0.100
468.300	-9.796	0.100
468.400	-14.036	0.100
468.500	-15.088	0.100
468.600	-12.592	0.100
468.700	-16.831	0.100
468.800	-17.502	0.100
468.900	-20.891	0.100
469.000	-13.639	0.100
469.100	-12.608	0.100
469.200	-4.340	0.100
469.300	-14.504	0.100
469.400	-10.898	0.100
469.500	-13.797	0.100
469.600	-17.861	0.100
469.700	-15.215	0.100
469.800	-14.705	0.100
469.900	-5.745	0.100
470.000	-17.758	0.100
470.100	-16.750	0.100
470.200	-19.063	0.100
470.300	-7.296	0.100
470.400	-9.071	0.100
470.500	-7.478	0.100
470.600	-8.139	0.100
470.700	-11.018	0.100
470.800	-8.190	0.100
470.900	-14.394	0.100
471.000	-14.135	0.100
471.100	-15.572	0.100
471.200	-10.523	0.100
471.300	-7.802	0.100
471.400	-11.251	0.100
471.500	-15.323	0.100
471.600	-10.906	0.100
471.700	-12.104	0.100
471.800	-16.048	0.100
471.900	-11.013	0.100
472.000	-13.095	0.100
472.100	-15.008	0.100
472.200	-11.926	0.100
472.300	-18.327	0.100
472.400	-11.908	0.100
472.500	-10.254	0.100
472.600	-12.434	0.100
472.700	-9.408	0.100
472.800	-9.336	0.100
472.900	-11.769	0.100
473.000	-9.895	0.100
473.100	-12.885	0.100
473.200	-10.742	0.100
473.300	-12.209	0.100
473.400	-9.285	0.100
473.500	-14.224	0.100
473.600	-13.225	0.100
473.700	-12.410	0.100
473.800	-14.859	0.100
473.900	-11.778	0.100
474.000	-8.388	0.100
474.100	-19.140	0.100
474.200	-15.532	0.100
474.300	-18.552	0.100
474.400	-16.264	0.100
474.500	-10.134	0.100
474.600	-12.471	0.100
474.700	-13.040	0.100
474.800	-3.976	0.100
474.900	-8.637	0.100
475.000	-15.771	0.100
475.100	-21.129	0.100
475.200	-7.271	0.100
475.300	-7.820	0.100
475.400	-11.901	0.100
475.500	-14.371	0.100
475.600	-14.535	0.100
475.700	-7.490	0.100
475.800	-16.318	0.100
475.900	-13.834	0.100
476.000	-14.035	0.100
476.100	-11.182	0.100
476.200	-14.230	0.100
476.300	-9.644	0.100
476.400	-16.788	0.100
476.500	-13.746	0.100
476.600	-9.270	0.100
476.700	-11.949	0.100
476.800	-10.853	0.100
476.900	-11.083	0.100
477.000	-10.019	0.100
477.100	-11.785	0.100
477.200	-14.809	0.100
477.300	-16.602	0.100
477.400	-14.571	0.100
477.500	-11.958	0.100
477.600	-9.011	0.100
477.700	-13.882	0.100
477.800	-13.769	0.100
477.900	-10.880	0.100
478.000	-12.232	0.100
478.100	-11.733	0.100
478.200	-11.349	0.100
478.300	-14.377	0.100
478.400	-6.158	0.100
478.500	-7.374	0.100
478.600	-6.602	0.100
478.700	-9.372	0.100
478.800	-9.581	0.100
478.900	-15.588	0.100
479.000	-15.369	0.100
479.100	-16.557	0.100
479.200	-18.782	0.100
479.300	-17.878	0.100
479.400	-11.199	0.100
479.500	-15.146	0.100
479.600	-6.819	0.100
479.700	-9.637	0.100
479.800	-7.663	0.100
479.900	-12.633	0.100
480.000	-14.247	0.100
480.100	-17.250	0.100
480.200	-9.659	0.100
480.300	-7.963	0.100
480.400	-14.062	0.100
480.500	-12.614	0.100
480.600	-7.312	0.100
480.700	-10.081	0.100
480.800	-14.167	0.100
480.900	-4.927	0.100
481.000	0.476	0.100
481.100	-1.024	0.100
481.200	3.814	0.100
481.300	4.666	0.100
481.400	6.063	0.100
481.500	10.679	0.100
481.600	11.769	0.100
481.700	12.070	0.100
481.800	16.106	0.100
481.900	10.895	0.100
482.000	18.658	0.100
482.100	19.202	0.100
482.200	21.546	0.100
482.300	20.454	0.100
482.400	30.717	0.100
482.500	28.952	0.100
482.600	22.217	0.100
482.700	21.184	0.100
482.800	23.276	0.100
482.900	25.107	0.100
483.000	29.639	0.100
483.100	25.348	0.100
483.200	27.370	0.100
483.300	23.623	0.100
483.400	21.270	0.100
483.500	22.697	0.100
483.600	20.060	0.100
483.700	23.366	0.100
483.800	21.710	0.100
483.900	21.784	0.100
484.000	22.101	0.100
484.100	21.825	0.100
484.200	19.394	0.100
484.300	21.483	0.100
484.400	20.935	0.100
484.500	27.606	0.100
484.600	22.296	0.100
484.700	20.296	0.100
484.800	22.828	0.100
484.900	24.040	0.100
485.000	21.851	0.100
485.100	22.167	0.100
485.200	20.907	0.100
485.300	19.835	0.100
485.400	20.742	0.100
485.500	24.608	0.100
485.600	18.203	0.100
485.700	23.000	0.100
485.800	32.509	0.100
485.900	22.420	0.100
486.000	20.407	0.100
486.100	20.289	0.100
486.200	19.592	0.100
486.300	19.645	0.100
486.400	24.404	0.100
486.500	16.845	0.100
486.600	20.639	0.100
486.700	18.782	0.100
486.800	7.801	0.100
486.900	14.807	0.100
487.000	14.002	0.100
487.100	18.806	0.100
487.200	18.668	0.100
487.300	16.271	0.100
487.400	16.661	0.100
487.500	17.920	0.100
487.600	18.852	0.100
487.700	15.262	0.100
487.800	13.440	0.100
487.900	17.338	0.100
488.000	16.386	0.100
488.100	17.818	0.100
488.200	25.135	0.100
488.300	18.183	0.100
488.400	12.452	0.100
488.500	14.399	0.100
488.600	14.836	0.100
488.700	22.939	0.100
488.800	20.853	0.100
488.900	16.508	0.100
489.000	15.025	0.100
489.100	11.214	0.100
489.200	13.504	0.100
489.300	25.362	0.100
489.400	21.729	0.100
489.500	18.438	0.100
489.600	16.451	0.100
489.700	24.077	0.100
489.800	16.154	0.100
489.900	19.818	0.100
490.000	21.235	0.100
490.100	18.809	0.100
490.200	23.496	0.100
490.300	21.699	0.100
490.400	24.195	0.100
490.500	23.474	0.100
490.600	24.340	0.100
490.700	22.901	0.100
490.800	15.989	0.100
490.900	18.455	0.100
491.000	20.083	0.100
491.100	23.420	0.100
491.200	25.290	0.100
491.300	26.518	0.100
491.400	27.097	0.100
491.500	23.810	0.100
491.600	27.118	0.100
491.700	22.170	0.100
491.800	23.109	0.100
491.900	21.889	0.100
492.000	21.802	0.100
492.100	21.323	0.100
492.200	22.828	0.100
492.300	26.863	0.100
492.400	32.188	0.100
492.500	28.258	0.100
492.600	22.232	0.100
492.700	22.849	0.100
492.800	27.966	0.100
492.900	28.203	0.100
493.000	26.069	0.100
493.100	28.612	0.100
493.200	24.766	0.100
493.300	29.736	0.100
493.400	26.333	0.100
493.500	24.509	0.100
493.600	23.963	0.100
493.700	29.931	0.100
493.800	29.117	0.100
493.900	26.939	0.100
494.000	30.096	0.100
494.100	31.352	0.100
494.200	26.511	0.100
494.300	19.759	0.100
494.400	21.871	0.100
494.500	33.334	0.100
494.600	31.080	0.100
494.700	25.799	0.100
494.800	29.297	0.100
494.900	31.885	0.100
495.000	28.286	0.100
495.100	27.633	0.100
495.200	32.798	0.100
495.300	26.661	0.100
495.400	30.551	0.100
495.500	33.170	0.100
495.600	32.827	0.100
495.700	36.734	0.100
495.800	32.546	0.100
495.900	30.607	0.100
496.000	30.326	0.100
496.100	31.292	0.100
496.200	30.219	0.100
496.300	34.329	0.100
496.400	36.675	0.100
496.500	36.324	0.100
496.600	40.780	0.100
496.700	34.826	0.100
496.800	33.972	0.100
496.900	34.872	0.100
497.000	33.564	0.100
497.100	33.241	0.100
497.200	27.725	0.100
497.300	33.565	0.100
497.400	35.856	0.100
497.500	34.880	0.100
497.600	38.685	0.100
497.700	35.476	0.100
497.800	32.563	0.100
497.900	34.851	0.100
498.000	35.204	0.100
498.100	37.531	0.100
498.200	38.239	0.100
498.300	40.717	0.100
498.400	39.489	0.100
498.500	32.154	0.100
498.600	37.374	0.100
498.700	34.630	0.100
498.800	28.452	0.100
498.900	40.021	0.100
499.000	46.925	0.100
499.100	39.912	0.100
499.200	38.726	0.100
499.300	40.731	0.100
499.400	35.967	0.100
499.500	35.705	0.100
499.600	35.124	0.100
499.700	41.241	0.100
499.800	37.151	0.100
499.900	39.105	0.100
500.000	38.678	0.100
500.100	39.398	0.100
500.200	40.593	0.100
500.300	38.404	0.100
500.400	40.756	0.100
500.500	38.458	0.100
500.600	43.005	0.100
500.700	41.007	0.100
500.800	41.920	0.100
500.900	42.631	0.100
501.000	43.775	0.100
501.100	38.602	0.100
501.200	36.203	0.100
501.300	37.717	0.100
501.400	45.687	0.100
501.500	46.584	0.100
501.600	41.882	0.100
501.700	42.962	0.100
501.800	43.052	0.100
501.900	41.903	0.100
502.000	39.951	0.100
502.100	44.310	0.100
502.200	34.425	0.100
502.300	46.255	0.100
502.400	43.062	0.100
502.500	42.907	0.100
502.600	42.102	0.100
502.700	45.716	0.100
502.800	41.635	0.100
502.900	39.016	0.100
503.000	37.929	0.100
503.100	46.561	0.100
503.200	41.875	0.100
503.300	43.403	0.100
503.400	43.551	0.100
503.500	41.614	0.100
503.600	45.217	0.100
503.700	45.654	0.100
503.800	46.924	0.100
503.900	43.678	0.100
504.000	47.843	0.100
504.100	41.550	0.100
504.200	47.331	0.100
504.300	42.337	0.100
504.400	43.444	0.100
504.500	43.791	0.100
504.600	42.165	0.100
504.700	47.036	0.100
504.800	47.139	0.100
504.900	40.841	0.100
505.000	46.821	0.100
505.100	45.914	0.100
505.200	42.237	0.100
505.300	44.144	0.100
505.400	41.886	0.100
505.500	43.840	0.100
505.600	38.691	0.100
505.700	42.499	0.100
505.800	43.995	0.100
505.900	45.362	0.100
506.000	45.751	0.100
506.100	49.086	0.100
506.200	48.986	0.100
506.300	45.424	0.100
506.400	44.782	0.100
506.500	40.483	0.100
506.600	45.287	0.100
506.700	40.179	0.100
506.800	43.705	0.100
506.900	49.724	0.100
507.000	40.502	0.100
507.100	40.782	0.100
507.200	46.411	0.100
507.300	44.858	0.100
507.400	45.037	0.100
507.500	46.506	0.100
507.600	45.654	0.100
507.700	44.759	0.100
507.800	47.836	0.100
507.900	45.233	0.100
508.000	44.423	0.100
508.100	43.667	0.100
508.200	48.850	0.100
508.300	43.942	0.100
508.400	43.388	0.100
508.500	42.838	0.100
508.600	45.514	0.100
508.700	53.300	0.100
508.800	46.578	0.100
508.900	46.825	0.100
509.000	45.412	0.100
509.100	46.174	0.100
509.200	45.851	0.100
509.300	46.230	0.100
509.400	47.197	0.100
509.500	42.197	0.100
509.600	45.946	0.100
509.700	45.099	0.100
509.800	41.922	0.100
509.900	42.154	0.100
510.000	49.564	0.100
510.100	42.432	0.100
510.200	46.509	0.100
510.300	51.348	0.100
510.400	45.273	0.100
510.500	48.765	0.100
510.600	40.107	0.100
510.700	39.495	0.100
510.800	48.204	0.100
510.900	44.948	0.100
511.000	42.722	0.100
511.100	45.363	0.100
511.200	50.764	0.100
511.300	47.839	0.100
511.400	48.199	0.100
511.500	36.919	0.100
511.600	45.831	0.100
511.700	43.915	0.100
511.800	45.425	0.100
511.900	47.337	0.100
512.000	42.643	0.100
512.100	51.223	0.100
512.200	53.942	0.100
512.300	50.185	0.100
512.400	47.308	0.100
512.500	43.202	0.100
512.600	41.833	0.100
512.700	39.867	0.100
512.800	42.927	0.100
512.900	42.402	0.100
513.000	46.409	0.100
513.100	46.568	0.100
513.200	44.525	0.100
513.300	39.852	0.100
513.400	44.468	0.100
513.500	46.908	0.100
513.600	43.979	0.100
513.700	42.212	0.100
513.800	43.727	0.100
513.900	42.868	0.100
514.000	40.330	0.100
514.100	38.464	0.100
514.200	52.224	0.100
514.300	48.423	0.100
514.400	48.220	0.100
514.500	45.595	0.100
514.600	40.714	0.100
514.700	42.651	0.100
514.800	40.961	0.100
514.900	39.075	0.100
515.000	49.482	0.100
515.100	48.015	0.100
515.200	42.163	0.100
515.300	49.057	0.100
515.400	48.626	0.100
515.500	50.057	0.100
515.600	50.753	0.100
515.700	46.893	0.100
515.800	42.587	0.100
515.900	47.081	0.100
516.000	43.129	0.100
516.100	50.919	0.100
516.200	46.348	0.100
516.300	46.363	0.100
516.400	40.874	0.100
516.500	44.578	0.100
516.600	44.405	0.100
516.700	39.045	0.100
516.800	44.109	0.100
516.900	48.457	0.100
517.000	44.882	0.100
517.100	49.799	0.100
517.200	49.656	0.100
517.300	51.346	0.100
517.400	47.206	0.100
517.500	49.598	0.100
517.600	40.829	0.100
517.700	39.025	0.100
517.800	44.926	0.100
517.900	48.137	0.100
518.000	45.512	0.100
518.100	45.990	0.099
518.200	48.879	0.100
518.300	38.938	0.100
518.400	38.912	0.100
518.500	40.119	0.099
518.600	49.512	0.099
518.700	49.897	0.100
518.800	47.574	0.099
518.900	46.403	0.100
519.000	51.558	0.099
519.100	43.159	0.100
519.200	45.869	0.100
519.300	47.069	0.100
519.400	37.545	0.100
519.500	39.469	0.100
519.600	43.964	0.100
519.700	42.012	0.099
519.800	44.257	0.100
519.900	40.961	0.100
520.000	41.619	0.100
520.100	46.068	0.100
520.200	49.007	0.100
520.300	44.355	0.100
520.400	46.165	0.100
520.500	48.892	0.100
520.600	45.323	0.099
520.700	44.348	0.099
520.800	39.752	0.099
520.900	38.249	0.099
521.000	39.986	0.099
521.100	42.487	0.099
521.200	46.428	0.100
521.300	42.182	0.099
521.400	42.272	0.100
521.500	42.614	0.099
521.600	48.851	0.099
521.700	47.089	0.100
521.800	48.814	0.099
521.900	49.069	0.099
522.000	43.504	0.099
522.100	39.916	0.100
522.200	48.062	0.100
522.300	42.318	0.099
522.400	41.619	0.099
522.500	48.980	0.099
522.600	50.339	0.099
522.700	47.451	0.100
522.800	46.565	0.100
522.900	49.888	0.100
523.000	45.459	0.099
523.100	40.968	0.100
523.200	44.117	0.099
523.300	37.931	0.099
523.400	46.396	0.099
523.500	46.272	0.099
523.600	41.743	0.099
523.700	45.617	0.099
523.800	42.180	0.099
523.900	39.818	0.099
524.000	43.984	0.099
524.100	46.474	0.099
524.200	40.696	0.099
524.300	47.276	0.099
524.400	45.792	0.099
524.500	43.347	0.099
524.600	42.706	0.099
524.700	44.493	0.099
524.800	44.117	0.099
524.900	45.736	0.099
525.000	44.311	0.099
525.100	41.145	0.099
525.200	39.030	0.099
525.300	44.501	0.099
525.400	46.511	0.099
525.500	53.397	0.099
525.600	47.317	0.099
525.700	40.499	0.099
525.800	43.907	0.099
525.900	46.644	0.099
526.000	40.261	0.099
526.100	43.530	0.099
526.200	46.890	0.099
526.300	50.016	0.099
526.400	43.149	0.099
526.500	41.085	0.099
526.600	42.136	0.099
526.700	43.482	0.099
526.800	46.410	0.099
526.900	42.917	0.099
527.000	45.434	0.099
527.100	47.882	0.099
527.200	46.270	0.099
527.300	43.536	0.099
527.400	45.100	0.099
527.500	46.352	0.099
527.600	43.075	0.099
527.700	44.332	0.099
527.800	45.022	0.099
527.900	41.520	0.099
528.000	38.409	0.099
528.100	43.632	0.099
528.200	50.480	0.099
528.300	50.098	0.099
528.400	45.489	0.099
528.500	45.533	0.099
528.600	45.841	0.099
528.700	37.264	0.099
528.800	35.222	0.099
528.900	39.486	0.099
529.000	47.841	0.099
529.100	44.285	0.099
529.200	48.331	0.099
529.300	49.777	0.099
529.400	40.299	0.099
529.500	41.977	0.099
529.600	46.435	0.099
529.700	44.464	0.099
529.800	48.676	0.099
529.900	43.082	0.099
530.000	43.360	0.099
530.100	43.255	0.099
530.200	45.143	0.099
530.300	46.623	0.099
530.400	45.703	0.099
530.500	46.411	0.099
530.600	45.419	0.099
530.700	41.812	0.099
530.800	46.127	0.099
530.900	40.852	0.099
531.000	44.889	0.099
531.100	45.133	0.099
531.200	40.194	0.099
531.300	39.806	0.099
531.400	46.428	0.099
531.500	47.634	0.099
531.600	49.758	0.099
531.700	44.701	0.099
531.800	43.969	0.099
531.900	49.741	0.099
532.000	44.981	0.099
532.100	41.960	0.099
532.200	43.664	0.099
532.300	43.432	0.099
532.400	43.535	0.099
532.500	47.550	0.099
532.600	42.159	0.099
532.700	41.528	0.099
532.800	40.714	0.099
532.900	45.542	0.099
533.000	41.829	0.099
533.100	44.770	0.099
533.200	44.844	0.099
533.300	42.792	0.099
533.400	45.902	0.099
533.500	45.392	0.099
533.600	39.650	0.099
533.700	48.959	0.099
533.800	47.653	0.099
533.900	40.501	0.099
534.000	48.515	0.099
534.100	46.000	0.099
534.200	45.924	0.099
534.300	47.862	0.099
534.400	45.132	0.099
534.500	37.149	0.099
534.600	43.678	0.099
534.700	46.421	0.099
534.800	39.409	0.099
534.900	46.730	0.099
535.000	51.076	0.099
535.100	45.467	0.099
535.200	42.557	0.099
535.300	41.697	0.099
535.400	48.777	0.099
535.500	44.232	0.099
535.600	48.320	0.099
535.700	42.851	0.099
535.800	45.657	0.099
535.900	47.971	0.099
536.000	38.136	0.099
536.100	42.646	0.099
536.200	45.950	0.099
536.300	37.675	0.099
536.400	40.964	0.099
536.500	44.547	0.099
536.600	45.921	0.099
536.700	44.591	0.099
536.800	45.397	0.099
536.900	43.742	0.099
537.000	44.720	0.099
537.100	40.480	0.099
537.200	42.828	0.099
537.300	36.283	0.099
537.400	42.850	0.099
537.500	46.021	0.099
537.600	44.223	0.099
537.700	46.000	0.099
537.800	44.878	0.099
537.900	42.472	0.099
538.000	45.492	0.099
538.100	39.288	0.099
538.200	45.695	0.099
538.300	45.548	0.099
538.400	41.115	0.099
538.500	48.333	0.099
538.600	44.824	0.099
538.700	45.669	0.099
538.800	46.482	0.099
538.900	44.070	0.099
539.000	39.497	0.099
539.100	40.039	0.099
539.200	46.098	0.099
539.300	38.260	0.099
539.400	44.237	0.099
539.500	47.011	0.099
539.600	45.632	0.099
539.700	47.810	0.099
539.800	43.527	0.099
539.900	43.377	0.099
540.000	42.010	0.099
540.100	44.372	0.099
540.200	39.253	0.099
540.300	45.040	0.099
540.400	47.354	0.099
540.500	39.628	0.099
540.600	39.506	0.099
540.700	42.238	0.099
540.800	40.996	0.099
540.900	40.379	0.099
541.000	34.867	0.099
541.100	31.763	0.099
541.200	25.100	0.099
541.300	24.091	0.099
541.400	29.893	0.099
541.500	29.308	0.099
541.600	20.682	0.099
541.700	16.867	0.099
541.800	16.544	0.099
541.900	10.209	0.099
542.000	12.070	0.099
542.100	15.520	0.099
542.200	17.038	0.099
542.300	16.395	0.099
542.400	10.680	0.099
542.500	6.408	0.099
542.600	3.000	0.099
542.700	10.944	0.099
542.800	16.758	0.099
542.900	12.850	0.099
543.000	13.381	0.099
543.100	8.735	0.099
543.200	6.312	0.099
543.300	10.027	0.099
543.400	4.324	0.099
543.500	9.245	0.099
543.600	9.893	0.099
543.700	12.290	0.099
543.800	6.987	0.099
543.900	5.632	0.099
544.000	7.375	0.099
544.100	7.776	0.099
544.200	9.571	0.099
544.300	10.304	0.099
544.400	5.590	0.099
544.500	6.420	0.099
544.600	6.873	0.099
544.700	4.280	0.099
544.800	6.729	0.099
544.900	5.693	0.099
545.000	6.514	0.099
545.100	8.154	0.099
545.200	5.772	0.099
545.300	8.167	0.099
545.400	5.979	0.099
545.500	10.626	0.099
545.600	4.507	0.099
545.700	8.328	0.099
545.800	8.842	0.099
545.900	4.480	0.099
546.000	7.244	0.099
546.100	7.035	0.099
546.200	7.165	0.099
546.300	7.753	0.099
546.400	5.995	0.099
546.500	5.632	0.099
546.600	6.672	0.099
546.700	-1.003	0.099
546.800	-0.504	0.099
546.900	5.326	0.099
547.000	3.290	0.099
547.100	11.815	0.099
547.200	1.654	0.099
547.300	6.225	0.099
547.400	6.883	0.099
547.500	6.194	0.099
547.600	5.566	0.099
547.700	9.106	0.099
547.800	5.987	0.099
547.900	7.356	0.099
548.000	4.369	0.099
548.100	2.207	0.099
548.200	-1.927	0.099
548.300	6.442	0.099
548.400	8.099	0.099
548.500	8.105	0.099
548.600	6.955	0.099
548.700	9.988	0.099
548.800	13.070	0.099
548.900	6.843	0.099
549.000	1.425	0.099
549.100	2.157	0.099
549.200	3.176	0.099
549.300	5.263	0.099
549.400	6.096	0.099
549.500	2.575	0.099
549.600	7.704	0.099
549.700	7.610	0.099
549.800	4.634	0.099
549.900	4.540	0.099
550.000	9.037	0.099
550.100	9.230	0.099
550.200	-0.587	0.099
550.300	7.305	0.099
550.400	4.193	0.099
550.500	-0.549	0.099
550.600	1.655	0.099
550.700	5.505	0.099
550.800	4.939	0.099
550.900	6.706	0.099
551.000	7.075	0.099
551.100	2.404	0.099
551.200	6.571	0.099
551.300	7.756	0.099
551.400	0.264	0.099
551.500	4.234	0.099
551.600	8.156	0.099
551.700	3.093	0.099
551.800	-0.596	0.099
551.900	-0.077	0.099
552.000	0.821	0.099
552.100	1.095	0.099
552.200	6.876	0.099
552.300	-1.295	0.099
552.400	4.370	0.099
552.500	2.290	0.099
552.600	5.031	0.099
552.700	5.742	0.099
552.800	9.135	0.099
552.900	-5.130	0.099
553.000	2.996	0.099
553.100	0.168	0.099
553.200	5.202	0.099
553.300	5.107	0.099
553.400	1.840	0.099
553.500	1.599	0.099
553.600	-0.249	0.099
553.700	-1.000	0.099
553.800	2.888	0.099
553.900	1.796	0.099
554.000	1.518	0.099
554.100	2.283	0.099
554.200	0.617	0.099
554.300	2.456	0.099
554.400	-2.303	0.099
554.500	2.668	0.099
554.600	-1.244	0.099
554.700	-3.735	0.099
554.800	1.498	0.099
554.900	2.214	0.099
555.000	-2.167	0.099
555.100	-3.052	0.099
555.200	2.100	0.099
555.300	4.466	0.099
555.400	-7.115	0.099
555.500	-1.554	0.099
555.600	-4.604	0.099
555.700	1.098	0.099
555.800	5.723	0.099
555.900	-3.509	0.099
556.000	-0.225	0.099
556.100	2.600	0.099
556.200	1.500	0.099
556.300	0.667	0.099
556.400	2.364	0.099
556.500	-0.654	0.099
556.600	-4.113	0.099
556.700	-3.960	0.099
556.800	-2.796	0.099
556.900	-5.456	0.099
557.000	-7.489	0.099
557.100	-7.178	0.099
557.200	-0.323	0.099
557.300	-8.055	0.099
557.400	-2.619	0.099
557.500	1.767	0.099
557.600	4.274	0.099
557.700	-5.087	0.099
557.800	2.675	0.099
557.900	2.617	0.099
558.000	-0.680	0.099
558.100	-3.776	0.099
558.200	-4.084	0.099
558.300	-0.047	0.099
558.400	-0.334	0.099
558.500	-2.151	0.099
558.600	-5.616	0.099
558.700	-3.990	0.099
558.800	-4.372	0.099
558.900	-4.227	0.099
559.000	-5.959	0.099
559.100	-10.730	0.099
559.200	-8.884	0.099
559.300	-1.046	0.099
559.400	-2.209	0.099
559.500	-3.561	0.099
559.600	-1.235	0.099
559.700	-4.815	0.099
559.800	-2.699	0.099
559.900	-2.012	0.099
560.000	1.011	0.099
560.100	-3.572	0.099
560.200	-8.287	0.099
560.300	-5.426	0.099
560.400	-10.715	0.099
560.500	-5.864	0.099
560.600	-1.279	0.099
560.700	-0.753	0.099
560.800	-3.762	0.099
560.900	-0.635	0.099
561.000	-6.733	0.099
561.100	-2.308	0.099
561.200	-2.883	0.099
561.300	-4.922	0.099
561.400	-7.861	0.099
561.500	-3.494	0.099
561.600	-9.774	0.099
561.700	-5.299	0.099
561.800	-6.624	0.099
561.900	-3.071	0.099
562.000	-6.868	0.099
562.100	-4.401	0.099
562.200	-1.458	0.099
562.300	-3.574	0.099
562.400	-0.510	0.099
562.500	-9.958	0.099
562.600	-11.888	0.099
562.700	-2.506	0.099
562.800	-4.862	0.099
562.900	-4.440	0.099
563.000	-2.429	0.099
563.100	-11.616	0.099
563.200	-9.478	0.099
563.300	-6.495	0.099
563.400	-9.778	0.099
563.500	-8.403	0.099
563.600	-13.812	0.099
563.700	-5.178	0.099
563.800	-3.714	0.099
563.900	-3.966	0.099
564.000	-5.257	0.099
564.100	-6.969	0.099
564.200	-5.242	0.099
564.300	-8.490	0.099
564.400	-8.906	0.099
564.500	-8.421	0.099
564.600	-3.885	0.099
564.700	-9.338	0.099
564.800	-1.567	0.099
564.900	-1.036	0.099
565.000	-16.988	0.099
565.100	-7.617	0.099
565.200	-5.256	0.099
565.300	-5.147	0.099
565.400	-3.021	0.099
565.500	-5.358	0.099
565.600	-6.693	0.099
565.700	-8.621	0.099
565.800	-6.753	0.099
565.900	-8.078	0.099
566.000	-7.333	0.099
566.100	-2.758	0.099
566.200	-10.340	0.099
566.300	-10.501	0.099
566.400	-5.292	0.099
566.500	-6.366	0.099
566.600	-12.303	0.099
566.700	-10.275	0.099
566.800	-8.779	0.099
566.900	-12.530	0.099
567.000	-7.602	0.099
567.100	-8.838	0.099
567.200	-9.534	0.099
567.300	-13.912	0.099
567.400	-9.407	0.099
567.500	-10.093	0.099
567.600	-8.287	0.099
567.700	-9.993	0.099
567.800	-6.360	0.099
567.900	-5.863	0.099
568.000	-6.534	0.099
568.100	-6.542	0.099
568.200	-8.043	0.099
568.300	-12.223	0.099
568.400	-3.696	0.100
568.500	-5.778	0.099
568.600	-9.314	0.100
568.700	-15.282	0.100
568.800	-13.579	0.100
568.900	-11.678	0.100
569.000	-8.151	0.100
569.100	-11.534	0.100
569.200	-9.791	0.100
569.300	-5.891	0.100
569.400	-8.808	0.100
569.500	-15.175	0.100
569.600	-9.586	0.100
569.700	-5.924	0.100
569.800	-6.844	0.100
569.900	-11.294	0.100
570.000	-9.529	0.100
570.100	-15.630	0.100
570.200	-12.769	0.100
570.300	-12.125	0.100
570.400	-13.562	0.100
570.500	-9.200	0.100
570.600	-7.592	0.100
570.700	-13.201	0.100
570.800	-11.779	0.100
570.900	-8.287	0.100
571.000	-8.725	0.100
571.100	-6.333	0.100
571.200	-6.259	0.100
571.300	-9.601	0.100
571.400	-9.651	0.100
571.500	-11.697	0.100
571.600	-11.823	0.100
571.700	-9.214	0.100
571.800	-8.816	0.100
571.900	-8.476	0.100
572.000	-9.259	0.100
572.100	-8.100	0.100
572.200	-13.040	0.100
572.300	-13.473	0.100
572.400	-12.483	0.100
572.500	-14.132	0.100
572.600	-17.803	0.100
572.700	-14.929	0.100
572.800	-10.033	0.100
572.900	-12.856	0.100
573.000	-6.867	0.100
573.100	-13.306	0.100
573.200	-13.315	0.100
573.300	-11.573	0.100
573.400	-16.612	0.100
573.500	-9.805	0.100
573.600	-10.705	0.100
573.700	-14.562	0.100
573.800	-12.094	0.100
573.900	-17.497	0.100
574.000	-11.252	0.100
574.100	-14.505	0.100
574.200	-13.802	0.100
574.300	-14.560	0.100
574.400	-9.415	0.100
574.500	-8.435	0.100
574.600	-9.475	0.100
574.700	-13.951	0.100
574.800	-10.648	0.100
574.900	-20.671	0.100
575.000	-14.377	0.100
575.100	-12.338	0.100
575.200	-10.135	0.100
575.300	-10.579	0.100
575.400	-14.984	0.100
575.500	-12.145	0.100
575.600	-11.286	0.100
575.700	-8.885	0.100
575.800	-14.179	0.100
575.900	-14.323	0.100
576.000	-10.202	0.100
576.100	-14.272	0.100
576.200	-14.608	0.100
576.300	-13.790	0.100
576.400	-10.437	0.100
576.500	-16.728	0.100
576.600	-10.242	0.100
576.700	-9.892	0.100
576.800	-12.828	0.100
576.900	-8.763	0.100
577.000	-15.728	0.100
577.100	-15.619	0.100
577.200	-11.749	0.100
577.300	-15.904	0.100
577.400	-12.215	0.100
577.500	-15.529	0.100
577.600	-14.990	0.100
577.700	-14.268	0.100
577.800	-8.224	0.100
577.900	-9.950	0.100
578.000	-15.823	0.100
578.100	-17.127	0.100
578.200	-18.606	0.100
578.300	-14.828	0.100
578.400	-19.544	0.100
578.500	-18.445	0.100
578.600	-9.468	0.100
578.700	-9.644	0.100
578.800	-9.325	0.100
578.900	-10.463	0.100
579.000	-11.833	0.100
579.100	-12.369	0.100
579.200	-11.313	0.100
579.300	-14.449	0.100
579.400	-9.887	0.100
579.500	-15.208	0.100
579.600	-17.572	0.100
579.700	-18.281	0.100
579.800	-14.661	0.100
579.900	-13.548	0.100
580.000	-13.948	0.100
580.100	-15.378	0.100
580.200	-16.749	0.100
580.300	-13.842	0.100
580.400	-14.031	0.100
580.500	-11.591	0.100
580.600	-11.778	0.100
580.700	-14.490	0.100
580.800	-14.029	0.100
580.900	-10.485	0.100
581.000	-9.313	0.100
581.100	-11.267	0.100
581.200	-9.826	0.100
581.300	-10.961	0.100
581.400	-15.370	0.100
581.500	-12.521	0.100
581.600	-13.369	0.100
581.700	-15.476	0.100
581.800	-17.919	0.100
581.900	-17.627	0.100
582.000	-12.610	0.100
582.100	-13.340	0.100
582.200	-14.380	0.100
582.300	-16.436	0.100
582.400	-15.351	0.100
582.500	-21.716	0.100
582.600	-20.025	0.100
582.700	-20.059	0.100
582.800	-15.331	0.100
582.900	-10.564	0.100
583.000	-14.895	0.100
583.100	-15.970	0.100
583.200	-11.320	0.100
583.300	-10.460	0.100
583.400	-10.740	0.100
583.500	-10.818	0.100
583.600	-12.703	0.100
583.700	-15.172	0.100
583.800	-16.227	0.100
583.900	-19.197	0.100
584.000	-19.381	0.100
584.100	-18.907	0.100
584.200	-10.904	0.100
584.300	-12.827	0.100
584.400	-17.538	0.100
584.500	-14.447	0.100
584.600	-19.050	0.100
584.700	-15.967	0.100
584.800	-14.005	0.100
584.900	-15.143	0.100
585.000	-12.163	0.100
585.100	-15.394	0.100
585.200	-19.888	0.100
585.300	-18.138	0.100
585.400	-19.131	0.100
585.500	-13.601	0.100
585.600	-11.867	0.100
585.700	-15.762	0.100
585.800	-15.334	0.100
585.900	-17.754	0.100
586.000	-16.651	0.100
586.100	-20.113	0.100
586.200	-18.361	0.100
586.300	-12.898	0.100
586.400	-13.666	0.100
586.500	-20.109	0.100
586.600	-14.032	0.100
586.700	-15.450	0.100
586.800	-14.170	0.100
586.900	-20.527	0.100
587.000	-15.164	0.100
587.100	-20.334	0.100
587.200	-13.863	0.100
587.300	-18.029	0.100
587.400	-18.441	0.100
587.500	-17.207	0.100
587.600	-13.921	0.100
587.700	-13.518	0.100
587.800	-20.223	0.100
587.900	-19.373	0.100
588.000	-16.679	0.100
588.100	-8.997	0.100
588.200	-16.437	0.100
588.300	-17.059	0.100
588.400	-19.936	0.100
588.500	-19.305	0.100
588.600	-19.028	0.100
588.700	-18.769	0.100
588.800	-15.276	0.100
588.900	-23.161	0.100
589.000	-16.027	0.100
589.100	-16.104	0.100
589.200	-19.073	0.100
589.300	-17.880	0.100
589.400	-17.847	0.100
589.500	-19.157	0.100
589.600	-19.850	0.100
589.700	-15.421	0.100
589.800	-16.544	0.100
589.900	-11.245	0.100
590.000	-16.463	0.100
590.100	-14.391	0.100
590.200	-18.338	0.100
590.300	-23.541	0.100
590.400	-16.558	0.100
590.500	-13.015	0.100
590.600	-17.733	0.100
590.700	-15.879	0.100
590.800	-16.011	0.100
590.900	-21.529	0.100
591.000	-18.519	0.100
591.100	-19.829	0.100
591.200	-14.846	0.100
591.300	-13.667	0.100
591.400	-17.454	0.100
591.500	-14.436	0.100
591.600	-13.092	0.100
591.700	-13.411	0.100
591.800	-16.939	0.100
591.900	-17.101	0.100
592.000	-23.024	0.100
592.100	-17.833	0.100
592.200	-18.767	0.100
592.300	-19.797	0.100
592.400	-21.824	0.100
592.500	-14.978	0.100
592.600	-13.373	0.100
592.700	-17.680	0.100
592.800	-20.214	0.100
592.900	-11.543	0.100
593.000	-13.618	0.100
593.100	-18.597	0.100
593.200	-22.032	0.100
593.300	-19.566	0.100
593.400	-13.155	0.100
593.500	-17.352	0.100
593.600	-14.039	0.100
593.700	-17.000	0.100
593.800	-9.761	0.100
593.900	-15.067	0.100
594.000	-16.861	0.100
594.100	-20.523	0.100
594.200	-18.926	0.100
594.300	-21.235	0.100
594.400	-15.582	0.100
594.500	-18.185	0.100
594.600	-17.729	0.100
594.700	-12.738	0.100
594.800	-21.260	0.100
594.900	-19.168	0.100
595.000	-21.074	0.100
595.100	-17.234	0.100
595.200	-15.286	0.100
595.300	-19.723	0.100
595.400	-14.352	0.100
595.500	-16.795	0.100
595.600	-16.792	0.100
595.700	-17.887	0.100
595.800	-14.213	0.100
595.900	-12.854	0.100
596.000	-14.136	0.100
596.100	-12.590	0.100
596.200	-13.793	0.100
596.300	-16.467	0.100
596.400	-13.573	0.100
596.500	-21.999	0.100
596.600	-19.137	0.100
596.700	-22.350	0.100
596.800	-17.839	0.100
596.900	-16.136	0.100
597.000	-22.695	0.100
597.100	-21.244	0.100
597.200	-17.029	0.100
597.300	-14.477	0.100
597.400	-14.259	0.100
597.500	-16.973	0.100
597.600	-11.232	0.100
597.700	-16.060	0.100
597.800	-15.628	0.100
597.900	-16.117	0.100
598.000	-14.956	0.100
598.100	-14.637	0.100
598.200	-17.516	0.100
598.300	-14.622	0.100
598.400	-25.829	0.100
598.500	-20.615	0.100
598.600	-21.918	0.100
598.700	-14.430	0.100
598.800	-21.154	0.100
598.900	-13.747	0.100
599.000	-11.260	0.100
599.100	-16.446	0.100
599.200	-16.884	0.100
599.300	-15.378	0.100
599.400	-18.073	0.100
599.500	-17.119	0.100
599.600	-17.193	0.100
599.700	-17.201	0.100
599.800	-19.929	0.100
599.900	-13.443	0.100
600.000	-9.653	0.100
600.100	-22.208	0.100
600.200	-18.747	0.100
600.300	-17.560	0.100
600.400	-17.278	0.100
600.500	-12.474	0.100
600.600	-15.377	0.100
600.700	-15.023	0.100
600.800	-18.521	0.100
600.900	-18.845	0.100
601.000	-19.314	0.100
601.100	-18.377	0.100
601.200	-17.108	0.100
601.300	-18.862	0.100
601.400	-21.757	0.100
601.500	-15.039	0.100
601.600	-14.244	0.100
601.700	-14.148	0.100
601.800	-19.889	0.100
601.900	-20.877	0.100
602.000	-20.759	0.100
602.100	-15.148	0.100
602.200	-12.960	0.100
602.300	-16.658	0.100
602.400	-16.267	0.100
602.500	-14.461	0.100
602.600	-18.067	0.100
602.700	-20.032	0.100
602.800	-17.586	0.100
602.900	-21.499	0.100
603.000	-19.404	0.100
603.100	-17.968	0.100
603.200	-16.162	0.100
603.300	-16.684	0.100
603.400	-12.801	0.100
603.500	-19.654	0.100
603.600	-15.428	0.100
603.700	-16.809	0.100
603.800	-17.664	0.100
603.900	-17.523	0.100
604.000	-16.055	0.100
604.100	-15.524	0.100
604.200	-17.142	0.100
604.300	-15.384	0.100
604.400	-12.134	0.100
604.500	-13.910	0.100
604.600	-14.547	0.100
604.700	-16.877	0.100
604.800	-22.840	0.100
604.900	-18.769	0.100
605.000	-15.436	0.100
605.100	-15.272	0.100
605.200	-13.626	0.100
605.300	-11.080	0.100
605.400	-18.706	0.100
605.500	-16.179	0.100
605.600	-18.408	0.100
605.700	-16.199	0.100
605.800	-19.189	0.100
605.900	-22.628	0.100
606.000	-20.735	0.100
606.100	-21.679	0.100
606.200	-17.106	0.100
606.300	-18.555	0.100
606.400	-18.542	0.100
606.500	-20.226	0.100
606.600	-14.628	0.100
606.700	-17.754	0.100
606.800	-14.346	0.100
606.900	-16.597	0.100
607.000	-21.366	0.100
607.100	-20.410	0.100
607.200	-20.994	0.100
607.300	-17.515	0.100
607.400	-11.535	0.100
607.500	-18.513	0.100
607.600	-18.155	0.100
607.700	-13.500	0.100
607.800	-16.938	0.100
607.900	-15.404	0.100
608.000	-12.582	0.100
608.100	-14.348	0.100
608.200	-15.748	0.100
608.300	-20.671	0.100
608.400	-20.332	0.100
608.500	-18.722	0.100
608.600	-12.263	0.100
608.700	-22.326	0.100
608.800	-25.116	0.100
608.900	-17.858	0.100
609.000	-17.760	0.100
609.100	-15.473	0.100
609.200	-14.572	0.100
609.300	-13.684	0.100
609.400	-18.957	0.100
609.500	-15.448	0.100
609.600	-22.410	0.100
609.700	-17.912	0.100
609.800	-17.414	0.100
609.900	-16.379	0.100
610.000	-15.299	0.100
610.100	-18.350	0.100
610.200	-17.609	0.100
610.300	-14.795	0.100
610.400	-20.375	0.100
610.500	-12.069	0.100
610.600	-16.053	0.100
610.700	-17.418	0.100
610.800	-16.707	0.100
610.900	-17.599	0.100
611.000	-14.407	0.100
611.100	-20.053	0.100
611.200	-25.502	0.100
611.300	-16.868	0.100
611.400	-14.304	0.100
611.500	-17.159	0.100
611.600	-15.734	0.100
611.700	-17.131	0.100
611.800	-15.915	0.100
611.900	-20.102	0.100
612.000	-17.342	0.100
612.100	-17.408	0.100
612.200	-12.542	0.100
612.300	-14.852	0.100
612.400	-25.766	0.100
612.500	-21.159	0.100
612.600	-18.591	0.100
612.700	-19.671	0.100
612.800	-15.032	0.100
612.900	-21.482	0.100
613.000	-14.963	0.100
613.100	-13.919	0.100
613.200	-15.074	0.100
613.300	-18.268	0.100
613.400	-20.153	0.100
613.500	-19.445	0.100
613.600	-15.612	0.100
613.700	-17.641	0.100
613.800	-15.161	0.100
613.900	-13.227	0.100
614.000	-16.258	0.100
614.100	-8.905	0.100
614.200	-14.673	0.100
614.300	-23.640	0.100
614.400	-18.120	0.100
614.500	-17.164	0.100
614.600	-19.810	0.100
614.700	-19.435	0.100
614.800	-12.802	0.100
614.900	-11.331	0.100
615.000	-15.959	0.100
615.100	-14.808	0.100
615.200	-12.099	0.100
615.300	-14.645	0.100
615.400	-17.671	0.100
615.500	-18.343	0.100
615.600	-18.267	0.100
615.700	-14.742	0.100
615.800	-16.515	0.100
615.900	-15.948	0.100
616.000	-14.812	0.100
616.100	-18.673	0.100
616.200	-23.919	0.100
616.300	-15.613	0.100
616.400	-19.561	0.100
616.500	-18.574	0.100
616.600	-15.176	0.100
616.700	-10.783	0.100
616.800	-17.628	0.100
616.900	-14.571	0.100
617.000	-13.659	0.100
617.100	-13.153	0.100
617.200	-23.117	0.100
617.300	-11.494	0.100
617.400	-11.814	0.100
617.500	-12.188	0.100
617.600	-10.868	0.100
617.700	-17.950	0.100
617.800	-21.365	0.100
617.900	-15.184	0.100
618.000	-21.134	0.100
618.100	-16.404	0.100
618.200	-15.343	0.100
618.300	-15.994	0.100
618.400	-17.997	0.100
618.500	-19.331	0.100
618.600	-21.609	0.100
618.700	-18.183	0.100
618.800	-16.449	0.100
618.900	-14.586	0.100
619.000	-19.332	0.100
619.100	-14.062	0.100
619.200	-13.735	0.100
619.300	-13.219	0.100
619.400	-14.490	0.100
619.500	-9.141	0.100
619.600	-13.750	0.100
619.700	-14.617	0.100
619.800	-12.584	0.100
619.900	-13.600	0.100
620.000	-16.519	0.100
620.100	-17.645	0.100
620.200	-17.378	0.100
620.300	-12.765	0.100
620.400	-13.271	0.100
620.500	-17.169	0.100
620.600	-14.284	0.100
620.700	-9.622	0.100
620.800	-17.445	0.100
620.900	-13.494	0.100
621.000	-17.494	0.100
621.100	-22.209	0.100
621.200	-16.047	0.100
621.300	-15.587	0.100
621.400	-16.757	0.100
621.500	-15.133	0.100
621.600	-14.837	0.100
621.700	-18.051	0.100
621.800	-13.681	0.100
621.900	-14.535	0.100
622.000	-15.426	0.100
622.100	-17.197	0.100
622.200	-16.688	0.100
622.300	-22.589	0.100
622.400	-20.031	0.100
622.500	-11.281	0.100
622.600	-12.362	0.100
622.700	-14.476	0.100
622.800	-12.139	0.100
622.900	-17.290	0.100
623.000	-15.721	0.100
623.100	-19.470	0.100
623.200	-15.580	0.100
623.300	-16.116	0.100
623.400	-16.021	0.100
623.500	-14.225	0.100
623.600	-15.250	0.100
623.700	-16.407	0.100
623.800	-18.541	0.100
623.900	-20.045	0.100
624.000	-5.226	0.100
624.100	-15.264	0.100
624.200	-16.626	0.100
624.300	-16.735	0.100
624.400	-16.911	0.100
624.500	-16.916	0.100
624.600	-18.658	0.100
624.700	-19.147	0.100
624.800	-16.898	0.100
624.900	-14.677	0.100
625.000	-14.482	0.100
625.100	-20.182	0.100
625.200	-13.093	0.100
625.300	-12.311	0.100
625.400	-21.516	0.100
625.500	-16.130	0.100
625.600	-18.015	0.100
625.700	-12.928	0.100
625.800	-13.467	0.100
625.900	-13.551	0.100
626.000	-12.946	0.100
626.100	-14.054	0.100
626.200	-18.013	0.100
626.300	-16.065	0.100
626.400	-13.211	0.100
626.500	-12.760	0.100
626.600	-17.231	0.100
626.700	-16.043	0.100
626.800	-15.464	0.100
626.900	-14.827	0.100
627.000	-17.194	0.100
627.100	-13.606	0.100
627.200	-13.711	0.100
627.300	-12.481	0.100
627.400	-15.656	0.100
627.500	-16.514	0.100
627.600	-12.807	0.100
627.700	-12.661	0.100
627.800	-13.442	0.100
627.900	-14.116	0.100
628.000	-21.875	0.100
628.100	-19.892	0.100
628.200	-13.003	0.100
628.300	-15.451	0.100
628.400	-13.993	0.100
628.500	-12.563	0.100
628.600	-13.534	0.100
628.700	-13.844	0.100
628.800	-11.783	0.100
628.900	-16.573	0.100
629.000	-14.214	0.100
629.100	-11.669	0.100
629.200	-14.078	0.100
629.300	-12.231	0.100
629.400	-8.491	0.100
629.500	-14.331	0.100
629.600	-15.831	0.100
629.700	-15.216	0.100
629.800	-12.275	0.100
629.900	-16.465	0.100
630.000	-22.204	0.100
630.100	-17.962	0.100
630.200	-11.421	0.100
630.300	-14.118	0.100
630.400	-13.906	0.100
630.500	-5.761	0.100
630.600	-9.764	0.100
630.700	-17.836	0.100
630.800	-15.374	0.100
630.900	-8.595	0.100
631.000	-0.979	0.100
631.100	-2.178	0.100
631.200	3.090	0.100
631.300	9.804	0.100
631.400	10.518	0.100
631.500	12.231	0.100
631.600	14.685	0.100
631.700	14.534	0.100
631.800	11.650	0.100
631.900	14.620	0.100
632.000	14.603	0.100
632.100	20.430	0.100
632.200	23.106	0.100
632.300	19.316	0.100
632.400	23.717	0.100
632.500	26.591	0.100
632.600	18.881	0.100
632.700	27.082	0.100
632.800	31.019	0.100
632.900	28.216	0.100
633.000	24.711	0.100
633.100	20.129	0.100
633.200	20.765	0.100
633.300	19.221	0.100
633.400	21.364	0.100
633.500	22.152	0.100
633.600	21.007	0.100
633.700	17.594	0.100
633.800	23.290	0.100
633.900	22.168	0.100
634.000	19.851	0.100
634.100	21.800	0.100
634.200	22.256	0.100
634.300	20.016	0.100
634.400	19.622	0.100
634.500	25.202	0.100
634.600	19.424	0.100
634.700	17.399	0.100
634.800	17.606	0.100
634.900	19.437	0.100
635.000	17.337	0.100
635.100	19.759	0.100
635.200	21.542	0.100
635.300	15.697	0.100
635.400	17.970	0.100
635.500	19.476	0.100
635.600	16.735	0.100
635.700	20.965	0.100
635.800	16.968	0.100
635.900	12.073	0.100
636.000	13.803	0.100
636.100	17.510	0.100
636.200	19.183	0.100
636.300	11.139	0.100
636.400	20.237	0.100
636.500	11.743	0.100
636.600	16.011	0.100
636.700	13.019	0.100
636.800	17.123	0.100
636.900	17.230	0.100
637.000	13.979	0.100
637.100	14.947	0.100
637.200	17.288	0.100
637.300	14.483	0.100
637.400	13.620	0.100
637.500	16.548	0.100
637.600	19.804	0.100
637.700	15.955	0.100
637.800	17.065	0.100
637.900	15.920	0.100
638.000	10.056	0.100
638.100	15.577	0.100
638.200	15.438	0.100
638.300	21.570	0.100
638.400	21.985	0.100
638.500	14.554	0.100
638.600	14.800	0.100
638.700	18.500	0.100
638.800	12.737	0.100
638.900	17.432	0.100
639.000	14.670	0.100
639.100	14.626	0.100
639.200	12.840	0.100
639.300	13.296	0.100
639.400	17.266	0.100
639.500	14.799	0.100
639.600	11.308	0.100
639.700	13.246	0.100
639.800	13.259	0.100
639.900	20.992	0.100
640.000	18.286	0.100
640.100	18.855	0.100
640.200	29.951	0.100
640.300	20.702	0.100
640.400	16.922	0.100
640.500	18.467	0.100
640.600	18.720	0.100
640.700	16.917	0.100
640.800	25.592	0.100
640.900	24.739	0.100
641.000	19.438	0.100
641.100	18.572	0.100
641.200	20.853	0.100
641.300	22.787	0.100
641.400	19.469	0.100
641.500	18.756	0.100
641.600	15.802	0.100
641.700	18.104	0.100
641.800	22.658	0.100
641.900	22.254	0.100
642.000	19.043	0.100
642.100	20.496	0.100
642.200	14.339	0.100
642.300	19.823	0.100
642.400	26.505	0.100
642.500	23.489	0.100
642.600	26.972	0.100
642.700	23.265	0.100
642.800	22.137	0.100
642.900	22.594	0.100
643.000	20.142	0.100
643.100	21.273	0.100
643.200	26.802	0.100
643.300	23.008	0.100
643.400	22.465	0.100
643.500	25.149	0.100
643.600	25.422	0.100
643.700	24.523	0.100
643.800	26.410	0.100
643.900	23.270	0.100
644.000	23.806	0.100
644.100	25.819	0.100
644.200	23.213	0.100
644.300	26.377	0.100
644.400	23.592	0.100
644.500	24.280	0.100
644.600	25.299	0.100
644.700	27.488	0.100
644.800	26.961	0.100
644.900	25.037	0.100
645.000	25.126	0.100
645.100	30.881	0.100
645.200	24.788	0.100
645.300	25.810	0.100
645.400	27.228	0.100
645.500	30.658	0.100
645.600	26.807	0.100
645.700	32.347	0.100
645.800	29.614	0.100
645.900	36.511	0.100
646.000	31.940	0.100
646.100	28.426	0.100
646.200	31.071	0.100
646.300	24.063	0.100
646.400	29.202	0.100
646.500	32.748	0.100
646.600	29.469	0.100
646.700	33.193	0.100
646.800	30.186	0.100
646.900	34.004	0.100
647.000	32.377	0.100
647.100	39.118	0.100
647.200	38.719	0.100
647.300	36.301	0.100
647.400	34.122	0.100
647.500	31.490	0.100
647.600	37.807	0.100
647.700	32.625	0.100
647.800	36.237	0.100
647.900	33.366	0.100
648.000	33.024	0.100
648.100	37.320	0.100
648.200	37.461	0.100
648.300	35.403	0.100
648.400	35.235	0.100
648.500	35.248	0.100
648.600	37.079	0.100
648.700	38.576	0.100
648.800	34.339	0.100
648.900	37.375	0.100
649.000	35.970	0.100
649.100	38.247	0.100
649.200	31.747	0.100
649.300	37.093	0.100
649.400	38.416	0.100
649.500	41.110	0.100
649.600	43.759	0.100
649.700	34.771	0.100
649.800	37.711	0.100
649.900	37.976	0.100
650.000	39.841	0.100
650.100	37.838	0.100
650.200	40.000	0.100
650.300	37.804	0.100
650.400	40.120	0.100
650.500	41.260	0.100
650.600	34.615	0.100
650.700	37.474	0.100
650.800	34.788	0.100
650.900	39.584	0.100
651.000	39.576	0.100
651.100	37.281	0.100
651.200	41.678	0.100
651.300	42.430	0.100
651.400	36.487	0.100
651.500	41.001	0.100
651.600	41.125	0.100
651.700	38.504	0.100
651.800	45.020	0.100
651.900	43.860	0.100
652.000	48.645	0.100
652.100	44.377	0.100
652.200	49.107	0.100
652.300	45.943	0.100
652.400	39.950	0.100
652.500	34.689	0.100
652.600	37.634	0.100
652.700	40.465	0.100
652.800	40.810	0.100
652.900	40.890	0.100
653.000	37.981	0.100
653.100	45.241	0.100
653.200	44.912	0.100
653.300	45.065	0.100
653.400	39.168	0.100
653.500	46.977	0.100
653.600	50.298	0.100
653.700	43.045	0.100
653.800	40.981	0.100
653.900	41.921	0.100
654.000	42.532	0.100
654.100	45.789	0.100
654.200	40.107	0.100
654.300	42.893	0.100
654.400	39.229	0.100
654.500	39.701	0.100
654.600	50.524	0.100
654.700	46.475	0.100
654.800	45.371	0.100
654.900	42.139	0.100
655.000	44.342	0.100
655.100	44.885	0.100
655.200	47.635	0.100
655.300	40.285	0.100
655.400	39.356	0.100
655.500	38.705	0.100
655.600	44.109	0.100
655.700	46.248	0.100
655.800	43.114	0.100
655.900	45.704	0.100
656.000	44.814	0.100
656.100	43.123	0.100
656.200	43.536	0.100
656.300	42.343	0.100
656.400	43.023	0.100
656.500	41.562	0.100
656.600	49.886	0.100
656.700	45.397	0.100
656.800	41.128	0.100
656.900	45.826	0.100
657.000	44.836	0.100
657.100	45.284	0.100
657.200	43.655	0.100
657.300	49.135	0.100
657.400	40.730	0.100
657.500	43.996	0.100
657.600	48.436	0.100
657.700	46.157	0.100
657.800	42.884	0.100
657.900	42.326	0.100
658.000	41.511	0.100
658.100	41.662	0.100
658.200	46.607	0.100
658.300	46.287	0.100
658.400	47.275	0.100
658.500	40.055	0.100
658.600	42.673	0.100
658.700	45.678	0.100
658.800	44.813	0.100
658.900	48.581	0.100
659.000	46.519	0.100
659.100	46.682	0.100
659.200	44.160	0.100
659.300	44.203	0.100
659.400	37.372	0.100
659.500	43.324	0.100
659.600	45.938	0.100
659.700	46.185	0.100
659.800	42.750	0.100
659.900	41.465	0.100
660.000	45.731	0.100
660.100	48.819	0.100
660.200	42.916	0.100
660.300	45.488	0.100
660.400	45.924	0.100
660.500	44.352	0.100
660.600	45.799	0.100
660.700	45.496	0.100
660.800	43.016	0.100
660.900	47.936	0.100
661.000	46.743	0.100
661.100	49.832	0.100
661.200	48.571	0.100
661.300	50.239	0.100
661.400	54.138	0.100
661.500	55.408	0.100
661.600	50.338	0.100
661.700	41.947	0.100
661.800	46.452	0.100
661.900	39.510	0.100
662.000	47.147	0.100
662.100	45.344	0.100
662.200	43.095	0.100
662.300	46.080	0.100
662.400	39.013	0.100
662.500	38.889	0.100
662.600	39.678	0.100
662.700	35.987	0.100
662.800	38.607	0.100
662.900	43.288	0.100
663.000	43.045	0.100
663.100	47.667	0.100
663.200	46.466	0.100
663.300	42.529	0.100
663.400	49.118	0.100
663.500	47.613	0.100
663.600	42.177	0.100
663.700	40.805	0.100
663.800	43.056	0.100
663.900	45.261	0.100
664.000	46.831	0.100
664.100	44.633	0.100
664.200	48.812	0.100
664.300	40.457	0.100
664.400	49.671	0.100
664.500	43.192	0.100
664.600	43.476	0.100
664.700	46.144	0.100
664.800	46.865	0.100
664.900	42.457	0.100
665.000	46.045	0.100
665.100	43.025	0.100
665.200	44.472	0.100
665.300	44.908	0.100
665.400	40.904	0.100
665.500	40.864	0.100
665.600	49.814	0.100
665.700	48.131	0.100
665.800	49.683	0.100
665.900	46.148	0.100
666.000	48.644	0.100
666.100	45.497	0.100
666.200	45.251	0.100
666.300	40.668	0.100
666.400	42.421	0.100
666.500	48.097	0.100
666.600	48.240	0.100
666.700	48.776	0.100
666.800	47.174	0.100
666.900	46.579	0.100
667.000	45.491	0.100
667.100	44.578	0.100
667.200	45.940	0.100
667.300	45.369	0.100
667.400	39.289	0.100
667.500	43.236	0.100
667.600	49.935	0.100
667.700	49.180	0.100
667.800	50.384	0.100
667.900	48.118	0.100
668.000	40.364	0.100
668.100	43.151	0.100
668.200	47.896	0.100
668.300	43.243	0.100
668.400	42.146	0.100
668.500	43.026	0.100
668.600	43.416	0.100
668.700	40.534	0.100
668.800	48.830	0.100
668.900	48.903	0.100
669.000	45.532	0.100
669.100	43.894	0.100
669.200	46.105	0.100
669.300	44.959	0.100
669.400	38.971	0.100
669.500	39.832	0.100
669.600	44.705	0.100
669.700	46.771	0.100
669.800	43.133	0.100
669.900	45.656	0.100
670.000	42.484	0.100
670.100	45.712	0.100
670.200	44.576	0.100
670.300	47.850	0.100
670.400	42.706	0.100
670.500	46.574	0.100
670.600	43.196	0.100
670.700	44.490	0.100
670.800	49.372	0.100
670.900	42.492	0.100
671.000	47.249	0.100
671.100	44.203	0.100
671.200	42.886	0.100
671.300	42.340	0.100
671.400	42.206	0.100
671.500	40.840	0.100
671.600	44.602	0.100
671.700	38.676	0.100
671.800	47.731	0.100
671.900	44.323	0.100
672.000	45.673	0.100
672.100	39.385	0.100
672.200	47.468	0.100
672.300	45.224	0.100
672.400	42.619	0.100
672.500	52.341	0.100
672.600	43.840	0.100
672.700	48.234	0.100
672.800	44.840	0.100
672.900	38.290	0.100
673.000	38.032	0.100
673.100	39.406	0.100
673.200	41.126	0.100
673.300	47.997	0.100
673.400	45.991	0.100
673.500	49.605	0.100
673.600	46.071	0.100
673.700	46.167	0.100
673.800	45.115	0.100
673.900	44.756	0.100
674.000	41.379	0.100
674.100	45.163	0.100
674.200	47.023	0.100
674.300	44.140	0.100
674.400	45.477	0.100
674.500	43.198	0.100
674.600	48.646	0.100
674.700	39.507	0.100
674.800	44.640	0.100
674.900	47.831	0.100
675.000	48.819	0.100
675.100	45.099	0.100
675.200	42.597	0.100
675.300	46.575	0.100
675.400	43.677	0.100
675.500	43.642	0.100
675.600	44.953	0.100
675.700	44.271	0.100
675.800	42.623	0.100
675.900	45.465	0.100
676.000	48.230	0.100
676.100	48.993	0.100
676.200	47.662	0.100
676.300	43.420	0.100
676.400	44.083	0.100
676.500	41.384	0.100
676.600	40.434	0.100
676.700	39.846	0.100
676.800	45.477	0.100
676.900	46.225	0.100
677.000	43.596	0.100
677.100	49.347	0.100
677.200	48.968	0.100
677.300	47.249	0.100
677.400	44.030	0.100
677.500	38.729	0.100
677.600	43.617	0.100
677.700	46.844	0.100
677.800	45.082	0.100
677.900	46.628	0.100
678.000	52.249	0.100
678.100	44.658	0.100
678.200	50.091	0.100
678.300	41.856	0.100
678.400	40.337	0.100
678.500	46.260	0.100
678.600	43.645	0.100
678.700	40.555	0.100
678.800	40.663	0.100
678.900	41.744	0.100
679.000	44.425	0.100
679.100	41.378	0.100
679.200	44.022	0.100
679.300	40.843	0.100
679.400	41.339	0.100
679.500	54.065	0.100
679.600	46.012	0.100
679.700	41.003	0.100
679.800	49.457	0.100
679.900	41.302	0.100
680.000	40.938	0.100
680.100	42.494	0.100
680.200	45.588	0.100
680.300	40.401	0.100
680.400	44.830	0.100
680.500	43.203	0.100
680.600	43.289	0.100
680.700	45.097	0.100
680.800	38.906	0.100
680.900	43.667	0.100
681.000	42.532	0.100
681.100	40.652	0.100
681.200	42.459	0.100
681.300	47.999	0.100
681.400	46.356	0.100
681.500	47.764	0.100
681.600	47.326	0.100
681.700	43.596	0.100
681.800	41.748	0.100
681.900	46.314	0.100
682.000	48.554	0.100
682.100	47.084	0.100
682.200	46.148	0.100
682.300	41.305	0.100
682.400	38.787	0.100
682.500	45.833	0.100
682.600	45.263	0.100
682.700	44.062	0.100
682.800	42.491	0.100
682.900	40.019	0.100
683.000	42.431	0.100
683.100	43.828	0.100
683.200	45.228	0.100
683.300	40.773	0.100
683.400	44.154	0.100
683.500	41.348	0.100
683.600	45.959	0.100
683.700	50.380	0.100
683.800	48.465	0.100
683.900	40.967	0.100
684.000	47.733	0.100
684.100	48.141	0.100
684.200	45.223	0.100
684.300	44.589	0.100
684.400	44.671	0.100
684.500	37.774	0.100
684.600	41.707	0.100
684.700	43.321	0.100
684.800	43.065	0.100
684.900	41.297	0.100
685.000	42.686	0.100
685.100	41.527	0.100
685.200	44.009	0.100
685.300	48.822	0.100
685.400	44.319	0.100
685.500	44.952	0.100
685.600	41.640	0.100
685.700	41.714	0.100
685.800	37.299	0.100
685.900	48.487	0.100
686.000	44.810	0.100
686.100	45.595	0.100
686.200	49.400	0.100
686.300	43.355	0.100
686.400	42.357	0.100
686.500	45.114	0.100
686.600	39.038	0.100
686.700	38.796	0.100
686.800	39.639	0.100
686.900	40.203	0.100
687.000	42.202	0.100
687.100	42.339	0.100
687.200	41.668	0.100
687.300	44.816	0.100
687.400	48.932	0.100
687.500	46.574	0.100
687.600	47.305	0.100
687.700	49.399	0.100
687.800	48.490	0.100
687.900	45.838	0.100
688.000	43.086	0.100
688.100	40.735	0.100
688.200	42.503	0.100
688.300	40.634	0.100
688.400	43.428	0.100
688.500	48.145	0.100
688.600	45.572	0.100
688.700	37.960	0.100
688.800	47.391	0.100
688.900	48.975	0.100
689.000	46.042	0.100
689.100	45.634	0.100
689.200	45.697	0.100
689.300	43.079	0.100
689.400	40.058	0.100
689.500	44.810	0.100
689.600	46.693	0.100
689.700	45.690	0.100
689.800	45.721	0.100
689.900	43.348	0.100
690.000	42.658	0.100
690.100	44.914	0.100
690.200	42.299	0.100
690.300	43.652	0.100
690.400	43.918	0.100
690.500	39.669	0.100
690.600	40.973	0.100
690.700	36.916	0.100
690.800	33.672	0.100
690.900	39.047	0.100
691.000	33.812	0.100
691.100	29.931	0.100
691.200	27.356	0.100
691.300	25.387	0.100
691.400	27.956	0.100
691.500	28.865	0.100
691.600	23.552	0.100
691.700	24.524	0.100
691.800	16.831	0.100
691.900	16.116	0.100
692.000	16.083	0.100
692.100	14.747	0.100
692.200	11.204	0.100
692.300	8.816	0.100
692.400	11.688	0.100
692.500	12.964	0.100
692.600	9.280	0.100
692.700	4.298	0.100
692.800	10.870	0.100
692.900	6.519	0.100
693.000	4.206	0.100
693.100	11.444	0.100
693.200	8.494	0.100
693.300	5.621	0.100
693.400	6.656	0.100
693.500	4.723	0.100
693.600	2.405	0.100
693.700	2.347	0.100
693.800	2.690	0.100
693.900	-0.025	0.100
694.000	1.252	0.100
694.100	6.785	0.100
694.200	10.653	0.100
694.300	9.515	0.100
694.400	7.881	0.100
694.500	8.331	0.100
694.600	-0.199	0.100
694.700	-1.303	0.100
694.800	7.416	0.100
694.900	7.337	0.100
695.000	2.495	0.100
695.100	1.776	0.100
695.200	3.661	0.100
695.300	1.983	0.100
695.400	4.296	0.100
695.500	5.986	0.100
695.600	0.400	0.100
695.700	-1.670	0.100
695.800	0.954	0.100
695.900	-1.731	0.100
696.000	3.018	0.100
696.100	7.045	0.100
696.200	6.421	0.100
696.300	2.957	0.100
696.400	9.359	0.100
696.500	2.467	0.100
696.600	1.920	0.100
696.700	0.432	0.100
696.800	5.335	0.100
696.900	5.310	0.100
697.000	5.814	0.100
697.100	1.272	0.100
697.200	6.062	0.100
697.300	-1.300	0.100
697.400	3.035	0.100
697.500	1.229	0.100
697.600	9.697	0.100
697.700	3.097	0.100
697.800	-0.792	0.100
697.900	2.882	0.100
698.000	4.774	0.100
698.100	2.613	0.100
698.200	3.921	0.100
698.300	8.059	0.100
698.400	-5.559	0.100
698.500	5.342	0.100
698.600	5.871	0.100
698.700	3.231	0.100
698.800	7.757	0.100
698.900	7.635	0.100
699.000	1.118	0.100
699.100	8.448	0.100
699.200	-1.670	0.100
699.300	-1.279	0.100
699.400	5.771	0.100
699.500	0.216	0.100
699.600	-3.201	0.100
699.700	1.591	0.100
699.800	6.328	0.100
699.900	8.052	0.100
700.000	4.211	0.100
700.100	1.983	0.100
700.200	-0.614	0.100
700.300	4.290	0.100
700.400	2.330	0.100
700.500	-0.084	0.100
700.600	8.013	0.100
700.700	10.949	0.100
700.800	-3.850	0.100
700.900	-0.734	0.100
701.000	-1.493	0.100
701.100	-0.635	0.100
701.200	-1.505	0.100
701.300	4.221	0.100
701.400	4.713	0.100
701.500	-0.244	0.100
701.600	-4.511	0.100
701.700	1.345	0.100
701.800	1.153	0.100
701.900	3.242	0.100
702.000	5.603	0.100
702.100	6.716	0.100
702.200	-1.259	0.100
702.300	-2.148	0.100
702.400	-6.620	0.100
702.500	2.393	0.100
702.600	0.583	0.100
702.700	0.465	0.100
702.800	-0.211	0.100
702.900	-2.700	0.100
703.000	-2.588	0.100
703.100	-4.908	0.100
703.200	-1.898	0.100
703.300	0.370	0.100
703.400	0.313	0.100
703.500	-0.571	0.100
703.600	0.545	0.100
703.700	-0.965	0.100
703.800	-4.696	0.100
703.900	1.104	0.100
704.000	-2.490	0.100
704.100	1.007	0.100
704.200	-4.014	0.100
704.300	-1.195	0.100
704.400	-2.010	0.100
704.500	-0.583	0.100
704.600	-3.163	0.100
704.700	-5.200	0.100
704.800	-5.798	0.100
704.900	-1.496	0.100
705.000	-6.459	0.100
705.100	-1.777	0.100
705.200	2.213	0.100
705.300	-1.883	0.100
705.400	0.053	0.100
705.500	-1.513	0.100
705.600	-7.278	0.100
705.700	1.632	0.100
705.800	2.080	0.100
705.900	-2.933	0.100
706.000	-2.632	0.100
706.100	0.273	0.100
706.200	-3.775	0.100
706.300	-1.265	0.100
706.400	-0.463	0.100
706.500	-5.548	0.100
706.600	-3.274	0.100
706.700	-1.496	0.100
706.800	-0.845	0.100
706.900	-2.025	0.100
707.000	-4.491	0.100
707.100	-5.566	0.100
707.200	-7.477	0.100
707.300	-4.004	0.100
707.400	-8.162	0.100
707.500	-0.895	0.100
707.600	-4.472	0.100
707.700	-6.089	0.100
707.800	-4.571	0.100
707.900	-2.043	0.100
708.000	-1.814	0.100
708.100	-0.455	0.100
708.200	2.721	0.100
708.300	-0.752	0.100
708.400	-0.918	0.100
708.500	-4.441	0.100
708.600	-5.756	0.100
708.700	-11.133	0.100
708.800	-2.946	0.100
708.900	-6.401	0.100
709.000	-4.379	0.100
709.100	-9.411	0.100
709.200	-5.055	0.100
709.300	-7.096	0.100
709.400	-3.855	0.100
709.500	-9.610	0.100
709.600	-9.638	0.100
709.700	-2.100	0.100
709.800	-6.263	0.100
709.900	-1.195	0.100
710.000	2.862	0.100
710.100	-5.008	0.100
710.200	-5.803	0.100
710.300	-7.876	0.100
710.400	-5.094	0.100
710.500	-6.140	0.100
710.600	-8.448	0.100
710.700	-6.847	0.100
710.800	-6.273	0.100
710.900	-6.038	0.100
711.000	-3.943	0.100
711.100	-7.041	0.100
711.200	-9.650	0.100
711.300	-7.594	0.100
711.400	-9.057	0.100
711.500	-5.363	0.100
711.600	-6.966	0.100
711.700	-9.582	0.100
711.800	-11.260	0.100
711.900	-4.891	0.100
712.000	-10.111	0.100
712.100	-5.571	0.100
712.200	-8.811	0.100
712.300	-7.758	0.100
712.400	-8.303	0.100
712.500	-9.536	0.100
712.600	-16.263	0.100
712.700	-15.300	0.100
712.800	-2.643	0.100
712.900	-3.295	0.100
713.000	-10.476	0.100
713.100	-8.542	0.100
713.200	-4.466	0.100
713.300	0.730	0.100
713.400	-10.683	0.100
713.500	-7.014	0.100
713.600	-11.464	0.100
713.700	-7.817	0.100
713.800	-9.649	0.100
713.900	-14.170	0.100
714.000	-13.673	0.100
714.100	-8.764	0.100
714.200	-9.720	0.100
714.300	-8.569	0.100
714.400	-11.920	0.100
714.500	-4.486	0.100
714.600	-6.296	0.100
714.700	-4.264	0.100
714.800	-7.367	0.100
714.900	-7.032	0.100
715.000	-10.581	0.100
715.100	-8.210	0.100
715.200	-3.848	0.100
715.300	-6.942	0.100
715.400	-5.655	0.100
715.500	-6.734	0.100
715.600	-14.337	0.100
715.700	-13.163	0.100
715.800	-6.214	0.100
715.900	-11.874	0.100
716.000	-6.537	0.100
716.100	-10.477	0.100
716.200	-14.025	0.100
716.300	-6.817	0.100
716.400	-7.488	0.100
716.500	-4.218	0.100
716.600	-5.005	0.100
716.700	-7.825	0.100
716.800	-12.960	0.100
716.900	-14.964	0.100
717.000	-13.401	0.100
717.100	-13.076	0.100
717.200	-10.780	0.100
717.300	-8.432	0.100
717.400	-7.839	0.100
717.500	-9.497	0.100
717.600	-11.464	0.100
717.700	-15.827	0.100
717.800	-9.712	0.100
717.900	-12.128	0.100
718.000	-10.690	0.100
718.100	-6.322	0.100
718.200	-6.714	0.100
718.300	-13.494	0.100
718.400	-11.579	0.100
718.500	-12.507	0.100
718.600	-11.734	0.100
718.700	-15.198	0.100
718.800	-14.395	0.100
718.900	-13.406	0.100
719.000	-11.496	0.100
719.100	-16.809	0.100
719.200	-12.876	0.100
719.300	-7.311	0.100
719.400	-11.359	0.100
719.500	-16.229	0.100
719.600	-9.205	0.100
719.700	-9.857	0.100
719.800	-7.874	0.100
719.900	-10.572	0.100
720.000	-11.651	0.100
720.100	-15.817	0.100
720.200	-11.649	0.100
720.300	-11.520	0.100
720.400	-13.571	0.100
720.500	-11.471	0.100
720.600	-8.620	0.100
720.700	-12.885	0.100
720.800	-10.059	0.100
720.900	-14.818	0.100
721.000	-11.807	0.100
721.100	-14.311	0.100
721.200	-13.957	0.100
721.300	-16.365	0.100
721.400	-16.082	0.100
721.500	-11.176	0.100
721.600	-11.616	0.100
721.700	-11.201	0.100
721.800	-15.714	0.100
721.900	-7.391	0.100
722.000	-9.576	0.100
722.100	-13.910	0.100
722.200	-15.974	0.100
722.300	-22.674	0.100
722.400	-12.623	0.100
722.500	-10.018	0.100
722.600	-16.866	0.100
722.700	-11.874	0.100
722.800	-20.337	0.100
722.900	-13.567	0.100
723.000	-15.044	0.100
723.100	-10.002	0.100
723.200	-9.560	0.100
723.300	-9.880	0.100
723.400	-9.891	0.100
723.500	-12.909	0.100
723.600	-17.775	0.100
723.700	-17.039	0.100
723.800	-21.332	0.100
723.900	-19.205	0.100
724.000	-18.154	0.100
724.100	-14.346	0.100
724.200	-13.639	0.100
724.300	-13.108	0.100
724.400	-18.501	0.100
724.500	-11.922	0.100
724.600	-16.148	0.100
724.700	-9.284	0.100
724.800	-12.926	0.100
724.900	-16.946	0.100
725.000	-16.705	0.100
725.100	-21.386	0.100
725.200	-18.252	0.100
725.300	-18.683	0.100
725.400	-16.750	0.100
725.500	-15.589	0.100
725.600	-13.856	0.100
725.700	-13.555	0.100
725.800	-12.878	0.100
725.900	-9.805	0.100
726.000	-12.417	0.100
726.100	-13.219	0.100
726.200	-20.888	0.100
726.300	-16.025	0.100
726.400	-20.691	0.100
726.500	-16.105	0.100
726.600	-16.087	0.100
726.700	-15.524	0.100
726.800	-16.368	0.100
726.900	-13.632	0.100
727.000	-14.776	0.100
727.100	-17.814	0.100
727.200	-15.860	0.100
727.300	-15.775	0.100
727.400	-18.037	0.100
727.500	-14.312	0.100
727.600	-12.881	0.100
727.700	-13.730	0.100
727.800	-14.325	0.100
727.900	-22.118	0.100
728.000	-16.971	0.100
728.100	-22.883	0.100
728.200	-17.903	0.100
728.300	-18.482	0.100
728.400	-12.777	0.100
728.500	-14.963	0.100
728.600	-13.652	0.100
728.700	-14.598	0.100
728.800	-16.746	0.100
728.900	-16.070	0.100
729.000	-19.304	0.100
729.100	-24.266	0.100
729.200	-15.916	0.100
729.300	-22.633	0.100
729.400	-19.620	0.100
729.500	-18.778	0.100
729.600	-16.453	0.100
729.700	-18.903	0.100
729.800	-13.807	0.100
729.900	-9.196	0.100
730.000	-17.713	0.100
730.100	-17.496	0.100
730.200	-16.275	0.100
730.300	-23.026	0.100
730.400	-19.260	0.100
730.500	-24.963	0.100
730.600	-24.351	0.100
730.700	-19.001	0.100
730.800	-14.409	0.100
730.900	-11.784	0.100
731.000	-18.405	0.100
731.100	-16.996	0.100
731.200	-20.237	0.100
731.300	-19.549	0.100
731.400	-16.551	0.100
731.500	-17.204	0.100
731.600	-18.773	0.100
731.700	-14.009	0.100
731.800	-19.226	0.100
731.900	-17.222	0.100
732.000	-16.570	0.100
732.100	-24.476	0.100
732.200	-21.152	0.100
732.300	-17.869	0.100
732.400	-18.894	0.100
732.500	-23.741	0.100
732.600	-16.771	0.100
732.700	-13.262	0.100
732.800	-14.431	0.100
732.900	-21.493	0.100
733.000	-23.979	0.100
733.100	-11.421	0.100
733.200	-23.103	0.100
733.300	-21.090	0.100
733.400	-17.514	0.100
733.500	-15.375	0.100
733.600	-16.648	0.100
733.700	-19.579	0.100
733.800	-16.315	0.100
733.900	-20.302	0.100
734.000	-23.510	0.100
734.100	-20.588	0.100
734.200	-18.355	0.100
734.300	-17.002	0.100
734.400	-23.975	0.100
734.500	-25.894	0.100
734.600	-24.484	0.100
734.700	-16.790	0.100
734.800	-15.174	0.100
734.900	-18.142	0.100
735.000	-17.334	0.100
735.100	-15.466	0.100
735.200	-17.528	0.100
735.300	-18.488	0.100
735.400	-24.310	0.100
735.500	-18.603	0.100
735.600	-11.163	0.100
735.700	-16.928	0.100
735.800	-23.850	0.100
735.900	-21.328	0.100
736.000	-16.142	0.100
736.100	-19.665	0.100
736.200	-17.902	0.100
736.300	-20.094	0.100
736.400	-21.046	0.100
736.500	-17.145	0.100
736.600	-19.030	0.100
736.700	-23.783	0.100
736.800	-24.474	0.100
736.900	-19.988	0.100
737.000	-20.138	0.100
737.100	-19.255	0.100
737.200	-19.134	0.100
737.300	-17.127	0.100
737.400	-15.948	0.100
737.500	-19.366	0.100
737.600	-22.143	0.100
737.700	-17.731	0.100
737.800	-14.926	0.100
737.900	-20.044	0.100
738.000	-23.780	0.100
738.100	-18.718	0.100
738.200	-26.988	0.100
738.300	-21.340	0.100
738.400	-17.988	0.100
738.500	-22.449	0.100
738.600	-25.086	0.100
738.700	-20.496	0.100
738.800	-21.431	0.100
738.900	-26.327	0.100
739.000	-17.103	0.100
739.100	-21.652	0.100
739.200	-21.318	0.100
739.300	-20.862	0.100
739.400	-18.564	0.100
739.500	-14.796	0.100
739.600	-22.148	0.100
739.700	-17.338	0.100
739.800	-17.273	0.100
739.900	-12.206	0.100
740.000	-22.979	0.100
740.100	-20.415	0.100
740.200	-17.684	0.100
740.300	-24.281	0.100
740.400	-20.836	0.100
740.500	-18.135	0.100
740.600	-19.570	0.100
740.700	-15.568	0.100
740.800	-17.182	0.100
740.900	-19.182	0.100
741.000	-20.635	0.100
741.100	-19.314	0.100
741.200	-17.498	0.100
741.300	-22.244	0.100
741.400	-18.633	0.100
741.500	-19.829	0.100
741.600	-22.649	0.100
741.700	-22.723	0.100
741.800	-22.352	0.100
741.900	-23.313	0.100
742.000	-19.329	0.100
742.100	-18.940	0.100
742.200	-15.153	0.100
742.300	-17.109	0.100
742.400	-20.269	0.100
742.500	-19.200	0.100
742.600	-18.927	0.100
742.700	-20.620	0.100
742.800	-19.352	0.100
742.900	-18.555	0.100
743.000	-21.737	0.100
743.100	-25.981	0.100
743.200	-20.599	0.100
743.300	-16.153	0.100
743.400	-21.943	0.100
743.500	-17.710	0.100
743.600	-18.701	0.100
743.700	-21.980	0.100
743.800	-18.514	0.100
743.900	-18.225	0.100
744.000	-19.154	0.100
744.100	-16.779	0.100
744.200	-24.170	0.100
744.300	-20.842	0.100
744.400	-23.910	0.100
744.500	-28.660	0.100
744.600	-22.504	0.100
744.700	-20.142	0.100
744.800	-20.495	0.100
744.900	-19.777	0.100
745.000	-20.110	0.100
745.100	-14.216	0.100
745.200	-19.428	0.100
745.300	-19.927	0.100
745.400	-21.095	0.100
745.500	-22.465	0.100
745.600	-20.725	0.100
745.700	-22.516	0.100
745.800	-20.563	0.100
745.900	-20.053	0.100
746.000	-22.397	0.100
746.100	-19.956	0.100
746.200	-20.998	0.100
746.300	-19.243	0.100
746.400	-19.774	0.100
746.500	-19.976	0.100
746.600	-24.888	0.100
746.700	-17.432	0.100
746.800	-17.462	0.100
746.900	-17.433	0.100
747.000	-21.892	0.100
747.100	-23.718	0.100
747.200	-21.435	0.100
747.300	-20.891	0.100
747.400	-19.795	0.100
747.500	-21.979	0.100
747.600	-22.968	0.100
747.700	-25.747	0.100
747.800	-18.762	0.100
747.900	-17.205	0.100
748.000	-15.408	0.100
748.100	-21.428	0.100
748.200	-19.333	0.100
748.300	-24.800	0.100
748.400	-20.258	0.100
748.500	-19.975	0.100
748.600	-19.866	0.100
748.700	-19.343	0.100
748.800	-24.009	0.100
748.900	-21.516	0.100
749.000	-17.131	0.100
749.100	-17.853	0.100
749.200	-17.434	0.100
749.300	-21.880	0.100
749.400	-18.769	0.100
749.500	-13.417	0.100
749.600	-18.699	0.100
749.700	-20.085	0.100
749.800	-24.742	0.100
749.900	-21.830	0.100
750.000	-21.394	0.100
750.100	-20.851	0.100
750.200	-17.820	0.100
750.300	-20.695	0.100
750.400	-21.167	0.100
750.500	-20.124	0.100
750.600	-19.580	0.100
750.700	-21.604	0.100
750.800	-27.015	0.100
750.900	-18.759	0.100
751.000	-16.211	0.100
751.100	-16.876	0.100
751.200	-17.680	0.100
751.300	-15.677	0.100
751.400	-17.366	0.100
751.500	-21.444	0.100
751.600	-22.824	0.100
751.700	-20.240	0.100
751.800	-20.991	0.100
751.900	-14.302	0.100
752.000	-15.508	0.100
752.100	-19.802	0.100
752.200	-17.757	0.100
752.300	-15.583	0.100
752.400	-15.380	0.100
752.500	-20.352	0.100
752.600	-21.978	0.100
752.700	-18.164	0.100
752.800	-19.195	0.100
752.900	-22.225	0.100
753.000	-19.568	0.100
753.100	-23.869	0.100
753.200	-16.597	0.100
753.300	-23.408	0.100
753.400	-22.528	0.100
753.500	-17.742	0.100
753.600	-22.139	0.100
753.700	-20.115	0.100
753.800	-20.261	0.100
753.900	-18.938	0.100
754.000	-21.383	0.100
754.100	-28.379	0.100
754.200	-27.367	0.100
754.300	-18.811	0.100
754.400	-20.330	0.100
754.500	-15.392	0.100
754.600	-13.877	0.100
754.700	-18.531	0.100
754.800	-15.793	0.100
754.900	-20.050	0.100
755.000	-17.591	0.100
755.100	-14.014	0.100
755.200	-17.198	0.100
755.300	-13.738	0.100
755.400	-13.292	0.100
755.500	-16.108	0.100
755.600	-17.860	0.100
755.700	-13.763	0.100
755.800	-16.389	0.100
755.900	-19.294	0.100
756.000	-23.335	0.100
756.100	-22.136	0.100
756.200	-22.639	0.100
756.300	-20.645	0.100
756.400	-23.525	0.100
756.500	-16.965	0.100
756.600	-17.847	0.100
756.700	-16.347	0.100
756.800	-18.367	0.100
756.900	-24.978	0.100
757.000	-20.943	0.100
757.100	-18.764	0.100
757.200	-21.124	0.100
757.300	-20.654	0.100
757.400	-20.790	0.100
757.500	-25.624	0.100
757.600	-16.860	0.100
757.700	-14.893	0.100
757.800	-20.809	0.100
757.900	-14.064	0.100
758.000	-17.311	0.100
758.100	-23.110	0.100
758.200	-26.586	0.100
758.300	-21.881	0.100
758.400	-26.156	0.100
758.500	-22.134	0.100
758.600	-19.707	0.100
758.700	-24.847	0.100
758.800	-21.074	0.100
758.900	-15.798	0.100
759.000	-16.850	0.100
759.100	-22.077	0.100
759.200	-24.204	0.100
759.300	-20.051	0.100
759.400	-21.020	0.100
759.500	-13.708	0.100
759.600	-16.472	0.100
759.700	-18.172	0.100
759.800	-18.217	0.100
759.900	-20.365	0.100
760.000	-18.012	0.100
760.100	-18.731	0.100
760.200	-19.109	0.100
760.300	-17.218	0.100
760.400	-22.636	0.100
760.500	-20.795	0.100
760.600	-18.498	0.100
760.700	-21.841	0.100
760.800	-20.176	0.100
760.900	-20.107	0.100
761.000	-19.154	0.100
761.100	-19.700	0.100
761.200	-14.789	0.100
761.300	-16.700	0.100
761.400	-17.805	0.100
761.500	-19.425	0.100
761.600	-17.969	0.100
761.700	-19.769	0.100
761.800	-20.952	0.100
761.900	-23.512	0.100
762.000	-20.863	0.100
762.100	-20.322	0.100
762.200	-26.761	0.100
762.300	-22.503	0.100
762.400	-16.296	0.100
762.500	-20.302	0.100
762.600	-22.282	0.100
762.700	-20.138	0.100
762.800	-13.426	0.100
762.900	-15.531	0.100
763.000	-19.982	0.100
763.100	-21.712	0.100
763.200	-20.987	0.100
763.300	-21.315	0.100
763.400	-21.348	0.100
763.500	-11.174	0.100
763.600	-17.456	0.100
763.700	-15.621	0.100
763.800	-17.124	0.100
763.900	-21.162	0.100
764.000	-23.441	0.100
764.100	-18.283	0.100
764.200	-19.411	0.100
764.300	-23.056	0.100
764.400	-18.271	0.100
764.500	-15.503	0.100
764.600	-20.088	0.100
764.700	-24.259	0.100
764.800	-26.244	0.100
764.900	-20.480	0.100
765.000	-26.904	0.100
765.100	-23.562	0.100
765.200	-23.825	0.100
765.300	-12.280	0.100
765.400	-13.093	0.100
765.500	-13.608	0.100
765.600	-22.519	0.100
765.700	-18.528	0.100
765.800	-14.352	0.100
765.900	-20.016	0.100
766.000	-20.220	0.100
766.100	-17.043	0.100
766.200	-17.835	0.100
766.300	-19.367	0.100
766.400	-17.803	0.100
766.500	-21.499	0.100
766.600	-18.395	0.100
766.700	-9.854	0.100
766.800	-18.125	0.100
766.900	-18.131	0.100
767.000	-19.143	0.100
767.100	-18.499	0.100
767.200	-17.295	0.100
767.300	-21.067	0.100
767.400	-19.980	0.100
767.500	-20.105	0.100
767.600	-23.043	0.100
767.700	-19.931	0.100
767.800	-16.745	0.100
767.900	-19.177	0.100
768.000	-23.141	0.100
768.100	-18.662	0.100
768.200	-15.522	0.100
768.300	-14.504	0.100
768.400	-15.772	0.100
768.500	-19.249	0.100
768.600	-25.788	0.100
768.700	-25.070	0.100
768.800	-22.445	0.100
768.900	-20.119	0.100
769.000	-22.463	0.100
769.100	-15.706	0.100
769.200	-15.579	0.100
769.300	-19.483	0.100
769.400	-14.471	0.100
769.500	-16.453	0.100
769.600	-16.621	0.100
769.700	-14.304	0.100
769.800	-15.367	0.100
769.900	-16.963	0.100
770.000	-12.698	0.100
770.100	-17.108	0.100
770.200	-16.157	0.100
770.300	-14.751	0.100
770.400	-19.878	0.100
770.500	-18.617	0.100
770.600	-20.679	0.100
770.700	-23.636	0.100
770.800	-18.344	0.100
770.900	-17.912	0.100
771.000	-18.036	0.100
771.100	-15.988	0.100
771.200	-21.556	0.100
771.300	-15.879	0.100
771.400	-13.006	0.100
771.500	-18.832	0.100
771.600	-19.544	0.100
771.700	-16.656	0.100
771.800	-14.049	0.100
771.900	-14.988	0.100
772.000	-17.811	0.100
772.100	-23.424	0.100
772.200	-21.451	0.100
772.300	-22.293	0.100
772.400	-15.411	0.100
772.500	-11.012	0.100
772.600	-17.888	0.100
772.700	-15.776	0.100
772.800	-17.286	0.100
772.900	-21.440	0.100
773.000	-20.026	0.100
773.100	-15.662	0.100
773.200	-22.451	0.100
773.300	-20.503	0.100
773.400	-15.919	0.100
773.500	-23.790	0.100
773.600	-17.104	0.100
773.700	-13.409	0.100
773.800	-17.230	0.100
773.900	-22.963	0.100
774.000	-19.027	0.100
774.100	-18.385	0.100
774.200	-18.268	0.100
774.300	-16.849	0.100
774.400	-18.655	0.100
774.500	-19.879	0.100
774.600	-18.229	0.100
774.700	-12.957	0.100
774.800	-21.702	0.100
774.900	-21.301	0.100
775.000	-15.177	0.100
775.100	-16.144	0.100
775.200	-18.386	0.100
775.300	-12.339	0.100
775.400	-20.496	0.100
775.500	-12.546	0.100
775.600	-20.687	0.100
775.700	-22.964	0.100
775.800	-19.078	0.100
775.900	-24.769	0.100
776.000	-19.177	0.100
776.100	-11.819	0.100
776.200	-18.123	0.100
776.300	-12.252	0.100
776.400	-17.880	0.100
776.500	-18.770	0.100
776.600	-21.306	0.100
776.700	-17.969	0.100
776.800	-15.841	0.100
776.900	-18.904	0.100
777.000	-18.859	0.100
777.100	-23.342	0.100
777.200	-16.385	0.100
777.300	-15.698	0.100
777.400	-17.682	0.100
777.500	-17.970	0.100
777.600	-13.284	0.100
777.700	-14.134	0.100
777.800	-16.115	0.100
777.900	-15.964	0.100
778.000	-15.661	0.100
778.100	-16.668	0.100
778.200	-19.279	0.100
778.300	-16.085	0.100
778.400	-18.496	0.100
778.500	-18.323	0.100
778.600	-19.555	0.100
778.700	-12.928	0.100
778.800	-13.907	0.100
778.900	-18.426	0.100
779.000	-13.797	0.100
779.100	-16.176	0.100
779.200	-16.373	0.100
779.300	-15.685	0.100
779.400	-17.693	0.100
779.500	-18.207	0.100
779.600	-21.095	0.100
779.700	-20.195	0.100
779.800	-18.456	0.100
779.900	-17.888	0.100
780.000	-23.722	0.100
780.100	-18.616	0.100
780.200	-15.638	0.100
780.300	-16.599	0.100
780.400	-20.619	0.100
780.500	-24.322	0.100
780.600	-11.571	0.100
780.700	-14.567	0.100
780.800	-13.949	0.100
780.900	-14.208	0.100
781.000	-7.193	0.100
781.100	-6.318	0.100
781.200	-3.632	0.100
781.300	-0.727	0.100
781.400	4.671	0.100
781.500	1.937	0.100
781.600	4.136	0.100
781.700	12.057	0.100
781.800	17.291	0.100
781.900	19.872	0.100
782.000	15.099	0.100
782.100	18.798	0.100
782.200	22.870	0.100
782.300	25.365	0.100
782.400	20.793	0.100
782.500	20.311	0.100
782.600	20.545	0.100
782.700	20.491	0.100
782.800	18.004	0.100
782.900	19.181	0.100
783.000	17.527	0.100
783.100	22.872	0.100
783.200	19.658	0.100
783.300	22.691	0.100
783.400	20.018	0.100
783.500	26.200	0.100
783.600	23.561	0.100
783.700	22.396	0.100
783.800	15.513	0.100
783.900	21.246	0.100
784.000	16.093	0.100
784.100	10.610	0.100
784.200	17.036	0.100
784.300	14.064	0.100
784.400	27.876	0.100
784.500	23.636	0.100
784.600	16.973	0.100
784.700	17.861	0.100
784.800	15.608	0.100
784.900	25.665	0.100
785.000	15.916	0.100
785.100	11.796	0.100
785.200	13.258	0.100
785.300	15.043	0.100
785.400	15.094	0.100
785.500	20.331	0.100
785.600	21.471	0.100
785.700	19.559	0.100
785.800	17.233	0.100
785.900	17.391	0.100
786.000	20.547	0.100
786.100	17.593	0.100
786.200	12.891	0.100
786.300	17.792	0.100
786.400	21.467	0.100
786.500	19.735	0.100
786.600	14.062	0.100
786.700	14.411	0.100
786.800	13.266	0.100
786.900	15.664	0.100
787.000	17.797	0.100
787.100	15.064	0.100
787.200	15.968	0.100
787.300	18.781	0.100
787.400	14.530	0.100
787.500	17.917	0.100
787.600	18.345	0.100
787.700	10.381	0.100
787.800	14.918	0.100
787.900	10.671	0.100
788.000	9.934	0.100
788.100	14.611	0.100
788.200	16.680	0.100
788.300	18.176	0.100
788.400	14.583	0.100
788.500	11.976	0.100
788.600	10.908	0.100
788.700	13.832	0.100
788.800	11.686	0.100
788.900	15.218	0.100
789.000	12.996	0.100
789.100	16.759	0.100
789.200	12.701	0.100
789.300	13.977	0.100
789.400	18.845	0.100
789.500	15.235	0.100
789.600	12.755	0.100
789.700	16.480	0.100
789.800	14.146	0.100
789.900	16.883	0.100
790.000	18.710	0.100
790.100	21.941	0.100
790.200	15.624	0.100
790.300	15.881	0.100
790.400	17.817	0.100
790.500	15.995	0.100
790.600	16.126	0.100
790.700	17.280	0.100
790.800	17.560	0.100
790.900	13.691	0.100
791.000	17.859	0.100
791.100	18.716	0.100
791.200	19.527	0.100
791.300	18.422	0.100
791.400	22.722	0.100
791.500	16.459	0.100
791.600	19.540	0.100
791.700	17.554	0.100
791.800	18.434	0.100
791.900	20.419	0.100
792.000	21.102	0.100
792.100	25.002	0.100
792.200	20.316	0.100
792.300	19.164	0.100
792.400	17.233	0.100
792.500	14.920	0.100
792.600	19.278	0.100
792.700	21.421	0.100
792.800	20.898	0.100
792.900	15.899	0.100
793.000	23.679	0.100
793.100	24.955	0.100
793.200	24.482	0.100
793.300	27.892	0.100
793.400	23.562	0.100
793.500	21.786	0.100
793.600	19.385	0.100
793.700	22.881	0.100
793.800	23.931	0.100
793.900	20.151	0.100
794.000	19.591	0.100
794.100	24.616	0.100
794.200	21.453	0.100
794.300	24.441	0.100
794.400	28.001	0.100
794.500	23.098	0.100
794.600	23.229	0.100
794.700	20.394	0.100
794.800	22.786	0.100
794.900	19.550	0.100
795.000	30.240	0.100
795.100	30.958	0.100
795.200	26.513	0.100
795.300	23.435	0.100
795.400	30.333	0.100
795.500	28.574	0.100
795.600	28.940	0.100
795.700	29.377	0.100
795.800	32.006	0.100
795.900	28.058	0.100
796.000	28.535	0.100
796.100	28.717	0.100
796.200	28.907	0.100
796.300	25.360	0.100
796.400	27.039	0.100
796.500	29.486	0.100
796.600	32.943	0.100
796.700	31.724	0.100
796.800	24.149	0.100
796.900	31.755	0.100
797.000	32.371	0.100
797.100	35.736	0.100
797.200	30.713	0.100
797.300	27.266	0.100
797.400	24.170	0.100
797.500	27.684	0.100
797.600	33.124	0.100
797.700	29.940	0.100
797.800	28.962	0.100
797.900	29.144	0.100
798.000	29.748	0.100
798.100	35.128	0.100
798.200	31.546	0.100
798.300	32.221	0.100
798.400	36.397	0.100
798.500	37.323	0.100
798.600	33.655	0.100
798.700	35.993	0.100
798.800	35.154	0.100
798.900	32.650	0.100
799.000	25.759	0.100
799.100	29.706	0.100
799.200	36.292	0.100
799.300	41.490	0.100
799.400	38.411	0.100
799.500	44.240	0.100
799.600	37.079	0.100
799.700	38.249	0.100
799.800	27.696	0.100
799.900	32.442	0.100
800.000	41.566	0.100
