time /s	I /nA	E /V
0.100	-8.440	0.100
0.200	9.894	0.100
0.300	6.069	0.100
0.400	-6.002	0.100
0.500	-0.235	0.100
0.600	15.252	0.100
0.700	2.277	0.100
0.800	-10.098	0.100
0.900	-3.907	0.100
1.000	-9.689	0.100
1.100	-1.871	0.100
1.200	-2.289	0.100
1.300	-5.102	0.100
1.400	1.875	0.100
1.500	17.699	0.100
1.600	-10.982	0.100
1.700	9.342	0.100
1.800	-6.899	0.100
1.900	-9.838	0.100
2.000	-4.938	0.100
2.100	0.970	0.100
2.200	15.581	0.100
2.300	-8.561	0.100
2.400	-1.405	0.100
2.500	7.740	0.100
2.600	-0.531	0.100
2.700	-0.368	0.100
2.800	-1.405	0.100
2.900	-9.179	0.100
3.000	-4.324	0.100
3.100	4.085	0.100
3.200	-0.607	0.100
3.300	21.569	0.100
3.400	-13.568	0.100
3.500	-3.722	0.100
3.600	2.157	0.100
3.700	4.246	0.100
3.800	8.997	0.100
3.900	4.255	0.100
4.000	-14.113	0.100
4.100	-4.910	0.100
4.200	18.862	0.100
4.300	-6.842	0.100
4.400	2.001	0.100
4.500	-17.293	0.100
4.600	13.061	0.100
4.700	-4.705	0.100
4.800	5.135	0.100
4.900	-4.169	0.100
5.000	0.692	0.100
5.100	-3.821	0.100
5.200	5.300	0.100
5.300	19.191	0.100
5.400	-4.712	0.100
5.500	-3.040	0.100
5.600	0.392	0.100
5.700	-11.553	0.100
5.800	-1.803	0.100
5.900	3.134	0.100
6.000	-4.081	0.100
6.100	-1.878	0.100
6.200	-14.285	0.100
6.300	-4.069	0.100
6.400	-7.351	0.100
6.500	11.242	0.100
6.600	8.814	0.100
6.700	10.192	0.100
6.800	-0.549	0.100
6.900	-10.874	0.100
7.000	4.072	0.100
7.100	2.943	0.100
7.200	-2.832	0.100
7.300	4.361	0.100
7.400	-0.967	0.100
7.500	0.027	0.100
7.600	11.953	0.100
7.700	-3.955	0.100
7.800	7.547	0.100
7.900	14.883	0.100
8.000	2.832	0.100
8.100	1.585	0.100
8.200	-4.982	0.100
8.300	2.118	0.100
8.400	-2.493	0.100
8.500	-2.784	0.100
8.600	-3.299	0.100
8.700	6.419	0.100
8.800	5.262	0.100
8.900	-0.371	0.100
9.000	-13.108	0.100
9.100	7.960	0.100
9.200	5.276	0.100
9.300	7.251	0.100
9.400	-17.107	0.100
9.500	-9.639	0.100
9.600	-0.801	0.100
9.700	-3.421	0.100
9.800	-3.434	0.100
9.900	12.688	0.100
10.000	-10.152	0.100
10.100	-10.555	0.100
10.200	-6.143	0.100
10.300	-7.502	0.100
10.400	4.731	0.100
10.500	-4.787	0.100
10.600	9.218	0.100
10.700	-14.957	0.100
10.800	6.001	0.100
10.900	14.581	0.100
11.000	-0.638	0.100
11.100	-7.749	0.100
11.200	8.354	0.100
11.300	11.942	0.100
11.400	1.821	0.100
11.500	2.883	0.100
11.600	0.071	0.100
11.700	-6.840	0.100
11.800	0.013	0.100
11.900	-7.540	0.100
12.000	7.424	0.100
12.100	-12.946	0.100
12.200	-3.499	0.100
12.300	-0.642	0.100
12.400	11.803	0.100
12.500	4.683	0.100
12.600	5.230	0.100
12.700	-4.230	0.100
12.800	13.267	0.100
12.900	17.787	0.100
13.000	-4.507	0.100
13.100	1.243	0.100
13.200	-2.655	0.100
13.300	8.825	0.100
13.400	5.198	0.100
13.500	8.909	0.100
13.600	-15.073	0.100
13.700	10.863	0.100
13.800	4.444	0.100
13.900	4.062	0.100
14.000	-1.974	0.100
14.100	12.151	0.100
14.200	-3.339	0.100
14.300	8.250	0.100
14.400	-5.749	0.100
14.500	-2.216	0.100
14.600	10.433	0.100
14.700	-14.463	0.100
14.800	8.032	0.100
14.900	15.125	0.100
15.000	-10.268	0.100
15.100	1.202	0.100
15.200	0.028	0.100
15.300	-10.276	0.100
15.400	9.479	0.100
15.500	-2.926	0.100
15.600	3.031	0.100
15.700	2.431	0.100
15.800	1.027	0.100
15.900	17.035	0.100
16.000	-7.766	0.100
16.100	18.934	0.100
16.200	15.771	0.100
16.300	-2.763	0.100
16.400	7.192	0.100
16.500	-8.031	0.100
16.600	-2.763	0.100
16.700	2.538	0.100
16.800	9.160	0.100
16.900	7.654	0.100
17.000	9.383	0.100
17.100	2.606	0.100
17.200	16.384	0.100
17.300	-4.237	0.100
17.400	1.829	0.100
17.500	-2.258	0.100
17.600	-5.360	0.100
17.700	1.517	0.100
17.800	-3.399	0.100
17.900	4.073	0.100
18.000	6.748	0.100
18.100	9.491	0.100
18.200	-9.123	0.100
18.300	-2.272	0.100
18.400	-1.622	0.100
18.500	-8.098	0.100
18.600	6.522	0.100
18.700	-5.480	0.100
18.800	-0.385	0.100
18.900	-7.659	0.100
19.000	-5.296	0.100
19.100	6.598	0.100
19.200	7.821	0.100
19.300	-3.678	0.100
19.400	-0.594	0.100
19.500	-2.621	0.100
19.600	0.127	0.100
19.700	2.110	0.100
19.800	8.154	0.100
19.900	-3.477	0.100
20.000	-2.573	0.100
20.100	-8.012	0.100
20.200	14.171	0.100
20.300	7.083	0.100
20.400	12.995	0.100
20.500	-13.064	0.100
20.600	-0.601	0.100
20.700	4.153	0.100
20.800	-3.090	0.100
20.900	-3.105	0.100
21.000	1.117	0.100
21.100	4.637	0.100
21.200	1.636	0.100
21.300	3.809	0.100
21.400	-0.800	0.100
21.500	13.324	0.100
21.600	-2.699	0.100
21.700	15.135	0.100
21.800	0.582	0.100
21.900	-6.593	0.100
22.000	-0.775	0.100
22.100	2.874	0.100
22.200	-1.532	0.100
22.300	10.988	0.100
22.400	12.610	0.100
22.500	-5.963	0.100
22.600	-17.539	0.100
22.700	16.190	0.100
22.800	0.639	0.100
22.900	5.083	0.100
23.000	-9.090	0.100
23.100	-9.528	0.100
23.200	2.449	0.100
23.300	4.354	0.100
23.400	8.492	0.100
23.500	-7.893	0.100
23.600	-2.584	0.100
23.700	6.036	0.100
23.800	-9.070	0.100
23.900	3.153	0.100
24.000	23.041	0.100
24.100	-10.582	0.100
24.200	7.973	0.100
24.300	-2.354	0.100
24.400	-10.607	0.100
24.500	0.278	0.100
24.600	-17.088	0.100
24.700	14.695	0.100
24.800	-17.494	0.100
24.900	-4.338	0.100
25.000	-7.910	0.100
25.100	-9.062	0.100
25.200	17.497	0.100
25.300	-10.934	0.100
25.400	2.526	0.100
25.500	-5.289	0.100
25.600	5.543	0.100
25.700	-14.367	0.100
25.800	-11.903	0.100
25.900	8.670	0.100
26.000	-14.780	0.100
26.100	4.216	0.100
26.200	-0.705	0.100
26.300	-4.360	0.100
26.400	-5.092	0.100
26.500	16.180	0.100
26.600	6.265	0.100
26.700	-13.363	0.100
26.800	-2.899	0.100
26.900	-8.706	0.100
27.000	4.637	0.100
27.100	-0.741	0.100
27.200	1.998	0.100
27.300	-1.416	0.100
27.400	-10.549	0.100
27.500	10.690	0.100
27.600	-10.766	0.100
27.700	2.878	0.100
27.800	1.766	0.100
27.900	-7.065	0.100
28.000	7.437	0.100
28.100	16.593	0.100
28.200	-4.047	0.100
28.300	-11.263	0.100
28.400	-3.739	0.100
28.500	-10.793	0.100
28.600	20.220	0.100
28.700	0.873	0.100
28.800	12.438	0.100
28.900	-14.332	0.100
29.000	-16.239	0.100
29.100	3.561	0.100
29.200	-2.007	0.100
29.300	4.435	0.100
29.400	-8.792	0.100
29.500	-0.714	0.100
29.600	-8.096	0.100
29.700	16.607	0.100
29.800	9.557	0.100
29.900	13.427	0.100
30.000	-0.791	0.100
30.100	-14.039	0.100
30.200	7.523	0.100
30.300	7.209	0.100
30.400	2.204	0.100
30.500	16.470	0.100
30.600	8.206	0.100
30.700	23.365	0.100
30.800	8.906	0.100
30.900	10.365	0.100
31.000	3.039	0.100
31.100	21.594	0.100
31.200	34.747	0.100
31.300	33.329	0.100
31.400	41.951	0.100
31.500	28.625	0.100
31.600	25.747	0.100
31.700	39.107	0.100
31.800	26.021	0.100
31.900	17.575	0.100
32.000	33.404	0.100
32.100	34.477	0.100
32.200	39.371	0.100
32.300	23.200	0.100
32.400	39.273	0.100
32.500	12.932	0.100
32.600	36.282	0.100
32.700	22.876	0.100
32.800	15.900	0.100
32.900	18.300	0.100
33.000	35.719	0.100
33.100	8.245	0.100
33.200	13.738	0.100
33.300	22.038	0.100
33.400	46.031	0.100
33.500	18.168	0.100
33.600	7.588	0.100
33.700	31.617	0.100
33.800	33.390	0.100
33.900	29.476	0.100
34.000	33.300	0.100
34.100	38.258	0.100
34.200	26.154	0.100
34.300	24.573	0.100
34.400	35.936	0.100
34.500	12.246	0.100
34.600	35.580	0.100
34.700	30.061	0.100
34.800	28.482	0.100
34.900	28.309	0.100
35.000	47.267	0.100
35.100	21.889	0.100
35.200	36.923	0.100
35.300	43.924	0.100
35.400	23.070	0.100
35.500	30.899	0.100
35.600	37.258	0.100
35.700	27.954	0.100
35.800	29.354	0.100
35.900	23.377	0.100
36.000	24.570	0.100
36.100	21.457	0.100
36.200	35.709	0.100
36.300	22.143	0.100
36.400	14.828	0.100
36.500	42.887	0.100
36.600	28.336	0.100
36.700	35.349	0.100
36.800	40.646	0.100
36.900	20.381	0.100
37.000	27.299	0.100
37.100	20.690	0.100
37.200	46.036	0.100
37.300	49.011	0.100
37.400	35.539	0.100
37.500	49.737	0.100
37.600	43.328	0.100
37.700	38.679	0.100
37.800	44.456	0.100
37.900	43.903	0.100
38.000	53.997	0.100
38.100	45.736	0.100
38.200	61.056	0.100
38.300	30.372	0.100
38.400	48.496	0.100
38.500	52.201	0.100
38.600	46.915	0.100
38.700	33.170	0.100
38.800	54.255	0.100
38.900	38.959	0.100
39.000	48.580	0.100
39.100	46.748	0.100
39.200	52.257	0.100
39.300	39.699	0.100
39.400	55.948	0.100
39.500	50.159	0.100
39.600	61.123	0.100
39.700	33.557	0.100
39.800	52.011	0.100
39.900	55.064	0.100
40.000	50.720	0.100
40.100	47.786	0.100
40.200	40.047	0.100
40.300	55.058	0.100
40.400	58.763	0.100
40.500	48.017	0.100
40.600	57.253	0.100
40.700	28.208	0.100
40.800	69.582	0.100
40.900	50.923	0.100
41.000	56.746	0.100
41.100	41.718	0.100
41.200	72.030	0.100
41.300	52.819	0.100
41.400	62.603	0.100
41.500	58.380	0.100
41.600	69.114	0.100
41.700	50.528	0.100
41.800	57.095	0.100
41.900	54.158	0.100
42.000	47.798	0.100
42.100	63.201	0.100
42.200	50.351	0.100
42.300	30.853	0.100
42.400	65.572	0.100
42.500	73.872	0.100
42.600	55.410	0.100
42.700	66.320	0.100
42.800	57.524	0.100
42.900	55.521	0.100
43.000	54.831	0.100
43.100	60.503	0.100
43.200	53.902	0.100
43.300	62.798	0.100
43.400	52.905	0.100
43.500	40.379	0.100
43.600	60.338	0.100
43.700	63.300	0.100
43.800	63.825	0.100
43.900	73.492	0.100
44.000	40.862	0.100
44.100	39.749	0.100
44.200	50.064	0.100
44.300	40.625	0.100
44.400	62.613	0.100
44.500	39.658	0.100
44.600	54.056	0.100
44.700	66.510	0.100
44.800	47.684	0.100
44.900	71.289	0.100
45.000	43.549	0.100
45.100	61.293	0.100
45.200	60.316	0.100
45.300	42.039	0.100
45.400	45.992	0.100
45.500	71.080	0.100
45.600	58.693	0.100
45.700	49.648	0.100
45.800	39.710	0.100
45.900	45.394	0.100
46.000	40.487	0.100
46.100	48.967	0.100
46.200	55.373	0.100
46.300	55.296	0.100
46.400	58.549	0.100
46.500	53.010	0.100
46.600	49.678	0.100
46.700	63.408	0.100
46.800	50.850	0.100
46.900	48.510	0.100
47.000	50.258	0.100
47.100	52.914	0.100
47.200	46.316	0.100
47.300	53.696	0.100
47.400	38.765	0.100
47.500	54.041	0.100
47.600	42.200	0.100
47.700	32.382	0.100
47.800	55.264	0.100
47.900	54.427	0.100
48.000	54.361	0.100
48.100	52.201	0.100
48.200	39.026	0.100
48.300	52.834	0.100
48.400	50.507	0.100
48.500	44.363	0.100
48.600	58.201	0.100
48.700	43.816	0.100
48.800	44.507	0.100
48.900	38.153	0.100
49.000	41.500	0.100
49.100	54.666	0.100
49.200	47.713	0.100
49.300	49.875	0.100
49.400	42.691	0.100
49.500	54.364	0.100
49.600	35.134	0.100
49.700	47.150	0.100
49.800	49.130	0.100
49.900	32.034	0.100
50.000	58.816	0.100
50.100	35.384	0.100
50.200	28.153	0.100
50.300	34.628	0.100
50.400	56.522	0.100
50.500	20.890	0.100
50.600	48.621	0.100
50.700	66.421	0.100
50.800	41.118	0.100
50.900	39.225	0.100
51.000	42.482	0.100
51.100	32.066	0.100
51.200	38.206	0.100
51.300	33.657	0.100
51.400	48.203	0.100
51.500	29.864	0.100
51.600	46.334	0.100
51.700	28.626	0.100
51.800	46.382	0.100
51.900	19.700	0.100
52.000	33.769	0.100
52.100	32.538	0.100
52.200	34.435	0.100
52.300	46.877	0.100
52.400	33.181	0.100
52.500	42.097	0.100
52.600	33.390	0.100
52.700	42.852	0.100
52.800	37.783	0.100
52.900	26.506	0.100
53.000	42.284	0.100
53.100	22.137	0.100
53.200	30.056	0.100
53.300	38.468	0.100
53.400	31.994	0.100
53.500	39.275	0.100
53.600	24.810	0.100
53.700	31.821	0.100
53.800	26.645	0.100
53.900	12.975	0.100
54.000	34.806	0.100
54.100	26.634	0.100
54.200	37.515	0.100
54.300	25.544	0.100
54.400	36.114	0.100
54.500	37.734	0.100
54.600	15.042	0.100
54.700	36.735	0.100
54.800	32.822	0.100
54.900	30.583	0.100
55.000	24.572	0.100
55.100	27.888	0.100
55.200	26.629	0.100
55.300	30.770	0.100
55.400	52.225	0.100
55.500	28.700	0.100
55.600	24.440	0.100
55.700	25.716	0.100
55.800	28.162	0.100
55.900	32.883	0.100
56.000	27.643	0.100
56.100	24.306	0.100
56.200	27.216	0.100
56.300	40.615	0.100
56.400	36.277	0.100
56.500	33.231	0.100
56.600	25.784	0.100
56.700	26.981	0.100
56.800	31.333	0.100
56.900	33.910	0.100
57.000	35.507	0.100
57.100	35.208	0.100
57.200	17.824	0.100
57.300	39.379	0.100
57.400	26.091	0.100
57.500	40.577	0.100
57.600	30.575	0.100
57.700	33.966	0.100
57.800	24.616	0.100
57.900	30.732	0.100
58.000	40.959	0.100
58.100	22.901	0.100
58.200	11.046	0.100
58.300	29.122	0.100
58.400	35.197	0.100
58.500	38.947	0.100
58.600	37.733	0.100
58.700	29.535	0.100
58.800	10.226	0.100
58.900	31.028	0.100
59.000	35.789	0.100
59.100	41.220	0.100
59.200	28.058	0.100
59.300	20.034	0.100
59.400	19.467	0.100
59.500	34.240	0.100
59.600	23.275	0.100
59.700	32.808	0.100
59.800	31.631	0.100
59.900	24.906	0.100
60.000	14.342	0.100
60.100	24.698	0.100
60.200	27.541	0.100
60.300	13.014	0.100
60.400	27.540	0.100
60.500	41.016	0.100
60.600	13.906	0.100
60.700	38.659	0.100
60.800	20.953	0.100
60.900	20.213	0.100
61.000	38.188	0.100
61.100	21.996	0.100
61.200	9.339	0.100
61.300	20.200	0.100
61.400	25.335	0.100
61.500	36.408	0.100
61.600	7.922	0.100
61.700	27.962	0.100
61.800	26.184	0.100
61.900	30.034	0.100
62.000	28.761	0.100
62.100	33.358	0.100
62.200	14.841	0.100
62.300	34.207	0.100
62.400	10.099	0.100
62.500	23.097	0.100
62.600	19.869	0.100
62.700	33.077	0.100
62.800	20.282	0.100
62.900	23.406	0.100
63.000	23.228	0.100
63.100	38.598	0.100
63.200	36.800	0.100
63.300	26.650	0.100
63.400	29.289	0.100
63.500	23.353	0.100
63.600	32.872	0.100
63.700	24.372	0.100
63.800	30.707	0.100
63.900	36.415	0.100
64.000	16.302	0.100
64.100	33.824	0.100
64.200	23.335	0.100
64.300	30.523	0.100
64.400	20.495	0.100
64.500	33.034	0.100
64.600	12.764	0.100
64.700	35.117	0.100
64.800	29.784	0.100
64.900	37.937	0.100
65.000	32.076	0.100
65.100	11.891	0.100
65.200	22.172	0.100
65.300	25.356	0.100
65.400	34.699	0.100
65.500	13.436	0.100
65.600	16.216	0.100
65.700	33.955	0.100
65.800	32.880	0.100
65.900	31.328	0.100
66.000	41.755	0.100
66.100	28.985	0.100
66.200	36.102	0.100
66.300	36.003	0.100
66.400	23.705	0.100
66.500	33.164	0.100
66.600	33.563	0.100
66.700	19.104	0.100
66.800	39.019	0.100
66.900	14.551	0.100
67.000	31.601	0.100
67.100	14.123	0.100
67.200	31.308	0.100
67.300	35.766	0.100
67.400	41.549	0.100
67.500	8.460	0.100
67.600	29.624	0.100
67.700	14.515	0.100
67.800	36.196	0.100
67.900	41.513	0.100
68.000	36.170	0.100
68.100	17.159	0.100
68.200	10.490	0.100
68.300	31.432	0.100
68.400	21.206	0.100
68.500	34.243	0.100
68.600	44.004	0.100
68.700	28.155	0.100
68.800	23.077	0.100
68.900	43.708	0.100
69.000	19.980	0.100
69.100	33.827	0.100
69.200	26.145	0.100
69.300	18.846	0.100
69.400	30.051	0.100
69.500	26.048	0.100
69.600	33.005	0.100
69.700	11.685	0.100
69.800	28.729	0.100
69.900	30.429	0.100
70.000	34.048	0.100
70.100	33.557	0.100
70.200	34.142	0.100
70.300	15.951	0.100
70.400	17.083	0.100
70.500	32.193	0.100
70.600	32.836	0.100
70.700	31.494	0.100
70.800	30.754	0.100
70.900	27.597	0.100
71.000	32.279	0.100
71.100	10.491	0.100
71.200	16.838	0.100
71.300	6.018	0.100
71.400	38.469	0.100
71.500	39.106	0.100
71.600	20.103	0.100
71.700	12.625	0.100
71.800	13.480	0.100
71.900	45.992	0.100
72.000	32.511	0.100
72.100	24.405	0.100
72.200	35.416	0.100
72.300	18.938	0.100
72.400	24.311	0.100
72.500	37.579	0.100
72.600	21.966	0.100
72.700	24.780	0.100
72.800	28.763	0.100
72.900	7.930	0.100
73.000	31.555	0.100
73.100	17.950	0.100
73.200	32.748	0.100
73.300	22.239	0.100
73.400	22.470	0.100
73.500	33.928	0.100
73.600	20.881	0.100
73.700	12.184	0.100
73.800	27.465	0.100
73.900	38.387	0.100
74.000	28.902	0.100
74.100	25.758	0.100
74.200	25.567	0.100
74.300	40.154	0.100
74.400	39.843	0.100
74.500	33.392	0.100
74.600	36.876	0.100
74.700	16.509	0.100
74.800	37.960	0.100
74.900	24.966	0.100
75.000	31.604	0.100
75.100	31.217	0.100
75.200	11.697	0.100
75.300	24.819	0.100
75.400	33.726	0.100
75.500	32.137	0.100
75.600	39.192	0.100
75.700	20.040	0.100
75.800	38.217	0.100
75.900	24.574	0.100
76.000	29.691	0.100
76.100	22.662	0.100
76.200	17.065	0.100
76.300	31.923	0.100
76.400	27.578	0.100
76.500	14.175	0.100
76.600	25.515	0.100
76.700	27.598	0.100
76.800	20.943	0.100
76.900	16.239	0.100
77.000	18.916	0.100
77.100	31.266	0.100
77.200	18.772	0.100
77.300	25.631	0.100
77.400	31.002	0.100
77.500	34.571	0.100
77.600	11.633	0.100
77.700	16.756	0.100
77.800	25.265	0.100
77.900	21.574	0.100
78.000	22.712	0.100
78.100	23.593	0.100
78.200	32.187	0.100
78.300	30.449	0.100
78.400	37.276	0.100
78.500	24.896	0.100
78.600	36.463	0.100
78.700	27.751	0.100
78.800	28.986	0.100
78.900	29.279	0.100
79.000	11.361	0.100
79.100	33.570	0.100
79.200	-0.393	0.100
79.300	24.001	0.100
79.400	37.724	0.100
79.500	25.228	0.100
79.600	23.065	0.100
79.700	17.086	0.100
79.800	20.086	0.100
79.900	37.811	0.100
80.000	35.082	0.100
80.100	15.460	0.100
80.200	32.702	0.100
80.300	20.243	0.100
80.400	22.141	0.100
80.500	26.578	0.100
80.600	40.949	0.100
80.700	33.997	0.100
80.800	27.882	0.100
80.900	17.908	0.100
81.000	18.309	0.100
81.100	31.181	0.100
81.200	35.685	0.100
81.300	30.361	0.100
81.400	31.826	0.100
81.500	4.878	0.100
81.600	13.067	0.100
81.700	24.576	0.100
81.800	37.551	0.100
81.900	18.852	0.100
82.000	21.735	0.100
82.100	28.271	0.100
82.200	6.396	0.100
82.300	22.582	0.100
82.400	19.329	0.100
82.500	17.098	0.100
82.600	35.142	0.100
82.700	8.791	0.100
82.800	30.837	0.100
82.900	9.052	0.100
83.000	44.672	0.100
83.100	30.539	0.100
83.200	36.228	0.100
83.300	33.823	0.100
83.400	21.557	0.100
83.500	17.432	0.100
83.600	28.669	0.100
83.700	11.958	0.100
83.800	27.859	0.100
83.900	47.204	0.100
84.000	26.114	0.100
84.100	27.739	0.100
84.200	43.406	0.100
84.300	31.416	0.100
84.400	28.133	0.100
84.500	12.481	0.100
84.600	27.014	0.100
84.700	27.616	0.100
84.800	31.005	0.100
84.900	12.185	0.100
85.000	30.846	0.100
85.100	21.824	0.100
85.200	31.521	0.100
85.300	12.095	0.100
85.400	23.047	0.100
85.500	17.242	0.100
85.600	35.583	0.100
85.700	37.177	0.100
85.800	16.068	0.100
85.900	14.728	0.100
86.000	28.043	0.100
86.100	29.711	0.100
86.200	19.809	0.100
86.300	13.855	0.100
86.400	24.664	0.100
86.500	27.510	0.100
86.600	17.287	0.100
86.700	31.919	0.100
86.800	25.726	0.100
86.900	16.091	0.100
87.000	30.273	0.100
87.100	28.011	0.100
87.200	26.127	0.100
87.300	18.085	0.100
87.400	12.532	0.100
87.500	32.769	0.100
87.600	21.395	0.100
87.700	19.250	0.100
87.800	7.530	0.100
87.900	35.165	0.100
88.000	14.039	0.100
88.100	45.310	0.100
88.200	22.468	0.100
88.300	26.725	0.100
88.400	8.561	0.100
88.500	24.111	0.100
88.600	28.411	0.100
88.700	33.376	0.100
88.800	17.894	0.100
88.900	22.057	0.100
89.000	22.664	0.100
89.100	22.499	0.100
89.200	25.992	0.100
89.300	27.606	0.100
89.400	22.718	0.100
89.500	18.734	0.100
89.600	39.982	0.100
89.700	21.065	0.100
89.800	14.532	0.100
89.900	19.828	0.100
90.000	16.375	0.100
90.100	13.324	0.100
90.200	-6.412	0.100
90.300	15.289	0.100
90.400	-6.410	0.100
90.500	-3.450	0.100
90.600	-5.690	0.100
90.700	-3.748	0.100
90.800	-21.809	0.100
90.900	-28.271	0.100
91.000	-4.516	0.100
91.100	-29.076	0.100
91.200	-40.368	0.100
91.300	-31.582	0.100
91.400	-17.216	0.100
91.500	-26.182	0.100
91.600	-31.954	0.100
91.700	-30.184	0.100
91.800	-58.694	0.100
91.900	-39.290	0.100
92.000	-50.304	0.100
92.100	-34.322	0.100
92.200	-59.672	0.100
92.300	-51.611	0.100
92.400	-33.787	0.100
92.500	-60.497	0.100
92.600	-68.966	0.100
92.700	-69.927	0.100
92.800	-47.473	0.100
92.900	-56.678	0.100
93.000	-63.629	0.100
93.100	-48.165	0.100
93.200	-43.756	0.100
93.300	-66.418	0.100
93.400	-61.603	0.100
93.500	-68.900	0.100
93.600	-54.407	0.100
93.700	-41.002	0.100
93.800	-47.870	0.100
93.900	-54.698	0.100
94.000	-65.015	0.100
94.100	-66.966	0.100
94.200	-39.883	0.100
94.300	-63.420	0.100
94.400	-46.019	0.100
94.500	-69.775	0.100
94.600	-60.333	0.100
94.700	-59.292	0.100
94.800	-59.716	0.100
94.900	-64.763	0.100
95.000	-66.626	0.100
95.100	-43.503	0.100
95.200	-82.842	0.100
95.300	-54.984	0.100
95.400	-55.973	0.100
95.500	-57.101	0.100
95.600	-51.349	0.100
95.700	-60.549	0.100
95.800	-53.033	0.100
95.900	-57.487	0.100
96.000	-30.301	0.100
96.100	-57.930	0.100
96.200	-68.162	0.100
96.300	-39.897	0.100
96.400	-57.683	0.100
96.500	-46.758	0.100
96.600	-53.980	0.100
96.700	-32.950	0.100
96.800	-54.573	0.100
96.900	-63.728	0.100
97.000	-43.940	0.100
97.100	-46.963	0.100
97.200	-45.635	0.100
97.300	-42.809	0.100
97.400	-59.416	0.100
97.500	-45.286	0.100
97.600	-52.929	0.100
97.700	-77.632	0.100
97.800	-36.103	0.100
97.900	-44.044	0.100
98.000	-56.354	0.100
98.100	-47.071	0.100
98.200	-44.024	0.100
98.300	-53.459	0.100
98.400	-46.589	0.100
98.500	-43.741	0.100
98.600	-39.949	0.100
98.700	-33.821	0.100
98.800	-39.276	0.100
98.900	-31.354	0.100
99.000	-55.319	0.100
99.100	-62.310	0.100
99.200	-37.968	0.100
99.300	-43.746	0.100
99.400	-57.803	0.100
99.500	-40.434	0.100
99.600	-39.488	0.100
99.700	-27.150	0.100
99.800	-37.634	0.100
99.900	-37.060	0.100
100.000	-27.547	0.100
100.100	-36.721	0.100
100.200	-30.341	0.100
100.300	-37.835	0.100
100.400	-31.919	0.100
100.500	-33.572	0.100
100.600	-34.092	0.100
100.700	-25.196	0.100
100.800	-38.828	0.100
100.900	-37.978	0.100
101.000	-49.914	0.100
101.100	-22.327	0.100
101.200	-37.902	0.100
101.300	-10.488	0.100
101.400	-40.687	0.100
101.500	-21.071	0.100
101.600	-47.033	0.100
101.700	-21.460	0.100
101.800	-41.970	0.100
101.900	-13.514	0.100
102.000	-31.788	0.100
102.100	-21.998	0.100
102.200	-31.077	0.100
102.300	-32.932	0.100
102.400	-33.151	0.100
102.500	-25.218	0.100
102.600	-32.398	0.100
102.700	-37.295	0.100
102.800	-39.016	0.100
102.900	-17.211	0.100
103.000	-28.173	0.100
103.100	-31.469	0.100
103.200	-45.054	0.100
103.300	-29.320	0.100
103.400	-36.884	0.100
103.500	-25.945	0.100
103.600	-31.837	0.100
103.700	-32.832	0.100
103.800	-20.874	0.100
103.900	-21.332	0.100
104.000	-23.431	0.100
104.100	-11.179	0.100
104.200	-34.214	0.100
104.300	-28.717	0.100
104.400	-30.165	0.100
104.500	-2.735	0.100
104.600	-29.196	0.100
104.700	-15.987	0.100
104.800	-23.658	0.100
104.900	-12.854	0.100
105.000	-6.506	0.100
105.100	-21.396	0.100
105.200	-28.140	0.100
105.300	-8.653	0.100
105.400	-34.120	0.100
105.500	-12.163	0.100
105.600	-20.260	0.100
105.700	-10.674	0.100
105.800	-3.140	0.100
105.900	-22.557	0.100
106.000	-17.878	0.100
106.100	-27.136	0.100
106.200	-27.918	0.100
106.300	-21.382	0.100
106.400	-45.144	0.100
106.500	-25.407	0.100
106.600	-18.706	0.100
106.700	-25.637	0.100
106.800	-18.938	0.100
106.900	-22.364	0.100
107.000	-34.216	0.100
107.100	-12.553	0.100
107.200	-12.593	0.100
107.300	-25.692	0.100
107.400	-10.512	0.100
107.500	-19.980	0.100
107.600	-17.754	0.100
107.700	-35.581	0.100
107.800	-28.466	0.100
107.900	-13.659	0.100
108.000	-9.355	0.100
108.100	-23.158	0.100
108.200	-9.517	0.100
108.300	-27.760	0.100
108.400	-21.697	0.100
108.500	-41.643	0.100
108.600	-32.373	0.100
108.700	-14.551	0.100
108.800	-11.842	0.100
108.900	-11.130	0.100
109.000	-19.421	0.100
109.100	-27.536	0.100
109.200	-11.610	0.100
109.300	-8.251	0.100
109.400	-12.454	0.100
109.500	-24.790	0.100
109.600	-10.854	0.100
109.700	-20.020	0.100
109.800	-11.984	0.100
109.900	-26.477	0.100
110.000	-21.013	0.100
110.100	-15.522	0.100
110.200	-14.547	0.100
110.300	-5.875	0.100
110.400	-16.351	0.100
110.500	-7.568	0.100
110.600	1.044	0.100
110.700	-17.386	0.100
110.800	-22.080	0.100
110.900	-27.852	0.100
111.000	-24.358	0.100
111.100	-12.742	0.100
111.200	1.543	0.100
111.300	-23.633	0.100
111.400	-20.273	0.100
111.500	-8.659	0.100
111.600	-24.193	0.100
111.700	-21.762	0.100
111.800	-34.032	0.100
111.900	-8.469	0.100
112.000	-26.520	0.100
112.100	-18.104	0.100
112.200	-3.647	0.100
112.300	-19.829	0.100
112.400	-19.315	0.100
112.500	-24.966	0.100
112.600	-30.218	0.100
112.700	-15.054	0.100
112.800	-22.807	0.100
112.900	-6.710	0.100
113.000	-13.198	0.100
113.100	-9.578	0.100
113.200	-22.116	0.100
113.300	-15.690	0.100
113.400	-22.961	0.100
113.500	-13.805	0.100
113.600	-12.782	0.100
113.700	-16.369	0.100
113.800	-22.134	0.100
113.900	-20.318	0.100
114.000	-25.352	0.100
114.100	-7.051	0.100
114.200	-26.401	0.100
114.300	-25.271	0.100
114.400	-17.804	0.100
114.500	-3.378	0.100
114.600	-25.871	0.100
114.700	-18.465	0.100
114.800	-25.476	0.100
114.900	-17.177	0.100
115.000	-24.091	0.100
115.100	-27.077	0.100
115.200	-15.959	0.100
115.300	-17.293	0.100
115.400	-15.529	0.100
115.500	-21.017	0.100
115.600	-13.443	0.100
115.700	-21.458	0.100
115.800	-15.224	0.100
115.900	-17.651	0.100
116.000	-30.520	0.100
116.100	-14.072	0.100
116.200	-16.954	0.100
116.300	-20.170	0.100
116.400	-10.029	0.100
116.500	-15.412	0.100
116.600	-3.339	0.100
116.700	-19.860	0.100
116.800	-15.766	0.100
116.900	-39.628	0.100
117.000	-17.375	0.100
117.100	-27.539	0.100
117.200	-13.596	0.100
117.300	-19.878	0.100
117.400	-12.049	0.100
117.500	-8.366	0.100
117.600	-19.704	0.100
117.700	-25.732	0.100
117.800	-20.327	0.100
117.900	-10.917	0.100
118.000	-21.776	0.100
118.100	-11.700	0.100
118.200	-20.906	0.100
118.300	-14.498	0.100
118.400	-23.565	0.100
118.500	-18.332	0.100
118.600	-10.946	0.100
118.700	-14.982	0.100
118.800	1.243	0.100
118.900	-17.412	0.100
119.000	-22.006	0.100
119.100	-26.064	0.100
119.200	-3.172	0.100
119.300	-19.308	0.100
119.400	-22.398	0.100
119.500	-22.828	0.100
119.600	-9.684	0.100
119.700	-26.754	0.100
119.800	-8.720	0.100
119.900	-23.653	0.100
120.000	-4.087	0.100
120.100	-3.772	0.100
120.200	-22.766	0.100
120.300	-10.826	0.100
120.400	-21.709	0.100
120.500	-20.492	0.100
120.600	-29.508	0.100
120.700	-5.382	0.100
120.800	-9.581	0.100
120.900	-24.419	0.100
121.000	-5.926	0.100
121.100	-12.023	0.100
121.200	-16.096	0.100
121.300	-17.642	0.100
121.400	-16.527	0.100
121.500	-12.725	0.100
121.600	-21.968	0.100
121.700	-17.028	0.100
121.800	-5.362	0.100
121.900	-14.518	0.100
122.000	-9.369	0.100
122.100	-7.234	0.100
122.200	-12.901	0.100
122.300	-13.518	0.100
122.400	-27.473	0.100
122.500	7.255	0.100
122.600	-27.798	0.100
122.700	-17.459	0.100
122.800	-18.883	0.100
122.900	-7.975	0.100
123.000	-11.397	0.100
123.100	-21.109	0.100
123.200	-2.849	0.100
123.300	-20.664	0.100
123.400	-22.029	0.100
123.500	-0.812	0.100
123.600	-19.951	0.100
123.700	1.908	0.100
123.800	-3.002	0.100
123.900	-36.540	0.100
124.000	-2.482	0.100
124.100	-9.417	0.100
124.200	-21.530	0.100
124.300	-19.193	0.100
124.400	-20.350	0.100
124.500	-15.622	0.100
124.600	-0.704	0.100
124.700	-18.336	0.100
124.800	-20.086	0.100
124.900	-17.132	0.100
125.000	-21.487	0.100
125.100	-24.276	0.100
125.200	-21.548	0.100
125.300	-13.358	0.100
125.400	-15.147	0.100
125.500	-20.371	0.100
125.600	-7.716	0.100
125.700	-17.753	0.100
125.800	-13.697	0.100
125.900	-6.580	0.100
126.000	-25.447	0.100
126.100	2.529	0.100
126.200	-16.741	0.100
126.300	-9.702	0.100
126.400	-19.974	0.100
126.500	-8.422	0.100
126.600	-22.208	0.100
126.700	-21.070	0.100
126.800	-10.282	0.100
126.900	-17.035	0.100
127.000	-11.570	0.100
127.100	-8.519	0.100
127.200	-21.658	0.100
127.300	-16.392	0.100
127.400	-28.617	0.100
127.500	3.599	0.100
127.600	-14.736	0.100
127.700	-17.877	0.100
127.800	-12.362	0.100
127.900	-25.548	0.100
128.000	-18.605	0.100
128.100	-27.795	0.100
128.200	-20.909	0.100
128.300	-2.964	0.100
128.400	-7.581	0.100
128.500	-29.260	0.100
128.600	-18.245	0.100
128.700	2.770	0.100
128.800	-19.225	0.100
128.900	-5.041	0.100
129.000	-17.158	0.100
129.100	-8.470	0.100
129.200	-23.851	0.100
129.300	-23.796	0.100
129.400	1.436	0.100
129.500	-10.509	0.100
129.600	-5.198	0.100
129.700	-14.408	0.100
129.800	-15.993	0.100
129.900	-31.173	0.100
130.000	-13.090	0.100
130.100	-20.452	0.100
130.200	-5.123	0.100
130.300	-10.050	0.100
130.400	-15.532	0.100
130.500	-5.156	0.100
130.600	-4.689	0.100
130.700	-22.963	0.100
130.800	-13.304	0.100
130.900	-4.931	0.100
131.000	1.431	0.100
131.100	-36.215	0.100
131.200	-4.163	0.100
131.300	-17.445	0.100
131.400	2.347	0.100
131.500	-18.961	0.100
131.600	-7.222	0.100
131.700	-29.093	0.100
131.800	-30.077	0.100
131.900	-11.956	0.100
132.000	-3.446	0.100
132.100	-23.551	0.100
132.200	-12.867	0.100
132.300	-19.064	0.100
132.400	8.116	0.100
132.500	-16.603	0.100
132.600	-7.910	0.100
132.700	-20.588	0.100
132.800	-9.398	0.100
132.900	-32.019	0.100
133.000	-14.171	0.100
133.100	-23.417	0.100
133.200	6.048	0.100
133.300	-17.250	0.100
133.400	-5.690	0.100
133.500	-13.677	0.100
133.600	-18.086	0.100
133.700	-17.450	0.100
133.800	-19.809	0.100
133.900	-13.267	0.100
134.000	-8.877	0.100
134.100	-14.171	0.100
134.200	-4.990	0.100
134.300	-16.155	0.100
134.400	-3.255	0.100
134.500	-0.867	0.100
134.600	-12.887	0.100
134.700	-25.608	0.100
134.800	-15.789	0.100
134.900	-10.646	0.100
135.000	-24.120	0.100
135.100	-16.659	0.100
135.200	-18.327	0.100
135.300	-10.959	0.100
135.400	-11.541	0.100
135.500	2.125	0.100
135.600	-17.400	0.100
135.700	-26.599	0.100
135.800	-1.801	0.100
135.900	-9.437	0.100
136.000	-14.893	0.100
136.100	-3.501	0.100
136.200	-10.666	0.100
136.300	-3.134	0.100
136.400	-11.526	0.100
136.500	-11.147	0.100
136.600	17.527	0.100
136.700	-15.276	0.100
136.800	-14.106	0.100
136.900	-19.775	0.100
137.000	-7.462	0.100
137.100	-9.460	0.100
137.200	-18.599	0.100
137.300	9.661	0.100
137.400	-25.339	0.100
137.500	-0.820	0.100
137.600	-30.018	0.100
137.700	-16.746	0.100
137.800	-26.175	0.100
137.900	-23.211	0.100
138.000	-6.020	0.100
138.100	0.888	0.100
138.200	-18.698	0.100
138.300	0.288	0.100
138.400	-18.029	0.100
138.500	-11.577	0.100
138.600	2.199	0.100
138.700	-21.620	0.100
138.800	-11.913	0.100
138.900	-17.865	0.100
139.000	-9.311	0.100
139.100	-13.228	0.100
139.200	-27.194	0.100
139.300	0.558	0.100
139.400	-16.464	0.100
139.500	-22.994	0.100
139.600	-12.572	0.100
139.700	-11.682	0.100
139.800	-1.907	0.100
139.900	-23.896	0.100
140.000	-1.477	0.100
140.100	-9.349	0.100
140.200	-12.103	0.100
140.300	-18.906	0.100
140.400	-2.613	0.100
140.500	-15.576	0.100
140.600	0.143	0.100
140.700	-15.370	0.100
140.800	-3.524	0.100
140.900	-9.287	0.100
141.000	-8.736	0.100
141.100	-16.717	0.100
141.200	-27.719	0.100
141.300	-19.839	0.100
141.400	-1.914	0.100
141.500	3.382	0.100
141.600	-14.407	0.100
141.700	-15.735	0.100
141.800	-34.160	0.100
141.900	-17.046	0.100
142.000	-9.566	0.100
142.100	-0.165	0.100
142.200	-14.041	0.100
142.300	-31.247	0.100
142.400	-18.696	0.100
142.500	-20.621	0.100
142.600	3.146	0.100
142.700	-13.195	0.100
142.800	-5.286	0.100
142.900	6.522	0.100
143.000	0.682	0.100
143.100	-19.019	0.100
143.200	-7.822	0.100
143.300	-9.460	0.100
143.400	-7.601	0.100
143.500	-16.012	0.100
143.600	-19.534	0.100
143.700	-17.461	0.100
143.800	-8.113	0.100
143.900	-9.772	0.100
144.000	-21.402	0.100
144.100	-7.459	0.100
144.200	-13.195	0.100
144.300	-10.615	0.100
144.400	-17.789	0.100
144.500	-22.029	0.100
144.600	-8.608	0.100
144.700	-10.348	0.100
144.800	1.421	0.100
144.900	-17.118	0.100
145.000	-16.993	0.100
145.100	-18.972	0.100
145.200	-9.529	0.100
145.300	-19.847	0.100
145.400	-8.443	0.100
145.500	-12.242	0.100
145.600	-7.916	0.100
145.700	-12.359	0.100
145.800	-4.190	0.100
145.900	-19.477	0.100
146.000	-0.487	0.100
146.100	-10.034	0.100
146.200	-11.059	0.100
146.300	-19.167	0.100
146.400	-9.113	0.100
146.500	-13.081	0.100
146.600	-19.798	0.100
146.700	9.781	0.100
146.800	-20.353	0.100
146.900	-21.683	0.100
147.000	-13.855	0.100
147.100	-17.087	0.100
147.200	3.029	0.100
147.300	8.867	0.100
147.400	-19.377	0.100
147.500	-6.590	0.100
147.600	2.622	0.100
147.700	-11.344	0.100
147.800	-13.154	0.100
147.900	-10.946	0.100
148.000	-3.133	0.100
148.100	-13.026	0.100
148.200	-12.812	0.100
148.300	11.617	0.100
148.400	-11.359	0.100
148.500	-5.274	0.100
148.600	-19.103	0.100
148.700	-9.773	0.100
148.800	-4.644	0.100
148.900	-7.986	0.100
149.000	-2.121	0.100
149.100	-4.938	0.100
149.200	-28.706	0.100
149.300	-19.117	0.100
149.400	0.404	0.100
149.500	-16.575	0.100
149.600	-22.358	0.100
149.700	-4.555	0.100
149.800	0.109	0.100
149.900	-7.493	0.100
150.000	0.272	0.100
150.100	-3.348	0.100
150.200	-18.146	0.100
150.300	-16.291	0.100
150.400	-7.677	0.100
150.500	-13.578	0.100
150.600	-0.187	0.100
150.700	-6.051	0.100
150.800	1.739	0.100
150.900	-11.310	0.100
151.000	-6.855	0.100
151.100	-2.595	0.100
151.200	-7.371	0.100
151.300	-1.448	0.100
151.400	-10.012	0.100
151.500	-1.540	0.100
151.600	-10.634	0.100
151.700	-18.050	0.100
151.800	-5.078	0.100
151.900	-14.432	0.100
152.000	-12.168	0.100
152.100	-4.810	0.100
152.200	-20.821	0.100
152.300	8.366	0.100
152.400	-3.726	0.100
152.500	-9.609	0.100
152.600	2.098	0.100
152.700	-1.131	0.100
152.800	-6.726	0.100
152.900	5.898	0.100
153.000	-14.353	0.100
153.100	-10.851	0.100
153.200	-25.951	0.100
153.300	-1.954	0.100
153.400	-3.199	0.100
153.500	2.307	0.100
153.600	-22.528	0.100
153.700	-13.179	0.100
153.800	-24.816	0.100
153.900	5.744	0.100
154.000	-8.102	0.100
154.100	-2.952	0.100
154.200	-1.114	0.100
154.300	-1.366	0.100
154.400	-2.146	0.100
154.500	-20.506	0.100
154.600	6.584	0.100
154.700	3.884	0.100
154.800	-16.591	0.100
154.900	-10.914	0.100
155.000	-18.558	0.100
155.100	-3.980	0.100
155.200	-0.461	0.100
155.300	-23.064	0.100
155.400	-1.690	0.100
155.500	-20.115	0.100
155.600	-15.739	0.100
155.700	-6.410	0.100
155.800	-4.324	0.100
155.900	-13.287	0.100
156.000	-8.936	0.100
156.100	-1.267	0.100
156.200	-8.820	0.100
156.300	0.204	0.100
156.400	-13.256	0.100
156.500	-29.147	0.100
156.600	-4.840	0.100
156.700	-16.007	0.100
156.800	5.025	0.100
156.900	-12.008	0.100
157.000	-18.208	0.100
157.100	-19.278	0.100
157.200	6.579	0.100
157.300	-18.988	0.100
157.400	-4.159	0.100
157.500	5.895	0.100
157.600	-9.116	0.100
157.700	-11.400	0.100
157.800	-11.239	0.100
157.900	3.155	0.100
158.000	-11.080	0.100
158.100	-18.173	0.100
158.200	-12.495	0.100
158.300	3.635	0.100
158.400	-19.748	0.100
158.500	-11.245	0.100
158.600	-7.625	0.100
158.700	4.963	0.100
158.800	-19.618	0.100
158.900	-5.794	0.100
159.000	-7.359	0.100
159.100	-12.582	0.100
159.200	-13.968	0.100
159.300	-10.211	0.100
159.400	0.578	0.100
159.500	5.117	0.100
159.600	-9.690	0.100
159.700	-15.001	0.100
159.800	-17.895	0.100
159.900	1.391	0.100
160.000	7.802	0.100
160.100	-29.029	0.100
160.200	9.488	0.100
160.300	-15.136	0.100
160.400	-28.367	0.100
160.500	-10.623	0.100
160.600	-16.945	0.100
160.700	-19.391	0.100
160.800	-8.818	0.100
160.900	-10.634	0.100
161.000	1.664	0.100
161.100	0.950	0.100
161.200	-10.814	0.100
161.300	-16.570	0.100
161.400	-15.944	0.100
161.500	-24.370	0.100
161.600	12.515	0.100
161.700	0.106	0.100
161.800	-4.512	0.100
161.900	-13.388	0.100
162.000	3.616	0.100
162.100	-8.185	0.100
162.200	-8.274	0.100
162.300	3.972	0.100
162.400	-9.591	0.100
162.500	-24.609	0.100
162.600	3.480	0.100
162.700	3.483	0.100
162.800	5.903	0.100
162.900	2.715	0.100
163.000	-23.960	0.100
163.100	-3.448	0.100
163.200	1.077	0.100
163.300	-15.811	0.100
163.400	-5.790	0.100
163.500	-8.836	0.100
163.600	3.046	0.100
163.700	-12.328	0.100
163.800	-14.484	0.100
163.900	-5.218	0.100
164.000	-11.446	0.100
164.100	5.348	0.100
164.200	-5.787	0.100
164.300	-11.582	0.100
164.400	-5.712	0.100
164.500	-20.705	0.100
164.600	-15.878	0.100
164.700	-18.905	0.100
164.800	-0.110	0.100
164.900	-4.182	0.100
165.000	-26.833	0.100
165.100	-11.982	0.100
165.200	-16.274	0.100
165.300	-14.540	0.100
165.400	-9.772	0.100
165.500	-15.799	0.100
165.600	1.859	0.100
165.700	-4.361	0.100
165.800	-6.481	0.100
165.900	-17.023	0.100
166.000	-17.169	0.100
166.100	-3.865	0.100
166.200	-15.241	0.100
166.300	-4.169	0.100
166.400	-2.967	0.100
166.500	-2.602	0.100
166.600	-23.517	0.100
166.700	-10.226	0.100
166.800	-19.244	0.100
166.900	-9.362	0.100
167.000	-21.352	0.100
167.100	-13.776	0.100
167.200	-2.140	0.100
167.300	3.736	0.100
167.400	-14.808	0.100
167.500	6.336	0.100
167.600	-16.441	0.100
167.700	-3.664	0.100
167.800	-5.614	0.100
167.900	-9.193	0.100
168.000	-19.888	0.100
168.100	-15.931	0.100
168.200	-8.012	0.100
168.300	-15.964	0.100
168.400	-9.145	0.100
168.500	4.905	0.100
168.600	-13.420	0.100
168.700	-24.535	0.100
168.800	-9.958	0.100
168.900	-17.808	0.100
169.000	-1.210	0.100
169.100	3.419	0.100
169.200	-20.559	0.100
169.300	-6.300	0.100
169.400	-4.880	0.100
169.500	-9.433	0.100
169.600	-26.151	0.100
169.700	-0.967	0.100
169.800	-14.455	0.100
169.900	-9.536	0.100
170.000	-13.682	0.100
170.100	-19.852	0.100
170.200	-8.706	0.100
170.300	-4.075	0.100
170.400	-14.593	0.100
170.500	-6.262	0.100
170.600	-17.570	0.100
170.700	3.551	0.100
170.800	-6.453	0.100
170.900	-24.568	0.100
171.000	-6.689	0.100
171.100	-12.993	0.100
171.200	-11.019	0.100
171.300	-9.526	0.100
171.400	-11.578	0.100
171.500	-11.064	0.100
171.600	-34.880	0.100
171.700	3.622	0.100
171.800	-5.167	0.100
171.900	-6.342	0.100
172.000	-8.437	0.100
172.100	7.295	0.100
172.200	-18.233	0.100
172.300	-6.525	0.100
172.400	-13.622	0.100
172.500	-8.858	0.100
172.600	-5.301	0.100
172.700	-4.900	0.100
172.800	-17.476	0.100
172.900	-9.765	0.100
173.000	8.443	0.100
173.100	-6.463	0.100
173.200	-13.350	0.100
173.300	2.780	0.100
173.400	-5.323	0.100
173.500	-20.485	0.100
173.600	-13.530	0.100
173.700	-11.536	0.100
173.800	-7.196	0.100
173.900	-14.213	0.100
174.000	-3.122	0.100
174.100	-11.683	0.100
174.200	-12.173	0.100
174.300	-8.130	0.100
174.400	-11.446	0.100
174.500	-2.442	0.100
174.600	19.646	0.100
174.700	-4.160	0.100
174.800	-12.681	0.100
174.900	-7.851	0.100
175.000	-13.103	0.100
175.100	-25.225	0.100
175.200	3.834	0.100
175.300	-0.997	0.100
175.400	-2.630	0.100
175.500	-1.786	0.100
175.600	-15.286	0.100
175.700	-8.003	0.100
175.800	-10.066	0.100
175.900	-0.280	0.100
176.000	7.994	0.100
176.100	-3.666	0.100
176.200	-5.155	0.100
176.300	-15.699	0.100
176.400	-6.025	0.100
176.500	-8.438	0.100
176.600	-9.782	0.100
176.700	-5.473	0.100
176.800	0.990	0.100
176.900	-5.973	0.100
177.000	0.427	0.100
177.100	8.361	0.100
177.200	3.167	0.100
177.300	-13.482	0.100
177.400	-3.742	0.100
177.500	-1.880	0.100
177.600	-10.549	0.100
177.700	-2.886	0.100
177.800	-3.934	0.100
177.900	-7.171	0.100
178.000	-12.046	0.100
178.100	-6.044	0.100
178.200	4.664	0.100
178.300	-16.292	0.100
178.400	-12.777	0.100
178.500	7.362	0.100
178.600	2.385	0.100
178.700	5.262	0.100
178.800	4.578	0.100
178.900	-18.452	0.100
179.000	0.609	0.100
179.100	-11.578	0.100
179.200	-11.895	0.100
179.300	8.919	0.100
179.400	-10.942	0.100
179.500	-8.501	0.100
179.600	5.197	0.100
179.700	-9.970	0.100
179.800	-7.422	0.100
179.900	-9.385	0.100
180.000	2.065	0.100
180.100	1.280	0.100
180.200	13.956	0.100
180.300	13.935	0.100
180.400	10.162	0.100
180.500	9.731	0.100
180.600	21.106	0.100
180.700	9.456	0.100
180.800	17.339	0.100
180.900	22.815	0.100
181.000	20.626	0.100
181.100	24.242	0.100
181.200	26.024	0.100
181.300	39.142	0.100
181.400	22.068	0.100
181.500	44.186	0.100
181.600	51.579	0.100
181.700	39.837	0.100
181.800	35.272	0.100
181.900	47.514	0.100
182.000	41.799	0.100
182.100	34.468	0.100
182.200	56.178	0.100
182.300	44.468	0.100
182.400	32.778	0.100
182.500	48.510	0.100
182.600	66.520	0.100
182.700	44.296	0.100
182.800	39.429	0.100
182.900	31.572	0.100
183.000	41.732	0.100
183.100	62.954	0.100
183.200	33.588	0.100
183.300	22.922	0.100
183.400	51.641	0.100
183.500	34.565	0.100
183.600	44.586	0.100
183.700	36.143	0.100
183.800	23.710	0.100
183.900	47.470	0.100
184.000	19.312	0.100
184.100	35.724	0.100
184.200	49.136	0.100
184.300	34.041	0.100
184.400	31.243	0.100
184.500	41.396	0.100
184.600	38.805	0.100
184.700	24.310	0.100
184.800	37.854	0.100
184.900	9.759	0.100
185.000	20.691	0.100
185.100	34.771	0.100
185.200	22.331	0.100
185.300	25.749	0.100
185.400	36.018	0.100
185.500	17.155	0.100
185.600	30.650	0.100
185.700	15.789	0.100
185.800	20.054	0.100
185.900	21.765	0.100
186.000	27.140	0.100
186.100	19.488	0.100
186.200	24.674	0.100
186.300	27.530	0.100
186.400	38.649	0.100
186.500	41.270	0.100
186.600	29.834	0.100
186.700	46.329	0.100
186.800	43.770	0.100
186.900	29.334	0.100
187.000	14.263	0.100
187.100	41.778	0.100
187.200	28.686	0.100
187.300	22.311	0.100
187.400	29.881	0.100
187.500	19.599	0.100
187.600	31.668	0.100
187.700	31.702	0.100
187.800	20.029	0.100
187.900	31.492	0.100
188.000	43.866	0.100
188.100	40.695	0.100
188.200	37.322	0.100
188.300	27.652	0.100
188.400	9.097	0.100
188.500	30.877	0.100
188.600	30.912	0.100
188.700	29.910	0.100
188.800	34.818	0.100
188.900	13.130	0.100
189.000	25.806	0.100
189.100	31.990	0.100
189.200	29.034	0.100
189.300	27.333	0.100
189.400	32.551	0.100
189.500	27.835	0.100
189.600	27.940	0.100
189.700	16.881	0.100
189.800	28.195	0.100
189.900	30.435	0.100
190.000	20.568	0.100
190.100	40.666	0.100
190.200	36.855	0.100
190.300	32.624	0.100
190.400	32.998	0.100
190.500	28.235	0.100
190.600	35.857	0.100
190.700	27.788	0.100
190.800	46.388	0.100
190.900	42.699	0.100
191.000	41.512	0.100
191.100	43.670	0.100
191.200	35.602	0.100
191.300	22.252	0.100
191.400	36.543	0.100
191.500	29.917	0.100
191.600	24.111	0.100
191.700	48.567	0.100
191.800	58.232	0.100
191.900	38.544	0.100
192.000	35.197	0.100
192.100	45.557	0.100
192.200	31.706	0.100
192.300	29.089	0.100
192.400	24.045	0.100
192.500	39.227	0.100
192.600	40.908	0.100
192.700	41.187	0.100
192.800	50.142	0.100
192.900	33.968	0.100
193.000	56.457	0.100
193.100	55.473	0.100
193.200	58.254	0.100
193.300	57.208	0.100
193.400	59.621	0.100
193.500	45.141	0.100
193.600	55.200	0.100
193.700	48.382	0.100
193.800	62.697	0.100
193.900	49.803	0.100
194.000	39.264	0.100
194.100	42.846	0.100
194.200	33.145	0.100
194.300	51.047	0.100
194.400	53.739	0.100
194.500	39.280	0.100
194.600	60.837	0.100
194.700	40.203	0.100
194.800	77.214	0.100
194.900	52.372	0.100
195.000	48.568	0.100
195.100	62.403	0.100
195.200	46.538	0.100
195.300	57.518	0.100
195.400	55.308	0.100
195.500	49.560	0.100
195.600	55.441	0.100
195.700	56.979	0.100
195.800	56.041	0.100
195.900	60.471	0.100
196.000	56.664	0.100
196.100	55.116	0.100
196.200	65.071	0.100
196.300	71.608	0.100
196.400	56.606	0.100
196.500	40.176	0.100
196.600	57.161	0.100
196.700	38.464	0.100
196.800	63.096	0.100
196.900	74.957	0.100
197.000	67.473	0.100
197.100	63.429	0.100
197.200	48.995	0.100
197.300	58.447	0.100
197.400	64.866	0.100
197.500	66.707	0.100
197.600	63.031	0.100
197.700	57.289	0.100
197.800	32.079	0.100
197.900	59.895	0.100
198.000	53.647	0.100
198.100	54.545	0.100
198.200	68.061	0.100
198.300	58.742	0.100
198.400	81.347	0.100
198.500	48.192	0.100
198.600	38.236	0.100
198.700	57.283	0.100
198.800	61.494	0.100
198.900	55.871	0.100
199.000	57.262	0.100
199.100	63.777	0.100
199.200	55.829	0.100
199.300	58.044	0.100
199.400	40.955	0.100
199.500	53.934	0.100
199.600	36.615	0.100
199.700	51.446	0.100
199.800	55.356	0.100
199.900	65.531	0.100
200.000	62.508	0.100
200.100	56.467	0.100
200.200	56.132	0.100
200.300	69.197	0.100
200.400	52.484	0.100
200.500	59.949	0.100
200.600	50.280	0.100
200.700	61.614	0.100
200.800	43.518	0.100
200.900	57.858	0.100
201.000	57.920	0.100
201.100	34.351	0.100
201.200	56.880	0.100
201.300	54.061	0.100
201.400	44.900	0.100
201.500	57.193	0.100
201.600	70.952	0.100
201.700	48.538	0.100
201.800	57.452	0.100
201.900	41.196	0.100
202.000	29.483	0.100
202.100	46.538	0.100
202.200	53.940	0.100
202.300	55.770	0.100
202.400	53.848	0.100
202.500	34.168	0.100
202.600	66.928	0.100
202.700	33.335	0.100
202.800	49.844	0.100
202.900	53.051	0.100
203.000	53.761	0.100
203.100	38.119	0.100
203.200	36.712	0.100
203.300	55.475	0.100
203.400	37.728	0.100
203.500	41.051	0.100
203.600	41.202	0.100
203.700	46.326	0.100
203.800	44.575	0.100
203.900	38.163	0.100
204.000	51.137	0.100
204.100	47.225	0.100
204.200	45.375	0.100
204.300	55.095	0.100
204.400	50.326	0.100
204.500	46.675	0.100
204.600	46.071	0.100
204.700	43.721	0.100
204.800	52.946	0.100
204.900	38.636	0.100
205.000	63.209	0.100
205.100	52.462	0.100
205.200	40.280	0.100
205.300	35.423	0.100
205.400	41.563	0.100
205.500	46.751	0.100
205.600	51.181	0.100
205.700	41.658	0.100
205.800	41.853	0.100
205.900	50.616	0.100
206.000	52.080	0.100
206.100	45.363	0.100
206.200	37.528	0.100
206.300	44.815	0.100
206.400	45.479	0.100
206.500	32.954	0.100
206.600	42.837	0.100
206.700	58.292	0.100
206.800	35.249	0.100
206.900	33.307	0.100
207.000	54.589	0.100
207.100	29.748	0.100
207.200	53.518	0.100
207.300	48.560	0.100
207.400	36.910	0.100
207.500	35.203	0.100
207.600	32.321	0.100
207.700	48.943	0.100
207.800	38.101	0.100
207.900	42.031	0.100
208.000	42.646	0.100
208.100	29.239	0.100
208.200	36.600	0.100
208.300	41.014	0.100
208.400	43.534	0.100
208.500	44.210	0.100
208.600	56.750	0.100
208.700	38.297	0.100
208.800	53.125	0.100
208.900	33.513	0.100
209.000	62.935	0.100
209.100	42.410	0.100
209.200	36.101	0.100
209.300	43.270	0.100
209.400	39.691	0.100
209.500	46.534	0.100
209.600	62.417	0.100
209.700	42.081	0.100
209.800	39.743	0.100
209.900	29.501	0.100
210.000	44.759	0.100
210.100	34.839	0.100
210.200	30.904	0.100
210.300	46.040	0.100
210.400	31.668	0.100
210.500	30.598	0.100
210.600	55.401	0.100
210.700	46.836	0.100
210.800	41.310	0.100
210.900	34.404	0.100
211.000	36.957	0.100
211.100	31.137	0.100
211.200	29.841	0.100
211.300	23.230	0.100
211.400	38.180	0.100
211.500	45.523	0.100
211.600	24.552	0.100
211.700	37.364	0.100
211.800	39.375	0.100
211.900	20.607	0.100
212.000	37.733	0.100
212.100	29.461	0.100
212.200	31.485	0.100
212.300	39.946	0.100
212.400	42.206	0.100
212.500	26.498	0.100
212.600	57.817	0.100
212.700	42.688	0.100
212.800	33.671	0.100
212.900	37.187	0.100
213.000	37.038	0.100
213.100	67.622	0.100
213.200	9.649	0.100
213.300	29.756	0.100
213.400	39.452	0.100
213.500	21.961	0.100
213.600	47.896	0.100
213.700	16.745	0.100
213.800	30.966	0.100
213.900	43.783	0.100
214.000	25.597	0.100
214.100	39.044	0.100
214.200	46.479	0.100
214.300	10.739	0.100
214.400	43.204	0.100
214.500	33.080	0.100
214.600	40.933	0.100
214.700	19.862	0.100
214.800	41.593	0.100
214.900	34.811	0.100
215.000	26.008	0.100
215.100	41.783	0.100
215.200	34.354	0.100
215.300	36.392	0.100
215.400	39.458	0.100
215.500	33.585	0.100
215.600	18.276	0.100
215.700	38.324	0.100
215.800	27.877	0.100
215.900	40.434	0.100
216.000	30.241	0.100
216.100	21.871	0.100
216.200	34.808	0.100
216.300	38.122	0.100
216.400	29.137	0.100
216.500	29.743	0.100
216.600	34.219	0.100
216.700	25.678	0.100
216.800	36.576	0.100
216.900	32.311	0.100
217.000	27.110	0.100
217.100	39.757	0.100
217.200	41.139	0.100
217.300	33.069	0.100
217.400	39.265	0.100
217.500	22.707	0.100
217.600	34.110	0.100
217.700	23.735	0.100
217.800	16.115	0.100
217.900	26.128	0.100
218.000	31.372	0.100
218.100	36.227	0.100
218.200	36.319	0.100
218.300	23.362	0.100
218.400	33.000	0.100
218.500	39.775	0.100
218.600	17.369	0.100
218.700	38.750	0.100
218.800	34.116	0.100
218.900	19.048	0.100
219.000	38.024	0.100
219.100	25.572	0.100
219.200	13.900	0.100
219.300	20.675	0.100
219.400	39.898	0.100
219.500	28.294	0.100
219.600	25.541	0.100
219.700	40.423	0.100
219.800	22.460	0.100
219.900	28.031	0.100
220.000	33.226	0.100
220.100	34.331	0.100
220.200	26.076	0.100
220.300	43.031	0.100
220.400	38.817	0.100
220.500	21.839	0.100
220.600	31.116	0.100
220.700	35.668	0.100
220.800	13.895	0.100
220.900	25.300	0.100
221.000	39.105	0.100
221.100	32.006	0.100
221.200	23.729	0.100
221.300	54.739	0.100
221.400	22.371	0.100
221.500	16.588	0.100
221.600	23.744	0.100
221.700	22.660	0.100
221.800	23.493	0.100
221.900	15.714	0.100
222.000	17.556	0.100
222.100	25.718	0.100
222.200	28.631	0.100
222.300	24.446	0.100
222.400	38.116	0.100
222.500	19.831	0.100
222.600	28.085	0.100
222.700	21.922	0.100
222.800	29.307	0.100
222.900	19.121	0.100
223.000	32.184	0.100
223.100	35.403	0.100
223.200	15.479	0.100
223.300	32.596	0.100
223.400	19.224	0.100
223.500	48.601	0.100
223.600	35.264	0.100
223.700	40.445	0.100
223.800	30.983	0.100
223.900	30.863	0.100
224.000	26.240	0.100
224.100	32.506	0.100
224.200	33.240	0.100
224.300	29.506	0.100
224.400	26.077	0.100
224.500	38.466	0.100
224.600	29.167	0.100
224.700	19.669	0.100
224.800	24.428	0.100
224.900	29.765	0.100
225.000	26.936	0.100
225.100	24.346	0.100
225.200	31.430	0.100
225.300	35.427	0.100
225.400	35.507	0.100
225.500	22.176	0.100
225.600	19.496	0.100
225.700	24.098	0.100
225.800	28.483	0.100
225.900	25.233	0.100
226.000	19.429	0.100
226.100	37.449	0.100
226.200	55.046	0.100
226.300	25.021	0.100
226.400	9.284	0.100
226.500	24.428	0.100
226.600	29.215	0.100
226.700	24.336	0.100
226.800	27.844	0.100
226.900	17.591	0.100
227.000	13.799	0.100
227.100	25.125	0.100
227.200	16.634	0.100
227.300	29.860	0.100
227.400	29.381	0.100
227.500	24.691	0.100
227.600	27.603	0.100
227.700	21.600	0.100
227.800	22.894	0.100
227.900	21.364	0.100
228.000	26.066	0.100
228.100	29.542	0.100
228.200	15.970	0.100
228.300	32.491	0.100
228.400	23.316	0.100
228.500	23.782	0.100
228.600	25.837	0.100
228.700	36.732	0.100
228.800	10.221	0.100
228.900	25.940	0.100
229.000	28.709	0.100
229.100	20.620	0.100
229.200	12.199	0.100
229.300	27.073	0.100
229.400	46.885	0.100
229.500	12.118	0.100
229.600	26.422	0.100
229.700	27.634	0.100
229.800	27.810	0.100
229.900	21.967	0.100
230.000	38.645	0.100
230.100	38.584	0.100
230.200	33.385	0.100
230.300	23.910	0.100
230.400	21.388	0.100
230.500	32.053	0.100
230.600	28.885	0.100
230.700	25.050	0.100
230.800	19.539	0.100
230.900	25.446	0.100
231.000	30.058	0.100
231.100	22.364	0.100
231.200	30.260	0.100
231.300	33.813	0.100
231.400	37.403	0.100
231.500	4.657	0.100
231.600	28.784	0.100
231.700	36.621	0.100
231.800	2.101	0.100
231.900	22.830	0.100
232.000	34.184	0.100
232.100	31.861	0.100
232.200	28.558	0.100
232.300	23.987	0.100
232.400	28.220	0.100
232.500	24.903	0.100
232.600	12.399	0.100
232.700	23.291	0.100
232.800	36.075	0.100
232.900	44.530	0.100
233.000	19.975	0.100
233.100	19.342	0.100
233.200	25.817	0.100
233.300	31.002	0.100
233.400	13.665	0.100
233.500	25.143	0.100
233.600	36.765	0.100
233.700	25.798	0.100
233.800	19.563	0.100
233.900	47.393	0.100
234.000	16.518	0.100
234.100	21.762	0.100
234.200	15.179	0.100
234.300	47.069	0.100
234.400	18.065	0.100
234.500	11.961	0.100
234.600	20.920	0.100
234.700	16.032	0.100
234.800	36.232	0.100
234.900	17.224	0.100
235.000	30.216	0.100
235.100	22.061	0.100
235.200	14.349	0.100
235.300	19.534	0.100
235.400	33.090	0.100
235.500	23.987	0.100
235.600	22.309	0.100
235.700	29.663	0.100
235.800	19.482	0.100
235.900	13.222	0.100
236.000	50.596	0.100
236.100	29.448	0.100
236.200	10.610	0.100
236.300	32.476	0.100
236.400	31.882	0.100
236.500	16.211	0.100
236.600	22.795	0.100
236.700	27.339	0.100
236.800	33.272	0.100
236.900	25.488	0.100
237.000	26.972	0.100
237.100	28.366	0.100
237.200	11.994	0.100
237.300	28.069	0.100
237.400	12.129	0.100
237.500	29.577	0.100
237.600	35.614	0.100
237.700	17.275	0.100
237.800	28.210	0.100
237.900	19.406	0.100
238.000	28.056	0.100
238.100	27.348	0.100
238.200	18.738	0.100
238.300	18.733	0.100
238.400	26.550	0.100
238.500	17.637	0.100
238.600	27.240	0.100
238.700	17.691	0.100
238.800	23.895	0.100
238.900	33.470	0.100
239.000	23.561	0.100
239.100	23.380	0.100
239.200	18.627	0.100
239.300	34.225	0.100
239.400	40.748	0.100
239.500	15.264	0.100
239.600	48.251	0.100
239.700	11.872	0.100
239.800	29.859	0.100
239.900	12.094	0.100
240.000	1.491	0.100
240.100	7.686	0.100
240.200	10.792	0.100
240.300	18.464	0.100
240.400	0.951	0.100
240.500	-6.531	0.100
240.600	-6.923	0.100
240.700	-11.508	0.100
240.800	-18.313	0.100
240.900	-8.029	0.100
241.000	-21.755	0.100
241.100	-27.932	0.100
241.200	-32.901	0.100
241.300	-25.443	0.100
241.400	-39.543	0.100
241.500	-30.908	0.100
241.600	-35.353	0.100
241.700	-42.219	0.100
241.800	-39.796	0.100
241.900	-33.878	0.100
242.000	-44.506	0.100
242.100	-49.421	0.100
242.200	-32.200	0.100
242.300	-40.314	0.100
242.400	-43.323	0.100
242.500	-51.673	0.100
242.600	-43.015	0.100
242.700	-47.778	0.100
242.800	-49.868	0.100
242.900	-53.197	0.100
243.000	-60.096	0.100
243.100	-70.987	0.100
243.200	-48.381	0.100
243.300	-66.013	0.100
243.400	-53.196	0.100
243.500	-66.987	0.100
243.600	-56.858	0.100
243.700	-57.839	0.100
243.800	-66.872	0.100
243.900	-64.920	0.100
244.000	-61.526	0.100
244.100	-47.577	0.100
244.200	-46.942	0.100
244.300	-86.672	0.100
244.400	-56.479	0.100
244.500	-53.421	0.100
244.600	-38.782	0.100
244.700	-76.142	0.100
244.800	-51.787	0.100
244.900	-57.234	0.100
245.000	-40.879	0.100
245.100	-55.122	0.100
245.200	-51.371	0.100
245.300	-49.339	0.100
245.400	-46.495	0.100
245.500	-69.234	0.100
245.600	-40.381	0.100
245.700	-66.539	0.100
245.800	-51.165	0.100
245.900	-57.241	0.100
246.000	-39.126	0.100
246.100	-39.390	0.100
246.200	-59.141	0.100
246.300	-56.902	0.100
246.400	-44.398	0.100
246.500	-58.852	0.100
246.600	-47.214	0.100
246.700	-47.153	0.100
246.800	-41.426	0.100
246.900	-46.421	0.100
247.000	-38.312	0.100
247.100	-38.866	0.100
247.200	-33.144	0.100
247.300	-45.917	0.100
247.400	-55.002	0.100
247.500	-42.664	0.100
247.600	-50.821	0.100
247.700	-30.519	0.100
247.800	-44.346	0.100
247.900	-9.571	0.100
248.000	-45.786	0.100
248.100	-33.792	0.100
248.200	-37.297	0.100
248.300	-49.037	0.100
248.400	-53.747	0.100
248.500	-38.769	0.100
248.600	-34.626	0.100
248.700	-15.275	0.100
248.800	-47.014	0.100
248.900	-34.466	0.100
249.000	-28.283	0.100
249.100	-44.432	0.100
249.200	-54.378	0.100
249.300	-42.658	0.100
249.400	-29.065	0.100
249.500	-24.509	0.100
249.600	-44.678	0.100
249.700	-27.745	0.100
249.800	-21.676	0.100
249.900	-38.116	0.100
250.000	-31.244	0.100
250.100	-31.508	0.100
250.200	-29.427	0.100
250.300	-25.190	0.100
250.400	-25.596	0.100
250.500	-19.677	0.100
250.600	-19.590	0.100
250.700	-33.640	0.100
250.800	-39.046	0.100
250.900	-18.018	0.100
251.000	-21.623	0.100
251.100	-24.258	0.100
251.200	-16.283	0.100
251.300	-19.994	0.100
251.400	-23.424	0.100
251.500	-32.603	0.100
251.600	-23.680	0.100
251.700	-20.604	0.100
251.800	-22.649	0.100
251.900	-23.594	0.100
252.000	-37.118	0.100
252.100	-34.122	0.100
252.200	-15.313	0.100
252.300	-32.324	0.100
252.400	-29.804	0.100
252.500	-31.612	0.100
252.600	-15.081	0.100
252.700	-21.265	0.100
252.800	-35.286	0.100
252.900	-3.782	0.100
253.000	-28.281	0.100
253.100	-26.342	0.100
253.200	-28.455	0.100
253.300	-24.414	0.100
253.400	-21.266	0.100
253.500	-22.951	0.100
253.600	-11.551	0.100
253.700	-32.901	0.100
253.800	-34.144	0.100
253.900	-37.208	0.100
254.000	-11.462	0.100
254.100	-23.350	0.100
254.200	-15.998	0.100
254.300	-22.082	0.100
254.400	-18.385	0.100
254.500	-10.782	0.100
254.600	-26.817	0.100
254.700	-9.111	0.100
254.800	-50.158	0.100
254.900	-22.208	0.100
255.000	-4.892	0.100
255.100	-31.199	0.100
255.200	-27.082	0.100
255.300	-34.035	0.100
255.400	-24.887	0.100
255.500	-25.189	0.100
255.600	-17.612	0.100
255.700	-35.834	0.100
255.800	-15.280	0.100
255.900	-26.855	0.100
256.000	-19.593	0.100
256.100	-21.743	0.100
256.200	-18.774	0.100
256.300	-40.061	0.100
256.400	8.358	0.100
256.500	-20.469	0.100
256.600	-18.972	0.100
256.700	-19.295	0.100
256.800	-19.487	0.100
256.900	-25.514	0.100
257.000	-16.675	0.100
257.100	-6.509	0.100
257.200	-29.903	0.100
257.300	-10.591	0.100
257.400	-36.738	0.100
257.500	-14.738	0.100
257.600	-12.240	0.100
257.700	-17.630	0.100
257.800	4.114	0.100
257.900	-26.967	0.100
258.000	-30.770	0.100
258.100	-21.648	0.100
258.200	-39.146	0.100
258.300	-21.905	0.100
258.400	-14.399	0.100
258.500	-18.079	0.100
258.600	-38.349	0.100
258.700	-19.348	0.100
258.800	-23.756	0.100
258.900	-18.446	0.100
259.000	-23.107	0.100
259.100	-27.206	0.100
259.200	-14.986	0.100
259.300	-6.804	0.100
259.400	-16.037	0.100
259.500	-21.969	0.100
259.600	-11.668	0.100
259.700	-5.293	0.100
259.800	-10.855	0.100
259.900	-13.953	0.100
260.000	-49.854	0.100
260.100	-25.147	0.100
260.200	-21.863	0.100
260.300	-23.060	0.100
260.400	-25.169	0.100
260.500	-23.332	0.100
260.600	-12.055	0.100
260.700	-14.903	0.100
260.800	-31.215	0.100
260.900	-24.439	0.100
261.000	-9.702	0.100
261.100	-25.274	0.100
261.200	-30.845	0.100
261.300	-24.923	0.100
261.400	-23.011	0.100
261.500	-17.943	0.100
261.600	-27.630	0.100
261.700	-33.114	0.100
261.800	-23.223	0.100
261.900	-18.828	0.100
262.000	-18.033	0.100
262.100	-16.551	0.100
262.200	-13.915	0.100
262.300	-27.958	0.100
262.400	-27.926	0.100
262.500	-33.062	0.100
262.600	-13.403	0.100
262.700	-9.512	0.100
262.800	-15.558	0.100
262.900	-18.608	0.100
263.000	-20.992	0.100
263.100	-23.098	0.100
263.200	-17.180	0.100
263.300	-26.677	0.100
263.400	-9.152	0.100
263.500	-15.452	0.100
263.600	-2.392	0.100
263.700	-36.599	0.100
263.800	-24.714	0.100
263.900	-18.891	0.100
264.000	-6.255	0.100
264.100	-2.817	0.100
264.200	-27.581	0.100
264.300	-42.645	0.100
264.400	-22.178	0.100
264.500	-12.262	0.100
264.600	-17.931	0.100
264.700	2.861	0.100
264.800	-24.008	0.100
264.900	-23.305	0.100
265.000	-23.814	0.100
265.100	-26.162	0.100
265.200	-17.623	0.100
265.300	-20.722	0.100
265.400	-23.596	0.100
265.500	-18.814	0.100
265.600	-31.108	0.100
265.700	-14.480	0.100
265.800	-13.359	0.100
265.900	-24.397	0.100
266.000	-39.488	0.100
266.100	-10.489	0.100
266.200	-33.496	0.100
266.300	-28.081	0.100
266.400	-17.446	0.100
266.500	-16.897	0.100
266.600	-16.475	0.100
266.700	-28.673	0.100
266.800	-28.857	0.100
266.900	-27.934	0.100
267.000	-14.101	0.100
267.100	-38.694	0.100
267.200	-19.561	0.100
267.300	1.643	0.100
267.400	-20.020	0.100
267.500	-22.272	0.100
267.600	-30.199	0.100
267.700	-34.709	0.100
267.800	-19.580	0.100
267.900	-1.551	0.100
268.000	-31.555	0.100
268.100	-23.073	0.100
268.200	-13.111	0.100
268.300	-18.337	0.100
268.400	-23.846	0.100
268.500	-17.641	0.100
268.600	-13.267	0.100
268.700	-9.178	0.100
268.800	-12.009	0.100
268.900	-4.645	0.100
269.000	-3.205	0.100
269.100	-29.155	0.100
269.200	-22.318	0.100
269.300	-32.723	0.100
269.400	-18.276	0.100
269.500	-31.267	0.100
269.600	-6.010	0.100
269.700	-18.603	0.100
269.800	-32.567	0.100
269.900	-22.820	0.100
270.000	-14.848	0.100
270.100	-11.287	0.100
270.200	-22.612	0.100
270.300	-40.677	0.100
270.400	-14.593	0.100
270.500	-17.743	0.100
270.600	-23.839	0.100
270.700	-11.117	0.100
270.800	-4.718	0.100
270.900	-10.240	0.100
271.000	-28.011	0.100
271.100	-4.212	0.100
271.200	-13.284	0.100
271.300	-5.639	0.100
271.400	-32.531	0.100
271.500	-20.135	0.100
271.600	-15.777	0.100
271.700	-17.560	0.100
271.800	0.332	0.100
271.900	-28.361	0.100
272.000	-4.944	0.100
272.100	-18.428	0.100
272.200	-11.780	0.100
272.300	-27.303	0.100
272.400	-21.274	0.100
272.500	-17.483	0.100
272.600	-26.496	0.100
272.700	-17.948	0.100
272.800	-15.469	0.100
272.900	-12.803	0.100
273.000	-23.456	0.100
273.100	-24.512	0.100
273.200	-24.479	0.100
273.300	-26.973	0.100
273.400	-30.842	0.100
273.500	-21.053	0.100
273.600	-22.623	0.100
273.700	-12.760	0.100
273.800	-33.416	0.100
273.900	-16.582	0.100
274.000	-15.416	0.100
274.100	-11.819	0.100
274.200	-18.902	0.100
274.300	-27.843	0.100
274.400	-5.223	0.100
274.500	-17.717	0.100
274.600	-17.215	0.100
274.700	-13.225	0.100
274.800	-30.876	0.100
274.900	-17.744	0.100
275.000	-19.173	0.100
275.100	-28.338	0.100
275.200	-17.722	0.100
275.300	-26.950	0.100
275.400	-24.812	0.100
275.500	-24.746	0.100
275.600	-2.698	0.100
275.700	-14.714	0.100
275.800	-19.941	0.100
275.900	-18.167	0.100
276.000	-22.459	0.100
276.100	-19.972	0.100
276.200	-21.797	0.100
276.300	-20.745	0.100
276.400	-14.187	0.100
276.500	-20.827	0.100
276.600	-33.256	0.100
276.700	-21.870	0.100
276.800	-22.802	0.100
276.900	-23.472	0.100
277.000	5.627	0.100
277.100	-25.092	0.100
277.200	-6.217	0.100
277.300	-18.950	0.100
277.400	-30.739	0.100
277.500	-16.999	0.100
277.600	-7.586	0.100
277.700	-13.156	0.100
277.800	-4.359	0.100
277.900	-7.572	0.100
278.000	-23.600	0.100
278.100	-4.562	0.100
278.200	-11.906	0.100
278.300	-20.780	0.100
278.400	-16.616	0.100
278.500	-22.950	0.100
278.600	-9.528	0.100
278.700	-17.648	0.100
278.800	-14.719	0.100
278.900	-23.211	0.100
279.000	-12.127	0.100
279.100	-14.797	0.100
279.200	-20.637	0.100
279.300	-24.547	0.100
279.400	-28.005	0.100
279.500	-22.198	0.100
279.600	-21.994	0.100
279.700	-13.786	0.100
279.800	2.103	0.100
279.900	-32.575	0.100
280.000	-19.599	0.100
280.100	-18.371	0.100
280.200	-13.361	0.100
280.300	-23.688	0.100
280.400	-16.060	0.100
280.500	-20.315	0.100
280.600	-7.027	0.100
280.700	-22.148	0.100
280.800	-14.871	0.100
280.900	-33.857	0.100
281.000	-10.207	0.100
281.100	-19.762	0.100
281.200	-12.985	0.100
281.300	-34.865	0.100
281.400	-6.322	0.100
281.500	-14.431	0.100
281.600	-12.252	0.100
281.700	-12.277	0.100
281.800	-9.408	0.100
281.900	-9.471	0.100
282.000	-29.890	0.100
282.100	-18.276	0.100
282.200	-17.965	0.100
282.300	-6.895	0.100
282.400	-26.003	0.100
282.500	-16.558	0.100
282.600	0.659	0.100
282.700	-27.025	0.100
282.800	-20.805	0.100
282.900	-17.805	0.100
283.000	-17.492	0.100
283.100	-31.311	0.100
283.200	-11.350	0.100
283.300	-20.284	0.100
283.400	-13.461	0.100
283.500	-3.752	0.100
283.600	-12.940	0.100
283.700	-16.674	0.100
283.800	-14.291	0.100
283.900	-36.814	0.100
284.000	-7.944	0.100
284.100	-17.522	0.100
284.200	-7.434	0.100
284.300	-19.048	0.100
284.400	-15.322	0.100
284.500	-27.550	0.100
284.600	-9.082	0.100
284.700	-16.280	0.100
284.800	-13.065	0.100
284.900	-11.729	0.100
285.000	0.493	0.100
285.100	1.844	0.100
285.200	-21.517	0.100
285.300	-23.885	0.100
285.400	-20.849	0.100
285.500	-32.608	0.100
285.600	-10.817	0.100
285.700	-15.000	0.100
285.800	-16.017	0.100
285.900	-7.265	0.100
286.000	-21.428	0.100
286.100	-12.055	0.100
286.200	-14.638	0.100
286.300	-15.837	0.100
286.400	-14.835	0.100
286.500	-25.007	0.100
286.600	-29.325	0.100
286.700	-17.461	0.100
286.800	-10.528	0.100
286.900	-25.311	0.100
287.000	-15.009	0.100
287.100	-18.758	0.100
287.200	-12.063	0.100
287.300	-9.660	0.100
287.400	-16.749	0.100
287.500	-2.175	0.100
287.600	-17.576	0.100
287.700	-7.420	0.100
287.800	-5.547	0.100
287.900	-13.298	0.100
288.000	-27.345	0.100
288.100	0.355	0.100
288.200	-5.707	0.100
288.300	-12.432	0.100
288.400	-4.550	0.100
288.500	-13.330	0.100
288.600	0.320	0.100
288.700	-9.015	0.100
288.800	-20.210	0.100
288.900	-7.634	0.100
289.000	-12.248	0.100
289.100	-15.067	0.100
289.200	-11.795	0.100
289.300	-13.716	0.100
289.400	-9.896	0.100
289.500	-20.526	0.100
289.600	-16.185	0.100
289.700	-29.318	0.100
289.800	-19.793	0.100
289.900	-19.360	0.100
290.000	2.494	0.100
290.100	-21.989	0.100
290.200	-18.099	0.100
290.300	-25.443	0.100
290.400	-12.938	0.100
290.500	-7.886	0.100
290.600	-12.496	0.100
290.700	-7.589	0.100
290.800	-12.297	0.100
290.900	-0.155	0.100
291.000	-14.188	0.100
291.100	-23.202	0.100
291.200	-5.773	0.100
291.300	-22.686	0.100
291.400	-23.958	0.100
291.500	-24.039	0.100
291.600	9.785	0.100
291.700	-15.546	0.100
291.800	-2.344	0.100
291.900	5.365	0.100
292.000	-32.826	0.100
292.100	5.589	0.100
292.200	-23.755	0.100
292.300	-21.157	0.100
292.400	-10.156	0.100
292.500	-14.497	0.100
292.600	-27.223	0.100
292.700	-2.872	0.100
292.800	-27.244	0.100
292.900	-5.802	0.100
293.000	-26.154	0.100
293.100	11.579	0.100
293.200	-4.815	0.100
293.300	-31.181	0.100
293.400	-20.211	0.100
293.500	-1.040	0.100
293.600	-14.420	0.100
293.700	-24.558	0.100
293.800	-12.933	0.100
293.900	-14.731	0.100
294.000	-13.285	0.100
294.100	-3.549	0.100
294.200	-20.553	0.100
294.300	-11.917	0.100
294.400	1.724	0.100
294.500	-8.358	0.100
294.600	-24.472	0.100
294.700	5.623	0.100
294.800	-26.726	0.100
294.900	-2.925	0.100
295.000	-20.622	0.100
295.100	-6.231	0.100
295.200	-5.387	0.100
295.300	-30.852	0.100
295.400	-17.555	0.100
295.500	-14.654	0.100
295.600	-13.726	0.100
295.700	-18.310	0.100
295.800	4.548	0.100
295.900	-18.542	0.100
296.000	-26.210	0.100
296.100	-22.275	0.100
296.200	-11.228	0.100
296.300	-10.784	0.100
296.400	-14.596	0.100
296.500	-9.799	0.100
296.600	-15.836	0.100
296.700	-12.090	0.100
296.800	-8.617	0.100
296.900	-4.346	0.100
297.000	-23.313	0.100
297.100	-9.580	0.100
297.200	2.033	0.100
297.300	-9.009	0.100
297.400	-3.464	0.100
297.500	-15.131	0.100
297.600	-25.548	0.100
297.700	-8.389	0.100
297.800	-21.803	0.100
297.900	-17.113	0.100
298.000	-5.758	0.100
298.100	0.376	0.100
298.200	-15.253	0.100
298.300	-14.815	0.100
298.400	-13.951	0.100
298.500	-24.791	0.100
298.600	-12.048	0.100
298.700	1.644	0.100
298.800	-26.742	0.100
298.900	-17.104	0.100
299.000	-12.068	0.100
299.100	-10.402	0.100
299.200	-17.802	0.100
299.300	-15.117	0.100
299.400	-3.668	0.100
299.500	-10.892	0.100
299.600	-7.183	0.100
299.700	-22.817	0.100
299.800	-7.064	0.100
299.900	-26.124	0.100
300.000	11.665	0.100
300.100	-26.846	0.100
300.200	-18.189	0.100
300.300	-12.691	0.100
300.400	-21.818	0.100
300.500	-13.971	0.100
300.600	-5.277	0.100
300.700	-14.589	0.100
300.800	-23.659	0.100
300.900	-12.206	0.100
301.000	0.319	0.100
301.100	-1.987	0.100
301.200	-14.086	0.100
301.300	-31.828	0.100
301.400	-14.262	0.100
301.500	11.322	0.100
301.600	-12.924	0.100
301.700	-28.715	0.100
301.800	-16.180	0.100
301.900	-21.012	0.100
302.000	-0.545	0.100
302.100	-28.099	0.100
302.200	-6.799	0.100
302.300	-4.889	0.100
302.400	-18.140	0.100
302.500	-9.348	0.100
302.600	-8.921	0.100
302.700	-9.982	0.100
302.800	-20.545	0.100
302.900	-9.845	0.100
303.000	-11.167	0.100
303.100	-23.838	0.100
303.200	-16.762	0.100
303.300	1.511	0.100
303.400	-17.546	0.100
303.500	11.725	0.100
303.600	-15.662	0.100
303.700	-8.819	0.100
303.800	-10.501	0.100
303.900	-17.845	0.100
304.000	-5.860	0.100
304.100	-4.605	0.100
304.200	-27.278	0.100
304.300	-23.654	0.100
304.400	-19.913	0.100
304.500	-20.267	0.100
304.600	-11.269	0.100
304.700	-31.066	0.100
304.800	2.862	0.100
304.900	-12.793	0.100
305.000	-14.249	0.100
305.100	-8.149	0.100
305.200	-17.180	0.100
305.300	-18.172	0.100
305.400	-20.936	0.100
305.500	-28.481	0.100
305.600	-4.315	0.100
305.700	-22.616	0.100
305.800	-21.947	0.100
305.900	-17.367	0.100
306.000	-4.249	0.100
306.100	-5.273	0.100
306.200	-20.812	0.100
306.300	11.038	0.100
306.400	-25.409	0.100
306.500	-11.638	0.100
306.600	-18.444	0.100
306.700	-3.391	0.100
306.800	-19.183	0.100
306.900	-11.812	0.100
307.000	-16.741	0.100
307.100	-13.685	0.100
307.200	6.058	0.100
307.300	-5.533	0.100
307.400	-18.417	0.100
307.500	-14.858	0.100
307.600	-10.810	0.100
307.700	-8.049	0.100
307.800	-21.631	0.100
307.900	-6.881	0.100
308.000	-25.686	0.100
308.100	-9.043	0.100
308.200	-2.583	0.100
308.300	-13.507	0.100
308.400	-7.112	0.100
308.500	-17.337	0.100
308.600	-9.306	0.100
308.700	-16.972	0.100
308.800	-4.582	0.100
308.900	-10.554	0.100
309.000	-10.377	0.100
309.100	-15.714	0.100
309.200	-21.763	0.100
309.300	-20.276	0.100
309.400	-26.506	0.100
309.500	-1.640	0.100
309.600	-20.251	0.100
309.700	-20.957	0.100
309.800	-20.507	0.100
309.900	-11.734	0.100
310.000	-16.715	0.100
310.100	-10.643	0.100
310.200	-15.488	0.100
310.300	-16.561	0.100
310.400	-23.602	0.100
310.500	-0.422	0.100
310.600	-1.216	0.100
310.700	-12.752	0.100
310.800	4.071	0.100
310.900	-21.917	0.100
311.000	-7.051	0.100
311.100	-8.282	0.100
311.200	-15.925	0.100
311.300	-1.684	0.100
311.400	-14.629	0.100
311.500	-17.008	0.100
311.600	-17.271	0.100
311.700	-3.780	0.100
311.800	-8.700	0.100
311.900	-1.756	0.100
312.000	-1.898	0.100
312.100	-26.837	0.100
312.200	-15.828	0.100
312.300	-13.981	0.100
312.400	9.418	0.100
312.500	-13.832	0.100
312.600	-11.333	0.100
312.700	-16.128	0.100
312.800	-35.143	0.100
312.900	-22.872	0.100
313.000	-4.872	0.100
313.100	-24.824	0.100
313.200	-14.225	0.100
313.300	-11.745	0.100
313.400	-0.644	0.100
313.500	-4.129	0.100
313.600	-7.580	0.100
313.700	-14.460	0.100
313.800	-14.827	0.100
313.900	-28.446	0.100
314.000	-16.507	0.100
314.100	-5.357	0.100
314.200	-9.687	0.100
314.300	-0.698	0.100
314.400	-8.999	0.100
314.500	-10.904	0.100
314.600	-4.973	0.100
314.700	-9.209	0.100
314.800	0.319	0.100
314.900	-9.432	0.100
315.000	-9.515	0.100
315.100	-17.269	0.100
315.200	-13.719	0.100
315.300	-13.608	0.100
315.400	-21.721	0.100
315.500	-0.947	0.100
315.600	-22.146	0.100
315.700	-31.989	0.100
315.800	-8.907	0.100
315.900	-17.828	0.100
316.000	-9.120	0.100
316.100	-7.429	0.100
316.200	2.237	0.100
316.300	0.603	0.100
316.400	-22.971	0.100
316.500	-4.261	0.100
316.600	-23.940	0.100
316.700	-9.807	0.100
316.800	-6.471	0.100
316.900	0.541	0.100
317.000	-9.728	0.100
317.100	-11.921	0.100
317.200	-22.320	0.100
317.300	-33.520	0.100
317.400	-8.376	0.100
317.500	-12.307	0.100
317.600	-4.112	0.100
317.700	-5.436	0.100
317.800	-4.319	0.100
317.900	-16.313	0.100
318.000	-7.127	0.100
318.100	-12.693	0.100
318.200	-10.547	0.100
318.300	-16.213	0.100
318.400	-21.725	0.100
318.500	-20.291	0.100
318.600	-4.802	0.100
318.700	-0.678	0.100
318.800	-8.443	0.100
318.900	-13.285	0.100
319.000	-12.218	0.100
319.100	-15.295	0.100
319.200	-14.143	0.100
319.300	4.502	0.100
319.400	-2.753	0.100
319.500	-2.028	0.100
319.600	-7.321	0.100
319.700	-17.970	0.100
319.800	-35.863	0.100
319.900	-7.876	0.100
320.000	-8.643	0.100
320.100	-11.297	0.100
320.200	-0.207	0.100
320.300	-20.888	0.100
320.400	-15.160	0.100
320.500	-5.738	0.100
320.600	-24.010	0.100
320.700	-15.571	0.100
320.800	-23.599	0.100
320.900	-1.332	0.100
321.000	-5.153	0.100
321.100	-11.249	0.100
321.200	-14.982	0.100
321.300	-1.991	0.100
321.400	-9.055	0.100
321.500	-15.300	0.100
321.600	-4.097	0.100
321.700	-8.508	0.100
321.800	-10.933	0.100
321.900	-26.354	0.100
322.000	-6.212	0.100
322.100	-6.644	0.100
322.200	-17.074	0.100
322.300	-18.816	0.100
322.400	-17.892	0.100
322.500	-5.805	0.100
322.600	-21.895	0.100
322.700	0.175	0.100
322.800	-5.869	0.100
322.900	-5.778	0.100
323.000	-16.371	0.100
323.100	-21.893	0.100
323.200	-10.405	0.100
323.300	-17.176	0.100
323.400	-3.975	0.100
323.500	-24.581	0.100
323.600	-8.302	0.100
323.700	-17.760	0.100
323.800	-11.304	0.100
323.900	-14.417	0.100
324.000	-1.921	0.100
324.100	22.737	0.100
324.200	-24.558	0.100
324.300	-16.285	0.100
324.400	-16.160	0.100
324.500	-14.947	0.100
324.600	-36.459	0.100
324.700	-3.283	0.100
324.800	-12.074	0.100
324.900	-8.942	0.100
325.000	-2.716	0.100
325.100	-2.922	0.100
325.200	-23.076	0.100
325.300	-13.813	0.100
325.400	-7.624	0.100
325.500	-6.518	0.100
325.600	-6.632	0.100
325.700	-19.234	0.100
325.800	-12.887	0.100
325.900	-16.911	0.100
326.000	-9.153	0.100
326.100	-11.306	0.100
326.200	1.978	0.100
326.300	-27.417	0.100
326.400	-6.533	0.100
326.500	-11.574	0.100
326.600	10.667	0.100
326.700	4.508	0.100
326.800	-15.716	0.100
326.900	-4.139	0.100
327.000	-15.888	0.100
327.100	2.296	0.100
327.200	-12.815	0.100
327.300	-7.069	0.100
327.400	-8.056	0.100
327.500	5.144	0.100
327.600	16.944	0.100
327.700	-25.374	0.100
327.800	-13.773	0.100
327.900	-15.149	0.100
328.000	-9.176	0.100
328.100	-2.896	0.100
328.200	-1.916	0.100
328.300	-11.495	0.100
328.400	-20.275	0.100
328.500	-8.276	0.100
328.600	-0.841	0.100
328.700	-5.491	0.100
328.800	0.043	0.100
328.900	-15.390	0.100
329.000	-12.016	0.100
329.100	-10.711	0.100
329.200	-1.759	0.100
329.300	-9.872	0.100
329.400	-3.397	0.100
329.500	-9.975	0.100
329.600	-10.338	0.100
329.700	-5.780	0.100
329.800	-11.627	0.100
329.900	2.297	0.100
330.000	-14.975	0.100
330.100	-3.131	0.100
330.200	12.523	0.100
330.300	-2.474	0.100
330.400	12.437	0.100
330.500	10.874	0.100
330.600	20.545	0.100
330.700	27.604	0.100
330.800	23.499	0.100
330.900	3.622	0.100
331.000	12.251	0.100
331.100	18.166	0.100
331.200	27.437	0.100
331.300	37.056	0.100
331.400	29.598	0.100
331.500	42.229	0.100
331.600	31.694	0.100
331.700	37.730	0.100
331.800	41.695	0.100
331.900	48.943	0.100
332.000	28.513	0.100
332.100	54.584	0.100
332.200	27.993	0.100
332.300	35.120	0.100
332.400	35.057	0.100
332.500	39.592	0.100
332.600	26.878	0.100
332.700	32.220	0.100
332.800	35.834	0.100
332.900	24.407	0.100
333.000	41.565	0.100
333.100	38.718	0.100
333.200	36.332	0.100
333.300	34.578	0.100
333.400	46.254	0.100
333.500	45.225	0.100
333.600	38.760	0.100
333.700	28.319	0.100
333.800	40.255	0.100
333.900	39.522	0.100
334.000	19.841	0.100
334.100	25.354	0.100
334.200	35.895	0.100
334.300	30.296	0.100
334.400	20.593	0.100
334.500	17.628	0.100
334.600	42.890	0.100
334.700	14.112	0.100
334.800	29.773	0.100
334.900	40.367	0.100
335.000	19.972	0.100
335.100	10.136	0.100
335.200	18.000	0.100
335.300	33.503	0.100
335.400	25.827	0.100
335.500	19.351	0.100
335.600	26.055	0.100
335.700	27.353	0.100
335.800	21.960	0.100
335.900	28.912	0.100
336.000	24.912	0.100
336.100	22.868	0.100
336.200	24.987	0.100
336.300	36.785	0.100
336.400	31.726	0.100
336.500	25.644	0.100
336.600	20.626	0.100
336.700	18.422	0.100
336.800	25.529	0.100
336.900	32.530	0.100
337.000	30.956	0.100
337.100	6.316	0.100
337.200	25.859	0.100
337.300	17.988	0.100
337.400	14.009	0.100
337.500	20.407	0.100
337.600	27.124	0.100
337.700	23.496	0.100
337.800	11.718	0.100
337.900	26.174	0.100
338.000	28.986	0.100
338.100	26.435	0.100
338.200	26.803	0.100
338.300	27.916	0.100
338.400	17.819	0.100
338.500	20.024	0.100
338.600	10.493	0.100
338.700	26.077	0.100
338.800	19.754	0.100
338.900	34.891	0.100
339.000	10.433	0.100
339.100	11.773	0.100
339.200	47.289	0.100
339.300	27.305	0.100
339.400	11.131	0.100
339.500	27.732	0.100
339.600	22.178	0.100
339.700	42.222	0.100
339.800	29.469	0.100
339.900	40.922	0.100
340.000	25.809	0.100
340.100	24.333	0.100
340.200	36.382	0.100
340.300	35.591	0.100
340.400	26.729	0.100
340.500	27.371	0.100
340.600	21.004	0.100
340.700	29.623	0.100
340.800	30.691	0.100
340.900	25.715	0.100
341.000	42.951	0.100
341.100	33.426	0.100
341.200	45.048	0.100
341.300	23.496	0.100
341.400	41.879	0.100
341.500	25.233	0.100
341.600	40.659	0.100
341.700	30.313	0.100
341.800	41.173	0.100
341.900	26.946	0.100
342.000	38.881	0.100
342.100	31.517	0.100
342.200	39.524	0.100
342.300	24.239	0.100
342.400	33.383	0.100
342.500	58.528	0.100
342.600	32.671	0.100
342.700	21.994	0.100
342.800	62.503	0.100
342.900	30.640	0.100
343.000	59.991	0.100
343.100	38.796	0.100
343.200	49.997	0.100
343.300	40.929	0.100
343.400	42.521	0.100
343.500	53.100	0.100
343.600	42.926	0.100
343.700	60.453	0.100
343.800	62.560	0.100
343.900	51.907	0.100
344.000	41.653	0.100
344.100	64.598	0.100
344.200	50.978	0.100
344.300	58.121	0.100
344.400	61.609	0.100
344.500	65.216	0.100
344.600	36.050	0.100
344.700	47.735	0.100
344.800	48.300	0.100
344.900	64.408	0.100
345.000	58.335	0.100
345.100	59.599	0.100
345.200	57.452	0.100
345.300	47.776	0.100
345.400	60.161	0.100
345.500	66.828	0.100
345.600	76.350	0.100
345.700	74.257	0.100
345.800	52.239	0.100
345.900	62.626	0.100
346.000	61.106	0.100
346.100	65.427	0.100
346.200	73.561	0.100
346.300	53.941	0.100
346.400	59.570	0.100
346.500	67.520	0.100
346.600	69.153	0.100
346.700	57.907	0.100
346.800	60.834	0.100
346.900	68.340	0.100
347.000	68.436	0.100
347.100	71.725	0.100
347.200	67.717	0.100
347.300	48.747	0.100
347.400	79.103	0.100
347.500	64.233	0.100
347.600	69.808	0.100
347.700	53.264	0.100
347.800	65.333	0.100
347.900	67.484	0.100
348.000	68.924	0.100
348.100	63.936	0.100
348.200	60.259	0.100
348.300	80.068	0.100
348.400	61.305	0.100
348.500	50.692	0.100
348.600	79.397	0.100
348.700	54.670	0.100
348.800	45.346	0.100
348.900	72.101	0.100
349.000	56.762	0.100
349.100	69.018	0.100
349.200	48.328	0.100
349.300	62.322	0.100
349.400	48.407	0.100
349.500	63.784	0.100
349.600	64.623	0.100
349.700	69.485	0.100
349.800	60.619	0.100
349.900	65.410	0.100
350.000	68.996	0.100
350.100	56.687	0.100
350.200	55.018	0.100
350.300	46.257	0.100
350.400	42.869	0.100
350.500	70.565	0.100
350.600	58.512	0.100
350.700	66.751	0.100
350.800	49.903	0.100
350.900	64.552	0.100
351.000	50.249	0.100
351.100	52.720	0.100
351.200	42.044	0.100
351.300	62.043	0.100
351.400	64.630	0.100
351.500	56.588	0.100
351.600	57.209	0.100
351.700	52.142	0.100
351.800	43.335	0.100
351.900	62.503	0.100
352.000	58.575	0.100
352.100	63.352	0.100
352.200	64.483	0.100
352.300	52.008	0.100
352.400	47.263	0.100
352.500	56.985	0.100
352.600	51.965	0.100
352.700	64.422	0.100
352.800	47.221	0.100
352.900	54.662	0.100
353.000	59.745	0.100
353.100	50.474	0.100
353.200	49.052	0.100
353.300	48.328	0.100
353.400	47.225	0.100
353.500	50.761	0.100
353.600	65.130	0.100
353.700	46.847	0.100
353.800	49.874	0.100
353.900	46.259	0.100
354.000	43.266	0.100
354.100	50.978	0.100
354.200	46.708	0.100
354.300	42.545	0.100
354.400	51.568	0.100
354.500	30.895	0.100
354.600	60.645	0.100
354.700	52.508	0.100
354.800	48.999	0.100
354.900	43.753	0.100
355.000	44.027	0.100
355.100	49.950	0.100
355.200	62.104	0.100
355.300	63.141	0.100
355.400	52.477	0.100
355.500	29.932	0.100
355.600	64.315	0.100
355.700	39.509	0.100
355.800	43.880	0.100
355.900	49.262	0.100
356.000	38.713	0.100
356.100	30.753	0.100
356.200	68.586	0.100
356.300	41.491	0.100
356.400	38.064	0.100
356.500	57.883	0.100
356.600	33.159	0.100
356.700	67.229	0.100
356.800	43.785	0.100
356.900	45.963	0.100
357.000	31.426	0.100
357.100	42.142	0.100
357.200	33.051	0.100
357.300	59.002	0.100
357.400	49.032	0.100
357.500	11.437	0.100
357.600	44.775	0.100
357.700	51.183	0.100
357.800	53.141	0.100
357.900	43.101	0.100
358.000	33.963	0.100
358.100	30.115	0.100
358.200	48.045	0.100
358.300	46.832	0.100
358.400	34.408	0.100
358.500	31.400	0.100
358.600	44.540	0.100
358.700	38.781	0.100
358.800	20.665	0.100
358.900	41.367	0.100
359.000	43.499	0.100
359.100	41.572	0.100
359.200	57.936	0.100
359.300	51.409	0.100
359.400	38.546	0.100
359.500	32.133	0.100
359.600	46.944	0.100
359.700	18.334	0.100
359.800	37.303	0.100
359.900	43.500	0.100
360.000	41.828	0.100
360.100	33.582	0.100
360.200	26.402	0.101
360.300	46.459	0.100
360.400	21.039	0.100
360.500	30.826	0.100
360.600	34.238	0.100
360.700	31.746	0.100
360.800	34.154	0.100
360.900	44.431	0.100
361.000	20.499	0.100
361.100	39.825	0.100
361.200	38.013	0.100
361.300	33.339	0.100
361.400	55.207	0.100
361.500	21.551	0.101
361.600	51.912	0.100
361.700	35.070	0.100
361.800	42.735	0.100
361.900	34.303	0.100
362.000	19.154	0.100
362.100	24.285	0.100
362.200	44.467	0.100
362.300	34.746	0.100
362.400	43.658	0.101
362.500	22.540	0.100
362.600	35.500	0.100
362.700	26.912	0.100
362.800	32.456	0.100
362.900	36.829	0.100
363.000	24.699	0.100
363.100	43.916	0.100
363.200	31.107	0.100
363.300	40.343	0.100
363.400	36.442	0.101
363.500	35.336	0.100
363.600	44.651	0.100
363.700	33.911	0.100
363.800	30.184	0.101
363.900	37.041	0.100
364.000	36.623	0.100
364.100	34.790	0.101
364.200	28.095	0.101
364.300	35.114	0.101
364.400	44.457	0.101
364.500	32.391	0.101
364.600	17.887	0.101
364.700	28.568	0.101
364.800	33.237	0.101
364.900	36.481	0.101
365.000	32.577	0.101
365.100	33.614	0.101
365.200	32.810	0.101
365.300	25.960	0.101
365.400	38.438	0.101
365.500	29.292	0.101
365.600	43.747	0.101
365.700	12.838	0.101
365.800	43.619	0.101
365.900	30.660	0.101
366.000	32.358	0.101
366.100	42.495	0.101
366.200	25.453	0.101
366.300	23.881	0.101
366.400	42.368	0.101
366.500	37.297	0.101
366.600	45.607	0.101
366.700	34.194	0.101
366.800	23.900	0.101
366.900	26.501	0.101
367.000	19.572	0.101
367.100	51.476	0.101
367.200	43.170	0.101
367.300	33.762	0.101
367.400	27.735	0.101
367.500	23.906	0.101
367.600	26.552	0.101
367.700	35.781	0.101
367.800	43.475	0.101
367.900	29.089	0.101
368.000	23.126	0.101
368.100	40.645	0.101
368.200	23.409	0.101
368.300	33.693	0.101
368.400	33.715	0.101
368.500	33.866	0.101
368.600	43.517	0.101
368.700	23.196	0.101
368.800	18.285	0.101
368.900	39.132	0.101
369.000	15.995	0.101
369.100	43.254	0.101
369.200	28.921	0.101
369.300	35.706	0.101
369.400	48.927	0.101
369.500	29.956	0.101
369.600	22.455	0.101
369.700	14.368	0.101
369.800	25.827	0.101
369.900	12.239	0.101
370.000	50.353	0.101
370.100	20.986	0.101
370.200	39.517	0.101
370.300	28.785	0.101
370.400	13.190	0.101
370.500	30.551	0.101
370.600	37.424	0.101
370.700	29.063	0.101
370.800	36.795	0.101
370.900	25.769	0.101
371.000	30.567	0.101
371.100	26.248	0.101
371.200	21.935	0.101
371.300	26.866	0.101
371.400	35.279	0.101
371.500	18.878	0.101
371.600	55.730	0.101
371.700	27.739	0.101
371.800	19.738	0.101
371.900	42.916	0.101
372.000	46.956	0.101
372.100	42.370	0.101
372.200	28.395	0.101
372.300	20.781	0.101
372.400	25.860	0.101
372.500	38.676	0.101
372.600	30.371	0.101
372.700	42.184	0.101
372.800	19.954	0.101
372.900	18.369	0.101
373.000	33.433	0.101
373.100	20.792	0.101
373.200	46.744	0.101
373.300	28.228	0.101
373.400	42.622	0.101
373.500	24.190	0.101
373.600	20.854	0.101
373.700	34.586	0.101
373.800	20.695	0.101
373.900	20.418	0.101
374.000	16.967	0.101
374.100	28.356	0.101
374.200	23.296	0.101
374.300	11.149	0.101
374.400	23.651	0.101
374.500	32.030	0.101
374.600	17.086	0.101
374.700	16.422	0.101
374.800	32.068	0.101
374.900	43.504	0.101
375.000	38.807	0.101
375.100	27.702	0.101
375.200	12.750	0.101
375.300	33.721	0.101
375.400	20.980	0.101
375.500	32.038	0.101
375.600	30.392	0.101
375.700	5.258	0.101
375.800	22.459	0.101
375.900	25.026	0.101
376.000	21.244	0.101
376.100	19.898	0.101
376.200	24.187	0.101
376.300	16.733	0.101
376.400	26.486	0.101
376.500	36.356	0.101
376.600	28.976	0.101
376.700	25.269	0.101
376.800	32.083	0.101
376.900	25.000	0.101
377.000	30.160	0.101
377.100	23.219	0.101
377.200	21.413	0.101
377.300	26.337	0.101
377.400	15.433	0.101
377.500	6.688	0.101
377.600	40.679	0.101
377.700	32.650	0.101
377.800	29.570	0.101
377.900	29.745	0.101
378.000	25.576	0.101
378.100	12.494	0.101
378.200	22.284	0.101
378.300	33.794	0.101
378.400	21.801	0.101
378.500	32.036	0.101
378.600	34.813	0.101
378.700	34.989	0.101
378.800	21.359	0.101
378.900	23.379	0.101
379.000	27.776	0.101
379.100	17.616	0.101
379.200	20.941	0.101
379.300	40.143	0.101
379.400	28.590	0.101
379.500	12.042	0.101
379.600	22.637	0.101
379.700	39.840	0.101
379.800	19.306	0.101
379.900	21.961	0.101
380.000	26.475	0.101
380.100	32.926	0.101
380.200	13.215	0.101
380.300	26.433	0.101
380.400	25.697	0.101
380.500	18.905	0.101
380.600	23.026	0.101
380.700	22.206	0.101
380.800	28.751	0.101
380.900	31.226	0.101
381.000	13.950	0.101
381.100	22.338	0.101
381.200	22.784	0.101
381.300	11.701	0.101
381.400	8.881	0.101
381.500	24.740	0.101
381.600	8.000	0.101
381.700	35.625	0.101
381.800	27.894	0.101
381.900	30.480	0.101
382.000	21.252	0.101
382.100	18.420	0.101
382.200	23.391	0.101
382.300	10.130	0.101
382.400	31.286	0.101
382.500	20.423	0.101
382.600	29.816	0.101
382.700	7.935	0.101
382.800	25.776	0.101
382.900	32.297	0.101
383.000	27.604	0.101
383.100	24.247	0.101
383.200	45.067	0.101
383.300	8.451	0.101
383.400	35.670	0.101
383.500	19.608	0.101
383.600	20.105	0.101
383.700	9.785	0.101
383.800	24.085	0.101
383.900	31.943	0.101
384.000	37.537	0.101
384.100	34.030	0.101
384.200	21.989	0.101
384.300	12.580	0.101
384.400	43.670	0.101
384.500	24.375	0.101
384.600	26.852	0.101
384.700	26.804	0.101
384.800	12.334	0.101
384.900	29.201	0.101
385.000	9.940	0.101
385.100	23.273	0.101
385.200	23.999	0.101
385.300	39.281	0.101
385.400	32.772	0.101
385.500	21.747	0.101
385.600	21.268	0.101
385.700	36.073	0.101
385.800	18.857	0.101
385.900	24.938	0.101
386.000	29.821	0.101
386.100	22.977	0.101
386.200	3.712	0.101
386.300	5.418	0.101
386.400	31.137	0.101
386.500	21.494	0.101
386.600	39.526	0.101
386.700	29.998	0.101
386.800	8.631	0.101
386.900	22.767	0.101
387.000	42.694	0.101
387.100	28.612	0.101
387.200	20.592	0.101
387.300	31.067	0.101
387.400	3.606	0.101
387.500	19.555	0.101
387.600	17.619	0.101
387.700	14.252	0.101
387.800	21.975	0.101
387.900	15.704	0.101
388.000	32.840	0.101
388.100	25.932	0.101
388.200	5.375	0.101
388.300	28.574	0.101
388.400	26.594	0.101
388.500	31.276	0.101
388.600	25.270	0.101
388.700	28.227	0.101
388.800	33.875	0.101
388.900	25.178	0.101
389.000	12.085	0.101
389.100	28.872	0.101
389.200	37.094	0.101
389.300	25.798	0.101
389.400	35.021	0.101
389.500	27.899	0.101
389.600	21.489	0.101
389.700	23.873	0.101
389.800	20.003	0.101
389.900	26.921	0.101
390.000	12.418	0.101
390.100	15.422	0.101
390.200	14.093	0.101
390.300	19.458	0.101
390.400	-2.816	0.101
390.500	4.189	0.101
390.600	-5.621	0.101
390.700	-11.457	0.101
390.800	-11.882	0.101
390.900	-12.966	0.101
391.000	-23.596	0.101
391.100	-16.197	0.101
391.200	-35.929	0.101
391.300	-31.651	0.101
391.400	-21.668	0.101
391.500	-25.279	0.101
391.600	-33.360	0.101
391.700	-43.347	0.101
391.800	-56.283	0.101
391.900	-39.328	0.101
392.000	-30.998	0.101
392.100	-46.754	0.101
392.200	-58.556	0.101
392.300	-62.518	0.101
392.400	-42.730	0.101
392.500	-54.663	0.101
392.600	-67.028	0.101
392.700	-54.205	0.101
392.800	-62.851	0.101
392.900	-67.126	0.101
393.000	-64.074	0.101
393.100	-68.599	0.101
393.200	-44.212	0.101
393.300	-62.502	0.101
393.400	-56.179	0.101
393.500	-41.476	0.101
393.600	-65.280	0.101
393.700	-45.308	0.101
393.800	-70.196	0.101
393.900	-62.581	0.101
394.000	-57.654	0.101
394.100	-52.071	0.101
394.200	-76.813	0.101
394.300	-55.315	0.101
394.400	-61.026	0.101
394.500	-53.760	0.101
394.600	-84.389	0.101
394.700	-57.999	0.101
394.800	-62.687	0.101
394.900	-57.366	0.101
395.000	-69.180	0.101
395.100	-63.758	0.101
395.200	-59.419	0.101
395.300	-61.177	0.101
395.400	-52.093	0.101
395.500	-62.976	0.101
395.600	-64.982	0.101
395.700	-37.954	0.101
395.800	-43.917	0.101
395.900	-41.004	0.101
396.000	-58.433	0.101
396.100	-50.309	0.101
396.200	-50.695	0.101
396.300	-64.712	0.101
396.400	-52.513	0.101
396.500	-53.173	0.101
396.600	-40.696	0.101
396.700	-48.275	0.101
396.800	-37.930	0.101
396.900	-43.718	0.101
397.000	-34.922	0.101
397.100	-58.119	0.101
397.200	-52.402	0.101
397.300	-45.426	0.101
397.400	-35.947	0.101
397.500	-54.044	0.101
397.600	-32.918	0.101
397.700	-41.744	0.101
397.800	-35.944	0.101
397.900	-52.237	0.101
398.000	-54.878	0.101
398.100	-37.477	0.101
398.200	-33.840	0.101
398.300	-27.293	0.101
398.400	-37.233	0.101
398.500	-32.830	0.101
398.600	-41.630	0.101
398.700	-44.354	0.101
398.800	-44.618	0.101
398.900	-34.245	0.101
399.000	-34.316	0.101
399.100	-34.139	0.101
399.200	-31.410	0.101
399.300	-44.167	0.101
399.400	-28.325	0.101
399.500	-32.142	0.101
399.600	-38.648	0.100
399.700	-26.900	0.100
399.800	-28.071	0.100
399.900	-31.709	0.100
400.000	-28.979	0.100
400.100	-30.156	0.100
400.200	-44.408	0.100
400.300	-33.454	0.100
400.400	-29.342	0.100
400.500	-28.883	0.100
400.600	-11.286	0.100
400.700	-34.486	0.100
400.800	-29.140	0.100
400.900	-26.153	0.100
401.000	-31.934	0.100
401.100	-33.750	0.100
401.200	-31.918	0.100
401.300	-21.556	0.100
401.400	-34.937	0.100
401.500	-32.433	0.100
401.600	-28.719	0.100
401.700	-24.191	0.100
401.800	-11.088	0.100
401.900	-46.952	0.100
402.000	-13.162	0.100
402.100	-9.708	0.100
402.200	-23.462	0.100
402.300	-21.898	0.100
402.400	-22.700	0.100
402.500	-17.212	0.100
402.600	-25.055	0.100
402.700	-33.136	0.100
402.800	-26.306	0.100
402.900	-26.555	0.100
403.000	-22.811	0.100
403.100	-17.294	0.100
403.200	-22.045	0.100
403.300	-3.481	0.100
403.400	-19.162	0.100
403.500	-26.111	0.100
403.600	-26.127	0.100
403.700	-24.912	0.100
403.800	-20.964	0.100
403.900	-22.592	0.100
404.000	-17.848	0.100
404.100	-45.755	0.100
404.200	-20.956	0.100
404.300	-28.806	0.100
404.400	-23.429	0.100
404.500	-30.158	0.100
404.600	-23.823	0.100
404.700	-28.716	0.100
404.800	-32.158	0.100
404.900	-29.313	0.100
405.000	-18.024	0.100
405.100	-16.414	0.100
405.200	-13.417	0.100
405.300	-25.734	0.100
405.400	-27.687	0.100
405.500	-22.402	0.100
405.600	-24.766	0.100
405.700	-15.374	0.100
405.800	-28.434	0.100
405.900	-25.878	0.100
406.000	-23.179	0.100
406.100	-30.850	0.100
406.200	-21.624	0.100
406.300	-27.632	0.100
406.400	-37.961	0.100
406.500	-19.370	0.100
406.600	3.303	0.100
406.700	-25.941	0.100
406.800	-28.344	0.100
406.900	-15.572	0.100
407.000	-21.636	0.100
407.100	-23.566	0.100
407.200	-19.113	0.100
407.300	-42.616	0.100
407.400	-19.762	0.100
407.500	-19.032	0.100
407.600	-6.175	0.100
407.700	-25.811	0.100
407.800	-18.096	0.100
407.900	-3.331	0.100
408.000	-31.339	0.100
408.100	-15.386	0.100
408.200	-36.715	0.100
408.300	0.666	0.100
408.400	-20.585	0.100
408.500	-4.195	0.100
408.600	-20.727	0.100
408.700	-10.820	0.100
408.800	-26.240	0.100
408.900	-2.713	0.100
409.000	-28.377	0.100
409.100	-42.613	0.100
409.200	-29.853	0.100
409.300	-3.506	0.100
409.400	-21.709	0.100
409.500	-27.070	0.100
409.600	-30.029	0.100
409.700	-34.846	0.100
409.800	-11.756	0.100
409.900	-23.961	0.100
410.000	-13.013	0.100
410.100	-27.231	0.100
410.200	-20.625	0.100
410.300	-39.356	0.100
410.400	-14.656	0.100
410.500	-19.994	0.100
410.600	-22.172	0.100
410.700	-15.201	0.100
410.800	-13.096	0.100
410.900	-22.047	0.100
411.000	-15.165	0.100
411.100	-10.240	0.100
411.200	-36.151	0.100
411.300	-22.950	0.100
411.400	-32.137	0.100
411.500	-17.162	0.100
411.600	-22.472	0.100
411.700	-11.941	0.100
411.800	-33.718	0.100
411.900	-25.333	0.100
412.000	-32.181	0.100
412.100	-31.777	0.100
412.200	-4.403	0.100
412.300	-32.643	0.100
412.400	-33.281	0.100
412.500	-17.476	0.100
412.600	-22.173	0.100
412.700	-13.509	0.100
412.800	-6.863	0.100
412.900	-8.883	0.100
413.000	-18.491	0.100
413.100	-24.025	0.100
413.200	-28.952	0.100
413.300	-36.623	0.100
413.400	-2.565	0.100
413.500	-19.085	0.100
413.600	-25.296	0.100
413.700	-16.801	0.100
413.800	-22.495	0.100
413.900	-16.141	0.100
414.000	-25.774	0.100
414.100	-27.891	0.100
414.200	-38.369	0.100
414.300	-22.211	0.100
414.400	-25.491	0.100
414.500	-28.102	0.100
414.600	-10.105	0.100
414.700	-40.169	0.100
414.800	-17.371	0.100
414.900	-8.656	0.100
415.000	-17.663	0.100
415.100	-20.134	0.100
415.200	-6.952	0.100
415.300	-20.967	0.100
415.400	-24.424	0.100
415.500	-17.099	0.100
415.600	-26.021	0.100
415.700	-28.216	0.100
415.800	-30.995	0.100
415.900	-24.946	0.100
416.000	-22.620	0.100
416.100	-21.994	0.100
416.200	-29.595	0.100
416.300	1.917	0.100
416.400	-18.552	0.100
416.500	-24.930	0.100
416.600	-6.018	0.100
416.700	-31.350	0.100
416.800	-42.947	0.100
416.900	-28.513	0.100
417.000	-23.419	0.100
417.100	-16.563	0.100
417.200	-20.961	0.100
417.300	-9.880	0.100
417.400	-17.362	0.100
417.500	-18.973	0.100
417.600	-24.261	0.100
417.700	-31.754	0.100
417.800	-17.339	0.100
417.900	-20.407	0.100
418.000	-25.062	0.100
418.100	-23.765	0.100
418.200	-13.549	0.100
418.300	-22.701	0.100
418.400	-35.152	0.100
418.500	-19.173	0.100
418.600	-25.977	0.100
418.700	-22.337	0.100
418.800	-16.505	0.100
418.900	-14.870	0.100
419.000	-25.465	0.100
419.100	-20.694	0.100
419.200	-20.700	0.100
419.300	-25.263	0.100
419.400	-26.933	0.100
419.500	-0.640	0.100
419.600	-32.194	0.100
419.700	-16.235	0.100
419.800	-26.087	0.100
419.900	-24.203	0.100
420.000	-18.727	0.100
420.100	-23.016	0.100
420.200	-15.508	0.100
420.300	-34.842	0.100
420.400	-20.398	0.100
420.500	-35.722	0.100
420.600	-23.452	0.100
420.700	-16.120	0.100
420.800	-19.583	0.100
420.900	-26.964	0.100
421.000	-18.164	0.100
421.100	-17.678	0.100
421.200	-32.287	0.100
421.300	-14.918	0.100
421.400	-31.085	0.100
421.500	-33.211	0.100
421.600	-18.381	0.100
421.700	-8.416	0.100
421.800	-36.617	0.100
421.900	-30.447	0.100
422.000	-12.329	0.100
422.100	-20.014	0.100
422.200	-16.222	0.100
422.300	-32.661	0.100
422.400	-29.616	0.100
422.500	-13.447	0.100
422.600	-22.223	0.100
422.700	-45.883	0.100
422.800	-21.420	0.100
422.900	-24.192	0.100
423.000	-11.730	0.100
423.100	-21.862	0.100
423.200	-1.252	0.100
423.300	-27.997	0.100
423.400	-23.266	0.100
423.500	-12.995	0.100
423.600	-4.645	0.100
423.700	-42.169	0.100
423.800	-15.012	0.100
423.900	-20.113	0.100
424.000	-5.861	0.100
424.100	-32.692	0.100
424.200	-19.271	0.100
424.300	-26.222	0.100
424.400	-1.586	0.100
424.500	-19.551	0.100
424.600	-12.388	0.100
424.700	-29.010	0.100
424.800	-13.041	0.100
424.900	-25.851	0.100
425.000	-13.265	0.100
425.100	-26.267	0.100
425.200	-17.356	0.100
425.300	-19.147	0.100
425.400	-31.997	0.100
425.500	-23.829	0.100
425.600	-14.059	0.100
425.700	-28.880	0.100
425.800	-15.279	0.100
425.900	-23.555	0.100
426.000	-21.980	0.100
426.100	-14.845	0.100
426.200	-16.241	0.100
426.300	-28.109	0.100
426.400	-29.065	0.100
426.500	-32.109	0.100
426.600	-38.326	0.100
426.700	-18.274	0.100
426.800	-34.074	0.100
426.900	-10.416	0.100
427.000	-13.778	0.100
427.100	-15.765	0.100
427.200	-19.723	0.100
427.300	-20.523	0.100
427.400	-14.828	0.100
427.500	-29.583	0.100
427.600	-23.891	0.100
427.700	-14.210	0.100
427.800	-18.273	0.100
427.900	-31.906	0.100
428.000	-10.260	0.100
428.100	-7.428	0.100
428.200	-22.256	0.100
428.300	-18.496	0.100
428.400	-26.844	0.100
428.500	-14.840	0.100
428.600	-26.530	0.100
428.700	-29.564	0.100
428.800	-20.691	0.100
428.900	-25.973	0.100
429.000	-6.831	0.100
429.100	-27.440	0.100
429.200	-33.272	0.100
429.300	-46.181	0.100
429.400	-18.142	0.100
429.500	-28.672	0.100
429.600	-33.242	0.100
429.700	-26.835	0.100
429.800	-14.995	0.100
429.900	-36.090	0.100
430.000	-11.929	0.100
430.100	-17.740	0.100
430.200	-24.633	0.100
430.300	-18.600	0.100
430.400	-41.535	0.100
430.500	-10.152	0.100
430.600	-25.076	0.100
430.700	-12.135	0.100
430.800	-37.054	0.100
430.900	-24.889	0.100
431.000	-9.088	0.100
431.100	-32.413	0.100
431.200	-34.363	0.100
431.300	-36.155	0.100
431.400	-33.734	0.100
431.500	-30.023	0.100
431.600	-13.815	0.100
431.700	-19.416	0.100
431.800	-11.891	0.100
431.900	-9.854	0.100
432.000	-24.203	0.100
432.100	-16.191	0.100
432.200	0.099	0.100
432.300	-22.416	0.100
432.400	-13.483	0.100
432.500	-19.009	0.100
432.600	-12.882	0.100
432.700	-19.894	0.100
432.800	-16.108	0.100
432.900	-19.130	0.100
433.000	-9.980	0.100
433.100	-33.034	0.100
433.200	-9.154	0.100
433.300	-0.360	0.100
433.400	-17.734	0.100
433.500	-26.048	0.100
433.600	-7.001	0.100
433.700	-24.109	0.100
433.800	-33.157	0.100
433.900	-15.128	0.100
434.000	-21.705	0.100
434.100	-28.089	0.100
434.200	-21.588	0.100
434.300	-17.438	0.100
434.400	-22.362	0.100
434.500	-21.643	0.100
434.600	-7.052	0.100
434.700	-14.892	0.100
434.800	-19.339	0.100
434.900	-14.155	0.100
435.000	-2.124	0.100
435.100	-17.777	0.100
435.200	-28.811	0.100
435.300	-16.212	0.100
435.400	-13.453	0.100
435.500	-17.427	0.100
435.600	-26.349	0.100
435.700	-22.104	0.100
435.800	-17.072	0.100
435.900	-19.720	0.100
436.000	-23.626	0.100
436.100	-17.692	0.100
436.200	-25.318	0.100
436.300	-31.607	0.100
436.400	-15.774	0.100
436.500	-1.580	0.100
436.600	-14.310	0.100
436.700	-25.239	0.100
436.800	-20.036	0.100
436.900	-30.581	0.100
437.000	-23.568	0.100
437.100	-13.749	0.100
437.200	-35.396	0.100
437.300	-9.489	0.100
437.400	-14.407	0.100
437.500	-27.307	0.100
437.600	-5.243	0.100
437.700	-19.177	0.100
437.800	-9.587	0.100
437.900	3.387	0.100
438.000	-10.603	0.100
438.100	-3.455	0.100
438.200	-11.390	0.100
438.300	-29.082	0.100
438.400	-20.595	0.100
438.500	-10.886	0.100
438.600	-26.040	0.100
438.700	-11.832	0.100
438.800	-3.539	0.100
438.900	-25.783	0.100
439.000	-16.162	0.100
439.100	-6.650	0.100
439.200	-34.932	0.100
439.300	-9.598	0.100
439.400	-21.218	0.100
439.500	-9.187	0.100
439.600	-21.532	0.100
439.700	-19.397	0.100
439.800	-25.967	0.100
439.900	-22.669	0.100
440.000	-25.070	0.100
440.100	-14.700	0.100
440.200	-19.379	0.100
440.300	-20.838	0.100
440.400	-29.222	0.100
440.500	-11.459	0.100
440.600	-11.308	0.100
440.700	-18.521	0.100
440.800	-17.432	0.100
440.900	-21.533	0.100
441.000	-17.511	0.100
441.100	-14.417	0.100
441.200	-16.547	0.100
441.300	-29.178	0.100
441.400	-27.370	0.100
441.500	-1.997	0.100
441.600	-31.648	0.100
441.700	-20.608	0.100
441.800	-9.806	0.100
441.900	-12.948	0.100
442.000	-19.629	0.100
442.100	11.631	0.100
442.200	-34.592	0.100
442.300	-15.791	0.100
442.400	-11.148	0.100
442.500	-19.297	0.100
442.600	-28.323	0.100
442.700	-4.188	0.100
442.800	-18.746	0.100
442.900	-20.883	0.100
443.000	-7.578	0.100
443.100	-22.986	0.100
443.200	-27.497	0.100
443.300	-22.085	0.100
443.400	-21.916	0.100
443.500	-20.501	0.100
443.600	-16.919	0.100
443.700	-21.441	0.100
443.800	-32.137	0.100
443.900	2.648	0.100
444.000	-16.108	0.100
444.100	-19.618	0.100
444.200	-4.280	0.100
444.300	-18.286	0.100
444.400	-14.365	0.100
444.500	-12.865	0.100
444.600	-33.778	0.100
444.700	-2.722	0.100
444.800	-19.172	0.100
444.900	4.373	0.100
445.000	-29.377	0.100
445.100	-7.553	0.100
445.200	-17.791	0.100
445.300	-9.362	0.100
445.400	-14.025	0.100
445.500	-6.419	0.100
445.600	-21.032	0.100
445.700	-11.872	0.100
445.800	-15.788	0.100
445.900	-9.269	0.100
446.000	-23.444	0.100
446.100	-16.952	0.100
446.200	-8.352	0.100
446.300	-10.349	0.100
446.400	-11.677	0.100
446.500	-5.890	0.100
446.600	-28.482	0.100
446.700	-13.132	0.100
446.800	9.553	0.100
446.900	-13.327	0.100
447.000	4.898	0.100
447.100	-8.426	0.100
447.200	-31.524	0.100
447.300	-6.339	0.100
447.400	-30.914	0.100
447.500	-8.513	0.100
447.600	1.910	0.100
447.700	-20.164	0.100
447.800	-23.720	0.100
447.900	-29.080	0.100
448.000	-14.303	0.100
448.100	7.720	0.100
448.200	-13.965	0.100
448.300	-4.661	0.100
448.400	-2.960	0.100
448.500	-25.023	0.100
448.600	-32.177	0.100
448.700	-8.422	0.100
448.800	-33.327	0.100
448.900	-22.873	0.100
449.000	-12.542	0.100
449.100	-21.117	0.100
449.200	-4.103	0.100
449.300	1.072	0.100
449.400	-32.895	0.100
449.500	-7.625	0.100
449.600	-19.789	0.100
449.700	-11.546	0.100
449.800	-11.949	0.100
449.900	-12.814	0.100
450.000	-14.555	0.100
450.100	-8.558	0.100
450.200	-23.253	0.100
450.300	2.254	0.100
450.400	-23.214	0.100
450.500	-23.074	0.100
450.600	0.569	0.100
450.700	-21.136	0.100
450.800	-12.795	0.100
450.900	-17.778	0.100
451.000	-18.947	0.100
451.100	-21.150	0.100
451.200	-1.067	0.100
451.300	-12.266	0.100
451.400	-5.630	0.100
451.500	-17.657	0.100
451.600	-17.418	0.100
451.700	-0.123	0.100
451.800	-33.460	0.100
451.900	-16.070	0.100
452.000	-7.927	0.100
452.100	-20.769	0.100
452.200	-4.986	0.100
452.300	-19.414	0.100
452.400	-5.287	0.100
452.500	-18.784	0.100
452.600	-10.633	0.100
452.700	-15.763	0.100
452.800	-9.877	0.100
452.900	-7.528	0.100
453.000	-5.764	0.100
453.100	-10.491	0.100
453.200	-10.808	0.100
453.300	-35.394	0.100
453.400	-11.772	0.100
453.500	-11.752	0.100
453.600	1.934	0.100
453.700	-10.030	0.100
453.800	-10.559	0.100
453.900	-19.161	0.100
454.000	-19.009	0.100
454.100	-9.277	0.100
454.200	-12.001	0.100
454.300	-11.139	0.100
454.400	-23.478	0.100
454.500	-18.209	0.100
454.600	-26.188	0.100
454.700	-8.992	0.100
454.800	-8.207	0.100
454.900	-5.986	0.100
455.000	-12.118	0.100
455.100	-30.049	0.100
455.200	-10.730	0.100
455.300	-4.345	0.100
455.400	-11.348	0.100
455.500	-8.180	0.100
455.600	-12.778	0.100
455.700	-7.709	0.100
455.800	-13.315	0.100
455.900	-9.757	0.100
456.000	-33.567	0.100
456.100	-20.132	0.100
456.200	-14.323	0.100
456.300	3.456	0.100
456.400	-0.990	0.100
456.500	-17.387	0.100
456.600	-10.232	0.100
456.700	-9.747	0.100
456.800	-24.124	0.100
456.900	2.342	0.100
457.000	-18.567	0.100
457.100	-9.763	0.100
457.200	-7.238	0.100
457.300	-8.468	0.100
457.400	-11.305	0.100
457.500	-17.202	0.100
457.600	-25.992	0.100
457.700	-13.927	0.100
457.800	-6.298	0.100
457.900	-17.871	0.100
458.000	5.222	0.100
458.100	-23.033	0.100
458.200	-11.025	0.100
458.300	-18.748	0.100
458.400	-4.188	0.100
458.500	-7.521	0.100
458.600	-16.366	0.100
458.700	-2.585	0.100
458.800	-27.393	0.100
458.900	-4.377	0.100
459.000	-16.103	0.100
459.100	2.190	0.100
459.200	-2.700	0.100
459.300	-15.745	0.100
459.400	-28.553	0.100
459.500	6.746	0.100
459.600	-3.648	0.100
459.700	-16.392	0.100
459.800	-20.859	0.100
459.900	-20.586	0.100
460.000	6.705	0.100
460.100	-26.145	0.100
460.200	-16.219	0.100
460.300	-16.406	0.100
460.400	-4.781	0.100
460.500	-10.970	0.100
460.600	-25.004	0.100
460.700	-14.256	0.100
460.800	-3.250	0.100
460.900	-16.408	0.100
461.000	-16.289	0.100
461.100	-4.886	0.100
461.200	-9.018	0.100
461.300	4.046	0.100
461.400	-25.797	0.100
461.500	-4.766	0.100
461.600	-7.831	0.100
461.700	-17.076	0.100
461.800	-16.361	0.100
461.900	-11.558	0.100
462.000	-10.126	0.100
462.100	-23.394	0.100
462.200	-17.116	0.100
462.300	-1.847	0.100
462.400	-14.563	0.100
462.500	-14.131	0.100
462.600	-17.166	0.100
462.700	-15.189	0.100
462.800	0.967	0.100
462.900	-2.490	0.100
463.000	-0.374	0.100
463.100	-13.646	0.100
463.200	-13.015	0.100
463.300	-1.940	0.100
463.400	-4.403	0.100
463.500	-11.422	0.100
463.600	3.011	0.100
463.700	-22.343	0.100
463.800	-11.451	0.100
463.900	-19.742	0.100
464.000	-2.154	0.100
464.100	-17.590	0.100
464.200	-3.017	0.100
464.300	-22.198	0.100
464.400	-24.108	0.100
464.500	-18.326	0.100
464.600	-25.551	0.100
464.700	-19.808	0.100
464.800	-12.275	0.100
464.900	5.243	0.100
465.000	-3.176	0.100
465.100	-23.556	0.100
465.200	-3.013	0.100
465.300	-14.282	0.100
465.400	-9.464	0.100
465.500	-0.447	0.100
465.600	-14.380	0.100
465.700	-12.684	0.100
465.800	-12.779	0.100
465.900	-17.243	0.100
466.000	-21.122	0.100
466.100	3.275	0.100
466.200	-22.051	0.100
466.300	-8.897	0.100
466.400	-2.064	0.100
466.500	-4.672	0.100
466.600	-19.749	0.100
466.700	-19.625	0.100
466.800	0.524	0.100
466.900	2.095	0.100
467.000	-18.051	0.100
467.100	-3.710	0.100
467.200	-10.121	0.100
467.300	-0.509	0.100
467.400	-9.349	0.100
467.500	-36.960	0.100
467.600	-27.709	0.100
467.700	-3.625	0.100
467.800	-10.972	0.100
467.900	-2.936	0.100
468.000	-23.702	0.100
468.100	-18.149	0.100
468.200	-2.926	0.100
468.300	-12.023	0.100
468.400	-18.115	0.100
468.500	-3.317	0.100
468.600	-9.096	0.100
468.700	-21.944	0.100
468.800	-10.903	0.100
468.900	-12.364	0.100
469.000	-5.338	0.100
469.100	-12.960	0.100
469.200	-5.289	0.100
469.300	-18.617	0.100
469.400	14.252	0.100
469.500	-10.556	0.100
469.600	-12.526	0.100
469.700	-18.064	0.100
469.800	-21.824	0.100
469.900	-4.065	0.100
470.000	-10.978	0.100
470.100	-9.545	0.100
470.200	-16.265	0.100
470.300	-9.126	0.100
470.400	4.620	0.100
470.500	-14.533	0.100
470.600	-18.354	0.100
470.700	-15.029	0.100
470.800	-12.878	0.100
470.900	-8.318	0.100
471.000	-15.096	0.100
471.100	-14.499	0.100
471.200	-14.814	0.100
471.300	-4.203	0.100
471.400	-15.336	0.100
471.500	-7.333	0.100
471.600	-3.477	0.100
471.700	-27.380	0.100
471.800	8.938	0.100
471.900	-24.696	0.100
472.000	-19.647	0.100
472.100	-10.792	0.100
472.200	-8.735	0.100
472.300	-16.327	0.100
472.400	0.347	0.100
472.500	-6.080	0.100
472.600	-23.531	0.100
472.700	4.518	0.100
472.800	-7.368	0.100
472.900	-4.130	0.100
473.000	2.220	0.100
473.100	-25.586	0.100
473.200	-14.389	0.100
473.300	-8.480	0.100
473.400	-18.514	0.100
473.500	-14.615	0.100
473.600	-17.256	0.100
473.700	1.238	0.100
473.800	-3.168	0.100
473.900	0.161	0.100
474.000	-15.637	0.100
474.100	-10.962	0.100
474.200	-2.567	0.100
474.300	-20.658	0.100
474.400	-16.997	0.100
474.500	-21.368	0.100
474.600	-8.162	0.100
474.700	-3.817	0.100
474.800	-7.855	0.100
474.900	-15.935	0.100
475.000	-7.785	0.100
475.100	4.955	0.100
475.200	-23.503	0.100
475.300	-21.228	0.100
475.400	1.043	0.100
475.500	-38.818	0.100
475.600	-3.871	0.100
475.700	-15.597	0.100
475.800	-15.978	0.100
475.900	-4.381	0.100
476.000	-12.699	0.100
476.100	-8.022	0.100
476.200	-10.324	0.100
476.300	-15.406	0.100
476.400	-17.468	0.100
476.500	4.935	0.100
476.600	-9.714	0.100
476.700	-10.369	0.100
476.800	-4.104	0.100
476.900	-13.381	0.100
477.000	-3.125	0.100
477.100	-24.015	0.100
477.200	-6.177	0.100
477.300	-8.268	0.100
477.400	-5.982	0.100
477.500	-7.003	0.100
477.600	-11.869	0.100
477.700	-8.723	0.100
477.800	-8.680	0.100
477.900	-8.197	0.100
478.000	0.193	0.100
478.100	-8.411	0.100
478.200	-19.591	0.100
478.300	-8.639	0.100
478.400	-15.631	0.100
478.500	-15.777	0.100
478.600	-12.837	0.100
478.700	-27.172	0.100
478.800	-13.081	0.100
478.900	-16.095	0.100
479.000	-6.570	0.100
479.100	5.217	0.100
479.200	1.302	0.100
479.300	-19.616	0.100
479.400	-11.765	0.100
479.500	-10.197	0.100
479.600	2.298	0.100
479.700	-20.113	0.100
479.800	-15.203	0.100
479.900	-13.507	0.100
480.000	-10.785	0.100
480.100	2.363	0.100
480.200	21.832	0.100
480.300	-4.055	0.100
480.400	-12.668	0.100
480.500	0.228	0.100
480.600	4.448	0.100
480.700	-3.643	0.100
480.800	12.818	0.100
480.900	15.337	0.100
481.000	9.212	0.100
481.100	16.470	0.100
481.200	38.129	0.100
481.300	22.046	0.100
481.400	31.535	0.100
481.500	33.393	0.100
481.600	42.158	0.100
481.700	34.687	0.100
481.800	43.246	0.100
481.900	41.742	0.100
482.000	27.958	0.100
482.100	23.214	0.100
482.200	47.024	0.100
482.300	28.462	0.100
482.400	51.106	0.100
482.500	39.105	0.100
482.600	33.667	0.100
482.700	36.117	0.100
482.800	40.780	0.100
482.900	40.562	0.100
483.000	39.457	0.100
483.100	32.187	0.100
483.200	53.327	0.100
483.300	46.792	0.100
483.400	40.947	0.100
483.500	40.856	0.100
483.600	46.226	0.100
483.700	26.833	0.100
483.800	35.660	0.100
483.900	47.892	0.100
484.000	25.760	0.100
484.100	41.270	0.100
484.200	47.528	0.100
484.300	32.102	0.100
484.400	40.811	0.100
484.500	29.303	0.100
484.600	18.008	0.100
484.700	42.503	0.100
484.800	39.590	0.100
484.900	27.506	0.100
485.000	33.133	0.100
485.100	24.079	0.100
485.200	41.727	0.100
485.300	20.297	0.100
485.400	24.970	0.100
485.500	35.126	0.100
485.600	29.076	0.100
485.700	41.816	0.100
485.800	25.108	0.100
485.900	21.922	0.100
486.000	25.493	0.100
486.100	42.503	0.100
486.200	30.701	0.100
486.300	16.928	0.100
486.400	29.925	0.100
486.500	19.303	0.100
486.600	27.411	0.100
486.700	43.994	0.100
486.800	33.888	0.100
486.900	22.253	0.100
487.000	50.022	0.100
487.100	5.835	0.100
487.200	28.009	0.100
487.300	33.103	0.100
487.400	23.476	0.100
487.500	13.632	0.100
487.600	19.629	0.100
487.700	31.628	0.100
487.800	24.571	0.100
487.900	24.090	0.100
488.000	16.729	0.100
488.100	27.997	0.100
488.200	22.426	0.100
488.300	30.741	0.100
488.400	26.643	0.100
488.500	38.941	0.100
488.600	18.283	0.100
488.700	22.177	0.100
488.800	16.797	0.100
488.900	37.278	0.100
489.000	32.027	0.100
489.100	42.848	0.100
489.200	25.719	0.100
489.300	35.204	0.100
489.400	27.698	0.100
489.500	36.238	0.100
489.600	34.922	0.100
489.700	38.823	0.100
489.800	18.831	0.100
489.900	30.840	0.100
490.000	19.206	0.100
490.100	43.606	0.100
490.200	37.067	0.100
490.300	45.437	0.100
490.400	19.946	0.100
490.500	21.108	0.100
490.600	40.249	0.100
490.700	26.993	0.100
490.800	29.924	0.100
490.900	44.768	0.100
491.000	40.466	0.100
491.100	37.977	0.100
491.200	50.480	0.100
491.300	38.382	0.100
491.400	37.988	0.100
491.500	29.009	0.100
491.600	45.888	0.100
491.700	37.632	0.100
491.800	39.228	0.100
491.900	32.999	0.100
492.000	31.803	0.100
492.100	33.546	0.100
492.200	55.746	0.100
492.300	35.695	0.100
492.400	54.807	0.100
492.500	36.792	0.100
492.600	55.931	0.100
492.700	61.819	0.100
492.800	45.758	0.100
492.900	45.162	0.100
493.000	50.847	0.100
493.100	53.784	0.100
493.200	56.825	0.100
493.300	41.455	0.100
493.400	47.529	0.100
493.500	46.373	0.100
493.600	42.189	0.100
493.700	58.067	0.100
493.800	50.255	0.100
493.900	44.694	0.100
494.000	56.950	0.100
494.100	53.578	0.100
494.200	54.947	0.100
494.300	51.156	0.100
494.400	60.162	0.100
494.500	63.516	0.100
494.600	65.379	0.100
494.700	60.652	0.100
494.800	66.508	0.100
494.900	47.280	0.100
495.000	60.085	0.100
495.100	53.304	0.100
495.200	70.704	0.100
495.300	50.317	0.100
495.400	71.101	0.100
495.500	71.751	0.100
495.600	67.038	0.100
495.700	74.147	0.100
495.800	34.583	0.100
495.900	63.822	0.100
496.000	62.096	0.100
496.100	60.154	0.100
496.200	63.904	0.100
496.300	56.590	0.100
496.400	58.753	0.100
496.500	74.496	0.100
496.600	68.016	0.100
496.700	68.315	0.100
496.800	76.308	0.100
496.900	65.401	0.100
497.000	64.304	0.100
497.100	63.205	0.100
497.200	61.892	0.100
497.300	58.703	0.100
497.400	64.787	0.100
497.500	74.182	0.100
497.600	77.131	0.100
497.700	54.501	0.100
497.800	60.502	0.100
497.900	78.349	0.100
498.000	68.568	0.100
498.100	69.355	0.100
498.200	66.155	0.100
498.300	57.214	0.100
498.400	72.643	0.100
498.500	45.629	0.100
498.600	67.766	0.100
498.700	77.457	0.100
498.800	53.389	0.100
498.900	68.464	0.100
499.000	67.790	0.100
499.100	77.486	0.100
499.200	67.829	0.100
499.300	66.309	0.100
499.400	51.061	0.100
499.500	66.454	0.100
499.600	64.938	0.100
499.700	52.387	0.100
499.800	70.245	0.100
499.900	58.358	0.100
500.000	63.048	0.100
500.100	51.288	0.100
500.200	57.325	0.100
500.300	67.112	0.100
500.400	55.241	0.100
500.500	44.290	0.100
500.600	62.960	0.100
500.700	71.663	0.100
500.800	68.975	0.100
500.900	46.226	0.100
501.000	55.073	0.100
501.100	51.803	0.100
501.200	47.146	0.100
501.300	47.324	0.100
501.400	64.073	0.100
501.500	42.074	0.100
501.600	52.588	0.100
501.700	39.809	0.100
501.800	47.515	0.100
501.900	44.627	0.100
502.000	49.418	0.100
502.100	51.910	0.100
502.200	39.939	0.100
502.300	59.685	0.100
502.400	64.261	0.100
502.500	42.393	0.100
502.600	44.090	0.100
502.700	51.624	0.100
502.800	48.420	0.100
502.900	43.715	0.100
503.000	38.000	0.100
503.100	50.269	0.100
503.200	49.019	0.100
503.300	51.475	0.100
503.400	54.446	0.100
503.500	57.803	0.100
503.600	61.942	0.100
503.700	50.018	0.100
503.800	44.818	0.100
503.900	39.596	0.100
504.000	34.328	0.100
504.100	35.533	0.100
504.200	60.112	0.100
504.300	38.750	0.100
504.400	49.893	0.100
504.500	50.195	0.100
504.600	43.299	0.100
504.700	41.671	0.100
504.800	46.346	0.100
504.900	65.024	0.100
505.000	41.633	0.100
505.100	28.552	0.100
505.200	37.778	0.100
505.300	48.587	0.100
505.400	45.947	0.100
505.500	39.811	0.100
505.600	37.670	0.100
505.700	34.479	0.100
505.800	54.769	0.100
505.900	51.702	0.100
506.000	45.442	0.100
506.100	30.378	0.100
506.200	38.816	0.100
506.300	47.177	0.100
506.400	37.203	0.100
506.500	45.267	0.100
506.600	37.475	0.100
506.700	45.167	0.100
506.800	38.816	0.100
506.900	56.903	0.100
507.000	46.943	0.100
507.100	60.405	0.100
507.200	27.667	0.100
507.300	38.352	0.100
507.400	35.179	0.100
507.500	50.894	0.100
507.600	39.150	0.100
507.700	40.269	0.100
507.800	48.407	0.100
507.900	32.396	0.100
508.000	44.444	0.100
508.100	31.047	0.100
508.200	43.379	0.100
508.300	41.182	0.100
508.400	44.177	0.100
508.500	33.392	0.100
508.600	47.970	0.100
508.700	40.897	0.100
508.800	29.078	0.100
508.900	48.059	0.100
509.000	35.685	0.100
509.100	43.228	0.100
509.200	41.191	0.100
509.300	43.960	0.100
509.400	20.009	0.100
509.500	43.517	0.100
509.600	44.024	0.100
509.700	45.526	0.100
509.800	48.729	0.100
509.900	27.480	0.100
510.000	26.307	0.100
510.100	46.213	0.100
510.200	65.089	0.100
510.300	13.484	0.100
510.400	32.614	0.100
510.500	42.271	0.100
510.600	40.291	0.100
510.700	37.129	0.100
510.800	34.592	0.100
510.900	22.075	0.100
511.000	42.751	0.100
511.100	43.724	0.100
511.200	38.850	0.100
511.300	27.260	0.100
511.400	35.210	0.100
511.500	39.883	0.100
511.600	33.350	0.100
511.700	41.638	0.100
511.800	37.592	0.100
511.900	16.427	0.100
512.000	33.413	0.100
512.100	20.038	0.100
512.200	35.815	0.100
512.300	27.708	0.100
512.400	40.635	0.100
512.500	17.735	0.100
512.600	36.040	0.100
512.700	25.164	0.100
512.800	29.962	0.100
512.900	27.630	0.100
513.000	43.291	0.100
513.100	27.720	0.100
513.200	43.503	0.100
513.300	46.308	0.100
513.400	21.056	0.100
513.500	32.451	0.100
513.600	29.680	0.100
513.700	34.152	0.100
513.800	35.135	0.100
513.900	38.622	0.100
514.000	41.812	0.100
514.100	31.170	0.100
514.200	39.256	0.100
514.300	44.897	0.100
514.400	10.382	0.100
514.500	23.644	0.100
514.600	30.367	0.100
514.700	37.081	0.100
514.800	40.780	0.100
514.900	33.669	0.100
515.000	38.561	0.100
515.100	29.165	0.100
515.200	25.343	0.100
515.300	36.233	0.100
515.400	50.519	0.100
515.500	32.648	0.100
515.600	36.548	0.100
515.700	13.591	0.100
515.800	28.732	0.100
515.900	25.201	0.100
516.000	47.091	0.100
516.100	17.587	0.100
516.200	42.004	0.100
516.300	18.923	0.100
516.400	25.025	0.100
516.500	22.134	0.100
516.600	39.773	0.100
516.700	20.985	0.100
516.800	34.697	0.100
516.900	44.680	0.100
517.000	39.202	0.100
517.100	36.148	0.100
517.200	29.436	0.100
517.300	22.696	0.100
517.400	44.312	0.100
517.500	41.598	0.100
517.600	23.210	0.100
517.700	39.505	0.100
517.800	40.835	0.100
517.900	33.313	0.100
518.000	24.156	0.100
518.100	47.680	0.100
518.200	25.511	0.100
518.300	50.197	0.100
518.400	31.497	0.100
518.500	14.540	0.100
518.600	26.842	0.100
518.700	34.811	0.100
518.800	33.399	0.100
518.900	39.220	0.100
519.000	20.848	0.100
519.100	20.102	0.100
519.200	39.267	0.100
519.300	21.698	0.100
519.400	18.900	0.100
519.500	36.086	0.100
519.600	17.350	0.100
519.700	37.254	0.100
519.800	22.061	0.100
519.900	21.906	0.100
520.000	15.744	0.100
520.100	30.240	0.100
520.200	22.477	0.100
520.300	28.552	0.100
520.400	19.487	0.100
520.500	29.345	0.100
520.600	17.129	0.100
520.700	52.600	0.100
520.800	29.760	0.100
520.900	34.967	0.100
521.000	27.107	0.100
521.100	30.110	0.100
521.200	20.326	0.100
521.300	45.838	0.100
521.400	34.556	0.100
521.500	35.881	0.100
521.600	31.642	0.100
521.700	24.607	0.100
521.800	26.008	0.100
521.900	19.061	0.100
522.000	13.494	0.100
522.100	45.837	0.100
522.200	44.200	0.100
522.300	48.433	0.100
522.400	27.743	0.100
522.500	22.997	0.100
522.600	21.032	0.100
522.700	29.911	0.100
522.800	39.804	0.100
522.900	34.659	0.100
523.000	26.766	0.100
523.100	32.805	0.100
523.200	37.572	0.100
523.300	22.438	0.100
523.400	16.260	0.100
523.500	28.714	0.100
523.600	25.881	0.100
523.700	32.020	0.100
523.800	26.439	0.100
523.900	36.151	0.100
524.000	33.242	0.100
524.100	21.495	0.100
524.200	33.839	0.100
524.300	17.814	0.100
524.400	23.497	0.100
524.500	34.300	0.100
524.600	35.719	0.100
524.700	32.719	0.100
524.800	32.453	0.100
524.900	21.977	0.100
525.000	25.556	0.100
525.100	30.820	0.100
525.200	33.799	0.100
525.300	19.998	0.100
525.400	26.134	0.100
525.500	34.259	0.100
525.600	6.699	0.100
525.700	36.337	0.100
525.800	27.197	0.100
525.900	21.971	0.100
526.000	40.303	0.100
526.100	36.215	0.100
526.200	35.544	0.100
526.300	34.255	0.100
526.400	17.123	0.100
526.500	20.778	0.100
526.600	12.117	0.100
526.700	25.323	0.100
526.800	40.166	0.100
526.900	36.434	0.100
527.000	30.036	0.100
527.100	10.577	0.100
527.200	37.080	0.100
527.300	18.899	0.100
527.400	34.254	0.100
527.500	28.438	0.100
527.600	11.516	0.100
527.700	32.208	0.100
527.800	32.397	0.100
527.900	20.775	0.100
528.000	29.595	0.100
528.100	27.550	0.100
528.200	12.464	0.100
528.300	26.194	0.100
528.400	32.290	0.100
528.500	25.813	0.100
528.600	18.632	0.100
528.700	22.462	0.100
528.800	40.985	0.100
528.900	22.635	0.100
529.000	38.344	0.100
529.100	16.388	0.100
529.200	36.976	0.100
529.300	32.062	0.100
529.400	23.262	0.100
529.500	23.003	0.100
529.600	22.268	0.100
529.700	14.865	0.100
529.800	29.852	0.100
529.900	34.643	0.100
530.000	11.482	0.100
530.100	33.968	0.100
530.200	7.558	0.100
530.300	21.512	0.100
530.400	32.892	0.100
530.500	22.902	0.100
530.600	29.375	0.100
530.700	10.552	0.100
530.800	15.512	0.100
530.900	15.437	0.100
531.000	17.062	0.100
531.100	32.658	0.100
531.200	26.163	0.100
531.300	36.749	0.100
531.400	22.174	0.100
531.500	24.882	0.100
531.600	20.496	0.100
531.700	38.277	0.100
531.800	21.117	0.100
531.900	36.404	0.100
532.000	22.280	0.100
532.100	22.487	0.100
532.200	30.640	0.100
532.300	35.364	0.100
532.400	41.746	0.100
532.500	28.612	0.100
532.600	26.259	0.100
532.700	14.211	0.100
532.800	24.107	0.100
532.900	36.096	0.100
533.000	25.256	0.100
533.100	26.131	0.100
533.200	28.068	0.100
533.300	20.697	0.100
533.400	31.156	0.100
533.500	13.648	0.100
533.600	28.793	0.100
533.700	35.457	0.100
533.800	2.283	0.100
533.900	17.228	0.100
534.000	29.470	0.100
534.100	12.565	0.100
534.200	11.236	0.100
534.300	14.646	0.100
534.400	34.791	0.100
534.500	26.068	0.100
534.600	26.188	0.100
534.700	28.831	0.100
534.800	18.205	0.100
534.900	28.453	0.100
535.000	30.222	0.100
535.100	11.646	0.100
535.200	21.694	0.100
535.300	17.994	0.100
535.400	13.230	0.100
535.500	31.170	0.100
535.600	22.566	0.100
535.700	18.074	0.100
535.800	27.314	0.100
535.900	20.504	0.100
536.000	9.831	0.100
536.100	23.134	0.100
536.200	22.910	0.100
536.300	32.022	0.100
536.400	35.128	0.100
536.500	40.582	0.100
536.600	13.451	0.100
536.700	28.818	0.100
536.800	26.718	0.100
536.900	29.091	0.100
537.000	15.862	0.100
537.100	23.834	0.100
537.200	38.872	0.100
537.300	3.530	0.100
537.400	25.989	0.100
537.500	15.363	0.100
537.600	18.092	0.100
537.700	8.231	0.100
537.800	36.558	0.100
537.900	18.346	0.100
538.000	19.415	0.100
538.100	34.475	0.100
538.200	25.629	0.100
538.300	26.509	0.100
538.400	9.969	0.100
538.500	14.333	0.100
538.600	35.240	0.100
538.700	23.659	0.100
538.800	9.341	0.100
538.900	24.418	0.100
539.000	29.814	0.100
539.100	9.873	0.100
539.200	31.001	0.100
539.300	34.895	0.100
539.400	10.733	0.100
539.500	26.495	0.100
539.600	28.335	0.100
539.700	14.186	0.100
539.800	10.959	0.100
539.900	10.622	0.100
540.000	17.614	0.100
540.100	11.607	0.100
540.200	23.756	0.100
540.300	18.075	0.100
540.400	11.029	0.100
540.500	-2.463	0.100
540.600	-6.532	0.100
540.700	-19.619	0.100
540.800	-20.027	0.100
540.900	-23.904	0.100
541.000	-7.060	0.100
541.100	-32.586	0.100
541.200	-24.568	0.100
541.300	-37.289	0.100
541.400	-30.658	0.100
541.500	-23.413	0.100
541.600	-32.846	0.100
541.700	-51.580	0.100
541.800	-46.618	0.100
541.900	-51.669	0.100
542.000	-53.876	0.100
542.100	-55.649	0.100
542.200	-53.268	0.100
542.300	-33.933	0.100
542.400	-46.737	0.100
542.500	-61.723	0.100
542.600	-47.030	0.100
542.700	-63.283	0.100
542.800	-63.987	0.100
542.900	-61.939	0.100
543.000	-58.494	0.100
543.100	-65.986	0.100
543.200	-66.117	0.100
543.300	-61.695	0.100
543.400	-66.295	0.100
543.500	-73.327	0.100
543.600	-58.844	0.100
543.700	-55.658	0.100
543.800	-62.472	0.100
543.900	-72.706	0.100
544.000	-34.816	0.100
544.100	-68.749	0.100
544.200	-75.718	0.100
544.300	-54.230	0.100
544.400	-65.099	0.100
544.500	-67.226	0.100
544.600	-55.885	0.100
544.700	-61.722	0.100
544.800	-67.972	0.100
544.900	-54.283	0.100
545.000	-57.417	0.100
545.100	-45.234	0.100
545.200	-66.869	0.100
545.300	-68.682	0.100
545.400	-68.339	0.100
545.500	-55.652	0.100
545.600	-55.693	0.100
545.700	-57.097	0.100
545.800	-56.556	0.100
545.900	-62.450	0.100
546.000	-52.798	0.100
546.100	-53.024	0.100
546.200	-47.531	0.100
546.300	-66.723	0.100
546.400	-61.248	0.100
546.500	-49.252	0.100
546.600	-41.462	0.100
546.700	-67.982	0.100
546.800	-48.043	0.100
546.900	-53.600	0.100
547.000	-55.624	0.100
547.100	-47.000	0.100
547.200	-44.000	0.100
547.300	-48.036	0.100
547.400	-41.932	0.100
547.500	-46.965	0.100
547.600	-51.415	0.100
547.700	-49.853	0.100
547.800	-36.645	0.100
547.900	-45.885	0.100
548.000	-41.841	0.100
548.100	-30.690	0.100
548.200	-42.078	0.100
548.300	-48.093	0.100
548.400	-39.016	0.100
548.500	-38.936	0.100
548.600	-45.184	0.100
548.700	-42.296	0.100
548.800	-37.490	0.100
548.900	-44.449	0.100
549.000	-49.211	0.100
549.100	-35.543	0.100
549.200	-39.807	0.100
549.300	-41.555	0.100
549.400	-39.282	0.100
549.500	-48.085	0.100
549.600	-29.734	0.100
549.700	-37.014	0.100
549.800	-29.542	0.100
549.900	-36.394	0.100
550.000	-34.860	0.100
550.100	-40.835	0.100
550.200	-39.483	0.100
550.300	-25.627	0.100
550.400	-33.759	0.100
550.500	-33.668	0.100
550.600	-12.288	0.100
550.700	-34.749	0.100
550.800	-21.155	0.100
550.900	-26.833	0.100
551.000	-23.224	0.100
551.100	-30.226	0.100
551.200	-35.661	0.100
551.300	-22.075	0.100
551.400	-18.121	0.100
551.500	-26.716	0.100
551.600	-34.825	0.100
551.700	-19.408	0.100
551.800	-20.252	0.100
551.900	-12.145	0.100
552.000	-38.331	0.100
552.100	-23.570	0.100
552.200	-17.660	0.100
552.300	-30.090	0.100
552.400	-25.887	0.100
552.500	-20.034	0.100
552.600	-24.066	0.100
552.700	-18.346	0.100
552.800	-23.595	0.100
552.900	-10.478	0.100
553.000	-35.166	0.100
553.100	-45.011	0.100
553.200	-34.273	0.100
553.300	-24.734	0.100
553.400	-24.581	0.100
553.500	-19.396	0.100
553.600	-39.110	0.100
553.700	-16.326	0.100
553.800	-32.190	0.100
553.900	-25.622	0.100
554.000	-18.276	0.100
554.100	-20.794	0.100
554.200	-21.230	0.100
554.300	-17.311	0.100
554.400	-33.805	0.100
554.500	-25.704	0.100
554.600	-20.247	0.100
554.700	-15.644	0.100
554.800	-14.258	0.100
554.900	-32.683	0.100
555.000	-23.050	0.100
555.100	-23.723	0.100
555.200	-26.160	0.100
555.300	-21.436	0.100
555.400	-20.033	0.100
555.500	-21.766	0.100
555.600	-42.984	0.100
555.700	-23.121	0.100
555.800	-31.290	0.100
555.900	-9.390	0.100
556.000	-12.257	0.100
556.100	-24.933	0.100
556.200	-15.239	0.100
556.300	-17.873	0.100
556.400	-15.791	0.100
556.500	-35.504	0.100
556.600	-10.477	0.100
556.700	-6.775	0.100
556.800	-21.842	0.100
556.900	-21.533	0.100
557.000	-31.924	0.100
557.100	-29.354	0.100
557.200	-27.984	0.100
557.300	-19.030	0.100
557.400	-33.111	0.100
557.500	-19.177	0.100
557.600	-29.426	0.100
557.700	-29.326	0.100
557.800	-26.155	0.100
557.900	-18.969	0.100
558.000	-22.531	0.100
558.100	-28.317	0.100
558.200	-8.803	0.100
558.300	-38.037	0.100
558.400	-21.545	0.100
558.500	-9.606	0.100
558.600	-43.699	0.100
558.700	-26.074	0.100
558.800	-31.835	0.100
558.900	6.089	0.100
559.000	-23.510	0.100
559.100	-27.104	0.100
559.200	-23.267	0.100
559.300	-12.347	0.100
559.400	-25.661	0.100
559.500	-38.021	0.100
559.600	-30.791	0.100
559.700	-27.570	0.100
559.800	-15.814	0.100
559.900	-26.551	0.100
560.000	-13.677	0.100
560.100	-21.602	0.100
560.200	-27.319	0.100
560.300	-19.373	0.100
560.400	-17.747	0.100
560.500	-2.555	0.100
560.600	-21.756	0.100
560.700	-20.777	0.100
560.800	-32.268	0.100
560.900	-17.652	0.100
561.000	-17.973	0.100
561.100	-29.940	0.100
561.200	-23.621	0.100
561.300	-17.916	0.100
561.400	-20.677	0.100
561.500	-24.780	0.100
561.600	-29.455	0.100
561.700	-15.735	0.100
561.800	-19.126	0.100
561.900	-27.530	0.100
562.000	-30.486	0.100
562.100	-24.986	0.100
562.200	-24.949	0.100
562.300	-32.056	0.100
562.400	-39.593	0.100
562.500	-18.063	0.100
562.600	-6.041	0.100
562.700	-21.200	0.100
562.800	-29.861	0.100
562.900	-35.562	0.100
563.000	-23.489	0.100
563.100	-28.228	0.100
563.200	-39.938	0.100
563.300	-33.946	0.100
563.400	-21.484	0.100
563.500	-12.140	0.100
563.600	-24.473	0.100
563.700	-11.995	0.100
563.800	-26.321	0.100
563.900	-29.544	0.100
564.000	-27.936	0.100
564.100	-27.995	0.100
564.200	-19.219	0.100
564.300	-24.440	0.100
564.400	-27.330	0.100
564.500	-29.195	0.100
564.600	-25.379	0.100
564.700	-18.606	0.100
564.800	-42.490	0.100
564.900	-15.945	0.100
565.000	-19.210	0.100
565.100	-26.653	0.100
565.200	-37.932	0.100
565.300	-33.463	0.100
565.400	-16.900	0.100
565.500	-19.706	0.100
565.600	-33.784	0.100
565.700	-19.588	0.100
565.800	-22.624	0.100
565.900	-38.456	0.100
566.000	-6.130	0.100
566.100	-33.655	0.100
566.200	-33.464	0.100
566.300	-27.028	0.100
566.400	-21.290	0.100
566.500	-29.732	0.100
566.600	-24.291	0.100
566.700	-16.046	0.100
566.800	-25.780	0.100
566.900	-30.704	0.100
567.000	-23.909	0.100
567.100	-16.371	0.100
567.200	-20.871	0.100
567.300	-35.271	0.100
567.400	-25.684	0.100
567.500	-27.103	0.100
567.600	-17.758	0.100
567.700	-13.206	0.100
567.800	-29.228	0.100
567.900	-23.550	0.100
568.000	-26.806	0.100
568.100	-9.109	0.100
568.200	-24.601	0.100
568.300	-21.535	0.100
568.400	-40.836	0.100
568.500	-15.429	0.100
568.600	-4.076	0.100
568.700	-33.757	0.100
568.800	-17.152	0.100
568.900	-10.314	0.100
569.000	-26.930	0.100
569.100	-15.710	0.100
569.200	-6.053	0.100
569.300	-24.125	0.100
569.400	-13.042	0.100
569.500	-26.997	0.100
569.600	-24.136	0.100
569.700	-21.244	0.100
569.800	-38.027	0.100
569.900	-23.224	0.100
570.000	-27.255	0.100
570.100	-18.575	0.100
570.200	-6.672	0.100
570.300	-25.893	0.100
570.400	-30.162	0.100
570.500	-25.747	0.100
570.600	-22.222	0.100
570.700	-6.440	0.100
570.800	-22.444	0.100
570.900	-33.673	0.100
571.000	-11.504	0.100
571.100	-15.690	0.100
571.200	-25.439	0.100
571.300	-18.455	0.100
571.400	-1.129	0.100
571.500	-18.740	0.100
571.600	-44.743	0.100
571.700	-14.942	0.100
571.800	-16.802	0.100
571.900	-18.348	0.100
572.000	-33.568	0.100
572.100	-22.249	0.100
572.200	-28.539	0.100
572.300	-13.602	0.100
572.400	-36.066	0.100
572.500	-20.470	0.100
572.600	-27.698	0.100
572.700	-39.049	0.100
572.800	-19.454	0.100
572.900	-23.552	0.100
573.000	-14.851	0.100
573.100	-25.665	0.100
573.200	-46.588	0.100
573.300	-29.863	0.100
573.400	-30.610	0.100
573.500	-14.942	0.100
573.600	-18.729	0.100
573.700	-14.074	0.100
573.800	-33.279	0.100
573.900	-20.556	0.100
574.000	-18.447	0.100
574.100	-23.253	0.100
574.200	-20.870	0.100
574.300	-13.873	0.100
574.400	-18.790	0.100
574.500	-42.480	0.100
574.600	-20.052	0.100
574.700	-23.930	0.100
574.800	-26.453	0.100
574.900	-35.334	0.100
575.000	-24.681	0.100
575.100	-19.738	0.100
575.200	-23.292	0.100
575.300	-16.713	0.100
575.400	-18.911	0.100
575.500	-14.420	0.100
575.600	-24.460	0.100
575.700	-29.353	0.100
575.800	-27.906	0.100
575.900	-25.501	0.100
576.000	-23.070	0.100
576.100	-20.504	0.100
576.200	-3.977	0.100
576.300	-16.894	0.100
576.400	-8.786	0.100
576.500	-35.917	0.100
576.600	-11.838	0.100
576.700	-11.932	0.100
576.800	-20.954	0.100
576.900	-14.792	0.100
577.000	-15.551	0.100
577.100	-7.897	0.100
577.200	-25.898	0.100
577.300	2.208	0.100
577.400	-31.128	0.100
577.500	-20.703	0.100
577.600	-14.538	0.100
577.700	-11.497	0.100
577.800	-43.242	0.100
577.900	-33.811	0.100
578.000	-18.553	0.100
578.100	-28.639	0.100
578.200	-22.310	0.100
578.300	-28.704	0.100
578.400	-4.914	0.100
578.500	-33.444	0.100
578.600	-16.086	0.100
578.700	-10.107	0.100
578.800	-15.653	0.100
578.900	-30.976	0.100
579.000	-25.702	0.100
579.100	-14.607	0.100
579.200	-28.427	0.100
579.300	-20.257	0.100
579.400	-40.689	0.100
579.500	-11.501	0.100
579.600	-18.577	0.100
579.700	-17.585	0.100
579.800	-17.728	0.100
579.900	-9.836	0.100
580.000	-17.044	0.100
580.100	-31.743	0.100
580.200	-15.666	0.100
580.300	-16.965	0.100
580.400	-12.492	0.100
580.500	-14.914	0.100
580.600	-29.750	0.100
580.700	-17.861	0.100
580.800	-9.432	0.100
580.900	-34.218	0.100
581.000	-32.648	0.100
581.100	-30.834	0.100
581.200	-9.913	0.100
581.300	-4.673	0.100
581.400	-25.109	0.100
581.500	-26.128	0.100
581.600	-22.330	0.100
581.700	-20.303	0.100
581.800	-12.500	0.100
581.900	-22.325	0.100
582.000	-7.865	0.100
582.100	-19.193	0.100
582.200	-9.362	0.100
582.300	-24.302	0.100
582.400	-26.686	0.100
582.500	-15.881	0.100
582.600	-21.819	0.100
582.700	-28.992	0.100
582.800	-22.419	0.100
582.900	-28.701	0.100
583.000	-10.963	0.100
583.100	-18.566	0.100
583.200	-33.917	0.100
583.300	-13.417	0.100
583.400	-23.713	0.100
583.500	-21.774	0.100
583.600	-35.244	0.100
583.700	-40.736	0.100
583.800	-38.896	0.100
583.900	-6.758	0.100
584.000	-21.084	0.100
584.100	-15.840	0.100
584.200	-22.052	0.100
584.300	-25.283	0.100
584.400	-18.816	0.100
584.500	-21.102	0.100
584.600	-10.276	0.100
584.700	-4.061	0.100
584.800	-33.092	0.100
584.900	-28.533	0.100
585.000	-20.949	0.100
585.100	-29.464	0.100
585.200	-1.255	0.100
585.300	-44.246	0.100
585.400	-11.257	0.100
585.500	-30.899	0.100
585.600	-13.453	0.100
585.700	-25.006	0.100
585.800	-34.649	0.100
585.900	0.434	0.100
586.000	-19.853	0.100
586.100	-20.568	0.100
586.200	-25.389	0.100
586.300	-21.906	0.100
586.400	-15.687	0.100
586.500	-15.550	0.100
586.600	-21.011	0.100
586.700	-10.912	0.100
586.800	-19.291	0.100
586.900	-16.066	0.100
587.000	-22.105	0.100
587.100	-16.846	0.100
587.200	-20.316	0.100
587.300	-33.060	0.100
587.400	-3.696	0.100
587.500	-17.544	0.100
587.600	-14.436	0.100
587.700	-7.996	0.100
587.800	-22.119	0.100
587.900	-13.296	0.100
588.000	-36.870	0.100
588.100	-10.994	0.100
588.200	-32.519	0.100
588.300	-20.131	0.100
588.400	-19.815	0.100
588.500	-24.673	0.100
588.600	-12.217	0.100
588.700	-33.444	0.100
588.800	-12.459	0.100
588.900	-19.376	0.100
589.000	-20.279	0.100
589.100	-20.287	0.100
589.200	-17.290	0.100
589.300	-17.720	0.100
589.400	-36.890	0.100
589.500	-12.845	0.100
589.600	-18.732	0.100
589.700	-20.479	0.100
589.800	-25.399	0.100
589.900	-20.449	0.100
590.000	-20.500	0.100
590.100	-18.260	0.100
590.200	-20.443	0.100
590.300	-13.951	0.100
590.400	-17.486	0.100
590.500	-23.499	0.100
590.600	-19.216	0.100
590.700	-15.021	0.100
590.800	-14.092	0.100
590.900	-4.460	0.100
591.000	-15.946	0.100
591.100	-16.485	0.100
591.200	-25.148	0.100
591.300	-33.028	0.100
591.400	-20.521	0.100
591.500	-18.862	0.100
591.600	4.983	0.100
591.700	-18.332	0.100
591.800	-17.808	0.100
591.900	-9.505	0.100
592.000	-17.781	0.100
592.100	-10.861	0.100
592.200	-10.899	0.100
592.300	-5.557	0.100
592.400	-25.557	0.100
592.500	3.428	0.100
592.600	-16.245	0.100
592.700	-23.952	0.100
592.800	-15.402	0.100
592.900	-21.069	0.100
593.000	-2.696	0.100
593.100	-14.566	0.100
593.200	-17.820	0.100
593.300	-27.409	0.100
593.400	-7.670	0.100
593.500	-27.355	0.100
593.600	-10.832	0.100
593.700	-9.524	0.100
593.800	-29.999	0.100
593.900	-20.461	0.100
594.000	-11.244	0.100
594.100	-10.522	0.100
594.200	-21.653	0.100
594.300	-9.772	0.100
594.400	-8.756	0.100
594.500	-23.952	0.100
594.600	-21.846	0.100
594.700	-22.383	0.100
594.800	-26.951	0.100
594.900	-18.717	0.100
595.000	-29.012	0.100
595.100	-18.274	0.100
595.200	-16.755	0.100
595.300	-31.901	0.100
595.400	-6.136	0.100
595.500	-23.411	0.100
595.600	-5.056	0.100
595.700	5.351	0.100
595.800	-28.364	0.100
595.900	-9.216	0.100
596.000	-27.643	0.100
596.100	-22.149	0.100
596.200	-20.858	0.100
596.300	-9.965	0.100
596.400	-2.470	0.100
596.500	-14.580	0.100
596.600	-20.670	0.100
596.700	-12.614	0.100
596.800	-14.947	0.100
596.900	-19.028	0.100
597.000	-2.761	0.100
597.100	-8.721	0.100
597.200	-11.419	0.100
597.300	-11.424	0.100
597.400	-25.386	0.100
597.500	-17.167	0.100
597.600	-23.618	0.100
597.700	-18.778	0.100
597.800	-18.796	0.100
597.900	-14.594	0.100
598.000	-25.839	0.100
598.100	-12.783	0.100
598.200	-1.196	0.100
598.300	-30.185	0.100
598.400	-29.516	0.100
598.500	-13.685	0.100
598.600	-4.040	0.100
598.700	-31.096	0.100
598.800	-9.250	0.100
598.900	-17.299	0.100
599.000	-12.569	0.100
599.100	-20.825	0.100
599.200	-9.291	0.100
599.300	-36.722	0.100
599.400	-11.886	0.100
599.500	-3.009	0.100
599.600	-6.020	0.100
599.700	-25.885	0.100
599.800	-21.838	0.100
599.900	-19.495	0.100
600.000	-16.232	0.100
600.100	-24.987	0.100
600.200	-7.790	0.100
600.300	-20.541	0.100
600.400	-9.843	0.100
600.500	-20.956	0.100
600.600	-28.791	0.100
600.700	-29.879	0.100
600.800	-15.918	0.100
600.900	-13.270	0.100
601.000	-24.508	0.100
601.100	-13.361	0.100
601.200	-8.004	0.100
601.300	-11.172	0.100
601.400	-5.703	0.100
601.500	-22.074	0.100
601.600	-22.183	0.100
601.700	-10.840	0.100
601.800	-32.100	0.100
601.900	9.385	0.100
602.000	-4.836	0.100
602.100	-12.853	0.100
602.200	-7.173	0.100
602.300	-6.043	0.100
602.400	-30.367	0.100
602.500	-18.337	0.100
602.600	-16.776	0.100
602.700	-27.129	0.100
602.800	-9.978	0.100
602.900	-22.019	0.100
603.000	-16.593	0.100
603.100	-24.426	0.100
603.200	-10.202	0.100
603.300	-10.343	0.100
603.400	-7.786	0.100
603.500	-0.373	0.100
603.600	-37.748	0.100
603.700	-7.682	0.100
603.800	-5.670	0.100
603.900	-10.241	0.100
604.000	-24.015	0.100
604.100	-10.034	0.100
604.200	-26.596	0.100
604.300	-14.298	0.100
604.400	-17.027	0.100
604.500	-7.469	0.100
604.600	-4.496	0.100
604.700	-19.190	0.100
604.800	-27.628	0.100
604.900	-25.849	0.100
605.000	-15.312	0.100
605.100	-25.572	0.100
605.200	-41.247	0.100
605.300	-4.997	0.100
605.400	-9.470	0.100
605.500	-6.324	0.100
605.600	19.773	0.100
605.700	-27.825	0.100
605.800	-15.498	0.100
605.900	4.158	0.100
606.000	-16.201	0.100
606.100	-25.930	0.100
606.200	-4.661	0.100
606.300	-10.540	0.100
606.400	-14.014	0.100
606.500	-29.664	0.100
606.600	-23.059	0.100
606.700	-25.686	0.100
606.800	-11.040	0.100
606.900	-5.503	0.100
607.000	-7.789	0.100
607.100	-20.661	0.100
607.200	-20.456	0.100
607.300	-20.755	0.100
607.400	-1.786	0.100
607.500	-21.616	0.100
607.600	-4.208	0.100
607.700	-19.607	0.100
607.800	-7.239	0.100
607.900	-11.841	0.100
608.000	-1.430	0.100
608.100	-16.548	0.100
608.200	-22.670	0.100
608.300	-13.885	0.100
608.400	-11.417	0.100
608.500	-17.233	0.100
608.600	-17.690	0.100
608.700	-8.596	0.100
608.800	-2.993	0.100
608.900	-7.691	0.100
609.000	-14.250	0.100
609.100	-25.307	0.100
609.200	-10.825	0.100
609.300	-17.655	0.100
609.400	-3.380	0.100
609.500	-15.993	0.100
609.600	-15.340	0.100
609.700	-15.589	0.100
609.800	-27.318	0.100
609.900	-3.008	0.100
610.000	-4.230	0.100
610.100	-21.057	0.100
610.200	-21.191	0.100
610.300	-12.705	0.100
610.400	-24.083	0.100
610.500	-9.927	0.100
610.600	-4.612	0.100
610.700	-15.744	0.100
610.800	-7.783	0.100
610.900	-23.922	0.100
611.000	-23.488	0.100
611.100	-18.100	0.100
611.200	-10.462	0.100
611.300	-19.661	0.100
611.400	-27.941	0.100
611.500	-13.287	0.100
611.600	-16.317	0.100
611.700	-23.712	0.100
611.800	-19.900	0.100
611.900	-12.203	0.100
612.000	-20.121	0.100
612.100	-15.430	0.100
612.200	-23.748	0.100
612.300	-7.044	0.100
612.400	-13.711	0.100
612.500	-12.069	0.100
612.600	-21.121	0.100
612.700	-10.207	0.100
612.800	-6.040	0.100
612.900	-5.353	0.100
613.000	-14.237	0.100
613.100	-9.180	0.100
613.200	-22.403	0.100
613.300	2.522	0.100
613.400	-22.443	0.100
613.500	-24.952	0.100
613.600	-6.686	0.100
613.700	-6.464	0.100
613.800	-24.377	0.100
613.900	-6.175	0.100
614.000	-20.953	0.100
614.100	-4.595	0.100
614.200	-28.648	0.100
614.300	-13.702	0.100
614.400	-19.475	0.100
614.500	-8.297	0.100
614.600	-13.077	0.100
614.700	-2.672	0.100
614.800	-0.170	0.100
614.900	-17.620	0.100
615.000	-2.794	0.100
615.100	-10.201	0.100
615.200	-22.909	0.100
615.300	-3.358	0.100
615.400	-12.679	0.100
615.500	-21.579	0.100
615.600	-12.233	0.100
615.700	-4.516	0.100
615.800	-7.301	0.100
615.900	-9.922	0.100
616.000	-4.111	0.100
616.100	-24.790	0.100
616.200	-7.851	0.100
616.300	-9.888	0.100
616.400	-10.960	0.100
616.500	-28.429	0.100
616.600	-13.456	0.100
616.700	-14.572	0.100
616.800	-7.176	0.100
616.900	-13.640	0.100
617.000	-22.753	0.100
617.100	-3.678	0.100
617.200	-10.437	0.100
617.300	-21.100	0.100
617.400	-6.384	0.100
617.500	-13.844	0.100
617.600	-20.228	0.100
617.700	-15.637	0.100
617.800	-14.101	0.100
617.900	-26.908	0.100
618.000	-1.989	0.100
618.100	-9.848	0.100
618.200	-22.101	0.100
618.300	-15.897	0.100
618.400	-13.953	0.100
618.500	-7.809	0.100
618.600	-0.349	0.100
618.700	-27.697	0.100
618.800	-16.243	0.100
618.900	-22.900	0.100
619.000	-16.959	0.100
619.100	-23.071	0.100
619.200	-18.618	0.100
619.300	-25.643	0.100
619.400	3.992	0.100
619.500	-20.303	0.100
619.600	-26.135	0.100
619.700	-16.126	0.100
619.800	-4.973	0.100
619.900	-20.554	0.100
620.000	-8.578	0.100
620.100	-9.860	0.100
620.200	-14.116	0.100
620.300	-32.130	0.100
620.400	-15.845	0.100
620.500	-1.136	0.100
620.600	-11.698	0.100
620.700	-8.452	0.100
620.800	-18.825	0.100
620.900	-3.473	0.100
621.000	-14.192	0.100
621.100	-6.865	0.100
621.200	-6.575	0.100
621.300	-8.222	0.100
621.400	-14.793	0.100
621.500	2.508	0.100
621.600	-22.821	0.100
621.700	-6.029	0.100
621.800	-12.091	0.100
621.900	-4.095	0.100
622.000	3.187	0.100
622.100	-26.680	0.100
622.200	-18.473	0.100
622.300	-23.107	0.100
622.400	-8.351	0.100
622.500	-2.327	0.100
622.600	-7.816	0.100
622.700	-20.889	0.100
622.800	3.642	0.100
622.900	-14.069	0.100
623.000	-27.361	0.100
623.100	-9.561	0.100
623.200	-21.987	0.100
623.300	6.656	0.100
623.400	-9.269	0.100
623.500	-16.540	0.100
623.600	-14.773	0.100
623.700	-21.463	0.100
623.800	-16.149	0.100
623.900	-9.439	0.100
624.000	-13.752	0.100
624.100	-18.432	0.100
624.200	-16.961	0.100
624.300	-16.541	0.100
624.400	-30.582	0.100
624.500	0.738	0.100
624.600	-31.735	0.100
624.700	-19.203	0.100
624.800	-22.550	0.100
624.900	-14.667	0.100
625.000	-4.121	0.100
625.100	-8.619	0.100
625.200	-12.136	0.100
625.300	-9.436	0.100
625.400	-9.325	0.100
625.500	-0.872	0.100
625.600	-18.391	0.100
625.700	-10.186	0.100
625.800	-18.021	0.100
625.900	-12.331	0.100
626.000	-23.759	0.100
626.100	-3.791	0.100
626.200	-24.416	0.100
626.300	-18.740	0.100
626.400	-24.229	0.100
626.500	1.847	0.100
626.600	-2.455	0.100
626.700	-17.829	0.100
626.800	-3.069	0.100
626.900	-21.634	0.100
627.000	-14.308	0.100
627.100	-18.037	0.100
627.200	-19.615	0.100
627.300	-6.832	0.100
627.400	-10.729	0.100
627.500	-5.545	0.100
627.600	-14.762	0.100
627.700	-12.849	0.100
627.800	0.495	0.100
627.900	-19.284	0.100
628.000	-17.915	0.100
628.100	-20.868	0.100
628.200	-10.247	0.100
628.300	-10.489	0.100
628.400	-19.479	0.100
628.500	-6.903	0.100
628.600	-22.735	0.100
628.700	-3.771	0.100
628.800	-22.927	0.100
628.900	3.670	0.100
629.000	4.207	0.100
629.100	-10.430	0.100
629.200	-19.566	0.100
629.300	-24.499	0.100
629.400	-11.380	0.100
629.500	-19.840	0.100
629.600	7.120	0.100
629.700	-14.291	0.100
629.800	-8.371	0.100
629.900	-9.807	0.100
630.000	-20.275	0.100
630.100	-20.260	0.100
630.200	-5.191	0.100
630.300	-8.473	0.100
630.400	0.011	0.100
630.500	-3.790	0.100
630.600	1.992	0.100
630.700	13.118	0.100
630.800	15.987	0.100
630.900	22.285	0.100
631.000	10.400	0.100
631.100	31.119	0.100
631.200	18.527	0.100
631.300	29.781	0.100
631.400	31.816	0.100
631.500	17.451	0.100
631.600	45.323	0.100
631.700	32.617	0.100
631.800	39.110	0.100
631.900	42.291	0.100
632.000	31.191	0.100
632.100	38.166	0.100
632.200	49.628	0.100
632.300	55.559	0.100
632.400	21.178	0.100
632.500	42.642	0.100
632.600	33.312	0.100
632.700	34.946	0.100
632.800	43.898	0.100
632.900	36.898	0.100
633.000	27.235	0.100
633.100	43.285	0.100
633.200	32.822	0.100
633.300	49.851	0.100
633.400	45.386	0.100
633.500	35.251	0.100
633.600	37.828	0.100
633.700	41.119	0.100
633.800	39.441	0.100
633.900	38.677	0.100
634.000	33.239	0.100
634.100	34.628	0.100
634.200	24.168	0.100
634.300	37.478	0.100
634.400	41.019	0.100
634.500	22.340	0.100
634.600	34.526	0.100
634.700	42.139	0.100
634.800	24.401	0.100
634.900	17.400	0.100
635.000	21.887	0.100
635.100	14.522	0.100
635.200	48.337	0.100
635.300	29.373	0.100
635.400	24.593	0.100
635.500	33.581	0.100
635.600	33.464	0.100
635.700	17.303	0.100
635.800	39.014	0.100
635.900	38.912	0.100
636.000	49.721	0.100
636.100	16.431	0.100
636.200	17.588	0.100
636.300	24.453	0.100
636.400	18.098	0.100
636.500	9.392	0.100
636.600	24.482	0.100
636.700	25.992	0.100
636.800	11.229	0.100
636.900	46.221	0.100
637.000	24.487	0.100
637.100	33.571	0.100
637.200	27.008	0.100
637.300	15.229	0.100
637.400	17.648	0.100
637.500	24.818	0.100
637.600	26.673	0.100
637.700	20.142	0.100
637.800	34.466	0.100
637.900	33.940	0.100
638.000	22.457	0.100
638.100	30.518	0.100
638.200	29.873	0.100
638.300	39.621	0.100
638.400	29.463	0.100
638.500	20.730	0.100
638.600	30.995	0.100
638.700	34.336	0.100
638.800	8.389	0.100
638.900	28.811	0.100
639.000	25.458	0.100
639.100	11.123	0.100
639.200	6.834	0.100
639.300	25.924	0.100
639.400	19.021	0.100
639.500	28.588	0.100
639.600	40.250	0.100
639.700	23.945	0.100
639.800	20.962	0.100
639.900	21.884	0.100
640.000	39.881	0.100
640.100	37.886	0.100
640.200	46.788	0.100
640.300	17.286	0.100
640.400	36.308	0.100
640.500	38.216	0.100
640.600	44.904	0.100
640.700	45.254	0.100
640.800	39.778	0.100
640.900	38.121	0.100
641.000	41.495	0.100
641.100	35.478	0.100
641.200	19.820	0.100
641.300	46.624	0.100
641.400	34.618	0.100
641.500	35.432	0.100
641.600	37.558	0.100
641.700	25.368	0.100
641.800	45.879	0.100
641.900	54.633	0.100
642.000	53.223	0.100
642.100	45.743	0.100
642.200	42.127	0.100
642.300	34.637	0.100
642.400	48.980	0.100
642.500	38.206	0.100
642.600	52.047	0.100
642.700	31.653	0.100
642.800	50.814	0.100
642.900	62.837	0.100
643.000	32.242	0.100
643.100	50.122	0.100
643.200	43.815	0.100
643.300	63.273	0.100
643.400	56.019	0.100
643.500	47.157	0.100
643.600	48.478	0.100
643.700	40.835	0.100
643.800	56.352	0.100
643.900	68.560	0.100
644.000	44.387	0.100
644.100	46.709	0.100
644.200	56.377	0.100
644.300	60.520	0.100
644.400	65.433	0.100
644.500	48.191	0.100
644.600	45.586	0.100
644.700	63.633	0.100
644.800	65.790	0.100
644.900	67.838	0.100
645.000	64.428	0.100
645.100	72.755	0.100
645.200	78.016	0.100
645.300	50.829	0.100
645.400	59.236	0.100
645.500	70.609	0.100
645.600	63.925	0.100
645.700	70.438	0.100
645.800	55.271	0.100
645.900	61.523	0.100
646.000	57.196	0.100
646.100	63.084	0.100
646.200	78.838	0.100
646.300	78.180	0.100
646.400	63.926	0.100
646.500	78.684	0.100
646.600	54.809	0.100
646.700	59.440	0.100
646.800	73.322	0.100
646.900	67.001	0.100
647.000	74.954	0.100
647.100	61.782	0.100
647.200	51.872	0.100
647.300	60.620	0.100
647.400	63.818	0.100
647.500	66.808	0.100
647.600	56.031	0.100
647.700	70.286	0.100
647.800	61.866	0.100
647.900	69.673	0.100
648.000	58.063	0.100
648.100	48.699	0.100
648.200	62.626	0.100
648.300	59.611	0.100
648.400	51.051	0.100
648.500	74.201	0.100
648.600	67.621	0.100
648.700	48.975	0.100
648.800	67.682	0.100
648.900	83.292	0.100
649.000	77.957	0.100
649.100	69.046	0.100
649.200	67.374	0.100
649.300	63.919	0.100
649.400	63.511	0.100
649.500	58.583	0.100
649.600	53.169	0.100
649.700	56.143	0.100
649.800	70.162	0.100
649.900	68.097	0.100
650.000	62.577	0.100
650.100	49.424	0.100
650.200	59.671	0.100
650.300	62.866	0.100
650.400	59.854	0.100
650.500	46.345	0.100
650.600	52.774	0.100
650.700	55.323	0.100
650.800	41.822	0.100
650.900	71.807	0.100
651.000	79.443	0.100
651.100	50.357	0.100
651.200	59.672	0.100
651.300	58.965	0.100
651.400	59.955	0.100
651.500	41.970	0.100
651.600	57.703	0.100
651.700	40.669	0.100
651.800	62.689	0.100
651.900	56.128	0.100
652.000	55.004	0.100
652.100	34.532	0.100
652.200	32.406	0.100
652.300	50.390	0.100
652.400	67.876	0.100
652.500	58.322	0.100
652.600	45.341	0.100
652.700	56.526	0.100
652.800	50.296	0.100
652.900	49.965	0.100
653.000	41.825	0.100
653.100	57.574	0.100
653.200	28.292	0.100
653.300	55.725	0.100
653.400	62.592	0.100
653.500	45.621	0.100
653.600	41.403	0.100
653.700	50.437	0.100
653.800	66.867	0.100
653.900	42.239	0.100
654.000	40.284	0.100
654.100	41.529	0.100
654.200	46.951	0.100
654.300	50.648	0.100
654.400	63.248	0.100
654.500	26.664	0.100
654.600	48.235	0.100
654.700	52.360	0.100
654.800	61.823	0.100
654.900	34.850	0.100
655.000	29.791	0.100
655.100	57.004	0.100
655.200	47.886	0.100
655.300	36.692	0.100
655.400	58.326	0.100
655.500	46.304	0.100
655.600	56.605	0.100
655.700	45.523	0.100
655.800	32.701	0.100
655.900	52.835	0.100
656.000	47.617	0.100
656.100	39.861	0.100
656.200	59.180	0.100
656.300	36.710	0.100
656.400	40.708	0.100
656.500	47.629	0.100
656.600	54.995	0.100
656.700	22.211	0.100
656.800	65.382	0.100
656.900	36.329	0.100
657.000	45.320	0.100
657.100	32.171	0.100
657.200	46.279	0.100
657.300	45.331	0.100
657.400	32.210	0.100
657.500	52.467	0.100
657.600	41.321	0.100
657.700	33.894	0.100
657.800	34.776	0.100
657.900	39.116	0.100
658.000	44.286	0.100
658.100	49.121	0.100
658.200	36.829	0.100
658.300	58.173	0.100
658.400	43.763	0.100
658.500	29.736	0.100
658.600	41.416	0.100
658.700	38.263	0.100
658.800	52.096	0.100
658.900	39.952	0.100
659.000	41.088	0.100
659.100	45.332	0.100
659.200	40.441	0.100
659.300	43.133	0.100
659.400	36.822	0.100
659.500	28.763	0.100
659.600	30.555	0.100
659.700	26.213	0.100
659.800	46.964	0.100
659.900	42.517	0.100
660.000	32.021	0.100
660.100	54.486	0.100
660.200	53.164	0.100
660.300	37.474	0.100
660.400	28.629	0.100
660.500	31.233	0.100
660.600	34.170	0.100
660.700	43.960	0.100
660.800	41.908	0.100
660.900	29.143	0.100
661.000	40.590	0.100
661.100	37.451	0.100
661.200	42.295	0.100
661.300	21.840	0.100
661.400	28.170	0.100
661.500	50.113	0.100
661.600	30.970	0.100
661.700	26.216	0.100
661.800	33.467	0.100
661.900	47.572	0.100
662.000	24.265	0.100
662.100	30.002	0.100
662.200	37.829	0.100
662.300	33.291	0.100
662.400	39.980	0.100
662.500	39.181	0.100
662.600	29.184	0.100
662.700	37.209	0.100
662.800	35.995	0.100
662.900	31.365	0.100
663.000	41.163	0.100
663.100	47.522	0.100
663.200	24.471	0.100
663.300	26.316	0.100
663.400	22.892	0.100
663.500	36.639	0.100
663.600	41.511	0.100
663.700	23.412	0.100
663.800	41.481	0.100
663.900	24.275	0.100
664.000	32.701	0.100
664.100	39.078	0.100
664.200	27.424	0.100
664.300	43.830	0.100
664.400	46.495	0.100
664.500	31.388	0.100
664.600	22.225	0.100
664.700	29.201	0.100
664.800	42.446	0.100
664.900	22.198	0.100
665.000	51.337	0.100
665.100	39.638	0.100
665.200	28.544	0.100
665.300	16.580	0.100
665.400	36.335	0.100
665.500	25.568	0.100
665.600	23.886	0.100
665.700	29.622	0.100
665.800	27.634	0.100
665.900	32.098	0.100
666.000	34.063	0.100
666.100	32.569	0.100
666.200	24.094	0.100
666.300	32.436	0.100
666.400	43.698	0.100
666.500	25.806	0.100
666.600	25.720	0.100
666.700	32.377	0.100
666.800	33.771	0.100
666.900	27.502	0.100
667.000	46.556	0.100
667.100	51.822	0.100
667.200	29.120	0.100
667.300	18.282	0.100
667.400	25.186	0.100
667.500	28.534	0.100
667.600	37.553	0.100
667.700	24.462	0.100
667.800	35.437	0.100
667.900	26.568	0.100
668.000	26.664	0.100
668.100	36.851	0.100
668.200	33.540	0.100
668.300	44.462	0.100
668.400	44.187	0.100
668.500	22.410	0.100
668.600	40.320	0.100
668.700	49.798	0.100
668.800	31.304	0.100
668.900	38.747	0.100
669.000	28.289	0.100
669.100	32.248	0.100
669.200	32.076	0.100
669.300	34.577	0.100
669.400	35.016	0.100
669.500	41.730	0.100
669.600	31.948	0.100
669.700	17.212	0.100
669.800	23.435	0.100
669.900	35.776	0.100
670.000	21.108	0.100
670.100	27.996	0.100
670.200	36.353	0.100
670.300	18.525	0.100
670.400	24.636	0.100
670.500	12.342	0.100
670.600	21.638	0.100
670.700	34.353	0.100
670.800	32.986	0.100
670.900	11.026	0.100
671.000	31.163	0.100
671.100	30.949	0.100
671.200	34.950	0.100
671.300	24.439	0.100
671.400	37.611	0.100
671.500	22.951	0.100
671.600	28.650	0.100
671.700	31.363	0.100
671.800	23.085	0.100
671.900	42.448	0.100
672.000	27.667	0.100
672.100	22.190	0.100
672.200	40.573	0.100
672.300	31.404	0.100
672.400	45.910	0.100
672.500	33.523	0.100
672.600	25.027	0.100
672.700	25.082	0.100
672.800	36.130	0.100
672.900	34.126	0.100
673.000	26.783	0.100
673.100	10.685	0.100
673.200	35.747	0.100
673.300	16.183	0.100
673.400	18.348	0.100
673.500	22.507	0.100
673.600	29.690	0.100
673.700	19.873	0.100
673.800	41.611	0.100
673.900	26.727	0.100
674.000	35.654	0.100
674.100	36.147	0.100
674.200	19.410	0.100
674.300	39.279	0.100
674.400	18.270	0.100
674.500	26.156	0.100
674.600	18.397	0.100
674.700	20.536	0.100
674.800	39.902	0.100
674.900	18.124	0.100
675.000	11.962	0.100
675.100	36.072	0.100
675.200	31.174	0.100
675.300	9.939	0.100
675.400	29.661	0.100
675.500	7.770	0.100
675.600	26.762	0.100
675.700	19.740	0.100
675.800	10.791	0.100
675.900	34.135	0.100
676.000	36.310	0.100
676.100	44.500	0.100
676.200	24.119	0.100
676.300	37.090	0.100
676.400	30.145	0.100
676.500	9.826	0.100
676.600	25.220	0.100
676.700	18.781	0.100
676.800	49.231	0.100
676.900	26.281	0.100
677.000	37.685	0.100
677.100	19.953	0.100
677.200	39.266	0.100
677.300	24.874	0.100
677.400	29.089	0.100
677.500	34.965	0.100
677.600	25.179	0.100
677.700	19.430	0.100
677.800	24.289	0.100
677.900	30.571	0.100
678.000	28.331	0.100
678.100	9.041	0.100
678.200	32.703	0.100
678.300	25.824	0.100
678.400	16.302	0.100
678.500	35.513	0.100
678.600	27.214	0.100
678.700	27.581	0.100
678.800	22.673	0.100
678.900	22.528	0.100
679.000	18.721	0.100
679.100	32.957	0.100
679.200	30.841	0.100
679.300	45.625	0.100
679.400	20.321	0.100
679.500	18.274	0.100
679.600	50.974	0.100
679.700	13.259	0.100
679.800	24.197	0.100
679.900	24.125	0.100
680.000	22.508	0.100
680.100	35.247	0.100
680.200	31.430	0.100
680.300	21.571	0.100
680.400	7.355	0.100
680.500	38.383	0.100
680.600	14.915	0.100
680.700	40.343	0.100
680.800	21.421	0.100
680.900	19.564	0.100
681.000	40.865	0.100
681.100	28.628	0.100
681.200	28.422	0.100
681.300	3.895	0.100
681.400	21.100	0.100
681.500	29.856	0.100
681.600	31.887	0.100
681.700	16.036	0.100
681.800	6.969	0.100
681.900	39.358	0.100
682.000	30.310	0.100
682.100	19.921	0.100
682.200	23.031	0.100
682.300	35.310	0.100
682.400	40.396	0.100
682.500	27.276	0.100
682.600	37.532	0.100
682.700	21.840	0.100
682.800	28.187	0.100
682.900	38.526	0.100
683.000	26.913	0.100
683.100	10.098	0.100
683.200	30.551	0.100
683.300	27.508	0.100
683.400	28.684	0.100
683.500	21.102	0.100
683.600	30.212	0.100
683.700	32.742	0.100
683.800	24.282	0.100
683.900	4.740	0.100
684.000	22.983	0.100
684.100	40.258	0.100
684.200	27.467	0.100
684.300	13.727	0.100
684.400	22.577	0.100
684.500	7.734	0.100
684.600	32.906	0.100
684.700	25.274	0.100
684.800	34.524	0.100
684.900	0.859	0.100
685.000	24.073	0.100
685.100	37.298	0.100
685.200	21.598	0.100
685.300	25.879	0.100
685.400	19.068	0.100
685.500	46.097	0.100
685.600	19.264	0.100
685.700	29.474	0.100
685.800	26.766	0.100
685.900	23.819	0.100
686.000	11.282	0.100
686.100	8.366	0.100
686.200	9.955	0.100
686.300	25.364	0.100
686.400	34.950	0.100
686.500	19.851	0.100
686.600	19.780	0.100
686.700	19.802	0.100
686.800	26.174	0.100
686.900	15.133	0.100
687.000	18.670	0.100
687.100	20.142	0.100
687.200	19.625	0.100
687.300	38.418	0.100
687.400	7.495	0.100
687.500	25.045	0.100
687.600	19.023	0.100
687.700	21.308	0.100
687.800	17.785	0.100
687.900	29.196	0.100
688.000	23.220	0.100
688.100	9.432	0.100
688.200	23.091	0.100
688.300	37.367	0.100
688.400	18.984	0.100
688.500	3.957	0.100
688.600	29.452	0.100
688.700	10.851	0.100
688.800	8.253	0.100
688.900	19.718	0.100
689.000	31.982	0.100
689.100	19.782	0.100
689.200	37.121	0.100
689.300	23.068	0.100
689.400	18.025	0.100
689.500	27.841	0.100
689.600	20.477	0.100
689.700	35.123	0.100
689.800	19.933	0.100
689.900	29.865	0.100
690.000	4.970	0.100
690.100	17.800	0.100
690.200	27.624	0.100
690.300	11.266	0.100
690.400	11.600	0.100
690.500	9.904	0.100
690.600	0.325	0.100
690.700	-14.106	0.100
690.800	-13.299	0.100
690.900	-8.224	0.100
691.000	-11.213	0.100
691.100	-13.376	0.100
691.200	-29.044	0.100
691.300	-23.117	0.100
691.400	-40.446	0.100
691.500	-28.340	0.100
691.600	-43.513	0.100
691.700	-39.253	0.100
691.800	-39.597	0.100
691.900	-56.984	0.100
692.000	-37.525	0.100
692.100	-59.350	0.100
692.200	-46.970	0.100
692.300	-62.501	0.100
692.400	-50.207	0.100
692.500	-60.079	0.100
692.600	-60.021	0.100
692.700	-63.314	0.100
692.800	-54.509	0.100
692.900	-61.080	0.100
693.000	-64.246	0.100
693.100	-70.961	0.100
693.200	-69.528	0.100
693.300	-75.207	0.100
693.400	-77.574	0.100
693.500	-55.547	0.100
693.600	-79.600	0.100
693.700	-83.128	0.100
693.800	-56.754	0.100
693.900	-69.128	0.100
694.000	-74.058	0.100
694.100	-72.571	0.100
694.200	-64.421	0.100
694.300	-59.070	0.100
694.400	-61.267	0.100
694.500	-67.321	0.100
694.600	-53.531	0.100
694.700	-59.070	0.100
694.800	-69.630	0.100
694.900	-79.070	0.100
695.000	-55.837	0.100
695.100	-69.660	0.100
695.200	-50.871	0.100
695.300	-68.956	0.100
695.400	-66.501	0.100
695.500	-59.787	0.100
695.600	-58.554	0.100
695.700	-69.830	0.100
695.800	-61.575	0.100
695.900	-59.219	0.100
696.000	-54.016	0.100
696.100	-32.900	0.100
696.200	-71.653	0.100
696.300	-42.574	0.100
696.400	-41.739	0.100
696.500	-61.166	0.100
696.600	-37.064	0.100
696.700	-53.042	0.100
696.800	-54.949	0.100
696.900	-71.108	0.100
697.000	-46.148	0.100
697.100	-54.721	0.100
697.200	-42.813	0.100
697.300	-43.469	0.100
697.400	-52.174	0.100
697.500	-31.944	0.100
697.600	-50.810	0.100
697.700	-35.104	0.100
697.800	-40.332	0.100
697.900	-52.491	0.100
698.000	-26.202	0.100
698.100	-42.989	0.100
698.200	-40.725	0.100
698.300	-39.290	0.100
698.400	-47.577	0.100
698.500	-46.808	0.100
698.600	-29.023	0.100
698.700	-45.574	0.100
698.800	-26.729	0.100
698.900	-33.528	0.100
699.000	-33.005	0.100
699.100	-24.843	0.100
699.200	-35.234	0.100
699.300	-42.842	0.100
699.400	-33.437	0.100
699.500	-26.426	0.100
699.600	-30.386	0.100
699.700	-37.837	0.100
699.800	-41.363	0.100
699.900	-38.935	0.100
700.000	-42.711	0.100
700.100	-21.577	0.100
700.200	-38.218	0.100
700.300	-30.103	0.100
700.400	-21.078	0.100
700.500	-21.541	0.100
700.600	-32.557	0.100
700.700	-13.683	0.100
700.800	-24.107	0.100
700.900	-17.873	0.100
701.000	-14.930	0.100
701.100	-46.312	0.100
701.200	-25.307	0.100
701.300	-34.751	0.100
701.400	-33.009	0.100
701.500	-39.035	0.100
701.600	-15.215	0.100
701.700	-20.115	0.100
701.800	-16.774	0.100
701.900	-27.376	0.100
702.000	-24.586	0.100
702.100	-22.615	0.100
702.200	-31.791	0.100
702.300	-26.908	0.100
702.400	-20.837	0.100
702.500	-33.795	0.100
702.600	-17.966	0.100
702.700	-21.289	0.100
702.800	-19.037	0.100
702.900	-37.354	0.100
703.000	-23.396	0.100
703.100	-27.804	0.100
703.200	-20.012	0.100
703.300	-21.103	0.100
703.400	-25.323	0.100
703.500	-11.715	0.100
703.600	-22.455	0.100
703.700	-22.130	0.100
703.800	-21.709	0.100
703.900	-18.384	0.100
704.000	-31.329	0.100
704.100	-22.027	0.100
704.200	-17.939	0.100
704.300	-22.022	0.100
704.400	-25.273	0.100
704.500	-28.661	0.100
704.600	-26.052	0.100
704.700	-26.230	0.100
704.800	-34.986	0.100
704.900	-21.346	0.100
705.000	-14.042	0.100
705.100	-23.167	0.100
705.200	-11.972	0.100
705.300	-11.606	0.100
705.400	-31.759	0.100
705.500	-17.291	0.100
705.600	-20.854	0.100
705.700	-23.122	0.100
705.800	-18.712	0.100
705.900	-25.012	0.100
706.000	-17.339	0.100
706.100	-28.550	0.100
706.200	-33.316	0.100
706.300	-25.473	0.100
706.400	-17.559	0.100
706.500	-14.747	0.100
706.600	-5.798	0.100
706.700	-40.874	0.100
706.800	-31.677	0.100
706.900	-16.933	0.100
707.000	-27.451	0.100
707.100	-13.693	0.100
707.200	-26.464	0.100
707.300	-7.600	0.100
707.400	-18.081	0.100
707.500	-32.208	0.100
707.600	-17.715	0.100
707.700	-13.014	0.100
707.800	-14.340	0.100
707.900	-29.072	0.100
708.000	-24.933	0.100
708.100	-24.695	0.100
708.200	-15.964	0.100
708.300	-26.322	0.100
708.400	4.974	0.100
708.500	-16.582	0.100
708.600	-19.071	0.100
708.700	-18.956	0.100
708.800	-40.100	0.100
708.900	-30.553	0.100
709.000	-17.836	0.100
709.100	-17.806	0.100
709.200	-15.122	0.100
709.300	-10.562	0.100
709.400	-19.240	0.100
709.500	-11.332	0.100
709.600	-31.196	0.100
709.700	-26.704	0.100
709.800	-18.801	0.100
709.900	-25.269	0.100
710.000	-21.212	0.100
710.100	-27.325	0.100
710.200	-23.350	0.100
710.300	-15.908	0.100
710.400	-30.537	0.100
710.500	-23.546	0.100
710.600	-24.918	0.100
710.700	-22.451	0.100
710.800	-16.822	0.100
710.900	-22.981	0.100
711.000	-10.975	0.100
711.100	-30.744	0.100
711.200	-25.776	0.100
711.300	-24.438	0.100
711.400	-24.293	0.100
711.500	-13.379	0.100
711.600	-22.361	0.100
711.700	-32.518	0.100
711.800	-32.511	0.100
711.900	-34.996	0.100
712.000	-23.105	0.100
712.100	-37.483	0.100
712.200	-6.179	0.100
712.300	-20.584	0.100
712.400	-35.313	0.100
712.500	-18.882	0.100
712.600	-30.343	0.100
712.700	-11.671	0.100
712.800	-19.968	0.100
712.900	-5.405	0.100
713.000	-16.487	0.100
713.100	-37.507	0.100
713.200	-32.532	0.100
713.300	-21.078	0.100
713.400	-33.947	0.100
713.500	-20.865	0.100
713.600	-21.505	0.100
713.700	-22.182	0.100
713.800	-36.896	0.100
713.900	-15.526	0.100
714.000	-26.258	0.100
714.100	-7.457	0.100
714.200	-15.587	0.100
714.300	-38.446	0.100
714.400	-36.646	0.100
714.500	-22.991	0.100
714.600	-16.574	0.100
714.700	-15.743	0.100
714.800	-23.609	0.100
714.900	-27.195	0.100
715.000	-13.981	0.100
715.100	-18.795	0.100
715.200	-21.916	0.100
715.300	-28.307	0.100
715.400	-34.294	0.100
715.500	-10.101	0.100
715.600	-20.065	0.100
715.700	-26.711	0.100
715.800	-34.152	0.100
715.900	-29.368	0.100
716.000	-24.363	0.100
716.100	-18.234	0.100
716.200	-24.118	0.100
716.300	-21.930	0.100
716.400	-17.451	0.100
716.500	-40.558	0.100
716.600	-29.633	0.100
716.700	-31.464	0.100
716.800	-22.449	0.100
716.900	-27.200	0.100
717.000	-29.682	0.100
717.100	-27.289	0.100
717.200	-33.656	0.100
717.300	-37.831	0.100
717.400	-29.513	0.100
717.500	-7.033	0.100
717.600	-21.158	0.100
717.700	-24.805	0.100
717.800	-26.226	0.100
717.900	-27.937	0.100
718.000	-21.715	0.100
718.100	-26.963	0.100
718.200	-21.030	0.100
718.300	-28.768	0.100
718.400	-29.487	0.100
718.500	-25.753	0.100
718.600	-13.368	0.100
718.700	-26.596	0.100
718.800	-22.549	0.100
718.900	-24.178	0.100
719.000	-34.534	0.100
719.100	-21.235	0.100
719.200	-28.722	0.100
719.300	-34.623	0.100
719.400	-31.561	0.100
719.500	-39.582	0.100
719.600	-13.901	0.100
719.700	-37.067	0.100
719.800	-19.830	0.100
719.900	-32.143	0.100
720.000	-15.992	0.100
720.100	-37.018	0.100
720.200	-22.059	0.100
720.300	-24.066	0.100
720.400	-12.457	0.100
720.500	-40.246	0.100
720.600	-28.661	0.100
720.700	-26.499	0.100
720.800	-27.302	0.100
720.900	-17.912	0.100
721.000	-32.760	0.100
721.100	-14.503	0.100
721.200	-11.545	0.100
721.300	-30.080	0.100
721.400	-35.410	0.100
721.500	-26.121	0.100
721.600	-12.330	0.100
721.700	-22.552	0.100
721.800	-20.849	0.100
721.900	-21.903	0.100
722.000	-19.578	0.100
722.100	-22.931	0.100
722.200	-25.135	0.100
722.300	-27.424	0.100
722.400	-6.441	0.100
722.500	-18.428	0.100
722.600	-23.498	0.100
722.700	-12.666	0.100
722.800	-26.960	0.100
722.900	-28.300	0.100
723.000	-36.457	0.100
723.100	-45.374	0.100
723.200	-23.729	0.100
723.300	-19.580	0.100
723.400	-15.488	0.100
723.500	-21.984	0.100
723.600	-23.119	0.100
723.700	-17.256	0.100
723.800	-25.129	0.100
723.900	-11.828	0.100
724.000	-22.075	0.100
724.100	-14.862	0.100
724.200	-33.747	0.100
724.300	-10.511	0.100
724.400	-4.579	0.100
724.500	-29.676	0.100
724.600	-25.824	0.100
724.700	-25.535	0.100
724.800	-18.184	0.100
724.900	-17.847	0.100
725.000	-11.991	0.100
725.100	-17.359	0.100
725.200	-24.692	0.100
725.300	-25.974	0.100
725.400	-29.683	0.100
725.500	-7.979	0.100
725.600	-23.381	0.100
725.700	-15.940	0.100
725.800	-26.001	0.100
725.900	-23.795	0.100
726.000	-19.138	0.100
726.100	-24.303	0.100
726.200	-14.078	0.100
726.300	-21.751	0.100
726.400	-34.565	0.100
726.500	-26.903	0.100
726.600	-4.859	0.100
726.700	-19.428	0.100
726.800	-37.090	0.100
726.900	-19.668	0.100
727.000	-15.969	0.100
727.100	-28.785	0.100
727.200	-32.658	0.100
727.300	-12.774	0.100
727.400	-34.482	0.100
727.500	-22.507	0.100
727.600	-9.944	0.100
727.700	-41.886	0.100
727.800	-21.295	0.100
727.900	-21.292	0.100
728.000	-11.455	0.100
728.100	-23.303	0.100
728.200	-17.938	0.100
728.300	-37.451	0.100
728.400	-30.800	0.100
728.500	-28.369	0.100
728.600	-17.924	0.100
728.700	-22.513	0.100
728.800	-20.163	0.100
728.900	-39.644	0.100
729.000	-19.482	0.100
729.100	-29.269	0.100
729.200	-16.153	0.100
729.300	-27.858	0.100
729.400	-19.688	0.100
729.500	-6.683	0.100
729.600	-15.549	0.100
729.700	-16.251	0.100
729.800	-18.681	0.100
729.900	-23.457	0.100
730.000	-20.041	0.100
730.100	-12.778	0.100
730.200	-25.360	0.100
730.300	-32.538	0.100
730.400	-22.640	0.100
730.500	-15.548	0.100
730.600	-17.267	0.100
730.700	-5.342	0.100
730.800	-28.798	0.100
730.900	-19.489	0.100
731.000	-7.184	0.100
731.100	-31.181	0.100
731.200	-12.773	0.100
731.300	-24.544	0.100
731.400	-15.062	0.100
731.500	-24.817	0.100
731.600	-19.482	0.100
731.700	-4.232	0.100
731.800	-29.190	0.100
731.900	3.660	0.100
732.000	-35.969	0.100
732.100	-19.807	0.100
732.200	-17.377	0.100
732.300	-37.138	0.100
732.400	-43.704	0.100
732.500	-23.689	0.100
732.600	-35.095	0.100
732.700	-10.511	0.100
732.800	-31.333	0.100
732.900	-20.571	0.100
733.000	-23.582	0.100
733.100	1.602	0.100
733.200	-15.341	0.100
733.300	-22.121	0.100
733.400	-17.304	0.100
733.500	-15.383	0.100
733.600	-41.189	0.100
733.700	-8.491	0.100
733.800	-27.303	0.100
733.900	-33.529	0.100
734.000	-31.383	0.100
734.100	-18.458	0.100
734.200	-22.737	0.100
734.300	-23.599	0.100
734.400	-17.492	0.100
734.500	-6.770	0.100
734.600	-13.516	0.100
734.700	-23.707	0.100
734.800	-26.327	0.100
734.900	-20.597	0.100
735.000	-3.366	0.100
735.100	-22.597	0.100
735.200	-21.364	0.100
735.300	-22.090	0.100
735.400	-10.890	0.100
735.500	-13.871	0.100
735.600	-29.895	0.100
735.700	-25.957	0.100
735.800	-21.018	0.100
735.900	-25.719	0.100
736.000	-23.504	0.100
736.100	-8.353	0.100
736.200	-25.449	0.100
736.300	-16.829	0.100
736.400	-15.927	0.100
736.500	-12.250	0.100
736.600	-26.896	0.100
736.700	-13.249	0.100
736.800	-13.403	0.100
736.900	-3.336	0.100
737.000	0.212	0.100
737.100	-34.804	0.100
737.200	0.574	0.100
737.300	-19.164	0.100
737.400	-11.031	0.100
737.500	-17.330	0.100
737.600	-17.363	0.100
737.700	-25.700	0.100
737.800	-15.512	0.100
737.900	-7.703	0.100
738.000	-2.332	0.100
738.100	-20.745	0.100
738.200	-13.995	0.100
738.300	-0.924	0.100
738.400	-23.985	0.100
738.500	-24.971	0.100
738.600	-14.496	0.100
738.700	-6.634	0.100
738.800	-32.373	0.100
738.900	-16.575	0.100
739.000	-5.124	0.100
739.100	-29.166	0.100
739.200	-16.704	0.100
739.300	-20.117	0.100
739.400	-14.141	0.100
739.500	-29.750	0.100
739.600	-25.202	0.100
739.700	-14.751	0.100
739.800	-11.426	0.100
739.900	-21.002	0.100
740.000	-37.598	0.100
740.100	-33.717	0.100
740.200	-13.390	0.100
740.300	-4.148	0.100
740.400	-11.621	0.100
740.500	-15.222	0.100
740.600	-32.573	0.100
740.700	-16.843	0.100
740.800	-19.018	0.100
740.900	-3.399	0.100
741.000	-20.151	0.100
741.100	-3.187	0.100
741.200	-18.805	0.100
741.300	-22.251	0.100
741.400	-10.657	0.100
741.500	-18.667	0.100
741.600	-11.735	0.100
741.700	-40.965	0.100
741.800	-16.135	0.100
741.900	-17.980	0.100
742.000	-11.721	0.100
742.100	-27.414	0.100
742.200	-11.107	0.100
742.300	-28.171	0.100
742.400	-12.970	0.100
742.500	-19.583	0.100
742.600	-17.780	0.100
742.700	-20.933	0.100
742.800	-30.259	0.100
742.900	-5.665	0.100
743.000	-21.412	0.100
743.100	-23.181	0.100
743.200	-7.708	0.100
743.300	-18.498	0.100
743.400	-7.076	0.100
743.500	-26.705	0.100
743.600	-16.082	0.100
743.700	-22.809	0.100
743.800	-11.524	0.100
743.900	-4.678	0.100
744.000	-25.501	0.100
744.100	-28.786	0.100
744.200	-11.944	0.100
744.300	-24.372	0.100
744.400	-0.046	0.100
744.500	-8.114	0.100
744.600	-14.595	0.100
744.700	-20.376	0.100
744.800	-25.726	0.100
744.900	-17.163	0.100
745.000	-29.818	0.100
745.100	-16.826	0.100
745.200	-20.112	0.100
745.300	-11.047	0.100
745.400	-14.932	0.100
745.500	-10.091	0.100
745.600	-20.994	0.100
745.700	-32.395	0.100
745.800	-13.824	0.100
745.900	-30.064	0.100
746.000	-22.092	0.100
746.100	-14.605	0.100
746.200	-8.870	0.100
746.300	-18.763	0.100
746.400	-21.053	0.100
746.500	2.268	0.100
746.600	-23.382	0.100
746.700	7.424	0.100
746.800	-26.164	0.100
746.900	-24.549	0.100
747.000	-22.780	0.100
747.100	-9.568	0.100
747.200	-40.822	0.100
747.300	-22.951	0.100
747.400	-21.414	0.100
747.500	-26.413	0.100
747.600	-20.833	0.100
747.700	-7.686	0.100
747.800	-24.518	0.100
747.900	-12.920	0.100
748.000	-19.832	0.100
748.100	-16.323	0.100
748.200	-8.731	0.100
748.300	-15.858	0.100
748.400	-2.631	0.100
748.500	6.943	0.100
748.600	-19.768	0.100
748.700	-14.997	0.100
748.800	-29.184	0.100
748.900	2.915	0.100
749.000	-10.015	0.100
749.100	-8.582	0.100
749.200	-20.688	0.100
749.300	-21.247	0.100
749.400	-14.085	0.100
749.500	-4.967	0.100
749.600	-11.397	0.100
749.700	-20.064	0.100
749.800	-28.534	0.100
749.900	-19.020	0.100
750.000	-12.895	0.100
750.100	-34.455	0.100
750.200	-15.888	0.100
750.300	-21.023	0.100
750.400	-21.878	0.100
750.500	-21.495	0.100
750.600	-5.701	0.100
750.700	-16.790	0.100
750.800	-28.529	0.100
750.900	-6.219	0.100
751.000	-10.090	0.100
751.100	-19.730	0.100
751.200	-5.905	0.100
751.300	-20.203	0.100
751.400	-17.120	0.100
751.500	-19.325	0.100
751.600	-5.781	0.100
751.700	-4.303	0.100
751.800	-3.506	0.100
751.900	-13.651	0.100
752.000	-5.715	0.100
752.100	-16.679	0.100
752.200	-20.763	0.100
752.300	-13.852	0.100
752.400	-16.370	0.100
752.500	-18.653	0.100
752.600	-25.129	0.100
752.700	-2.008	0.100
752.800	-13.668	0.100
752.900	-21.845	0.100
753.000	-10.048	0.100
753.100	-8.177	0.100
753.200	-15.586	0.100
753.300	-13.173	0.100
753.400	-8.914	0.100
753.500	-33.901	0.100
753.600	-13.772	0.100
753.700	-12.077	0.100
753.800	-5.191	0.100
753.900	-21.491	0.100
754.000	-22.481	0.100
754.100	-17.200	0.100
754.200	-19.506	0.100
754.300	-9.753	0.100
754.400	-19.447	0.100
754.500	-17.813	0.100
754.600	-18.226	0.100
754.700	-11.376	0.100
754.800	-3.455	0.100
754.900	-6.368	0.100
755.000	-7.656	0.100
755.100	-20.716	0.100
755.200	-14.189	0.100
755.300	2.552	0.100
755.400	-28.416	0.100
755.500	-12.469	0.100
755.600	-20.082	0.100
755.700	-15.590	0.100
755.800	-19.616	0.100
755.900	-13.641	0.100
756.000	-9.081	0.100
756.100	-17.256	0.100
756.200	0.476	0.100
756.300	-3.425	0.100
756.400	-27.440	0.100
756.500	-20.206	0.100
756.600	-18.267	0.100
756.700	-11.521	0.100
756.800	-16.447	0.100
756.900	-4.409	0.100
757.000	-25.432	0.100
757.100	-18.587	0.100
757.200	-12.240	0.100
757.300	-20.150	0.100
757.400	-17.008	0.100
757.500	-9.335	0.100
757.600	-5.798	0.100
757.700	-8.519	0.100
757.800	-8.160	0.100
757.900	1.874	0.100
758.000	-25.049	0.100
758.100	-20.483	0.100
758.200	-1.084	0.100
758.300	-25.737	0.100
758.400	-8.986	0.100
758.500	-8.921	0.100
758.600	-9.493	0.100
758.700	-6.271	0.100
758.800	-28.488	0.100
758.900	-26.206	0.100
759.000	-18.198	0.100
759.100	-12.041	0.100
759.200	-17.436	0.100
759.300	-22.937	0.100
759.400	-7.018	0.100
759.500	-16.130	0.100
759.600	-13.590	0.100
759.700	-13.820	0.100
759.800	-2.280	0.100
759.900	-16.784	0.100
760.000	-13.014	0.100
760.100	-4.655	0.100
760.200	-13.399	0.100
760.300	-13.617	0.100
760.400	-16.970	0.100
760.500	-17.264	0.100
760.600	-15.248	0.100
760.700	-19.990	0.100
760.800	-18.776	0.100
760.900	-14.641	0.100
761.000	-21.548	0.100
761.100	-19.268	0.100
761.200	11.386	0.100
761.300	-27.522	0.100
761.400	5.708	0.100
761.500	-25.105	0.100
761.600	-7.825	0.100
761.700	-18.743	0.100
761.800	-8.977	0.100
761.900	-3.019	0.100
762.000	-27.353	0.100
762.100	-21.808	0.100
762.200	-9.341	0.100
762.300	-12.993	0.100
762.400	-27.846	0.100
762.500	-11.285	0.100
762.600	-24.754	0.100
762.700	-7.839	0.100
762.800	-23.923	0.100
762.900	-12.525	0.100
763.000	-14.359	0.100
763.100	-13.241	0.100
763.200	-14.784	0.100
763.300	-9.320	0.100
763.400	-6.432	0.100
763.500	-4.881	0.100
763.600	-13.285	0.100
763.700	-1.578	0.100
763.800	-26.875	0.100
763.900	-14.786	0.100
764.000	-2.792	0.100
764.100	-9.450	0.100
764.200	-0.872	0.100
764.300	-13.426	0.100
764.400	-8.936	0.100
764.500	-21.030	0.100
764.600	-12.137	0.100
764.700	-6.188	0.100
764.800	-21.264	0.100
764.900	9.712	0.100
765.000	-16.011	0.100
765.100	-13.559	0.100
765.200	-13.959	0.100
765.300	-14.812	0.100
765.400	-9.719	0.100
765.500	-12.397	0.100
765.600	-20.423	0.100
765.700	-26.130	0.100
765.800	-26.651	0.100
765.900	2.732	0.100
766.000	-10.986	0.100
766.100	-25.694	0.100
766.200	-21.603	0.100
766.300	-17.278	0.100
766.400	-15.110	0.100
766.500	-22.840	0.100
766.600	-11.708	0.100
766.700	-12.234	0.100
766.800	1.024	0.100
766.900	4.951	0.100
767.000	-37.014	0.100
767.100	-24.536	0.100
767.200	-21.161	0.100
767.300	0.842	0.100
767.400	-8.888	0.100
767.500	-29.305	0.100
767.600	-14.933	0.100
767.700	-17.293	0.100
767.800	9.556	0.100
767.900	-3.946	0.100
768.000	-7.017	0.100
768.100	-26.773	0.100
768.200	-21.192	0.100
768.300	-2.985	0.100
768.400	-25.438	0.100
768.500	-7.561	0.100
768.600	-5.606	0.100
768.700	-6.586	0.100
768.800	-19.919	0.100
768.900	-12.730	0.100
769.000	-13.351	0.100
769.100	-23.406	0.100
769.200	3.870	0.100
769.300	-29.839	0.100
769.400	-12.718	0.100
769.500	-24.064	0.100
769.600	8.156	0.100
769.700	-10.395	0.100
769.800	-16.774	0.100
769.900	-7.357	0.100
770.000	-15.249	0.100
770.100	-3.141	0.100
770.200	-3.200	0.100
770.300	-0.154	0.100
770.400	-10.434	0.100
770.500	-13.861	0.100
770.600	-8.639	0.100
770.700	-23.503	0.100
770.800	-20.804	0.100
770.900	-21.812	0.100
771.000	-7.997	0.100
771.100	-14.750	0.100
771.200	-8.405	0.100
771.300	-22.572	0.100
771.400	-22.162	0.100
771.500	-5.620	0.100
771.600	-20.741	0.100
771.700	-13.471	0.100
771.800	-7.160	0.100
771.900	-17.314	0.100
772.000	-11.687	0.100
772.100	-4.628	0.100
772.200	-13.699	0.100
772.300	-25.543	0.100
772.400	-4.635	0.100
772.500	-21.661	0.100
772.600	-10.660	0.100
772.700	-13.533	0.100
772.800	-15.227	0.100
772.900	-18.113	0.100
773.000	-5.872	0.100
773.100	-10.671	0.100
773.200	-5.872	0.100
773.300	-21.278	0.100
773.400	-18.035	0.100
773.500	-18.928	0.100
773.600	-11.438	0.100
773.700	-14.327	0.100
773.800	-23.552	0.100
773.900	0.690	0.100
774.000	-18.889	0.100
774.100	-10.148	0.100
774.200	-16.007	0.100
774.300	-1.842	0.100
774.400	-13.463	0.100
774.500	-3.182	0.100
774.600	-1.209	0.100
774.700	-19.027	0.100
774.800	-17.579	0.100
774.900	-24.539	0.100
775.000	-21.842	0.100
775.100	-15.002	0.100
775.200	-3.671	0.100
775.300	-4.499	0.100
775.400	-8.124	0.100
775.500	-15.815	0.100
775.600	-21.319	0.100
775.700	2.659	0.100
775.800	-13.512	0.100
775.900	-3.427	0.100
776.000	-6.995	0.100
776.100	-30.594	0.100
776.200	4.560	0.100
776.300	-19.830	0.100
776.400	7.172	0.100
776.500	-25.041	0.100
776.600	-15.872	0.100
776.700	-5.003	0.100
776.800	-30.585	0.100
776.900	-16.131	0.100
777.000	-5.361	0.100
777.100	-15.025	0.100
777.200	-18.159	0.100
777.300	-20.029	0.100
777.400	-12.915	0.100
777.500	-5.818	0.100
777.600	-4.064	0.100
777.700	-12.841	0.100
777.800	-18.718	0.100
777.900	-19.680	0.100
778.000	-11.056	0.100
778.100	-24.900	0.100
778.200	-21.069	0.100
778.300	-11.846	0.100
778.400	-21.941	0.100
778.500	-18.671	0.100
778.600	-13.995	0.100
778.700	-9.791	0.100
778.800	-9.095	0.100
778.900	-13.020	0.100
779.000	-18.302	0.100
779.100	-14.207	0.100
779.200	-0.769	0.100
779.300	-22.105	0.100
779.400	-8.932	0.100
779.500	-12.986	0.100
779.600	-20.391	0.100
779.700	-26.802	0.100
779.800	-19.938	0.100
779.900	-11.215	0.100
780.000	-21.631	0.100
780.100	-6.756	0.100
780.200	-2.933	0.100
780.300	-17.012	0.100
780.400	-8.249	0.100
780.500	13.078	0.100
780.600	2.780	0.100
780.700	-3.172	0.100
780.800	2.000	0.100
780.900	14.713	0.100
781.000	22.487	0.100
781.100	18.673	0.100
781.200	32.216	0.100
781.300	17.960	0.100
781.400	12.536	0.100
781.500	23.035	0.100
781.600	28.449	0.100
781.700	27.507	0.100
781.800	17.548	0.100
781.900	33.566	0.100
782.000	35.722	0.100
782.100	38.962	0.100
782.200	34.914	0.100
782.300	32.792	0.100
782.400	50.049	0.100
782.500	35.013	0.100
782.600	38.958	0.100
782.700	45.759	0.100
782.800	36.564	0.100
782.900	36.092	0.100
783.000	35.009	0.100
783.100	34.360	0.100
783.200	21.857	0.100
783.300	38.811	0.100
783.400	42.130	0.100
783.500	48.626	0.100
783.600	36.408	0.100
783.700	28.739	0.100
783.800	43.776	0.100
783.900	45.284	0.100
784.000	44.997	0.100
784.100	37.164	0.100
784.200	42.470	0.100
784.300	30.838	0.100
784.400	25.656	0.100
784.500	34.337	0.100
784.600	22.960	0.100
784.700	39.531	0.100
784.800	35.741	0.100
784.900	37.889	0.100
785.000	37.055	0.100
785.100	10.287	0.100
785.200	23.697	0.100
785.300	11.970	0.100
785.400	33.816	0.100
785.500	33.228	0.100
785.600	24.323	0.100
785.700	23.274	0.100
785.800	18.682	0.100
785.900	39.903	0.100
786.000	24.337	0.100
786.100	19.406	0.100
786.200	24.557	0.100
786.300	7.901	0.100
786.400	21.460	0.100
786.500	24.501	0.100
786.600	14.662	0.100
786.700	11.956	0.100
786.800	28.793	0.100
786.900	21.241	0.100
787.000	16.773	0.100
787.100	27.495	0.100
787.200	17.989	0.100
787.300	39.517	0.100
787.400	16.289	0.100
787.500	36.822	0.100
787.600	39.166	0.100
787.700	14.731	0.100
787.800	34.413	0.100
787.900	22.073	0.100
788.000	23.951	0.100
788.100	19.562	0.100
788.200	14.483	0.100
788.300	30.142	0.100
788.400	31.390	0.100
788.500	39.868	0.100
788.600	33.626	0.100
788.700	34.779	0.100
788.800	45.649	0.100
788.900	34.379	0.100
789.000	22.973	0.100
789.100	25.657	0.100
789.200	20.495	0.100
789.300	19.841	0.100
789.400	24.329	0.100
789.500	17.077	0.100
789.600	29.998	0.100
789.700	47.127	0.100
789.800	27.379	0.100
789.900	26.467	0.100
790.000	30.556	0.100
790.100	32.014	0.100
790.200	27.450	0.100
790.300	43.848	0.100
790.400	6.293	0.100
790.500	29.640	0.100
790.600	25.143	0.100
790.700	47.296	0.100
790.800	22.403	0.100
790.900	16.545	0.100
791.000	23.070	0.100
791.100	56.562	0.100
791.200	15.712	0.100
791.300	42.536	0.100
791.400	59.706	0.100
791.500	42.133	0.100
791.600	36.456	0.100
791.700	29.764	0.100
791.800	40.703	0.100
791.900	37.657	0.100
792.000	34.835	0.100
792.100	25.288	0.100
792.200	43.874	0.100
792.300	46.157	0.100
792.400	40.667	0.100
792.500	59.045	0.100
792.600	35.998	0.100
792.700	45.230	0.100
792.800	60.047	0.100
792.900	51.539	0.100
793.000	37.284	0.100
793.100	52.184	0.100
793.200	55.835	0.100
793.300	46.945	0.100
793.400	81.348	0.100
793.500	64.977	0.100
793.600	50.761	0.100
793.700	55.946	0.100
793.800	57.447	0.100
793.900	50.334	0.100
794.000	57.972	0.100
794.100	37.343	0.100
794.200	43.040	0.100
794.300	60.185	0.100
794.400	51.203	0.100
794.500	55.079	0.100
794.600	68.304	0.100
794.700	44.541	0.100
794.800	56.964	0.100
794.900	66.251	0.100
795.000	60.479	0.100
795.100	70.251	0.100
795.200	68.975	0.100
795.300	71.449	0.100
795.400	60.022	0.100
795.500	51.462	0.100
795.600	75.922	0.100
795.700	60.577	0.100
795.800	70.562	0.100
795.900	58.454	0.100
796.000	75.130	0.100
796.100	64.797	0.100
796.200	63.479	0.100
796.300	64.750	0.100
796.400	83.021	0.100
796.500	62.008	0.100
796.600	69.106	0.100
796.700	58.169	0.100
796.800	69.103	0.100
796.900	73.549	0.100
797.000	56.546	0.100
797.100	68.636	0.100
797.200	49.637	0.100
797.300	76.746	0.100
797.400	52.235	0.100
797.500	69.913	0.100
797.600	61.846	0.100
797.700	72.907	0.100
797.800	65.969	0.100
797.900	75.468	0.100
798.000	63.864	0.100
798.100	72.489	0.100
798.200	67.526	0.100
798.300	65.728	0.100
798.400	69.051	0.100
798.500	71.551	0.100
798.600	47.316	0.100
798.700	64.297	0.100
798.800	61.349	0.100
798.900	62.516	0.100
799.000	81.510	0.100
799.100	64.050	0.100
799.200	59.913	0.100
799.300	60.953	0.100
799.400	56.860	0.100
799.500	69.547	0.100
799.600	60.929	0.100
799.700	56.847	0.100
799.800	46.250	0.100
799.900	59.337	0.100
800.000	63.788	0.100
