time /s	I /nA	E /V
0.100	-26.498	0.100
0.200	-18.724	0.100
0.300	-23.405	0.100
0.400	-29.460	0.100
0.500	-19.483	0.100
0.600	-28.655	0.100
0.700	-35.954	0.100
0.800	-17.152	0.100
0.900	-15.134	0.100
1.000	-33.025	0.100
1.100	-24.378	0.100
1.200	-20.942	0.100
1.300	-15.636	0.100
1.400	-22.738	0.100
1.500	-26.361	0.100
1.600	-14.566	0.100
1.700	-11.682	0.100
1.800	-22.178	0.100
1.900	-27.923	0.100
2.000	-1.118	0.100
2.100	-15.939	0.100
2.200	-3.820	0.100
2.300	-12.935	0.100
2.400	-12.599	0.100
2.500	-13.234	0.100
2.600	-30.032	0.100
2.700	-23.951	0.100
2.800	-22.391	0.100
2.900	-20.019	0.100
3.000	-21.261	0.100
3.100	-18.947	0.100
3.200	-13.433	0.100
3.300	-25.478	0.100
3.400	-16.281	0.100
3.500	-30.659	0.100
3.600	-23.940	0.100
3.700	-9.491	0.100
3.800	-14.100	0.100
3.900	-18.555	0.100
4.000	-17.630	0.100
4.100	-31.609	0.100
4.200	-25.800	0.100
4.300	-7.480	0.100
4.400	-20.496	0.100
4.500	-12.654	0.100
4.600	-26.722	0.100
4.700	-27.606	0.100
4.800	-32.400	0.100
4.900	-22.641	0.100
5.000	-16.582	0.100
5.100	0.348	0.100
5.200	-28.975	0.100
5.300	-40.951	0.100
5.400	-21.965	0.100
5.500	-13.854	0.100
5.600	-9.149	0.100
5.700	-18.389	0.100
5.800	-22.506	0.100
5.900	-33.931	0.100
6.000	-0.213	0.100
6.100	-11.907	0.100
6.200	-12.475	0.100
6.300	-15.012	0.100
6.400	-33.843	0.100
6.500	-15.518	0.100
6.600	-17.776	0.100
6.700	-37.737	0.100
6.800	-20.533	0.100
6.900	-18.939	0.100
7.000	-2.314	0.100
7.100	-30.297	0.100
7.200	-4.703	0.100
7.300	-11.771	0.100
7.400	-29.953	0.100
7.500	-22.277	0.100
7.600	-10.499	0.100
7.700	-3.593	0.100
7.800	-25.328	0.100
7.900	-24.689	0.100
8.000	-14.891	0.100
8.100	-28.116	0.100
8.200	-31.551	0.100
8.300	-9.059	0.100
8.400	-13.464	0.100
8.500	-19.028	0.100
8.600	-17.931	0.100
8.700	-24.606	0.100
8.800	-3.187	0.100
8.900	-10.103	0.100
9.000	-23.075	0.100
9.100	-28.341	0.100
9.200	-26.142	0.100
9.300	-30.588	0.100
9.400	-11.705	0.100
9.500	-16.569	0.100
9.600	-4.975	0.100
9.700	-21.127	0.100
9.800	-26.834	0.100
9.900	-13.763	0.100
10.000	-30.289	0.100
10.100	-0.532	0.100
10.200	-27.092	0.100
10.300	-14.492	0.100
10.400	-30.601	0.100
10.500	-17.935	0.100
10.600	-22.425	0.100
10.700	-22.370	0.100
10.800	-15.886	0.100
10.900	-22.980	0.100
11.000	-24.037	0.100
11.100	1.304	0.100
11.200	-48.429	0.100
11.300	4.181	0.100
11.400	-10.963	0.100
11.500	-20.850	0.100
11.600	-18.702	0.100
11.700	-17.509	0.100
11.800	-15.381	0.100
11.900	-33.331	0.100
12.000	-29.989	0.100
12.100	-1.822	0.100
12.200	-30.178	0.100
12.300	-22.741	0.100
12.400	-10.286	0.100
12.500	-18.880	0.100
12.600	-23.958	0.100
12.700	-31.454	0.100
12.800	-4.705	0.100
12.900	-13.728	0.100
13.000	-17.852	0.100
13.100	-36.827	0.100
13.200	-30.988	0.100
13.300	-25.822	0.100
13.400	-13.023	0.100
13.500	-2.116	0.100
13.600	-2.363	0.100
13.700	-36.471	0.100
13.800	-18.472	0.100
13.900	-13.442	0.100
14.000	-9.049	0.100
14.100	-18.625	0.100
14.200	-28.673	0.100
14.300	-14.166	0.100
14.400	-12.194	0.100
14.500	-17.090	0.100
14.600	-16.208	0.100
14.700	-20.987	0.100
14.800	-24.799	0.100
14.900	-12.550	0.100
15.000	-32.555	0.100
15.100	-23.920	0.100
15.200	-34.871	0.100
15.300	-2.521	0.100
15.400	-28.587	0.100
15.500	-17.825	0.100
15.600	-12.521	0.100
15.700	-22.092	0.100
15.800	-31.019	0.100
15.900	-6.840	0.100
16.000	-10.518	0.100
16.100	-23.813	0.100
16.200	-20.321	0.100
16.300	-11.713	0.100
16.400	-24.293	0.100
16.500	-17.296	0.100
16.600	-28.491	0.100
16.700	-22.809	0.100
16.800	-19.564	0.100
16.900	-30.165	0.100
17.000	-27.494	0.100
17.100	-13.691	0.100
17.200	-3.618	0.100
17.300	-31.055	0.100
17.400	-13.490	0.100
17.500	-1.266	0.100
17.600	-44.131	0.100
17.700	-19.263	0.100
17.800	-12.293	0.100
17.900	-10.040	0.100
18.000	-14.171	0.100
18.100	1.769	0.100
18.200	-18.254	0.100
18.300	-11.876	0.100
18.400	-20.836	0.100
18.500	-6.809	0.100
18.600	-20.155	0.100
18.700	-32.417	0.100
18.800	-13.303	0.100
18.900	-16.604	0.100
19.000	-17.104	0.100
19.100	-13.687	0.100
19.200	-15.947	0.100
19.300	-16.803	0.100
19.400	-29.816	0.100
19.500	-21.527	0.100
19.600	-30.337	0.100
19.700	-27.359	0.100
19.800	-19.965	0.100
19.900	-13.182	0.100
20.000	-25.276	0.100
20.100	-25.239	0.100
20.200	-34.964	0.100
20.300	2.668	0.100
20.400	-16.111	0.100
20.500	-15.752	0.100
20.600	-20.455	0.100
20.700	-10.602	0.100
20.800	-31.791	0.100
20.900	-24.038	0.100
21.000	-22.892	0.100
21.100	-19.581	0.100
21.200	-7.089	0.100
21.300	-21.571	0.100
21.400	-4.551	0.100
21.500	-28.082	0.100
21.600	-9.752	0.100
21.700	-19.989	0.100
21.800	-7.106	0.100
21.900	-7.115	0.100
22.000	-33.482	0.100
22.100	-9.090	0.100
22.200	-29.239	0.100
22.300	-2.680	0.100
22.400	-10.464	0.100
22.500	-19.950	0.100
22.600	-23.141	0.100
22.700	-25.120	0.100
22.800	-6.730	0.100
22.900	-18.614	0.100
23.000	-22.075	0.100
23.100	-11.191	0.100
23.200	-7.996	0.100
23.300	-15.825	0.100
23.400	-24.900	0.100
23.500	-24.966	0.100
23.600	-28.396	0.100
23.700	-3.037	0.100
23.800	-31.493	0.100
23.900	-11.664	0.100
24.000	-15.263	0.100
24.100	-26.143	0.100
24.200	-36.259	0.100
24.300	-26.234	0.100
24.400	-22.007	0.100
24.500	-16.720	0.100
24.600	-19.287	0.100
24.700	-11.325	0.100
24.800	-39.447	0.100
24.900	-17.519	0.100
25.000	-26.459	0.100
25.100	-27.473	0.100
25.200	-15.003	0.100
25.300	-22.771	0.100
25.400	-13.251	0.100
25.500	-29.531	0.100
25.600	-16.602	0.100
25.700	-30.787	0.100
25.800	-13.595	0.100
25.900	-16.771	0.100
26.000	-3.306	0.100
26.100	-11.525	0.101
26.200	-32.929	0.100
26.300	-15.811	0.100
26.400	-17.217	0.101
26.500	-23.476	0.100
26.600	-28.971	0.100
26.700	-3.859	0.101
26.800	-9.344	0.100
26.900	-12.520	0.101
27.000	-28.933	0.101
27.100	-37.812	0.100
27.200	-14.969	0.100
27.300	-11.533	0.100
27.400	-15.041	0.101
27.500	-28.877	0.101
27.600	1.027	0.100
27.700	-50.855	0.100
27.800	-31.396	0.100
27.900	-12.950	0.101
28.000	-13.505	0.100
28.100	-22.129	0.100
28.200	-8.910	0.101
28.300	-21.933	0.100
28.400	-7.646	0.100
28.500	-20.766	0.100
28.600	-23.936	0.100
28.700	-26.270	0.101
28.800	-25.384	0.101
28.900	-10.306	0.101
29.000	-12.614	0.100
29.100	-7.543	0.100
29.200	-32.731	0.100
29.300	-19.264	0.100
29.400	-13.159	0.100
29.500	-6.973	0.101
29.600	-33.378	0.101
29.700	-18.227	0.100
29.800	-27.124	0.100
29.900	-18.345	0.101
30.000	-22.675	0.100
30.100	-7.991	0.101
30.200	-7.247	0.101
30.300	-33.079	0.100
30.400	12.822	0.101
30.500	-37.205	0.100
30.600	-24.171	0.101
30.700	-14.712	0.100
30.800	-30.359	0.100
30.900	-18.146	0.101
31.000	4.406	0.100
31.100	-25.825	0.100
31.200	-16.059	0.101
31.300	3.113	0.101
31.400	-5.535	0.101
31.500	-11.156	0.101
31.600	-14.574	0.100
31.700	-0.508	0.101
31.800	-31.827	0.101
31.900	-0.374	0.100
32.000	-14.483	0.101
32.100	-13.543	0.101
32.200	-5.399	0.101
32.300	3.470	0.100
32.400	-10.391	0.100
32.500	1.876	0.101
32.600	-12.228	0.100
32.700	-17.031	0.100
32.800	-15.158	0.100
32.900	-2.350	0.101
33.000	-10.874	0.101
33.100	14.680	0.101
33.200	-10.534	0.100
33.300	5.760	0.101
33.400	-12.272	0.100
33.500	-15.093	0.101
33.600	0.911	0.101
33.700	-22.592	0.101
33.800	-9.231	0.100
33.900	15.454	0.101
34.000	2.271	0.101
34.100	-10.013	0.101
34.200	-19.656	0.101
34.300	-1.227	0.101
34.400	-11.167	0.101
34.500	-18.147	0.101
34.600	-14.228	0.101
34.700	14.557	0.101
34.800	1.822	0.100
34.900	-22.210	0.101
35.000	-16.291	0.101
35.100	-16.060	0.101
35.200	9.799	0.101
35.300	-22.586	0.101
35.400	-0.362	0.101
35.500	-19.106	0.101
35.600	-4.793	0.101
35.700	-3.747	0.101
35.800	-12.582	0.101
35.900	0.934	0.101
36.000	-19.106	0.101
36.100	3.864	0.101
36.200	-9.061	0.101
36.300	-9.241	0.101
36.400	-10.444	0.101
36.500	-23.106	0.101
36.600	-21.429	0.101
36.700	-12.352	0.101
36.800	-10.434	0.101
36.900	-1.767	0.101
37.000	5.005	0.101
37.100	6.325	0.101
37.200	-17.934	0.101
37.300	-4.218	0.101
37.400	-7.559	0.101
37.500	2.329	0.101
37.600	-3.526	0.101
37.700	5.234	0.101
37.800	5.619	0.101
37.900	0.210	0.101
38.000	-14.043	0.101
38.100	-7.266	0.101
38.200	-25.257	0.101
38.300	-2.911	0.101
38.400	7.706	0.101
38.500	-8.888	0.101
38.600	-22.237	0.101
38.700	5.197	0.101
38.800	-9.367	0.101
38.900	-0.528	0.101
39.000	0.265	0.101
39.100	-7.763	0.101
39.200	-0.634	0.101
39.300	-29.059	0.101
39.400	6.634	0.101
39.500	-23.575	0.101
39.600	5.845	0.101
39.700	-14.438	0.101
39.800	-21.718	0.101
39.900	-10.517	0.101
40.000	-0.198	0.101
40.100	2.158	0.101
40.200	-2.033	0.101
40.300	0.839	0.101
40.400	1.959	0.101
40.500	-18.233	0.101
40.600	2.611	0.101
40.700	-5.753	0.101
40.800	12.127	0.101
40.900	8.691	0.101
41.000	0.311	0.101
41.100	-7.995	0.101
41.200	-1.545	0.101
41.300	-4.575	0.101
41.400	-6.477	0.101
41.500	-9.928	0.101
41.600	-6.758	0.101
41.700	9.222	0.101
41.800	-6.702	0.101
41.900	0.686	0.101
42.000	0.316	0.101
42.100	10.511	0.101
42.200	-14.250	0.101
42.300	-0.778	0.101
42.400	-3.574	0.101
42.500	4.936	0.101
42.600	-11.812	0.101
42.700	1.583	0.101
42.800	3.772	0.101
42.900	-16.745	0.101
43.000	2.468	0.101
43.100	-7.675	0.101
43.200	-5.184	0.101
43.300	33.385	0.101
43.400	0.169	0.101
43.500	-3.813	0.101
43.600	-4.002	0.101
43.700	-8.152	0.101
43.800	5.427	0.101
43.900	11.531	0.101
44.000	-9.339	0.101
44.100	5.652	0.101
44.200	4.624	0.101
44.300	1.723	0.101
44.400	12.198	0.101
44.500	-14.338	0.101
44.600	-18.053	0.101
44.700	23.005	0.101
44.800	3.066	0.101
44.900	-16.300	0.101
45.000	-7.801	0.101
45.100	9.969	0.101
45.200	-3.834	0.101
45.300	4.187	0.101
45.400	2.236	0.101
45.500	-3.743	0.101
45.600	10.996	0.101
45.700	16.500	0.101
45.800	-1.286	0.101
45.900	7.056	0.101
46.000	1.562	0.101
46.100	11.534	0.101
46.200	4.204	0.101
46.300	-4.571	0.101
46.400	-15.685	0.101
46.500	-3.328	0.101
46.600	-3.867	0.101
46.700	-2.155	0.101
46.800	19.939	0.101
46.900	2.750	0.101
47.000	-5.254	0.101
47.100	-3.880	0.101
47.200	26.342	0.101
47.300	7.261	0.101
47.400	8.549	0.101
47.500	11.184	0.101
47.600	19.296	0.101
47.700	10.283	0.101
47.800	-1.592	0.101
47.900	-15.451	0.101
48.000	14.346	0.101
48.100	8.697	0.101
48.200	22.731	0.101
48.300	14.528	0.101
48.400	-0.493	0.101
48.500	28.327	0.101
48.600	17.810	0.101
48.700	-5.680	0.101
48.800	24.639	0.101
48.900	-8.260	0.101
49.000	9.840	0.101
49.100	29.433	0.101
49.200	17.704	0.101
49.300	4.911	0.101
49.400	8.118	0.101
49.500	-0.410	0.101
49.600	22.937	0.101
49.700	4.576	0.101
49.800	2.764	0.101
49.900	5.811	0.101
50.000	27.877	0.101
50.100	7.644	0.101
50.200	14.108	0.101
50.300	24.885	0.101
50.400	15.292	0.101
50.500	8.414	0.101
50.600	16.413	0.101
50.700	11.481	0.101
50.800	0.416	0.101
50.900	-0.338	0.101
51.000	15.766	0.101
51.100	12.305	0.101
51.200	15.066	0.101
51.300	8.629	0.101
51.400	17.364	0.101
51.500	3.937	0.101
51.600	12.526	0.101
51.700	13.172	0.101
51.800	12.380	0.101
51.900	3.788	0.101
52.000	3.797	0.101
52.100	6.526	0.101
52.200	6.758	0.101
52.300	10.115	0.101
52.400	7.832	0.101
52.500	16.461	0.101
52.600	18.558	0.101
52.700	28.794	0.101
52.800	12.155	0.101
52.900	20.527	0.101
53.000	2.504	0.101
53.100	10.395	0.101
53.200	19.842	0.101
53.300	25.912	0.101
53.400	17.501	0.101
53.500	12.108	0.101
53.600	18.680	0.101
53.700	14.911	0.101
53.800	18.181	0.101
53.900	23.104	0.101
54.000	1.396	0.101
54.100	8.758	0.101
54.200	-7.038	0.101
54.300	12.446	0.101
54.400	19.732	0.101
54.500	19.002	0.101
54.600	17.964	0.101
54.700	10.041	0.101
54.800	30.025	0.101
54.900	11.166	0.101
55.000	12.781	0.101
55.100	12.077	0.101
55.200	22.057	0.101
55.300	-2.431	0.101
55.400	-1.114	0.101
55.500	0.645	0.101
55.600	20.249	0.101
55.700	17.072	0.101
55.800	21.458	0.101
55.900	4.073	0.101
56.000	20.482	0.101
56.100	22.450	0.101
56.200	-2.536	0.101
56.300	19.431	0.101
56.400	6.987	0.101
56.500	17.947	0.101
56.600	8.542	0.101
56.700	21.982	0.101
56.800	14.819	0.101
56.900	7.842	0.101
57.000	14.060	0.101
57.100	18.070	0.101
57.200	17.070	0.101
57.300	-5.590	0.101
57.400	12.985	0.101
57.500	9.039	0.101
57.600	11.683	0.101
57.700	22.179	0.101
57.800	16.574	0.101
57.900	-24.679	0.101
58.000	45.214	0.101
58.100	12.411	0.101
58.200	15.855	0.101
58.300	7.814	0.101
58.400	-2.985	0.101
58.500	29.031	0.101
58.600	31.455	0.101
58.700	5.669	0.101
58.800	10.740	0.101
58.900	3.320	0.101
59.000	6.789	0.101
59.100	3.934	0.101
59.200	15.964	0.101
59.300	30.178	0.101
59.400	21.834	0.101
59.500	17.510	0.101
59.600	12.531	0.101
59.700	4.870	0.101
59.800	30.019	0.101
59.900	10.735	0.101
60.000	13.760	0.101
60.100	6.755	0.101
60.200	10.876	0.101
60.300	18.578	0.101
60.400	3.276	0.101
60.500	-4.709	0.101
60.600	27.651	0.101
60.700	14.755	0.101
60.800	2.824	0.101
60.900	-16.154	0.101
61.000	24.491	0.101
61.100	1.694	0.101
61.200	27.858	0.101
61.300	25.123	0.101
61.400	9.667	0.101
61.500	9.411	0.101
61.600	11.228	0.101
61.700	16.712	0.101
61.800	13.218	0.101
61.900	18.727	0.101
62.000	5.702	0.101
62.100	3.492	0.101
62.200	-4.422	0.101
62.300	18.629	0.101
62.400	10.795	0.101
62.500	24.420	0.101
62.600	9.779	0.101
62.700	12.638	0.101
62.800	18.604	0.101
62.900	16.418	0.101
63.000	21.479	0.101
63.100	18.512	0.101
63.200	10.333	0.101
63.300	15.980	0.101
63.400	24.392	0.101
63.500	8.654	0.101
63.600	6.934	0.101
63.700	-12.924	0.101
63.800	-6.968	0.101
63.900	17.554	0.101
64.000	-5.970	0.101
64.100	26.314	0.101
64.200	17.013	0.101
64.300	20.322	0.101
64.400	-6.179	0.101
64.500	12.192	0.101
64.600	19.443	0.101
64.700	0.817	0.101
64.800	11.041	0.101
64.900	7.069	0.101
65.000	9.063	0.101
65.100	-0.060	0.101
65.200	4.991	0.101
65.300	-1.703	0.101
65.400	11.630	0.101
65.500	-3.368	0.101
65.600	25.384	0.101
65.700	-5.263	0.101
65.800	20.292	0.101
65.900	6.840	0.101
66.000	29.848	0.101
66.100	-7.638	0.101
66.200	10.513	0.101
66.300	35.842	0.101
66.400	15.457	0.101
66.500	14.538	0.101
66.600	19.843	0.101
66.700	1.526	0.101
66.800	12.799	0.101
66.900	-0.856	0.101
67.000	16.116	0.101
67.100	5.916	0.101
67.200	-6.180	0.101
67.300	5.363	0.101
67.400	10.148	0.101
67.500	30.822	0.101
67.600	17.577	0.101
67.700	0.781	0.101
67.800	13.111	0.101
67.900	7.157	0.101
68.000	2.740	0.101
68.100	4.948	0.101
68.200	18.790	0.101
68.300	7.815	0.101
68.400	-0.120	0.101
68.500	8.527	0.101
68.600	15.634	0.101
68.700	15.353	0.101
68.800	18.941	0.101
68.900	0.189	0.101
69.000	22.060	0.101
69.100	3.884	0.101
69.200	7.161	0.101
69.300	17.952	0.101
69.400	12.819	0.101
69.500	16.322	0.101
69.600	3.169	0.101
69.700	-1.780	0.101
69.800	13.344	0.101
69.900	-4.106	0.101
70.000	8.315	0.101
70.100	-2.430	0.101
70.200	23.771	0.101
70.300	3.651	0.101
70.400	14.699	0.101
70.500	6.495	0.101
70.600	7.770	0.101
70.700	-4.169	0.101
70.800	6.275	0.100
70.900	4.026	0.100
71.000	1.623	0.100
71.100	14.182	0.100
71.200	19.803	0.100
71.300	20.448	0.100
71.400	11.595	0.100
71.500	15.396	0.100
71.600	3.830	0.100
71.700	-9.854	0.100
71.800	6.114	0.100
71.900	22.402	0.100
72.000	-1.852	0.100
72.100	-3.527	0.100
72.200	7.210	0.100
72.300	3.698	0.100
72.400	4.254	0.100
72.500	2.858	0.100
72.600	7.955	0.100
72.700	-1.701	0.100
72.800	2.837	0.100
72.900	18.351	0.100
73.000	0.194	0.100
73.100	25.093	0.100
73.200	7.870	0.100
73.300	-4.365	0.100
73.400	5.189	0.100
73.500	8.434	0.100
73.600	2.473	0.100
73.700	8.378	0.100
73.800	-3.615	0.100
73.900	27.281	0.100
74.000	5.798	0.100
74.100	3.565	0.100
74.200	17.921	0.100
74.300	-5.979	0.100
74.400	1.565	0.100
74.500	12.990	0.100
74.600	24.375	0.100
74.700	8.799	0.100
74.800	3.053	0.100
74.900	0.687	0.100
75.000	23.325	0.100
75.100	8.193	0.100
75.200	5.499	0.100
75.300	-8.845	0.100
75.400	10.585	0.100
75.500	1.474	0.100
75.600	16.637	0.100
75.700	6.578	0.100
75.800	-4.706	0.100
75.900	15.306	0.100
76.000	7.891	0.100
76.100	4.198	0.100
76.200	19.053	0.100
76.300	-1.186	0.100
76.400	3.923	0.100
76.500	7.022	0.100
76.600	-4.200	0.100
76.700	1.204	0.100
76.800	5.342	0.100
76.900	-13.562	0.100
77.000	11.737	0.100
77.100	16.700	0.100
77.200	0.495	0.100
77.300	9.629	0.100
77.400	2.741	0.100
77.500	13.934	0.100
77.600	2.119	0.100
77.700	2.547	0.100
77.800	-4.401	0.100
77.900	-0.015	0.100
78.000	11.184	0.100
78.100	-10.167	0.100
78.200	8.724	0.100
78.300	10.006	0.100
78.400	8.240	0.100
78.500	5.990	0.100
78.600	-10.077	0.100
78.700	1.169	0.100
78.800	16.097	0.100
78.900	8.420	0.100
79.000	-0.896	0.100
79.100	-7.868	0.100
79.200	6.704	0.100
79.300	6.747	0.100
79.400	5.876	0.100
79.500	-12.478	0.100
79.600	-10.734	0.100
79.700	4.830	0.100
79.800	-2.976	0.100
79.900	7.625	0.100
80.000	-2.284	0.100
80.100	9.868	0.100
80.200	1.644	0.100
80.300	8.627	0.100
80.400	16.646	0.100
80.500	-2.766	0.100
80.600	3.592	0.100
80.700	19.610	0.100
80.800	11.928	0.100
80.900	2.669	0.100
81.000	-6.912	0.100
81.100	4.043	0.100
81.200	4.757	0.100
81.300	3.764	0.100
81.400	6.278	0.100
81.500	2.433	0.100
81.600	3.297	0.100
81.700	10.119	0.100
81.800	5.510	0.100
81.900	1.557	0.100
82.000	6.687	0.100
82.100	11.590	0.100
82.200	-5.330	0.100
82.300	-12.549	0.100
82.400	18.627	0.100
82.500	-5.810	0.100
82.600	8.177	0.100
82.700	-2.052	0.100
82.800	11.866	0.100
82.900	-3.673	0.100
83.000	-20.789	0.100
83.100	-0.613	0.100
83.200	2.139	0.100
83.300	-9.098	0.100
83.400	-1.174	0.100
83.500	6.644	0.100
83.600	8.163	0.100
83.700	2.778	0.100
83.800	19.313	0.100
83.900	10.278	0.100
84.000	2.487	0.100
84.100	11.166	0.100
84.200	17.479	0.100
84.300	-9.369	0.100
84.400	10.454	0.100
84.500	7.966	0.100
84.600	2.070	0.100
84.700	-0.574	0.100
84.800	-2.624	0.100
84.900	-15.124	0.100
85.000	11.640	0.100
85.100	7.241	0.100
85.200	6.968	0.100
85.300	-4.265	0.100
85.400	-10.576	0.100
85.500	-9.891	0.100
85.600	0.490	0.100
85.700	1.494	0.100
85.800	5.594	0.100
85.900	13.748	0.100
86.000	4.301	0.100
86.100	4.249	0.100
86.200	-1.649	0.100
86.300	-12.232	0.100
86.400	6.053	0.100
86.500	1.524	0.100
86.600	-8.410	0.100
86.700	21.399	0.100
86.800	7.002	0.100
86.900	7.059	0.100
87.000	10.675	0.100
87.100	-13.819	0.100
87.200	-17.569	0.100
87.300	4.744	0.100
87.400	0.958	0.100
87.500	3.343	0.100
87.600	0.842	0.100
87.700	-7.016	0.100
87.800	8.797	0.100
87.900	15.457	0.100
88.000	-13.871	0.100
88.100	-18.549	0.100
88.200	1.541	0.100
88.300	17.748	0.100
88.400	-15.314	0.100
88.500	-2.988	0.100
88.600	-11.909	0.100
88.700	5.074	0.100
88.800	10.350	0.100
88.900	-5.466	0.100
89.000	7.004	0.100
89.100	-1.176	0.100
89.200	9.161	0.100
89.300	-8.515	0.100
89.400	10.915	0.100
89.500	10.904	0.100
89.600	5.430	0.100
89.700	-5.487	0.100
89.800	-6.358	0.100
89.900	-5.457	0.100
90.000	2.890	0.100
90.100	1.238	0.100
90.200	10.576	0.100
90.300	-9.100	0.100
90.400	-0.017	0.100
90.500	-22.998	0.100
90.600	8.729	0.100
90.700	-12.154	0.100
90.800	5.460	0.100
90.900	-7.250	0.100
91.000	-6.611	0.100
91.100	-2.035	0.100
91.200	-23.428	0.100
91.300	10.314	0.100
91.400	-9.692	0.100
91.500	-4.697	0.100
91.600	-15.149	0.100
91.700	-17.741	0.100
91.800	-12.169	0.100
91.900	-8.928	0.100
92.000	-16.980	0.100
92.100	7.013	0.100
92.200	-14.936	0.100
92.300	-18.127	0.100
92.400	-11.695	0.100
92.500	-7.683	0.100
92.600	-32.680	0.100
92.700	-6.879	0.100
92.800	-28.704	0.100
92.900	-12.527	0.100
93.000	-14.665	0.100
93.100	-19.395	0.100
93.200	-0.414	0.100
93.300	-25.605	0.100
93.400	-34.153	0.100
93.500	-15.742	0.100
93.600	-13.526	0.100
93.700	-24.497	0.100
93.800	-15.977	0.100
93.900	0.099	0.100
94.000	-19.327	0.100
94.100	-20.894	0.100
94.200	-13.117	0.100
94.300	-30.190	0.100
94.400	-19.793	0.100
94.500	-31.444	0.100
94.600	-15.950	0.100
94.700	-13.831	0.100
94.800	-21.423	0.100
94.900	-10.347	0.100
95.000	-10.294	0.100
95.100	-27.588	0.100
95.200	-14.171	0.100
95.300	-15.027	0.100
95.400	-11.275	0.100
95.500	-34.678	0.100
95.600	-19.172	0.100
95.700	-31.983	0.100
95.800	-34.951	0.100
95.900	-18.931	0.100
96.000	-18.945	0.100
96.100	-6.894	0.100
96.200	-38.438	0.100
96.300	-32.336	0.100
96.400	-27.337	0.100
96.500	-24.169	0.100
96.600	-19.872	0.100
96.700	-17.203	0.100
96.800	-26.414	0.100
96.900	-12.494	0.100
97.000	-21.099	0.100
97.100	-21.852	0.100
97.200	-24.967	0.100
97.300	-6.768	0.100
97.400	-11.361	0.100
97.500	-14.042	0.100
97.600	-16.000	0.100
97.700	-38.375	0.100
97.800	-11.422	0.100
97.900	-13.371	0.100
98.000	-17.837	0.100
98.100	-34.438	0.100
98.200	-22.592	0.100
98.300	-18.403	0.100
98.400	-36.817	0.100
98.500	-15.894	0.100
98.600	-23.250	0.100
98.700	-11.924	0.100
98.800	-21.640	0.100
98.900	-39.734	0.100
99.000	-24.700	0.100
99.100	-27.366	0.100
99.200	-42.937	0.100
99.300	-27.499	0.100
99.400	-47.785	0.100
99.500	-21.583	0.100
99.600	-24.052	0.100
99.700	-25.646	0.100
99.800	-14.647	0.100
99.900	-23.500	0.100
100.000	-9.167	0.100
100.100	-28.700	0.100
100.200	-19.094	0.100
100.300	-16.791	0.100
100.400	-42.130	0.100
100.500	-37.172	0.100
100.600	-20.439	0.100
100.700	-7.283	0.100
100.800	-42.352	0.100
100.900	-31.012	0.100
101.000	-24.798	0.100
101.100	-9.480	0.100
101.200	-14.485	0.100
101.300	-31.986	0.100
101.400	-22.802	0.100
101.500	-21.808	0.100
101.600	-19.415	0.100
101.700	-29.123	0.100
101.800	-14.832	0.100
101.900	-48.759	0.100
102.000	-12.797	0.100
102.100	-30.511	0.100
102.200	-23.982	0.100
102.300	-21.861	0.100
102.400	-19.861	0.100
102.500	-27.737	0.100
102.600	-10.352	0.100
102.700	-21.313	0.100
102.800	-27.036	0.100
102.900	-18.469	0.100
103.000	-6.725	0.100
103.100	-25.242	0.100
103.200	-6.751	0.100
103.300	-22.614	0.100
103.400	-34.085	0.100
103.500	-29.016	0.100
103.600	-8.245	0.100
103.700	-6.883	0.100
103.800	-30.680	0.100
103.900	-23.981	0.100
104.000	-29.344	0.100
104.100	-24.094	0.100
104.200	-15.620	0.100
104.300	-21.259	0.100
104.400	-17.583	0.100
104.500	-13.463	0.100
104.600	-42.533	0.100
104.700	-27.403	0.100
104.800	-27.798	0.100
104.900	-25.423	0.100
105.000	-15.908	0.100
105.100	-17.417	0.100
105.200	-35.466	0.100
105.300	-32.766	0.100
105.400	-26.234	0.100
105.500	-18.185	0.100
105.600	-14.405	0.100
105.700	-36.797	0.100
105.800	-34.750	0.100
105.900	-23.216	0.100
106.000	-26.044	0.100
106.100	-23.562	0.100
106.200	-30.107	0.100
106.300	-13.447	0.100
106.400	-30.210	0.100
106.500	-21.314	0.100
106.600	-5.160	0.100
106.700	-33.396	0.100
106.800	-36.466	0.100
106.900	-11.195	0.100
107.000	-23.095	0.100
107.100	-23.121	0.100
107.200	-30.524	0.100
107.300	-29.053	0.100
107.400	-15.268	0.100
107.500	-26.074	0.100
107.600	-14.070	0.100
107.700	-32.144	0.100
107.800	-16.468	0.100
107.900	-9.546	0.100
108.000	-25.239	0.100
108.100	-28.186	0.100
108.200	-36.955	0.100
108.300	-12.785	0.100
108.400	-24.745	0.100
108.500	-14.394	0.100
108.600	-12.162	0.100
108.700	-33.919	0.100
108.800	-34.293	0.100
108.900	-21.358	0.100
109.000	-14.777	0.100
109.100	-13.686	0.100
109.200	-31.094	0.100
109.300	-25.370	0.100
109.400	-3.737	0.100
109.500	-28.838	0.100
109.600	-22.186	0.100
109.700	-18.652	0.100
109.800	-35.849	0.100
109.900	-7.472	0.100
110.000	-31.363	0.100
110.100	-9.736	0.100
110.200	-31.502	0.100
110.300	-37.305	0.100
110.400	-1.781	0.100
110.500	-15.472	0.100
110.600	-2.295	0.100
110.700	-26.506	0.100
110.800	-30.755	0.100
110.900	-25.020	0.100
111.000	-27.709	0.100
111.100	-20.230	0.100
111.200	-32.899	0.100
111.300	-20.264	0.100
111.400	-32.650	0.100
111.500	-28.113	0.100
111.600	-24.102	0.100
111.700	-25.163	0.100
111.800	4.394	0.100
111.900	-28.570	0.100
112.000	-8.695	0.100
112.100	-29.174	0.100
112.200	-15.867	0.100
112.300	-14.099	0.100
112.400	-27.520	0.100
112.500	-30.233	0.100
112.600	-26.547	0.100
112.700	-11.804	0.100
112.800	-26.004	0.100
112.900	-13.242	0.100
113.000	-28.995	0.100
113.100	-19.929	0.100
113.200	-39.539	0.100
113.300	-28.238	0.100
113.400	-27.483	0.100
113.500	-9.648	0.100
113.600	-12.122	0.100
113.700	-23.972	0.100
113.800	-9.604	0.100
113.900	-22.049	0.100
114.000	-19.471	0.100
114.100	-8.848	0.100
114.200	-25.904	0.100
114.300	-28.417	0.100
114.400	-24.604	0.100
114.500	-31.093	0.100
114.600	-38.738	0.100
114.700	-22.682	0.100
114.800	-5.623	0.100
114.900	-24.425	0.100
115.000	-25.303	0.100
115.100	-25.235	0.100
115.200	-6.714	0.100
115.300	-24.022	0.100
115.400	-6.414	0.100
115.500	-18.835	0.100
115.600	-8.647	0.100
115.700	-10.633	0.100
115.800	-33.723	0.100
115.900	-7.986	0.100
116.000	-31.544	0.100
116.100	-27.767	0.100
116.200	-34.240	0.100
116.300	-14.138	0.100
116.400	-26.761	0.100
116.500	-21.536	0.100
116.600	-48.690	0.100
116.700	-15.370	0.100
116.800	-27.614	0.100
116.900	-23.171	0.100
117.000	-30.509	0.100
117.100	-26.104	0.100
117.200	-23.211	0.100
117.300	-18.236	0.100
117.400	-39.179	0.100
117.500	-21.631	0.100
117.600	-26.241	0.100
117.700	-22.281	0.100
117.800	-25.237	0.100
117.900	-22.272	0.100
118.000	-38.191	0.100
118.100	-26.937	0.100
118.200	-23.000	0.100
118.300	-1.158	0.100
118.400	-28.682	0.100
118.500	-24.982	0.100
118.600	-40.862	0.100
118.700	-6.943	0.100
118.800	-37.900	0.100
118.900	-16.839	0.100
119.000	-22.402	0.100
119.100	-17.771	0.100
119.200	-33.350	0.100
119.300	-13.463	0.100
119.400	-15.064	0.100
119.500	-29.929	0.100
119.600	-38.766	0.100
119.700	-12.071	0.100
119.800	-20.751	0.100
119.900	-30.366	0.100
120.000	-20.410	0.100
120.100	-31.597	0.100
120.200	-18.141	0.100
120.300	-31.973	0.100
120.400	-45.842	0.100
120.500	-25.248	0.100
120.600	-18.253	0.100
120.700	-31.837	0.100
120.800	-22.023	0.100
120.900	-12.354	0.100
121.000	-13.367	0.100
121.100	-20.244	0.100
121.200	-24.973	0.100
121.300	-25.902	0.100
121.400	-15.358	0.100
121.500	-24.970	0.100
121.600	-25.729	0.100
121.700	-16.989	0.100
121.800	-32.991	0.100
121.900	-37.117	0.100
122.000	-24.108	0.100
122.100	-24.799	0.100
122.200	-21.709	0.100
122.300	-32.953	0.100
122.400	-29.894	0.100
122.500	-28.082	0.100
122.600	-48.214	0.100
122.700	-23.789	0.100
122.800	-23.604	0.100
122.900	-18.997	0.100
123.000	-19.947	0.100
123.100	-8.964	0.100
123.200	-30.541	0.100
123.300	-18.722	0.100
123.400	-33.039	0.100
123.500	-24.774	0.100
123.600	-16.658	0.100
123.700	-40.406	0.100
123.800	-22.669	0.100
123.900	-12.888	0.100
124.000	-32.858	0.100
124.100	-25.447	0.100
124.200	-35.749	0.100
124.300	-5.376	0.100
124.400	-19.085	0.100
124.500	-20.405	0.100
124.600	-27.754	0.100
124.700	-19.846	0.100
124.800	-21.358	0.100
124.900	-36.137	0.100
125.000	-14.473	0.100
125.100	2.308	0.100
125.200	-34.151	0.100
125.300	-22.215	0.100
125.400	-0.651	0.100
125.500	-22.537	0.100
125.600	-35.893	0.100
125.700	-14.974	0.100
125.800	-12.641	0.100
125.900	-26.910	0.100
126.000	-17.318	0.100
126.100	-16.586	0.100
126.200	-26.929	0.100
126.300	-22.509	0.100
126.400	-28.449	0.100
126.500	-10.460	0.100
126.600	-16.017	0.100
126.700	-12.705	0.100
126.800	-18.157	0.100
126.900	-28.704	0.100
127.000	-16.847	0.100
127.100	-20.992	0.100
127.200	-31.027	0.100
127.300	-21.858	0.100
127.400	-20.252	0.100
127.500	-23.895	0.100
127.600	-37.252	0.100
127.700	-22.629	0.100
127.800	-18.392	0.100
127.900	-12.260	0.100
128.000	-34.443	0.100
128.100	-17.806	0.100
128.200	-30.641	0.100
128.300	-18.559	0.100
128.400	-25.900	0.100
128.500	-36.660	0.100
128.600	-21.769	0.100
128.700	-29.586	0.100
128.800	-29.786	0.100
128.900	-8.935	0.100
129.000	-33.740	0.100
129.100	-27.994	0.100
129.200	-20.357	0.100
129.300	-34.781	0.100
129.400	-12.204	0.100
129.500	-24.893	0.100
129.600	-42.254	0.100
129.700	-13.428	0.100
129.800	-19.959	0.100
129.900	-26.835	0.100
130.000	-22.007	0.100
130.100	-28.473	0.100
130.200	-1.811	0.100
130.300	-36.802	0.100
130.400	-31.068	0.100
130.500	-13.945	0.100
130.600	-28.588	0.100
130.700	-24.991	0.100
130.800	-12.897	0.100
130.900	-36.397	0.100
131.000	-19.799	0.100
131.100	-25.736	0.100
131.200	-11.247	0.100
131.300	-16.177	0.100
131.400	-27.514	0.100
131.500	-8.669	0.100
131.600	-17.562	0.100
131.700	-22.791	0.100
131.800	-42.130	0.100
131.900	-6.113	0.100
132.000	-34.472	0.100
132.100	-15.502	0.100
132.200	-26.116	0.100
132.300	-34.460	0.100
132.400	-24.528	0.100
132.500	-8.718	0.100
132.600	-7.571	0.100
132.700	-25.169	0.100
132.800	-26.268	0.100
132.900	-34.366	0.100
133.000	-23.134	0.100
133.100	-18.086	0.100
133.200	-18.346	0.100
133.300	-22.511	0.100
133.400	-41.263	0.100
133.500	-13.973	0.100
133.600	-22.304	0.100
133.700	-7.756	0.100
133.800	-23.157	0.100
133.900	-12.517	0.100
134.000	-4.443	0.100
134.100	-31.059	0.100
134.200	-20.316	0.100
134.300	-17.672	0.100
134.400	-19.671	0.100
134.500	-8.966	0.100
134.600	-38.105	0.100
134.700	-5.760	0.100
134.800	-30.827	0.100
134.900	-23.628	0.100
135.000	-19.997	0.100
135.100	-34.629	0.100
135.200	-22.089	0.100
135.300	-38.249	0.100
135.400	-13.813	0.100
135.500	-26.073	0.100
135.600	-6.606	0.100
135.700	-43.358	0.100
135.800	-39.850	0.100
135.900	-26.981	0.100
136.000	-17.409	0.100
136.100	-25.133	0.100
136.200	-16.346	0.100
136.300	-48.562	0.100
136.400	-25.513	0.100
136.500	-40.850	0.100
136.600	-1.857	0.100
136.700	-29.393	0.100
136.800	-28.021	0.100
136.900	0.091	0.100
137.000	-30.387	0.100
137.100	-7.517	0.100
137.200	-23.977	0.100
137.300	-26.366	0.100
137.400	-12.646	0.100
137.500	-17.765	0.100
137.600	-15.554	0.100
137.700	-14.098	0.100
137.800	-41.618	0.100
137.900	-34.339	0.100
138.000	-12.856	0.100
138.100	-34.144	0.100
138.200	-18.340	0.100
138.300	-24.424	0.100
138.400	-35.860	0.100
138.500	-28.274	0.100
138.600	-27.710	0.100
138.700	-16.392	0.100
138.800	-29.832	0.100
138.900	-27.266	0.100
139.000	-11.211	0.100
139.100	-36.176	0.100
139.200	-36.496	0.100
139.300	-21.193	0.100
139.400	-18.406	0.100
139.500	-27.847	0.100
139.600	-13.368	0.100
139.700	-25.540	0.100
139.800	-28.398	0.100
139.900	-16.331	0.100
140.000	-27.925	0.100
140.100	-28.683	0.100
140.200	-32.858	0.100
140.300	-3.588	0.100
140.400	-12.421	0.100
140.500	-21.282	0.100
140.600	-0.351	0.100
140.700	-22.001	0.100
140.800	-17.107	0.100
140.900	-13.065	0.100
141.000	-10.240	0.100
141.100	-15.363	0.100
141.200	-9.728	0.100
141.300	-32.544	0.100
141.400	-38.985	0.100
141.500	-17.787	0.100
141.600	-9.967	0.100
141.700	-29.456	0.100
141.800	-21.744	0.100
141.900	-32.323	0.100
142.000	-31.584	0.100
142.100	-20.602	0.100
142.200	-29.924	0.100
142.300	-17.627	0.100
142.400	-33.588	0.100
142.500	-10.414	0.100
142.600	-39.956	0.100
142.700	-14.606	0.100
142.800	-22.325	0.100
142.900	-10.672	0.100
143.000	-4.879	0.100
143.100	-19.931	0.100
143.200	-15.699	0.100
143.300	-34.773	0.100
143.400	-21.592	0.100
143.500	-34.925	0.100
143.600	-5.701	0.100
143.700	-49.490	0.100
143.800	-13.437	0.100
143.900	-22.134	0.100
144.000	-17.072	0.100
144.100	-33.048	0.100
144.200	-33.405	0.100
144.300	-26.607	0.100
144.400	-19.448	0.100
144.500	-20.738	0.100
144.600	-8.768	0.100
144.700	-25.304	0.100
144.800	-18.149	0.100
144.900	-49.097	0.100
145.000	-13.960	0.100
145.100	-30.889	0.100
145.200	-20.038	0.100
145.300	-20.572	0.100
145.400	-16.517	0.100
145.500	-25.028	0.100
145.600	-3.022	0.100
145.700	-22.108	0.100
145.800	-23.173	0.100
145.900	-27.017	0.100
146.000	-14.242	0.100
146.100	-38.492	0.100
146.200	-8.429	0.100
146.300	-28.788	0.100
146.400	-28.571	0.100
146.500	-18.197	0.100
146.600	-21.386	0.100
146.700	-25.710	0.100
146.800	-8.025	0.100
146.900	-30.158	0.100
147.000	-31.993	0.100
147.100	-8.104	0.100
147.200	-28.197	0.100
147.300	-11.573	0.100
147.400	-19.148	0.100
147.500	-12.254	0.100
147.600	-0.266	0.100
147.700	-17.646	0.100
147.800	-13.182	0.100
147.900	-16.327	0.100
148.000	-21.804	0.100
148.100	-37.751	0.100
148.200	-24.141	0.100
148.300	-13.204	0.100
148.400	-11.839	0.100
148.500	-16.219	0.100
148.600	-12.705	0.100
148.700	-8.736	0.100
148.800	-15.903	0.100
148.900	-20.286	0.100
149.000	-5.777	0.100
149.100	-24.580	0.100
149.200	-30.219	0.100
149.300	-15.326	0.100
149.400	-34.590	0.100
149.500	-21.713	0.100
149.600	-0.785	0.100
149.700	-23.590	0.100
149.800	0.383	0.100
149.900	-17.827	0.100
150.000	-14.192	0.100
150.100	-12.046	0.100
150.200	-11.451	0.100
150.300	-19.611	0.100
150.400	-20.694	0.100
150.500	-22.176	0.100
150.600	-11.772	0.100
150.700	-33.932	0.100
150.800	-24.099	0.100
150.900	-4.846	0.100
151.000	-35.314	0.100
151.100	-27.601	0.100
151.200	-24.388	0.100
151.300	-10.675	0.100
151.400	-38.600	0.100
151.500	-16.870	0.100
151.600	-34.209	0.100
151.700	-28.921	0.100
151.800	-26.854	0.100
151.900	-17.600	0.100
152.000	-30.003	0.100
152.100	-8.488	0.100
152.200	-15.512	0.100
152.300	-39.011	0.100
152.400	-3.452	0.100
152.500	-40.564	0.100
152.600	-2.830	0.100
152.700	-12.794	0.100
152.800	-26.057	0.100
152.900	-30.704	0.100
153.000	-15.412	0.100
153.100	-25.671	0.100
153.200	-19.938	0.100
153.300	14.775	0.100
153.400	-8.009	0.100
153.500	-27.144	0.100
153.600	-24.202	0.100
153.700	0.242	0.100
153.800	-19.513	0.100
153.900	-21.029	0.100
154.000	-34.495	0.100
154.100	0.055	0.100
154.200	-19.619	0.100
154.300	-26.046	0.100
154.400	-13.708	0.100
154.500	-7.865	0.100
154.600	-18.191	0.100
154.700	-1.382	0.100
154.800	-33.053	0.100
154.900	-23.445	0.100
155.000	-8.433	0.100
155.100	-5.562	0.100
155.200	-10.541	0.100
155.300	-10.578	0.100
155.400	-10.425	0.100
155.500	-24.786	0.100
155.600	-24.360	0.100
155.700	-3.759	0.100
155.800	-25.957	0.100
155.900	-26.850	0.100
156.000	-9.068	0.100
156.100	-22.969	0.100
156.200	7.603	0.100
156.300	-18.026	0.100
156.400	-8.195	0.100
156.500	-5.443	0.100
156.600	-9.428	0.100
156.700	-15.711	0.100
156.800	-13.753	0.100
156.900	-20.520	0.100
157.000	-32.450	0.100
157.100	-9.589	0.100
157.200	-17.846	0.100
157.300	-21.419	0.100
157.400	-2.097	0.100
157.500	-18.765	0.100
157.600	-22.213	0.100
157.700	-29.804	0.100
157.800	-21.504	0.100
157.900	-24.439	0.100
158.000	-44.220	0.100
158.100	-10.839	0.100
158.200	-19.639	0.100
158.300	0.183	0.100
158.400	-24.378	0.100
158.500	-19.634	0.100
158.600	-27.528	0.100
158.700	-22.610	0.100
158.800	-26.423	0.100
158.900	-13.261	0.100
159.000	-5.931	0.100
159.100	-22.163	0.100
159.200	-5.302	0.100
159.300	-27.132	0.100
159.400	-18.662	0.100
159.500	-26.647	0.100
159.600	-26.864	0.100
159.700	-17.768	0.100
159.800	5.579	0.100
159.900	-23.378	0.100
160.000	-21.576	0.100
160.100	-19.958	0.100
160.200	-30.965	0.100
160.300	-0.750	0.100
160.400	-16.269	0.100
160.500	-23.328	0.100
160.600	-14.623	0.100
160.700	-14.364	0.100
160.800	-24.295	0.100
160.900	-20.734	0.100
161.000	-17.970	0.100
161.100	-22.455	0.100
161.200	-24.667	0.100
161.300	-39.407	0.100
161.400	-22.823	0.100
161.500	-41.280	0.100
161.600	-6.681	0.100
161.700	-23.472	0.100
161.800	-23.456	0.100
161.900	-19.790	0.100
162.000	-22.400	0.100
162.100	-17.777	0.100
162.200	-15.510	0.100
162.300	-21.950	0.100
162.400	-39.809	0.100
162.500	-26.413	0.100
162.600	-17.344	0.100
162.700	-15.619	0.100
162.800	-23.558	0.100
162.900	-3.850	0.100
163.000	-11.697	0.100
163.100	-3.016	0.100
163.200	-36.284	0.100
163.300	1.875	0.100
163.400	-30.285	0.100
163.500	-20.639	0.100
163.600	-10.129	0.100
163.700	-27.571	0.100
163.800	-27.996	0.100
163.900	4.431	0.100
164.000	-27.071	0.100
164.100	-28.258	0.100
164.200	-6.323	0.100
164.300	-25.597	0.100
164.400	-16.624	0.100
164.500	-13.973	0.100
164.600	-25.454	0.100
164.700	-13.165	0.100
164.800	-46.160	0.100
164.900	-17.314	0.100
165.000	-7.459	0.100
165.100	-31.190	0.100
165.200	-15.021	0.100
165.300	3.573	0.100
165.400	-43.738	0.100
165.500	-23.002	0.100
165.600	-14.459	0.100
165.700	-1.142	0.100
165.800	-26.242	0.100
165.900	-12.854	0.100
166.000	-6.354	0.100
166.100	-12.959	0.100
166.200	-16.549	0.100
166.300	-10.511	0.100
166.400	-19.319	0.100
166.500	-21.619	0.100
166.600	-23.027	0.100
166.700	-17.832	0.100
166.800	-9.584	0.100
166.900	-25.173	0.100
167.000	-14.697	0.100
167.100	-12.193	0.100
167.200	-12.499	0.100
167.300	-17.695	0.100
167.400	-35.196	0.100
167.500	-15.733	0.100
167.600	-8.378	0.100
167.700	-27.891	0.100
167.800	-29.154	0.100
167.900	-2.219	0.100
168.000	-11.020	0.100
168.100	3.789	0.100
168.200	-21.891	0.100
168.300	-17.804	0.100
168.400	-33.700	0.100
168.500	-9.106	0.100
168.600	-23.090	0.100
168.700	-12.193	0.100
168.800	-21.971	0.100
168.900	-15.160	0.100
169.000	-15.072	0.100
169.100	-16.829	0.100
169.200	-18.671	0.100
169.300	-37.306	0.100
169.400	-21.138	0.100
169.500	-12.183	0.100
169.600	-27.131	0.100
169.700	-22.130	0.100
169.800	-9.474	0.100
169.900	-32.395	0.100
170.000	-21.144	0.100
170.100	1.501	0.100
170.200	-6.445	0.100
170.300	-12.256	0.100
170.400	-24.105	0.100
170.500	-16.835	0.100
170.600	-21.547	0.100
170.700	-12.132	0.100
170.800	-19.234	0.100
170.900	-16.432	0.100
171.000	-30.937	0.100
171.100	-2.381	0.100
171.200	-18.396	0.100
171.300	-22.207	0.100
171.400	-24.523	0.100
171.500	-33.346	0.100
171.600	-20.793	0.100
171.700	-22.611	0.100
171.800	-10.815	0.100
171.900	-21.675	0.100
172.000	-16.461	0.100
172.100	-20.565	0.100
172.200	-16.461	0.100
172.300	-15.244	0.100
172.400	-5.545	0.100
172.500	-5.001	0.100
172.600	-8.060	0.100
172.700	-23.907	0.100
172.800	15.736	0.100
172.900	-3.797	0.100
173.000	-22.280	0.100
173.100	-12.257	0.100
173.200	-27.920	0.100
173.300	-17.997	0.100
173.400	-8.141	0.100
173.500	-21.395	0.100
173.600	-19.090	0.100
173.700	-23.838	0.100
173.800	-25.924	0.100
173.900	-14.328	0.100
174.000	-14.227	0.100
174.100	-6.828	0.100
174.200	-8.012	0.100
174.300	-25.258	0.100
174.400	-23.438	0.100
174.500	4.152	0.100
174.600	-8.350	0.100
174.700	-5.612	0.100
174.800	-15.854	0.100
174.900	11.404	0.100
175.000	-28.673	0.100
175.100	-12.696	0.100
175.200	-25.754	0.100
175.300	-5.128	0.100
175.400	-18.596	0.100
175.500	-20.684	0.100
175.600	-12.054	0.100
175.700	2.438	0.100
175.800	-8.367	0.100
175.900	-23.326	0.100
176.000	-19.386	0.100
176.100	-16.339	0.100
176.200	-19.094	0.100
176.300	-23.047	0.100
176.400	0.887	0.100
176.500	-29.402	0.100
176.600	-9.141	0.100
176.700	-32.990	0.100
176.800	-14.294	0.100
176.900	-28.976	0.100
177.000	0.426	0.100
177.100	-8.247	0.100
177.200	-24.915	0.100
177.300	-17.520	0.100
177.400	-29.190	0.100
177.500	1.624	0.100
177.600	-21.714	0.100
177.700	-19.071	0.100
177.800	-25.594	0.100
177.900	-21.136	0.100
178.000	-16.954	0.100
178.100	-32.134	0.100
178.200	-5.160	0.100
178.300	-25.899	0.100
178.400	-21.572	0.100
178.500	-21.925	0.100
178.600	-12.662	0.100
178.700	-16.645	0.100
178.800	-10.958	0.100
178.900	-1.840	0.100
179.000	-27.363	0.100
179.100	-20.923	0.100
179.200	-25.161	0.100
179.300	-11.785	0.100
179.400	-31.931	0.100
179.500	-16.493	0.100
179.600	-26.655	0.100
179.700	-17.104	0.100
179.800	-6.942	0.100
179.900	-26.524	0.100
180.000	6.874	0.100
180.100	-22.440	0.100
180.200	-16.802	0.100
180.300	-7.702	0.100
180.400	-21.691	0.100
180.500	-1.938	0.100
180.600	0.039	0.100
180.700	-14.457	0.100
180.800	-2.846	0.100
180.900	-15.461	0.100
181.000	-20.763	0.100
181.100	-16.620	0.100
181.200	15.463	0.100
181.300	-10.080	0.100
181.400	14.977	0.100
181.500	-18.010	0.100
181.600	-16.333	0.100
181.700	-19.169	0.100
181.800	-4.445	0.100
181.900	-6.599	0.100
182.000	-0.408	0.100
182.100	3.691	0.100
182.200	-6.093	0.100
182.300	-12.594	0.100
182.400	-1.287	0.100
182.500	2.086	0.100
182.600	0.677	0.100
182.700	-0.310	0.100
182.800	-9.462	0.100
182.900	-2.150	0.100
183.000	-9.234	0.100
183.100	-13.031	0.100
183.200	8.756	0.100
183.300	-11.857	0.100
183.400	-6.991	0.100
183.500	-6.232	0.100
183.600	-19.104	0.100
183.700	-5.546	0.100
183.800	-5.065	0.100
183.900	4.471	0.100
184.000	-14.407	0.100
184.100	9.258	0.100
184.200	2.321	0.100
184.300	-6.567	0.100
184.400	4.967	0.100
184.500	-11.389	0.100
184.600	-6.461	0.100
184.700	-0.014	0.100
184.800	-15.795	0.100
184.900	0.731	0.100
185.000	6.975	0.100
185.100	-0.246	0.100
185.200	-9.015	0.100
185.300	2.074	0.100
185.400	-6.891	0.100
185.500	-15.046	0.100
185.600	6.041	0.100
185.700	-11.620	0.100
185.800	-2.580	0.100
185.900	-5.674	0.100
186.000	-7.164	0.100
186.100	3.236	0.100
186.200	-16.652	0.100
186.300	-18.484	0.100
186.400	-5.975	0.100
186.500	3.551	0.100
186.600	-17.853	0.100
186.700	-8.871	0.100
186.800	2.857	0.100
186.900	5.195	0.100
187.000	-11.715	0.100
187.100	5.925	0.100
187.200	-9.725	0.100
187.300	0.217	0.100
187.400	-11.707	0.100
187.500	11.662	0.100
187.600	-5.721	0.100
187.700	-22.434	0.100
187.800	10.771	0.100
187.900	-32.495	0.100
188.000	-2.105	0.100
188.100	-3.326	0.100
188.200	-5.798	0.100
188.300	-12.262	0.100
188.400	-8.243	0.100
188.500	-18.828	0.100
188.600	-7.027	0.100
188.700	7.661	0.100
188.800	2.441	0.100
188.900	-1.757	0.100
189.000	-4.845	0.100
189.100	-4.173	0.100
189.200	-6.361	0.100
189.300	-1.442	0.100
189.400	12.274	0.100
189.500	-8.667	0.100
189.600	1.718	0.100
189.700	-6.827	0.100
189.800	2.848	0.100
189.900	-10.663	0.100
190.000	0.080	0.100
190.100	22.311	0.100
190.200	3.139	0.100
190.300	-3.583	0.100
190.400	-6.588	0.100
190.500	4.077	0.100
190.600	-17.512	0.100
190.700	14.700	0.100
190.800	0.307	0.100
190.900	0.516	0.100
191.000	5.023	0.100
191.100	2.723	0.100
191.200	-24.139	0.100
191.300	-3.671	0.100
191.400	-6.738	0.100
191.500	1.709	0.100
191.600	2.056	0.100
191.700	5.138	0.100
191.800	2.056	0.100
191.900	7.506	0.100
192.000	-14.887	0.100
192.100	-1.410	0.100
192.200	6.981	0.100
192.300	-6.931	0.100
192.400	9.175	0.100
192.500	7.229	0.100
192.600	-2.427	0.100
192.700	-8.352	0.100
192.800	-2.049	0.100
192.900	6.244	0.100
193.000	-5.677	0.100
193.100	13.084	0.100
193.200	17.221	0.100
193.300	-20.182	0.100
193.400	-7.567	0.100
193.500	1.836	0.100
193.600	-9.812	0.100
193.700	-4.617	0.100
193.800	4.670	0.100
193.900	3.777	0.100
194.000	-0.687	0.100
194.100	0.681	0.100
194.200	23.797	0.100
194.300	17.528	0.100
194.400	-1.723	0.100
194.500	15.661	0.100
194.600	5.117	0.100
194.700	-0.961	0.100
194.800	-8.264	0.100
194.900	14.734	0.100
195.000	6.736	0.100
195.100	0.185	0.100
195.200	19.790	0.100
195.300	5.871	0.100
195.400	-1.630	0.100
195.500	-5.641	0.100
195.600	9.011	0.100
195.700	-8.548	0.100
195.800	3.906	0.100
195.900	-5.125	0.100
196.000	14.825	0.100
196.100	-12.642	0.100
196.200	2.949	0.100
196.300	19.653	0.100
196.400	-7.626	0.100
196.500	23.988	0.100
196.600	16.507	0.100
196.700	2.592	0.100
196.800	6.875	0.100
196.900	8.683	0.100
197.000	23.707	0.100
197.100	18.317	0.100
197.200	12.679	0.100
197.300	5.033	0.100
197.400	24.145	0.100
197.500	9.282	0.100
197.600	-6.130	0.100
197.700	24.431	0.100
197.800	16.128	0.100
197.900	-21.139	0.100
198.000	11.858	0.100
198.100	1.155	0.100
198.200	12.373	0.100
198.300	23.015	0.100
198.400	13.927	0.100
198.500	21.712	0.100
198.600	-5.421	0.100
198.700	13.479	0.100
198.800	-4.371	0.100
198.900	14.407	0.100
199.000	7.501	0.100
199.100	22.731	0.100
199.200	-15.546	0.100
199.300	4.634	0.100
199.400	18.549	0.100
199.500	11.834	0.100
199.600	17.001	0.100
199.700	36.003	0.100
199.800	20.333	0.100
199.900	16.155	0.100
200.000	22.753	0.100
200.100	12.214	0.100
200.200	3.284	0.100
200.300	8.865	0.100
200.400	26.368	0.100
200.500	0.435	0.100
200.600	5.421	0.100
200.700	10.853	0.100
200.800	7.119	0.100
200.900	17.390	0.100
201.000	-4.855	0.100
201.100	8.295	0.100
201.200	12.207	0.100
201.300	4.016	0.100
201.400	21.685	0.100
201.500	19.662	0.100
201.600	2.556	0.100
201.700	12.715	0.100
201.800	29.963	0.100
201.900	12.534	0.100
202.000	6.407	0.100
202.100	0.723	0.100
202.200	13.617	0.100
202.300	13.265	0.100
202.400	23.699	0.100
202.500	24.813	0.100
202.600	0.969	0.100
202.700	42.375	0.100
202.800	14.997	0.100
202.900	-1.599	0.100
203.000	13.700	0.100
203.100	9.899	0.100
203.200	1.501	0.100
203.300	25.248	0.100
203.400	11.306	0.100
203.500	14.302	0.100
203.600	-1.882	0.100
203.700	16.256	0.100
203.800	22.530	0.100
203.900	5.963	0.100
204.000	9.430	0.100
204.100	16.438	0.100
204.200	7.997	0.100
204.300	11.670	0.100
204.400	20.961	0.100
204.500	13.492	0.100
204.600	41.488	0.100
204.700	20.774	0.100
204.800	-1.572	0.100
204.900	15.368	0.100
205.000	27.104	0.100
205.100	17.464	0.100
205.200	10.938	0.100
205.300	18.623	0.100
205.400	11.412	0.100
205.500	14.545	0.100
205.600	37.467	0.100
205.700	20.361	0.100
205.800	13.953	0.100
205.900	15.032	0.100
206.000	32.925	0.100
206.100	23.181	0.100
206.200	23.600	0.100
206.300	13.938	0.100
206.400	7.761	0.100
206.500	22.070	0.100
206.600	3.681	0.100
206.700	15.547	0.100
206.800	22.259	0.100
206.900	19.757	0.100
207.000	19.839	0.100
207.100	-2.931	0.100
207.200	21.380	0.100
207.300	4.957	0.100
207.400	21.331	0.100
207.500	15.340	0.100
207.600	5.456	0.100
207.700	13.198	0.100
207.800	6.592	0.100
207.900	2.609	0.100
208.000	37.703	0.100
208.100	26.625	0.100
208.200	0.645	0.100
208.300	33.439	0.100
208.400	1.575	0.100
208.500	20.593	0.100
208.600	21.892	0.100
208.700	16.888	0.100
208.800	17.492	0.100
208.900	-7.500	0.100
209.000	24.034	0.100
209.100	30.231	0.100
209.200	6.214	0.100
209.300	9.658	0.100
209.400	13.145	0.100
209.500	30.461	0.100
209.600	18.183	0.100
209.700	24.348	0.100
209.800	-1.282	0.100
209.900	8.758	0.100
210.000	9.547	0.100
210.100	36.070	0.100
210.200	16.700	0.100
210.300	20.929	0.100
210.400	13.078	0.100
210.500	24.095	0.100
210.600	22.319	0.100
210.700	12.762	0.100
210.800	2.313	0.100
210.900	12.317	0.100
211.000	11.154	0.100
211.100	3.371	0.100
211.200	39.368	0.100
211.300	14.802	0.100
211.400	-4.893	0.100
211.500	16.601	0.100
211.600	18.926	0.100
211.700	5.108	0.100
211.800	24.073	0.100
211.900	4.678	0.100
212.000	24.198	0.100
212.100	11.175	0.100
212.200	-1.829	0.100
212.300	19.942	0.100
212.400	30.293	0.100
212.500	11.137	0.100
212.600	11.003	0.100
212.700	12.852	0.100
212.800	24.383	0.100
212.900	15.737	0.100
213.000	22.893	0.100
213.100	14.713	0.100
213.200	7.944	0.100
213.300	4.457	0.100
213.400	15.866	0.100
213.500	1.965	0.100
213.600	11.504	0.100
213.700	35.062	0.100
213.800	-16.341	0.100
213.900	25.965	0.100
214.000	16.671	0.100
214.100	15.469	0.100
214.200	23.393	0.100
214.300	20.014	0.100
214.400	8.316	0.100
214.500	20.389	0.100
214.600	1.015	0.100
214.700	18.901	0.100
214.800	36.023	0.100
214.900	26.129	0.100
215.000	15.385	0.100
215.100	5.292	0.100
215.200	10.369	0.100
215.300	14.106	0.100
215.400	7.041	0.100
215.500	15.378	0.100
215.600	-0.809	0.100
215.700	25.439	0.100
215.800	24.172	0.100
215.900	18.549	0.100
216.000	20.360	0.100
216.100	21.587	0.100
216.200	4.765	0.100
216.300	18.975	0.100
216.400	3.400	0.100
216.500	24.414	0.100
216.600	15.557	0.100
216.700	3.221	0.100
216.800	-6.030	0.100
216.900	-8.628	0.100
217.000	0.417	0.100
217.100	1.499	0.100
217.200	16.900	0.100
217.300	29.280	0.100
217.400	1.474	0.100
217.500	10.597	0.100
217.600	8.973	0.100
217.700	19.513	0.100
217.800	-15.649	0.100
217.900	21.615	0.100
218.000	11.980	0.100
218.100	11.248	0.100
218.200	16.066	0.100
218.300	20.166	0.100
218.400	20.743	0.100
218.500	-13.306	0.100
218.600	2.582	0.100
218.700	16.146	0.100
218.800	12.784	0.100
218.900	14.314	0.100
219.000	6.302	0.100
219.100	6.706	0.100
219.200	14.091	0.100
219.300	7.313	0.100
219.400	13.739	0.100
219.500	2.715	0.100
219.600	7.536	0.100
219.700	25.366	0.100
219.800	29.138	0.100
219.900	2.974	0.100
220.000	14.979	0.100
220.100	32.064	0.100
220.200	7.140	0.100
220.300	11.386	0.100
220.400	5.779	0.100
220.500	8.889	0.100
220.600	14.872	0.100
220.700	1.966	0.100
220.800	20.977	0.100
220.900	10.169	0.100
221.000	12.326	0.100
221.100	10.692	0.100
221.200	3.357	0.100
221.300	-6.056	0.100
221.400	-4.380	0.100
221.500	15.859	0.100
221.600	21.396	0.100
221.700	30.760	0.100
221.800	16.621	0.100
221.900	22.225	0.100
222.000	20.544	0.100
222.100	-7.042	0.100
222.200	-3.139	0.100
222.300	8.904	0.100
222.400	3.042	0.100
222.500	16.858	0.100
222.600	10.192	0.100
222.700	11.479	0.100
222.800	0.562	0.100
222.900	15.979	0.100
223.000	-16.256	0.100
223.100	16.079	0.100
223.200	19.631	0.100
223.300	11.606	0.100
223.400	7.284	0.100
223.500	23.719	0.100
223.600	7.573	0.100
223.700	15.218	0.100
223.800	-1.509	0.100
223.900	5.311	0.100
224.000	19.101	0.100
224.100	11.547	0.100
224.200	27.935	0.100
224.300	10.230	0.100
224.400	-11.051	0.100
224.500	-1.685	0.100
224.600	21.594	0.100
224.700	17.367	0.100
224.800	24.146	0.100
224.900	13.098	0.100
225.000	-2.129	0.100
225.100	15.000	0.100
225.200	23.122	0.100
225.300	15.375	0.100
225.400	13.133	0.100
225.500	18.946	0.100
225.600	-0.809	0.100
225.700	16.655	0.100
225.800	-5.035	0.100
225.900	16.096	0.100
226.000	9.911	0.100
226.100	8.288	0.100
226.200	3.816	0.100
226.300	1.360	0.100
226.400	21.983	0.100
226.500	6.220	0.100
226.600	18.259	0.100
226.700	6.951	0.100
226.800	0.907	0.100
226.900	4.785	0.100
227.000	26.383	0.100
227.100	23.406	0.100
227.200	-11.402	0.100
227.300	5.389	0.100
227.400	1.592	0.100
227.500	6.030	0.100
227.600	5.925	0.100
227.700	0.287	0.100
227.800	13.963	0.100
227.900	3.164	0.100
228.000	10.692	0.100
228.100	21.817	0.100
228.200	-5.727	0.100
228.300	26.063	0.100
228.400	9.032	0.100
228.500	28.250	0.100
228.600	15.497	0.100
228.700	-12.671	0.100
228.800	10.849	0.100
228.900	-1.586	0.100
229.000	15.988	0.100
229.100	-3.695	0.100
229.200	12.356	0.100
229.300	17.422	0.100
229.400	11.629	0.100
229.500	7.673	0.100
229.600	0.444	0.100
229.700	3.546	0.100
229.800	3.099	0.100
229.900	13.574	0.100
230.000	-13.067	0.100
230.100	3.479	0.100
230.200	2.172	0.100
230.300	36.503	0.100
230.400	7.353	0.100
230.500	-2.653	0.100
230.600	4.905	0.100
230.700	10.765	0.100
230.800	0.876	0.100
230.900	10.065	0.100
231.000	16.647	0.100
231.100	9.243	0.100
231.200	22.326	0.100
231.300	17.724	0.100
231.400	1.324	0.100
231.500	13.464	0.100
231.600	4.825	0.100
231.700	15.659	0.100
231.800	8.277	0.100
231.900	-11.848	0.100
232.000	-3.204	0.100
232.100	8.904	0.100
232.200	8.435	0.100
232.300	18.280	0.100
232.400	10.837	0.100
232.500	27.398	0.100
232.600	3.977	0.100
232.700	-13.553	0.100
232.800	17.002	0.100
232.900	6.502	0.100
233.000	23.760	0.100
233.100	-0.939	0.100
233.200	4.006	0.100
233.300	8.187	0.100
233.400	22.655	0.100
233.500	4.071	0.100
233.600	-10.636	0.100
233.700	16.443	0.100
233.800	8.924	0.100
233.900	-5.711	0.100
234.000	25.171	0.100
234.100	2.753	0.100
234.200	4.604	0.100
234.300	6.452	0.100
234.400	21.520	0.100
234.500	7.109	0.100
234.600	-1.359	0.100
234.700	23.885	0.100
234.800	16.357	0.100
234.900	-10.944	0.100
235.000	-7.095	0.100
235.100	25.977	0.100
235.200	14.087	0.100
235.300	23.216	0.100
235.400	4.784	0.100
235.500	8.107	0.100
235.600	35.527	0.100
235.700	-10.420	0.100
235.800	1.794	0.100
235.900	2.541	0.100
236.000	3.117	0.100
236.100	-10.642	0.100
236.200	7.105	0.100
236.300	8.476	0.100
236.400	-14.018	0.100
236.500	12.449	0.100
236.600	-18.534	0.100
236.700	9.108	0.100
236.800	12.291	0.100
236.900	-5.491	0.100
237.000	9.792	0.100
237.100	-5.160	0.100
237.200	16.867	0.100
237.300	5.342	0.100
237.400	-8.385	0.100
237.500	-6.729	0.100
237.600	8.067	0.100
237.700	14.195	0.100
237.800	-9.456	0.100
237.900	6.797	0.100
238.000	-15.938	0.100
238.100	7.907	0.100
238.200	3.775	0.100
238.300	21.305	0.100
238.400	0.138	0.100
238.500	-2.692	0.100
238.600	0.306	0.100
238.700	9.202	0.100
238.800	2.503	0.100
238.900	0.183	0.100
239.000	10.736	0.100
239.100	4.768	0.100
239.200	13.117	0.100
239.300	3.090	0.100
239.400	8.166	0.100
239.500	8.460	0.100
239.600	13.924	0.100
239.700	11.318	0.100
239.800	4.327	0.100
239.900	3.449	0.100
240.000	-6.555	0.100
240.100	4.760	0.100
240.200	8.955	0.100
240.300	8.938	0.100
240.400	9.208	0.100
240.500	11.257	0.100
240.600	23.331	0.100
240.700	7.523	0.100
240.800	-10.444	0.100
240.900	-4.644	0.100
241.000	-14.841	0.100
241.100	6.735	0.100
241.200	15.332	0.100
241.300	-11.304	0.100
241.400	-8.986	0.100
241.500	-9.040	0.100
241.600	-9.526	0.100
241.700	-11.558	0.100
241.800	-2.876	0.100
241.900	3.859	0.100
242.000	-11.879	0.100
242.100	1.096	0.100
242.200	5.340	0.100
242.300	-3.244	0.100
242.400	-30.501	0.100
242.500	-10.383	0.100
242.600	1.747	0.100
242.700	-11.072	0.100
242.800	-9.912	0.100
242.900	-20.068	0.100
243.000	-12.076	0.100
243.100	-17.782	0.100
243.200	-6.328	0.100
243.300	-13.108	0.100
243.400	-13.937	0.100
243.500	-36.210	0.100
243.600	-24.030	0.100
243.700	-22.018	0.100
243.800	-18.139	0.100
243.900	-5.714	0.100
244.000	-10.171	0.100
244.100	30.185	0.100
244.200	-23.340	0.100
244.300	0.936	0.100
244.400	-15.381	0.100
244.500	-31.995	0.100
244.600	-18.239	0.100
244.700	-36.257	0.100
244.800	-3.200	0.100
244.900	-32.944	0.100
245.000	-12.911	0.100
245.100	-27.576	0.100
245.200	-18.384	0.100
245.300	-25.944	0.100
245.400	-11.409	0.100
245.500	-33.502	0.100
245.600	-28.249	0.100
245.700	-14.347	0.100
245.800	-16.783	0.100
245.900	-44.872	0.100
246.000	-24.567	0.100
246.100	-8.964	0.100
246.200	-21.348	0.100
246.300	-17.478	0.100
246.400	-15.434	0.100
246.500	-24.819	0.100
246.600	-24.347	0.100
246.700	-33.115	0.100
246.800	-26.352	0.100
246.900	-16.096	0.100
247.000	-16.231	0.100
247.100	-14.378	0.100
247.200	-31.736	0.100
247.300	-1.479	0.100
247.400	-16.885	0.100
247.500	-19.028	0.100
247.600	-23.759	0.100
247.700	-17.827	0.100
247.800	-18.760	0.100
247.900	-23.677	0.100
248.000	-30.182	0.100
248.100	-20.786	0.100
248.200	-30.002	0.100
248.300	-12.804	0.100
248.400	-33.172	0.100
248.500	-22.024	0.100
248.600	-2.692	0.100
248.700	-27.424	0.100
248.800	-24.845	0.100
248.900	-7.919	0.100
249.000	-40.799	0.100
249.100	-18.971	0.100
249.200	-7.363	0.100
249.300	-36.070	0.100
249.400	-23.829	0.100
249.500	-40.194	0.100
249.600	-12.369	0.100
249.700	-19.311	0.100
249.800	-5.890	0.100
249.900	-39.258	0.100
250.000	-18.566	0.100
250.100	-30.563	0.100
250.200	-14.732	0.100
250.300	-27.614	0.100
250.400	-31.245	0.100
250.500	-23.895	0.100
250.600	-27.264	0.100
250.700	-32.601	0.100
250.800	-19.087	0.100
250.900	-20.419	0.100
251.000	-11.238	0.100
251.100	-12.424	0.100
251.200	-25.005	0.100
251.300	-6.188	0.100
251.400	-17.596	0.100
251.500	-35.540	0.100
251.600	-7.303	0.100
251.700	-10.404	0.100
251.800	-19.422	0.100
251.900	-17.626	0.100
252.000	-31.015	0.100
252.100	-33.822	0.100
252.200	3.637	0.100
252.300	-20.470	0.100
252.400	-31.220	0.100
252.500	-39.629	0.100
252.600	-33.297	0.100
252.700	-21.645	0.100
252.800	-24.802	0.100
252.900	-51.896	0.100
253.000	-10.498	0.100
253.100	-21.199	0.100
253.200	-13.342	0.100
253.300	-28.045	0.100
253.400	-29.235	0.100
253.500	-5.183	0.100
253.600	-31.798	0.100
253.700	-12.095	0.100
253.800	-10.504	0.100
253.900	-7.641	0.100
254.000	-17.269	0.100
254.100	-11.826	0.100
254.200	-30.024	0.100
254.300	-22.607	0.100
254.400	-30.040	0.100
254.500	-21.713	0.100
254.600	-32.502	0.100
254.700	-16.975	0.100
254.800	-25.060	0.100
254.900	-4.243	0.100
255.000	-29.714	0.100
255.100	-12.003	0.100
255.200	-19.561	0.100
255.300	-23.958	0.100
255.400	-24.509	0.100
255.500	-32.318	0.100
255.600	-23.839	0.100
255.700	-29.163	0.100
255.800	-4.777	0.100
255.900	-18.338	0.100
256.000	-13.574	0.100
256.100	-20.548	0.100
256.200	-23.580	0.100
256.300	-17.424	0.100
256.400	-26.400	0.100
256.500	-29.061	0.100
256.600	-3.487	0.100
256.700	-38.086	0.100
256.800	-20.576	0.100
256.900	-22.876	0.100
257.000	-13.918	0.100
257.100	-23.822	0.100
257.200	-39.062	0.100
257.300	-43.871	0.100
257.400	-22.055	0.100
257.500	-34.861	0.100
257.600	-7.439	0.100
257.700	-17.520	0.100
257.800	-34.639	0.100
257.900	-23.311	0.100
258.000	-40.422	0.100
258.100	-9.126	0.100
258.200	-17.206	0.100
258.300	-37.764	0.100
258.400	-8.258	0.100
258.500	-21.139	0.100
258.600	-19.604	0.100
258.700	-12.952	0.100
258.800	-3.825	0.100
258.900	-34.453	0.100
259.000	-22.170	0.100
259.100	-20.312	0.100
259.200	-37.876	0.100
259.300	-23.844	0.100
259.400	-32.953	0.100
259.500	-13.905	0.100
259.600	-7.871	0.100
259.700	-38.371	0.100
259.800	4.137	0.100
259.900	-28.323	0.100
260.000	-15.862	0.100
260.100	-24.981	0.100
260.200	-42.148	0.100
260.300	-21.633	0.100
260.400	-24.757	0.100
260.500	-26.073	0.100
260.600	-21.307	0.100
260.700	-24.393	0.100
260.800	-28.439	0.100
260.900	-15.657	0.100
261.000	-20.607	0.100
261.100	-23.050	0.100
261.200	-16.829	0.100
261.300	-33.817	0.100
261.400	0.473	0.100
261.500	-21.035	0.100
261.600	-26.676	0.100
261.700	-28.455	0.100
261.800	-20.799	0.100
261.900	-20.081	0.100
262.000	-21.116	0.100
262.100	-14.772	0.100
262.200	-33.614	0.100
262.300	-9.308	0.100
262.400	-24.135	0.100
262.500	-33.461	0.100
262.600	-37.647	0.100
262.700	-14.525	0.100
262.800	-26.179	0.100
262.900	-3.011	0.100
263.000	-10.310	0.100
263.100	-19.271	0.100
263.200	-39.501	0.100
263.300	-27.363	0.100
263.400	-19.222	0.100
263.500	-26.766	0.100
263.600	-30.128	0.100
263.700	-23.325	0.100
263.800	-38.289	0.100
263.900	-31.355	0.100
264.000	-10.094	0.100
264.100	-30.072	0.100
264.200	-34.760	0.100
264.300	-11.648	0.100
264.400	-25.852	0.100
264.500	-31.823	0.100
264.600	-25.757	0.100
264.700	-27.877	0.100
264.800	-11.907	0.100
264.900	-22.741	0.100
265.000	-27.703	0.100
265.100	-33.651	0.100
265.200	-23.495	0.100
265.300	-16.970	0.100
265.400	-41.377	0.100
265.500	-32.473	0.100
265.600	-13.463	0.100
265.700	-33.455	0.100
265.800	-14.106	0.100
265.900	-20.772	0.100
266.000	-22.643	0.100
266.100	-18.277	0.100
266.200	-18.594	0.100
266.300	-22.937	0.100
266.400	-28.203	0.100
266.500	-24.216	0.100
266.600	-18.594	0.100
266.700	-15.123	0.100
266.800	-9.059	0.100
266.900	-44.159	0.100
267.000	-4.914	0.100
267.100	-19.672	0.100
267.200	-33.159	0.100
267.300	-25.783	0.100
267.400	-30.918	0.100
267.500	-39.867	0.100
267.600	-17.301	0.100
267.700	-39.575	0.100
267.800	-17.349	0.100
267.900	-32.490	0.100
268.000	-9.560	0.100
268.100	-38.584	0.100
268.200	-33.979	0.100
268.300	-10.820	0.100
268.400	-1.242	0.100
268.500	-12.444	0.100
268.600	-25.016	0.100
268.700	-27.587	0.100
268.800	-13.749	0.100
268.900	-13.228	0.100
269.000	-35.365	0.100
269.100	-13.177	0.100
269.200	-23.797	0.100
269.300	-17.042	0.100
269.400	-29.656	0.100
269.500	-31.011	0.100
269.600	-33.933	0.100
269.700	-28.348	0.100
269.800	-9.476	0.100
269.900	-37.828	0.100
270.000	-24.919	0.100
270.100	-37.632	0.100
270.200	-21.023	0.100
270.300	-27.205	0.100
270.400	-23.112	0.100
270.500	-24.782	0.100
270.600	-17.380	0.100
270.700	-10.249	0.100
270.800	-15.138	0.100
270.900	-11.151	0.100
271.000	2.434	0.100
271.100	-35.248	0.100
271.200	-23.069	0.100
271.300	-7.272	0.100
271.400	-17.793	0.100
271.500	-29.288	0.100
271.600	-28.163	0.100
271.700	-25.363	0.100
271.800	-9.060	0.100
271.900	-30.342	0.100
272.000	-16.333	0.100
272.100	-15.009	0.100
272.200	-16.109	0.100
272.300	-19.517	0.100
272.400	-30.695	0.100
272.500	-22.725	0.100
272.600	-20.260	0.100
272.700	-23.643	0.100
272.800	-11.434	0.100
272.900	-23.221	0.100
273.000	-18.854	0.100
273.100	-24.080	0.100
273.200	-22.447	0.100
273.300	-20.361	0.100
273.400	-20.428	0.100
273.500	-25.124	0.100
273.600	-34.870	0.100
273.700	-55.836	0.100
273.800	-18.018	0.100
273.900	-37.873	0.100
274.000	-15.456	0.100
274.100	-13.558	0.100
274.200	-11.585	0.100
274.300	-34.909	0.100
274.400	-18.757	0.100
274.500	-29.219	0.100
274.600	-18.242	0.100
274.700	-25.527	0.100
274.800	-5.791	0.100
274.900	-15.954	0.100
275.000	-46.439	0.100
275.100	-12.336	0.100
275.200	-32.131	0.100
275.300	-5.340	0.100
275.400	-33.199	0.100
275.500	-21.661	0.100
275.600	-29.612	0.100
275.700	-25.615	0.100
275.800	-28.932	0.100
275.900	-15.510	0.100
276.000	-19.441	0.100
276.100	-27.493	0.100
276.200	-5.191	0.100
276.300	-31.926	0.100
276.400	-12.467	0.100
276.500	-8.880	0.100
276.600	-28.879	0.100
276.700	-12.715	0.100
276.800	-13.899	0.100
276.900	-35.473	0.100
277.000	-24.698	0.100
277.100	-19.380	0.100
277.200	-35.934	0.100
277.300	-34.034	0.100
277.400	-19.161	0.100
277.500	-23.613	0.100
277.600	-21.598	0.100
277.700	-9.294	0.100
277.800	-29.701	0.100
277.900	-36.528	0.100
278.000	-11.220	0.100
278.100	-8.609	0.100
278.200	-29.982	0.100
278.300	-14.758	0.100
278.400	-2.924	0.100
278.500	-17.339	0.100
278.600	-15.472	0.100
278.700	-19.345	0.100
278.800	-24.551	0.100
278.900	-10.120	0.100
279.000	-11.770	0.100
279.100	-28.261	0.100
279.200	-37.248	0.100
279.300	-20.561	0.100
279.400	-18.794	0.100
279.500	-29.471	0.100
279.600	-33.219	0.100
279.700	-30.144	0.100
279.800	-29.304	0.100
279.900	-27.551	0.100
280.000	-34.259	0.100
280.100	-25.433	0.100
280.200	-21.437	0.100
280.300	-16.466	0.100
280.400	-18.125	0.100
280.500	-29.563	0.100
280.600	-41.662	0.100
280.700	-19.637	0.100
280.800	-10.667	0.100
280.900	-18.474	0.100
281.000	-7.551	0.100
281.100	-20.936	0.100
281.200	-26.666	0.100
281.300	-21.056	0.100
281.400	-25.757	0.100
281.500	-20.556	0.100
281.600	3.806	0.100
281.700	-22.009	0.100
281.800	-29.082	0.100
281.900	-32.000	0.100
282.000	-27.573	0.100
282.100	-22.603	0.100
282.200	-21.229	0.100
282.300	-22.413	0.100
282.400	-26.242	0.100
282.500	-13.035	0.100
282.600	-30.868	0.100
282.700	-32.806	0.100
282.800	-6.040	0.100
282.900	-27.745	0.100
283.000	-9.427	0.100
283.100	-28.626	0.100
283.200	-26.741	0.100
283.300	-36.571	0.100
283.400	-37.061	0.100
283.500	-33.256	0.100
283.600	-14.784	0.100
283.700	-2.164	0.100
283.800	-17.350	0.100
283.900	-8.790	0.100
284.000	-30.152	0.100
284.100	-24.342	0.100
284.200	-23.141	0.100
284.300	-25.618	0.100
284.400	-33.167	0.100
284.500	-37.390	0.100
284.600	-13.118	0.100
284.700	-15.479	0.100
284.800	-18.928	0.100
284.900	-13.653	0.100
285.000	-31.862	0.100
285.100	-4.333	0.100
285.200	-39.564	0.100
285.300	-30.669	0.100
285.400	-20.299	0.100
285.500	8.056	0.100
285.600	-16.703	0.100
285.700	-5.055	0.100
285.800	-36.432	0.100
285.900	-17.923	0.100
286.000	-28.450	0.100
286.100	-36.115	0.100
286.200	-31.254	0.100
286.300	-23.516	0.100
286.400	-29.378	0.100
286.500	-28.528	0.100
286.600	-25.212	0.100
286.700	-13.230	0.100
286.800	-26.029	0.100
286.900	-17.499	0.100
287.000	-15.863	0.100
287.100	-26.666	0.100
287.200	-8.297	0.100
287.300	-10.036	0.100
287.400	-32.165	0.100
287.500	-16.849	0.100
287.600	-22.519	0.100
287.700	-26.216	0.100
287.800	-14.618	0.100
287.900	-19.807	0.100
288.000	-28.898	0.100
288.100	-19.326	0.100
288.200	-7.783	0.100
288.300	-36.185	0.100
288.400	-15.114	0.100
288.500	-23.068	0.100
288.600	-2.354	0.100
288.700	-38.174	0.100
288.800	-39.843	0.100
288.900	-26.793	0.100
289.000	-20.154	0.100
289.100	-8.512	0.100
289.200	-0.367	0.100
289.300	-21.821	0.100
289.400	-32.295	0.100
289.500	-22.458	0.100
289.600	-25.515	0.100
289.700	-17.699	0.100
289.800	-31.847	0.100
289.900	-28.384	0.100
290.000	-25.700	0.100
290.100	-29.450	0.100
290.200	-11.018	0.100
290.300	-19.980	0.100
290.400	-25.606	0.100
290.500	-24.581	0.100
290.600	-25.310	0.100
290.700	-24.601	0.100
290.800	-11.998	0.100
290.900	-27.326	0.100
291.000	-18.218	0.100
291.100	-34.157	0.100
291.200	-5.052	0.100
291.300	-12.757	0.100
291.400	-23.622	0.100
291.500	-24.196	0.100
291.600	-19.431	0.100
291.700	-6.974	0.100
291.800	-30.836	0.100
291.900	-21.113	0.100
292.000	-27.598	0.100
292.100	-21.263	0.100
292.200	-27.376	0.100
292.300	-23.179	0.100
292.400	-32.428	0.100
292.500	-17.309	0.100
292.600	-17.222	0.100
292.700	-3.945	0.100
292.800	-21.504	0.100
292.900	-33.109	0.100
293.000	-12.605	0.100
293.100	-23.815	0.100
293.200	-30.249	0.100
293.300	-17.861	0.100
293.400	-15.128	0.100
293.500	-7.026	0.100
293.600	-36.686	0.100
293.700	-26.221	0.100
293.800	-35.430	0.100
293.900	-16.201	0.100
294.000	-36.481	0.100
294.100	-14.289	0.100
294.200	-12.775	0.100
294.300	-12.677	0.100
294.400	-24.264	0.100
294.500	-16.237	0.100
294.600	-44.302	0.100
294.700	-0.427	0.100
294.800	-20.226	0.100
294.900	-20.793	0.100
295.000	-19.089	0.100
295.100	-13.607	0.100
295.200	-25.207	0.100
295.300	-0.039	0.100
295.400	-34.040	0.100
295.500	-32.729	0.100
295.600	-6.712	0.100
295.700	-20.369	0.100
295.800	-18.376	0.100
295.900	-14.363	0.100
296.000	-13.580	0.100
296.100	-12.962	0.100
296.200	-18.127	0.100
296.300	-25.554	0.100
296.400	-6.406	0.100
296.500	-28.244	0.100
296.600	-21.463	0.100
296.700	-32.314	0.100
296.800	-0.371	0.100
296.900	-20.984	0.100
297.000	-20.165	0.100
297.100	-12.989	0.100
297.200	-14.414	0.100
297.300	-16.122	0.100
297.400	-33.516	0.100
297.500	-5.006	0.100
297.600	-27.664	0.100
297.700	-29.983	0.100
297.800	-19.451	0.100
297.900	-19.432	0.100
298.000	-40.334	0.100
298.100	-1.788	0.100
298.200	-25.575	0.100
298.300	-16.516	0.100
298.400	-17.701	0.100
298.500	-32.662	0.100
298.600	-14.712	0.100
298.700	-13.438	0.100
298.800	-18.180	0.100
298.900	-22.264	0.100
299.000	-21.181	0.100
299.100	6.418	0.100
299.200	-20.141	0.100
299.300	-33.043	0.100
299.400	-1.186	0.100
299.500	-27.708	0.100
299.600	-23.540	0.100
299.700	-27.439	0.100
299.800	-11.995	0.100
299.900	-24.627	0.100
300.000	-20.996	0.100
300.100	-9.492	0.100
300.200	-18.917	0.100
300.300	-20.851	0.100
300.400	-18.235	0.100
300.500	-19.721	0.100
300.600	-18.017	0.100
300.700	-29.177	0.100
300.800	-18.685	0.100
300.900	-16.403	0.100
301.000	-26.452	0.100
301.100	-37.913	0.100
301.200	-31.182	0.100
301.300	-21.432	0.100
301.400	-5.488	0.100
301.500	-11.747	0.100
301.600	-23.448	0.100
301.700	-21.625	0.100
301.800	-30.714	0.100
301.900	-18.131	0.100
302.000	-10.526	0.100
302.100	-19.692	0.100
302.200	-9.487	0.100
302.300	-17.156	0.100
302.400	-26.180	0.100
302.500	-38.905	0.100
302.600	-14.491	0.100
302.700	-24.046	0.100
302.800	-16.653	0.100
302.900	-4.963	0.100
303.000	-13.365	0.100
303.100	-35.143	0.100
303.200	-16.640	0.100
303.300	-4.299	0.100
303.400	-21.324	0.100
303.500	-9.897	0.100
303.600	-27.650	0.100
303.700	-22.172	0.100
303.800	-20.422	0.100
303.900	-22.583	0.100
304.000	-1.551	0.100
304.100	-21.668	0.100
304.200	-29.435	0.100
304.300	-18.822	0.100
304.400	-15.052	0.100
304.500	-19.064	0.100
304.600	-1.417	0.100
304.700	-20.734	0.100
304.800	-14.671	0.100
304.900	-1.873	0.100
305.000	-22.838	0.100
305.100	-15.058	0.100
305.200	-40.996	0.100
305.300	-21.389	0.100
305.400	-15.612	0.100
305.500	-8.886	0.100
305.600	-31.253	0.100
305.700	-17.925	0.100
305.800	-24.891	0.100
305.900	-8.951	0.100
306.000	-19.708	0.100
306.100	-8.712	0.100
306.200	-18.231	0.100
306.300	-29.422	0.100
306.400	-13.545	0.100
306.500	-26.397	0.100
306.600	1.595	0.100
306.700	-28.413	0.100
306.800	-5.966	0.100
306.900	-21.946	0.100
307.000	-19.181	0.100
307.100	0.574	0.100
307.200	-20.364	0.100
307.300	-8.785	0.100
307.400	-17.276	0.100
307.500	-24.694	0.100
307.600	-27.900	0.100
307.700	-30.331	0.100
307.800	-31.300	0.100
307.900	-15.245	0.100
308.000	-22.894	0.100
308.100	-20.154	0.100
308.200	-21.112	0.100
308.300	-19.136	0.100
308.400	-8.427	0.100
308.500	-26.338	0.100
308.600	-16.933	0.100
308.700	-18.688	0.100
308.800	-14.947	0.100
308.900	-26.456	0.100
309.000	-19.360	0.100
309.100	-0.593	0.100
309.200	-23.836	0.100
309.300	-16.148	0.100
309.400	-9.885	0.100
309.500	-28.066	0.100
309.600	-16.490	0.100
309.700	-24.705	0.100
309.800	-14.379	0.100
309.900	-11.629	0.100
310.000	-15.812	0.100
310.100	-6.544	0.100
310.200	-19.373	0.100
310.300	-32.686	0.100
310.400	-1.726	0.100
310.500	-20.795	0.100
310.600	-16.485	0.100
310.700	-6.496	0.100
310.800	-19.793	0.100
310.900	-5.583	0.100
311.000	-9.396	0.100
311.100	-25.682	0.100
311.200	-16.452	0.100
311.300	-3.923	0.100
311.400	-29.950	0.100
311.500	-16.121	0.100
311.600	8.896	0.100
311.700	-9.975	0.100
311.800	-18.833	0.100
311.900	-6.196	0.100
312.000	-29.863	0.100
312.100	-27.444	0.100
312.200	-26.265	0.100
312.300	-14.623	0.100
312.400	-24.489	0.100
312.500	-16.007	0.100
312.600	-24.049	0.100
312.700	3.371	0.100
312.800	-11.324	0.100
312.900	-18.917	0.100
313.000	-17.872	0.100
313.100	-37.828	0.100
313.200	-10.484	0.100
313.300	-23.604	0.100
313.400	-19.443	0.100
313.500	-30.151	0.100
313.600	-16.625	0.100
313.700	-10.093	0.100
313.800	-21.753	0.100
313.900	-18.634	0.100
314.000	-13.011	0.100
314.100	-31.206	0.100
314.200	-24.458	0.100
314.300	-30.436	0.100
314.400	-7.731	0.100
314.500	-15.142	0.100
314.600	-30.136	0.100
314.700	-15.376	0.100
314.800	-27.310	0.100
314.900	-12.129	0.100
315.000	-26.009	0.100
315.100	-10.936	0.100
315.200	-34.145	0.100
315.300	-20.669	0.100
315.400	-30.249	0.100
315.500	-4.828	0.100
315.600	-5.310	0.100
315.700	-3.414	0.100
315.800	-31.761	0.100
315.900	10.464	0.100
316.000	-16.888	0.100
316.100	-19.446	0.100
316.200	-26.793	0.100
316.300	7.034	0.100
316.400	-16.641	0.100
316.500	-21.541	0.100
316.600	-17.134	0.100
316.700	-5.796	0.100
316.800	-29.428	0.100
316.900	-6.035	0.100
317.000	-23.407	0.100
317.100	-17.005	0.100
317.200	-18.333	0.100
317.300	-23.697	0.100
317.400	-9.819	0.100
317.500	-22.521	0.100
317.600	-28.088	0.100
317.700	-9.516	0.100
317.800	-11.699	0.100
317.900	-8.898	0.100
318.000	-6.880	0.100
318.100	-7.892	0.100
318.200	-23.527	0.100
318.300	-31.539	0.100
318.400	-21.804	0.100
318.500	-14.567	0.100
318.600	-19.035	0.100
318.700	-8.131	0.100
318.800	-8.260	0.100
318.900	-22.834	0.100
319.000	-31.968	0.100
319.100	-23.972	0.100
319.200	-13.068	0.100
319.300	-10.179	0.100
319.400	-15.031	0.100
319.500	2.445	0.100
319.600	-15.328	0.100
319.700	-9.090	0.100
319.800	-7.145	0.100
319.900	-7.910	0.100
320.000	-29.202	0.100
320.100	-17.579	0.100
320.200	-8.965	0.100
320.300	-12.695	0.100
320.400	-16.272	0.100
320.500	-17.633	0.100
320.600	-15.334	0.100
320.700	-31.540	0.100
320.800	-20.935	0.100
320.900	-17.360	0.100
321.000	-17.163	0.100
321.100	-4.679	0.100
321.200	-22.280	0.100
321.300	-26.751	0.100
321.400	-20.883	0.100
321.500	-21.284	0.100
321.600	-2.051	0.100
321.700	-16.312	0.100
321.800	-25.770	0.100
321.900	-17.596	0.100
322.000	-12.921	0.100
322.100	-4.129	0.100
322.200	-18.798	0.100
322.300	-16.791	0.100
322.400	-24.020	0.100
322.500	-6.399	0.100
322.600	-2.365	0.100
322.700	-4.346	0.100
322.800	-33.272	0.100
322.900	-1.371	0.100
323.000	-36.162	0.100
323.100	-4.725	0.100
323.200	-14.307	0.100
323.300	-25.325	0.100
323.400	-18.724	0.100
323.500	-16.718	0.100
323.600	-31.311	0.100
323.700	-16.952	0.100
323.800	-8.006	0.100
323.900	-27.428	0.100
324.000	-7.910	0.100
324.100	-7.548	0.100
324.200	-18.250	0.100
324.300	-18.909	0.100
324.400	-21.348	0.100
324.500	-16.570	0.100
324.600	-9.871	0.100
324.700	-8.636	0.100
324.800	-32.122	0.100
324.900	-6.726	0.100
325.000	-28.309	0.100
325.100	-22.442	0.100
325.200	-7.356	0.100
325.300	-18.968	0.100
325.400	-25.159	0.100
325.500	-8.823	0.100
325.600	-25.173	0.100
325.700	-0.925	0.100
325.800	-13.894	0.100
325.900	-5.105	0.100
326.000	-16.123	0.100
326.100	-11.496	0.100
326.200	-10.743	0.100
326.300	-25.313	0.100
326.400	-15.247	0.100
326.500	-28.562	0.100
326.600	-19.226	0.100
326.700	-18.465	0.100
326.800	-30.858	0.100
326.900	-30.472	0.100
327.000	-2.000	0.100
327.100	-18.592	0.100
327.200	-13.899	0.100
327.300	-0.376	0.100
327.400	-14.511	0.100
327.500	-25.108	0.100
327.600	-6.783	0.100
327.700	-11.180	0.100
327.800	-9.855	0.100
327.900	-13.900	0.100
328.000	3.575	0.100
328.100	-14.372	0.100
328.200	-15.824	0.100
328.300	-25.189	0.100
328.400	-13.868	0.100
328.500	-12.025	0.100
328.600	-13.315	0.100
328.700	-15.786	0.100
328.800	-22.016	0.100
328.900	-7.270	0.100
329.000	-33.840	0.100
329.100	-21.688	0.100
329.200	-9.147	0.100
329.300	-18.835	0.100
329.400	-28.908	0.100
329.500	-24.247	0.100
329.600	-12.780	0.100
329.700	-27.081	0.100
329.800	-16.922	0.100
329.900	-24.223	0.100
330.000	-28.322	0.100
330.100	-14.190	0.100
330.200	-4.374	0.100
330.300	-14.936	0.100
330.400	-22.203	0.100
330.500	-9.289	0.100
330.600	-30.306	0.100
330.700	5.530	0.100
330.800	-39.903	0.100
330.900	-14.131	0.100
331.000	-13.994	0.100
331.100	-23.118	0.100
331.200	-22.024	0.100
331.300	-25.170	0.100
331.400	-6.472	0.100
331.500	-11.253	0.100
331.600	2.960	0.100
331.700	1.798	0.100
331.800	-9.941	0.100
331.900	-13.224	0.100
332.000	-6.474	0.100
332.100	-2.953	0.100
332.200	12.865	0.100
332.300	16.040	0.100
332.400	-10.247	0.100
332.500	-2.888	0.100
332.600	-2.575	0.100
332.700	2.202	0.100
332.800	-6.074	0.100
332.900	2.478	0.100
333.000	10.164	0.100
333.100	1.026	0.100
333.200	4.581	0.100
333.300	8.721	0.100
333.400	5.569	0.100
333.500	-21.189	0.100
333.600	4.037	0.100
333.700	6.989	0.100
333.800	8.971	0.100
333.900	-2.300	0.100
334.000	-13.075	0.100
334.100	-9.698	0.100
334.200	0.291	0.100
334.300	-14.022	0.100
334.400	11.059	0.100
334.500	-1.549	0.100
334.600	1.516	0.100
334.700	-1.751	0.100
334.800	0.815	0.100
334.900	-3.934	0.100
335.000	-4.769	0.100
335.100	-10.389	0.100
335.200	2.385	0.100
335.300	9.933	0.100
335.400	-7.294	0.100
335.500	-3.824	0.100
335.600	7.774	0.100
335.700	2.299	0.100
335.800	12.641	0.100
335.900	2.297	0.100
336.000	-7.146	0.100
336.100	11.685	0.100
336.200	0.511	0.100
336.300	-0.554	0.100
336.400	-0.387	0.100
336.500	-1.927	0.100
336.600	0.312	0.100
336.700	7.176	0.100
336.800	-3.055	0.100
336.900	9.502	0.100
337.000	3.675	0.100
337.100	-1.201	0.100
337.200	-2.170	0.100
337.300	-14.217	0.100
337.400	0.019	0.100
337.500	7.179	0.100
337.600	3.868	0.100
337.700	-2.764	0.100
337.800	-1.005	0.100
337.900	10.031	0.100
338.000	10.876	0.100
338.100	-13.500	0.100
338.200	-22.778	0.100
338.300	-2.004	0.100
338.400	2.054	0.100
338.500	-6.565	0.100
338.600	10.273	0.100
338.700	-13.039	0.100
338.800	4.173	0.100
338.900	-9.265	0.100
339.000	10.895	0.100
339.100	5.356	0.100
339.200	0.258	0.100
339.300	-8.419	0.100
339.400	5.199	0.100
339.500	12.823	0.100
339.600	-5.994	0.100
339.700	-5.842	0.100
339.800	7.484	0.100
339.900	-10.157	0.100
340.000	2.783	0.100
340.100	-10.478	0.100
340.200	10.214	0.100
340.300	-1.813	0.100
340.400	7.976	0.100
340.500	-13.508	0.100
340.600	-9.498	0.100
340.700	-10.697	0.100
340.800	-1.549	0.100
340.900	1.412	0.100
341.000	24.977	0.100
341.100	-0.463	0.100
341.200	-8.494	0.100
341.300	-9.875	0.100
341.400	9.637	0.100
341.500	-8.609	0.100
341.600	5.229	0.100
341.700	3.391	0.100
341.800	4.409	0.100
341.900	2.103	0.100
342.000	-3.943	0.100
342.100	-8.259	0.100
342.200	6.504	0.100
342.300	-10.416	0.100
342.400	10.716	0.100
342.500	2.551	0.100
342.600	-9.704	0.100
342.700	-3.170	0.100
342.800	-1.681	0.100
342.900	-27.996	0.100
343.000	3.764	0.100
343.100	11.810	0.100
343.200	12.438	0.100
343.300	1.861	0.100
343.400	3.853	0.100
343.500	3.439	0.100
343.600	11.857	0.100
343.700	20.141	0.100
343.800	8.332	0.100
343.900	15.408	0.100
344.000	-2.014	0.100
344.100	13.974	0.100
344.200	0.980	0.100
344.300	22.920	0.100
344.400	-6.070	0.100
344.500	3.384	0.100
344.600	5.076	0.100
344.700	-6.238	0.100
344.800	-5.778	0.100
344.900	12.375	0.100
345.000	3.756	0.100
345.100	3.798	0.100
345.200	41.594	0.100
345.300	5.692	0.100
345.400	19.766	0.100
345.500	24.956	0.100
345.600	18.214	0.100
345.700	10.660	0.100
345.800	6.172	0.100
345.900	-6.996	0.100
346.000	8.055	0.100
346.100	14.544	0.100
346.200	9.749	0.100
346.300	0.868	0.100
346.400	5.731	0.100
346.500	20.341	0.100
346.600	-15.318	0.100
346.700	25.498	0.100
346.800	3.817	0.100
346.900	7.559	0.100
347.000	0.855	0.100
347.100	10.999	0.100
347.200	19.007	0.100
347.300	14.347	0.100
347.400	15.350	0.100
347.500	11.126	0.100
347.600	12.350	0.100
347.700	15.380	0.100
347.800	-2.059	0.100
347.900	12.273	0.100
348.000	4.123	0.100
348.100	19.389	0.100
348.200	10.313	0.100
348.300	-12.001	0.100
348.400	18.388	0.100
348.500	18.375	0.100
348.600	4.622	0.100
348.700	21.917	0.100
348.800	15.717	0.100
348.900	24.160	0.100
349.000	5.958	0.100
349.100	18.404	0.100
349.200	19.126	0.100
349.300	1.748	0.100
349.400	46.046	0.100
349.500	22.547	0.100
349.600	19.604	0.100
349.700	2.770	0.100
349.800	26.963	0.100
349.900	31.160	0.100
350.000	28.081	0.100
350.100	11.937	0.100
350.200	3.515	0.100
350.300	18.447	0.100
350.400	13.787	0.100
350.500	20.979	0.100
350.600	18.229	0.100
350.700	11.410	0.100
350.800	30.867	0.100
350.900	13.031	0.100
351.000	23.367	0.100
351.100	32.333	0.100
351.200	6.854	0.100
351.300	20.801	0.100
351.400	40.264	0.100
351.500	24.152	0.100
351.600	25.917	0.100
351.700	16.707	0.100
351.800	0.067	0.100
351.900	20.295	0.100
352.000	23.372	0.100
352.100	8.406	0.100
352.200	19.969	0.100
352.300	44.600	0.100
352.400	25.434	0.100
352.500	22.953	0.100
352.600	13.048	0.100
352.700	16.085	0.100
352.800	14.232	0.100
352.900	21.822	0.100
353.000	21.690	0.100
353.100	23.131	0.100
353.200	16.850	0.100
353.300	33.884	0.100
353.400	6.316	0.100
353.500	8.348	0.100
353.600	32.542	0.100
353.700	20.470	0.100
353.800	15.291	0.100
353.900	6.028	0.100
354.000	4.207	0.100
354.100	27.340	0.100
354.200	36.330	0.100
354.300	21.775	0.100
354.400	29.590	0.100
354.500	17.682	0.100
354.600	28.027	0.100
354.700	36.069	0.100
354.800	10.119	0.100
354.900	41.265	0.100
355.000	14.988	0.100
355.100	51.440	0.100
355.200	6.350	0.100
355.300	18.169	0.100
355.400	8.422	0.100
355.500	22.722	0.100
355.600	33.599	0.100
355.700	11.238	0.100
355.800	17.397	0.100
355.900	22.396	0.100
356.000	28.760	0.100
356.100	13.795	0.100
356.200	19.262	0.100
356.300	13.684	0.100
356.400	47.673	0.100
356.500	3.292	0.100
356.600	23.550	0.100
356.700	20.666	0.100
356.800	13.420	0.100
356.900	20.292	0.100
357.000	16.304	0.100
357.100	32.630	0.100
357.200	12.699	0.100
357.300	9.560	0.100
357.400	26.485	0.100
357.500	13.990	0.100
357.600	6.210	0.100
357.700	14.831	0.100
357.800	20.305	0.100
357.900	12.888	0.100
358.000	23.564	0.100
358.100	19.119	0.100
358.200	18.180	0.100
358.300	12.064	0.100
358.400	38.829	0.100
358.500	27.041	0.100
358.600	24.726	0.100
358.700	11.363	0.100
358.800	15.150	0.100
358.900	12.747	0.100
359.000	26.157	0.100
359.100	23.817	0.100
359.200	42.719	0.100
359.300	16.920	0.100
359.400	19.070	0.100
359.500	26.240	0.100
359.600	10.643	0.100
359.700	28.732	0.100
359.800	24.577	0.100
359.900	22.778	0.100
360.000	19.403	0.100
360.100	22.171	0.100
360.200	-8.932	0.100
360.300	22.917	0.100
360.400	32.210	0.100
360.500	15.896	0.100
360.600	16.833	0.100
360.700	19.266	0.100
360.800	17.054	0.100
360.900	8.462	0.100
361.000	25.847	0.100
361.100	24.074	0.100
361.200	20.725	0.100
361.300	27.240	0.100
361.400	5.205	0.100
361.500	23.543	0.100
361.600	38.171	0.100
361.700	27.843	0.100
361.800	25.058	0.100
361.900	20.255	0.100
362.000	28.107	0.100
362.100	15.622	0.100
362.200	17.086	0.100
362.300	19.414	0.100
362.400	37.088	0.100
362.500	31.698	0.100
362.600	-0.170	0.100
362.700	18.723	0.100
362.800	17.749	0.100
362.900	16.129	0.100
363.000	22.904	0.100
363.100	2.807	0.100
363.200	32.401	0.100
363.300	14.032	0.100
363.400	38.169	0.100
363.500	30.746	0.100
363.600	18.869	0.100
363.700	-2.949	0.100
363.800	30.325	0.100
363.900	21.637	0.100
364.000	15.708	0.100
364.100	24.404	0.100
364.200	23.616	0.100
364.300	-6.774	0.100
364.400	29.041	0.100
364.500	23.728	0.100
364.600	30.335	0.100
364.700	13.665	0.100
364.800	31.661	0.100
364.900	32.394	0.100
365.000	10.478	0.100
365.100	16.397	0.100
365.200	35.211	0.100
365.300	14.781	0.100
365.400	19.562	0.100
365.500	16.080	0.100
365.600	10.733	0.100
365.700	24.287	0.100
365.800	16.187	0.100
365.900	0.788	0.100
366.000	5.543	0.100
366.100	12.819	0.100
366.200	20.236	0.100
366.300	2.561	0.100
366.400	-0.792	0.100
366.500	9.005	0.100
366.600	14.058	0.100
366.700	-0.865	0.100
366.800	28.158	0.100
366.900	19.755	0.100
367.000	40.237	0.100
367.100	25.337	0.100
367.200	18.759	0.100
367.300	-0.080	0.100
367.400	22.982	0.100
367.500	19.557	0.100
367.600	10.581	0.100
367.700	34.086	0.100
367.800	11.671	0.100
367.900	10.851	0.100
368.000	29.210	0.100
368.100	12.631	0.100
368.200	26.650	0.100
368.300	9.528	0.100
368.400	27.707	0.100
368.500	7.363	0.100
368.600	15.373	0.100
368.700	6.623	0.100
368.800	9.012	0.100
368.900	18.076	0.100
369.000	14.617	0.100
369.100	-0.192	0.100
369.200	14.103	0.100
369.300	-1.102	0.100
369.400	11.108	0.100
369.500	23.904	0.100
369.600	14.760	0.100
369.700	17.661	0.100
369.800	11.319	0.100
369.900	17.788	0.100
370.000	3.904	0.100
370.100	27.027	0.100
370.200	-0.553	0.100
370.300	19.837	0.100
370.400	0.833	0.100
370.500	12.339	0.100
370.600	18.171	0.100
370.700	2.818	0.100
370.800	29.932	0.100
370.900	24.169	0.100
371.000	0.393	0.100
371.100	16.353	0.100
371.200	23.269	0.100
371.300	7.476	0.100
371.400	15.645	0.100
371.500	-0.589	0.100
371.600	23.056	0.100
371.700	4.035	0.100
371.800	17.285	0.100
371.900	3.811	0.100
372.000	14.569	0.100
372.100	4.440	0.100
372.200	8.850	0.100
372.300	8.983	0.100
372.400	16.567	0.100
372.500	21.820	0.100
372.600	17.420	0.100
372.700	22.149	0.100
372.800	24.203	0.100
372.900	14.520	0.100
373.000	5.005	0.100
373.100	15.350	0.100
373.200	-1.107	0.100
373.300	26.885	0.100
373.400	20.549	0.100
373.500	6.281	0.100
373.600	22.649	0.100
373.700	3.478	0.100
373.800	0.503	0.100
373.900	28.995	0.100
374.000	7.198	0.100
374.100	9.599	0.100
374.200	18.218	0.100
374.300	2.806	0.100
374.400	19.843	0.100
374.500	18.702	0.100
374.600	0.326	0.100
374.700	5.349	0.100
374.800	-3.010	0.100
374.900	1.678	0.100
375.000	-2.786	0.100
375.100	27.985	0.100
375.200	14.898	0.100
375.300	19.529	0.100
375.400	6.935	0.100
375.500	33.455	0.100
375.600	11.497	0.100
375.700	2.837	0.100
375.800	6.555	0.100
375.900	8.546	0.100
376.000	12.524	0.100
376.100	14.919	0.100
376.200	2.978	0.100
376.300	11.488	0.100
376.400	14.048	0.100
376.500	8.521	0.100
376.600	9.074	0.100
376.700	19.142	0.100
376.800	18.521	0.100
376.900	2.938	0.100
377.000	9.656	0.100
377.100	-7.402	0.100
377.200	10.834	0.100
377.300	7.688	0.100
377.400	19.450	0.100
377.500	5.092	0.100
377.600	14.082	0.100
377.700	31.429	0.100
377.800	10.319	0.100
377.900	7.002	0.100
378.000	15.838	0.100
378.100	13.623	0.100
378.200	6.675	0.100
378.300	28.671	0.100
378.400	7.532	0.100
378.500	21.102	0.100
378.600	12.662	0.100
378.700	6.374	0.100
378.800	7.194	0.100
378.900	18.837	0.100
379.000	1.854	0.100
379.100	8.219	0.100
379.200	19.329	0.100
379.300	15.918	0.100
379.400	37.727	0.100
379.500	-0.667	0.100
379.600	18.639	0.100
379.700	16.059	0.100
379.800	13.235	0.100
379.900	17.454	0.100
380.000	1.326	0.100
380.100	7.943	0.100
380.200	11.334	0.100
380.300	13.523	0.100
380.400	5.916	0.100
380.500	27.191	0.100
380.600	8.143	0.100
380.700	27.433	0.100
380.800	-11.559	0.100
380.900	10.485	0.100
381.000	10.698	0.100
381.100	2.119	0.100
381.200	17.016	0.100
381.300	6.947	0.100
381.400	18.243	0.100
381.500	11.973	0.100
381.600	19.153	0.100
381.700	16.498	0.100
381.800	16.113	0.100
381.900	-1.731	0.100
382.000	6.635	0.100
382.100	22.260	0.100
382.200	-0.287	0.100
382.300	12.986	0.100
382.400	6.661	0.100
382.500	8.296	0.100
382.600	21.723	0.100
382.700	24.671	0.100
382.800	14.234	0.100
382.900	10.272	0.100
383.000	21.352	0.100
383.100	17.451	0.100
383.200	1.632	0.100
383.300	23.577	0.100
383.400	20.449	0.100
383.500	-6.783	0.100
383.600	1.646	0.100
383.700	15.241	0.100
383.800	0.121	0.100
383.900	0.159	0.100
384.000	25.850	0.100
384.100	17.096	0.100
384.200	9.916	0.100
384.300	13.562	0.100
384.400	17.232	0.100
384.500	6.107	0.100
384.600	-0.089	0.100
384.700	17.670	0.100
384.800	-7.191	0.100
384.900	5.397	0.100
385.000	34.233	0.100
385.100	21.640	0.100
385.200	18.123	0.100
385.300	4.610	0.100
385.400	4.102	0.100
385.500	4.871	0.100
385.600	-5.875	0.100
385.700	-4.100	0.100
385.800	13.464	0.100
385.900	5.707	0.100
386.000	7.823	0.100
386.100	29.272	0.100
386.200	-1.141	0.100
386.300	-1.360	0.100
386.400	25.821	0.100
386.500	11.416	0.100
386.600	23.933	0.100
386.700	1.779	0.100
386.800	14.565	0.100
386.900	-8.282	0.100
387.000	25.652	0.100
387.100	1.446	0.100
387.200	1.664	0.100
387.300	16.102	0.100
387.400	10.168	0.100
387.500	13.783	0.100
387.600	16.236	0.100
387.700	9.643	0.100
387.800	3.286	0.100
387.900	14.298	0.100
388.000	1.364	0.100
388.100	21.309	0.100
388.200	18.455	0.100
388.300	6.538	0.100
388.400	10.729	0.100
388.500	-1.529	0.100
388.600	2.741	0.100
388.700	-0.504	0.100
388.800	22.354	0.100
388.900	12.438	0.100
389.000	7.263	0.100
389.100	3.752	0.100
389.200	-1.932	0.100
389.300	9.793	0.100
389.400	10.665	0.100
389.500	13.384	0.100
389.600	29.850	0.100
389.700	3.772	0.100
389.800	-9.934	0.100
389.900	16.028	0.100
390.000	8.169	0.100
390.100	17.051	0.100
390.200	9.890	0.100
390.300	-2.453	0.100
390.400	4.480	0.100
390.500	9.822	0.100
390.600	-0.365	0.100
390.700	-8.131	0.100
390.800	2.868	0.100
390.900	18.693	0.100
391.000	-4.720	0.100
391.100	11.000	0.100
391.200	-20.743	0.100
391.300	8.172	0.100
391.400	-5.633	0.100
391.500	-0.602	0.100
391.600	-6.960	0.100
391.700	12.612	0.100
391.800	-4.546	0.100
391.900	-15.061	0.100
392.000	-6.438	0.100
392.100	-8.781	0.100
392.200	17.654	0.100
392.300	-7.206	0.100
392.400	-14.084	0.100
392.500	-9.786	0.100
392.600	9.175	0.100
392.700	0.861	0.100
392.800	-11.508	0.100
392.900	-15.422	0.100
393.000	5.382	0.100
393.100	-17.521	0.100
393.200	-9.861	0.100
393.300	-8.698	0.100
393.400	-19.962	0.100
393.500	-41.763	0.100
393.600	-6.976	0.100
393.700	13.837	0.100
393.800	-6.477	0.100
393.900	-5.478	0.100
394.000	-33.348	0.100
394.100	-10.897	0.100
394.200	-26.209	0.100
394.300	-15.253	0.100
394.400	-12.714	0.100
394.500	-10.444	0.100
394.600	-22.839	0.100
394.700	-18.753	0.100
394.800	-10.303	0.100
394.900	-18.481	0.100
395.000	-11.989	0.100
395.100	-20.312	0.100
395.200	-19.581	0.100
395.300	-8.498	0.100
395.400	-24.393	0.100
395.500	-11.023	0.100
395.600	-20.591	0.100
395.700	-24.052	0.100
395.800	-18.997	0.100
395.900	-7.848	0.100
396.000	0.529	0.100
396.100	-21.334	0.100
396.200	-13.401	0.100
396.300	-13.174	0.100
396.400	-15.502	0.100
396.500	-25.076	0.100
396.600	-18.223	0.100
396.700	-13.427	0.100
396.800	-11.079	0.100
396.900	-21.394	0.100
397.000	-13.250	0.100
397.100	-15.875	0.100
397.200	-3.342	0.100
397.300	-19.765	0.100
397.400	-12.970	0.100
397.500	-5.980	0.100
397.600	-17.472	0.100
397.700	-13.402	0.100
397.800	-20.354	0.100
397.900	-3.593	0.100
398.000	-27.081	0.100
398.100	-24.835	0.100
398.200	-28.504	0.100
398.300	-12.954	0.100
398.400	-24.163	0.100
398.500	-34.118	0.100
398.600	-12.884	0.100
398.700	-32.065	0.100
398.800	-12.399	0.100
398.900	-22.492	0.100
399.000	2.182	0.100
399.100	-33.606	0.100
399.200	-21.637	0.100
399.300	-16.339	0.100
399.400	-12.782	0.100
399.500	-20.474	0.100
399.600	-20.887	0.100
399.700	-0.716	0.100
399.800	-22.219	0.100
399.900	-4.012	0.100
400.000	-12.979	0.100
400.100	-12.013	0.100
400.200	-18.322	0.100
400.300	-19.893	0.100
400.400	-22.458	0.100
400.500	-6.821	0.100
400.600	-8.632	0.100
400.700	-18.424	0.100
400.800	-16.364	0.100
400.900	-30.515	0.100
401.000	-21.250	0.100
401.100	-23.822	0.100
401.200	3.109	0.100
401.300	-23.280	0.100
401.400	-15.668	0.100
401.500	-14.146	0.100
401.600	-3.837	0.100
401.700	-30.790	0.100
401.800	-29.354	0.100
401.900	-6.438	0.100
402.000	-26.033	0.100
402.100	-6.457	0.100
402.200	-26.291	0.100
402.300	-23.138	0.100
402.400	-22.494	0.100
402.500	-10.918	0.100
402.600	-17.412	0.100
402.700	-12.556	0.100
402.800	-2.718	0.100
402.900	-14.766	0.100
403.000	-15.228	0.100
403.100	-16.717	0.100
403.200	-5.882	0.100
403.300	-17.313	0.100
403.400	-20.706	0.100
403.500	-29.591	0.100
403.600	-16.333	0.100
403.700	-18.891	0.100
403.800	-16.470	0.100
403.900	-28.944	0.100
404.000	7.623	0.100
404.100	-27.753	0.100
404.200	-16.138	0.100
404.300	-19.022	0.100
404.400	-26.174	0.100
404.500	-8.112	0.100
404.600	-8.613	0.100
404.700	-2.703	0.100
404.800	-11.906	0.100
404.900	-14.846	0.100
405.000	-28.311	0.100
405.100	-14.449	0.100
405.200	-6.759	0.100
405.300	-28.966	0.100
405.400	-11.845	0.100
405.500	-18.276	0.100
405.600	-11.743	0.100
405.700	-10.687	0.100
405.800	-34.071	0.100
405.900	-2.852	0.100
406.000	-20.141	0.100
406.100	-21.469	0.100
406.200	-18.359	0.100
406.300	-19.746	0.100
406.400	-11.812	0.100
406.500	-20.587	0.100
406.600	-25.287	0.100
406.700	-19.972	0.100
406.800	-8.254	0.100
406.900	-12.525	0.100
407.000	-16.522	0.100
407.100	-6.972	0.100
407.200	-33.846	0.100
407.300	-15.610	0.100
407.400	-27.801	0.100
407.500	-16.995	0.100
407.600	-23.022	0.100
407.700	-18.799	0.100
407.800	-2.169	0.100
407.900	-11.879	0.100
408.000	-16.220	0.100
408.100	-19.851	0.100
408.200	-17.379	0.100
408.300	-20.090	0.100
408.400	-19.604	0.100
408.500	-10.483	0.100
408.600	-13.563	0.100
408.700	-22.011	0.100
408.800	-18.852	0.100
408.900	-18.091	0.100
409.000	-18.554	0.100
409.100	-19.442	0.100
409.200	-28.071	0.100
409.300	-8.790	0.100
409.400	-30.603	0.100
409.500	4.038	0.100
409.600	-11.321	0.100
409.700	-7.438	0.100
409.800	-32.751	0.100
409.900	0.421	0.100
410.000	-3.033	0.100
410.100	-9.600	0.100
410.200	-32.154	0.100
410.300	-7.258	0.100
410.400	-8.430	0.100
410.500	-33.635	0.100
410.600	-20.941	0.100
410.700	-20.749	0.100
410.800	-22.243	0.100
410.900	-9.572	0.100
411.000	-1.173	0.100
411.100	-23.567	0.100
411.200	-42.370	0.100
411.300	-33.651	0.100
411.400	-21.440	0.100
411.500	-22.229	0.100
411.600	-3.952	0.100
411.700	-2.451	0.100
411.800	4.754	0.100
411.900	-20.586	0.100
412.000	-6.634	0.100
412.100	-35.312	0.100
412.200	-16.210	0.100
412.300	-6.355	0.100
412.400	-2.393	0.100
412.500	-34.802	0.100
412.600	-16.101	0.100
412.700	-16.280	0.100
412.800	-12.204	0.100
412.900	-20.091	0.100
413.000	-29.248	0.100
413.100	-16.533	0.100
413.200	-9.078	0.100
413.300	-15.175	0.100
413.400	-16.040	0.100
413.500	-26.724	0.100
413.600	-36.778	0.100
413.700	-1.150	0.100
413.800	-19.596	0.100
413.900	-11.605	0.100
414.000	-26.557	0.100
414.100	4.838	0.100
414.200	-23.018	0.100
414.300	-28.039	0.100
414.400	-17.366	0.100
414.500	-17.245	0.100
414.600	-13.997	0.100
414.700	-27.847	0.100
414.800	-15.358	0.100
414.900	-16.448	0.100
415.000	-18.832	0.100
415.100	16.668	0.100
415.200	-24.339	0.100
415.300	-24.805	0.100
415.400	-2.387	0.100
415.500	-10.261	0.100
415.600	-8.387	0.100
415.700	-19.256	0.100
415.800	-30.476	0.100
415.900	-1.686	0.100
416.000	-22.514	0.100
416.100	-12.166	0.100
416.200	-21.641	0.100
416.300	-40.945	0.100
416.400	-15.489	0.100
416.500	-14.360	0.100
416.600	-12.619	0.100
416.700	-6.031	0.100
416.800	-23.229	0.100
416.900	-15.740	0.100
417.000	-13.342	0.100
417.100	-10.380	0.100
417.200	-18.259	0.100
417.300	-12.310	0.100
417.400	-13.878	0.100
417.500	-4.688	0.100
417.600	-19.293	0.100
417.700	-28.993	0.100
417.800	-18.377	0.100
417.900	-17.183	0.100
418.000	-4.591	0.100
418.100	-7.619	0.100
418.200	-17.894	0.100
418.300	3.713	0.100
418.400	-29.387	0.100
418.500	-30.064	0.100
418.600	-27.868	0.100
418.700	-7.143	0.100
418.800	-29.362	0.100
418.900	-32.493	0.100
419.000	-18.573	0.100
419.100	-17.998	0.100
419.200	-13.056	0.100
419.300	-15.617	0.100
419.400	-18.816	0.100
419.500	-11.461	0.100
419.600	-6.895	0.100
419.700	-21.223	0.100
419.800	-21.439	0.100
419.900	-17.375	0.100
420.000	-23.172	0.100
420.100	-16.388	0.100
420.200	-14.514	0.100
420.300	-18.960	0.100
420.400	-24.193	0.100
420.500	-2.404	0.100
420.600	0.825	0.100
420.700	-22.197	0.100
420.800	-10.561	0.100
420.900	-15.752	0.100
421.000	-4.177	0.100
421.100	-0.974	0.100
421.200	-19.170	0.100
421.300	-23.821	0.100
421.400	-4.084	0.100
421.500	-9.532	0.100
421.600	-21.273	0.100
421.700	-7.989	0.100
421.800	-29.340	0.100
421.900	-16.917	0.100
422.000	-3.479	0.100
422.100	-21.459	0.100
422.200	-25.135	0.100
422.300	-11.603	0.100
422.400	-14.546	0.100
422.500	1.213	0.100
422.600	-0.470	0.100
422.700	-24.870	0.100
422.800	-21.504	0.100
422.900	-24.843	0.100
423.000	-38.562	0.100
423.100	-22.303	0.100
423.200	-20.504	0.100
423.300	-7.325	0.100
423.400	3.540	0.100
423.500	-13.113	0.100
423.600	-12.719	0.100
423.700	-21.496	0.100
423.800	-23.122	0.100
423.900	-20.079	0.100
424.000	-15.555	0.100
424.100	-20.934	0.100
424.200	-21.302	0.100
424.300	-16.218	0.100
424.400	-11.898	0.100
424.500	-7.597	0.100
424.600	-37.752	0.100
424.700	-15.590	0.100
424.800	-10.714	0.100
424.900	-20.817	0.100
425.000	-16.012	0.100
425.100	-10.410	0.100
425.200	-3.930	0.100
425.300	-18.860	0.100
425.400	-24.319	0.100
425.500	-12.055	0.100
425.600	-17.061	0.100
425.700	-5.040	0.100
425.800	-32.074	0.100
425.900	-7.966	0.100
426.000	-32.324	0.100
426.100	-16.012	0.100
426.200	-13.478	0.100
426.300	-7.624	0.100
426.400	-7.345	0.100
426.500	-23.319	0.100
426.600	-7.188	0.100
426.700	-5.590	0.100
426.800	-19.934	0.100
426.900	6.072	0.100
427.000	-21.863	0.100
427.100	-2.188	0.100
427.200	-14.272	0.100
427.300	-20.746	0.100
427.400	-10.656	0.100
427.500	-9.718	0.100
427.600	-28.646	0.100
427.700	-14.827	0.100
427.800	-23.936	0.100
427.900	-27.389	0.100
428.000	-12.180	0.100
428.100	-22.788	0.100
428.200	-12.796	0.100
428.300	-18.329	0.100
428.400	1.987	0.100
428.500	-7.247	0.100
428.600	-15.911	0.100
428.700	-16.118	0.100
428.800	-13.815	0.100
428.900	-16.246	0.100
429.000	-11.044	0.100
429.100	-29.102	0.100
429.200	-10.472	0.100
429.300	-7.666	0.100
429.400	-26.988	0.100
429.500	-29.492	0.100
429.600	-33.669	0.100
429.700	-4.362	0.100
429.800	-18.044	0.100
429.900	-5.559	0.100
430.000	-22.276	0.100
430.100	-37.872	0.100
430.200	-12.917	0.100
430.300	-12.660	0.100
430.400	-21.915	0.100
430.500	-27.310	0.100
430.600	-13.823	0.100
430.700	-24.434	0.100
430.800	10.913	0.100
430.900	-21.250	0.100
431.000	-11.679	0.100
431.100	-14.607	0.100
431.200	-20.075	0.100
431.300	-6.760	0.100
431.400	-21.987	0.100
431.500	-10.063	0.100
431.600	-35.000	0.100
431.700	-22.350	0.100
431.800	-28.367	0.100
431.900	-19.331	0.100
432.000	0.297	0.100
432.100	-14.084	0.100
432.200	-33.064	0.100
432.300	-8.749	0.100
432.400	-30.214	0.100
432.500	-34.274	0.100
432.600	-19.990	0.100
432.700	-12.059	0.100
432.800	-17.895	0.100
432.900	1.752	0.100
433.000	-13.287	0.100
433.100	-23.739	0.100
433.200	8.869	0.100
433.300	-4.084	0.100
433.400	-19.074	0.100
433.500	-5.092	0.100
433.600	-5.234	0.100
433.700	-40.272	0.100
433.800	-16.836	0.100
433.900	-29.110	0.100
434.000	-15.669	0.100
434.100	-27.713	0.100
434.200	-14.426	0.100
434.300	-22.361	0.100
434.400	-4.584	0.100
434.500	8.306	0.100
434.600	-8.116	0.100
434.700	-27.169	0.100
434.800	-34.232	0.100
434.900	-34.670	0.100
435.000	-15.607	0.100
435.100	-16.164	0.100
435.200	-31.944	0.100
435.300	-12.138	0.100
435.400	-12.291	0.100
435.500	-5.537	0.100
435.600	-14.738	0.100
435.700	4.221	0.100
435.800	-0.932	0.100
435.900	-24.008	0.100
436.000	-16.489	0.100
436.100	-30.825	0.100
436.200	-16.085	0.100
436.300	-9.923	0.100
436.400	-6.270	0.100
436.500	-8.442	0.100
436.600	-17.510	0.100
436.700	-15.242	0.100
436.800	-15.732	0.100
436.900	6.961	0.100
437.000	-19.969	0.100
437.100	-15.730	0.100
437.200	-22.245	0.100
437.300	-25.328	0.100
437.400	8.018	0.100
437.500	-17.160	0.100
437.600	-12.158	0.100
437.700	-28.099	0.100
437.800	-12.582	0.100
437.900	-1.186	0.100
438.000	-7.294	0.100
438.100	-15.215	0.100
438.200	-19.499	0.100
438.300	-14.210	0.100
438.400	-23.793	0.100
438.500	-36.321	0.100
438.600	-13.358	0.100
438.700	-33.448	0.100
438.800	1.615	0.100
438.900	-12.750	0.100
439.000	-2.210	0.100
439.100	-18.486	0.100
439.200	-14.255	0.100
439.300	-17.084	0.100
439.400	-18.135	0.100
439.500	-4.130	0.100
439.600	-18.163	0.100
439.700	-12.167	0.100
439.800	-16.943	0.100
439.900	-22.064	0.100
440.000	-14.933	0.100
440.100	-21.132	0.100
440.200	10.962	0.100
440.300	-10.752	0.100
440.400	-18.436	0.100
440.500	-18.064	0.100
440.600	-18.428	0.100
440.700	-18.428	0.100
440.800	-12.860	0.100
440.900	-8.184	0.100
441.000	-9.768	0.100
441.100	-23.086	0.100
441.200	-21.189	0.100
441.300	-25.871	0.100
441.400	-9.018	0.100
441.500	-9.230	0.100
441.600	-23.791	0.100
441.700	-1.428	0.100
441.800	-13.260	0.100
441.900	-15.494	0.100
442.000	1.557	0.100
442.100	-5.582	0.100
442.200	-24.827	0.100
442.300	-13.105	0.100
442.400	-3.381	0.100
442.500	-3.646	0.100
442.600	-29.252	0.100
442.700	-4.371	0.100
442.800	-19.549	0.100
442.900	-17.172	0.100
443.000	-8.823	0.100
443.100	-23.184	0.100
443.200	6.274	0.100
443.300	-4.376	0.100
443.400	-19.520	0.100
443.500	-4.616	0.100
443.600	-6.170	0.100
443.700	-9.848	0.100
443.800	-9.760	0.100
443.900	-14.956	0.100
444.000	-25.858	0.100
444.100	6.447	0.100
444.200	-9.043	0.100
444.300	-21.213	0.100
444.400	-3.729	0.100
444.500	1.249	0.100
444.600	-12.396	0.100
444.700	7.533	0.100
444.800	-14.416	0.100
444.900	-3.652	0.100
445.000	-13.021	0.100
445.100	-13.652	0.100
445.200	-16.355	0.100
445.300	-8.189	0.100
445.400	-6.128	0.100
445.500	-19.617	0.100
445.600	9.557	0.100
445.700	-13.839	0.100
445.800	-5.010	0.100
445.900	-4.837	0.100
446.000	-14.122	0.100
446.100	-31.706	0.100
446.200	9.445	0.100
446.300	-24.740	0.100
446.400	-4.528	0.100
446.500	-2.210	0.100
446.600	-1.500	0.100
446.700	-16.709	0.100
446.800	1.801	0.100
446.900	-22.533	0.100
447.000	-27.210	0.100
447.100	-9.225	0.100
447.200	-22.429	0.100
447.300	-12.159	0.100
447.400	-15.075	0.100
447.500	2.829	0.100
447.600	-14.278	0.100
447.700	4.150	0.100
447.800	-19.981	0.100
447.900	-15.671	0.100
448.000	-4.763	0.100
448.100	-12.654	0.100
448.200	-22.422	0.100
448.300	-5.780	0.100
448.400	-19.791	0.100
448.500	-6.567	0.100
448.600	4.403	0.100
448.700	-9.133	0.100
448.800	1.411	0.100
448.900	-11.069	0.100
449.000	-18.830	0.100
449.100	-0.817	0.100
449.200	-15.214	0.100
449.300	-8.265	0.100
449.400	-23.256	0.100
449.500	-28.290	0.100
449.600	-1.888	0.100
449.700	0.887	0.100
449.800	-3.730	0.100
449.900	-21.166	0.100
450.000	-4.082	0.100
450.100	-3.654	0.100
450.200	-10.508	0.100
450.300	-3.310	0.100
450.400	-18.049	0.100
450.500	-17.102	0.100
450.600	-15.286	0.100
450.700	-6.441	0.100
450.800	-5.082	0.100
450.900	-15.592	0.100
451.000	-19.198	0.100
451.100	-2.825	0.100
451.200	-1.013	0.100
451.300	-27.038	0.100
451.400	-0.744	0.100
451.500	-9.211	0.100
451.600	-33.353	0.100
451.700	-11.804	0.100
451.800	9.596	0.100
451.900	-15.590	0.100
452.000	-18.691	0.100
452.100	0.564	0.100
452.200	-16.550	0.100
452.300	-2.444	0.100
452.400	-20.625	0.100
452.500	-10.311	0.100
452.600	-16.219	0.100
452.700	-16.829	0.100
452.800	-2.602	0.100
452.900	-5.649	0.100
453.000	2.798	0.100
453.100	-18.609	0.100
453.200	-11.454	0.100
453.300	-9.553	0.100
453.400	-20.823	0.100
453.500	-1.771	0.100
453.600	-13.914	0.100
453.700	-15.003	0.100
453.800	-16.223	0.100
453.900	-25.678	0.100
454.000	-8.679	0.100
454.100	-3.811	0.100
454.200	-16.643	0.100
454.300	-3.235	0.100
454.400	-1.823	0.100
454.500	-14.724	0.100
454.600	-9.105	0.100
454.700	5.468	0.100
454.800	-22.446	0.100
454.900	-11.126	0.100
455.000	-7.077	0.100
455.100	-5.684	0.100
455.200	-11.734	0.100
455.300	-21.149	0.100
455.400	-4.883	0.100
455.500	-9.975	0.100
455.600	-10.006	0.100
455.700	-9.719	0.100
455.800	-4.450	0.100
455.900	7.802	0.100
456.000	-22.563	0.100
456.100	-13.642	0.100
456.200	-7.435	0.100
456.300	-21.968	0.100
456.400	-6.090	0.100
456.500	-0.527	0.100
456.600	-20.995	0.100
456.700	-3.357	0.100
456.800	-5.632	0.100
456.900	-3.065	0.100
457.000	-19.797	0.100
457.100	-1.225	0.100
457.200	-11.693	0.100
457.300	4.629	0.100
457.400	-12.937	0.100
457.500	-9.367	0.100
457.600	-0.744	0.100
457.700	-24.332	0.100
457.800	-9.474	0.100
457.900	2.499	0.100
458.000	-9.169	0.100
458.100	-7.367	0.100
458.200	-23.650	0.100
458.300	-24.833	0.100
458.400	-10.349	0.100
458.500	-11.133	0.100
458.600	-32.534	0.100
458.700	-12.190	0.100
458.800	-25.542	0.100
458.900	-9.951	0.100
459.000	-2.610	0.100
459.100	-11.813	0.100
459.200	3.228	0.100
459.300	0.520	0.100
459.400	-26.170	0.100
459.500	-10.068	0.100
459.600	-22.924	0.100
459.700	-1.425	0.100
459.800	-2.783	0.100
459.900	0.333	0.100
460.000	-7.249	0.100
460.100	-7.214	0.100
460.200	-4.280	0.100
460.300	0.156	0.100
460.400	-5.807	0.100
460.500	-14.178	0.100
460.600	-12.110	0.100
460.700	4.795	0.100
460.800	10.459	0.100
460.900	-12.487	0.100
461.000	-8.436	0.100
461.100	-1.694	0.100
461.200	-19.858	0.100
461.300	-11.229	0.100
461.400	-7.814	0.100
461.500	-17.969	0.100
461.600	-9.304	0.100
461.700	-6.251	0.100
461.800	-5.526	0.100
461.900	-18.703	0.100
462.000	-18.400	0.100
462.100	-12.037	0.100
462.200	19.965	0.100
462.300	-20.418	0.100
462.400	-4.501	0.100
462.500	-0.887	0.100
462.600	-12.326	0.100
462.700	-25.834	0.100
462.800	-9.894	0.100
462.900	1.802	0.100
463.000	13.894	0.100
463.100	-26.247	0.100
463.200	-3.352	0.100
463.300	-10.419	0.100
463.400	-7.441	0.100
463.500	-4.900	0.100
463.600	-15.227	0.100
463.700	4.950	0.100
463.800	-2.189	0.100
463.900	-1.775	0.100
464.000	-18.250	0.100
464.100	-17.309	0.100
464.200	-3.794	0.100
464.300	3.387	0.100
464.400	-20.969	0.100
464.500	-16.527	0.100
464.600	-11.057	0.100
464.700	-9.805	0.100
464.800	-12.610	0.100
464.900	-7.921	0.100
465.000	-12.803	0.100
465.100	-8.293	0.100
465.200	-1.106	0.100
465.300	2.590	0.100
465.400	-11.519	0.100
465.500	-5.676	0.100
465.600	-7.522	0.100
465.700	-8.097	0.100
465.800	-26.290	0.100
465.900	-3.340	0.100
466.000	-10.363	0.100
466.100	0.543	0.100
466.200	-16.708	0.100
466.300	-3.634	0.100
466.400	-16.255	0.100
466.500	5.466	0.100
466.600	-1.209	0.100
466.700	-29.183	0.100
466.800	-16.520	0.100
466.900	-19.264	0.100
467.000	-8.570	0.100
467.100	21.589	0.100
467.200	-19.435	0.100
467.300	-11.767	0.100
467.400	-24.004	0.100
467.500	-0.357	0.100
467.600	-6.516	0.100
467.700	-12.369	0.100
467.800	12.382	0.100
467.900	-26.375	0.100
468.000	-17.291	0.100
468.100	6.552	0.100
468.200	-5.666	0.100
468.300	-20.388	0.100
468.400	-17.554	0.100
468.500	1.628	0.100
468.600	-7.809	0.100
468.700	-0.932	0.100
468.800	3.240	0.100
468.900	-9.158	0.100
469.000	-15.811	0.100
469.100	-19.586	0.100
469.200	-3.785	0.100
469.300	-7.328	0.100
469.400	-29.651	0.100
469.500	-0.651	0.100
469.600	-4.777	0.100
469.700	0.235	0.100
469.800	-3.712	0.100
469.900	-4.831	0.100
470.000	-11.987	0.100
470.100	-1.872	0.100
470.200	-13.139	0.100
470.300	-16.729	0.100
470.400	-0.524	0.100
470.500	8.644	0.100
470.600	-11.873	0.100
470.700	-15.703	0.100
470.800	-3.654	0.100
470.900	5.192	0.100
471.000	-5.424	0.100
471.100	-25.080	0.100
471.200	-20.401	0.100
471.300	-9.279	0.100
471.400	-7.484	0.100
471.500	-12.646	0.100
471.600	-17.980	0.100
471.700	-3.732	0.100
471.800	-21.270	0.100
471.900	-1.428	0.100
472.000	-12.280	0.100
472.100	0.340	0.100
472.200	9.129	0.100
472.300	-8.013	0.100
472.400	-20.160	0.100
472.500	2.152	0.100
472.600	-16.242	0.100
472.700	1.141	0.100
472.800	-11.521	0.100
472.900	-3.786	0.100
473.000	-27.658	0.100
473.100	-20.513	0.100
473.200	4.222	0.100
473.300	-1.096	0.100
473.400	10.184	0.100
473.500	10.263	0.100
473.600	-4.905	0.100
473.700	-21.991	0.100
473.800	-5.990	0.100
473.900	2.041	0.100
474.000	-14.386	0.100
474.100	6.364	0.100
474.200	-21.124	0.100
474.300	-19.457	0.100
474.400	-8.873	0.100
474.500	-20.540	0.100
474.600	4.251	0.100
474.700	-5.892	0.100
474.800	-6.302	0.100
474.900	-23.293	0.100
475.000	8.940	0.100
475.100	-13.984	0.100
475.200	-25.486	0.100
475.300	-1.016	0.100
475.400	-10.056	0.100
475.500	-3.679	0.100
475.600	-8.159	0.100
475.700	-8.617	0.100
475.800	5.283	0.100
475.900	-5.289	0.100
476.000	-19.243	0.100
476.100	-21.059	0.100
476.200	-6.712	0.100
476.300	-3.591	0.100
476.400	-15.805	0.100
476.500	-17.597	0.100
476.600	-4.698	0.100
476.700	-14.607	0.100
476.800	-7.589	0.100
476.900	-7.959	0.100
477.000	-20.275	0.100
477.100	-2.018	0.100
477.200	-15.693	0.100
477.300	6.570	0.100
477.400	-6.523	0.100
477.500	-7.054	0.100
477.600	7.085	0.100
477.700	-16.039	0.100
477.800	-11.546	0.100
477.900	-1.266	0.100
478.000	-24.398	0.100
478.100	5.744	0.100
478.200	-6.567	0.100
478.300	0.076	0.100
478.400	-19.760	0.100
478.500	-10.465	0.100
478.600	1.319	0.100
478.700	3.043	0.100
478.800	1.934	0.100
478.900	0.411	0.100
479.000	10.050	0.100
479.100	2.854	0.100
479.200	10.440	0.100
479.300	-1.995	0.100
479.400	-15.688	0.100
479.500	2.690	0.100
479.600	-6.694	0.100
479.700	-13.758	0.100
479.800	6.428	0.100
479.900	5.863	0.100
480.000	-24.987	0.100
480.100	-19.330	0.100
480.200	3.522	0.100
480.300	-27.049	0.100
480.400	9.261	0.100
480.500	-12.116	0.100
480.600	-14.426	0.100
480.700	-31.421	0.100
480.800	-1.947	0.100
480.900	-0.934	0.100
481.000	-4.976	0.100
481.100	-15.013	0.100
481.200	-9.144	0.100
481.300	5.256	0.100
481.400	6.798	0.100
481.500	-9.458	0.100
481.600	8.170	0.100
481.700	-3.326	0.100
481.800	5.709	0.100
481.900	5.974	0.100
482.000	0.684	0.100
482.100	9.490	0.100
482.200	1.388	0.100
482.300	0.129	0.100
482.400	19.016	0.100
482.500	20.533	0.100
482.600	-2.223	0.100
482.700	16.295	0.100
482.800	10.553	0.100
482.900	7.838	0.100
483.000	11.257	0.100
483.100	4.785	0.100
483.200	-9.997	0.100
483.300	6.349	0.100
483.400	11.334	0.100
483.500	19.229	0.100
483.600	25.470	0.100
483.700	16.333	0.100
483.800	2.146	0.100
483.900	15.175	0.100
484.000	2.643	0.100
484.100	5.754	0.100
484.200	12.478	0.100
484.300	14.049	0.100
484.400	1.148	0.100
484.500	3.061	0.100
484.600	14.630	0.100
484.700	-1.958	0.100
484.800	18.622	0.100
484.900	13.283	0.100
485.000	1.100	0.100
485.100	1.903	0.100
485.200	-3.269	0.100
485.300	13.286	0.100
485.400	8.808	0.100
485.500	8.017	0.100
485.600	-6.618	0.100
485.700	18.119	0.100
485.800	0.975	0.100
485.900	22.888	0.100
486.000	-5.739	0.100
486.100	-7.318	0.100
486.200	-9.632	0.100
486.300	14.851	0.100
486.400	-1.894	0.100
486.500	20.882	0.100
486.600	17.338	0.100
486.700	14.151	0.100
486.800	14.961	0.100
486.900	10.880	0.100
487.000	20.694	0.100
487.100	9.948	0.100
487.200	9.761	0.100
487.300	17.977	0.100
487.400	-5.148	0.100
487.500	0.784	0.100
487.600	19.220	0.100
487.700	14.189	0.100
487.800	8.599	0.100
487.900	13.960	0.100
488.000	11.331	0.100
488.100	0.723	0.100
488.200	15.062	0.100
488.300	-7.472	0.100
488.400	8.755	0.100
488.500	1.507	0.100
488.600	12.991	0.100
488.700	16.492	0.100
488.800	16.210	0.100
488.900	8.939	0.100
489.000	25.431	0.100
489.100	-12.851	0.100
489.200	12.941	0.100
489.300	4.911	0.100
489.400	3.681	0.100
489.500	-9.098	0.100
489.600	26.468	0.100
489.700	18.241	0.100
489.800	4.475	0.100
489.900	30.811	0.100
490.000	-7.778	0.100
490.100	17.346	0.100
490.200	21.234	0.100
490.300	5.997	0.100
490.400	22.066	0.100
490.500	7.996	0.100
490.600	17.740	0.100
490.700	16.457	0.100
490.800	12.187	0.100
490.900	28.184	0.100
491.000	8.853	0.100
491.100	9.796	0.100
491.200	4.348	0.100
491.300	9.104	0.100
491.400	14.931	0.100
491.500	17.607	0.100
491.600	0.765	0.100
491.700	10.977	0.100
491.800	14.364	0.100
491.900	9.809	0.100
492.000	12.212	0.100
492.100	37.286	0.100
492.200	25.620	0.100
492.300	6.122	0.100
492.400	8.158	0.100
492.500	2.820	0.100
492.600	5.667	0.100
492.700	33.033	0.100
492.800	8.186	0.100
492.900	22.170	0.100
493.000	31.714	0.100
493.100	5.463	0.100
493.200	16.285	0.100
493.300	-8.630	0.100
493.400	13.782	0.100
493.500	20.419	0.100
493.600	-1.138	0.100
493.700	6.578	0.100
493.800	25.396	0.100
493.900	14.166	0.100
494.000	21.114	0.100
494.100	21.501	0.100
494.200	23.239	0.100
494.300	16.651	0.100
494.400	-3.796	0.100
494.500	33.596	0.100
494.600	18.200	0.100
494.700	3.474	0.100
494.800	24.139	0.100
494.900	14.411	0.100
495.000	14.027	0.100
495.100	31.399	0.100
495.200	1.696	0.100
495.300	20.809	0.100
495.400	28.681	0.100
495.500	18.626	0.100
495.600	34.673	0.100
495.700	25.923	0.100
495.800	7.327	0.100
495.900	9.861	0.100
496.000	-5.992	0.100
496.100	26.161	0.100
496.200	10.971	0.100
496.300	30.137	0.100
496.400	4.635	0.100
496.500	18.097	0.100
496.600	9.745	0.100
496.700	11.716	0.100
496.800	16.294	0.100
496.900	8.671	0.100
497.000	21.074	0.100
497.100	11.781	0.100
497.200	15.360	0.100
497.300	11.670	0.100
497.400	24.028	0.100
497.500	19.522	0.100
497.600	32.125	0.100
497.700	14.249	0.100
497.800	31.343	0.100
497.900	7.213	0.100
498.000	29.163	0.100
498.100	7.345	0.100
498.200	19.121	0.100
498.300	27.726	0.100
498.400	20.202	0.100
498.500	24.273	0.100
498.600	11.479	0.100
498.700	21.632	0.100
498.800	27.630	0.100
498.900	27.633	0.100
499.000	29.124	0.100
499.100	20.880	0.100
499.200	32.040	0.100
499.300	34.872	0.100
499.400	20.805	0.100
499.500	3.114	0.100
499.600	23.313	0.100
499.700	50.130	0.100
499.800	29.403	0.100
499.900	10.873	0.100
500.000	32.293	0.100
500.100	27.897	0.100
500.200	31.065	0.100
500.300	30.539	0.100
500.400	38.252	0.100
500.500	35.106	0.100
500.600	26.495	0.100
500.700	12.758	0.100
500.800	33.531	0.100
500.900	18.945	0.100
501.000	40.327	0.100
501.100	44.727	0.100
501.200	30.969	0.100
501.300	24.230	0.100
501.400	22.919	0.100
501.500	8.605	0.100
501.600	25.829	0.100
501.700	41.571	0.100
501.800	21.418	0.100
501.900	32.873	0.100
502.000	52.276	0.100
502.100	35.546	0.100
502.200	17.483	0.100
502.300	15.577	0.100
502.400	29.631	0.100
502.500	31.801	0.100
502.600	24.012	0.100
502.700	45.411	0.100
502.800	29.711	0.100
502.900	47.712	0.100
503.000	30.130	0.100
503.100	41.443	0.100
503.200	37.768	0.100
503.300	28.981	0.100
503.400	31.641	0.100
503.500	24.942	0.100
503.600	22.293	0.100
503.700	31.474	0.100
503.800	37.963	0.100
503.900	15.932	0.100
504.000	47.837	0.100
504.100	14.661	0.100
504.200	21.338	0.100
504.300	34.429	0.100
504.400	30.767	0.100
504.500	36.279	0.100
504.600	39.380	0.100
504.700	36.049	0.100
504.800	34.960	0.100
504.900	30.667	0.100
505.000	33.468	0.100
505.100	24.146	0.100
505.200	24.591	0.100
505.300	43.251	0.100
505.400	50.099	0.100
505.500	34.876	0.100
505.600	47.452	0.100
505.700	24.175	0.100
505.800	26.202	0.100
505.900	44.416	0.100
506.000	38.416	0.100
506.100	43.637	0.100
506.200	23.676	0.100
506.300	47.939	0.100
506.400	44.964	0.100
506.500	27.238	0.100
506.600	40.735	0.100
506.700	34.703	0.100
506.800	28.304	0.100
506.900	32.125	0.100
507.000	55.424	0.100
507.100	21.511	0.100
507.200	22.796	0.100
507.300	21.121	0.100
507.400	18.039	0.100
507.500	31.402	0.100
507.600	14.019	0.100
507.700	43.708	0.100
507.800	29.909	0.100
507.900	33.310	0.100
508.000	42.911	0.100
508.100	17.878	0.100
508.200	32.744	0.100
508.300	12.810	0.100
508.400	31.102	0.100
508.500	21.885	0.100
508.600	32.500	0.100
508.700	41.207	0.100
508.800	29.320	0.100
508.900	24.631	0.100
509.000	22.625	0.100
509.100	26.447	0.100
509.200	30.029	0.100
509.300	24.864	0.100
509.400	34.366	0.100
509.500	30.147	0.100
509.600	25.235	0.100
509.700	36.975	0.100
509.800	48.493	0.100
509.900	32.712	0.100
510.000	33.034	0.100
510.100	31.218	0.100
510.200	15.040	0.100
510.300	42.212	0.100
510.400	26.872	0.100
510.500	22.399	0.100
510.600	18.971	0.100
510.700	15.891	0.100
510.800	32.558	0.100
510.900	18.813	0.100
511.000	35.703	0.100
511.100	45.090	0.100
511.200	16.901	0.100
511.300	40.767	0.100
511.400	26.932	0.100
511.500	34.255	0.100
511.600	38.483	0.100
511.700	0.919	0.100
511.800	28.118	0.100
511.900	28.110	0.100
512.000	23.738	0.100
512.100	41.348	0.100
512.200	39.410	0.100
512.300	34.186	0.100
512.400	6.453	0.100
512.500	40.672	0.100
512.600	30.801	0.100
512.700	-4.700	0.100
512.800	15.476	0.100
512.900	27.560	0.100
513.000	23.072	0.100
513.100	22.760	0.100
513.200	10.618	0.100
513.300	34.621	0.100
513.400	27.254	0.100
513.500	38.248	0.100
513.600	14.911	0.100
513.700	30.112	0.100
513.800	25.046	0.100
513.900	35.816	0.100
514.000	25.965	0.100
514.100	17.554	0.100
514.200	18.323	0.100
514.300	20.493	0.100
514.400	33.847	0.100
514.500	15.389	0.100
514.600	51.785	0.100
514.700	9.558	0.100
514.800	34.212	0.100
514.900	24.669	0.100
515.000	44.395	0.100
515.100	24.197	0.100
515.200	35.939	0.100
515.300	10.119	0.100
515.400	14.890	0.100
515.500	16.885	0.100
515.600	19.697	0.100
515.700	29.346	0.100
515.800	5.280	0.100
515.900	35.999	0.100
516.000	42.610	0.100
516.100	32.180	0.100
516.200	22.123	0.100
516.300	19.932	0.100
516.400	16.275	0.100
516.500	23.752	0.100
516.600	10.152	0.100
516.700	17.168	0.100
516.800	31.111	0.100
516.900	27.991	0.100
517.000	11.667	0.100
517.100	25.464	0.100
517.200	29.400	0.100
517.300	32.777	0.100
517.400	19.127	0.100
517.500	19.058	0.100
517.600	41.514	0.100
517.700	33.150	0.100
517.800	32.037	0.100
517.900	18.530	0.100
518.000	35.824	0.100
518.100	28.702	0.100
518.200	9.265	0.100
518.300	33.302	0.100
518.400	20.026	0.100
518.500	17.856	0.100
518.600	15.189	0.100
518.700	37.685	0.100
518.800	16.421	0.100
518.900	42.565	0.100
519.000	35.190	0.100
519.100	17.620	0.100
519.200	31.018	0.100
519.300	18.637	0.100
519.400	18.402	0.100
519.500	25.362	0.100
519.600	18.512	0.100
519.700	18.708	0.100
519.800	24.054	0.100
519.900	26.421	0.100
520.000	38.968	0.100
520.100	34.706	0.100
520.200	24.217	0.100
520.300	51.267	0.100
520.400	36.238	0.100
520.500	6.014	0.100
520.600	43.879	0.100
520.700	22.885	0.100
520.800	11.904	0.100
520.900	16.879	0.100
521.000	2.452	0.100
521.100	18.369	0.100
521.200	19.497	0.100
521.300	16.181	0.100
521.400	11.448	0.100
521.500	27.615	0.100
521.600	5.303	0.100
521.700	35.605	0.100
521.800	21.045	0.100
521.900	20.528	0.100
522.000	19.933	0.100
522.100	25.416	0.100
522.200	16.240	0.100
522.300	27.779	0.100
522.400	38.413	0.100
522.500	22.645	0.100
522.600	22.051	0.100
522.700	15.608	0.100
522.800	15.071	0.100
522.900	29.819	0.100
523.000	21.689	0.100
523.100	26.505	0.100
523.200	12.213	0.100
523.300	21.889	0.100
523.400	23.771	0.100
523.500	2.381	0.100
523.600	9.050	0.100
523.700	32.030	0.100
523.800	20.921	0.100
523.900	12.904	0.100
524.000	31.338	0.100
524.100	34.491	0.100
524.200	24.480	0.100
524.300	3.158	0.100
524.400	10.537	0.100
524.500	20.871	0.100
524.600	34.846	0.100
524.700	33.086	0.100
524.800	23.074	0.100
524.900	14.302	0.100
525.000	30.263	0.100
525.100	27.662	0.100
525.200	37.579	0.100
525.300	30.842	0.100
525.400	15.135	0.100
525.500	14.333	0.100
525.600	26.649	0.100
525.700	22.738	0.100
525.800	18.621	0.100
525.900	15.507	0.100
526.000	24.507	0.100
526.100	31.797	0.100
526.200	7.276	0.100
526.300	11.616	0.100
526.400	33.859	0.100
526.500	23.248	0.100
526.600	28.652	0.100
526.700	20.457	0.100
526.800	22.721	0.100
526.900	24.051	0.100
527.000	7.567	0.100
527.100	13.091	0.100
527.200	13.856	0.100
527.300	19.551	0.100
527.400	29.698	0.100
527.500	9.725	0.100
527.600	24.961	0.100
527.700	34.728	0.100
527.800	35.487	0.100
527.900	-0.762	0.100
528.000	25.876	0.100
528.100	27.275	0.100
528.200	19.918	0.100
528.300	13.580	0.100
528.400	12.611	0.100
528.500	37.692	0.100
528.600	5.040	0.100
528.700	27.411	0.100
528.800	24.342	0.100
528.900	17.904	0.100
529.000	14.225	0.100
529.100	11.259	0.100
529.200	12.568	0.100
529.300	29.015	0.100
529.400	29.371	0.100
529.500	19.914	0.100
529.600	9.769	0.100
529.700	25.282	0.100
529.800	32.944	0.100
529.900	9.343	0.100
530.000	18.630	0.100
530.100	29.012	0.100
530.200	0.352	0.100
530.300	29.670	0.100
530.400	21.287	0.100
530.500	20.654	0.100
530.600	4.410	0.100
530.700	9.888	0.100
530.800	16.889	0.100
530.900	24.538	0.100
531.000	20.792	0.100
531.100	12.577	0.100
531.200	15.206	0.100
531.300	20.803	0.100
531.400	15.478	0.100
531.500	21.472	0.100
531.600	10.365	0.100
531.700	15.872	0.100
531.800	25.946	0.100
531.900	17.677	0.100
532.000	24.597	0.100
532.100	38.327	0.100
532.200	33.937	0.100
532.300	10.553	0.100
532.400	30.657	0.100
532.500	13.468	0.100
532.600	21.336	0.100
532.700	9.460	0.100
532.800	29.051	0.100
532.900	33.566	0.100
533.000	26.820	0.100
533.100	33.245	0.100
533.200	21.109	0.100
533.300	13.151	0.100
533.400	26.550	0.100
533.500	18.350	0.100
533.600	32.266	0.100
533.700	14.278	0.100
533.800	25.970	0.100
533.900	13.277	0.100
534.000	6.397	0.100
534.100	8.036	0.100
534.200	16.215	0.100
534.300	8.628	0.100
534.400	8.017	0.100
534.500	18.065	0.100
534.600	15.263	0.100
534.700	18.372	0.100
534.800	9.042	0.100
534.900	39.940	0.100
535.000	33.884	0.100
535.100	4.800	0.100
535.200	28.718	0.100
535.300	24.119	0.100
535.400	13.290	0.100
535.500	17.081	0.100
535.600	25.977	0.100
535.700	8.558	0.100
535.800	36.856	0.100
535.900	-0.425	0.100
536.000	19.925	0.100
536.100	18.730	0.100
536.200	13.814	0.100
536.300	26.523	0.100
536.400	-1.662	0.100
536.500	16.602	0.100
536.600	6.588	0.100
536.700	16.271	0.100
536.800	14.342	0.100
536.900	2.449	0.100
537.000	17.389	0.100
537.100	25.749	0.100
537.200	10.695	0.100
537.300	5.159	0.100
537.400	18.518	0.100
537.500	35.282	0.100
537.600	26.334	0.100
537.700	30.679	0.100
537.800	4.685	0.100
537.900	3.438	0.100
538.000	5.674	0.100
538.100	5.421	0.100
538.200	16.201	0.100
538.300	18.251	0.100
538.400	29.342	0.100
538.500	16.634	0.100
538.600	5.884	0.100
538.700	33.662	0.100
538.800	31.354	0.100
538.900	13.668	0.100
539.000	18.733	0.100
539.100	25.832	0.100
539.200	15.544	0.100
539.300	24.772	0.100
539.400	30.340	0.100
539.500	2.719	0.100
539.600	22.844	0.100
539.700	5.099	0.100
539.800	24.258	0.100
539.900	26.743	0.100
540.000	13.755	0.100
540.100	8.843	0.100
540.200	22.987	0.100
540.300	28.435	0.100
540.400	0.805	0.100
540.500	18.884	0.100
540.600	10.736	0.100
540.700	21.348	0.100
540.800	-10.187	0.100
540.900	18.642	0.100
541.000	-8.691	0.100
541.100	-1.520	0.100
541.200	23.937	0.100
541.300	2.942	0.100
541.400	24.215	0.100
541.500	-5.030	0.100
541.600	4.338	0.100
541.700	15.437	0.100
541.800	1.685	0.100
541.900	18.138	0.100
542.000	17.589	0.100
542.100	7.180	0.100
542.200	0.248	0.100
542.300	-2.202	0.100
542.400	-17.716	0.100
542.500	8.062	0.100
542.600	15.873	0.100
542.700	-11.207	0.100
542.800	-0.320	0.100
542.900	17.039	0.100
543.000	-5.679	0.100
543.100	1.052	0.100
543.200	5.905	0.100
543.300	-19.582	0.100
543.400	-14.211	0.100
543.500	1.439	0.100
543.600	-3.524	0.100
543.700	1.467	0.100
543.800	-4.361	0.100
543.900	5.740	0.100
544.000	-7.079	0.100
544.100	3.693	0.100
544.200	9.356	0.100
544.300	-16.070	0.100
544.400	-9.668	0.100
544.500	-18.428	0.100
544.600	-15.129	0.100
544.700	7.942	0.100
544.800	-16.533	0.100
544.900	-20.477	0.100
545.000	-14.576	0.100
545.100	8.466	0.100
545.200	-8.439	0.100
545.300	-10.571	0.100
545.400	-11.016	0.100
545.500	-4.633	0.100
545.600	-20.837	0.100
545.700	-12.166	0.100
545.800	-12.658	0.100
545.900	-10.063	0.100
546.000	24.221	0.100
546.100	-3.964	0.100
546.200	-7.743	0.100
546.300	-9.844	0.100
546.400	-15.380	0.100
546.500	-7.696	0.100
546.600	-18.047	0.100
546.700	-3.810	0.100
546.800	-5.738	0.100
546.900	-27.716	0.100
547.000	-15.808	0.100
547.100	-22.317	0.100
547.200	-9.487	0.100
547.300	4.082	0.100
547.400	-24.901	0.100
547.500	-4.023	0.100
547.600	-2.071	0.100
547.700	-7.697	0.100
547.800	-23.462	0.100
547.900	-27.403	0.100
548.000	-14.192	0.100
548.100	-8.929	0.100
548.200	-29.177	0.100
548.300	-4.468	0.100
548.400	-18.156	0.100
548.500	-5.459	0.100
548.600	-0.757	0.100
548.700	-7.327	0.100
548.800	-7.731	0.100
548.900	-0.956	0.100
549.000	-13.719	0.100
549.100	-17.042	0.100
549.200	-8.683	0.100
549.300	-10.673	0.100
549.400	2.148	0.100
549.500	-6.636	0.100
549.600	-14.258	0.100
549.700	9.407	0.100
549.800	-20.456	0.100
549.900	-11.962	0.100
550.000	-20.637	0.100
550.100	-22.368	0.100
550.200	-11.673	0.100
550.300	-16.966	0.100
550.400	-21.614	0.100
550.500	12.265	0.100
550.600	-23.485	0.100
550.700	-10.708	0.100
550.800	-30.331	0.100
550.900	-20.799	0.100
551.000	-22.364	0.100
551.100	-12.850	0.100
551.200	-17.450	0.100
551.300	-8.707	0.100
551.400	-2.465	0.100
551.500	-10.463	0.100
551.600	-17.720	0.100
551.700	9.519	0.100
551.800	-11.562	0.100
551.900	-10.005	0.100
552.000	-11.434	0.100
552.100	-11.119	0.100
552.200	-7.259	0.100
552.300	12.873	0.100
552.400	-8.402	0.100
552.500	18.737	0.100
552.600	-26.705	0.100
552.700	-10.731	0.100
552.800	2.709	0.100
552.900	-22.940	0.100
553.000	-12.781	0.100
553.100	-17.345	0.100
553.200	-20.253	0.100
553.300	-7.192	0.100
553.400	-14.867	0.100
553.500	-7.725	0.100
553.600	2.621	0.100
553.700	15.178	0.100
553.800	-33.227	0.100
553.900	-4.014	0.100
554.000	-6.286	0.100
554.100	-11.289	0.100
554.200	-13.186	0.100
554.300	-13.579	0.100
554.400	-5.026	0.100
554.500	-6.514	0.100
554.600	-1.628	0.100
554.700	-19.173	0.100
554.800	-18.490	0.100
554.900	2.830	0.100
555.000	-20.953	0.100
555.100	-12.361	0.100
555.200	-13.051	0.100
555.300	-17.648	0.100
555.400	-3.067	0.100
555.500	-13.129	0.100
555.600	-5.775	0.100
555.700	-2.655	0.100
555.800	-13.962	0.100
555.900	-10.957	0.100
556.000	-6.332	0.100
556.100	5.391	0.100
556.200	-13.966	0.100
556.300	1.729	0.100
556.400	-7.832	0.100
556.500	9.469	0.100
556.600	-8.014	0.100
556.700	-19.640	0.100
556.800	-8.710	0.100
556.900	-13.782	0.100
557.000	-8.281	0.100
557.100	2.653	0.100
557.200	-1.293	0.100
557.300	12.985	0.100
557.400	-11.506	0.100
557.500	-24.858	0.100
557.600	-9.331	0.100
557.700	-6.486	0.100
557.800	-9.558	0.100
557.900	5.421	0.100
558.000	-6.542	0.100
558.100	-8.786	0.100
558.200	-11.677	0.100
558.300	-9.899	0.100
558.400	-25.332	0.100
558.500	-11.289	0.100
558.600	-11.138	0.100
558.700	-18.317	0.100
558.800	-2.024	0.100
558.900	-17.745	0.100
559.000	-31.405	0.100
559.100	5.204	0.100
559.200	-4.641	0.100
559.300	5.196	0.100
559.400	-4.187	0.100
559.500	-15.438	0.100
559.600	-4.395	0.100
559.700	-0.576	0.100
559.800	-7.591	0.100
559.900	-7.892	0.100
560.000	-6.489	0.100
560.100	-3.041	0.100
560.200	2.537	0.100
560.300	-20.652	0.100
560.400	-8.144	0.100
560.500	-1.679	0.100
560.600	-5.233	0.100
560.700	10.531	0.100
560.800	-11.007	0.100
560.900	2.335	0.100
561.000	-10.702	0.100
561.100	-26.341	0.100
561.200	-13.383	0.100
561.300	10.999	0.100
561.400	-12.716	0.100
561.500	-5.801	0.100
561.600	-13.983	0.100
561.700	-29.584	0.100
561.800	-1.695	0.100
561.900	-10.864	0.100
562.000	-6.294	0.100
562.100	-30.049	0.100
562.200	-20.308	0.100
562.300	-3.914	0.100
562.400	-13.216	0.100
562.500	-28.766	0.100
562.600	-3.437	0.100
562.700	-1.670	0.100
562.800	-9.801	0.100
562.900	-8.749	0.100
563.000	-19.117	0.100
563.100	-17.973	0.100
563.200	4.533	0.100
563.300	-6.605	0.100
563.400	0.774	0.100
563.500	-12.174	0.100
563.600	-17.178	0.100
563.700	-18.267	0.100
563.800	-20.600	0.100
563.900	-19.525	0.100
564.000	-8.603	0.100
564.100	-8.505	0.100
564.200	-5.609	0.100
564.300	-12.182	0.100
564.400	-24.803	0.100
564.500	-18.528	0.100
564.600	9.018	0.100
564.700	-11.925	0.100
564.800	-16.774	0.100
564.900	4.363	0.100
565.000	-22.645	0.100
565.100	13.533	0.100
565.200	-19.088	0.100
565.300	-22.766	0.100
565.400	2.916	0.100
565.500	-18.221	0.100
565.600	-2.571	0.100
565.700	3.716	0.100
565.800	0.861	0.100
565.900	-17.974	0.100
566.000	-11.700	0.100
566.100	-9.295	0.100
566.200	-13.145	0.100
566.300	-14.787	0.100
566.400	-30.106	0.100
566.500	-16.414	0.100
566.600	-12.963	0.100
566.700	-7.372	0.100
566.800	-4.479	0.100
566.900	-14.798	0.100
567.000	-18.918	0.100
567.100	-11.620	0.100
567.200	11.525	0.100
567.300	-22.653	0.100
567.400	0.819	0.100
567.500	-15.934	0.100
567.600	-10.989	0.100
567.700	-27.462	0.100
567.800	-9.273	0.100
567.900	-18.439	0.100
568.000	2.827	0.100
568.100	9.865	0.100
568.200	-9.686	0.100
568.300	-31.965	0.100
568.400	-15.151	0.100
568.500	-1.426	0.100
568.600	0.618	0.100
568.700	-21.106	0.100
568.800	-27.332	0.100
568.900	-6.979	0.100
569.000	-4.912	0.100
569.100	-13.601	0.100
569.200	-22.128	0.100
569.300	-9.648	0.100
569.400	-15.164	0.100
569.500	-11.715	0.100
569.600	-12.568	0.100
569.700	-12.279	0.100
569.800	-19.252	0.100
569.900	-0.194	0.100
570.000	-15.888	0.100
570.100	-9.427	0.100
570.200	-9.011	0.100
570.300	0.580	0.100
570.400	-19.689	0.100
570.500	5.715	0.100
570.600	-17.509	0.100
570.700	-21.028	0.100
570.800	-18.320	0.100
570.900	-17.374	0.100
571.000	-22.521	0.100
571.100	-3.241	0.100
571.200	-34.484	0.100
571.300	-1.450	0.100
571.400	-10.334	0.100
571.500	-24.072	0.100
571.600	-15.359	0.100
571.700	-0.399	0.100
571.800	-9.062	0.100
571.900	-8.144	0.100
572.000	-28.783	0.100
572.100	-10.407	0.100
572.200	-16.328	0.100
572.300	-12.417	0.100
572.400	-29.580	0.100
572.500	-15.995	0.100
572.600	-2.904	0.100
572.700	-25.467	0.100
572.800	-3.694	0.100
572.900	-14.966	0.100
573.000	-26.164	0.100
573.100	-2.986	0.100
573.200	-14.478	0.100
573.300	-9.931	0.100
573.400	2.105	0.100
573.500	-4.973	0.100
573.600	-12.467	0.100
573.700	-20.167	0.100
573.800	-16.995	0.100
573.900	-5.622	0.100
574.000	-25.416	0.100
574.100	-16.549	0.100
574.200	-3.391	0.100
574.300	-25.531	0.100
574.400	-22.869	0.100
574.500	-14.993	0.100
574.600	-15.799	0.100
574.700	-15.736	0.100
574.800	-28.597	0.100
574.900	7.829	0.100
575.000	-15.212	0.100
575.100	-17.124	0.100
575.200	-24.120	0.100
575.300	-10.862	0.100
575.400	-24.027	0.100
575.500	-18.519	0.100
575.600	-20.316	0.100
575.700	-15.638	0.100
575.800	-6.985	0.100
575.900	-1.534	0.100
576.000	-16.280	0.100
576.100	-12.698	0.100
576.200	-14.813	0.100
576.300	-22.303	0.100
576.400	-3.851	0.100
576.500	-15.084	0.100
576.600	-23.365	0.100
576.700	-10.056	0.100
576.800	-6.225	0.100
576.900	-17.336	0.100
577.000	-7.131	0.100
577.100	-14.384	0.100
577.200	-20.453	0.100
577.300	-16.672	0.100
577.400	0.509	0.100
577.500	-13.289	0.100
577.600	-15.797	0.100
577.700	-14.424	0.100
577.800	-22.224	0.100
577.900	-27.813	0.100
578.000	-22.104	0.100
578.100	-11.546	0.100
578.200	-15.373	0.100
578.300	-15.682	0.100
578.400	0.680	0.100
578.500	-11.602	0.100
578.600	-11.313	0.100
578.700	-23.808	0.100
578.800	-14.093	0.100
578.900	-29.791	0.100
579.000	-9.972	0.100
579.100	-18.973	0.100
579.200	-6.271	0.100
579.300	0.920	0.100
579.400	-15.303	0.100
579.500	-20.325	0.100
579.600	-9.790	0.100
579.700	-30.931	0.100
579.800	-6.366	0.100
579.900	-4.498	0.100
580.000	-11.080	0.100
580.100	-8.370	0.100
580.200	-11.892	0.100
580.300	-19.924	0.100
580.400	-18.317	0.100
580.500	-28.926	0.100
580.600	-12.549	0.100
580.700	9.411	0.100
580.800	5.586	0.100
580.900	-20.774	0.100
581.000	-12.186	0.100
581.100	-16.811	0.100
581.200	-2.800	0.100
581.300	-38.012	0.100
581.400	-1.714	0.100
581.500	-2.305	0.100
581.600	-0.764	0.100
581.700	5.003	0.100
581.800	-18.194	0.100
581.900	-5.658	0.100
582.000	-21.296	0.100
582.100	-11.707	0.100
582.200	-12.028	0.100
582.300	-11.775	0.100
582.400	1.761	0.100
582.500	-11.799	0.100
582.600	-12.616	0.100
582.700	-5.186	0.100
582.800	-24.414	0.100
582.900	6.191	0.100
583.000	-5.394	0.100
583.100	1.734	0.100
583.200	-8.566	0.100
583.300	-18.931	0.100
583.400	-16.693	0.100
583.500	7.940	0.100
583.600	-20.792	0.100
583.700	-8.664	0.100
583.800	-22.406	0.100
583.900	-10.673	0.100
584.000	-20.327	0.100
584.100	11.103	0.100
584.200	-16.303	0.100
584.300	-11.326	0.100
584.400	-12.913	0.100
584.500	-20.082	0.100
584.600	-16.135	0.100
584.700	-18.716	0.100
584.800	6.700	0.100
584.900	3.204	0.100
585.000	-10.811	0.100
585.100	0.131	0.100
585.200	-29.205	0.100
585.300	11.133	0.100
585.400	-4.908	0.100
585.500	-8.914	0.100
585.600	-6.352	0.100
585.700	-8.459	0.100
585.800	-8.955	0.100
585.900	-15.272	0.100
586.000	-8.087	0.100
586.100	-14.519	0.100
586.200	-6.486	0.100
586.300	8.654	0.100
586.400	-13.460	0.100
586.500	-10.408	0.100
586.600	-8.507	0.100
586.700	-19.645	0.100
586.800	-5.485	0.100
586.900	-22.020	0.100
587.000	-9.482	0.100
587.100	-6.779	0.100
587.200	-3.199	0.100
587.300	-14.246	0.100
587.400	-4.646	0.100
587.500	-4.834	0.100
587.600	-20.711	0.100
587.700	-0.953	0.100
587.800	-15.441	0.100
587.900	-20.246	0.100
588.000	-22.849	0.100
588.100	-6.205	0.100
588.200	8.583	0.100
588.300	-4.925	0.100
588.400	-19.138	0.100
588.500	-13.600	0.100
588.600	-11.606	0.100
588.700	-8.757	0.100
588.800	-12.578	0.100
588.900	4.323	0.100
589.000	-12.204	0.100
589.100	-0.663	0.100
589.200	-11.175	0.100
589.300	-13.998	0.100
589.400	-6.112	0.100
589.500	-19.443	0.100
589.600	-3.678	0.100
589.700	-20.381	0.100
589.800	8.541	0.100
589.900	0.132	0.100
590.000	-16.932	0.100
590.100	-16.656	0.100
590.200	-7.605	0.100
590.300	0.375	0.100
590.400	-9.602	0.100
590.500	-16.977	0.100
590.600	-15.382	0.100
590.700	-11.454	0.100
590.800	-10.055	0.100
590.900	-22.385	0.100
591.000	8.978	0.100
591.100	-17.080	0.100
591.200	-2.946	0.100
591.300	1.693	0.100
591.400	-14.552	0.100
591.500	-19.176	0.100
591.600	-13.840	0.100
591.700	-7.542	0.100
591.800	-6.600	0.100
591.900	-10.777	0.100
592.000	-30.048	0.100
592.100	-6.895	0.100
592.200	-10.393	0.100
592.300	-15.364	0.100
592.400	-20.654	0.100
592.500	-17.083	0.100
592.600	-31.598	0.100
592.700	-20.991	0.100
592.800	-22.035	0.100
592.900	-16.161	0.100
593.000	-11.136	0.100
593.100	-13.819	0.100
593.200	-9.487	0.100
593.300	-0.957	0.100
593.400	-8.651	0.100
593.500	-2.083	0.100
593.600	1.683	0.100
593.700	-18.243	0.100
593.800	-22.218	0.100
593.900	-7.186	0.100
594.000	-18.774	0.100
594.100	-19.273	0.100
594.200	1.310	0.100
594.300	-8.361	0.100
594.400	-16.725	0.100
594.500	-8.578	0.100
594.600	9.822	0.100
594.700	-16.434	0.100
594.800	-6.784	0.100
594.900	-14.849	0.100
595.000	3.547	0.100
595.100	-11.085	0.100
595.200	-9.034	0.100
595.300	-15.420	0.100
595.400	7.030	0.100
595.500	-29.865	0.100
595.600	-16.158	0.100
595.700	-14.341	0.100
595.800	-32.142	0.100
595.900	-16.830	0.100
596.000	2.264	0.100
596.100	-12.029	0.100
596.200	-5.299	0.100
596.300	-18.613	0.100
596.400	-10.495	0.100
596.500	-6.840	0.100
596.600	-5.800	0.100
596.700	-15.499	0.100
596.800	-12.704	0.100
596.900	-9.701	0.100
597.000	-3.841	0.100
597.100	-7.500	0.100
597.200	-13.343	0.100
597.300	-0.327	0.100
597.400	-5.849	0.100
597.500	2.402	0.100
597.600	-11.916	0.100
597.700	-19.788	0.100
597.800	-1.476	0.100
597.900	5.222	0.100
598.000	9.076	0.100
598.100	-18.700	0.100
598.200	5.009	0.100
598.300	0.063	0.100
598.400	-16.428	0.100
598.500	-5.555	0.100
598.600	-4.187	0.100
598.700	-13.979	0.100
598.800	-4.480	0.100
598.900	-15.166	0.100
599.000	-14.978	0.100
599.100	9.576	0.100
599.200	-8.135	0.100
599.300	-3.868	0.100
599.400	-2.087	0.100
599.500	-6.824	0.100
599.600	-8.780	0.100
599.700	-18.910	0.100
599.800	-22.610	0.100
599.900	-25.406	0.100
600.000	-15.174	0.100
600.100	0.623	0.100
600.200	-4.723	0.100
600.300	-27.559	0.100
600.400	-5.754	0.100
600.500	-10.033	0.100
600.600	3.551	0.100
600.700	-2.674	0.100
600.800	8.376	0.100
600.900	-34.869	0.100
601.000	-21.893	0.100
601.100	-1.860	0.100
601.200	-10.648	0.100
601.300	-21.276	0.100
601.400	-6.669	0.100
601.500	0.537	0.100
601.600	-18.938	0.100
601.700	-25.178	0.100
601.800	-16.783	0.100
601.900	-17.848	0.100
602.000	-0.899	0.100
602.100	-10.292	0.100
602.200	-12.244	0.100
602.300	-23.486	0.100
602.400	-5.032	0.100
602.500	5.103	0.100
602.600	-9.184	0.100
602.700	5.536	0.100
602.800	3.857	0.100
602.900	-4.357	0.100
603.000	-11.720	0.100
603.100	-11.677	0.100
603.200	2.042	0.100
603.300	-2.074	0.100
603.400	-0.841	0.100
603.500	4.513	0.100
603.600	-25.125	0.100
603.700	-40.134	0.100
603.800	-16.640	0.100
603.900	-10.408	0.100
604.000	-4.096	0.100
604.100	-16.178	0.100
604.200	-25.860	0.100
604.300	-16.320	0.100
604.400	-5.327	0.100
604.500	-20.081	0.100
604.600	-6.074	0.100
604.700	9.073	0.100
604.800	-17.453	0.100
604.900	-4.087	0.100
605.000	-3.926	0.100
605.100	-3.895	0.100
605.200	-12.730	0.100
605.300	-1.010	0.100
605.400	1.401	0.100
605.500	3.222	0.100
605.600	-24.164	0.100
605.700	-7.256	0.100
605.800	-14.227	0.100
605.900	-15.435	0.100
606.000	-14.722	0.100
606.100	-22.472	0.100
606.200	-10.669	0.100
606.300	-4.921	0.100
606.400	1.749	0.100
606.500	-7.347	0.100
606.600	-13.119	0.100
606.700	-8.333	0.100
606.800	-8.673	0.100
606.900	-6.740	0.100
607.000	-13.639	0.100
607.100	-13.642	0.100
607.200	-3.460	0.100
607.300	-18.685	0.100
607.400	-2.687	0.100
607.500	-18.077	0.100
607.600	-18.073	0.100
607.700	-3.435	0.100
607.800	-12.810	0.100
607.900	2.857	0.100
608.000	-1.871	0.100
608.100	2.906	0.100
608.200	-11.876	0.100
608.300	1.077	0.100
608.400	-6.808	0.100
608.500	-13.584	0.100
608.600	-9.279	0.100
608.700	-8.796	0.100
608.800	-10.579	0.100
608.900	-12.518	0.100
609.000	-4.864	0.100
609.100	2.271	0.100
609.200	-17.946	0.100
609.300	-13.083	0.100
609.400	-34.748	0.100
609.500	-7.936	0.100
609.600	-16.951	0.100
609.700	-15.052	0.100
609.800	20.459	0.100
609.900	-13.234	0.100
610.000	-17.284	0.100
610.100	-3.850	0.100
610.200	-8.855	0.100
610.300	-20.088	0.100
610.400	8.796	0.100
610.500	-10.311	0.100
610.600	16.191	0.100
610.700	9.303	0.100
610.800	-14.114	0.100
610.900	11.015	0.100
611.000	-23.832	0.100
611.100	10.908	0.100
611.200	11.319	0.100
611.300	-15.331	0.100
611.400	-18.610	0.100
611.500	-9.716	0.100
611.600	-5.809	0.100
611.700	-13.430	0.100
611.800	6.404	0.100
611.900	-7.085	0.100
612.000	-15.870	0.100
612.100	-0.683	0.100
612.200	-18.831	0.100
612.300	-9.966	0.100
612.400	-13.063	0.100
612.500	6.124	0.100
612.600	-18.291	0.100
612.700	-11.998	0.100
612.800	-27.415	0.100
612.900	-8.329	0.100
613.000	-20.033	0.100
613.100	-1.876	0.100
613.200	-2.151	0.100
613.300	-11.001	0.100
613.400	2.529	0.100
613.500	-14.560	0.100
613.600	-8.556	0.100
613.700	-14.648	0.100
613.800	-4.188	0.100
613.900	-3.180	0.100
614.000	-7.775	0.100
614.100	-9.068	0.100
614.200	-14.891	0.100
614.300	-3.613	0.100
614.400	-6.113	0.100
614.500	-9.250	0.100
614.600	0.301	0.100
614.700	-0.779	0.100
614.800	-1.501	0.100
614.900	3.893	0.100
615.000	2.276	0.100
615.100	-8.312	0.100
615.200	-3.579	0.100
615.300	-12.353	0.100
615.400	-7.190	0.100
615.500	-13.121	0.100
615.600	-7.942	0.100
615.700	0.532	0.100
615.800	-8.897	0.100
615.900	-24.871	0.100
616.000	-2.222	0.100
616.100	-7.169	0.100
616.200	-12.323	0.100
616.300	-11.163	0.100
616.400	-11.826	0.100
616.500	-1.676	0.100
616.600	-7.128	0.100
616.700	-28.131	0.100
616.800	-3.167	0.100
616.900	-14.853	0.100
617.000	-17.645	0.100
617.100	-18.689	0.100
617.200	-12.195	0.100
617.300	0.128	0.100
617.400	2.584	0.100
617.500	-17.814	0.100
617.600	-14.876	0.100
617.700	-30.790	0.100
617.800	-14.866	0.100
617.900	-15.354	0.100
618.000	18.579	0.100
618.100	-4.652	0.100
618.200	-27.116	0.100
618.300	-8.623	0.100
618.400	-32.440	0.100
618.500	2.187	0.100
618.600	-7.039	0.100
618.700	-12.703	0.100
618.800	-22.738	0.100
618.900	0.091	0.100
619.000	-29.264	0.100
619.100	3.442	0.100
619.200	-15.378	0.100
619.300	-23.828	0.100
619.400	1.077	0.100
619.500	5.792	0.100
619.600	-15.438	0.100
619.700	1.462	0.100
619.800	-7.718	0.100
619.900	5.384	0.100
620.000	2.288	0.100
620.100	-6.883	0.100
620.200	0.255	0.100
620.300	20.033	0.100
620.400	-9.178	0.100
620.500	5.142	0.100
620.600	-6.214	0.100
620.700	4.452	0.100
620.800	-6.487	0.100
620.900	11.127	0.100
621.000	-12.857	0.100
621.100	-7.969	0.100
621.200	9.849	0.100
621.300	-5.649	0.100
621.400	6.077	0.100
621.500	-15.394	0.100
621.600	3.146	0.100
621.700	-21.949	0.100
621.800	-5.495	0.100
621.900	-8.775	0.100
622.000	-28.225	0.100
622.100	-10.236	0.100
622.200	-23.467	0.100
622.300	-13.766	0.100
622.400	-11.445	0.100
622.500	-9.860	0.100
622.600	-14.624	0.100
622.700	-14.776	0.100
622.800	-23.821	0.100
622.900	-14.016	0.100
623.000	-22.034	0.100
623.100	3.880	0.100
623.200	-12.636	0.100
623.300	7.600	0.100
623.400	-26.074	0.100
623.500	-8.271	0.100
623.600	-19.777	0.100
623.700	-19.828	0.100
623.800	5.760	0.100
623.900	-9.692	0.100
624.000	-5.731	0.100
624.100	-7.561	0.100
624.200	-23.079	0.100
624.300	-11.762	0.100
624.400	7.556	0.100
624.500	-10.718	0.100
624.600	-20.830	0.100
624.700	-5.906	0.100
624.800	-8.245	0.100
624.900	4.053	0.100
625.000	-9.711	0.100
625.100	0.163	0.100
625.200	9.135	0.100
625.300	-6.976	0.100
625.400	-15.078	0.100
625.500	2.141	0.100
625.600	-12.761	0.100
625.700	17.804	0.100
625.800	-5.852	0.100
625.900	3.571	0.100
626.000	-13.071	0.100
626.100	3.400	0.100
626.200	-12.929	0.100
626.300	-0.241	0.100
626.400	-11.324	0.100
626.500	-10.445	0.100
626.600	-20.424	0.100
626.700	-13.508	0.100
626.800	-1.666	0.100
626.900	-1.944	0.100
627.000	-0.484	0.100
627.100	-30.263	0.100
627.200	-10.842	0.100
627.300	-4.234	0.100
627.400	-32.021	0.100
627.500	-15.478	0.100
627.600	-10.372	0.100
627.700	-12.596	0.100
627.800	1.193	0.100
627.900	-18.952	0.100
628.000	-22.973	0.100
628.100	-18.106	0.100
628.200	-11.644	0.100
628.300	-18.489	0.100
628.400	-6.881	0.100
628.500	17.410	0.100
628.600	13.820	0.100
628.700	-10.287	0.100
628.800	-6.829	0.100
628.900	11.224	0.100
629.000	2.874	0.100
629.100	-28.411	0.100
629.200	7.413	0.100
629.300	-8.372	0.100
629.400	5.421	0.100
629.500	5.073	0.100
629.600	9.367	0.100
629.700	11.248	0.100
629.800	-10.931	0.100
629.900	1.001	0.100
630.000	-0.673	0.100
630.100	0.170	0.100
630.200	2.336	0.100
630.300	-5.157	0.100
630.400	-5.400	0.100
630.500	-1.473	0.100
630.600	-9.969	0.100
630.700	11.089	0.100
630.800	19.707	0.100
630.900	-25.544	0.100
631.000	-8.374	0.100
631.100	-5.203	0.100
631.200	-1.879	0.100
631.300	20.735	0.100
631.400	-6.943	0.100
631.500	9.290	0.100
631.600	5.759	0.100
631.700	-22.272	0.100
631.800	7.430	0.100
631.900	1.858	0.100
632.000	10.209	0.100
632.100	-2.945	0.100
632.200	21.006	0.100
632.300	6.008	0.100
632.400	9.956	0.100
632.500	3.675	0.100
632.600	19.764	0.100
632.700	15.478	0.100
632.800	11.569	0.100
632.900	4.968	0.100
633.000	-10.063	0.100
633.100	4.185	0.100
633.200	38.630	0.100
633.300	6.733	0.100
633.400	11.943	0.100
633.500	11.958	0.100
633.600	16.565	0.100
633.700	16.439	0.100
633.800	13.356	0.100
633.900	-5.672	0.100
634.000	0.839	0.100
634.100	15.281	0.100
634.200	3.280	0.100
634.300	18.106	0.100
634.400	27.420	0.100
634.500	-8.587	0.100
634.600	15.542	0.100
634.700	0.351	0.100
634.800	-1.173	0.100
634.900	13.022	0.100
635.000	23.396	0.100
635.100	0.739	0.100
635.200	0.767	0.100
635.300	16.647	0.100
635.400	8.477	0.100
635.500	12.756	0.100
635.600	11.858	0.100
635.700	6.181	0.100
635.800	26.060	0.100
635.900	20.635	0.100
636.000	1.765	0.100
636.100	6.244	0.100
636.200	9.169	0.100
636.300	11.652	0.100
636.400	15.598	0.100
636.500	-4.763	0.100
636.600	13.759	0.100
636.700	16.490	0.100
636.800	-6.208	0.100
636.900	11.928	0.100
637.000	8.783	0.100
637.100	4.865	0.100
637.200	-19.739	0.100
637.300	4.332	0.100
637.400	17.984	0.100
637.500	6.685	0.100
637.600	14.025	0.100
637.700	7.265	0.100
637.800	0.511	0.100
637.900	10.329	0.100
638.000	8.149	0.100
638.100	14.654	0.100
638.200	3.013	0.100
638.300	13.647	0.100
638.400	25.512	0.100
638.500	-2.270	0.100
638.600	5.866	0.100
638.700	7.517	0.100
638.800	-4.132	0.100
638.900	14.724	0.100
639.000	-3.401	0.100
639.100	5.187	0.100
639.200	1.446	0.100
639.300	-6.368	0.100
639.400	12.159	0.100
639.500	0.762	0.100
639.600	33.481	0.100
639.700	12.420	0.100
639.800	5.310	0.100
639.900	10.771	0.100
640.000	3.179	0.100
640.100	-7.582	0.100
640.200	7.957	0.100
640.300	4.802	0.100
640.400	38.175	0.100
640.500	14.949	0.100
640.600	1.898	0.100
640.700	5.688	0.100
640.800	14.221	0.100
640.900	19.248	0.100
641.000	9.990	0.100
641.100	10.500	0.100
641.200	4.095	0.100
641.300	22.568	0.100
641.400	5.895	0.100
641.500	-1.456	0.100
641.600	7.214	0.100
641.700	13.951	0.100
641.800	10.249	0.100
641.900	27.181	0.100
642.000	-9.678	0.100
642.100	13.455	0.100
642.200	26.020	0.100
642.300	22.585	0.100
642.400	11.359	0.100
642.500	2.307	0.100
642.600	12.239	0.100
642.700	5.701	0.100
642.800	4.503	0.100
642.900	17.136	0.100
643.000	13.164	0.100
643.100	9.058	0.100
643.200	36.555	0.100
643.300	13.627	0.100
643.400	3.043	0.100
643.500	5.076	0.100
643.600	10.283	0.100
643.700	8.463	0.100
643.800	6.674	0.100
643.900	11.378	0.100
644.000	19.306	0.100
644.100	10.264	0.100
644.200	8.601	0.100
644.300	9.289	0.100
644.400	24.809	0.100
644.500	25.542	0.100
644.600	9.212	0.100
644.700	24.649	0.100
644.800	38.673	0.100
644.900	21.386	0.100
645.000	9.120	0.100
645.100	28.049	0.100
645.200	22.119	0.100
645.300	8.644	0.100
645.400	14.615	0.100
645.500	11.564	0.100
645.600	-0.527	0.100
645.700	10.097	0.100
645.800	35.247	0.100
645.900	25.628	0.100
646.000	26.428	0.100
646.100	17.514	0.100
646.200	20.409	0.100
646.300	21.796	0.100
646.400	20.166	0.100
646.500	14.945	0.100
646.600	3.325	0.100
646.700	3.195	0.100
646.800	0.423	0.100
646.900	2.425	0.100
647.000	33.004	0.100
647.100	25.874	0.100
647.200	22.930	0.100
647.300	36.064	0.100
647.400	-10.685	0.100
647.500	2.701	0.100
647.600	12.382	0.100
647.700	10.066	0.100
647.800	2.406	0.100
647.900	20.739	0.100
648.000	18.540	0.100
648.100	16.534	0.100
648.200	4.352	0.100
648.300	20.330	0.100
648.400	29.645	0.100
648.500	6.365	0.100
648.600	18.361	0.100
648.700	16.719	0.100
648.800	17.460	0.100
648.900	19.569	0.100
649.000	19.874	0.100
649.100	14.395	0.100
649.200	13.140	0.100
649.300	9.687	0.100
649.400	28.977	0.100
649.500	3.575	0.100
649.600	9.328	0.100
649.700	13.919	0.100
649.800	19.474	0.100
649.900	18.262	0.100
650.000	18.450	0.100
650.100	46.618	0.101
650.200	19.222	0.100
650.300	22.364	0.100
650.400	45.537	0.101
650.500	1.452	0.101
650.600	39.307	0.101
650.700	16.372	0.101
650.800	29.889	0.101
650.900	51.510	0.101
651.000	31.448	0.101
651.100	25.702	0.101
651.200	14.417	0.101
651.300	25.868	0.101
651.400	19.410	0.101
651.500	27.668	0.101
651.600	9.950	0.101
651.700	36.213	0.101
651.800	18.396	0.101
651.900	16.218	0.101
652.000	38.358	0.101
652.100	40.407	0.101
652.200	26.121	0.101
652.300	16.783	0.101
652.400	31.729	0.101
652.500	27.199	0.101
652.600	14.351	0.101
652.700	27.877	0.101
652.800	29.669	0.101
652.900	24.200	0.101
653.000	36.462	0.101
653.100	42.468	0.101
653.200	24.124	0.101
653.300	17.320	0.101
653.400	51.166	0.101
653.500	43.257	0.101
653.600	16.244	0.101
653.700	22.925	0.101
653.800	4.911	0.101
653.900	28.497	0.101
654.000	21.710	0.101
654.100	38.595	0.101
654.200	20.730	0.101
654.300	29.302	0.101
654.400	25.666	0.101
654.500	31.370	0.101
654.600	13.728	0.101
654.700	32.548	0.101
654.800	22.048	0.101
654.900	34.187	0.101
655.000	46.184	0.101
655.100	19.681	0.101
655.200	-4.989	0.101
655.300	38.466	0.101
655.400	24.163	0.101
655.500	39.786	0.101
655.600	33.910	0.101
655.700	36.235	0.101
655.800	28.755	0.101
655.900	30.416	0.101
656.000	42.253	0.101
656.100	13.755	0.101
656.200	22.690	0.101
656.300	42.650	0.101
656.400	26.857	0.101
656.500	26.656	0.101
656.600	27.842	0.101
656.700	27.374	0.101
656.800	20.375	0.101
656.900	45.585	0.101
657.000	41.944	0.101
657.100	47.493	0.101
657.200	42.513	0.101
657.300	30.507	0.101
657.400	25.345	0.101
657.500	29.530	0.101
657.600	30.232	0.101
657.700	37.596	0.101
657.800	24.028	0.101
657.900	32.280	0.101
658.000	48.435	0.101
658.100	35.693	0.101
658.200	42.634	0.101
658.300	25.259	0.101
658.400	42.691	0.101
658.500	29.794	0.101
658.600	34.034	0.101
658.700	33.193	0.101
658.800	42.365	0.101
658.900	39.187	0.101
659.000	32.227	0.101
659.100	15.241	0.101
659.200	12.876	0.101
659.300	0.372	0.101
659.400	14.863	0.101
659.500	13.933	0.101
659.600	9.080	0.101
659.700	28.673	0.101
659.800	17.220	0.101
659.900	21.242	0.101
660.000	21.667	0.101
660.100	46.445	0.101
660.200	25.584	0.101
660.300	24.551	0.101
660.400	37.134	0.101
660.500	16.615	0.101
660.600	26.318	0.101
660.700	34.042	0.101
660.800	14.103	0.101
660.900	11.330	0.101
661.000	38.332	0.101
661.100	31.755	0.101
661.200	30.567	0.101
661.300	36.060	0.101
661.400	25.545	0.101
661.500	20.544	0.101
661.600	12.090	0.101
661.700	46.207	0.101
661.800	22.033	0.101
661.900	17.297	0.101
662.000	18.023	0.101
662.100	40.244	0.101
662.200	15.416	0.101
662.300	40.771	0.101
662.400	28.889	0.101
662.500	45.197	0.101
662.600	29.567	0.101
662.700	18.168	0.101
662.800	26.621	0.101
662.900	30.968	0.101
663.000	15.155	0.101
663.100	17.577	0.101
663.200	21.904	0.101
663.300	25.592	0.101
663.400	13.488	0.101
663.500	30.023	0.101
663.600	21.705	0.101
663.700	32.347	0.101
663.800	19.540	0.101
663.900	25.456	0.101
664.000	6.009	0.101
664.100	24.826	0.101
664.200	31.886	0.101
664.300	27.342	0.101
664.400	25.630	0.101
664.500	28.986	0.101
664.600	16.491	0.101
664.700	21.509	0.101
664.800	8.822	0.101
664.900	23.558	0.101
665.000	15.222	0.101
665.100	39.358	0.101
665.200	37.032	0.101
665.300	31.924	0.101
665.400	22.633	0.101
665.500	12.345	0.101
665.600	16.416	0.101
665.700	30.217	0.101
665.800	30.174	0.101
665.900	28.332	0.101
666.000	13.396	0.101
666.100	39.684	0.101
666.200	37.149	0.101
666.300	39.702	0.101
666.400	18.984	0.101
666.500	29.169	0.101
666.600	28.076	0.101
666.700	22.682	0.101
666.800	9.362	0.101
666.900	28.836	0.101
667.000	46.974	0.101
667.100	8.281	0.101
667.200	38.953	0.101
667.300	41.645	0.101
667.400	30.169	0.101
667.500	31.054	0.100
667.600	28.529	0.100
667.700	28.125	0.100
667.800	30.846	0.100
667.900	32.713	0.100
668.000	22.407	0.100
668.100	22.403	0.100
668.200	30.839	0.100
668.300	25.461	0.100
668.400	27.199	0.100
668.500	27.178	0.100
668.600	20.982	0.100
668.700	17.908	0.100
668.800	38.983	0.100
668.900	26.901	0.100
669.000	42.442	0.100
669.100	7.073	0.100
669.200	14.301	0.100
669.300	44.376	0.100
669.400	22.152	0.100
669.500	20.795	0.100
669.600	32.288	0.100
669.700	35.721	0.100
669.800	26.345	0.100
669.900	33.570	0.100
670.000	27.438	0.100
670.100	30.987	0.100
670.200	44.251	0.100
670.300	35.106	0.100
670.400	28.814	0.100
670.500	33.034	0.100
670.600	23.326	0.100
670.700	28.299	0.100
670.800	30.900	0.100
670.900	13.712	0.100
671.000	30.833	0.100
671.100	29.544	0.100
671.200	17.508	0.100
671.300	10.015	0.100
671.400	27.579	0.100
671.500	32.647	0.100
671.600	26.405	0.100
671.700	40.786	0.100
671.800	8.310	0.100
671.900	33.149	0.100
672.000	38.072	0.100
672.100	26.599	0.100
672.200	24.360	0.100
672.300	21.269	0.100
672.400	30.780	0.100
672.500	8.732	0.100
672.600	18.920	0.100
672.700	22.394	0.100
672.800	35.102	0.100
672.900	17.475	0.100
673.000	26.635	0.100
673.100	25.311	0.100
673.200	19.794	0.100
673.300	27.517	0.100
673.400	24.456	0.100
673.500	13.273	0.100
673.600	13.256	0.100
673.700	18.417	0.100
673.800	5.471	0.100
673.900	38.931	0.100
674.000	23.580	0.100
674.100	50.839	0.100
674.200	34.598	0.100
674.300	26.680	0.100
674.400	16.671	0.100
674.500	15.627	0.100
674.600	13.126	0.100
674.700	15.940	0.100
674.800	7.768	0.100
674.900	25.595	0.100
675.000	21.899	0.100
675.100	9.388	0.100
675.200	17.699	0.100
675.300	21.467	0.100
675.400	3.579	0.100
675.500	23.419	0.100
675.600	33.376	0.100
675.700	40.170	0.100
675.800	36.793	0.100
675.900	25.123	0.100
676.000	20.537	0.100
676.100	17.943	0.100
676.200	29.341	0.100
676.300	20.447	0.100
676.400	13.865	0.100
676.500	26.548	0.100
676.600	20.429	0.100
676.700	37.116	0.100
676.800	20.221	0.100
676.900	12.003	0.100
677.000	26.595	0.100
677.100	30.344	0.100
677.200	19.492	0.100
677.300	19.557	0.100
677.400	37.269	0.100
677.500	-5.851	0.100
677.600	48.409	0.100
677.700	21.459	0.100
677.800	1.186	0.100
677.900	25.188	0.100
678.000	9.866	0.100
678.100	16.051	0.100
678.200	16.785	0.100
678.300	25.903	0.100
678.400	17.167	0.100
678.500	33.283	0.100
678.600	26.708	0.100
678.700	19.476	0.100
678.800	15.071	0.100
678.900	22.805	0.100
679.000	9.719	0.100
679.100	6.728	0.100
679.200	40.442	0.100
679.300	17.423	0.100
679.400	30.810	0.100
679.500	23.805	0.100
679.600	33.731	0.100
679.700	3.404	0.100
679.800	4.075	0.100
679.900	15.698	0.100
680.000	10.525	0.100
680.100	16.564	0.100
680.200	17.598	0.100
680.300	22.639	0.100
680.400	26.308	0.100
680.500	18.745	0.100
680.600	15.192	0.100
680.700	32.194	0.100
680.800	26.213	0.100
680.900	22.867	0.100
681.000	20.766	0.100
681.100	8.639	0.100
681.200	-5.420	0.100
681.300	18.862	0.100
681.400	17.412	0.100
681.500	11.597	0.100
681.600	15.048	0.100
681.700	28.761	0.100
681.800	8.897	0.100
681.900	21.219	0.100
682.000	1.392	0.100
682.100	23.202	0.100
682.200	25.669	0.100
682.300	17.565	0.100
682.400	12.182	0.100
682.500	14.856	0.100
682.600	14.856	0.100
682.700	7.087	0.100
682.800	12.466	0.100
682.900	24.469	0.100
683.000	24.652	0.100
683.100	15.727	0.100
683.200	24.717	0.100
683.300	14.482	0.100
683.400	25.054	0.100
683.500	7.782	0.100
683.600	21.650	0.100
683.700	8.030	0.100
683.800	28.556	0.100
683.900	15.445	0.100
684.000	21.970	0.100
684.100	18.590	0.100
684.200	23.114	0.100
684.300	39.121	0.100
684.400	8.954	0.100
684.500	4.483	0.100
684.600	32.659	0.100
684.700	8.805	0.100
684.800	10.316	0.100
684.900	8.464	0.100
685.000	36.051	0.100
685.100	17.084	0.100
685.200	8.203	0.100
685.300	20.623	0.100
685.400	21.612	0.100
685.500	11.692	0.100
685.600	-13.083	0.100
685.700	7.966	0.100
685.800	23.889	0.100
685.900	8.692	0.100
686.000	25.593	0.100
686.100	13.821	0.100
686.200	16.345	0.100
686.300	9.715	0.100
686.400	22.168	0.100
686.500	5.232	0.100
686.600	18.360	0.100
686.700	-12.185	0.100
686.800	33.864	0.100
686.900	13.535	0.100
687.000	7.801	0.100
687.100	30.884	0.100
687.200	14.560	0.100
687.300	25.227	0.100
687.400	19.094	0.100
687.500	15.177	0.100
687.600	21.831	0.100
687.700	17.703	0.100
687.800	13.425	0.100
687.900	13.165	0.100
688.000	10.251	0.100
688.100	1.836	0.100
688.200	21.599	0.100
688.300	6.182	0.100
688.400	5.413	0.100
688.500	12.382	0.100
688.600	20.442	0.100
688.700	14.083	0.100
688.800	10.157	0.100
688.900	7.132	0.100
689.000	21.776	0.100
689.100	22.591	0.100
689.200	8.785	0.100
689.300	16.349	0.100
689.400	17.043	0.100
689.500	16.105	0.100
689.600	44.603	0.100
689.700	18.287	0.100
689.800	19.103	0.100
689.900	8.769	0.100
690.000	15.777	0.100
690.100	-12.396	0.100
690.200	27.825	0.100
690.300	19.612	0.100
690.400	6.541	0.100
690.500	23.306	0.100
690.600	16.819	0.100
690.700	18.488	0.100
690.800	24.681	0.100
690.900	19.711	0.100
691.000	11.478	0.100
691.100	7.589	0.100
691.200	18.809	0.100
691.300	-5.039	0.100
691.400	17.454	0.100
691.500	24.372	0.100
691.600	7.771	0.100
691.700	8.920	0.100
691.800	-4.264	0.100
691.900	13.634	0.100
692.000	-0.089	0.100
692.100	19.980	0.100
692.200	9.691	0.100
692.300	-13.399	0.100
692.400	-8.089	0.100
692.500	4.545	0.100
692.600	-7.515	0.100
692.700	-22.449	0.100
692.800	-8.507	0.100
692.900	-9.423	0.100
693.000	-12.416	0.100
693.100	19.641	0.100
693.200	6.844	0.100
693.300	-23.217	0.100
693.400	0.882	0.100
693.500	4.557	0.100
693.600	-13.658	0.100
693.700	-17.391	0.100
693.800	-27.090	0.100
693.900	-38.958	0.100
694.000	-31.413	0.100
694.100	-10.888	0.100
694.200	-21.554	0.100
694.300	-9.242	0.100
694.400	-33.425	0.100
694.500	-6.481	0.100
694.600	-21.308	0.100
694.700	-22.589	0.100
694.800	-25.147	0.100
694.900	-21.176	0.100
695.000	-12.497	0.100
695.100	-11.310	0.100
695.200	-13.798	0.100
695.300	-31.753	0.100
695.400	-20.646	0.100
695.500	-23.065	0.100
695.600	-38.316	0.100
695.700	-0.899	0.100
695.800	-13.712	0.100
695.900	-3.703	0.100
696.000	-37.650	0.100
696.100	-16.738	0.100
696.200	-9.572	0.100
696.300	-4.977	0.100
696.400	-10.143	0.100
696.500	-26.609	0.100
696.600	-8.588	0.100
696.700	-19.623	0.100
696.800	-15.987	0.100
696.900	-20.078	0.100
697.000	-14.894	0.100
697.100	-2.066	0.100
697.200	-23.454	0.100
697.300	-2.997	0.100
697.400	-16.572	0.100
697.500	-30.487	0.100
697.600	-19.639	0.100
697.700	-9.084	0.100
697.800	-12.135	0.100
697.900	-20.174	0.100
698.000	2.566	0.100
698.100	-11.343	0.100
698.200	-14.467	0.100
698.300	1.275	0.100
698.400	-15.345	0.100
698.500	-15.350	0.100
698.600	-21.092	0.100
698.700	-18.100	0.100
698.800	-29.534	0.100
698.900	-16.753	0.100
699.000	-13.504	0.100
699.100	-14.383	0.100
699.200	-20.193	0.100
699.300	-13.199	0.100
699.400	-3.866	0.100
699.500	-19.907	0.100
699.600	-9.392	0.100
699.700	-8.188	0.100
699.800	-14.587	0.100
699.900	-22.713	0.100
700.000	-9.234	0.100
700.100	-12.320	0.100
700.200	-4.935	0.100
700.300	-16.190	0.100
700.400	-15.555	0.100
700.500	-20.424	0.100
700.600	-18.186	0.100
700.700	-0.593	0.100
700.800	-25.091	0.100
700.900	-18.580	0.100
701.000	-32.051	0.100
701.100	-9.188	0.100
701.200	-22.489	0.100
701.300	-19.591	0.100
701.400	-12.033	0.100
701.500	-4.484	0.100
701.600	-17.002	0.100
701.700	-3.331	0.100
701.800	-23.393	0.100
701.900	6.215	0.100
702.000	-2.505	0.100
702.100	-4.852	0.100
702.200	-8.327	0.100
702.300	-25.184	0.100
702.400	-15.716	0.100
702.500	7.500	0.100
702.600	-15.123	0.100
702.700	-4.711	0.100
702.800	-8.104	0.100
702.900	-18.822	0.100
703.000	-18.670	0.100
703.100	-25.369	0.100
703.200	-18.568	0.100
703.300	-6.414	0.100
703.400	-16.713	0.100
703.500	-14.064	0.100
703.600	-17.214	0.100
703.700	-3.399	0.100
703.800	-10.757	0.100
703.900	-22.623	0.100
704.000	-20.783	0.100
704.100	-23.654	0.100
704.200	-6.546	0.100
704.300	-29.613	0.100
704.400	-23.895	0.100
704.500	-9.105	0.100
704.600	-16.365	0.100
704.700	-1.169	0.100
704.800	-4.583	0.100
704.900	-21.742	0.100
705.000	-17.523	0.100
705.100	-8.450	0.100
705.200	5.947	0.100
705.300	-11.499	0.100
705.400	-4.684	0.100
705.500	-4.084	0.100
705.600	-18.928	0.100
705.700	8.030	0.100
705.800	-21.165	0.100
705.900	2.623	0.100
706.000	-4.617	0.100
706.100	-10.620	0.100
706.200	-25.919	0.100
706.300	-12.455	0.100
706.400	-26.507	0.100
706.500	-11.935	0.100
706.600	-35.606	0.100
706.700	-7.991	0.100
706.800	-2.463	0.100
706.900	0.373	0.100
707.000	-25.948	0.100
707.100	-22.181	0.100
707.200	-10.380	0.100
707.300	-16.249	0.100
707.400	8.854	0.100
707.500	-19.261	0.100
707.600	-18.943	0.100
707.700	0.145	0.100
707.800	-7.224	0.100
707.900	-21.707	0.100
708.000	0.853	0.100
708.100	1.065	0.100
708.200	-16.798	0.100
708.300	-16.789	0.100
708.400	-2.895	0.100
708.500	-12.035	0.100
708.600	-16.618	0.100
708.700	-29.559	0.100
708.800	2.062	0.100
708.900	-22.387	0.100
709.000	-5.872	0.100
709.100	-17.632	0.100
709.200	-20.444	0.100
709.300	-25.864	0.100
709.400	-21.789	0.100
709.500	-4.070	0.100
709.600	-8.597	0.100
709.700	-23.485	0.100
709.800	4.977	0.100
709.900	-9.136	0.100
710.000	8.581	0.100
710.100	-13.021	0.100
710.200	-19.238	0.100
710.300	-14.290	0.100
710.400	-5.656	0.100
710.500	-9.471	0.100
710.600	-9.751	0.100
710.700	-9.920	0.100
710.800	-2.405	0.100
710.900	-9.092	0.100
711.000	11.954	0.100
711.100	-17.970	0.100
711.200	-10.499	0.100
711.300	-28.081	0.100
711.400	-23.985	0.100
711.500	-19.836	0.100
711.600	6.867	0.100
711.700	-5.103	0.100
711.800	-10.440	0.100
711.900	-10.460	0.100
712.000	-24.266	0.100
712.100	-10.872	0.100
712.200	3.330	0.100
712.300	1.850	0.100
712.400	0.985	0.100
712.500	-6.494	0.100
712.600	-18.224	0.100
712.700	-19.600	0.100
712.800	-3.462	0.100
712.900	-0.914	0.100
713.000	-0.441	0.100
713.100	-33.576	0.100
713.200	-11.291	0.100
713.300	-4.828	0.100
713.400	-23.867	0.100
713.500	-17.932	0.100
713.600	1.404	0.100
713.700	1.906	0.100
713.800	-13.951	0.100
713.900	-21.324	0.100
714.000	-2.274	0.100
714.100	-15.305	0.100
714.200	-8.231	0.100
714.300	1.989	0.100
714.400	-8.793	0.100
714.500	2.790	0.100
714.600	4.879	0.100
714.700	-25.469	0.100
714.800	-24.042	0.100
714.900	-15.817	0.100
715.000	-24.148	0.100
715.100	-3.378	0.100
715.200	-5.530	0.100
715.300	0.315	0.100
715.400	-18.889	0.100
715.500	0.804	0.100
715.600	-5.859	0.100
715.700	-7.624	0.100
715.800	1.533	0.100
715.900	-24.868	0.100
716.000	-0.905	0.100
716.100	-22.306	0.100
716.200	1.727	0.100
716.300	4.079	0.100
716.400	-27.743	0.100
716.500	-11.092	0.100
716.600	8.973	0.100
716.700	-12.427	0.100
716.800	5.648	0.100
716.900	-13.152	0.100
717.000	11.856	0.100
717.100	9.341	0.100
717.200	1.740	0.100
717.300	-12.132	0.100
717.400	-21.048	0.100
717.500	-20.263	0.100
717.600	-19.476	0.100
717.700	-29.370	0.100
717.800	5.487	0.100
717.900	-20.347	0.100
718.000	-12.922	0.100
718.100	-19.363	0.100
718.200	-7.179	0.100
718.300	-14.985	0.100
718.400	-11.770	0.100
718.500	-4.556	0.100
718.600	-1.793	0.100
718.700	-10.397	0.100
718.800	-14.015	0.100
718.900	-9.736	0.100
719.000	-19.571	0.100
719.100	-2.653	0.100
719.200	-14.303	0.100
719.300	-9.761	0.100
719.400	-12.487	0.100
719.500	-9.234	0.100
719.600	6.276	0.100
719.700	-23.917	0.100
719.800	-14.124	0.100
719.900	-19.482	0.100
720.000	0.618	0.100
720.100	-21.793	0.100
720.200	-7.936	0.100
720.300	-6.392	0.100
720.400	-9.381	0.100
720.500	-35.921	0.100
720.600	2.380	0.100
720.700	-16.234	0.100
720.800	17.342	0.100
720.900	-14.890	0.100
721.000	-14.370	0.100
721.100	-15.739	0.100
721.200	11.147	0.100
721.300	-22.177	0.100
721.400	-19.180	0.100
721.500	-0.886	0.100
721.600	0.821	0.100
721.700	-16.113	0.100
721.800	-10.155	0.100
721.900	6.737	0.100
722.000	-14.425	0.100
722.100	3.580	0.100
722.200	4.493	0.100
722.300	-19.927	0.100
722.400	6.147	0.100
722.500	-12.656	0.100
722.600	-23.203	0.100
722.700	-13.517	0.100
722.800	-8.070	0.100
722.900	-18.698	0.100
723.000	7.616	0.100
723.100	-18.718	0.100
723.200	-4.141	0.100
723.300	-3.943	0.100
723.400	-17.872	0.100
723.500	-1.966	0.100
723.600	-5.123	0.100
723.700	4.689	0.100
723.800	15.233	0.100
723.900	-11.559	0.100
724.000	-16.859	0.100
724.100	-0.455	0.100
724.200	-18.051	0.100
724.300	-11.894	0.100
724.400	4.715	0.100
724.500	-3.346	0.100
724.600	-15.533	0.100
724.700	-33.163	0.100
724.800	-1.818	0.100
724.900	-14.670	0.100
725.000	-12.373	0.100
725.100	-2.996	0.100
725.200	-8.492	0.100
725.300	-5.207	0.100
725.400	-10.400	0.100
725.500	-2.490	0.100
725.600	6.873	0.100
725.700	0.902	0.100
725.800	-17.504	0.100
725.900	-18.736	0.100
726.000	0.870	0.100
726.100	-15.908	0.100
726.200	-11.439	0.100
726.300	-11.205	0.100
726.400	-8.087	0.100
726.500	-12.759	0.100
726.600	-20.448	0.100
726.700	-0.915	0.100
726.800	3.266	0.100
726.900	-8.675	0.100
727.000	-18.262	0.100
727.100	-21.679	0.100
727.200	-10.864	0.100
727.300	-12.366	0.100
727.400	-13.167	0.100
727.500	2.387	0.100
727.600	-8.801	0.100
727.700	-14.232	0.100
727.800	7.287	0.100
727.900	-19.185	0.100
728.000	-15.318	0.100
728.100	3.282	0.100
728.200	-16.594	0.100
728.300	2.739	0.100
728.400	-5.740	0.100
728.500	4.977	0.100
728.600	-14.810	0.100
728.700	-16.467	0.100
728.800	-0.856	0.100
728.900	-4.627	0.100
729.000	-3.699	0.100
729.100	3.377	0.100
729.200	-13.033	0.100
729.300	-6.633	0.100
729.400	-27.265	0.100
729.500	-9.055	0.100
729.600	4.034	0.100
729.700	-11.619	0.100
729.800	-1.123	0.100
729.900	-19.437	0.100
730.000	4.132	0.100
730.100	-14.443	0.100
730.200	1.448	0.100
730.300	-6.759	0.100
730.400	-2.334	0.100
730.500	-11.582	0.100
730.600	-4.660	0.100
730.700	-20.717	0.100
730.800	-4.108	0.100
730.900	-19.366	0.100
731.000	-6.997	0.100
731.100	-16.562	0.100
731.200	-14.719	0.100
731.300	-7.135	0.100
731.400	-11.527	0.100
731.500	-11.794	0.100
731.600	-9.485	0.100
731.700	-21.163	0.100
731.800	3.346	0.100
731.900	-8.018	0.100
732.000	-7.016	0.100
732.100	-3.860	0.100
732.200	-17.504	0.100
732.300	-29.413	0.100
732.400	18.627	0.100
732.500	-1.430	0.100
732.600	-9.014	0.100
732.700	-22.118	0.100
732.800	-17.584	0.100
732.900	-19.410	0.100
733.000	-8.977	0.100
733.100	1.418	0.100
733.200	-0.612	0.100
733.300	-24.334	0.100
733.400	-3.788	0.100
733.500	5.960	0.100
733.600	-16.123	0.100
733.700	8.159	0.100
733.800	-15.394	0.100
733.900	-8.260	0.100
734.000	9.681	0.100
734.100	-21.291	0.100
734.200	-13.631	0.100
734.300	0.583	0.100
734.400	-4.477	0.100
734.500	-10.322	0.100
734.600	-0.319	0.100
734.700	-0.389	0.100
734.800	5.225	0.100
734.900	-16.519	0.100
735.000	-0.825	0.100
735.100	-9.773	0.100
735.200	0.921	0.100
735.300	-14.345	0.100
735.400	1.373	0.100
735.500	-26.707	0.100
735.600	-5.748	0.100
735.700	-14.033	0.100
735.800	-12.373	0.100
735.900	1.051	0.100
736.000	-22.559	0.100
736.100	-22.341	0.100
736.200	-33.147	0.100
736.300	-2.464	0.100
736.400	-4.660	0.100
736.500	-8.990	0.100
736.600	1.496	0.100
736.700	0.459	0.100
736.800	-0.029	0.100
736.900	-12.209	0.100
737.000	1.289	0.100
737.100	-23.484	0.100
737.200	-20.748	0.100
737.300	-17.729	0.100
737.400	-3.894	0.100
737.500	-15.114	0.100
737.600	-27.525	0.100
737.700	-5.995	0.100
737.800	-17.606	0.100
737.900	-20.586	0.100
738.000	-5.589	0.100
738.100	-35.265	0.100
738.200	-8.840	0.100
738.300	-12.248	0.100
738.400	0.545	0.100
738.500	-18.709	0.100
738.600	-12.419	0.100
738.700	-1.775	0.100
738.800	-16.484	0.100
738.900	-5.525	0.100
739.000	5.007	0.100
739.100	2.714	0.100
739.200	-26.037	0.100
739.300	9.783	0.100
739.400	-15.602	0.100
739.500	-17.336	0.100
739.600	-25.425	0.100
739.700	0.947	0.100
739.800	1.066	0.100
739.900	5.751	0.100
740.000	-4.974	0.100
740.100	-1.677	0.100
740.200	5.715	0.100
740.300	5.988	0.100
740.400	-3.792	0.100
740.500	7.336	0.100
740.600	-4.965	0.100
740.700	-16.071	0.100
740.800	1.974	0.100
740.900	-3.555	0.100
741.000	7.459	0.100
741.100	-5.865	0.100
741.200	-13.825	0.100
741.300	2.237	0.100
741.400	-16.889	0.100
741.500	-7.057	0.100
741.600	7.074	0.100
741.700	5.653	0.100
741.800	-11.889	0.100
741.900	12.892	0.100
742.000	15.177	0.100
742.100	6.989	0.100
742.200	-1.663	0.100
742.300	-5.386	0.100
742.400	-19.061	0.100
742.500	-3.624	0.100
742.600	-6.506	0.100
742.700	-3.576	0.100
742.800	5.579	0.100
742.900	-0.492	0.100
743.000	-0.877	0.100
743.100	-14.631	0.100
743.200	-1.899	0.100
743.300	-15.614	0.100
743.400	-19.887	0.100
743.500	-13.291	0.100
743.600	0.998	0.100
743.700	5.068	0.100
743.800	-6.756	0.100
743.900	-14.011	0.100
744.000	-6.718	0.100
744.100	-17.722	0.100
744.200	-0.539	0.100
744.300	-12.230	0.100
744.400	-2.100	0.100
744.500	3.714	0.100
744.600	-4.000	0.100
744.700	-3.740	0.100
744.800	8.557	0.100
744.900	-5.394	0.100
745.000	-17.372	0.100
745.100	-2.116	0.100
745.200	-1.082	0.100
745.300	-2.711	0.100
745.400	-13.798	0.100
745.500	9.994	0.100
745.600	-19.476	0.100
745.700	-0.721	0.100
745.800	1.937	0.100
745.900	2.053	0.100
746.000	11.644	0.100
746.100	25.730	0.100
746.200	-7.647	0.100
746.300	-19.474	0.100
746.400	3.941	0.100
746.500	9.967	0.100
746.600	-8.792	0.100
746.700	5.689	0.100
746.800	-10.090	0.100
746.900	-11.677	0.100
747.000	-3.477	0.100
747.100	-9.246	0.100
747.200	3.060	0.100
747.300	-2.868	0.100
747.400	-16.054	0.100
747.500	-9.224	0.100
747.600	13.049	0.100
747.700	-6.355	0.100
747.800	16.963	0.100
747.900	0.233	0.100
748.000	1.103	0.100
748.100	12.155	0.100
748.200	7.773	0.100
748.300	3.923	0.100
748.400	-10.015	0.100
748.500	-20.065	0.100
748.600	4.995	0.100
748.700	-3.904	0.100
748.800	0.302	0.100
748.900	-19.093	0.100
749.000	8.882	0.100
749.100	-9.512	0.100
749.200	-9.781	0.100
749.300	-0.700	0.100
749.400	-13.077	0.100
749.500	15.699	0.100
749.600	2.044	0.100
749.700	-20.006	0.100
749.800	9.569	0.100
749.900	-6.609	0.100
750.000	-10.081	0.100
750.100	-6.099	0.100
750.200	6.652	0.100
750.300	7.306	0.100
750.400	-8.070	0.100
750.500	-11.875	0.100
750.600	-13.539	0.100
750.700	-20.479	0.100
750.800	-24.480	0.100
750.900	4.721	0.100
751.000	9.074	0.100
751.100	13.496	0.100
751.200	3.400	0.100
751.300	-1.855	0.100
751.400	0.446	0.100
751.500	-12.516	0.100
751.600	-1.678	0.100
751.700	9.823	0.100
751.800	8.363	0.100
751.900	0.684	0.100
752.000	-18.496	0.100
752.100	-0.142	0.100
752.200	-6.170	0.100
752.300	6.989	0.100
752.400	0.207	0.100
752.500	5.326	0.100
752.600	-14.254	0.100
752.700	16.850	0.100
752.800	-4.180	0.100
752.900	-18.251	0.100
753.000	13.664	0.100
753.100	1.872	0.100
753.200	6.172	0.100
753.300	-13.571	0.100
753.400	0.804	0.100
753.500	1.356	0.100
753.600	5.548	0.100
753.700	-2.822	0.100
753.800	0.773	0.100
753.900	-15.368	0.100
754.000	-1.819	0.100
754.100	11.387	0.100
754.200	-16.735	0.100
754.300	-7.009	0.100
754.400	-9.998	0.100
754.500	-1.383	0.100
754.600	-3.845	0.100
754.700	2.827	0.100
754.800	-17.006	0.100
754.900	4.317	0.100
755.000	-0.568	0.100
755.100	14.952	0.100
755.200	5.895	0.100
755.300	2.488	0.100
755.400	8.169	0.100
755.500	6.487	0.100
755.600	18.075	0.100
755.700	0.515	0.100
755.800	-6.870	0.100
755.900	-2.217	0.100
756.000	5.779	0.100
756.100	-12.426	0.100
756.200	3.561	0.100
756.300	-0.628	0.100
756.400	-15.275	0.100
756.500	11.758	0.100
756.600	6.253	0.100
756.700	6.529	0.100
756.800	-13.080	0.100
756.900	7.688	0.100
757.000	-1.945	0.100
757.100	-3.910	0.100
757.200	-6.526	0.100
757.300	3.306	0.100
757.400	2.030	0.100
757.500	-8.106	0.100
757.600	-6.362	0.100
757.700	-1.260	0.100
757.800	3.508	0.100
757.900	10.266	0.100
758.000	12.478	0.100
758.100	-14.939	0.100
758.200	4.305	0.100
758.300	-13.213	0.100
758.400	4.615	0.100
758.500	0.682	0.100
758.600	-9.735	0.100
758.700	13.193	0.100
758.800	-0.285	0.100
758.900	-0.928	0.100
759.000	1.805	0.100
759.100	-12.851	0.100
759.200	6.343	0.100
759.300	-12.048	0.100
759.400	-12.134	0.100
759.500	9.007	0.100
759.600	-7.042	0.100
759.700	7.845	0.100
759.800	20.554	0.100
759.900	3.452	0.100
760.000	7.879	0.100
760.100	3.730	0.100
760.200	-16.746	0.100
760.300	10.648	0.100
760.400	-12.114	0.100
760.500	2.308	0.100
760.600	2.918	0.100
760.700	10.344	0.100
760.800	-0.964	0.100
760.900	-8.354	0.100
761.000	1.753	0.100
761.100	4.242	0.100
761.200	5.959	0.100
761.300	9.326	0.100
761.400	-8.040	0.100
761.500	9.104	0.100
761.600	7.609	0.100
761.700	-18.921	0.100
761.800	-3.683	0.100
761.900	-8.916	0.100
762.000	3.777	0.100
762.100	28.923	0.100
762.200	-4.458	0.100
762.300	-12.368	0.100
762.400	-8.341	0.100
762.500	-3.508	0.100
762.600	-9.335	0.100
762.700	7.645	0.100
762.800	-8.011	0.100
762.900	-3.415	0.100
763.000	6.158	0.100
763.100	-2.328	0.100
763.200	-9.365	0.100
763.300	4.180	0.100
763.400	-19.311	0.100
763.500	15.365	0.100
763.600	4.053	0.100
763.700	-9.361	0.100
763.800	9.092	0.100
763.900	4.446	0.100
764.000	-14.385	0.100
764.100	2.523	0.100
764.200	10.561	0.100
764.300	1.686	0.100
764.400	-14.499	0.100
764.500	5.519	0.100
764.600	-12.666	0.100
764.700	-1.892	0.100
764.800	-8.374	0.100
764.900	-2.495	0.100
765.000	-9.992	0.100
765.100	6.481	0.100
765.200	6.733	0.100
765.300	3.761	0.100
765.400	-1.824	0.100
765.500	0.794	0.100
765.600	7.370	0.100
765.700	-11.545	0.100
765.800	-12.885	0.100
765.900	-2.954	0.100
766.000	11.354	0.100
766.100	-14.400	0.100
766.200	10.627	0.100
766.300	4.652	0.100
766.400	2.348	0.100
766.500	-3.953	0.100
766.600	9.241	0.100
766.700	22.511	0.100
766.800	9.364	0.100
766.900	4.165	0.100
767.000	-1.434	0.100
767.100	-5.106	0.100
767.200	-5.654	0.100
767.300	-2.506	0.100
767.400	18.848	0.100
767.500	-4.997	0.100
767.600	10.520	0.100
767.700	-4.695	0.100
767.800	7.978	0.100
767.900	7.087	0.100
768.000	6.648	0.100
768.100	32.050	0.100
768.200	13.850	0.100
768.300	21.420	0.100
768.400	42.858	0.100
768.500	38.047	0.100
768.600	25.941	0.100
768.700	34.595	0.100
768.800	37.671	0.100
768.900	24.732	0.100
769.000	29.671	0.100
769.100	33.210	0.100
769.200	24.981	0.100
769.300	21.715	0.100
769.400	23.404	0.100
769.500	32.910	0.100
769.600	13.018	0.100
769.700	28.796	0.100
769.800	22.023	0.100
769.900	14.861	0.100
770.000	14.910	0.100
770.100	7.728	0.100
770.200	22.567	0.100
770.300	24.708	0.100
770.400	22.195	0.100
770.500	21.548	0.100
770.600	8.000	0.100
770.700	9.227	0.100
770.800	14.633	0.100
770.900	8.924	0.100
771.000	5.516	0.100
771.100	34.842	0.100
771.200	15.076	0.100
771.300	-1.411	0.100
771.400	16.410	0.100
771.500	-6.683	0.100
771.600	-0.905	0.100
771.700	19.349	0.100
771.800	10.703	0.100
771.900	29.330	0.100
772.000	3.013	0.100
772.100	-4.388	0.100
772.200	5.236	0.100
772.300	15.560	0.100
772.400	-1.088	0.100
772.500	2.269	0.100
772.600	7.373	0.100
772.700	28.809	0.100
772.800	2.928	0.100
772.900	-6.540	0.100
773.000	13.877	0.100
773.100	-4.937	0.100
773.200	3.291	0.100
773.300	4.950	0.100
773.400	-18.450	0.100
773.500	-2.024	0.100
773.600	-17.694	0.100
773.700	9.586	0.100
773.800	-1.071	0.100
773.900	17.646	0.100
774.000	17.666	0.100
774.100	-13.386	0.100
774.200	4.749	0.100
774.300	15.427	0.100
774.400	15.245	0.100
774.500	28.326	0.100
774.600	22.288	0.100
774.700	7.700	0.100
774.800	9.760	0.100
774.900	5.406	0.100
775.000	3.480	0.100
775.100	0.724	0.100
775.200	12.330	0.100
775.300	29.659	0.100
775.400	-21.440	0.100
775.500	0.639	0.100
775.600	15.030	0.100
775.700	0.526	0.100
775.800	8.591	0.100
775.900	9.515	0.100
776.000	12.334	0.100
776.100	13.391	0.100
776.200	8.035	0.100
776.300	10.982	0.100
776.400	-11.136	0.100
776.500	25.789	0.100
776.600	12.557	0.100
776.700	7.693	0.100
776.800	5.786	0.100
776.900	-10.171	0.100
777.000	-9.013	0.100
777.100	5.203	0.100
777.200	22.182	0.100
777.300	15.354	0.100
777.400	28.173	0.100
777.500	6.069	0.100
777.600	9.219	0.100
777.700	16.721	0.100
777.800	2.818	0.100
777.900	15.486	0.100
778.000	9.792	0.100
778.100	6.145	0.100
778.200	15.689	0.100
778.300	-0.824	0.100
778.400	14.632	0.100
778.500	-5.238	0.100
778.600	5.936	0.100
778.700	19.983	0.100
778.800	-2.495	0.100
778.900	13.429	0.100
779.000	13.677	0.100
779.100	6.062	0.100
779.200	-7.674	0.100
779.300	11.684	0.100
779.400	8.983	0.100
779.500	24.764	0.100
779.600	7.283	0.100
779.700	26.796	0.100
779.800	2.666	0.100
779.900	12.245	0.100
780.000	11.123	0.100
780.100	13.098	0.100
780.200	23.841	0.100
780.300	11.924	0.100
780.400	-9.532	0.100
780.500	10.036	0.100
780.600	25.251	0.100
780.700	26.432	0.100
780.800	13.149	0.100
780.900	3.781	0.100
781.000	1.587	0.100
781.100	23.357	0.100
781.200	5.496	0.100
781.300	10.905	0.100
781.400	10.095	0.100
781.500	26.627	0.100
781.600	16.838	0.100
781.700	6.748	0.100
781.800	1.552	0.100
781.900	30.710	0.100
782.000	13.874	0.100
782.100	31.813	0.100
782.200	31.171	0.100
782.300	12.643	0.100
782.400	1.247	0.100
782.500	21.265	0.100
782.600	22.087	0.100
782.700	40.625	0.100
782.800	18.466	0.100
782.900	7.261	0.100
783.000	20.480	0.100
783.100	29.276	0.100
783.200	23.656	0.100
783.300	5.709	0.100
783.400	35.527	0.100
783.500	16.304	0.100
783.600	19.379	0.100
783.700	31.851	0.100
783.800	15.457	0.100
783.900	33.724	0.100
784.000	16.461	0.100
784.100	20.842	0.100
784.200	28.342	0.100
784.300	25.068	0.100
784.400	41.175	0.100
784.500	10.433	0.100
784.600	23.374	0.100
784.700	10.650	0.100
784.800	24.719	0.100
784.900	20.363	0.100
785.000	30.900	0.100
785.100	14.773	0.100
785.200	14.159	0.100
785.300	39.389	0.100
785.400	-1.112	0.100
785.500	32.830	0.100
785.600	19.896	0.100
785.700	15.147	0.100
785.800	23.699	0.100
785.900	12.828	0.100
786.000	48.057	0.100
786.100	17.302	0.100
786.200	17.178	0.100
786.300	36.852	0.100
786.400	15.397	0.100
786.500	31.237	0.100
786.600	38.756	0.100
786.700	26.607	0.100
786.800	8.961	0.100
786.900	26.234	0.100
787.000	13.711	0.100
787.100	25.208	0.100
787.200	33.645	0.100
787.300	35.711	0.100
787.400	17.617	0.100
787.500	3.797	0.100
787.600	36.955	0.100
787.700	26.730	0.100
787.800	24.741	0.100
787.900	21.102	0.100
788.000	26.332	0.100
788.100	7.548	0.100
788.200	24.536	0.100
788.300	7.883	0.100
788.400	40.701	0.100
788.500	22.110	0.100
788.600	12.020	0.100
788.700	22.770	0.100
788.800	21.949	0.100
788.900	21.386	0.100
789.000	15.596	0.100
789.100	28.467	0.100
789.200	32.872	0.100
789.300	18.391	0.100
789.400	19.797	0.100
789.500	18.847	0.100
789.600	21.878	0.100
789.700	29.609	0.100
789.800	24.657	0.100
789.900	37.969	0.100
790.000	15.974	0.100
790.100	13.100	0.100
790.200	15.960	0.100
790.300	20.602	0.100
790.400	25.284	0.100
790.500	17.257	0.100
790.600	30.613	0.100
790.700	33.604	0.100
790.800	32.370	0.100
790.900	38.789	0.100
791.000	24.264	0.100
791.100	31.758	0.100
791.200	29.637	0.100
791.300	26.451	0.100
791.400	29.494	0.100
791.500	35.506	0.100
791.600	12.685	0.100
791.700	21.580	0.100
791.800	27.838	0.100
791.900	43.566	0.100
792.000	34.091	0.100
792.100	17.896	0.100
792.200	31.281	0.100
792.300	23.649	0.100
792.400	7.093	0.100
792.500	41.699	0.100
792.600	32.117	0.100
792.700	8.211	0.100
792.800	42.299	0.100
792.900	12.895	0.100
793.000	24.201	0.100
793.100	18.779	0.100
793.200	29.387	0.100
793.300	17.785	0.100
793.400	23.447	0.100
793.500	41.082	0.100
793.600	17.178	0.100
793.700	30.937	0.100
793.800	35.049	0.100
793.900	33.540	0.100
794.000	38.402	0.100
794.100	16.850	0.100
794.200	41.000	0.100
794.300	28.807	0.100
794.400	31.024	0.100
794.500	51.133	0.100
794.600	20.677	0.100
794.700	29.735	0.100
794.800	25.881	0.100
794.900	27.692	0.100
795.000	35.583	0.100
795.100	13.720	0.100
795.200	24.071	0.100
795.300	39.686	0.100
795.400	36.824	0.100
795.500	28.099	0.100
795.600	32.085	0.100
795.700	36.029	0.100
795.800	37.130	0.100
795.900	34.335	0.100
796.000	48.493	0.100
796.100	30.843	0.100
796.200	41.762	0.100
796.300	16.893	0.100
796.400	41.474	0.100
796.500	46.037	0.100
796.600	46.607	0.100
796.700	33.748	0.100
796.800	42.761	0.100
796.900	21.678	0.100
797.000	23.180	0.100
797.100	35.152	0.100
797.200	34.741	0.100
797.300	40.531	0.100
797.400	31.578	0.100
797.500	15.643	0.100
797.600	42.102	0.100
797.700	35.110	0.100
797.800	41.594	0.100
797.900	50.051	0.100
798.000	49.593	0.100
798.100	39.262	0.100
798.200	27.864	0.100
798.300	39.891	0.100
798.400	48.831	0.100
798.500	36.685	0.100
798.600	38.518	0.100
798.700	43.062	0.100
798.800	52.534	0.100
798.900	41.335	0.100
799.000	29.726	0.100
799.100	52.776	0.100
799.200	40.084	0.100
799.300	30.059	0.100
799.400	24.296	0.100
799.500	39.933	0.100
799.600	44.490	0.100
799.700	44.816	0.100
799.800	14.489	0.100
799.900	35.635	0.100
800.000	33.754	0.100
