time /s	I /nA	E /V
0.100	0.562	0.100
0.200	-0.776	0.100
0.300	-20.427	0.100
0.400	-2.608	0.100
0.500	-18.951	0.100
0.600	-5.284	0.100
0.700	-1.218	0.100
0.800	-1.928	0.100
0.900	-16.443	0.100
1.000	-18.619	0.100
1.100	-17.582	0.100
1.200	-9.936	0.100
1.300	-24.509	0.100
1.400	-13.887	0.100
1.500	-22.316	0.100
1.600	-14.032	0.100
1.700	-21.806	0.100
1.800	-9.149	0.100
1.900	8.756	0.100
2.000	-32.672	0.100
2.100	6.079	0.100
2.200	-29.829	0.100
2.300	11.009	0.100
2.400	-14.383	0.100
2.500	-19.952	0.100
2.600	-20.417	0.100
2.700	-14.356	0.100
2.800	-21.789	0.100
2.900	-15.400	0.100
3.000	-17.249	0.100
3.100	-17.442	0.100
3.200	3.113	0.100
3.300	-2.230	0.100
3.400	-27.074	0.100
3.500	-11.495	0.100
3.600	-20.993	0.100
3.700	-10.963	0.100
3.800	-2.466	0.100
3.900	-22.622	0.100
4.000	-21.410	0.100
4.100	-19.446	0.100
4.200	-15.832	0.100
4.300	-12.888	0.100
4.400	-10.850	0.100
4.500	-11.739	0.100
4.600	-6.302	0.100
4.700	-6.910	0.100
4.800	-15.922	0.100
4.900	-19.438	0.100
5.000	-2.303	0.100
5.100	-3.940	0.100
5.200	-2.392	0.100
5.300	0.136	0.100
5.400	-0.825	0.100
5.500	-14.492	0.100
5.600	0.911	0.100
5.700	-7.196	0.100
5.800	-11.846	0.100
5.900	-22.534	0.100
6.000	6.772	0.100
6.100	-14.287	0.100
6.200	-24.848	0.100
6.300	-30.810	0.100
6.400	-25.128	0.100
6.500	-9.727	0.100
6.600	-11.643	0.100
6.700	-25.336	0.100
6.800	-5.712	0.100
6.900	-12.838	0.100
7.000	-11.886	0.100
7.100	-2.626	0.100
7.200	-22.297	0.100
7.300	-0.774	0.100
7.400	-19.903	0.100
7.500	-10.589	0.100
7.600	-19.384	0.100
7.700	-13.969	0.100
7.800	-20.004	0.100
7.900	-21.673	0.100
8.000	-23.224	0.100
8.100	-6.051	0.100
8.200	-16.855	0.100
8.300	0.596	0.100
8.400	-21.461	0.100
8.500	-23.155	0.100
8.600	0.894	0.100
8.700	-25.880	0.100
8.800	-6.987	0.100
8.900	-19.038	0.100
9.000	-28.420	0.100
9.100	-13.570	0.100
9.200	-31.711	0.100
9.300	-22.589	0.100
9.400	-19.086	0.100
9.500	-18.469	0.100
9.600	-11.286	0.100
9.700	0.146	0.100
9.800	-18.929	0.100
9.900	-20.352	0.100
10.000	-17.777	0.100
10.100	-17.095	0.100
10.200	-12.264	0.100
10.300	-21.530	0.100
10.400	-19.572	0.100
10.500	-9.724	0.100
10.600	-25.052	0.100
10.700	-11.156	0.100
10.800	-9.222	0.100
10.900	-5.722	0.100
11.000	-9.521	0.100
11.100	-14.058	0.100
11.200	-5.988	0.100
11.300	-16.562	0.100
11.400	-12.221	0.100
11.500	-8.639	0.100
11.600	-16.508	0.100
11.700	-9.264	0.100
11.800	-4.447	0.100
11.900	-15.410	0.100
12.000	2.263	0.100
12.100	4.858	0.100
12.200	-26.659	0.100
12.300	-7.602	0.100
12.400	-7.928	0.100
12.500	-18.744	0.100
12.600	-18.245	0.100
12.700	-21.732	0.100
12.800	-17.241	0.100
12.900	-17.322	0.100
13.000	-7.557	0.100
13.100	-5.337	0.100
13.200	-14.739	0.100
13.300	-17.736	0.100
13.400	-25.950	0.100
13.500	-14.297	0.100
13.600	-14.230	0.100
13.700	-24.704	0.100
13.800	1.409	0.100
13.900	-10.394	0.100
14.000	-24.744	0.100
14.100	-2.982	0.100
14.200	-24.440	0.100
14.300	-21.249	0.100
14.400	-19.516	0.100
14.500	-1.960	0.100
14.600	-2.232	0.100
14.700	-21.130	0.100
14.800	-20.341	0.100
14.900	-27.051	0.100
15.000	-17.777	0.100
15.100	4.823	0.100
15.200	-19.639	0.100
15.300	-12.823	0.100
15.400	-19.113	0.100
15.500	-7.571	0.100
15.600	-15.683	0.100
15.700	-23.521	0.100
15.800	-2.760	0.100
15.900	-21.792	0.100
16.000	-11.777	0.100
16.100	-25.817	0.100
16.200	-17.322	0.100
16.300	-12.464	0.100
16.400	-19.229	0.100
16.500	-5.197	0.100
16.600	-10.501	0.100
16.700	-12.700	0.100
16.800	-9.169	0.100
16.900	-21.664	0.100
17.000	-4.250	0.100
17.100	-6.553	0.100
17.200	-8.235	0.100
17.300	-6.109	0.100
17.400	-21.842	0.100
17.500	-29.044	0.100
17.600	-6.926	0.100
17.700	-16.026	0.100
17.800	-6.084	0.100
17.900	-29.028	0.100
18.000	-10.134	0.100
18.100	11.839	0.100
18.200	-28.833	0.100
18.300	-18.359	0.100
18.400	-14.406	0.100
18.500	-4.015	0.100
18.600	-0.121	0.100
18.700	-7.264	0.100
18.800	-4.599	0.100
18.900	-17.896	0.100
19.000	-14.179	0.100
19.100	-4.117	0.100
19.200	-10.447	0.100
19.300	-2.945	0.100
19.400	-20.713	0.100
19.500	-11.029	0.100
19.600	-16.403	0.100
19.700	-22.595	0.100
19.800	-18.540	0.100
19.900	-21.627	0.100
20.000	2.654	0.100
20.100	-25.763	0.100
20.200	-21.165	0.100
20.300	-31.002	0.100
20.400	-9.154	0.100
20.500	-3.228	0.100
20.600	-26.955	0.100
20.700	-26.013	0.100
20.800	-20.901	0.100
20.900	-14.616	0.100
21.000	-5.731	0.100
21.100	-22.449	0.100
21.200	-1.515	0.100
21.300	-27.118	0.100
21.400	-11.759	0.100
21.500	-13.854	0.100
21.600	-2.157	0.100
21.700	-38.164	0.100
21.800	-7.204	0.100
21.900	-9.692	0.100
22.000	-26.243	0.100
22.100	-3.937	0.100
22.200	-16.291	0.100
22.300	-8.602	0.100
22.400	-18.166	0.100
22.500	-11.336	0.100
22.600	-18.620	0.100
22.700	-4.997	0.100
22.800	-5.887	0.100
22.900	-13.844	0.100
23.000	-13.261	0.100
23.100	-18.078	0.100
23.200	-17.317	0.100
23.300	-10.272	0.100
23.400	-14.268	0.100
23.500	-21.278	0.100
23.600	3.477	0.100
23.700	-28.166	0.100
23.800	-12.644	0.100
23.900	-12.778	0.100
24.000	-18.473	0.100
24.100	-1.430	0.100
24.200	-11.473	0.100
24.300	-18.736	0.100
24.400	-19.954	0.100
24.500	-14.775	0.100
24.600	-17.775	0.100
24.700	0.314	0.100
24.800	-10.448	0.100
24.900	-9.244	0.100
25.000	-5.732	0.100
25.100	-11.464	0.100
25.200	-17.975	0.100
25.300	-14.535	0.100
25.400	-8.636	0.100
25.500	-25.081	0.100
25.600	9.389	0.100
25.700	-12.537	0.100
25.800	-6.045	0.100
25.900	-12.099	0.100
26.000	-20.530	0.100
26.100	-22.711	0.100
26.200	4.849	0.100
26.300	-11.173	0.100
26.400	-9.437	0.100
26.500	-18.401	0.100
26.600	-12.511	0.100
26.700	-7.949	0.100
26.800	-8.568	0.100
26.900	-31.217	0.100
27.000	-8.137	0.100
27.100	-25.345	0.100
27.200	-33.129	0.100
27.300	-0.420	0.100
27.400	-14.726	0.100
27.500	-8.510	0.100
27.600	-32.190	0.100
27.700	-15.480	0.100
27.800	-31.624	0.100
27.900	-17.434	0.100
28.000	-19.504	0.100
28.100	-10.695	0.100
28.200	-26.414	0.100
28.300	-14.951	0.100
28.400	-29.650	0.100
28.500	-21.020	0.100
28.600	-8.677	0.100
28.700	-11.273	0.100
28.800	-1.288	0.100
28.900	-6.232	0.100
29.000	-17.807	0.100
29.100	-22.351	0.100
29.200	-7.172	0.100
29.300	-17.289	0.100
29.400	-23.990	0.100
29.500	-6.559	0.100
29.600	-5.128	0.100
29.700	-14.826	0.100
29.800	-22.328	0.100
29.900	-29.358	0.100
30.000	-38.300	0.100
30.100	-7.446	0.100
30.200	-38.528	0.100
30.300	0.083	0.100
30.400	-15.689	0.100
30.500	-6.389	0.100
30.600	-2.614	0.100
30.700	-13.854	0.100
30.800	-21.608	0.100
30.900	-5.796	0.100
31.000	-17.391	0.100
31.100	14.568	0.100
31.200	-16.421	0.100
31.300	-15.803	0.100
31.400	-23.014	0.100
31.500	-5.084	0.100
31.600	-8.815	0.100
31.700	-4.663	0.100
31.800	-15.295	0.100
31.900	-2.119	0.100
32.000	-8.117	0.100
32.100	-14.820	0.100
32.200	-17.010	0.100
32.300	-15.645	0.100
32.400	-3.963	0.100
32.500	-7.473	0.100
32.600	11.004	0.100
32.700	-13.080	0.100
32.800	-8.328	0.100
32.900	-16.981	0.100
33.000	-0.397	0.100
33.100	-8.522	0.100
33.200	5.353	0.100
33.300	-18.332	0.100
33.400	2.295	0.100
33.500	-27.134	0.100
33.600	-14.604	0.100
33.700	-1.192	0.100
33.800	6.655	0.100
33.900	-6.258	0.100
34.000	16.043	0.100
34.100	-0.643	0.100
34.200	-1.665	0.100
34.300	3.012	0.100
34.400	8.076	0.100
34.500	-3.001	0.100
34.600	6.452	0.100
34.700	-7.338	0.100
34.800	6.497	0.100
34.900	-23.309	0.100
35.000	2.649	0.100
35.100	-17.370	0.100
35.200	1.837	0.100
35.300	12.865	0.100
35.400	0.267	0.100
35.500	-2.694	0.100
35.600	-8.565	0.100
35.700	13.256	0.100
35.800	4.512	0.100
35.900	5.336	0.100
36.000	0.946	0.100
36.100	2.056	0.100
36.200	18.561	0.100
36.300	1.889	0.100
36.400	-3.392	0.100
36.500	9.652	0.100
36.600	4.767	0.100
36.700	2.002	0.100
36.800	9.072	0.100
36.900	-4.777	0.100
37.000	-2.266	0.100
37.100	15.162	0.100
37.200	-1.232	0.100
37.300	4.191	0.100
37.400	15.184	0.100
37.500	-3.074	0.100
37.600	17.578	0.100
37.700	0.959	0.100
37.800	-9.092	0.100
37.900	13.301	0.100
38.000	17.768	0.100
38.100	10.363	0.100
38.200	-7.438	0.100
38.300	-0.108	0.100
38.400	14.031	0.100
38.500	19.505	0.100
38.600	-4.321	0.100
38.700	9.195	0.100
38.800	15.174	0.100
38.900	23.675	0.100
39.000	12.791	0.100
39.100	33.108	0.100
39.200	17.170	0.100
39.300	20.397	0.100
39.400	-2.871	0.100
39.500	26.167	0.100
39.600	4.858	0.100
39.700	12.684	0.100
39.800	16.338	0.100
39.900	33.614	0.100
40.000	20.291	0.100
40.100	10.032	0.100
40.200	24.991	0.100
40.300	21.420	0.100
40.400	20.122	0.100
40.500	-0.926	0.100
40.600	19.864	0.100
40.700	22.485	0.100
40.800	3.858	0.100
40.900	8.736	0.100
41.000	13.362	0.100
41.100	12.365	0.100
41.200	9.288	0.100
41.300	15.420	0.100
41.400	24.637	0.100
41.500	32.392	0.100
41.600	3.126	0.100
41.700	19.798	0.100
41.800	9.634	0.100
41.900	19.940	0.100
42.000	16.662	0.100
42.100	4.377	0.100
42.200	20.505	0.100
42.300	25.820	0.100
42.400	10.110	0.100
42.500	6.416	0.100
42.600	19.437	0.100
42.700	32.926	0.100
42.800	6.504	0.100
42.900	27.155	0.100
43.000	15.489	0.100
43.100	10.012	0.100
43.200	11.920	0.100
43.300	11.963	0.100
43.400	13.557	0.100
43.500	22.542	0.100
43.600	19.576	0.100
43.700	19.609	0.100
43.800	2.600	0.100
43.900	21.673	0.100
44.000	25.189	0.100
44.100	13.195	0.100
44.200	15.321	0.100
44.300	19.072	0.100
44.400	17.863	0.100
44.500	18.300	0.100
44.600	15.138	0.100
44.700	14.778	0.100
44.800	40.773	0.100
44.900	4.450	0.100
45.000	13.265	0.100
45.100	22.450	0.100
45.200	17.223	0.100
45.300	19.956	0.100
45.400	19.619	0.100
45.500	12.704	0.100
45.600	15.499	0.100
45.700	14.452	0.100
45.800	29.492	0.100
45.900	17.608	0.100
46.000	25.257	0.100
46.100	7.869	0.100
46.200	13.176	0.100
46.300	16.782	0.100
46.400	7.512	0.100
46.500	20.484	0.100
46.600	3.285	0.100
46.700	-2.941	0.100
46.800	15.247	0.100
46.900	7.649	0.100
47.000	12.102	0.100
47.100	11.891	0.100
47.200	19.854	0.100
47.300	11.193	0.100
47.400	13.769	0.100
47.500	-2.239	0.100
47.600	11.897	0.100
47.700	3.095	0.100
47.800	16.219	0.100
47.900	14.469	0.100
48.000	1.775	0.100
48.100	14.745	0.100
48.200	13.772	0.100
48.300	17.108	0.100
48.400	14.066	0.100
48.500	13.452	0.100
48.600	13.939	0.100
48.700	11.056	0.100
48.800	20.157	0.100
48.900	13.171	0.100
49.000	10.832	0.100
49.100	-1.328	0.100
49.200	8.115	0.100
49.300	7.214	0.100
49.400	7.398	0.100
49.500	-8.794	0.100
49.600	9.890	0.100
49.700	14.228	0.100
49.800	1.262	0.100
49.900	10.257	0.100
50.000	13.606	0.100
50.100	0.354	0.100
50.200	20.193	0.100
50.300	19.628	0.100
50.400	30.025	0.100
50.500	23.473	0.100
50.600	-6.139	0.100
50.700	13.982	0.100
50.800	17.848	0.100
50.900	15.901	0.100
51.000	8.632	0.100
51.100	6.459	0.100
51.200	16.590	0.100
51.300	21.535	0.100
51.400	3.061	0.100
51.500	17.325	0.100
51.600	4.376	0.100
51.700	2.754	0.100
51.800	0.600	0.100
51.900	1.534	0.100
52.000	12.017	0.100
52.100	24.989	0.100
52.200	5.692	0.100
52.300	10.097	0.100
52.400	-3.506	0.100
52.500	-8.278	0.100
52.600	0.576	0.100
52.700	0.770	0.100
52.800	12.381	0.100
52.900	3.934	0.100
53.000	-7.534	0.100
53.100	9.802	0.100
53.200	5.461	0.100
53.300	14.501	0.100
53.400	-4.204	0.100
53.500	10.519	0.100
53.600	1.155	0.100
53.700	24.980	0.100
53.800	7.063	0.100
53.900	-7.136	0.100
54.000	-2.179	0.100
54.100	-1.959	0.100
54.200	15.661	0.100
54.300	2.519	0.100
54.400	9.200	0.100
54.500	-0.870	0.100
54.600	11.301	0.100
54.700	8.867	0.100
54.800	-2.495	0.100
54.900	7.838	0.100
55.000	-9.452	0.100
55.100	26.282	0.100
55.200	5.108	0.100
55.300	27.953	0.100
55.400	11.846	0.100
55.500	3.371	0.100
55.600	2.416	0.100
55.700	13.358	0.100
55.800	-1.632	0.100
55.900	-3.764	0.100
56.000	25.444	0.100
56.100	17.514	0.100
56.200	12.911	0.100
56.300	11.529	0.100
56.400	-3.626	0.100
56.500	14.958	0.100
56.600	-1.101	0.100
56.700	14.014	0.100
56.800	-3.668	0.100
56.900	-0.579	0.100
57.000	1.561	0.100
57.100	1.879	0.100
57.200	4.186	0.100
57.300	6.417	0.100
57.400	10.528	0.100
57.500	-8.014	0.100
57.600	4.515	0.100
57.700	-4.085	0.100
57.800	6.834	0.100
57.900	11.691	0.100
58.000	21.397	0.100
58.100	0.618	0.100
58.200	16.067	0.100
58.300	5.712	0.100
58.400	6.820	0.100
58.500	10.849	0.100
58.600	3.379	0.100
58.700	-25.159	0.100
58.800	8.422	0.100
58.900	-9.701	0.100
59.000	1.973	0.100
59.100	0.842	0.100
59.200	12.798	0.100
59.300	13.567	0.100
59.400	-7.587	0.100
59.500	9.892	0.100
59.600	-4.295	0.100
59.700	9.978	0.100
59.800	5.390	0.100
59.900	14.448	0.100
60.000	-0.087	0.100
60.100	-0.963	0.100
60.200	16.090	0.100
60.300	4.522	0.100
60.400	10.315	0.100
60.500	6.855	0.100
60.600	16.450	0.100
60.700	6.682	0.100
60.800	-0.111	0.100
60.900	-4.880	0.100
61.000	3.488	0.100
61.100	-0.094	0.100
61.200	0.830	0.100
61.300	-3.002	0.100
61.400	14.647	0.100
61.500	9.245	0.100
61.600	5.061	0.100
61.700	-9.839	0.100
61.800	-8.708	0.100
61.900	4.983	0.100
62.000	-13.605	0.100
62.100	13.838	0.100
62.200	0.185	0.100
62.300	-10.866	0.100
62.400	6.609	0.100
62.500	-0.641	0.100
62.600	5.149	0.100
62.700	-0.377	0.100
62.800	4.315	0.100
62.900	11.820	0.100
63.000	0.055	0.100
63.100	-10.718	0.100
63.200	-1.162	0.100
63.300	-10.264	0.100
63.400	5.150	0.100
63.500	-12.367	0.100
63.600	11.506	0.100
63.700	15.068	0.100
63.800	9.194	0.100
63.900	4.630	0.100
64.000	-11.494	0.100
64.100	14.892	0.100
64.200	-0.764	0.100
64.300	11.503	0.100
64.400	7.499	0.100
64.500	2.090	0.100
64.600	10.803	0.100
64.700	-2.970	0.100
64.800	-3.356	0.100
64.900	25.825	0.100
65.000	14.523	0.100
65.100	2.057	0.100
65.200	-23.811	0.100
65.300	-6.018	0.100
65.400	6.662	0.100
65.500	9.461	0.100
65.600	4.831	0.100
65.700	9.402	0.100
65.800	-22.744	0.100
65.900	9.958	0.100
66.000	-13.044	0.100
66.100	10.350	0.100
66.200	-12.137	0.100
66.300	1.468	0.100
66.400	2.938	0.100
66.500	14.891	0.100
66.600	-10.485	0.100
66.700	-17.257	0.100
66.800	5.384	0.100
66.900	2.104	0.100
67.000	3.781	0.100
67.100	8.686	0.100
67.200	7.493	0.100
67.300	2.136	0.100
67.400	-4.577	0.100
67.500	7.090	0.100
67.600	0.773	0.100
67.700	15.529	0.100
67.800	0.796	0.100
67.900	-7.582	0.100
68.000	8.120	0.100
68.100	9.258	0.100
68.200	2.398	0.100
68.300	12.700	0.100
68.400	1.850	0.100
68.500	-2.267	0.100
68.600	8.986	0.100
68.700	-8.136	0.100
68.800	-10.465	0.100
68.900	4.921	0.100
69.000	15.782	0.100
69.100	4.690	0.100
69.200	-11.537	0.100
69.300	-13.512	0.100
69.400	-8.615	0.100
69.500	0.826	0.100
69.600	-9.897	0.100
69.700	5.880	0.100
69.800	-9.771	0.100
69.900	5.410	0.100
70.000	5.951	0.100
70.100	-7.702	0.100
70.200	11.747	0.100
70.300	-7.521	0.100
70.400	-13.318	0.100
70.500	18.241	0.100
70.600	-1.772	0.100
70.700	-3.263	0.100
70.800	-16.388	0.100
70.900	15.797	0.100
71.000	12.316	0.100
71.100	-6.259	0.100
71.200	-3.067	0.100
71.300	-3.264	0.100
71.400	5.417	0.100
71.500	6.075	0.100
71.600	-0.173	0.100
71.700	-1.001	0.100
71.800	-15.822	0.100
71.900	10.153	0.100
72.000	-9.114	0.100
72.100	-1.108	0.100
72.200	-7.508	0.100
72.300	-4.043	0.100
72.400	-15.815	0.100
72.500	-3.986	0.100
72.600	-5.311	0.100
72.700	-2.869	0.100
72.800	10.264	0.100
72.900	8.903	0.100
73.000	-1.045	0.100
73.100	-27.360	0.100
73.200	10.524	0.100
73.300	-8.580	0.100
73.400	7.642	0.100
73.500	-3.141	0.100
73.600	-5.061	0.100
73.700	-7.271	0.100
73.800	-11.009	0.100
73.900	-11.547	0.100
74.000	10.139	0.100
74.100	7.909	0.100
74.200	3.413	0.100
74.300	-2.149	0.100
74.400	-0.349	0.100
74.500	9.379	0.100
74.600	9.748	0.100
74.700	-13.165	0.100
74.800	-9.916	0.100
74.900	-5.355	0.100
75.000	-3.814	0.100
75.100	0.025	0.100
75.200	-12.810	0.100
75.300	14.218	0.100
75.400	8.848	0.100
75.500	4.304	0.100
75.600	-2.202	0.100
75.700	-5.583	0.100
75.800	15.072	0.100
75.900	1.194	0.100
76.000	-1.869	0.100
76.100	-12.828	0.100
76.200	-5.465	0.100
76.300	11.046	0.100
76.400	-1.762	0.100
76.500	3.797	0.100
76.600	3.150	0.100
76.700	-2.424	0.100
76.800	8.272	0.100
76.900	0.589	0.100
77.000	3.960	0.100
77.100	6.937	0.100
77.200	-8.137	0.100
77.300	-9.231	0.100
77.400	3.401	0.100
77.500	1.056	0.100
77.600	-3.061	0.100
77.700	-3.222	0.100
77.800	8.681	0.100
77.900	16.528	0.100
78.000	8.884	0.100
78.100	10.612	0.100
78.200	-4.842	0.100
78.300	-13.947	0.100
78.400	-9.919	0.100
78.500	5.177	0.100
78.600	18.803	0.100
78.700	-8.719	0.100
78.800	13.840	0.100
78.900	-16.109	0.100
79.000	18.259	0.100
79.100	-28.633	0.100
79.200	-5.108	0.100
79.300	-15.979	0.100
79.400	1.024	0.100
79.500	-9.900	0.100
79.600	2.975	0.100
79.700	-3.279	0.100
79.800	14.824	0.100
79.900	-4.292	0.100
80.000	-3.255	0.100
80.100	11.304	0.100
80.200	-5.143	0.100
80.300	-5.048	0.100
80.400	9.424	0.100
80.500	-19.978	0.100
80.600	3.280	0.100
80.700	-7.671	0.100
80.800	-7.396	0.100
80.900	-11.371	0.100
81.000	17.909	0.100
81.100	10.714	0.100
81.200	-15.388	0.100
81.300	-2.735	0.100
81.400	-2.900	0.100
81.500	-1.687	0.100
81.600	6.541	0.100
81.700	-1.066	0.100
81.800	-8.583	0.100
81.900	-18.376	0.100
82.000	-8.230	0.100
82.100	3.405	0.100
82.200	7.370	0.100
82.300	-3.352	0.100
82.400	4.465	0.100
82.500	-26.096	0.100
82.600	-3.584	0.100
82.700	10.722	0.100
82.800	-10.869	0.100
82.900	-3.840	0.100
83.000	-8.708	0.100
83.100	-1.531	0.100
83.200	-21.380	0.100
83.300	-2.968	0.100
83.400	-1.045	0.100
83.500	-0.959	0.100
83.600	-8.194	0.100
83.700	2.987	0.100
83.800	-15.024	0.100
83.900	8.538	0.100
84.000	-7.838	0.100
84.100	-1.830	0.100
84.200	11.640	0.100
84.300	21.228	0.100
84.400	1.140	0.100
84.500	14.365	0.100
84.600	10.106	0.100
84.700	-16.638	0.100
84.800	-4.765	0.100
84.900	7.814	0.100
85.000	-16.459	0.100
85.100	-5.697	0.100
85.200	7.435	0.100
85.300	-13.806	0.100
85.400	-10.751	0.100
85.500	1.462	0.100
85.600	-10.106	0.100
85.700	-7.684	0.100
85.800	-2.016	0.100
85.900	-6.450	0.100
86.000	0.882	0.100
86.100	-8.715	0.100
86.200	4.350	0.100
86.300	2.708	0.100
86.400	4.534	0.100
86.500	-0.768	0.100
86.600	-12.361	0.100
86.700	-0.809	0.100
86.800	15.370	0.100
86.900	-3.694	0.100
87.000	4.137	0.100
87.100	3.529	0.100
87.200	11.145	0.100
87.300	-6.734	0.100
87.400	-2.403	0.100
87.500	-0.005	0.100
87.600	-13.958	0.100
87.700	12.834	0.100
87.800	-2.202	0.100
87.900	-3.846	0.100
88.000	-2.080	0.100
88.100	2.450	0.100
88.200	-2.100	0.100
88.300	-0.114	0.100
88.400	-13.300	0.100
88.500	2.885	0.100
88.600	-11.110	0.100
88.700	1.665	0.100
88.800	-1.649	0.100
88.900	-1.407	0.100
89.000	-0.880	0.100
89.100	-3.649	0.100
89.200	-6.667	0.100
89.300	2.409	0.100
89.400	-12.155	0.100
89.500	-0.809	0.100
89.600	-5.148	0.100
89.700	2.361	0.100
89.800	-6.609	0.100
89.900	0.228	0.100
90.000	-19.708	0.100
90.100	-5.280	0.100
90.200	7.487	0.100
90.300	-2.623	0.100
90.400	-2.182	0.100
90.500	-1.600	0.100
90.600	7.554	0.100
90.700	-14.038	0.100
90.800	-1.146	0.100
90.900	-11.477	0.100
91.000	-6.205	0.100
91.100	-25.202	0.100
91.200	0.466	0.100
91.300	-1.540	0.100
91.400	-14.304	0.100
91.500	-6.035	0.100
91.600	-20.899	0.100
91.700	7.834	0.100
91.800	-15.702	0.100
91.900	-0.008	0.100
92.000	-0.828	0.100
92.100	-1.214	0.100
92.200	-4.639	0.100
92.300	-17.445	0.100
92.400	-28.943	0.100
92.500	-17.084	0.100
92.600	-7.698	0.100
92.700	-11.521	0.100
92.800	-15.405	0.100
92.900	-32.019	0.100
93.000	-25.341	0.100
93.100	-28.410	0.100
93.200	-23.956	0.100
93.300	-11.840	0.100
93.400	-12.779	0.100
93.500	-18.124	0.100
93.600	-20.560	0.100
93.700	-28.127	0.100
93.800	-3.808	0.100
93.900	-28.368	0.100
94.000	-2.506	0.100
94.100	-25.417	0.100
94.200	-6.147	0.100
94.300	-29.154	0.100
94.400	-27.756	0.100
94.500	-16.641	0.100
94.600	-20.793	0.100
94.700	-44.396	0.100
94.800	-9.170	0.100
94.900	-21.429	0.100
95.000	-36.821	0.100
95.100	-47.323	0.100
95.200	-22.512	0.100
95.300	-9.457	0.100
95.400	-38.304	0.100
95.500	-25.432	0.100
95.600	-31.116	0.100
95.700	-24.783	0.100
95.800	-23.597	0.100
95.900	-47.810	0.100
96.000	-11.712	0.100
96.100	-46.328	0.100
96.200	-37.837	0.100
96.300	-12.636	0.100
96.400	-25.387	0.100
96.500	-27.502	0.100
96.600	-39.494	0.100
96.700	-28.554	0.100
96.800	-35.892	0.100
96.900	-36.805	0.100
97.000	-31.760	0.100
97.100	-18.057	0.100
97.200	-28.689	0.100
97.300	-13.284	0.100
97.400	-29.935	0.100
97.500	-48.807	0.100
97.600	-10.596	0.100
97.700	-26.188	0.100
97.800	-28.978	0.100
97.900	-16.539	0.100
98.000	-17.193	0.100
98.100	-27.037	0.100
98.200	-37.268	0.100
98.300	-35.615	0.100
98.400	-33.258	0.100
98.500	-41.817	0.100
98.600	-27.106	0.100
98.700	-43.863	0.100
98.800	-27.494	0.100
98.900	-49.406	0.100
99.000	-12.968	0.100
99.100	-16.535	0.100
99.200	-38.070	0.100
99.300	-51.892	0.100
99.400	-24.002	0.100
99.500	-32.452	0.100
99.600	-45.993	0.100
99.700	-14.740	0.100
99.800	-21.267	0.100
99.900	-18.121	0.100
100.000	-38.876	0.100
100.100	-26.136	0.100
100.200	-32.738	0.100
100.300	-20.450	0.100
100.400	-35.734	0.100
100.500	-14.956	0.100
100.600	-44.834	0.100
100.700	-37.003	0.100
100.800	-24.086	0.100
100.900	-25.443	0.100
101.000	-43.421	0.100
101.100	-40.969	0.100
101.200	-40.046	0.100
101.300	-31.478	0.100
101.400	-48.498	0.100
101.500	-30.109	0.100
101.600	-38.409	0.100
101.700	-43.327	0.100
101.800	-38.893	0.100
101.900	-38.978	0.100
102.000	-22.080	0.100
102.100	-40.494	0.100
102.200	-21.040	0.100
102.300	-23.958	0.100
102.400	-17.094	0.100
102.500	-18.435	0.100
102.600	-38.041	0.100
102.700	-24.095	0.100
102.800	-17.184	0.100
102.900	-31.678	0.100
103.000	-9.920	0.100
103.100	-41.560	0.100
103.200	-32.614	0.100
103.300	-21.256	0.100
103.400	-30.004	0.100
103.500	-32.848	0.100
103.600	-29.458	0.100
103.700	-32.105	0.100
103.800	-25.275	0.100
103.900	-18.350	0.100
104.000	-20.545	0.100
104.100	-34.626	0.100
104.200	-27.350	0.100
104.300	-21.937	0.100
104.400	-47.669	0.100
104.500	-19.658	0.100
104.600	-17.309	0.100
104.700	-25.525	0.100
104.800	-47.152	0.100
104.900	-21.916	0.100
105.000	-30.846	0.100
105.100	-27.632	0.100
105.200	-17.393	0.100
105.300	-58.067	0.100
105.400	-31.629	0.100
105.500	-31.174	0.100
105.600	-35.619	0.100
105.700	-47.196	0.100
105.800	-7.577	0.100
105.900	-15.217	0.100
106.000	-37.456	0.100
106.100	-48.661	0.100
106.200	-60.364	0.100
106.300	-45.466	0.100
106.400	-38.686	0.100
106.500	-41.483	0.100
106.600	-32.009	0.100
106.700	-35.918	0.100
106.800	-36.814	0.100
106.900	-30.042	0.100
107.000	-32.019	0.100
107.100	-35.165	0.100
107.200	-25.871	0.100
107.300	-41.088	0.100
107.400	-35.227	0.100
107.500	-41.026	0.100
107.600	-37.501	0.100
107.700	-14.014	0.100
107.800	-23.602	0.100
107.900	-45.687	0.100
108.000	-33.473	0.100
108.100	-39.009	0.100
108.200	-24.398	0.100
108.300	-17.238	0.100
108.400	-30.685	0.100
108.500	-42.006	0.100
108.600	-17.309	0.100
108.700	-9.986	0.100
108.800	-30.609	0.100
108.900	-33.275	0.100
109.000	-25.720	0.100
109.100	-27.683	0.100
109.200	-37.588	0.100
109.300	-17.792	0.100
109.400	-37.699	0.100
109.500	-36.296	0.100
109.600	-20.853	0.100
109.700	-20.987	0.100
109.800	-3.145	0.100
109.900	-26.721	0.100
110.000	-23.578	0.100
110.100	-31.552	0.100
110.200	-34.771	0.100
110.300	-30.278	0.100
110.400	-34.479	0.100
110.500	-21.876	0.100
110.600	-24.251	0.100
110.700	-40.185	0.100
110.800	-20.983	0.100
110.900	-24.110	0.100
111.000	-23.357	0.100
111.100	-42.546	0.100
111.200	-27.151	0.100
111.300	-28.193	0.100
111.400	-23.043	0.100
111.500	-24.897	0.100
111.600	-17.681	0.100
111.700	-28.895	0.100
111.800	-29.000	0.100
111.900	-27.346	0.100
112.000	-41.827	0.100
112.100	-16.175	0.100
112.200	-17.034	0.100
112.300	-34.149	0.100
112.400	-18.250	0.100
112.500	-19.625	0.100
112.600	-15.209	0.100
112.700	-23.332	0.100
112.800	-26.652	0.100
112.900	-35.070	0.100
113.000	-29.088	0.100
113.100	-28.636	0.100
113.200	-41.415	0.100
113.300	-12.606	0.100
113.400	-27.202	0.100
113.500	-41.937	0.100
113.600	-22.886	0.100
113.700	-28.982	0.100
113.800	-26.440	0.100
113.900	-5.739	0.100
114.000	-25.093	0.100
114.100	-30.843	0.100
114.200	-20.494	0.100
114.300	-18.151	0.100
114.400	-20.532	0.100
114.500	-31.167	0.100
114.600	-31.952	0.100
114.700	-35.803	0.100
114.800	-20.614	0.100
114.900	-0.758	0.100
115.000	-21.336	0.100
115.100	-50.483	0.100
115.200	-23.495	0.100
115.300	-28.602	0.100
115.400	-14.841	0.100
115.500	-38.217	0.100
115.600	-21.170	0.100
115.700	-13.691	0.100
115.800	-0.515	0.100
115.900	-21.122	0.100
116.000	-29.647	0.100
116.100	-25.500	0.100
116.200	-29.746	0.100
116.300	-43.291	0.100
116.400	-27.365	0.100
116.500	-23.802	0.100
116.600	-32.796	0.100
116.700	-44.662	0.100
116.800	-27.026	0.100
116.900	-26.970	0.100
117.000	-36.358	0.100
117.100	-12.314	0.100
117.200	-38.593	0.100
117.300	-19.410	0.100
117.400	-8.256	0.100
117.500	-38.863	0.100
117.600	-26.917	0.100
117.700	-32.934	0.100
117.800	-20.222	0.100
117.900	-31.498	0.100
118.000	-19.523	0.100
118.100	-43.062	0.100
118.200	-24.059	0.100
118.300	-10.980	0.100
118.400	-32.847	0.100
118.500	-18.479	0.100
118.600	-30.552	0.100
118.700	-36.814	0.100
118.800	-12.196	0.100
118.900	-18.250	0.100
119.000	-31.497	0.100
119.100	-32.530	0.100
119.200	-3.447	0.100
119.300	-30.531	0.100
119.400	-21.675	0.100
119.500	-24.943	0.100
119.600	-18.309	0.100
119.700	-3.921	0.100
119.800	-31.230	0.100
119.900	-20.313	0.100
120.000	-31.680	0.100
120.100	-24.762	0.100
120.200	-22.556	0.100
120.300	-38.307	0.100
120.400	-26.210	0.100
120.500	-24.461	0.100
120.600	-35.647	0.100
120.700	-16.854	0.100
120.800	-23.231	0.100
120.900	-27.410	0.100
121.000	-18.939	0.100
121.100	-21.226	0.100
121.200	-20.909	0.100
121.300	-13.997	0.100
121.400	-16.780	0.100
121.500	-41.077	0.100
121.600	-27.641	0.100
121.700	-25.101	0.100
121.800	-13.048	0.100
121.900	-41.163	0.100
122.000	-15.096	0.100
122.100	-21.444	0.100
122.200	-32.648	0.100
122.300	-18.668	0.100
122.400	-13.472	0.100
122.500	-29.090	0.100
122.600	-33.060	0.100
122.700	-36.624	0.100
122.800	-22.229	0.100
122.900	-21.901	0.100
123.000	-15.607	0.100
123.100	-18.335	0.100
123.200	-12.304	0.100
123.300	-18.675	0.100
123.400	-36.874	0.100
123.500	-32.527	0.100
123.600	-24.865	0.100
123.700	-30.772	0.100
123.800	-29.193	0.100
123.900	-27.186	0.100
124.000	-24.702	0.100
124.100	-18.388	0.100
124.200	-47.130	0.100
124.300	-33.230	0.100
124.400	-13.116	0.100
124.500	-29.698	0.100
124.600	-24.354	0.100
124.700	-31.942	0.100
124.800	-16.386	0.100
124.900	-41.982	0.100
125.000	-14.775	0.100
125.100	-20.391	0.100
125.200	-17.577	0.100
125.300	-29.095	0.100
125.400	-34.331	0.100
125.500	-22.104	0.100
125.600	-22.422	0.100
125.700	-18.805	0.100
125.800	-24.719	0.100
125.900	-25.949	0.100
126.000	-10.853	0.100
126.100	-15.028	0.100
126.200	-20.707	0.100
126.300	-40.948	0.100
126.400	-21.619	0.100
126.500	-44.198	0.100
126.600	-21.950	0.100
126.700	-39.552	0.100
126.800	-26.835	0.100
126.900	-37.696	0.100
127.000	-27.721	0.100
127.100	-26.254	0.100
127.200	-36.350	0.100
127.300	-23.370	0.100
127.400	-26.728	0.100
127.500	-20.897	0.100
127.600	-20.297	0.100
127.700	-23.273	0.100
127.800	-34.299	0.100
127.900	-27.591	0.100
128.000	-23.820	0.100
128.100	-33.941	0.100
128.200	-50.453	0.100
128.300	-23.194	0.100
128.400	-18.094	0.100
128.500	-17.048	0.100
128.600	-22.475	0.100
128.700	-16.454	0.100
128.800	-30.804	0.100
128.900	-15.675	0.100
129.000	-24.386	0.100
129.100	-32.194	0.100
129.200	-16.263	0.100
129.300	-23.344	0.100
129.400	-26.306	0.100
129.500	-31.408	0.100
129.600	-38.436	0.100
129.700	-27.328	0.100
129.800	-18.508	0.100
129.900	-33.636	0.100
130.000	-27.400	0.100
130.100	-14.062	0.100
130.200	-27.015	0.100
130.300	-20.358	0.100
130.400	-17.028	0.100
130.500	-38.246	0.100
130.600	-29.053	0.100
130.700	-25.402	0.100
130.800	-25.162	0.100
130.900	-17.038	0.100
131.000	-36.670	0.100
131.100	-31.621	0.100
131.200	-15.263	0.100
131.300	-31.143	0.100
131.400	-31.942	0.100
131.500	-30.050	0.100
131.600	-24.488	0.100
131.700	-28.543	0.100
131.800	-44.351	0.100
131.900	-38.809	0.100
132.000	-30.991	0.100
132.100	-34.683	0.100
132.200	-26.123	0.100
132.300	-21.325	0.100
132.400	-7.356	0.100
132.500	-30.378	0.100
132.600	-36.881	0.100
132.700	-9.962	0.100
132.800	-21.931	0.100
132.900	-22.891	0.100
133.000	-28.468	0.100
133.100	-20.224	0.100
133.200	-21.633	0.100
133.300	-21.469	0.100
133.400	-21.792	0.100
133.500	-27.212	0.100
133.600	-18.747	0.100
133.700	-24.495	0.100
133.800	-20.008	0.100
133.900	-25.534	0.100
134.000	-28.899	0.100
134.100	-31.272	0.100
134.200	-0.351	0.100
134.300	-8.644	0.100
134.400	-24.561	0.100
134.500	-36.013	0.100
134.600	-25.374	0.100
134.700	-32.987	0.100
134.800	-17.291	0.100
134.900	-31.364	0.100
135.000	-12.366	0.100
135.100	-11.457	0.100
135.200	-12.070	0.100
135.300	-14.834	0.100
135.400	-31.887	0.100
135.500	-19.063	0.100
135.600	-15.957	0.100
135.700	-15.420	0.100
135.800	-42.351	0.100
135.900	-35.093	0.100
136.000	-39.638	0.100
136.100	-19.761	0.100
136.200	-8.917	0.100
136.300	-28.530	0.100
136.400	-19.830	0.100
136.500	-19.147	0.100
136.600	-17.147	0.100
136.700	-22.753	0.100
136.800	-33.219	0.100
136.900	-25.564	0.100
137.000	-33.076	0.100
137.100	-6.009	0.100
137.200	-9.825	0.100
137.300	-34.486	0.100
137.400	-16.120	0.100
137.500	-31.373	0.100
137.600	-18.525	0.100
137.700	-19.406	0.100
137.800	-18.549	0.100
137.900	-29.137	0.100
138.000	-16.343	0.100
138.100	-14.115	0.100
138.200	-13.190	0.100
138.300	-23.629	0.100
138.400	-37.201	0.100
138.500	-18.572	0.100
138.600	-33.867	0.100
138.700	-33.773	0.100
138.800	-30.701	0.100
138.900	-22.275	0.100
139.000	-25.920	0.100
139.100	-13.816	0.100
139.200	-27.069	0.100
139.300	-35.854	0.100
139.400	-31.227	0.100
139.500	-20.885	0.100
139.600	-12.891	0.100
139.700	-25.854	0.100
139.800	-23.975	0.100
139.900	-22.616	0.100
140.000	-21.294	0.100
140.100	-25.549	0.100
140.200	-28.639	0.100
140.300	-17.466	0.100
140.400	-10.953	0.100
140.500	-25.371	0.100
140.600	-25.518	0.100
140.700	-21.965	0.100
140.800	-21.867	0.100
140.900	-6.025	0.100
141.000	-15.460	0.100
141.100	-10.004	0.100
141.200	-28.622	0.100
141.300	-29.315	0.100
141.400	-34.509	0.100
141.500	-31.318	0.100
141.600	-35.119	0.100
141.700	-29.559	0.100
141.800	-23.029	0.100
141.900	-26.118	0.100
142.000	-25.572	0.100
142.100	-23.398	0.100
142.200	-30.106	0.100
142.300	-16.581	0.100
142.400	-18.046	0.100
142.500	-28.495	0.100
142.600	-26.059	0.100
142.700	-36.118	0.100
142.800	-21.476	0.100
142.900	-22.683	0.100
143.000	-5.494	0.100
143.100	-13.751	0.100
143.200	-26.155	0.100
143.300	-8.886	0.100
143.400	-15.578	0.100
143.500	-36.004	0.100
143.600	-29.727	0.100
143.700	-34.331	0.100
143.800	-27.343	0.100
143.900	-6.445	0.100
144.000	-28.187	0.100
144.100	-17.697	0.100
144.200	-25.812	0.100
144.300	-33.722	0.100
144.400	-12.861	0.100
144.500	-32.114	0.100
144.600	-28.197	0.100
144.700	-25.822	0.100
144.800	-23.059	0.100
144.900	-27.222	0.100
145.000	-19.393	0.100
145.100	-28.046	0.100
145.200	-17.428	0.100
145.300	-49.295	0.100
145.400	-12.045	0.100
145.500	-27.063	0.100
145.600	-26.494	0.100
145.700	-35.968	0.100
145.800	-26.435	0.100
145.900	-24.646	0.100
146.000	-20.162	0.100
146.100	-28.083	0.100
146.200	-11.108	0.100
146.300	-20.155	0.100
146.400	-18.256	0.100
146.500	-27.910	0.100
146.600	-34.004	0.100
146.700	-8.266	0.100
146.800	-18.849	0.100
146.900	-22.509	0.100
147.000	-24.757	0.100
147.100	-23.851	0.100
147.200	-16.451	0.100
147.300	-33.519	0.100
147.400	-18.202	0.100
147.500	-16.528	0.100
147.600	-40.484	0.100
147.700	-14.991	0.100
147.800	-15.745	0.100
147.900	-28.787	0.100
148.000	-12.955	0.100
148.100	-27.489	0.100
148.200	-20.754	0.100
148.300	-19.164	0.100
148.400	-37.218	0.100
148.500	-27.541	0.100
148.600	-22.874	0.100
148.700	-33.911	0.100
148.800	-8.972	0.100
148.900	-35.782	0.100
149.000	-22.642	0.100
149.100	-31.944	0.100
149.200	-26.635	0.100
149.300	-33.693	0.100
149.400	-18.548	0.100
149.500	-18.646	0.100
149.600	-21.690	0.100
149.700	-32.609	0.100
149.800	-23.595	0.100
149.900	-13.586	0.100
150.000	-28.682	0.100
150.100	-13.622	0.100
150.200	-32.207	0.100
150.300	-19.639	0.100
150.400	-24.122	0.100
150.500	-4.793	0.100
150.600	-24.756	0.100
150.700	-5.149	0.100
150.800	3.336	0.100
150.900	-26.424	0.100
151.000	-14.364	0.100
151.100	-18.543	0.100
151.200	-20.379	0.100
151.300	-16.346	0.100
151.400	-32.538	0.100
151.500	-27.629	0.100
151.600	-23.291	0.100
151.700	-9.989	0.100
151.800	-20.364	0.100
151.900	-26.637	0.100
152.000	-27.283	0.100
152.100	-9.291	0.100
152.200	-24.848	0.100
152.300	-18.776	0.100
152.400	-16.803	0.100
152.500	-32.413	0.100
152.600	-24.045	0.100
152.700	-27.194	0.100
152.800	-27.027	0.100
152.900	-22.146	0.100
153.000	-12.561	0.100
153.100	-2.146	0.100
153.200	-43.483	0.100
153.300	-25.435	0.100
153.400	-15.522	0.100
153.500	-32.572	0.100
153.600	-15.324	0.100
153.700	-11.469	0.100
153.800	-19.196	0.100
153.900	-26.191	0.100
154.000	-16.238	0.100
154.100	-26.068	0.100
154.200	-22.925	0.100
154.300	-29.078	0.100
154.400	-15.595	0.100
154.500	-24.585	0.100
154.600	-17.040	0.100
154.700	-17.874	0.100
154.800	-17.154	0.100
154.900	-16.575	0.100
155.000	-26.913	0.100
155.100	-16.897	0.100
155.200	-12.990	0.100
155.300	-27.322	0.100
155.400	-7.002	0.100
155.500	-17.828	0.100
155.600	-12.922	0.100
155.700	-26.644	0.100
155.800	-10.452	0.100
155.900	-19.906	0.100
156.000	-10.107	0.100
156.100	-4.327	0.100
156.200	-28.589	0.100
156.300	-8.742	0.100
156.400	-27.258	0.100
156.500	-19.262	0.100
156.600	-28.214	0.100
156.700	-15.706	0.100
156.800	-8.840	0.100
156.900	-22.866	0.100
157.000	-30.454	0.100
157.100	-19.068	0.100
157.200	-20.616	0.100
157.300	-28.968	0.100
157.400	-21.424	0.100
157.500	-17.986	0.100
157.600	3.768	0.100
157.700	-14.275	0.100
157.800	-20.319	0.100
157.900	-21.676	0.100
158.000	-34.534	0.100
158.100	-20.949	0.100
158.200	-6.994	0.100
158.300	-4.311	0.100
158.400	-21.547	0.100
158.500	-2.691	0.100
158.600	-17.286	0.100
158.700	-25.499	0.100
158.800	-29.958	0.100
158.900	-19.408	0.100
159.000	-28.226	0.100
159.100	-4.017	0.100
159.200	-3.731	0.100
159.300	-9.908	0.100
159.400	-18.615	0.100
159.500	-5.983	0.100
159.600	-15.150	0.100
159.700	-32.857	0.100
159.800	-18.784	0.100
159.900	-1.127	0.100
160.000	-29.361	0.100
160.100	-16.920	0.100
160.200	-30.670	0.100
160.300	-19.617	0.100
160.400	-19.413	0.100
160.500	-15.711	0.100
160.600	-37.227	0.100
160.700	-25.396	0.100
160.800	-29.119	0.100
160.900	-13.937	0.100
161.000	-5.727	0.100
161.100	-24.118	0.100
161.200	-10.222	0.100
161.300	-10.668	0.100
161.400	-15.017	0.100
161.500	-18.823	0.100
161.600	-21.834	0.100
161.700	-19.198	0.100
161.800	-13.346	0.100
161.900	-19.692	0.100
162.000	-5.174	0.100
162.100	-37.419	0.100
162.200	-18.590	0.100
162.300	-22.939	0.100
162.400	-35.083	0.100
162.500	-16.764	0.100
162.600	-12.958	0.100
162.700	-21.591	0.100
162.800	-12.155	0.100
162.900	-17.001	0.100
163.000	-23.410	0.100
163.100	-12.008	0.100
163.200	-13.823	0.100
163.300	-11.158	0.100
163.400	-16.046	0.100
163.500	-24.254	0.100
163.600	-20.104	0.100
163.700	-23.065	0.100
163.800	-33.290	0.100
163.900	-0.817	0.100
164.000	-32.809	0.100
164.100	-16.476	0.100
164.200	-2.906	0.100
164.300	-23.411	0.100
164.400	-23.350	0.100
164.500	-12.070	0.100
164.600	-14.427	0.100
164.700	-10.809	0.100
164.800	-24.428	0.100
164.900	-17.570	0.100
165.000	-5.303	0.100
165.100	-23.858	0.100
165.200	-30.488	0.100
165.300	-18.925	0.100
165.400	-16.826	0.100
165.500	-16.535	0.100
165.600	-28.460	0.100
165.700	-9.380	0.100
165.800	-3.973	0.100
165.900	-39.584	0.100
166.000	-24.428	0.100
166.100	-7.008	0.100
166.200	-20.840	0.100
166.300	-17.909	0.100
166.400	0.061	0.100
166.500	-12.182	0.100
166.600	-22.503	0.100
166.700	-10.093	0.100
166.800	-15.230	0.100
166.900	-5.097	0.100
167.000	-35.069	0.100
167.100	-7.179	0.100
167.200	-23.771	0.100
167.300	-18.187	0.100
167.400	-29.999	0.100
167.500	-6.753	0.100
167.600	-17.784	0.100
167.700	-5.783	0.100
167.800	-19.138	0.100
167.900	-18.389	0.100
168.000	-17.253	0.100
168.100	-23.068	0.100
168.200	-3.511	0.100
168.300	-19.379	0.100
168.400	-21.677	0.100
168.500	-6.964	0.100
168.600	-7.334	0.100
168.700	-25.653	0.100
168.800	-21.929	0.100
168.900	-17.150	0.100
169.000	-17.082	0.100
169.100	-13.897	0.100
169.200	-36.272	0.100
169.300	-9.217	0.100
169.400	-21.310	0.100
169.500	-24.135	0.100
169.600	-11.202	0.100
169.700	-18.279	0.100
169.800	-22.487	0.100
169.900	-21.756	0.100
170.000	-29.947	0.100
170.100	-5.910	0.100
170.200	-26.677	0.100
170.300	1.425	0.100
170.400	-21.358	0.100
170.500	-25.251	0.100
170.600	-21.056	0.100
170.700	-2.094	0.100
170.800	-22.868	0.100
170.900	-8.340	0.100
171.000	-18.256	0.100
171.100	-33.641	0.100
171.200	-6.850	0.100
171.300	-24.229	0.100
171.400	-9.162	0.100
171.500	-5.457	0.100
171.600	-8.901	0.100
171.700	-12.510	0.100
171.800	-16.650	0.100
171.900	-18.808	0.100
172.000	-21.066	0.100
172.100	-22.036	0.100
172.200	-24.888	0.100
172.300	-25.181	0.100
172.400	-14.896	0.100
172.500	-5.568	0.100
172.600	-21.798	0.100
172.700	-17.127	0.100
172.800	-2.756	0.100
172.900	-22.543	0.100
173.000	-7.434	0.100
173.100	-12.298	0.100
173.200	-18.896	0.100
173.300	-16.029	0.100
173.400	-1.208	0.100
173.500	-6.250	0.100
173.600	-23.549	0.100
173.700	-11.207	0.100
173.800	-8.275	0.100
173.900	-21.086	0.100
174.000	-16.771	0.100
174.100	-4.069	0.100
174.200	-27.197	0.100
174.300	-24.175	0.100
174.400	-19.031	0.100
174.500	-26.424	0.100
174.600	-20.974	0.100
174.700	-11.604	0.100
174.800	-20.973	0.100
174.900	-16.925	0.100
175.000	-22.087	0.100
175.100	4.544	0.100
175.200	-6.325	0.100
175.300	-16.441	0.100
175.400	-8.907	0.100
175.500	-27.750	0.100
175.600	-25.367	0.100
175.700	-12.977	0.100
175.800	-18.726	0.100
175.900	3.432	0.100
176.000	-12.037	0.100
176.100	-26.689	0.100
176.200	-9.983	0.100
176.300	-6.709	0.100
176.400	-8.651	0.100
176.500	-12.616	0.100
176.600	-9.700	0.100
176.700	-9.209	0.100
176.800	-13.023	0.100
176.900	-29.877	0.100
177.000	-2.841	0.100
177.100	-13.943	0.100
177.200	-1.461	0.100
177.300	-16.559	0.100
177.400	-33.129	0.100
177.500	-9.502	0.100
177.600	-11.278	0.100
177.700	-2.063	0.100
177.800	-26.131	0.100
177.900	-22.223	0.100
178.000	0.940	0.100
178.100	-23.039	0.100
178.200	-30.636	0.100
178.300	-18.480	0.100
178.400	-9.542	0.100
178.500	-0.783	0.100
178.600	-17.578	0.100
178.700	-3.531	0.100
178.800	-18.016	0.100
178.900	-21.751	0.100
179.000	-24.809	0.100
179.100	-23.922	0.100
179.200	-4.592	0.100
179.300	-27.903	0.100
179.400	-34.401	0.100
179.500	-37.646	0.100
179.600	-8.587	0.100
179.700	-18.592	0.100
179.800	-3.955	0.100
179.900	-10.523	0.100
180.000	-18.324	0.100
180.100	-13.709	0.100
180.200	-14.857	0.100
180.300	-18.680	0.100
180.400	-6.734	0.100
180.500	-11.793	0.100
180.600	-9.748	0.100
180.700	-2.760	0.100
180.800	-31.997	0.100
180.900	-12.150	0.100
181.000	-20.051	0.100
181.100	-22.768	0.100
181.200	3.693	0.100
181.300	-24.489	0.100
181.400	-20.161	0.100
181.500	0.231	0.100
181.600	-20.736	0.100
181.700	-7.403	0.100
181.800	-13.881	0.100
181.900	-4.586	0.100
182.000	-21.530	0.100
182.100	-23.266	0.100
182.200	4.357	0.100
182.300	-9.409	0.100
182.400	-25.556	0.100
182.500	1.054	0.100
182.600	-16.410	0.100
182.700	-15.086	0.100
182.800	7.006	0.100
182.900	-10.312	0.100
183.000	-7.380	0.100
183.100	-15.567	0.100
183.200	-6.561	0.100
183.300	-3.552	0.100
183.400	-5.694	0.100
183.500	2.460	0.100
183.600	5.382	0.100
183.700	-14.947	0.100
183.800	-2.203	0.100
183.900	1.988	0.100
184.000	-6.672	0.100
184.100	-14.457	0.100
184.200	2.242	0.100
184.300	-8.209	0.100
184.400	5.484	0.100
184.500	-8.863	0.100
184.600	-12.052	0.100
184.700	9.506	0.100
184.800	-19.042	0.100
184.900	-5.859	0.100
185.000	-10.993	0.100
185.100	-1.364	0.100
185.200	6.693	0.100
185.300	5.883	0.100
185.400	21.038	0.100
185.500	8.113	0.100
185.600	10.358	0.100
185.700	6.725	0.100
185.800	11.189	0.100
185.900	-22.190	0.100
186.000	11.784	0.100
186.100	-6.047	0.100
186.200	-0.503	0.100
186.300	-4.613	0.100
186.400	-8.181	0.100
186.500	22.131	0.100
186.600	-5.785	0.100
186.700	-18.974	0.100
186.800	6.991	0.100
186.900	-3.088	0.100
187.000	-8.268	0.100
187.100	-1.843	0.100
187.200	-8.944	0.100
187.300	21.521	0.100
187.400	23.405	0.100
187.500	-4.322	0.100
187.600	-10.969	0.100
187.700	5.582	0.100
187.800	-0.859	0.100
187.900	2.953	0.100
188.000	-3.455	0.100
188.100	-9.725	0.100
188.200	3.064	0.100
188.300	2.513	0.100
188.400	1.174	0.100
188.500	0.924	0.100
188.600	0.997	0.100
188.700	3.941	0.100
188.800	13.980	0.100
188.900	7.658	0.100
189.000	-1.927	0.100
189.100	6.731	0.100
189.200	7.015	0.100
189.300	15.036	0.100
189.400	-0.401	0.100
189.500	-7.817	0.100
189.600	6.590	0.100
189.700	15.928	0.100
189.800	8.509	0.100
189.900	0.567	0.100
190.000	17.335	0.100
190.100	6.560	0.100
190.200	2.944	0.100
190.300	-8.579	0.100
190.400	0.337	0.100
190.500	11.994	0.100
190.600	11.551	0.100
190.700	-1.042	0.100
190.800	-2.311	0.100
190.900	1.372	0.100
191.000	5.527	0.100
191.100	-5.639	0.100
191.200	-6.455	0.100
191.300	-13.497	0.100
191.400	2.111	0.100
191.500	3.407	0.100
191.600	3.980	0.100
191.700	-18.723	0.100
191.800	-2.558	0.100
191.900	8.173	0.100
192.000	2.729	0.100
192.100	-10.356	0.100
192.200	4.186	0.100
192.300	1.743	0.100
192.400	26.283	0.100
192.500	-0.947	0.100
192.600	7.520	0.100
192.700	-4.383	0.100
192.800	14.952	0.100
192.900	-4.449	0.100
193.000	5.841	0.100
193.100	13.600	0.100
193.200	-2.846	0.100
193.300	11.047	0.100
193.400	4.677	0.100
193.500	6.014	0.100
193.600	2.387	0.100
193.700	22.354	0.100
193.800	16.823	0.100
193.900	9.775	0.100
194.000	-15.625	0.100
194.100	22.603	0.100
194.200	2.852	0.100
194.300	6.611	0.100
194.400	6.582	0.100
194.500	27.321	0.100
194.600	8.488	0.100
194.700	2.232	0.100
194.800	2.834	0.100
194.900	-5.875	0.100
195.000	12.471	0.100
195.100	2.883	0.100
195.200	18.957	0.100
195.300	17.796	0.100
195.400	6.450	0.100
195.500	3.831	0.100
195.600	12.323	0.100
195.700	22.374	0.100
195.800	13.171	0.100
195.900	4.783	0.100
196.000	16.809	0.100
196.100	-5.837	0.100
196.200	2.026	0.100
196.300	22.629	0.100
196.400	14.656	0.100
196.500	13.377	0.100
196.600	19.805	0.100
196.700	2.892	0.100
196.800	30.936	0.100
196.900	-0.162	0.100
197.000	8.852	0.100
197.100	9.657	0.100
197.200	12.887	0.100
197.300	0.365	0.100
197.400	10.631	0.100
197.500	16.411	0.100
197.600	19.317	0.100
197.700	8.272	0.100
197.800	32.348	0.100
197.900	26.830	0.100
198.000	12.557	0.100
198.100	12.612	0.100
198.200	6.423	0.100
198.300	-3.936	0.100
198.400	21.311	0.100
198.500	5.119	0.100
198.600	10.602	0.100
198.700	13.653	0.100
198.800	13.502	0.100
198.900	-0.030	0.100
199.000	4.904	0.100
199.100	6.367	0.100
199.200	21.132	0.100
199.300	10.483	0.100
199.400	-2.424	0.100
199.500	9.151	0.100
199.600	13.005	0.100
199.700	14.971	0.100
199.800	5.097	0.100
199.900	16.513	0.100
200.000	21.612	0.100
200.100	21.829	0.100
200.200	11.359	0.100
200.300	8.967	0.100
200.400	2.727	0.100
200.500	20.511	0.100
200.600	9.730	0.100
200.700	17.697	0.100
200.800	16.257	0.100
200.900	5.930	0.100
201.000	10.054	0.100
201.100	10.517	0.100
201.200	13.185	0.100
201.300	41.347	0.100
201.400	15.337	0.100
201.500	19.895	0.100
201.600	9.661	0.100
201.700	11.665	0.100
201.800	26.489	0.100
201.900	10.520	0.100
202.000	14.328	0.100
202.100	32.907	0.100
202.200	33.475	0.100
202.300	1.948	0.100
202.400	27.665	0.100
202.500	25.434	0.100
202.600	13.546	0.100
202.700	24.379	0.100
202.800	16.298	0.100
202.900	4.496	0.100
203.000	21.208	0.100
203.100	29.764	0.100
203.200	14.584	0.100
203.300	13.263	0.100
203.400	39.067	0.100
203.500	-1.541	0.100
203.600	34.106	0.100
203.700	22.474	0.100
203.800	32.613	0.100
203.900	16.804	0.100
204.000	25.741	0.100
204.100	19.552	0.100
204.200	19.930	0.100
204.300	23.410	0.100
204.400	34.397	0.100
204.500	6.972	0.100
204.600	5.100	0.100
204.700	16.456	0.100
204.800	27.621	0.100
204.900	13.368	0.100
205.000	29.300	0.100
205.100	26.351	0.100
205.200	15.641	0.100
205.300	14.089	0.100
205.400	21.592	0.100
205.500	4.101	0.100
205.600	14.035	0.100
205.700	28.293	0.100
205.800	29.108	0.100
205.900	-5.944	0.100
206.000	18.731	0.100
206.100	19.244	0.100
206.200	4.419	0.100
206.300	29.596	0.100
206.400	17.873	0.100
206.500	11.377	0.100
206.600	22.503	0.100
206.700	20.806	0.100
206.800	3.971	0.100
206.900	24.644	0.100
207.000	23.265	0.100
207.100	-0.900	0.100
207.200	21.711	0.100
207.300	27.409	0.100
207.400	7.722	0.100
207.500	-8.076	0.100
207.600	15.049	0.100
207.700	9.835	0.100
207.800	8.397	0.100
207.900	26.974	0.100
208.000	3.975	0.100
208.100	27.293	0.100
208.200	28.799	0.100
208.300	27.164	0.100
208.400	11.787	0.100
208.500	10.652	0.100
208.600	14.919	0.100
208.700	22.294	0.100
208.800	19.403	0.100
208.900	14.935	0.100
209.000	28.729	0.100
209.100	11.229	0.100
209.200	16.289	0.100
209.300	20.287	0.100
209.400	23.936	0.100
209.500	7.789	0.100
209.600	28.246	0.100
209.700	8.631	0.100
209.800	7.681	0.100
209.900	19.452	0.100
210.000	17.935	0.100
210.100	8.777	0.100
210.200	11.773	0.100
210.300	14.993	0.100
210.400	19.882	0.100
210.500	15.216	0.100
210.600	6.847	0.100
210.700	7.189	0.100
210.800	12.955	0.100
210.900	28.594	0.100
211.000	16.874	0.100
211.100	23.359	0.100
211.200	14.108	0.100
211.300	19.991	0.100
211.400	18.928	0.100
211.500	1.238	0.100
211.600	14.893	0.100
211.700	8.202	0.100
211.800	-1.999	0.100
211.900	11.886	0.100
212.000	25.279	0.100
212.100	5.694	0.100
212.200	27.881	0.100
212.300	16.867	0.100
212.400	32.540	0.100
212.500	7.172	0.100
212.600	8.497	0.100
212.700	16.018	0.100
212.800	25.255	0.100
212.900	12.732	0.100
213.000	11.934	0.100
213.100	5.973	0.100
213.200	20.128	0.100
213.300	14.797	0.100
213.400	10.168	0.100
213.500	9.328	0.100
213.600	5.342	0.100
213.700	19.342	0.100
213.800	24.768	0.100
213.900	0.955	0.100
214.000	13.848	0.100
214.100	0.244	0.100
214.200	11.527	0.100
214.300	-3.199	0.100
214.400	13.023	0.100
214.500	15.356	0.100
214.600	19.419	0.100
214.700	3.109	0.100
214.800	24.719	0.100
214.900	8.382	0.100
215.000	13.042	0.100
215.100	0.928	0.100
215.200	13.867	0.100
215.300	8.976	0.100
215.400	10.956	0.100
215.500	11.073	0.100
215.600	0.648	0.100
215.700	21.314	0.100
215.800	10.595	0.100
215.900	29.782	0.100
216.000	0.520	0.100
216.100	33.263	0.100
216.200	24.078	0.100
216.300	5.146	0.100
216.400	11.565	0.100
216.500	13.705	0.100
216.600	12.085	0.100
216.700	17.224	0.100
216.800	0.817	0.100
216.900	0.596	0.100
217.000	6.985	0.100
217.100	23.501	0.100
217.200	3.715	0.100
217.300	13.940	0.100
217.400	8.774	0.100
217.500	16.643	0.100
217.600	4.792	0.100
217.700	7.294	0.100
217.800	5.237	0.100
217.900	21.776	0.100
218.000	14.836	0.100
218.100	17.696	0.100
218.200	14.039	0.100
218.300	13.521	0.100
218.400	29.900	0.100
218.500	5.281	0.100
218.600	17.787	0.100
218.700	6.935	0.100
218.800	11.687	0.100
218.900	10.227	0.100
219.000	-4.456	0.100
219.100	18.964	0.100
219.200	3.566	0.100
219.300	27.868	0.100
219.400	6.623	0.100
219.500	3.138	0.100
219.600	12.993	0.100
219.700	10.733	0.100
219.800	10.916	0.100
219.900	12.817	0.100
220.000	22.836	0.100
220.100	35.466	0.100
220.200	6.323	0.100
220.300	5.943	0.100
220.400	4.910	0.100
220.500	17.196	0.100
220.600	1.866	0.100
220.700	13.712	0.100
220.800	37.423	0.100
220.900	17.521	0.100
221.000	5.598	0.100
221.100	29.945	0.100
221.200	15.504	0.100
221.300	9.800	0.100
221.400	8.722	0.100
221.500	12.277	0.100
221.600	11.956	0.100
221.700	18.866	0.100
221.800	-6.067	0.100
221.900	-4.155	0.100
222.000	-1.128	0.100
222.100	25.552	0.100
222.200	24.075	0.100
222.300	14.746	0.100
222.400	2.545	0.100
222.500	10.431	0.100
222.600	8.430	0.100
222.700	2.885	0.100
222.800	5.750	0.100
222.900	17.234	0.100
223.000	6.488	0.100
223.100	23.703	0.100
223.200	13.714	0.100
223.300	6.617	0.100
223.400	0.877	0.100
223.500	5.872	0.100
223.600	25.236	0.100
223.700	12.077	0.100
223.800	18.109	0.100
223.900	21.454	0.100
224.000	9.304	0.100
224.100	10.114	0.100
224.200	13.165	0.100
224.300	23.112	0.100
224.400	9.959	0.100
224.500	3.999	0.100
224.600	15.306	0.100
224.700	23.391	0.100
224.800	-6.924	0.100
224.900	19.071	0.100
225.000	-6.571	0.100
225.100	10.974	0.100
225.200	14.259	0.100
225.300	9.433	0.100
225.400	9.046	0.100
225.500	2.259	0.100
225.600	12.394	0.100
225.700	-3.514	0.100
225.800	13.451	0.100
225.900	32.460	0.100
226.000	8.471	0.100
226.100	22.042	0.100
226.200	-0.639	0.100
226.300	0.785	0.100
226.400	18.154	0.100
226.500	14.376	0.100
226.600	10.359	0.100
226.700	22.557	0.100
226.800	2.294	0.100
226.900	27.886	0.100
227.000	14.627	0.100
227.100	-4.137	0.100
227.200	10.363	0.100
227.300	24.813	0.100
227.400	6.759	0.100
227.500	22.943	0.100
227.600	13.401	0.100
227.700	6.993	0.100
227.800	18.502	0.100
227.900	0.519	0.100
228.000	17.173	0.100
228.100	26.821	0.100
228.200	8.066	0.100
228.300	13.600	0.100
228.400	11.909	0.100
228.500	10.669	0.100
228.600	9.175	0.100
228.700	14.636	0.100
228.800	14.834	0.100
228.900	-0.737	0.100
229.000	-3.120	0.100
229.100	13.628	0.100
229.200	12.024	0.100
229.300	0.971	0.100
229.400	11.561	0.100
229.500	15.485	0.100
229.600	5.632	0.100
229.700	8.663	0.100
229.800	15.213	0.100
229.900	11.216	0.100
230.000	20.825	0.100
230.100	-0.721	0.100
230.200	22.267	0.100
230.300	3.898	0.100
230.400	1.481	0.100
230.500	12.712	0.100
230.600	23.360	0.100
230.700	2.201	0.100
230.800	6.771	0.100
230.900	7.082	0.100
231.000	-3.152	0.100
231.100	10.707	0.100
231.200	18.685	0.100
231.300	15.082	0.100
231.400	-11.115	0.100
231.500	2.208	0.100
231.600	-0.663	0.100
231.700	19.988	0.100
231.800	-10.527	0.100
231.900	3.572	0.100
232.000	10.882	0.100
232.100	4.513	0.100
232.200	-1.459	0.100
232.300	-24.695	0.100
232.400	-11.489	0.100
232.500	4.983	0.100
232.600	8.015	0.100
232.700	1.443	0.100
232.800	-7.786	0.100
232.900	-3.787	0.100
233.000	12.289	0.100
233.100	23.861	0.100
233.200	8.334	0.100
233.300	5.749	0.100
233.400	10.385	0.100
233.500	20.553	0.100
233.600	16.277	0.100
233.700	18.565	0.100
233.800	1.813	0.100
233.900	15.619	0.100
234.000	6.358	0.100
234.100	8.315	0.100
234.200	14.878	0.100
234.300	11.446	0.100
234.400	4.383	0.100
234.500	14.165	0.100
234.600	22.861	0.100
234.700	2.736	0.100
234.800	10.894	0.100
234.900	-1.711	0.100
235.000	14.737	0.100
235.100	0.614	0.100
235.200	18.065	0.100
235.300	3.803	0.100
235.400	13.951	0.100
235.500	3.035	0.100
235.600	-3.898	0.100
235.700	-0.486	0.100
235.800	6.674	0.100
235.900	13.285	0.100
236.000	11.623	0.100
236.100	14.706	0.100
236.200	21.163	0.100
236.300	-5.562	0.100
236.400	-3.520	0.100
236.500	11.822	0.100
236.600	-6.810	0.100
236.700	11.388	0.100
236.800	28.281	0.100
236.900	4.004	0.100
237.000	3.619	0.100
237.100	-3.657	0.100
237.200	9.415	0.100
237.300	16.089	0.100
237.400	0.832	0.100
237.500	4.903	0.100
237.600	-3.008	0.100
237.700	16.246	0.100
237.800	0.701	0.100
237.900	4.603	0.100
238.000	15.037	0.100
238.100	10.489	0.100
238.200	-3.544	0.100
238.300	-4.711	0.100
238.400	-18.611	0.100
238.500	11.747	0.100
238.600	8.179	0.100
238.700	3.053	0.100
238.800	16.324	0.100
238.900	6.171	0.100
239.000	-6.491	0.100
239.100	-6.924	0.100
239.200	9.754	0.100
239.300	-13.752	0.100
239.400	3.742	0.100
239.500	18.841	0.100
239.600	-9.879	0.100
239.700	5.306	0.100
239.800	0.856	0.100
239.900	-11.843	0.100
240.000	11.712	0.100
240.100	-10.759	0.100
240.200	-1.833	0.100
240.300	-18.610	0.100
240.400	-6.699	0.100
240.500	5.350	0.100
240.600	7.352	0.100
240.700	6.670	0.100
240.800	2.602	0.100
240.900	-1.253	0.100
241.000	-16.928	0.100
241.100	-15.430	0.100
241.200	-7.618	0.100
241.300	1.698	0.100
241.400	-14.536	0.100
241.500	1.150	0.100
241.600	-6.036	0.100
241.700	-8.782	0.100
241.800	-14.397	0.100
241.900	-18.173	0.100
242.000	-30.547	0.100
242.100	-6.021	0.100
242.200	-10.250	0.100
242.300	-10.593	0.100
242.400	-2.073	0.100
242.500	-25.015	0.100
242.600	-13.751	0.100
242.700	-13.452	0.100
242.800	-8.535	0.100
242.900	-21.186	0.100
243.000	-24.682	0.100
243.100	-10.270	0.100
243.200	-34.753	0.100
243.300	-6.713	0.100
243.400	-18.651	0.100
243.500	-19.280	0.100
243.600	-12.917	0.100
243.700	-19.111	0.100
243.800	-18.266	0.100
243.900	-20.370	0.100
244.000	-27.300	0.100
244.100	-15.703	0.100
244.200	-19.514	0.100
244.300	-39.451	0.100
244.400	0.819	0.100
244.500	-7.688	0.100
244.600	-29.424	0.100
244.700	-20.094	0.100
244.800	-14.138	0.100
244.900	-3.502	0.100
245.000	-19.886	0.100
245.100	-18.462	0.100
245.200	-31.521	0.100
245.300	-19.496	0.100
245.400	-15.549	0.100
245.500	-29.365	0.100
245.600	-30.441	0.100
245.700	-24.269	0.100
245.800	-26.895	0.100
245.900	-19.246	0.100
246.000	-33.466	0.100
246.100	-31.328	0.100
246.200	-19.159	0.100
246.300	-21.900	0.100
246.400	-38.324	0.100
246.500	-30.080	0.100
246.600	-21.646	0.100
246.700	-25.696	0.100
246.800	-21.400	0.100
246.900	-30.258	0.100
247.000	-30.814	0.100
247.100	-26.155	0.100
247.200	-33.676	0.100
247.300	-18.600	0.100
247.400	-9.682	0.100
247.500	-25.720	0.100
247.600	-27.080	0.100
247.700	-20.788	0.100
247.800	-33.707	0.100
247.900	-22.960	0.100
248.000	-29.499	0.100
248.100	-28.296	0.100
248.200	-24.898	0.100
248.300	-30.986	0.100
248.400	-24.207	0.100
248.500	-34.457	0.100
248.600	-22.219	0.100
248.700	-23.568	0.100
248.800	-27.996	0.100
248.900	-27.566	0.100
249.000	-21.726	0.100
249.100	-20.194	0.100
249.200	-19.822	0.100
249.300	-34.176	0.100
249.400	-14.237	0.100
249.500	-12.196	0.100
249.600	-43.224	0.100
249.700	-15.372	0.100
249.800	-26.092	0.100
249.900	-39.015	0.100
250.000	-25.674	0.100
250.100	-22.144	0.100
250.200	10.792	0.100
250.300	-40.776	0.100
250.400	-17.037	0.100
250.500	-33.950	0.100
250.600	-27.617	0.100
250.700	-31.208	0.100
250.800	-16.738	0.100
250.900	-30.942	0.100
251.000	-31.531	0.100
251.100	-26.794	0.100
251.200	-30.584	0.100
251.300	-31.975	0.100
251.400	-14.839	0.100
251.500	-31.209	0.100
251.600	-30.067	0.100
251.700	-26.333	0.100
251.800	-25.366	0.100
251.900	-32.915	0.100
252.000	-33.597	0.100
252.100	-24.139	0.100
252.200	-33.387	0.100
252.300	-23.139	0.100
252.400	-33.314	0.100
252.500	-35.974	0.100
252.600	-9.094	0.100
252.700	-39.659	0.100
252.800	-29.870	0.100
252.900	-30.029	0.100
253.000	-36.101	0.100
253.100	-38.295	0.100
253.200	-50.031	0.100
253.300	-40.580	0.100
253.400	-37.508	0.100
253.500	-20.267	0.100
253.600	-29.005	0.100
253.700	-48.553	0.100
253.800	-10.318	0.100
253.900	-34.741	0.100
254.000	-37.592	0.100
254.100	-20.911	0.100
254.200	-37.411	0.100
254.300	-20.247	0.100
254.400	-21.657	0.100
254.500	-32.493	0.100
254.600	-25.251	0.100
254.700	-34.713	0.100
254.800	-38.996	0.100
254.900	-32.784	0.100
255.000	-30.297	0.100
255.100	-36.319	0.100
255.200	-25.437	0.100
255.300	-48.232	0.100
255.400	-34.008	0.100
255.500	-23.744	0.100
255.600	-32.650	0.100
255.700	-51.265	0.100
255.800	-50.522	0.100
255.900	-17.342	0.100
256.000	-33.214	0.100
256.100	-40.732	0.100
256.200	-14.550	0.100
256.300	-34.889	0.100
256.400	-21.655	0.100
256.500	-22.703	0.100
256.600	-19.597	0.100
256.700	-38.923	0.100
256.800	-38.522	0.100
256.900	-45.308	0.100
257.000	-43.653	0.100
257.100	-28.445	0.100
257.200	-44.702	0.100
257.300	-36.318	0.100
257.400	-34.173	0.100
257.500	-42.260	0.100
257.600	-18.891	0.100
257.700	-39.216	0.100
257.800	-27.231	0.100
257.900	-50.409	0.100
258.000	-25.480	0.100
258.100	-26.334	0.100
258.200	-40.989	0.100
258.300	-33.793	0.100
258.400	-50.473	0.100
258.500	-33.767	0.100
258.600	-25.569	0.100
258.700	-20.581	0.100
258.800	-29.332	0.100
258.900	-23.493	0.100
259.000	-43.763	0.100
259.100	-28.940	0.100
259.200	-34.018	0.100
259.300	-12.010	0.100
259.400	-31.457	0.100
259.500	-28.788	0.100
259.600	-19.248	0.100
259.700	-37.439	0.100
259.800	-41.240	0.100
259.900	-15.166	0.100
260.000	-39.328	0.100
260.100	-17.003	0.100
260.200	-17.372	0.100
260.300	-24.418	0.100
260.400	-34.669	0.100
260.500	-26.754	0.100
260.600	-40.512	0.100
260.700	-31.731	0.100
260.800	-35.135	0.100
260.900	-28.514	0.100
261.000	-40.750	0.100
261.100	-39.461	0.100
261.200	-41.086	0.100
261.300	-27.475	0.100
261.400	-52.642	0.100
261.500	-39.644	0.100
261.600	-27.052	0.100
261.700	-6.771	0.100
261.800	-41.388	0.100
261.900	-38.323	0.100
262.000	-39.864	0.100
262.100	-38.714	0.100
262.200	-28.934	0.100
262.300	-27.994	0.100
262.400	-40.733	0.100
262.500	-31.858	0.100
262.600	-32.747	0.100
262.700	-50.363	0.100
262.800	-23.914	0.100
262.900	-52.609	0.100
263.000	-41.124	0.100
263.100	-32.855	0.100
263.200	-37.440	0.100
263.300	-27.853	0.100
263.400	-41.231	0.100
263.500	-39.674	0.100
263.600	-41.342	0.100
263.700	-16.884	0.100
263.800	-49.676	0.100
263.900	-14.186	0.100
264.000	-45.395	0.100
264.100	-37.673	0.100
264.200	-39.969	0.100
264.300	-31.168	0.100
264.400	-36.385	0.100
264.500	-37.782	0.100
264.600	-18.940	0.100
264.700	-38.206	0.100
264.800	-32.528	0.100
264.900	-43.243	0.100
265.000	-8.353	0.100
265.100	-43.908	0.100
265.200	-41.487	0.100
265.300	-33.727	0.100
265.400	-37.029	0.100
265.500	-35.944	0.100
265.600	-33.584	0.100
265.700	-37.375	0.100
265.800	-34.121	0.100
265.900	-24.025	0.100
266.000	-38.888	0.100
266.100	-35.734	0.100
266.200	-24.453	0.100
266.300	-37.655	0.100
266.400	-34.093	0.100
266.500	-34.295	0.100
266.600	-52.212	0.100
266.700	-31.883	0.100
266.800	-37.243	0.100
266.900	-28.978	0.100
267.000	-26.105	0.100
267.100	-31.479	0.100
267.200	-54.491	0.100
267.300	-23.604	0.100
267.400	-36.596	0.100
267.500	-25.057	0.100
267.600	-29.884	0.100
267.700	-33.196	0.100
267.800	-35.533	0.100
267.900	-36.928	0.100
268.000	-35.977	0.100
268.100	-23.595	0.100
268.200	-33.022	0.100
268.300	-30.215	0.100
268.400	-30.309	0.100
268.500	-32.168	0.100
268.600	-18.655	0.100
268.700	-35.705	0.100
268.800	-24.819	0.100
268.900	-33.816	0.100
269.000	-47.782	0.100
269.100	-40.059	0.100
269.200	-22.912	0.100
269.300	-32.672	0.100
269.400	-28.369	0.100
269.500	-40.988	0.100
269.600	-25.832	0.100
269.700	-39.813	0.100
269.800	-38.680	0.100
269.900	-34.953	0.100
270.000	-46.065	0.100
270.100	-36.394	0.100
270.200	-26.828	0.100
270.300	-41.812	0.100
270.400	-47.361	0.100
270.500	-22.593	0.100
270.600	-34.206	0.100
270.700	-19.612	0.100
270.800	-42.575	0.100
270.900	-22.340	0.100
271.000	-34.167	0.100
271.100	-28.568	0.100
271.200	-31.659	0.100
271.300	-39.514	0.100
271.400	-30.229	0.100
271.500	-29.368	0.100
271.600	-45.911	0.100
271.700	-32.686	0.100
271.800	-29.340	0.100
271.900	-24.644	0.100
272.000	-31.529	0.100
272.100	-30.395	0.100
272.200	-26.395	0.100
272.300	-38.814	0.100
272.400	-22.493	0.100
272.500	-28.424	0.100
272.600	-39.510	0.100
272.700	-37.102	0.100
272.800	-27.802	0.100
272.900	-44.206	0.100
273.000	-40.230	0.100
273.100	-19.977	0.100
273.200	-43.649	0.100
273.300	-33.177	0.100
273.400	-29.842	0.100
273.500	-29.311	0.100
273.600	-36.651	0.100
273.700	-29.989	0.100
273.800	-30.116	0.100
273.900	-35.971	0.100
274.000	-28.556	0.100
274.100	-19.101	0.100
274.200	-34.852	0.100
274.300	-44.096	0.100
274.400	-10.889	0.100
274.500	-28.153	0.100
274.600	-32.748	0.100
274.700	-22.986	0.100
274.800	-41.880	0.100
274.900	-27.206	0.100
275.000	-36.476	0.100
275.100	-32.654	0.100
275.200	-0.985	0.100
275.300	-31.349	0.100
275.400	-27.958	0.100
275.500	-31.065	0.100
275.600	-32.551	0.100
275.700	-34.168	0.100
275.800	-35.364	0.100
275.900	-32.527	0.100
276.000	-13.347	0.100
276.100	-2.206	0.100
276.200	-28.903	0.100
276.300	-34.260	0.100
276.400	-25.936	0.100
276.500	-33.068	0.100
276.600	-24.256	0.100
276.700	-41.893	0.100
276.800	-29.526	0.100
276.900	-32.915	0.100
277.000	-55.998	0.100
277.100	-41.828	0.100
277.200	-12.846	0.100
277.300	-43.047	0.100
277.400	-27.675	0.100
277.500	-26.194	0.100
277.600	-24.484	0.100
277.700	-31.306	0.100
277.800	-29.099	0.100
277.900	-33.844	0.100
278.000	-3.634	0.100
278.100	-48.130	0.100
278.200	-24.815	0.100
278.300	-27.990	0.100
278.400	-26.253	0.100
278.500	-21.403	0.100
278.600	-21.849	0.100
278.700	-38.713	0.100
278.800	-24.705	0.100
278.900	-25.386	0.100
279.000	-29.703	0.100
279.100	-13.354	0.100
279.200	-35.045	0.100
279.300	-28.405	0.100
279.400	-47.304	0.100
279.500	-14.805	0.100
279.600	-15.970	0.100
279.700	-31.896	0.100
279.800	-35.292	0.100
279.900	-16.688	0.100
280.000	-19.570	0.100
280.100	-35.786	0.100
280.200	-17.013	0.100
280.300	-24.868	0.100
280.400	-24.224	0.100
280.500	-35.883	0.100
280.600	-23.488	0.100
280.700	-32.935	0.100
280.800	-24.049	0.100
280.900	-27.523	0.100
281.000	-29.551	0.100
281.100	-6.343	0.100
281.200	-25.140	0.100
281.300	-30.728	0.100
281.400	-41.926	0.100
281.500	-20.774	0.100
281.600	-27.189	0.100
281.700	-44.088	0.100
281.800	-38.636	0.100
281.900	-35.983	0.100
282.000	-16.140	0.100
282.100	-26.662	0.100
282.200	-32.448	0.100
282.300	-20.413	0.100
282.400	-31.915	0.100
282.500	-35.082	0.100
282.600	-12.502	0.100
282.700	-23.391	0.100
282.800	-58.549	0.100
282.900	-30.196	0.100
283.000	-12.532	0.100
283.100	-27.139	0.100
283.200	-42.549	0.100
283.300	-32.625	0.100
283.400	-28.939	0.100
283.500	-25.658	0.100
283.600	-40.539	0.100
283.700	-17.391	0.100
283.800	-35.649	0.100
283.900	-25.843	0.100
284.000	-11.744	0.100
284.100	-20.242	0.100
284.200	-37.509	0.100
284.300	-27.728	0.100
284.400	-25.266	0.100
284.500	-29.163	0.100
284.600	-14.181	0.100
284.700	-20.320	0.100
284.800	-31.407	0.100
284.900	-33.668	0.100
285.000	-24.080	0.100
285.100	-4.510	0.100
285.200	-28.302	0.100
285.300	-35.653	0.100
285.400	-28.847	0.100
285.500	-27.386	0.100
285.600	-31.201	0.100
285.700	-16.353	0.100
285.800	-42.239	0.100
285.900	-28.036	0.100
286.000	-25.068	0.100
286.100	-21.501	0.100
286.200	-37.323	0.100
286.300	-20.670	0.100
286.400	-33.738	0.100
286.500	-8.217	0.100
286.600	-16.080	0.100
286.700	-14.607	0.100
286.800	-20.615	0.100
286.900	-12.631	0.100
287.000	-22.443	0.100
287.100	-26.693	0.100
287.200	-29.171	0.100
287.300	-13.999	0.100
287.400	-33.768	0.100
287.500	-30.527	0.100
287.600	-48.498	0.100
287.700	-30.551	0.100
287.800	-18.905	0.100
287.900	-26.510	0.100
288.000	-16.810	0.100
288.100	-20.097	0.101
288.200	-33.072	0.100
288.300	-13.478	0.100
288.400	-32.090	0.100
288.500	-37.887	0.100
288.600	-28.199	0.100
288.700	-25.509	0.101
288.800	-19.830	0.100
288.900	-34.930	0.100
289.000	-29.287	0.100
289.100	-20.259	0.100
289.200	-28.189	0.100
289.300	-26.658	0.101
289.400	-24.822	0.100
289.500	-23.894	0.100
289.600	-26.513	0.100
289.700	-30.459	0.100
289.800	-24.322	0.100
289.900	-31.692	0.101
290.000	-25.418	0.100
290.100	-44.653	0.100
290.200	-22.694	0.100
290.300	-28.028	0.100
290.400	-16.568	0.100
290.500	-35.526	0.100
290.600	-26.544	0.100
290.700	-19.548	0.100
290.800	-27.398	0.100
290.900	-29.486	0.100
291.000	-17.029	0.100
291.100	-25.525	0.100
291.200	-40.940	0.100
291.300	-15.562	0.101
291.400	-46.851	0.100
291.500	-20.877	0.100
291.600	-20.017	0.100
291.700	-13.583	0.101
291.800	-19.495	0.101
291.900	-19.509	0.101
292.000	-16.388	0.100
292.100	-18.510	0.101
292.200	-25.785	0.100
292.300	-39.658	0.100
292.400	-28.489	0.100
292.500	-19.802	0.100
292.600	-30.360	0.100
292.700	-5.223	0.100
292.800	-18.627	0.101
292.900	-29.470	0.100
293.000	-23.796	0.100
293.100	-10.867	0.100
293.200	-21.140	0.101
293.300	-22.417	0.100
293.400	-33.214	0.101
293.500	-29.768	0.100
293.600	-24.706	0.101
293.700	-37.850	0.101
293.800	-21.277	0.101
293.900	-12.776	0.101
294.000	-27.348	0.101
294.100	-24.040	0.101
294.200	-28.166	0.100
294.300	-12.624	0.101
294.400	-33.843	0.101
294.500	-34.392	0.101
294.600	-27.632	0.101
294.700	-23.393	0.101
294.800	-27.628	0.101
294.900	-27.938	0.100
295.000	-27.807	0.101
295.100	-18.104	0.101
295.200	-25.416	0.101
295.300	-27.567	0.101
295.400	-26.091	0.101
295.500	-31.623	0.101
295.600	-18.499	0.101
295.700	-48.825	0.101
295.800	-32.800	0.100
295.900	-24.811	0.101
296.000	-34.651	0.101
296.100	-24.167	0.101
296.200	-21.543	0.100
296.300	-35.605	0.101
296.400	-14.748	0.101
296.500	-17.488	0.101
296.600	-16.418	0.100
296.700	-14.280	0.101
296.800	-15.230	0.100
296.900	-27.849	0.101
297.000	-21.320	0.100
297.100	-17.050	0.101
297.200	-31.043	0.100
297.300	-29.942	0.101
297.400	-35.723	0.101
297.500	-19.746	0.101
297.600	-28.363	0.101
297.700	-4.973	0.101
297.800	-29.374	0.101
297.900	-19.946	0.101
298.000	-21.963	0.101
298.100	-39.899	0.101
298.200	-18.527	0.101
298.300	-17.196	0.101
298.400	-18.962	0.101
298.500	-21.953	0.101
298.600	-19.702	0.101
298.700	-15.890	0.101
298.800	-34.299	0.101
298.900	-17.313	0.101
299.000	-21.228	0.101
299.100	-21.193	0.101
299.200	-22.779	0.101
299.300	-29.475	0.101
299.400	-29.815	0.101
299.500	-11.101	0.101
299.600	-13.495	0.101
299.700	-29.601	0.101
299.800	-29.858	0.101
299.900	-35.970	0.101
300.000	-34.563	0.101
300.100	-41.822	0.101
300.200	-13.922	0.101
300.300	-13.219	0.101
300.400	-27.582	0.101
300.500	-17.395	0.101
300.600	-35.034	0.101
300.700	-9.379	0.101
300.800	-25.634	0.101
300.900	-47.865	0.101
301.000	-21.973	0.101
301.100	-20.023	0.101
301.200	-20.722	0.101
301.300	-18.573	0.101
301.400	-37.603	0.101
301.500	-20.439	0.101
301.600	-17.336	0.101
301.700	-11.570	0.101
301.800	-27.922	0.101
301.900	-27.426	0.101
302.000	-29.458	0.101
302.100	-29.180	0.101
302.200	-30.515	0.101
302.300	-26.706	0.101
302.400	-23.855	0.101
302.500	-23.153	0.101
302.600	-13.232	0.101
302.700	-33.773	0.101
302.800	-29.522	0.101
302.900	-19.327	0.101
303.000	-14.898	0.101
303.100	-16.148	0.101
303.200	-20.365	0.101
303.300	-8.210	0.101
303.400	-24.085	0.101
303.500	-31.266	0.101
303.600	-27.812	0.101
303.700	-19.348	0.101
303.800	-16.060	0.101
303.900	-43.742	0.101
304.000	-0.362	0.101
304.100	-24.916	0.101
304.200	-36.407	0.101
304.300	-16.119	0.101
304.400	-25.516	0.101
304.500	-25.444	0.101
304.600	-24.985	0.101
304.700	-18.784	0.101
304.800	-21.635	0.101
304.900	-34.078	0.101
305.000	-13.513	0.101
305.100	-45.356	0.101
305.200	-15.426	0.101
305.300	-33.433	0.101
305.400	3.968	0.101
305.500	-20.289	0.101
305.600	-19.059	0.101
305.700	-8.447	0.101
305.800	-19.575	0.101
305.900	-36.052	0.101
306.000	-8.940	0.101
306.100	-38.306	0.101
306.200	-15.753	0.101
306.300	-14.359	0.101
306.400	-12.629	0.101
306.500	-29.370	0.101
306.600	-30.042	0.101
306.700	-22.471	0.101
306.800	-19.711	0.101
306.900	-21.104	0.101
307.000	-25.669	0.101
307.100	-17.685	0.101
307.200	-20.497	0.101
307.300	-21.544	0.101
307.400	-29.303	0.101
307.500	-22.602	0.101
307.600	-14.398	0.101
307.700	-24.799	0.101
307.800	-17.598	0.101
307.900	-29.639	0.101
308.000	-18.322	0.101
308.100	-17.171	0.101
308.200	-19.011	0.101
308.300	-24.007	0.101
308.400	-36.567	0.101
308.500	-30.310	0.101
308.600	-17.105	0.101
308.700	-29.336	0.101
308.800	-24.029	0.101
308.900	-34.936	0.101
309.000	-35.325	0.101
309.100	-21.361	0.101
309.200	-24.286	0.101
309.300	-3.326	0.101
309.400	-38.768	0.101
309.500	-8.515	0.101
309.600	-39.427	0.101
309.700	-18.017	0.101
309.800	-28.236	0.101
309.900	-15.767	0.101
310.000	-24.974	0.101
310.100	-19.359	0.101
310.200	-25.595	0.101
310.300	-20.336	0.101
310.400	-27.837	0.101
310.500	-12.898	0.101
310.600	-28.435	0.101
310.700	-23.984	0.101
310.800	-19.580	0.101
310.900	-27.521	0.101
311.000	-12.511	0.101
311.100	-12.872	0.101
311.200	-35.949	0.101
311.300	-6.080	0.101
311.400	-10.525	0.101
311.500	-21.770	0.101
311.600	-23.337	0.101
311.700	-22.710	0.101
311.800	-22.114	0.101
311.900	-18.753	0.101
312.000	5.000	0.101
312.100	-8.636	0.101
312.200	-33.432	0.101
312.300	-23.591	0.101
312.400	-23.504	0.101
312.500	-32.846	0.101
312.600	-26.907	0.101
312.700	-9.549	0.101
312.800	-25.938	0.101
312.900	-11.150	0.101
313.000	-15.627	0.101
313.100	-32.251	0.101
313.200	-2.419	0.101
313.300	-30.325	0.101
313.400	-25.473	0.101
313.500	-20.888	0.101
313.600	1.999	0.101
313.700	-31.129	0.101
313.800	-23.703	0.101
313.900	-17.294	0.101
314.000	-37.006	0.101
314.100	-19.732	0.101
314.200	-10.890	0.101
314.300	-10.676	0.101
314.400	-14.742	0.101
314.500	-21.505	0.101
314.600	-18.684	0.101
314.700	-35.607	0.101
314.800	-14.639	0.101
314.900	-33.399	0.101
315.000	-26.009	0.101
315.100	-35.024	0.101
315.200	-33.910	0.101
315.300	-12.686	0.101
315.400	-35.029	0.101
315.500	-25.691	0.101
315.600	-17.377	0.101
315.700	-20.313	0.101
315.800	-26.574	0.101
315.900	-33.152	0.101
316.000	-25.888	0.101
316.100	-25.511	0.101
316.200	-25.355	0.101
316.300	-9.661	0.101
316.400	-22.660	0.101
316.500	-12.882	0.101
316.600	-28.834	0.101
316.700	-18.995	0.101
316.800	-25.009	0.101
316.900	-30.877	0.101
317.000	-21.875	0.101
317.100	4.410	0.101
317.200	-21.754	0.101
317.300	-31.887	0.101
317.400	-29.499	0.101
317.500	-19.034	0.101
317.600	-14.295	0.101
317.700	-51.263	0.101
317.800	-23.014	0.101
317.900	-21.389	0.101
318.000	-4.005	0.101
318.100	-29.618	0.101
318.200	-28.267	0.101
318.300	-27.153	0.101
318.400	-36.220	0.101
318.500	-9.675	0.101
318.600	-21.330	0.101
318.700	-36.664	0.101
318.800	-34.432	0.101
318.900	-30.090	0.101
319.000	-15.467	0.101
319.100	-51.828	0.101
319.200	-26.878	0.101
319.300	-29.140	0.101
319.400	-14.421	0.101
319.500	-51.006	0.101
319.600	-14.607	0.101
319.700	-23.183	0.101
319.800	-24.963	0.101
319.900	-12.277	0.101
320.000	-23.765	0.101
320.100	-16.531	0.101
320.200	-23.382	0.101
320.300	-19.927	0.101
320.400	-32.190	0.101
320.500	-26.481	0.101
320.600	-37.850	0.101
320.700	-20.448	0.101
320.800	-16.880	0.101
320.900	-13.584	0.101
321.000	-29.215	0.101
321.100	-20.717	0.101
321.200	-27.863	0.101
321.300	-23.285	0.101
321.400	-15.649	0.101
321.500	-23.839	0.101
321.600	-11.717	0.101
321.700	-10.872	0.101
321.800	-12.378	0.101
321.900	-3.828	0.101
322.000	-32.783	0.101
322.100	-24.925	0.101
322.200	-30.945	0.101
322.300	-13.171	0.101
322.400	-22.129	0.101
322.500	-19.558	0.101
322.600	-8.157	0.101
322.700	-29.939	0.101
322.800	-32.323	0.101
322.900	-22.668	0.101
323.000	-14.733	0.101
323.100	-18.694	0.101
323.200	-24.622	0.101
323.300	-7.134	0.101
323.400	-25.782	0.101
323.500	-9.738	0.101
323.600	-22.453	0.101
323.700	-12.067	0.101
323.800	-27.459	0.101
323.900	-23.473	0.101
324.000	-27.208	0.101
324.100	-11.632	0.101
324.200	-40.879	0.101
324.300	-26.024	0.101
324.400	-21.956	0.101
324.500	-26.956	0.101
324.600	-17.989	0.101
324.700	-27.964	0.101
324.800	-14.819	0.101
324.900	-28.922	0.101
325.000	-13.841	0.101
325.100	-27.114	0.101
325.200	-30.875	0.101
325.300	-12.945	0.101
325.400	-25.332	0.101
325.500	-11.637	0.101
325.600	-21.129	0.101
325.700	-35.941	0.101
325.800	-30.552	0.101
325.900	-29.265	0.101
326.000	-24.783	0.101
326.100	-5.589	0.101
326.200	-17.661	0.101
326.300	-22.488	0.101
326.400	-25.472	0.101
326.500	-34.731	0.101
326.600	-39.078	0.101
326.700	-40.902	0.101
326.800	-50.441	0.101
326.900	-47.104	0.101
327.000	-39.172	0.101
327.100	-39.659	0.101
327.200	-44.541	0.101
327.300	-20.416	0.101
327.400	-17.532	0.101
327.500	-25.488	0.101
327.600	-17.565	0.101
327.700	-47.285	0.101
327.800	-16.003	0.101
327.900	-27.604	0.101
328.000	-28.585	0.101
328.100	-26.683	0.101
328.200	-26.141	0.101
328.300	-14.712	0.101
328.400	-38.343	0.101
328.500	-19.172	0.101
328.600	-18.078	0.101
328.700	-31.539	0.101
328.800	-11.197	0.101
328.900	-15.038	0.101
329.000	-24.571	0.101
329.100	-33.715	0.101
329.200	-21.017	0.101
329.300	-10.710	0.101
329.400	-16.395	0.101
329.500	-17.590	0.101
329.600	-24.609	0.101
329.700	-36.902	0.101
329.800	-16.747	0.101
329.900	-21.374	0.101
330.000	-18.369	0.101
330.100	-17.802	0.101
330.200	-24.315	0.101
330.300	-36.306	0.101
330.400	-31.901	0.101
330.500	-7.878	0.101
330.600	-22.939	0.101
330.700	-24.215	0.101
330.800	1.004	0.101
330.900	2.945	0.101
331.000	-23.237	0.101
331.100	-7.933	0.101
331.200	-19.963	0.101
331.300	-22.482	0.101
331.400	-11.162	0.101
331.500	-11.786	0.101
331.600	-9.727	0.101
331.700	-27.211	0.101
331.800	-19.896	0.101
331.900	2.417	0.101
332.000	-2.272	0.101
332.100	7.087	0.101
332.200	-0.969	0.101
332.300	2.771	0.101
332.400	-9.121	0.101
332.500	2.739	0.101
332.600	14.108	0.101
332.700	-9.612	0.101
332.800	-20.935	0.101
332.900	4.597	0.101
333.000	-0.126	0.101
333.100	0.472	0.101
333.200	-21.937	0.100
333.300	2.723	0.100
333.400	-3.594	0.100
333.500	-5.543	0.100
333.600	-20.827	0.100
333.700	-3.736	0.100
333.800	-3.434	0.100
333.900	-7.957	0.100
334.000	0.418	0.100
334.100	0.499	0.100
334.200	-13.686	0.100
334.300	-1.508	0.100
334.400	-0.015	0.100
334.500	-5.518	0.100
334.600	-17.862	0.100
334.700	-12.211	0.100
334.800	-9.805	0.100
334.900	-0.439	0.100
335.000	-5.917	0.100
335.100	3.966	0.100
335.200	-1.378	0.100
335.300	-5.741	0.100
335.400	-10.565	0.100
335.500	-1.448	0.100
335.600	-20.522	0.100
335.700	-1.824	0.100
335.800	-17.591	0.100
335.900	-21.909	0.100
336.000	7.033	0.100
336.100	-10.687	0.100
336.200	-2.686	0.100
336.300	0.320	0.100
336.400	-7.712	0.100
336.500	-14.763	0.100
336.600	-9.786	0.100
336.700	-14.497	0.100
336.800	-11.960	0.100
336.900	0.950	0.100
337.000	0.300	0.100
337.100	13.775	0.100
337.200	-0.562	0.100
337.300	-16.225	0.100
337.400	3.367	0.100
337.500	0.276	0.100
337.600	-5.701	0.100
337.700	-2.626	0.100
337.800	6.315	0.100
337.900	-11.967	0.100
338.000	-6.697	0.100
338.100	-0.344	0.100
338.200	-9.932	0.100
338.300	-10.275	0.100
338.400	-9.841	0.100
338.500	-3.885	0.100
338.600	-13.515	0.100
338.700	3.137	0.100
338.800	-9.579	0.100
338.900	-2.877	0.100
339.000	2.049	0.100
339.100	3.819	0.100
339.200	7.466	0.100
339.300	-7.669	0.100
339.400	-8.715	0.100
339.500	-2.780	0.100
339.600	-1.309	0.100
339.700	-16.958	0.100
339.800	4.786	0.100
339.900	10.532	0.100
340.000	-8.193	0.100
340.100	-6.201	0.100
340.200	1.841	0.100
340.300	-6.964	0.100
340.400	-1.771	0.100
340.500	-1.674	0.100
340.600	8.053	0.100
340.700	-3.422	0.100
340.800	9.027	0.100
340.900	-3.110	0.100
341.000	-0.535	0.100
341.100	-0.516	0.100
341.200	13.164	0.100
341.300	8.833	0.100
341.400	3.946	0.100
341.500	0.145	0.100
341.600	3.537	0.100
341.700	-16.923	0.100
341.800	1.226	0.100
341.900	13.446	0.100
342.000	11.846	0.100
342.100	5.645	0.100
342.200	-0.449	0.100
342.300	-5.632	0.100
342.400	-0.120	0.100
342.500	-6.441	0.100
342.600	26.715	0.100
342.700	2.077	0.100
342.800	14.503	0.100
342.900	4.801	0.100
343.000	-14.618	0.100
343.100	-3.945	0.100
343.200	9.321	0.100
343.300	5.811	0.100
343.400	3.949	0.100
343.500	0.367	0.100
343.600	-12.984	0.100
343.700	8.881	0.100
343.800	-10.875	0.100
343.900	-8.411	0.100
344.000	8.424	0.100
344.100	5.739	0.100
344.200	24.024	0.100
344.300	-17.045	0.100
344.400	-2.340	0.100
344.500	3.399	0.100
344.600	-2.047	0.100
344.700	13.356	0.100
344.800	6.477	0.100
344.900	-2.313	0.100
345.000	30.287	0.100
345.100	7.744	0.100
345.200	11.627	0.100
345.300	2.495	0.100
345.400	-1.299	0.100
345.500	8.170	0.100
345.600	-5.423	0.100
345.700	9.214	0.100
345.800	12.341	0.100
345.900	12.002	0.100
346.000	13.084	0.100
346.100	11.611	0.100
346.200	33.966	0.100
346.300	14.335	0.100
346.400	27.899	0.100
346.500	11.341	0.100
346.600	1.981	0.100
346.700	17.963	0.100
346.800	12.608	0.100
346.900	19.581	0.100
347.000	7.178	0.100
347.100	17.020	0.100
347.200	13.659	0.100
347.300	16.868	0.100
347.400	9.649	0.100
347.500	-11.644	0.100
347.600	15.135	0.100
347.700	26.005	0.100
347.800	18.081	0.100
347.900	28.792	0.100
348.000	5.459	0.100
348.100	18.841	0.100
348.200	12.348	0.100
348.300	20.521	0.100
348.400	14.923	0.100
348.500	5.913	0.100
348.600	4.192	0.100
348.700	28.410	0.100
348.800	15.873	0.100
348.900	11.153	0.100
349.000	18.772	0.100
349.100	8.934	0.100
349.200	3.008	0.100
349.300	7.823	0.100
349.400	23.594	0.100
349.500	3.464	0.100
349.600	9.201	0.100
349.700	5.738	0.100
349.800	27.072	0.100
349.900	17.460	0.100
350.000	10.496	0.100
350.100	18.939	0.100
350.200	24.707	0.100
350.300	23.192	0.100
350.400	-2.542	0.100
350.500	16.381	0.100
350.600	2.309	0.100
350.700	24.894	0.100
350.800	17.236	0.100
350.900	19.896	0.100
351.000	14.002	0.100
351.100	21.803	0.100
351.200	7.909	0.100
351.300	6.305	0.100
351.400	22.823	0.100
351.500	7.852	0.100
351.600	23.180	0.100
351.700	29.780	0.100
351.800	-3.013	0.100
351.900	16.146	0.100
352.000	17.579	0.100
352.100	15.866	0.100
352.200	1.984	0.100
352.300	6.076	0.100
352.400	6.672	0.100
352.500	23.124	0.100
352.600	3.552	0.100
352.700	5.718	0.100
352.800	17.024	0.100
352.900	14.461	0.100
353.000	7.981	0.100
353.100	17.199	0.100
353.200	32.904	0.100
353.300	2.270	0.100
353.400	15.851	0.100
353.500	27.747	0.100
353.600	29.208	0.100
353.700	16.834	0.100
353.800	19.059	0.100
353.900	22.400	0.100
354.000	9.560	0.100
354.100	40.939	0.100
354.200	-9.926	0.100
354.300	23.569	0.100
354.400	24.066	0.100
354.500	19.536	0.100
354.600	21.102	0.100
354.700	23.682	0.100
354.800	14.530	0.100
354.900	21.843	0.100
355.000	21.115	0.100
355.100	20.299	0.100
355.200	28.654	0.100
355.300	39.020	0.100
355.400	8.069	0.100
355.500	30.134	0.100
355.600	3.994	0.100
355.700	25.630	0.100
355.800	4.829	0.100
355.900	30.869	0.100
356.000	17.649	0.100
356.100	25.722	0.100
356.200	31.633	0.100
356.300	-0.629	0.100
356.400	27.137	0.100
356.500	14.303	0.100
356.600	19.169	0.100
356.700	15.646	0.100
356.800	6.897	0.100
356.900	5.589	0.100
357.000	11.794	0.100
357.100	8.611	0.100
357.200	13.113	0.100
357.300	-0.403	0.100
357.400	28.156	0.100
357.500	23.207	0.100
357.600	20.257	0.100
357.700	12.483	0.100
357.800	9.643	0.100
357.900	13.513	0.100
358.000	16.988	0.100
358.100	27.150	0.100
358.200	4.707	0.100
358.300	9.373	0.100
358.400	22.012	0.100
358.500	21.058	0.100
358.600	34.743	0.100
358.700	16.216	0.100
358.800	0.475	0.100
358.900	3.609	0.100
359.000	39.554	0.100
359.100	37.008	0.100
359.200	18.058	0.100
359.300	14.697	0.100
359.400	9.119	0.100
359.500	25.411	0.100
359.600	19.096	0.100
359.700	3.384	0.100
359.800	27.618	0.100
359.900	18.706	0.100
360.000	34.849	0.100
360.100	-1.900	0.100
360.200	26.211	0.100
360.300	29.112	0.100
360.400	18.541	0.100
360.500	5.712	0.100
360.600	23.272	0.100
360.700	11.815	0.100
360.800	17.347	0.100
360.900	17.645	0.100
361.000	18.460	0.100
361.100	1.138	0.100
361.200	26.875	0.100
361.300	18.093	0.100
361.400	9.805	0.100
361.500	27.234	0.100
361.600	15.511	0.100
361.700	19.308	0.100
361.800	13.301	0.100
361.900	23.358	0.100
362.000	17.683	0.100
362.100	30.259	0.100
362.200	9.979	0.100
362.300	25.439	0.100
362.400	20.744	0.100
362.500	2.512	0.100
362.600	8.311	0.100
362.700	6.410	0.100
362.800	16.335	0.100
362.900	7.226	0.100
363.000	22.449	0.100
363.100	-5.017	0.100
363.200	13.327	0.100
363.300	21.887	0.100
363.400	10.140	0.100
363.500	18.540	0.100
363.600	-3.756	0.100
363.700	21.942	0.100
363.800	3.887	0.100
363.900	12.429	0.100
364.000	17.632	0.100
364.100	9.906	0.100
364.200	12.643	0.100
364.300	30.734	0.100
364.400	17.577	0.100
364.500	35.208	0.100
364.600	29.730	0.100
364.700	7.158	0.100
364.800	19.348	0.100
364.900	19.004	0.100
365.000	6.972	0.100
365.100	19.045	0.100
365.200	4.317	0.100
365.300	14.357	0.100
365.400	25.259	0.100
365.500	10.465	0.100
365.600	20.300	0.100
365.700	15.669	0.100
365.800	10.846	0.100
365.900	20.157	0.100
366.000	12.367	0.100
366.100	15.611	0.100
366.200	25.376	0.100
366.300	18.549	0.100
366.400	-3.406	0.100
366.500	9.284	0.100
366.600	11.925	0.100
366.700	23.208	0.100
366.800	17.270	0.100
366.900	18.113	0.100
367.000	11.194	0.100
367.100	21.416	0.100
367.200	15.403	0.100
367.300	-0.695	0.100
367.400	24.606	0.100
367.500	8.973	0.100
367.600	-3.785	0.100
367.700	15.595	0.100
367.800	22.330	0.100
367.900	9.894	0.100
368.000	18.559	0.100
368.100	19.181	0.100
368.200	10.808	0.100
368.300	17.956	0.100
368.400	25.197	0.100
368.500	21.140	0.100
368.600	-9.996	0.100
368.700	16.400	0.100
368.800	7.150	0.100
368.900	13.593	0.100
369.000	5.255	0.100
369.100	11.073	0.100
369.200	17.310	0.100
369.300	20.883	0.100
369.400	7.603	0.100
369.500	15.618	0.100
369.600	11.890	0.100
369.700	7.238	0.100
369.800	6.153	0.100
369.900	11.664	0.100
370.000	-15.330	0.100
370.100	3.797	0.100
370.200	18.971	0.100
370.300	34.812	0.100
370.400	23.458	0.100
370.500	-0.977	0.100
370.600	8.578	0.100
370.700	3.140	0.100
370.800	13.178	0.100
370.900	7.733	0.100
371.000	22.726	0.100
371.100	11.900	0.100
371.200	3.021	0.100
371.300	-4.612	0.100
371.400	14.446	0.100
371.500	7.339	0.100
371.600	5.585	0.100
371.700	4.028	0.100
371.800	18.369	0.100
371.900	18.369	0.100
372.000	17.820	0.100
372.100	8.977	0.100
372.200	23.654	0.100
372.300	15.488	0.100
372.400	22.140	0.100
372.500	14.860	0.100
372.600	10.079	0.100
372.700	1.456	0.100
372.800	-13.278	0.100
372.900	0.200	0.100
373.000	15.544	0.100
373.100	7.608	0.100
373.200	-0.864	0.100
373.300	-11.280	0.100
373.400	1.163	0.100
373.500	20.142	0.100
373.600	-1.257	0.100
373.700	3.501	0.100
373.800	19.301	0.100
373.900	7.291	0.100
374.000	-4.186	0.100
374.100	33.755	0.100
374.200	14.639	0.100
374.300	7.193	0.100
374.400	3.670	0.100
374.500	8.138	0.100
374.600	5.068	0.100
374.700	15.490	0.100
374.800	6.003	0.100
374.900	10.381	0.100
375.000	6.363	0.100
375.100	19.148	0.100
375.200	16.937	0.100
375.300	10.260	0.100
375.400	7.605	0.100
375.500	3.505	0.100
375.600	-4.865	0.100
375.700	-15.652	0.100
375.800	10.606	0.100
375.900	8.863	0.100
376.000	28.364	0.100
376.100	6.558	0.100
376.200	3.950	0.100
376.300	-12.658	0.100
376.400	13.849	0.100
376.500	25.954	0.100
376.600	14.484	0.100
376.700	31.388	0.100
376.800	18.605	0.100
376.900	1.820	0.100
377.000	24.806	0.100
377.100	16.068	0.100
377.200	-1.477	0.100
377.300	10.956	0.100
377.400	-0.476	0.100
377.500	12.039	0.100
377.600	25.168	0.100
377.700	17.495	0.100
377.800	11.817	0.100
377.900	-2.299	0.100
378.000	18.745	0.100
378.100	8.086	0.100
378.200	-0.455	0.100
378.300	-4.921	0.100
378.400	3.572	0.100
378.500	10.971	0.100
378.600	21.833	0.100
378.700	14.563	0.100
378.800	10.512	0.100
378.900	19.012	0.100
379.000	6.598	0.100
379.100	21.553	0.100
379.200	4.910	0.100
379.300	1.755	0.100
379.400	6.497	0.100
379.500	-4.980	0.100
379.600	11.782	0.100
379.700	7.701	0.100
379.800	-7.112	0.100
379.900	11.735	0.100
380.000	10.578	0.100
380.100	8.999	0.100
380.200	-7.866	0.100
380.300	11.887	0.100
380.400	1.807	0.100
380.500	13.112	0.100
380.600	-6.240	0.100
380.700	10.540	0.100
380.800	12.743	0.100
380.900	12.704	0.100
381.000	10.672	0.100
381.100	3.646	0.100
381.200	-3.522	0.100
381.300	13.083	0.100
381.400	33.552	0.100
381.500	3.847	0.100
381.600	10.303	0.100
381.700	20.850	0.100
381.800	6.185	0.100
381.900	-13.362	0.100
382.000	8.993	0.100
382.100	5.096	0.100
382.200	24.797	0.100
382.300	-1.609	0.100
382.400	10.384	0.100
382.500	6.864	0.100
382.600	-15.759	0.100
382.700	-4.361	0.100
382.800	12.730	0.100
382.900	3.218	0.100
383.000	0.214	0.100
383.100	-2.192	0.100
383.200	2.956	0.100
383.300	4.194	0.100
383.400	17.110	0.100
383.500	13.470	0.100
383.600	-2.552	0.100
383.700	-2.404	0.100
383.800	17.113	0.100
383.900	9.400	0.100
384.000	-10.440	0.100
384.100	7.176	0.100
384.200	-8.454	0.100
384.300	15.315	0.100
384.400	4.525	0.100
384.500	5.031	0.100
384.600	12.443	0.100
384.700	11.405	0.100
384.800	-7.961	0.100
384.900	21.696	0.100
385.000	15.246	0.100
385.100	-17.222	0.100
385.200	10.705	0.100
385.300	5.550	0.100
385.400	17.677	0.100
385.500	13.979	0.100
385.600	-3.786	0.100
385.700	22.072	0.100
385.800	10.417	0.100
385.900	6.344	0.100
386.000	6.628	0.100
386.100	18.737	0.100
386.200	-16.135	0.100
386.300	0.504	0.100
386.400	14.441	0.100
386.500	-6.719	0.100
386.600	7.623	0.100
386.700	0.155	0.100
386.800	1.408	0.100
386.900	14.017	0.100
387.000	2.686	0.100
387.100	1.073	0.100
387.200	10.168	0.100
387.300	2.704	0.100
387.400	4.053	0.100
387.500	-0.289	0.100
387.600	-3.777	0.100
387.700	-10.017	0.100
387.800	11.272	0.100
387.900	12.518	0.100
388.000	7.880	0.100
388.100	20.755	0.100
388.200	0.291	0.100
388.300	-15.458	0.100
388.400	17.516	0.100
388.500	5.499	0.100
388.600	-2.496	0.100
388.700	-3.312	0.100
388.800	4.007	0.100
388.900	13.453	0.100
389.000	8.027	0.100
389.100	10.776	0.100
389.200	18.342	0.100
389.300	-8.503	0.100
389.400	4.219	0.100
389.500	2.444	0.100
389.600	4.350	0.100
389.700	16.869	0.100
389.800	18.504	0.100
389.900	4.059	0.100
390.000	8.058	0.100
390.100	13.719	0.100
390.200	-17.543	0.100
390.300	3.282	0.100
390.400	0.132	0.100
390.500	-1.114	0.100
390.600	11.832	0.100
390.700	-4.237	0.100
390.800	2.218	0.100
390.900	-0.276	0.100
391.000	0.740	0.100
391.100	-6.725	0.100
391.200	-15.070	0.100
391.300	-15.113	0.100
391.400	-19.468	0.100
391.500	-15.558	0.100
391.600	-11.543	0.100
391.700	-9.016	0.100
391.800	-3.608	0.100
391.900	-6.573	0.100
392.000	-19.239	0.100
392.100	-6.676	0.100
392.200	-22.651	0.100
392.300	-4.165	0.100
392.400	-8.934	0.100
392.500	9.032	0.100
392.600	-11.265	0.100
392.700	-7.136	0.100
392.800	-27.841	0.100
392.900	-18.389	0.100
393.000	-8.199	0.100
393.100	-17.374	0.100
393.200	-24.286	0.100
393.300	-31.796	0.100
393.400	-9.623	0.100
393.500	-26.800	0.100
393.600	-24.399	0.100
393.700	-31.361	0.100
393.800	-20.919	0.100
393.900	-42.864	0.100
394.000	-4.811	0.100
394.100	-25.047	0.100
394.200	-13.206	0.100
394.300	-5.483	0.100
394.400	-20.561	0.100
394.500	-28.319	0.100
394.600	-11.586	0.100
394.700	-35.534	0.100
394.800	-25.929	0.100
394.900	-19.192	0.100
395.000	-20.610	0.100
395.100	-20.677	0.100
395.200	-24.777	0.100
395.300	-25.582	0.100
395.400	-32.501	0.100
395.500	-17.508	0.100
395.600	-11.842	0.100
395.700	-31.205	0.100
395.800	-25.904	0.100
395.900	-24.347	0.100
396.000	-22.071	0.100
396.100	-20.038	0.100
396.200	-17.725	0.100
396.300	-33.558	0.100
396.400	-39.939	0.100
396.500	-23.410	0.100
396.600	0.552	0.100
396.700	-35.578	0.100
396.800	-17.128	0.100
396.900	-19.417	0.100
397.000	-17.013	0.100
397.100	-12.526	0.100
397.200	-34.799	0.100
397.300	-15.200	0.100
397.400	-9.442	0.100
397.500	-30.367	0.100
397.600	-19.494	0.100
397.700	-11.624	0.100
397.800	-28.194	0.100
397.900	-32.242	0.100
398.000	-20.366	0.100
398.100	-29.082	0.100
398.200	-40.753	0.100
398.300	-25.155	0.100
398.400	-24.437	0.100
398.500	-20.366	0.100
398.600	-23.598	0.100
398.700	-42.152	0.100
398.800	-7.806	0.100
398.900	-20.535	0.100
399.000	-9.852	0.100
399.100	-26.391	0.100
399.200	-25.219	0.100
399.300	-27.267	0.100
399.400	-24.519	0.100
399.500	-13.420	0.100
399.600	-17.445	0.100
399.700	-33.936	0.100
399.800	-24.898	0.100
399.900	-21.230	0.100
400.000	-22.955	0.100
400.100	-24.706	0.100
400.200	-13.520	0.100
400.300	-18.936	0.100
400.400	-37.177	0.100
400.500	-42.316	0.100
400.600	-20.135	0.100
400.700	-18.634	0.100
400.800	-28.303	0.100
400.900	-28.212	0.100
401.000	-22.291	0.100
401.100	-14.848	0.100
401.200	-27.912	0.100
401.300	-18.333	0.100
401.400	-23.127	0.100
401.500	-31.138	0.100
401.600	-8.433	0.100
401.700	-33.565	0.100
401.800	-34.633	0.100
401.900	-42.706	0.100
402.000	-8.297	0.100
402.100	-34.533	0.100
402.200	-29.319	0.100
402.300	-23.829	0.100
402.400	-11.350	0.100
402.500	-33.312	0.100
402.600	-38.926	0.100
402.700	-26.281	0.100
402.800	-20.116	0.100
402.900	-26.239	0.100
403.000	-2.108	0.100
403.100	-28.107	0.100
403.200	-36.430	0.100
403.300	-47.160	0.100
403.400	-30.297	0.100
403.500	-14.146	0.100
403.600	-18.019	0.100
403.700	-27.679	0.100
403.800	-35.250	0.100
403.900	-40.722	0.100
404.000	-29.053	0.100
404.100	-18.682	0.100
404.200	-37.534	0.100
404.300	-51.985	0.100
404.400	-14.249	0.100
404.500	-37.460	0.100
404.600	-15.991	0.100
404.700	-34.401	0.100
404.800	-25.331	0.100
404.900	-29.329	0.100
405.000	-4.075	0.100
405.100	-24.793	0.100
405.200	-44.825	0.100
405.300	-41.811	0.100
405.400	-33.947	0.100
405.500	-48.239	0.100
405.600	-20.458	0.100
405.700	-25.660	0.100
405.800	-46.527	0.100
405.900	-31.896	0.100
406.000	-22.400	0.100
406.100	-39.627	0.100
406.200	-32.462	0.100
406.300	-36.882	0.100
406.400	-21.316	0.100
406.500	-25.120	0.100
406.600	-13.353	0.100
406.700	-21.754	0.100
406.800	-29.218	0.100
406.900	-44.907	0.100
407.000	-19.232	0.100
407.100	-25.919	0.100
407.200	-35.697	0.100
407.300	-21.683	0.100
407.400	-40.047	0.100
407.500	-38.745	0.100
407.600	-39.632	0.100
407.700	-25.158	0.100
407.800	-38.750	0.100
407.900	-35.744	0.100
408.000	-25.684	0.100
408.100	-40.500	0.100
408.200	-28.016	0.100
408.300	-23.238	0.100
408.400	-11.599	0.100
408.500	-24.302	0.100
408.600	-23.735	0.100
408.700	-25.576	0.100
408.800	-34.183	0.100
408.900	-40.112	0.100
409.000	-14.293	0.100
409.100	-33.559	0.100
409.200	-22.102	0.100
409.300	-27.122	0.100
409.400	-26.007	0.100
409.500	-24.260	0.100
409.600	-43.661	0.100
409.700	-21.748	0.100
409.800	-51.633	0.100
409.900	-44.499	0.100
410.000	-20.198	0.100
410.100	-28.369	0.100
410.200	-29.531	0.100
410.300	-39.401	0.100
410.400	-38.994	0.100
410.500	-37.248	0.100
410.600	-44.116	0.100
410.700	-8.251	0.100
410.800	-18.266	0.100
410.900	-33.035	0.100
411.000	-34.699	0.100
411.100	-16.202	0.100
411.200	-14.039	0.100
411.300	-31.695	0.100
411.400	-11.547	0.100
411.500	-22.215	0.100
411.600	-26.167	0.100
411.700	-35.573	0.100
411.800	-22.412	0.100
411.900	-38.608	0.100
412.000	-35.141	0.100
412.100	-11.495	0.100
412.200	-19.590	0.100
412.300	-37.939	0.100
412.400	-46.671	0.100
412.500	-36.730	0.100
412.600	-32.439	0.100
412.700	-29.879	0.100
412.800	-25.476	0.100
412.900	-40.478	0.100
413.000	-27.044	0.100
413.100	-20.895	0.100
413.200	-18.494	0.100
413.300	-30.113	0.100
413.400	-20.067	0.100
413.500	-28.610	0.100
413.600	-30.061	0.100
413.700	-46.698	0.100
413.800	-24.825	0.100
413.900	-31.704	0.100
414.000	-15.965	0.100
414.100	-37.919	0.100
414.200	-39.803	0.100
414.300	-25.246	0.100
414.400	-35.349	0.100
414.500	-37.135	0.100
414.600	-38.688	0.100
414.700	-35.007	0.100
414.800	-29.029	0.100
414.900	-27.993	0.100
415.000	-8.994	0.100
415.100	-37.907	0.100
415.200	-22.113	0.100
415.300	-20.293	0.100
415.400	-42.013	0.100
415.500	-20.896	0.100
415.600	-36.484	0.100
415.700	-30.521	0.100
415.800	-14.702	0.100
415.900	-30.065	0.100
416.000	-19.985	0.100
416.100	-44.742	0.100
416.200	-19.155	0.100
416.300	-26.347	0.100
416.400	-30.696	0.100
416.500	-29.824	0.100
416.600	-33.438	0.100
416.700	-32.978	0.100
416.800	-24.975	0.100
416.900	-30.043	0.100
417.000	-32.048	0.100
417.100	-35.509	0.100
417.200	-22.814	0.100
417.300	-27.729	0.100
417.400	-29.755	0.100
417.500	-31.888	0.100
417.600	-27.200	0.100
417.700	-34.392	0.100
417.800	-21.420	0.100
417.900	-33.260	0.100
418.000	-29.127	0.100
418.100	-37.785	0.100
418.200	-18.701	0.100
418.300	-24.188	0.100
418.400	-29.015	0.100
418.500	-40.264	0.100
418.600	-30.193	0.100
418.700	-49.064	0.100
418.800	-33.087	0.100
418.900	-35.607	0.100
419.000	-38.372	0.100
419.100	-28.222	0.100
419.200	-14.950	0.100
419.300	-42.755	0.100
419.400	-40.198	0.100
419.500	-16.878	0.100
419.600	-25.162	0.100
419.700	-30.235	0.100
419.800	-44.044	0.100
419.900	-33.630	0.100
420.000	-41.227	0.100
420.100	-35.720	0.100
420.200	-36.534	0.100
420.300	-35.231	0.100
420.400	-25.659	0.100
420.500	-20.887	0.100
420.600	-52.415	0.100
420.700	-14.166	0.100
420.800	-43.555	0.100
420.900	-26.366	0.100
421.000	-30.127	0.100
421.100	-34.709	0.100
421.200	-32.044	0.100
421.300	-37.584	0.100
421.400	-30.107	0.100
421.500	-35.863	0.100
421.600	-55.949	0.100
421.700	-22.235	0.100
421.800	-34.831	0.100
421.900	-34.114	0.100
422.000	-32.007	0.100
422.100	-37.362	0.100
422.200	-35.465	0.100
422.300	-17.366	0.100
422.400	-39.526	0.100
422.500	-25.659	0.100
422.600	-49.111	0.100
422.700	-17.880	0.100
422.800	-28.823	0.100
422.900	-37.808	0.100
423.000	-36.141	0.100
423.100	-16.292	0.100
423.200	-19.102	0.100
423.300	-29.790	0.100
423.400	-33.275	0.100
423.500	-41.000	0.100
423.600	-54.878	0.100
423.700	-3.934	0.100
423.800	-28.071	0.100
423.900	-34.601	0.100
424.000	-21.725	0.100
424.100	-34.837	0.100
424.200	-51.726	0.100
424.300	-35.241	0.100
424.400	-30.275	0.100
424.500	-35.055	0.100
424.600	-22.722	0.100
424.700	-35.364	0.100
424.800	-37.076	0.100
424.900	-26.316	0.100
425.000	-13.860	0.100
425.100	-21.093	0.100
425.200	-33.433	0.100
425.300	-23.578	0.100
425.400	-28.705	0.100
425.500	-21.052	0.100
425.600	-32.294	0.100
425.700	-29.636	0.100
425.800	-32.344	0.100
425.900	-43.358	0.100
426.000	-29.583	0.100
426.100	-23.084	0.100
426.200	-23.734	0.100
426.300	-42.398	0.100
426.400	-43.952	0.100
426.500	-25.666	0.100
426.600	-42.873	0.100
426.700	-45.498	0.100
426.800	-37.941	0.100
426.900	-21.107	0.100
427.000	-32.336	0.100
427.100	-41.197	0.100
427.200	-28.286	0.100
427.300	-23.434	0.100
427.400	-40.121	0.100
427.500	-32.626	0.100
427.600	-31.344	0.100
427.700	-39.033	0.100
427.800	-33.675	0.100
427.900	-41.621	0.100
428.000	-13.810	0.100
428.100	-32.263	0.100
428.200	-32.053	0.100
428.300	-26.358	0.100
428.400	-31.330	0.100
428.500	-24.159	0.100
428.600	-3.568	0.100
428.700	-31.160	0.100
428.800	-30.851	0.100
428.900	-17.652	0.100
429.000	-21.362	0.100
429.100	-23.753	0.100
429.200	-40.040	0.100
429.300	-28.355	0.100
429.400	-30.518	0.100
429.500	-39.949	0.100
429.600	-25.782	0.100
429.700	-24.620	0.100
429.800	-45.206	0.100
429.900	-32.177	0.100
430.000	-5.327	0.100
430.100	-44.879	0.100
430.200	-35.008	0.100
430.300	-38.346	0.100
430.400	-31.824	0.100
430.500	-42.099	0.100
430.600	-29.529	0.100
430.700	-34.386	0.100
430.800	-20.160	0.100
430.900	-38.953	0.100
431.000	-36.281	0.100
431.100	-26.718	0.100
431.200	-40.442	0.100
431.300	-22.510	0.100
431.400	-40.270	0.100
431.500	-48.282	0.100
431.600	-10.499	0.100
431.700	-33.616	0.100
431.800	-25.528	0.100
431.900	-24.953	0.100
432.000	-35.363	0.100
432.100	-15.704	0.100
432.200	-25.819	0.100
432.300	-37.340	0.100
432.400	-14.089	0.100
432.500	-45.164	0.100
432.600	-40.598	0.100
432.700	-43.505	0.100
432.800	-33.176	0.100
432.900	-36.294	0.100
433.000	-20.767	0.100
433.100	-39.692	0.100
433.200	-15.783	0.100
433.300	-29.792	0.100
433.400	-21.346	0.100
433.500	-30.741	0.100
433.600	-28.711	0.100
433.700	-43.624	0.100
433.800	-32.560	0.100
433.900	-24.022	0.100
434.000	-25.973	0.100
434.100	-47.437	0.100
434.200	-31.622	0.100
434.300	-15.565	0.100
434.400	-25.852	0.100
434.500	-26.112	0.100
434.600	-24.759	0.100
434.700	-29.510	0.100
434.800	-18.748	0.100
434.900	-22.751	0.100
435.000	-26.391	0.100
435.100	-33.858	0.100
435.200	-33.240	0.100
435.300	-33.831	0.100
435.400	-44.321	0.100
435.500	-37.585	0.100
435.600	-38.203	0.100
435.700	-40.875	0.100
435.800	-29.546	0.100
435.900	-39.276	0.100
436.000	-27.971	0.100
436.100	-22.070	0.100
436.200	-33.630	0.100
436.300	-5.959	0.100
436.400	-43.534	0.100
436.500	-41.594	0.100
436.600	-25.412	0.100
436.700	-24.591	0.100
436.800	-24.773	0.100
436.900	-16.964	0.100
437.000	-16.562	0.100
437.100	-35.848	0.100
437.200	-17.784	0.100
437.300	-36.889	0.100
437.400	-30.920	0.100
437.500	-29.258	0.100
437.600	-46.901	0.100
437.700	-21.576	0.100
437.800	-29.235	0.100
437.900	-32.828	0.100
438.000	-40.196	0.100
438.100	-28.005	0.100
438.200	-31.268	0.100
438.300	-27.711	0.100
438.400	-29.213	0.100
438.500	-55.088	0.100
438.600	-16.288	0.100
438.700	-30.396	0.100
438.800	-11.590	0.100
438.900	-23.670	0.100
439.000	-18.942	0.100
439.100	-38.458	0.100
439.200	-21.381	0.100
439.300	-28.962	0.100
439.400	-21.791	0.100
439.500	-33.464	0.100
439.600	-36.429	0.100
439.700	-26.875	0.100
439.800	-13.761	0.100
439.900	-28.102	0.100
440.000	-22.365	0.100
440.100	-21.255	0.100
440.200	-25.622	0.100
440.300	-55.420	0.100
440.400	-22.190	0.100
440.500	-27.632	0.100
440.600	-29.936	0.100
440.700	-23.372	0.100
440.800	-31.705	0.100
440.900	-17.967	0.100
441.000	-37.699	0.100
441.100	-32.722	0.100
441.200	-9.311	0.100
441.300	-22.472	0.100
441.400	-17.815	0.100
441.500	-31.708	0.100
441.600	-36.332	0.100
441.700	-8.815	0.100
441.800	-38.541	0.100
441.900	-24.512	0.100
442.000	-31.508	0.100
442.100	-29.458	0.100
442.200	-22.790	0.100
442.300	-27.987	0.100
442.400	-28.700	0.100
442.500	-20.724	0.100
442.600	-39.893	0.100
442.700	-11.505	0.100
442.800	-20.940	0.100
442.900	-21.984	0.100
443.000	-26.646	0.100
443.100	-32.570	0.100
443.200	-38.170	0.100
443.300	-36.433	0.100
443.400	-21.389	0.100
443.500	-24.330	0.100
443.600	-28.980	0.100
443.700	-50.247	0.100
443.800	-44.350	0.100
443.900	-39.787	0.100
444.000	-42.560	0.100
444.100	-28.471	0.100
444.200	-32.912	0.100
444.300	-29.549	0.100
444.400	-31.361	0.100
444.500	-37.066	0.100
444.600	-21.457	0.100
444.700	-20.657	0.100
444.800	-34.628	0.100
444.900	-16.665	0.100
445.000	-37.636	0.100
445.100	-23.082	0.100
445.200	2.508	0.100
445.300	-41.328	0.100
445.400	-17.553	0.100
445.500	-33.045	0.100
445.600	-25.543	0.100
445.700	-14.045	0.100
445.800	-19.820	0.100
445.900	-8.813	0.100
446.000	-14.474	0.100
446.100	-26.701	0.100
446.200	-11.557	0.100
446.300	-21.363	0.100
446.400	-18.825	0.100
446.500	-27.455	0.100
446.600	-56.914	0.100
446.700	-17.226	0.100
446.800	-5.697	0.100
446.900	-31.284	0.100
447.000	-16.963	0.100
447.100	-28.321	0.100
447.200	-30.700	0.100
447.300	-18.301	0.100
447.400	-34.513	0.100
447.500	-31.260	0.100
447.600	-28.455	0.100
447.700	-26.873	0.100
447.800	-32.918	0.100
447.900	-39.374	0.100
448.000	-21.325	0.100
448.100	-39.046	0.100
448.200	-15.516	0.100
448.300	-34.757	0.100
448.400	-14.271	0.100
448.500	-39.504	0.100
448.600	-19.655	0.100
448.700	-35.023	0.100
448.800	-17.565	0.100
448.900	-23.689	0.100
449.000	-26.051	0.100
449.100	-21.775	0.100
449.200	-10.185	0.100
449.300	-18.901	0.100
449.400	-20.647	0.100
449.500	-25.941	0.100
449.600	-37.408	0.100
449.700	-32.845	0.100
449.800	-1.778	0.100
449.900	-32.678	0.100
450.000	-7.216	0.100
450.100	-25.233	0.100
450.200	-25.208	0.100
450.300	-27.960	0.100
450.400	-18.489	0.100
450.500	-17.274	0.100
450.600	-12.095	0.100
450.700	-35.327	0.100
450.800	-17.068	0.100
450.900	-3.539	0.100
451.000	-22.561	0.100
451.100	-18.789	0.100
451.200	-30.485	0.100
451.300	-6.665	0.100
451.400	-26.737	0.100
451.500	-16.311	0.100
451.600	-22.741	0.100
451.700	-16.875	0.100
451.800	-3.291	0.100
451.900	-9.092	0.100
452.000	-17.446	0.100
452.100	-8.065	0.100
452.200	-41.423	0.100
452.300	-23.719	0.100
452.400	-14.277	0.100
452.500	-27.305	0.100
452.600	-8.670	0.100
452.700	-20.071	0.100
452.800	-33.660	0.100
452.900	-44.146	0.100
453.000	-22.429	0.100
453.100	-23.325	0.100
453.200	-39.497	0.100
453.300	-17.513	0.100
453.400	-21.310	0.100
453.500	-12.522	0.100
453.600	-30.823	0.100
453.700	-5.026	0.100
453.800	-30.078	0.100
453.900	-25.050	0.100
454.000	-34.970	0.100
454.100	-16.255	0.100
454.200	-28.180	0.100
454.300	-33.642	0.100
454.400	-12.879	0.100
454.500	-9.327	0.100
454.600	-42.184	0.100
454.700	-23.072	0.100
454.800	-8.807	0.100
454.900	-26.908	0.100
455.000	-13.159	0.100
455.100	-29.293	0.100
455.200	-14.943	0.100
455.300	-28.396	0.100
455.400	-15.176	0.100
455.500	-7.560	0.100
455.600	-43.324	0.100
455.700	-0.289	0.100
455.800	-38.507	0.100
455.900	-35.236	0.100
456.000	-48.394	0.100
456.100	-14.718	0.100
456.200	-0.343	0.100
456.300	-12.396	0.100
456.400	-3.945	0.100
456.500	-0.160	0.100
456.600	-8.834	0.100
456.700	-9.606	0.100
456.800	-1.029	0.100
456.900	0.186	0.100
457.000	-2.784	0.100
457.100	-2.781	0.100
457.200	-41.817	0.100
457.300	-1.439	0.100
457.400	-19.574	0.100
457.500	-2.574	0.100
457.600	-19.036	0.100
457.700	-26.202	0.100
457.800	-41.639	0.100
457.900	-20.215	0.100
458.000	-17.484	0.100
458.100	-17.099	0.100
458.200	-25.500	0.100
458.300	-13.015	0.100
458.400	-20.774	0.100
458.500	-23.320	0.100
458.600	-16.821	0.100
458.700	-18.384	0.100
458.800	-14.899	0.100
458.900	-15.129	0.100
459.000	-27.637	0.100
459.100	-13.221	0.100
459.200	-24.746	0.100
459.300	-27.986	0.100
459.400	-11.467	0.100
459.500	-26.128	0.100
459.600	-25.829	0.100
459.700	-35.618	0.100
459.800	-21.291	0.100
459.900	-85.634	0.100
460.000	-136.221	0.100
460.100	-164.598	0.100
460.200	-157.454	0.100
460.300	-124.066	0.100
460.400	-118.109	0.100
460.500	-120.950	0.100
460.600	-113.119	0.100
460.700	-118.195	0.100
460.800	-85.304	0.100
460.900	-96.768	0.100
461.000	-102.013	0.100
461.100	-90.119	0.100
461.200	-80.374	0.100
461.300	-82.816	0.100
461.400	-66.608	0.100
461.500	-75.188	0.100
461.600	-67.922	0.100
461.700	-68.386	0.100
461.800	-73.079	0.100
461.900	-66.384	0.100
462.000	-68.303	0.100
462.100	-70.672	0.100
462.200	-66.251	0.100
462.300	-43.319	0.100
462.400	-53.060	0.100
462.500	-60.580	0.100
462.600	-65.120	0.100
462.700	-66.861	0.100
462.800	-61.642	0.100
462.900	16.458	0.100
463.000	92.163	0.100
463.100	105.891	0.100
463.200	91.625	0.100
463.300	85.230	0.100
463.400	58.010	0.100
463.500	74.101	0.100
463.600	52.544	0.100
463.700	45.204	0.100
463.800	28.397	0.100
463.900	15.567	0.100
464.000	29.583	0.100
464.100	14.188	0.100
464.200	18.787	0.100
464.300	11.731	0.100
464.400	-0.918	0.100
464.500	5.440	0.100
464.600	16.006	0.100
464.700	-7.825	0.100
464.800	5.671	0.100
464.900	2.851	0.100
465.000	8.241	0.100
465.100	-25.034	0.100
465.200	-6.062	0.100
465.300	-16.999	0.100
465.400	4.801	0.100
465.500	-20.739	0.100
465.600	-20.424	0.100
465.700	0.942	0.100
465.800	-7.865	0.100
465.900	0.322	0.100
466.000	-15.403	0.100
466.100	-14.150	0.100
466.200	-14.571	0.100
466.300	-5.200	0.100
466.400	-19.265	0.100
466.500	-3.905	0.100
466.600	-11.940	0.100
466.700	-20.985	0.100
466.800	-15.130	0.100
466.900	-18.848	0.100
467.000	-9.005	0.100
467.100	-6.718	0.100
467.200	-22.305	0.100
467.300	-13.475	0.100
467.400	-9.083	0.100
467.500	-18.364	0.100
467.600	-15.034	0.100
467.700	-21.209	0.100
467.800	-6.634	0.100
467.900	-21.245	0.100
468.000	-12.383	0.100
468.100	-20.188	0.100
468.200	-35.701	0.100
468.300	-18.286	0.100
468.400	-6.270	0.100
468.500	-12.523	0.100
468.600	-27.031	0.100
468.700	-26.018	0.100
468.800	1.162	0.100
468.900	-12.227	0.100
469.000	-4.648	0.100
469.100	-21.575	0.100
469.200	-19.321	0.100
469.300	-14.743	0.100
469.400	-11.491	0.100
469.500	-35.489	0.100
469.600	1.971	0.100
469.700	-33.561	0.100
469.800	-18.355	0.100
469.900	-16.123	0.100
470.000	-22.595	0.100
470.100	5.949	0.100
470.200	-19.387	0.100
470.300	-33.679	0.100
470.400	-7.938	0.100
470.500	-25.329	0.100
470.600	-20.124	0.100
470.700	-10.835	0.100
470.800	-4.833	0.100
470.900	-15.407	0.100
471.000	-23.525	0.100
471.100	-6.153	0.100
471.200	-9.425	0.100
471.300	-2.066	0.100
471.400	-18.196	0.100
471.500	-23.567	0.100
471.600	-5.310	0.100
471.700	-1.921	0.100
471.800	-20.893	0.100
471.900	-18.630	0.100
472.000	-24.260	0.100
472.100	-15.987	0.100
472.200	-14.789	0.100
472.300	-7.295	0.100
472.400	-25.926	0.100
472.500	-22.885	0.100
472.600	-27.401	0.100
472.700	-19.232	0.100
472.800	-13.289	0.100
472.900	-27.659	0.100
473.000	-14.589	0.100
473.100	-27.006	0.100
473.200	-22.733	0.100
473.300	-33.220	0.100
473.400	-25.349	0.100
473.500	-8.736	0.100
473.600	-28.015	0.100
473.700	-24.073	0.100
473.800	-10.501	0.100
473.900	-27.567	0.100
474.000	-21.051	0.100
474.100	-20.138	0.100
474.200	-19.103	0.100
474.300	-53.718	0.100
474.400	-27.759	0.100
474.500	-32.939	0.100
474.600	-18.380	0.100
474.700	-29.560	0.100
474.800	-21.851	0.100
474.900	-24.714	0.100
475.000	-36.002	0.100
475.100	-15.342	0.100
475.200	-44.344	0.100
475.300	-23.678	0.100
475.400	-33.252	0.100
475.500	-17.971	0.100
475.600	-10.796	0.100
475.700	-29.377	0.100
475.800	-19.350	0.100
475.900	-13.528	0.100
476.000	-9.872	0.100
476.100	-26.850	0.100
476.200	-23.409	0.100
476.300	-8.749	0.100
476.400	-28.731	0.100
476.500	-28.827	0.100
476.600	-19.706	0.100
476.700	-23.315	0.100
476.800	-14.789	0.100
476.900	-17.280	0.100
477.000	-34.792	0.100
477.100	-29.308	0.100
477.200	-12.978	0.100
477.300	-9.510	0.100
477.400	-34.373	0.100
477.500	-13.931	0.100
477.600	-33.137	0.100
477.700	-28.810	0.100
477.800	-25.148	0.100
477.900	-9.258	0.100
478.000	-27.931	0.100
478.100	-35.254	0.100
478.200	-30.221	0.100
478.300	-17.494	0.100
478.400	-15.419	0.100
478.500	-8.845	0.100
478.600	-28.355	0.100
478.700	-31.602	0.100
478.800	-21.537	0.100
478.900	-26.821	0.100
479.000	-7.972	0.100
479.100	-15.939	0.100
479.200	-8.097	0.100
479.300	-34.357	0.100
479.400	-10.963	0.100
479.500	-29.442	0.100
479.600	-18.831	0.100
479.700	-12.435	0.100
479.800	-34.489	0.100
479.900	-8.854	0.100
480.000	-12.614	0.100
480.100	-17.831	0.100
480.200	-20.897	0.100
480.300	-23.240	0.100
480.400	-12.193	0.100
480.500	-14.132	0.100
480.600	-32.601	0.100
480.700	-18.493	0.100
480.800	-10.192	0.100
480.900	-15.526	0.100
481.000	-21.292	0.100
481.100	-36.092	0.100
481.200	-15.381	0.100
481.300	-4.012	0.100
481.400	-32.384	0.100
481.500	-19.295	0.100
481.600	8.794	0.100
481.700	4.505	0.100
481.800	-7.167	0.100
481.900	-3.779	0.100
482.000	-4.165	0.100
482.100	-3.738	0.100
482.200	-20.332	0.100
482.300	-3.480	0.100
482.400	1.493	0.100
482.500	-6.374	0.100
482.600	-2.170	0.100
482.700	8.672	0.100
482.800	-2.092	0.100
482.900	-13.752	0.100
483.000	-14.478	0.100
483.100	-4.612	0.100
483.200	4.291	0.100
483.300	3.070	0.100
483.400	-8.362	0.100
483.500	-5.097	0.100
483.600	1.434	0.100
483.700	-5.579	0.100
483.800	10.477	0.100
483.900	-1.610	0.100
484.000	9.282	0.100
484.100	-12.383	0.100
484.200	-3.323	0.100
484.300	3.952	0.100
484.400	-4.965	0.100
484.500	-13.117	0.100
484.600	-7.175	0.100
484.700	-1.147	0.100
484.800	-0.260	0.100
484.900	-3.827	0.100
485.000	-7.705	0.100
485.100	14.792	0.100
485.200	1.330	0.100
485.300	1.451	0.100
485.400	-0.190	0.100
485.500	1.953	0.100
485.600	10.446	0.100
485.700	-9.268	0.100
485.800	7.945	0.100
485.900	9.387	0.100
486.000	-1.565	0.100
486.100	-12.776	0.100
486.200	-4.000	0.100
486.300	10.268	0.100
486.400	11.252	0.100
486.500	-2.583	0.100
486.600	17.415	0.100
486.700	-18.812	0.100
486.800	-2.160	0.100
486.900	-0.624	0.100
487.000	8.264	0.100
487.100	-9.235	0.100
487.200	-7.872	0.100
487.300	6.961	0.100
487.400	23.247	0.100
487.500	8.837	0.100
487.600	-2.376	0.100
487.700	12.050	0.100
487.800	0.133	0.100
487.900	-4.687	0.100
488.000	14.413	0.100
488.100	5.111	0.100
488.200	3.892	0.100
488.300	1.995	0.100
488.400	1.813	0.100
488.500	-0.130	0.100
488.600	-0.250	0.100
488.700	6.840	0.100
488.800	3.796	0.100
488.900	-1.161	0.100
489.000	12.527	0.100
489.100	-2.807	0.100
489.200	0.321	0.100
489.300	9.356	0.100
489.400	0.089	0.100
489.500	-0.471	0.100
489.600	17.401	0.100
489.700	-1.834	0.100
489.800	-1.068	0.100
489.900	-2.168	0.100
490.000	8.997	0.100
490.100	0.857	0.100
490.200	5.967	0.100
490.300	11.163	0.100
490.400	4.170	0.100
490.500	-14.609	0.100
490.600	-9.284	0.100
490.700	-3.592	0.100
490.800	1.074	0.100
490.900	17.056	0.100
491.000	6.279	0.100
491.100	10.982	0.100
491.200	-1.701	0.100
491.300	0.552	0.100
491.400	5.364	0.100
491.500	7.035	0.100
491.600	5.204	0.100
491.700	12.182	0.100
491.800	-13.178	0.100
491.900	8.300	0.100
492.000	8.769	0.100
492.100	14.228	0.100
492.200	18.699	0.100
492.300	1.841	0.100
492.400	-6.155	0.100
492.500	-3.725	0.100
492.600	1.401	0.100
492.700	-15.639	0.100
492.800	21.299	0.100
492.900	18.187	0.100
493.000	11.554	0.100
493.100	8.031	0.100
493.200	-9.055	0.100
493.300	8.514	0.100
493.400	6.888	0.100
493.500	-5.888	0.100
493.600	17.733	0.100
493.700	10.266	0.100
493.800	5.326	0.100
493.900	20.097	0.100
494.000	10.204	0.100
494.100	7.848	0.100
494.200	4.724	0.100
494.300	6.048	0.100
494.400	7.048	0.100
494.500	13.772	0.100
494.600	-19.286	0.100
494.700	12.790	0.100
494.800	-0.795	0.100
494.900	12.751	0.100
495.000	-8.131	0.100
495.100	8.101	0.100
495.200	4.037	0.100
495.300	19.397	0.100
495.400	20.592	0.100
495.500	1.400	0.100
495.600	21.051	0.100
495.700	27.006	0.100
495.800	8.262	0.100
495.900	29.590	0.100
496.000	25.044	0.100
496.100	-6.641	0.100
496.200	3.110	0.100
496.300	25.047	0.100
496.400	52.426	0.100
496.500	17.726	0.100
496.600	6.793	0.100
496.700	26.386	0.100
496.800	10.412	0.100
496.900	22.747	0.100
497.000	25.194	0.100
497.100	27.719	0.100
497.200	19.343	0.100
497.300	14.477	0.100
497.400	23.153	0.100
497.500	18.556	0.100
497.600	22.980	0.100
497.700	26.153	0.100
497.800	5.634	0.100
497.900	28.964	0.100
498.000	12.585	0.100
498.100	11.980	0.100
498.200	25.957	0.100
498.300	10.175	0.100
498.400	22.234	0.100
498.500	20.459	0.100
498.600	10.770	0.100
498.700	22.286	0.100
498.800	8.743	0.100
498.900	36.967	0.100
499.000	29.816	0.100
499.100	19.785	0.100
499.200	12.543	0.100
499.300	25.781	0.100
499.400	30.235	0.100
499.500	11.630	0.100
499.600	28.499	0.100
499.700	33.261	0.100
499.800	4.126	0.100
499.900	36.577	0.100
500.000	22.784	0.100
500.100	27.400	0.100
500.200	34.919	0.100
500.300	15.168	0.100
500.400	14.730	0.100
500.500	30.810	0.100
500.600	18.984	0.100
500.700	30.036	0.100
500.800	30.709	0.100
500.900	27.366	0.100
501.000	24.422	0.100
501.100	29.742	0.100
501.200	18.512	0.100
501.300	16.979	0.100
501.400	14.272	0.100
501.500	10.960	0.100
501.600	37.831	0.100
501.700	44.827	0.100
501.800	19.790	0.100
501.900	30.032	0.100
502.000	35.502	0.100
502.100	17.168	0.100
502.200	19.711	0.100
502.300	-2.850	0.100
502.400	40.712	0.100
502.500	40.944	0.100
502.600	25.527	0.100
502.700	16.291	0.100
502.800	24.765	0.100
502.900	14.074	0.100
503.000	26.923	0.100
503.100	17.891	0.100
503.200	37.199	0.100
503.300	22.870	0.100
503.400	22.613	0.100
503.500	30.990	0.100
503.600	18.012	0.100
503.700	23.920	0.100
503.800	20.014	0.100
503.900	28.476	0.100
504.000	31.754	0.100
504.100	16.043	0.100
504.200	20.399	0.100
504.300	24.343	0.100
504.400	15.870	0.100
504.500	14.478	0.100
504.600	29.762	0.100
504.700	21.841	0.100
504.800	34.988	0.100
504.900	15.456	0.100
505.000	16.809	0.100
505.100	17.264	0.100
505.200	37.205	0.100
505.300	23.539	0.100
505.400	17.900	0.100
505.500	13.562	0.100
505.600	37.557	0.100
505.700	14.280	0.100
505.800	36.556	0.100
505.900	30.455	0.100
506.000	29.875	0.100
506.100	19.343	0.100
506.200	14.069	0.100
506.300	15.572	0.100
506.400	17.988	0.100
506.500	19.650	0.100
506.600	33.653	0.100
506.700	22.135	0.100
506.800	14.780	0.100
506.900	14.984	0.100
507.000	-3.585	0.100
507.100	31.391	0.100
507.200	18.571	0.100
507.300	17.384	0.100
507.400	34.172	0.100
507.500	38.022	0.100
507.600	26.751	0.100
507.700	24.168	0.100
507.800	11.723	0.100
507.900	25.940	0.100
508.000	20.830	0.100
508.100	24.157	0.100
508.200	32.765	0.100
508.300	11.783	0.100
508.400	18.235	0.100
508.500	22.851	0.100
508.600	12.595	0.100
508.700	45.035	0.100
508.800	26.962	0.100
508.900	22.165	0.100
509.000	28.536	0.100
509.100	20.848	0.100
509.200	27.369	0.100
509.300	25.775	0.100
509.400	15.998	0.100
509.500	30.147	0.100
509.600	16.744	0.100
509.700	28.992	0.100
509.800	20.715	0.100
509.900	24.443	0.100
510.000	18.405	0.100
510.100	31.412	0.100
510.200	34.355	0.100
510.300	15.712	0.100
510.400	35.532	0.100
510.500	31.473	0.100
510.600	44.605	0.100
510.700	18.335	0.100
510.800	25.960	0.100
510.900	14.168	0.100
511.000	16.666	0.100
511.100	15.749	0.100
511.200	24.945	0.100
511.300	14.451	0.100
511.400	19.793	0.100
511.500	38.770	0.100
511.600	20.541	0.100
511.700	14.032	0.100
511.800	26.125	0.100
511.900	35.396	0.100
512.000	17.735	0.100
512.100	6.720	0.100
512.200	33.711	0.100
512.300	20.406	0.100
512.400	21.122	0.100
512.500	24.701	0.100
512.600	36.355	0.100
512.700	11.446	0.100
512.800	30.140	0.100
512.900	22.834	0.100
513.000	10.308	0.100
513.100	5.200	0.100
513.200	37.397	0.100
513.300	11.463	0.100
513.400	30.553	0.100
513.500	20.532	0.100
513.600	13.895	0.100
513.700	39.417	0.100
513.800	16.092	0.100
513.900	22.039	0.100
514.000	22.957	0.100
514.100	12.434	0.100
514.200	12.853	0.100
514.300	41.539	0.100
514.400	23.473	0.100
514.500	28.481	0.100
514.600	14.634	0.100
514.700	18.474	0.100
514.800	18.609	0.100
514.900	18.489	0.100
515.000	27.014	0.100
515.100	24.999	0.100
515.200	18.887	0.100
515.300	20.679	0.100
515.400	18.749	0.100
515.500	13.164	0.100
515.600	22.110	0.100
515.700	39.507	0.100
515.800	18.817	0.100
515.900	7.965	0.100
516.000	27.892	0.100
516.100	23.000	0.100
516.200	14.160	0.100
516.300	11.954	0.100
516.400	30.229	0.100
516.500	21.939	0.100
516.600	26.114	0.100
516.700	6.081	0.100
516.800	26.265	0.100
516.900	32.854	0.100
517.000	22.009	0.100
517.100	40.608	0.100
517.200	13.902	0.100
517.300	10.809	0.100
517.400	17.275	0.100
517.500	18.499	0.100
517.600	31.483	0.100
517.700	22.606	0.100
517.800	10.398	0.100
517.900	23.270	0.100
518.000	34.975	0.100
518.100	11.628	0.100
518.200	20.933	0.100
518.300	14.612	0.100
518.400	22.743	0.100
518.500	20.751	0.100
518.600	18.792	0.100
518.700	13.735	0.100
518.800	27.417	0.100
518.900	20.061	0.100
519.000	15.239	0.100
519.100	34.204	0.100
519.200	9.240	0.100
519.300	-3.055	0.100
519.400	10.271	0.100
519.500	17.652	0.100
519.600	29.295	0.100
519.700	13.920	0.100
519.800	10.868	0.100
519.900	15.055	0.100
520.000	18.771	0.100
520.100	32.045	0.100
520.200	8.981	0.100
520.300	14.003	0.100
520.400	24.849	0.100
520.500	14.842	0.100
520.600	18.611	0.100
520.700	13.060	0.100
520.800	32.473	0.100
520.900	24.873	0.100
521.000	16.918	0.100
521.100	32.209	0.100
521.200	22.689	0.100
521.300	19.241	0.100
521.400	29.116	0.100
521.500	7.005	0.100
521.600	9.957	0.100
521.700	11.406	0.100
521.800	25.705	0.100
521.900	21.871	0.100
522.000	10.132	0.100
522.100	20.792	0.100
522.200	7.521	0.100
522.300	18.722	0.100
522.400	21.330	0.100
522.500	18.539	0.100
522.600	12.222	0.100
522.700	16.501	0.100
522.800	28.272	0.100
522.900	10.349	0.100
523.000	28.118	0.100
523.100	10.105	0.100
523.200	3.212	0.100
523.300	22.344	0.100
523.400	27.520	0.100
523.500	26.491	0.100
523.600	10.043	0.100
523.700	22.520	0.100
523.800	16.212	0.100
523.900	29.060	0.100
524.000	27.880	0.100
524.100	15.143	0.100
524.200	27.809	0.100
524.300	10.005	0.100
524.400	14.117	0.100
524.500	19.030	0.100
524.600	21.348	0.100
524.700	18.713	0.100
524.800	22.733	0.100
524.900	26.649	0.100
525.000	5.006	0.100
525.100	11.141	0.100
525.200	13.565	0.100
525.300	26.551	0.100
525.400	14.651	0.100
525.500	27.521	0.100
525.600	23.900	0.100
525.700	19.281	0.100
525.800	9.401	0.100
525.900	11.191	0.100
526.000	14.297	0.100
526.100	7.711	0.100
526.200	14.494	0.100
526.300	7.277	0.100
526.400	24.415	0.100
526.500	21.676	0.100
526.600	19.525	0.100
526.700	19.156	0.100
526.800	2.294	0.100
526.900	6.659	0.100
527.000	-0.941	0.100
527.100	13.928	0.100
527.200	13.979	0.100
527.300	8.817	0.100
527.400	2.699	0.100
527.500	-5.417	0.100
527.600	21.977	0.100
527.700	2.155	0.100
527.800	12.309	0.100
527.900	15.128	0.100
528.000	14.736	0.100
528.100	2.782	0.100
528.200	23.545	0.100
528.300	8.878	0.100
528.400	18.267	0.100
528.500	12.229	0.100
528.600	9.819	0.100
528.700	23.062	0.100
528.800	18.852	0.100
528.900	9.626	0.100
529.000	32.308	0.100
529.100	1.280	0.100
529.200	9.084	0.100
529.300	13.884	0.100
529.400	16.527	0.100
529.500	18.424	0.100
529.600	10.600	0.100
529.700	23.351	0.100
529.800	11.853	0.100
529.900	1.146	0.100
530.000	28.974	0.100
530.100	15.069	0.100
530.200	-5.126	0.100
530.300	14.693	0.100
530.400	14.336	0.100
530.500	5.451	0.100
530.600	20.539	0.100
530.700	15.964	0.100
530.800	7.338	0.100
530.900	21.285	0.100
531.000	20.214	0.100
531.100	22.572	0.100
531.200	-1.190	0.100
531.300	8.303	0.100
531.400	4.928	0.100
531.500	21.684	0.100
531.600	12.000	0.100
531.700	25.408	0.100
531.800	-0.714	0.100
531.900	5.515	0.100
532.000	17.751	0.100
532.100	-3.015	0.100
532.200	23.856	0.100
532.300	6.667	0.100
532.400	9.672	0.100
532.500	1.098	0.100
532.600	28.047	0.100
532.700	21.683	0.100
532.800	15.621	0.100
532.900	11.384	0.100
533.000	16.959	0.100
533.100	-2.763	0.100
533.200	21.717	0.100
533.300	15.718	0.100
533.400	2.920	0.100
533.500	5.869	0.100
533.600	21.599	0.100
533.700	8.763	0.100
533.800	10.313	0.100
533.900	10.432	0.100
534.000	10.777	0.100
534.100	5.599	0.100
534.200	8.739	0.100
534.300	10.751	0.100
534.400	6.359	0.100
534.500	25.012	0.100
534.600	23.017	0.100
534.700	13.671	0.100
534.800	20.974	0.100
534.900	14.589	0.100
535.000	11.343	0.100
535.100	14.713	0.100
535.200	31.071	0.100
535.300	7.465	0.100
535.400	13.213	0.100
535.500	24.909	0.100
535.600	19.483	0.100
535.700	13.499	0.100
535.800	3.086	0.100
535.900	18.686	0.100
536.000	22.585	0.100
536.100	10.930	0.100
536.200	24.957	0.100
536.300	15.920	0.100
536.400	12.830	0.100
536.500	17.358	0.100
536.600	11.468	0.100
536.700	16.430	0.100
536.800	10.270	0.100
536.900	1.544	0.100
537.000	24.340	0.100
537.100	17.053	0.100
537.200	26.560	0.100
537.300	-3.795	0.100
537.400	6.227	0.100
537.500	21.224	0.100
537.600	10.074	0.100
537.700	2.292	0.100
537.800	25.221	0.100
537.900	17.932	0.100
538.000	11.160	0.100
538.100	8.725	0.100
538.200	34.648	0.100
538.300	0.504	0.100
538.400	-8.566	0.100
538.500	15.489	0.100
538.600	13.151	0.100
538.700	8.951	0.100
538.800	24.871	0.100
538.900	3.679	0.100
539.000	23.495	0.100
539.100	38.613	0.100
539.200	8.775	0.100
539.300	9.818	0.100
539.400	30.457	0.100
539.500	2.367	0.100
539.600	31.828	0.100
539.700	-2.641	0.100
539.800	19.036	0.100
539.900	21.651	0.100
540.000	24.762	0.100
540.100	10.672	0.100
540.200	29.182	0.100
540.300	15.962	0.100
540.400	7.661	0.100
540.500	12.603	0.100
540.600	15.036	0.100
540.700	5.907	0.100
540.800	25.401	0.100
540.900	6.332	0.100
541.000	-16.401	0.100
541.100	6.962	0.100
541.200	-2.883	0.100
541.300	-22.686	0.100
541.400	-12.222	0.100
541.500	9.901	0.100
541.600	-17.615	0.100
541.700	-12.432	0.100
541.800	6.727	0.100
541.900	-12.765	0.100
542.000	-25.386	0.100
542.100	9.433	0.100
542.200	-10.255	0.100
542.300	5.051	0.100
542.400	-6.093	0.100
542.500	-11.688	0.100
542.600	-17.926	0.100
542.700	-0.003	0.100
542.800	6.525	0.100
542.900	-12.281	0.100
543.000	-5.291	0.100
543.100	-27.113	0.100
543.200	-16.492	0.100
543.300	10.626	0.100
543.400	4.196	0.100
543.500	-13.530	0.100
543.600	-15.702	0.100
543.700	-7.244	0.100
543.800	-6.562	0.100
543.900	-8.491	0.100
544.000	-7.334	0.100
544.100	-20.082	0.100
544.200	-0.897	0.100
544.300	-14.053	0.100
544.400	-11.891	0.100
544.500	-1.903	0.100
544.600	-33.080	0.100
544.700	-23.435	0.100
544.800	-32.198	0.100
544.900	-11.320	0.100
545.000	-14.192	0.100
545.100	-19.333	0.100
545.200	-37.738	0.100
545.300	-20.876	0.100
545.400	-7.735	0.100
545.500	2.325	0.100
545.600	-30.003	0.100
545.700	-14.694	0.100
545.800	-8.627	0.100
545.900	-17.369	0.100
546.000	-16.909	0.100
546.100	-31.863	0.100
546.200	-22.722	0.100
546.300	-22.331	0.100
546.400	-28.263	0.100
546.500	-16.986	0.100
546.600	-26.547	0.100
546.700	-29.887	0.100
546.800	-19.262	0.100
546.900	-8.363	0.100
547.000	-3.466	0.100
547.100	-44.837	0.100
547.200	-26.100	0.100
547.300	-17.812	0.100
547.400	-19.991	0.100
547.500	-25.660	0.100
547.600	-22.088	0.100
547.700	-18.933	0.100
547.800	-23.870	0.100
547.900	-17.914	0.100
548.000	-19.289	0.100
548.100	-25.538	0.100
548.200	-23.817	0.100
548.300	-36.629	0.100
548.400	-2.149	0.100
548.500	-22.000	0.100
548.600	-30.353	0.100
548.700	-33.070	0.100
548.800	-18.138	0.100
548.900	-4.901	0.100
549.000	-24.671	0.100
549.100	-27.620	0.100
549.200	-21.930	0.100
549.300	-33.066	0.100
549.400	-27.799	0.100
549.500	-40.445	0.100
549.600	-39.638	0.100
549.700	-27.191	0.100
549.800	-23.936	0.100
549.900	-8.897	0.100
550.000	-18.649	0.100
550.100	-29.955	0.100
550.200	-18.598	0.100
550.300	-13.281	0.100
550.400	-30.315	0.100
550.500	-27.534	0.100
550.600	-5.308	0.100
550.700	-23.035	0.100
550.800	-26.177	0.100
550.900	-22.568	0.100
551.000	-18.189	0.100
551.100	-12.529	0.100
551.200	-4.606	0.100
551.300	-8.928	0.100
551.400	-29.786	0.100
551.500	-24.551	0.100
551.600	-12.026	0.100
551.700	-14.465	0.100
551.800	-20.884	0.100
551.900	-10.716	0.100
552.000	-34.888	0.100
552.100	-27.718	0.100
552.200	-21.768	0.100
552.300	-21.244	0.100
552.400	-9.500	0.100
552.500	-27.863	0.100
552.600	-10.614	0.100
552.700	-37.204	0.100
552.800	-29.077	0.100
552.900	-28.541	0.100
553.000	-6.386	0.100
553.100	-25.268	0.100
553.200	-20.870	0.100
553.300	-17.022	0.100
553.400	-21.033	0.100
553.500	-27.705	0.100
553.600	-47.371	0.100
553.700	-29.886	0.100
553.800	-14.521	0.100
553.900	-35.145	0.100
554.000	-18.814	0.100
554.100	-27.081	0.100
554.200	-33.959	0.100
554.300	-13.315	0.100
554.400	-36.730	0.100
554.500	-12.039	0.100
554.600	-12.568	0.100
554.700	-6.192	0.100
554.800	-17.307	0.100
554.900	-17.248	0.100
555.000	-10.726	0.100
555.100	-34.109	0.100
555.200	-32.725	0.100
555.300	-19.599	0.100
555.400	-31.555	0.100
555.500	-33.847	0.100
555.600	-22.595	0.100
555.700	-26.163	0.100
555.800	-17.938	0.100
555.900	-36.770	0.100
556.000	-20.823	0.100
556.100	-21.028	0.100
556.200	-9.282	0.100
556.300	-29.980	0.100
556.400	-26.181	0.100
556.500	-1.576	0.100
556.600	-35.681	0.100
556.700	-25.289	0.100
556.800	-40.286	0.100
556.900	-8.205	0.100
557.000	-17.082	0.100
557.100	-22.590	0.100
557.200	-17.295	0.100
557.300	-20.154	0.100
557.400	-31.485	0.100
557.500	-34.973	0.100
557.600	-20.623	0.100
557.700	-29.485	0.100
557.800	-24.485	0.100
557.900	-31.211	0.100
558.000	-29.494	0.100
558.100	-30.732	0.100
558.200	-28.476	0.100
558.300	-35.269	0.100
558.400	-41.836	0.100
558.500	-35.859	0.100
558.600	-16.938	0.100
558.700	-34.363	0.100
558.800	-37.188	0.100
558.900	-11.310	0.100
559.000	-33.114	0.100
559.100	-27.816	0.100
559.200	-14.602	0.100
559.300	-38.676	0.100
559.400	-23.421	0.100
559.500	-33.188	0.100
559.600	-24.475	0.100
559.700	-18.381	0.100
559.800	-23.194	0.100
559.900	-31.276	0.100
560.000	-11.569	0.100
560.100	-23.572	0.100
560.200	-23.711	0.100
560.300	-28.908	0.100
560.400	-41.250	0.100
560.500	-6.744	0.100
560.600	-31.155	0.100
560.700	-25.920	0.100
560.800	-11.390	0.100
560.900	-17.929	0.100
561.000	-37.538	0.100
561.100	-20.581	0.100
561.200	-30.889	0.100
561.300	-28.543	0.100
561.400	-29.792	0.100
561.500	-19.819	0.100
561.600	-39.317	0.100
561.700	-33.440	0.100
561.800	-24.153	0.100
561.900	-27.315	0.100
562.000	-20.686	0.100
562.100	-18.427	0.100
562.200	-14.062	0.100
562.300	-13.403	0.100
562.400	-22.946	0.100
562.500	-23.867	0.100
562.600	-24.388	0.100
562.700	-18.094	0.100
562.800	-18.392	0.100
562.900	-20.242	0.100
563.000	-10.093	0.100
563.100	-22.954	0.100
563.200	-20.470	0.100
563.300	-4.977	0.100
563.400	-19.541	0.100
563.500	-16.801	0.100
563.600	-18.239	0.100
563.700	-14.297	0.100
563.800	-30.996	0.100
563.900	-43.854	0.100
564.000	-12.345	0.100
564.100	-7.008	0.100
564.200	-15.045	0.100
564.300	-21.371	0.100
564.400	-17.053	0.100
564.500	-17.547	0.100
564.600	-30.177	0.100
564.700	-8.327	0.100
564.800	-19.951	0.100
564.900	-6.286	0.100
565.000	-26.047	0.100
565.100	-23.534	0.100
565.200	-18.276	0.100
565.300	-28.235	0.100
565.400	-18.365	0.100
565.500	-11.129	0.100
565.600	-36.184	0.100
565.700	-0.643	0.100
565.800	-12.145	0.100
565.900	-20.915	0.100
566.000	-11.299	0.100
566.100	-20.634	0.100
566.200	-14.338	0.100
566.300	-10.775	0.100
566.400	-26.024	0.100
566.500	-12.232	0.100
566.600	-17.211	0.100
566.700	-31.679	0.100
566.800	-18.064	0.100
566.900	-34.743	0.100
567.000	-21.486	0.100
567.100	-22.686	0.100
567.200	-26.922	0.100
567.300	-16.561	0.100
567.400	-15.302	0.100
567.500	-18.048	0.100
567.600	-31.267	0.100
567.700	-10.623	0.100
567.800	-13.798	0.100
567.900	-20.586	0.100
568.000	-21.906	0.100
568.100	-18.305	0.100
568.200	-29.771	0.100
568.300	-17.328	0.100
568.400	-16.248	0.100
568.500	-24.475	0.100
568.600	-12.020	0.100
568.700	-17.297	0.100
568.800	-4.493	0.100
568.900	-30.607	0.100
569.000	-24.200	0.100
569.100	-18.631	0.100
569.200	-18.143	0.100
569.300	-22.264	0.100
569.400	-19.237	0.100
569.500	-30.187	0.100
569.600	-14.821	0.100
569.700	-18.556	0.100
569.800	-24.783	0.100
569.900	-27.648	0.100
570.000	-17.993	0.100
570.100	-27.287	0.100
570.200	-25.564	0.100
570.300	-35.814	0.100
570.400	1.290	0.100
570.500	-12.322	0.100
570.600	-34.753	0.100
570.700	-45.750	0.100
570.800	-15.426	0.100
570.900	-18.458	0.100
571.000	-18.103	0.100
571.100	-30.426	0.100
571.200	-27.214	0.100
571.300	-21.675	0.100
571.400	-18.036	0.100
571.500	-31.525	0.100
571.600	-15.298	0.100
571.700	-9.678	0.100
571.800	-27.738	0.100
571.900	-27.838	0.100
572.000	-21.631	0.100
572.100	-24.773	0.100
572.200	-19.555	0.100
572.300	-20.564	0.100
572.400	-17.979	0.100
572.500	-31.049	0.100
572.600	-36.125	0.100
572.700	-38.145	0.100
572.800	-40.524	0.100
572.900	-43.896	0.100
573.000	-24.958	0.100
573.100	-30.467	0.100
573.200	-23.930	0.100
573.300	-35.131	0.100
573.400	-5.902	0.100
573.500	-23.374	0.100
573.600	-44.076	0.100
573.700	-30.631	0.100
573.800	-17.102	0.100
573.900	-18.940	0.100
574.000	-21.087	0.100
574.100	-26.172	0.100
574.200	-15.773	0.100
574.300	-9.732	0.100
574.400	-23.484	0.100
574.500	-22.969	0.100
574.600	-41.900	0.100
574.700	-5.427	0.100
574.800	-6.096	0.100
574.900	-15.980	0.100
575.000	-36.790	0.100
575.100	-32.091	0.100
575.200	-42.932	0.100
575.300	-38.576	0.100
575.400	-4.063	0.100
575.500	-35.140	0.100
575.600	-24.721	0.100
575.700	-21.855	0.100
575.800	-23.195	0.100
575.900	-18.562	0.100
576.000	-5.177	0.100
576.100	-18.752	0.100
576.200	-16.281	0.100
576.300	-26.043	0.100
576.400	-24.777	0.100
576.500	-35.599	0.100
576.600	-26.729	0.100
576.700	-24.146	0.100
576.800	-28.046	0.100
576.900	-27.369	0.100
577.000	-24.983	0.100
577.100	-24.241	0.100
577.200	-24.266	0.100
577.300	-24.090	0.100
577.400	-25.539	0.100
577.500	-42.126	0.100
577.600	-21.402	0.100
577.700	-11.684	0.100
577.800	-7.343	0.100
577.900	-9.280	0.100
578.000	-31.492	0.100
578.100	-31.823	0.100
578.200	-26.741	0.100
578.300	-13.612	0.100
578.400	-27.944	0.100
578.500	-22.177	0.100
578.600	-9.434	0.100
578.700	-11.102	0.100
578.800	-30.437	0.100
578.900	-35.871	0.100
579.000	-7.060	0.100
579.100	-24.961	0.100
579.200	-36.904	0.100
579.300	-1.163	0.100
579.400	-35.849	0.100
579.500	-50.923	0.100
579.600	-4.431	0.100
579.700	-32.555	0.100
579.800	-14.486	0.100
579.900	-15.583	0.100
580.000	-26.557	0.100
580.100	-23.136	0.100
580.200	-17.645	0.100
580.300	-33.812	0.100
580.400	-19.240	0.100
580.500	-10.774	0.100
580.600	-34.679	0.100
580.700	-19.730	0.100
580.800	-12.139	0.100
580.900	-21.893	0.100
581.000	-16.994	0.100
581.100	-22.094	0.100
581.200	-26.002	0.100
581.300	-19.140	0.100
581.400	-13.915	0.100
581.500	-24.719	0.100
581.600	-6.355	0.100
581.700	-26.719	0.100
581.800	-37.436	0.100
581.900	-17.507	0.100
582.000	-8.146	0.100
582.100	-22.048	0.100
582.200	-20.082	0.100
582.300	-11.770	0.100
582.400	-29.525	0.100
582.500	-22.929	0.100
582.600	-8.863	0.100
582.700	-27.047	0.100
582.800	-14.014	0.100
582.900	-5.001	0.100
583.000	-35.779	0.100
583.100	-23.937	0.100
583.200	-13.828	0.100
583.300	-34.880	0.100
583.400	-27.647	0.100
583.500	-18.926	0.100
583.600	-19.548	0.100
583.700	-13.326	0.100
583.800	-17.975	0.100
583.900	-21.776	0.100
584.000	-11.588	0.100
584.100	-3.706	0.100
584.200	-17.739	0.100
584.300	-23.299	0.100
584.400	-25.236	0.100
584.500	-19.632	0.100
584.600	-9.172	0.100
584.700	-15.316	0.100
584.800	-15.619	0.100
584.900	-32.252	0.100
585.000	1.962	0.100
585.100	-23.745	0.100
585.200	-16.678	0.100
585.300	-29.968	0.100
585.400	-20.684	0.100
585.500	-18.407	0.100
585.600	-35.603	0.100
585.700	-10.046	0.100
585.800	-17.757	0.100
585.900	-27.452	0.100
586.000	2.881	0.100
586.100	-7.133	0.100
586.200	-18.539	0.100
586.300	-22.054	0.100
586.400	-14.396	0.100
586.500	-7.678	0.100
586.600	-18.216	0.100
586.700	-11.268	0.100
586.800	-6.849	0.100
586.900	-11.232	0.100
587.000	-19.015	0.100
587.100	-8.318	0.100
587.200	-27.851	0.100
587.300	1.385	0.100
587.400	-10.011	0.100
587.500	-18.888	0.100
587.600	-16.555	0.100
587.700	-13.485	0.100
587.800	-36.059	0.100
587.900	-7.494	0.100
588.000	-18.527	0.100
588.100	-13.141	0.100
588.200	-12.378	0.100
588.300	-22.839	0.100
588.400	-18.732	0.100
588.500	-2.418	0.100
588.600	-3.759	0.100
588.700	-31.006	0.100
588.800	-20.625	0.100
588.900	-17.323	0.100
589.000	-19.458	0.100
589.100	-11.331	0.100
589.200	-18.107	0.100
589.300	-17.745	0.100
589.400	-23.610	0.100
589.500	-19.066	0.100
589.600	-9.921	0.100
589.700	-17.580	0.100
589.800	-3.137	0.100
589.900	-13.979	0.100
590.000	-18.901	0.100
590.100	-20.183	0.100
590.200	-8.150	0.100
590.300	-18.667	0.100
590.400	-36.098	0.100
590.500	-25.374	0.100
590.600	-10.010	0.100
590.700	-26.370	0.100
590.800	-23.639	0.100
590.900	-12.981	0.100
591.000	-23.834	0.100
591.100	-21.644	0.100
591.200	-1.580	0.100
591.300	-26.788	0.100
591.400	-14.103	0.100
591.500	-20.285	0.100
591.600	-17.809	0.100
591.700	-33.949	0.100
591.800	-9.267	0.100
591.900	-2.235	0.100
592.000	-9.631	0.100
592.100	-31.673	0.100
592.200	2.439	0.100
592.300	-16.825	0.100
592.400	-4.784	0.100
592.500	-21.359	0.100
592.600	0.247	0.100
592.700	-31.768	0.100
592.800	-5.027	0.100
592.900	-9.112	0.100
593.000	-17.250	0.100
593.100	-21.991	0.100
593.200	-24.644	0.100
593.300	-15.630	0.100
593.400	-24.448	0.100
593.500	-22.733	0.100
593.600	-6.493	0.100
593.700	-6.667	0.100
593.800	-13.499	0.100
593.900	-12.778	0.100
594.000	-17.729	0.100
594.100	-18.931	0.100
594.200	-16.779	0.100
594.300	-22.391	0.100
594.400	-30.700	0.100
594.500	-1.513	0.100
594.600	-19.555	0.100
594.700	-27.101	0.100
594.800	3.080	0.100
594.900	-21.627	0.100
595.000	-15.002	0.100
595.100	3.511	0.100
595.200	-23.820	0.100
595.300	-3.132	0.100
595.400	-13.081	0.100
595.500	-23.022	0.100
595.600	-6.789	0.100
595.700	-30.431	0.100
595.800	-7.508	0.100
595.900	-2.626	0.100
596.000	-27.422	0.100
596.100	-7.090	0.100
596.200	-26.874	0.100
596.300	-16.916	0.100
596.400	-27.256	0.100
596.500	0.660	0.100
596.600	-10.879	0.100
596.700	-15.392	0.100
596.800	-19.782	0.100
596.900	-9.717	0.100
597.000	-11.418	0.100
597.100	-14.286	0.100
597.200	-11.600	0.100
597.300	-40.322	0.100
597.400	1.786	0.100
597.500	-28.786	0.100
597.600	-8.984	0.100
597.700	-42.293	0.100
597.800	-28.253	0.100
597.900	-6.707	0.100
598.000	-24.734	0.100
598.100	-11.630	0.100
598.200	-17.257	0.100
598.300	-18.857	0.100
598.400	-23.793	0.100
598.500	-28.612	0.100
598.600	-30.894	0.100
598.700	-11.414	0.100
598.800	-8.811	0.100
598.900	-4.709	0.100
599.000	-2.446	0.100
599.100	-16.323	0.100
599.200	-31.771	0.100
599.300	-11.117	0.100
599.400	-21.995	0.100
599.500	-15.924	0.100
599.600	-18.297	0.100
599.700	-17.758	0.100
599.800	-2.424	0.100
599.900	-14.891	0.100
600.000	-37.254	0.100
600.100	-26.229	0.100
600.200	6.231	0.100
600.300	-22.099	0.100
600.400	-20.812	0.100
600.500	-20.704	0.100
600.600	-12.286	0.100
600.700	2.860	0.100
600.800	-7.172	0.100
600.900	-6.893	0.100
601.000	-14.053	0.100
601.100	-21.706	0.100
601.200	-2.596	0.100
601.300	-3.540	0.100
601.400	-11.483	0.100
601.500	-7.524	0.100
601.600	-8.111	0.100
601.700	-5.337	0.100
601.800	-5.852	0.100
601.900	-26.917	0.100
602.000	7.843	0.100
602.100	-24.112	0.100
602.200	-13.917	0.100
602.300	-3.651	0.100
602.400	-13.584	0.100
602.500	-9.551	0.100
602.600	-15.417	0.100
602.700	-12.533	0.100
602.800	-18.379	0.100
602.900	-12.960	0.100
603.000	-7.886	0.100
603.100	-11.138	0.100
603.200	-1.986	0.100
603.300	-15.378	0.100
603.400	-2.201	0.100
603.500	-8.201	0.100
603.600	-1.270	0.100
603.700	-25.092	0.100
603.800	-36.599	0.100
603.900	-8.159	0.100
604.000	-9.657	0.100
604.100	-14.917	0.100
604.200	-8.989	0.100
604.300	-14.102	0.100
604.400	-0.097	0.100
604.500	-12.746	0.100
604.600	-22.465	0.100
604.700	-21.583	0.100
604.800	-10.046	0.100
604.900	-7.712	0.100
605.000	-24.537	0.100
605.100	-14.618	0.100
605.200	-11.818	0.100
605.300	-17.304	0.100
605.400	1.000	0.100
605.500	-7.418	0.100
605.600	-21.485	0.100
605.700	-3.628	0.100
605.800	-21.406	0.100
605.900	-4.582	0.100
606.000	-13.746	0.100
606.100	-22.140	0.100
606.200	-5.023	0.100
606.300	-27.500	0.100
606.400	-12.258	0.100
606.500	-2.952	0.100
606.600	1.623	0.100
606.700	-11.949	0.100
606.800	-5.100	0.100
606.900	-15.414	0.100
607.000	-17.185	0.100
607.100	-8.076	0.100
607.200	0.351	0.100
607.300	-35.165	0.100
607.400	-10.030	0.100
607.500	-4.289	0.100
607.600	-22.921	0.100
607.700	-16.384	0.100
607.800	-31.600	0.100
607.900	-5.753	0.100
608.000	-11.578	0.100
608.100	5.824	0.100
608.200	-15.226	0.100
608.300	-18.754	0.100
608.400	-22.242	0.100
608.500	-6.342	0.100
608.600	-18.224	0.100
608.700	-14.489	0.100
608.800	-13.651	0.100
608.900	-5.799	0.100
609.000	-5.134	0.100
609.100	-7.681	0.100
609.200	-26.381	0.100
609.300	-6.542	0.100
609.400	-14.618	0.100
609.500	-21.629	0.100
609.600	-15.582	0.100
609.700	6.367	0.100
609.800	-9.648	0.100
609.900	-3.429	0.100
610.000	-31.292	0.100
610.100	-6.127	0.100
610.200	9.093	0.100
610.300	-14.489	0.100
610.400	-12.195	0.100
610.500	-6.123	0.100
610.600	-7.017	0.100
610.700	-17.029	0.100
610.800	2.221	0.100
610.900	-12.988	0.100
611.000	-5.724	0.100
611.100	2.270	0.100
611.200	-20.112	0.100
611.300	-4.793	0.100
611.400	-4.453	0.100
611.500	3.087	0.100
611.600	-12.019	0.100
611.700	-13.148	0.100
611.800	-15.808	0.100
611.900	-18.031	0.100
612.000	-19.476	0.100
612.100	-0.549	0.100
612.200	11.225	0.100
612.300	-36.964	0.100
612.400	-5.496	0.100
612.500	-18.149	0.100
612.600	5.877	0.100
612.700	-26.361	0.100
612.800	-19.976	0.100
612.900	7.666	0.100
613.000	1.481	0.100
613.100	-18.136	0.100
613.200	-11.843	0.100
613.300	-0.766	0.100
613.400	-3.529	0.100
613.500	-2.859	0.100
613.600	-23.872	0.100
613.700	-14.077	0.100
613.800	-8.808	0.100
613.900	-1.524	0.100
614.000	-3.452	0.100
614.100	-11.602	0.100
614.200	1.362	0.100
614.300	-12.751	0.100
614.400	-24.708	0.100
614.500	-9.663	0.100
614.600	-8.527	0.100
614.700	-8.534	0.100
614.800	-5.506	0.100
614.900	-20.247	0.100
615.000	-2.599	0.100
615.100	-9.933	0.100
615.200	-6.417	0.100
615.300	-5.242	0.100
615.400	-4.420	0.100
615.500	2.072	0.100
615.600	-15.122	0.100
615.700	-11.526	0.100
615.800	3.174	0.100
615.900	-16.833	0.100
616.000	-3.860	0.100
616.100	-1.916	0.100
616.200	-17.642	0.100
616.300	-5.228	0.100
616.400	-19.198	0.100
616.500	-9.305	0.100
616.600	-14.588	0.100
616.700	3.025	0.100
616.800	-5.618	0.100
616.900	-2.732	0.100
617.000	1.360	0.100
617.100	-10.541	0.100
617.200	-9.024	0.100
617.300	-16.755	0.100
617.400	-16.013	0.100
617.500	6.863	0.100
617.600	-1.595	0.100
617.700	2.370	0.100
617.800	10.835	0.100
617.900	-21.962	0.100
618.000	-11.563	0.100
618.100	-0.214	0.100
618.200	-21.854	0.100
618.300	-10.912	0.100
618.400	-13.864	0.100
618.500	-6.822	0.100
618.600	-7.727	0.100
618.700	-9.256	0.100
618.800	-3.696	0.100
618.900	4.607	0.100
619.000	11.091	0.100
619.100	-11.904	0.100
619.200	-16.094	0.100
619.300	-7.898	0.100
619.400	-9.217	0.100
619.500	0.287	0.100
619.600	0.043	0.100
619.700	-21.702	0.100
619.800	-4.094	0.100
619.900	-27.920	0.100
620.000	-22.666	0.100
620.100	-13.076	0.100
620.200	4.421	0.100
620.300	14.455	0.100
620.400	7.623	0.100
620.500	7.683	0.100
620.600	-27.299	0.100
620.700	-16.133	0.100
620.800	-12.337	0.100
620.900	-22.521	0.100
621.000	-0.685	0.100
621.100	-18.509	0.100
621.200	-3.536	0.100
621.300	-17.161	0.100
621.400	-1.478	0.100
621.500	-9.359	0.100
621.600	-3.326	0.100
621.700	-14.113	0.100
621.800	-1.391	0.100
621.900	-2.094	0.100
622.000	-1.820	0.100
622.100	-11.243	0.100
622.200	-9.348	0.100
622.300	1.469	0.100
622.400	-9.858	0.100
622.500	-17.891	0.100
622.600	-10.908	0.100
622.700	-3.528	0.100
622.800	-4.496	0.100
622.900	-19.427	0.100
623.000	-18.574	0.100
623.100	-14.446	0.100
623.200	-10.695	0.100
623.300	-0.743	0.100
623.400	3.890	0.100
623.500	-16.837	0.100
623.600	-13.530	0.100
623.700	-0.222	0.100
623.800	-2.162	0.100
623.900	-17.744	0.100
624.000	-12.489	0.100
624.100	0.990	0.100
624.200	-10.693	0.100
624.300	6.280	0.100
624.400	-9.570	0.100
624.500	-15.351	0.100
624.600	-12.546	0.100
624.700	5.907	0.100
624.800	-12.525	0.100
624.900	-18.148	0.100
625.000	-24.539	0.100
625.100	-5.224	0.100
625.200	5.379	0.100
625.300	-5.579	0.100
625.400	-7.109	0.100
625.500	-18.412	0.100
625.600	-18.620	0.100
625.700	-22.594	0.100
625.800	-11.113	0.100
625.900	-27.183	0.100
626.000	-14.437	0.100
626.100	-13.852	0.100
626.200	-14.892	0.100
626.300	-21.418	0.100
626.400	-12.262	0.100
626.500	1.822	0.100
626.600	-17.923	0.100
626.700	-8.298	0.100
626.800	-30.089	0.100
626.900	-10.761	0.100
627.000	-7.444	0.100
627.100	-22.768	0.100
627.200	-1.367	0.100
627.300	-9.422	0.100
627.400	1.352	0.100
627.500	-6.540	0.100
627.600	-14.802	0.100
627.700	-18.504	0.100
627.800	-13.689	0.100
627.900	4.373	0.100
628.000	19.337	0.100
628.100	-5.144	0.100
628.200	-12.029	0.100
628.300	-18.367	0.100
628.400	0.074	0.100
628.500	-7.355	0.100
628.600	-16.452	0.100
628.700	-8.608	0.100
628.800	-13.062	0.100
628.900	9.985	0.100
629.000	-3.939	0.100
629.100	-17.897	0.100
629.200	-10.902	0.100
629.300	5.575	0.100
629.400	2.144	0.100
629.500	-4.626	0.100
629.600	2.623	0.100
629.700	-3.998	0.100
629.800	-11.840	0.100
629.900	-1.741	0.100
630.000	-17.211	0.100
630.100	-6.559	0.100
630.200	1.040	0.100
630.300	-2.690	0.100
630.400	-0.583	0.100
630.500	-1.226	0.100
630.600	-5.940	0.100
630.700	8.514	0.100
630.800	13.089	0.100
630.900	4.162	0.100
631.000	0.738	0.100
631.100	6.718	0.100
631.200	3.812	0.100
631.300	-3.617	0.100
631.400	5.793	0.100
631.500	5.046	0.100
631.600	11.831	0.100
631.700	-11.650	0.100
631.800	-18.678	0.100
631.900	18.446	0.100
632.000	10.510	0.100
632.100	20.185	0.100
632.200	19.080	0.100
632.300	13.596	0.100
632.400	1.171	0.100
632.500	15.103	0.100
632.600	14.934	0.100
632.700	38.144	0.100
632.800	0.824	0.100
632.900	20.452	0.100
633.000	39.637	0.100
633.100	20.771	0.100
633.200	15.124	0.100
633.300	-17.860	0.100
633.400	25.672	0.100
633.500	-4.184	0.100
633.600	16.253	0.100
633.700	20.841	0.100
633.800	-0.793	0.100
633.900	29.373	0.100
634.000	18.690	0.100
634.100	21.954	0.100
634.200	15.240	0.100
634.300	21.175	0.100
634.400	9.789	0.100
634.500	7.370	0.100
634.600	27.891	0.100
634.700	18.577	0.100
634.800	15.382	0.100
634.900	8.715	0.100
635.000	10.421	0.100
635.100	14.842	0.100
635.200	11.865	0.100
635.300	16.195	0.100
635.400	13.542	0.100
635.500	9.497	0.100
635.600	15.586	0.100
635.700	21.414	0.100
635.800	10.828	0.100
635.900	12.502	0.100
636.000	23.445	0.100
636.100	6.618	0.100
636.200	6.609	0.100
636.300	6.751	0.100
636.400	-5.831	0.100
636.500	16.230	0.100
636.600	-14.077	0.100
636.700	-7.570	0.100
636.800	-13.965	0.100
636.900	15.614	0.100
637.000	2.524	0.100
637.100	-1.215	0.100
637.200	19.930	0.100
637.300	1.979	0.100
637.400	13.149	0.100
637.500	19.894	0.100
637.600	21.469	0.100
637.700	9.941	0.100
637.800	4.594	0.100
637.900	6.597	0.100
638.000	6.005	0.100
638.100	2.908	0.100
638.200	1.553	0.100
638.300	8.659	0.100
638.400	14.481	0.100
638.500	26.500	0.100
638.600	12.418	0.100
638.700	17.929	0.100
638.800	10.743	0.100
638.900	3.758	0.100
639.000	22.116	0.100
639.100	24.368	0.100
639.200	16.322	0.100
639.300	18.599	0.100
639.400	11.823	0.100
639.500	18.328	0.100
639.600	27.486	0.100
639.700	16.079	0.100
639.800	20.715	0.100
639.900	19.104	0.100
640.000	17.936	0.100
640.100	9.394	0.100
640.200	23.328	0.100
640.300	8.298	0.100
640.400	33.451	0.100
640.500	30.308	0.100
640.600	25.705	0.100
640.700	6.324	0.100
640.800	21.772	0.100
640.900	26.962	0.100
641.000	22.109	0.100
641.100	23.768	0.100
641.200	10.861	0.100
641.300	51.149	0.100
641.400	0.386	0.100
641.500	18.119	0.100
641.600	13.751	0.100
641.700	16.937	0.100
641.800	0.340	0.100
641.900	23.806	0.100
642.000	17.254	0.100
642.100	10.808	0.100
642.200	24.774	0.100
642.300	6.378	0.100
642.400	19.289	0.100
642.500	29.252	0.100
642.600	1.024	0.100
642.700	21.478	0.100
642.800	18.572	0.100
642.900	28.702	0.100
643.000	15.831	0.100
643.100	20.207	0.100
643.200	27.837	0.100
643.300	11.911	0.100
643.400	22.639	0.100
643.500	16.663	0.100
643.600	19.959	0.100
643.700	20.680	0.100
643.800	19.522	0.100
643.900	25.121	0.100
644.000	24.074	0.100
644.100	36.427	0.100
644.200	26.959	0.100
644.300	26.450	0.100
644.400	16.607	0.100
644.500	37.718	0.100
644.600	20.749	0.100
644.700	8.973	0.100
644.800	35.196	0.100
644.900	12.750	0.100
645.000	34.274	0.100
645.100	34.967	0.100
645.200	27.583	0.100
645.300	17.092	0.100
645.400	34.637	0.100
645.500	31.214	0.100
645.600	17.883	0.100
645.700	45.649	0.100
645.800	16.122	0.100
645.900	30.912	0.100
646.000	27.110	0.100
646.100	15.193	0.100
646.200	36.546	0.100
646.300	37.376	0.100
646.400	51.489	0.100
646.500	24.828	0.100
646.600	32.563	0.100
646.700	44.547	0.100
646.800	24.684	0.100
646.900	42.770	0.100
647.000	27.935	0.100
647.100	48.547	0.100
647.200	31.446	0.100
647.300	26.724	0.100
647.400	27.750	0.100
647.500	40.112	0.100
647.600	32.620	0.100
647.700	43.681	0.100
647.800	21.296	0.100
647.900	43.502	0.100
648.000	44.706	0.100
648.100	51.349	0.100
648.200	23.252	0.100
648.300	27.555	0.100
648.400	7.763	0.100
648.500	40.128	0.100
648.600	39.883	0.100
648.700	35.817	0.100
648.800	30.340	0.100
648.900	41.746	0.100
649.000	32.185	0.100
649.100	30.206	0.100
649.200	35.846	0.100
649.300	15.260	0.100
649.400	35.581	0.100
649.500	50.733	0.100
649.600	46.970	0.100
649.700	60.027	0.100
649.800	30.233	0.100
649.900	31.164	0.100
650.000	54.045	0.100
650.100	30.067	0.100
650.200	45.515	0.100
650.300	35.232	0.100
650.400	28.428	0.100
650.500	36.829	0.100
650.600	36.602	0.100
650.700	54.952	0.100
650.800	24.952	0.100
650.900	40.393	0.100
651.000	44.302	0.100
651.100	38.866	0.100
651.200	38.357	0.100
651.300	37.798	0.100
651.400	39.035	0.100
651.500	33.626	0.100
651.600	29.555	0.100
651.700	45.548	0.100
651.800	48.590	0.100
651.900	41.710	0.100
652.000	42.249	0.100
652.100	58.246	0.100
652.200	31.833	0.100
652.300	38.091	0.100
652.400	50.155	0.100
652.500	61.255	0.100
652.600	46.549	0.100
652.700	37.207	0.100
652.800	59.226	0.100
652.900	60.493	0.100
653.000	59.233	0.100
653.100	45.377	0.100
653.200	30.933	0.100
653.300	43.240	0.100
653.400	29.083	0.100
653.500	51.309	0.100
653.600	53.999	0.100
653.700	40.883	0.100
653.800	53.629	0.100
653.900	28.766	0.100
654.000	48.452	0.100
654.100	25.364	0.100
654.200	41.428	0.100
654.300	45.327	0.100
654.400	39.452	0.100
654.500	44.218	0.100
654.600	50.319	0.100
654.700	30.950	0.100
654.800	51.956	0.100
654.900	33.863	0.100
655.000	48.702	0.100
655.100	42.879	0.100
655.200	41.562	0.100
655.300	40.223	0.100
655.400	66.176	0.100
655.500	42.692	0.100
655.600	63.712	0.100
655.700	57.554	0.100
655.800	45.163	0.100
655.900	53.808	0.100
656.000	61.783	0.100
656.100	52.141	0.100
656.200	43.942	0.100
656.300	62.520	0.100
656.400	41.243	0.100
656.500	43.696	0.100
656.600	49.251	0.100
656.700	54.145	0.100
656.800	46.858	0.100
656.900	56.821	0.100
657.000	33.915	0.100
657.100	31.493	0.100
657.200	68.638	0.100
657.300	35.406	0.100
657.400	43.072	0.100
657.500	52.534	0.100
657.600	42.280	0.100
657.700	36.902	0.100
657.800	46.075	0.100
657.900	41.148	0.100
658.000	51.376	0.100
658.100	55.057	0.100
658.200	60.058	0.100
658.300	64.329	0.100
658.400	51.284	0.100
658.500	38.291	0.100
658.600	69.743	0.100
658.700	46.735	0.100
658.800	43.294	0.100
658.900	42.869	0.100
659.000	64.236	0.100
659.100	50.201	0.100
659.200	43.992	0.100
659.300	41.475	0.100
659.400	41.810	0.100
659.500	45.989	0.100
659.600	44.510	0.100
659.700	47.237	0.100
659.800	51.219	0.100
659.900	53.264	0.100
660.000	50.887	0.100
660.100	45.926	0.100
660.200	18.909	0.100
660.300	53.662	0.100
660.400	38.578	0.100
660.500	51.818	0.100
660.600	44.292	0.100
660.700	40.254	0.100
660.800	53.310	0.100
660.900	53.232	0.100
661.000	50.541	0.100
661.100	71.529	0.100
661.200	64.049	0.100
661.300	73.161	0.100
661.400	37.521	0.100
661.500	49.127	0.100
661.600	35.393	0.100
661.700	66.352	0.100
661.800	53.174	0.100
661.900	56.865	0.100
662.000	39.332	0.100
662.100	38.468	0.100
662.200	41.987	0.100
662.300	41.717	0.100
662.400	40.761	0.100
662.500	50.001	0.100
662.600	35.728	0.100
662.700	22.044	0.100
662.800	61.863	0.100
662.900	53.162	0.100
663.000	41.520	0.100
663.100	41.719	0.100
663.200	55.199	0.100
663.300	40.891	0.100
663.400	38.439	0.100
663.500	43.135	0.100
663.600	46.534	0.100
663.700	21.086	0.100
663.800	36.748	0.100
663.900	40.292	0.100
664.000	43.795	0.100
664.100	47.845	0.100
664.200	52.565	0.100
664.300	53.410	0.100
664.400	37.369	0.100
664.500	38.146	0.100
664.600	37.649	0.100
664.700	19.469	0.100
664.800	40.776	0.100
664.900	41.497	0.100
665.000	45.696	0.100
665.100	34.418	0.100
665.200	44.731	0.100
665.300	45.319	0.100
665.400	53.026	0.100
665.500	27.915	0.100
665.600	25.027	0.100
665.700	38.521	0.100
665.800	51.611	0.100
665.900	53.846	0.100
666.000	62.956	0.100
666.100	55.942	0.100
666.200	28.567	0.100
666.300	32.164	0.100
666.400	36.948	0.100
666.500	45.581	0.100
666.600	11.069	0.100
666.700	23.875	0.100
666.800	36.448	0.100
666.900	15.029	0.100
667.000	34.885	0.100
667.100	37.531	0.100
667.200	37.797	0.100
667.300	39.782	0.100
667.400	18.522	0.100
667.500	44.700	0.100
667.600	26.643	0.100
667.700	26.568	0.100
667.800	25.186	0.100
667.900	29.079	0.100
668.000	57.387	0.100
668.100	45.864	0.100
668.200	46.679	0.100
668.300	33.579	0.100
668.400	34.496	0.100
668.500	41.563	0.100
668.600	23.489	0.100
668.700	40.690	0.100
668.800	32.005	0.100
668.900	55.411	0.100
669.000	44.192	0.100
669.100	51.357	0.100
669.200	14.945	0.100
669.300	38.256	0.100
669.400	42.572	0.100
669.500	34.400	0.100
669.600	27.556	0.100
669.700	29.249	0.100
669.800	33.997	0.100
669.900	54.324	0.100
670.000	27.563	0.100
670.100	35.551	0.100
670.200	47.362	0.100
670.300	20.118	0.100
670.400	32.540	0.100
670.500	29.265	0.100
670.600	42.671	0.100
670.700	58.593	0.100
670.800	46.840	0.100
670.900	32.897	0.100
671.000	35.068	0.100
671.100	32.052	0.100
671.200	40.366	0.100
671.300	34.542	0.100
671.400	21.589	0.100
671.500	13.595	0.100
671.600	44.082	0.100
671.700	30.135	0.100
671.800	31.293	0.100
671.900	30.984	0.100
672.000	26.046	0.100
672.100	57.531	0.100
672.200	47.196	0.100
672.300	39.361	0.100
672.400	36.563	0.100
672.500	41.042	0.100
672.600	45.709	0.100
672.700	17.023	0.100
672.800	34.753	0.100
672.900	36.796	0.100
673.000	36.006	0.100
673.100	38.392	0.100
673.200	26.088	0.100
673.300	30.788	0.100
673.400	57.585	0.100
673.500	20.739	0.100
673.600	43.921	0.100
673.700	43.082	0.100
673.800	51.434	0.100
673.900	46.038	0.100
674.000	27.652	0.100
674.100	41.808	0.100
674.200	47.095	0.100
674.300	63.816	0.100
674.400	36.283	0.100
674.500	8.399	0.100
674.600	38.669	0.100
674.700	18.388	0.100
674.800	53.139	0.100
674.900	40.135	0.100
675.000	18.203	0.100
675.100	31.146	0.100
675.200	37.807	0.100
675.300	20.904	0.100
675.400	36.434	0.100
675.500	26.777	0.100
675.600	35.442	0.100
675.700	16.955	0.100
675.800	16.515	0.100
675.900	27.576	0.100
676.000	35.514	0.100
676.100	25.892	0.100
676.200	31.833	0.100
676.300	23.587	0.100
676.400	45.504	0.100
676.500	29.837	0.100
676.600	32.503	0.100
676.700	23.525	0.100
676.800	36.150	0.100
676.900	29.876	0.100
677.000	57.851	0.100
677.100	29.931	0.100
677.200	19.622	0.100
677.300	55.064	0.100
677.400	43.161	0.100
677.500	33.407	0.100
677.600	37.504	0.100
677.700	48.253	0.100
677.800	40.618	0.100
677.900	41.777	0.100
678.000	32.541	0.100
678.100	38.380	0.100
678.200	34.944	0.100
678.300	17.854	0.100
678.400	46.514	0.100
678.500	59.304	0.100
678.600	41.287	0.100
678.700	38.113	0.100
678.800	53.729	0.100
678.900	26.301	0.100
679.000	25.483	0.100
679.100	24.436	0.100
679.200	46.328	0.100
679.300	46.152	0.100
679.400	48.502	0.100
679.500	20.913	0.100
679.600	31.821	0.100
679.700	49.488	0.100
679.800	51.475	0.100
679.900	25.091	0.100
680.000	39.006	0.100
680.100	30.290	0.100
680.200	31.908	0.100
680.300	24.739	0.100
680.400	58.642	0.100
680.500	36.850	0.100
680.600	46.994	0.100
680.700	31.025	0.100
680.800	43.223	0.100
680.900	38.841	0.100
681.000	27.266	0.100
681.100	44.581	0.100
681.200	47.126	0.100
681.300	32.192	0.100
681.400	50.384	0.100
681.500	28.335	0.100
681.600	40.644	0.100
681.700	48.893	0.100
681.800	31.133	0.100
681.900	31.912	0.100
682.000	30.173	0.100
682.100	35.376	0.100
682.200	28.971	0.100
682.300	30.396	0.100
682.400	45.996	0.100
682.500	0.919	0.100
682.600	25.102	0.100
682.700	29.277	0.100
682.800	31.748	0.100
682.900	33.611	0.100
683.000	46.433	0.100
683.100	29.386	0.100
683.200	20.445	0.100
683.300	47.703	0.100
683.400	41.179	0.100
683.500	37.965	0.100
683.600	25.046	0.100
683.700	40.709	0.100
683.800	42.538	0.100
683.900	41.600	0.100
684.000	30.759	0.100
684.100	49.508	0.100
684.200	59.627	0.100
684.300	18.420	0.100
684.400	35.936	0.100
684.500	33.694	0.100
684.600	32.469	0.100
684.700	28.271	0.100
684.800	33.969	0.100
684.900	25.402	0.100
685.000	49.073	0.100
685.100	47.713	0.100
685.200	43.569	0.100
685.300	41.895	0.100
685.400	51.606	0.100
685.500	45.791	0.100
685.600	35.740	0.100
685.700	24.684	0.100
685.800	31.647	0.100
685.900	54.127	0.100
686.000	47.163	0.100
686.100	40.373	0.100
686.200	36.864	0.100
686.300	31.925	0.100
686.400	22.641	0.100
686.500	22.638	0.100
686.600	52.122	0.100
686.700	39.644	0.100
686.800	29.133	0.100
686.900	39.377	0.100
687.000	43.009	0.100
687.100	35.999	0.100
687.200	34.503	0.100
687.300	48.760	0.100
687.400	33.899	0.100
687.500	46.557	0.100
687.600	43.845	0.100
687.700	30.778	0.100
687.800	39.385	0.100
687.900	29.738	0.100
688.000	38.961	0.100
688.100	50.039	0.100
688.200	49.939	0.100
688.300	12.697	0.100
688.400	35.694	0.100
688.500	31.017	0.100
688.600	29.471	0.100
688.700	13.544	0.100
688.800	46.209	0.100
688.900	24.275	0.100
689.000	41.588	0.100
689.100	44.881	0.100
689.200	29.954	0.100
689.300	51.648	0.100
689.400	50.219	0.100
689.500	31.358	0.100
689.600	50.302	0.100
689.700	17.318	0.100
689.800	54.474	0.100
689.900	32.883	0.100
690.000	18.556	0.100
690.100	36.628	0.100
690.200	37.578	0.100
690.300	7.178	0.100
690.400	18.866	0.100
690.500	18.028	0.100
690.600	14.998	0.100
690.700	42.683	0.100
690.800	22.867	0.100
690.900	9.695	0.100
691.000	45.246	0.100
691.100	20.053	0.100
691.200	30.441	0.100
691.300	29.837	0.100
691.400	22.368	0.100
691.500	9.078	0.100
691.600	30.734	0.100
691.700	21.277	0.100
691.800	8.698	0.100
691.900	15.764	0.100
692.000	0.646	0.100
692.100	-0.288	0.100
692.200	6.694	0.100
692.300	-5.675	0.100
692.400	21.809	0.100
692.500	1.224	0.100
692.600	12.511	0.100
692.700	0.475	0.100
692.800	0.680	0.100
692.900	4.290	0.100
693.000	0.257	0.100
693.100	0.272	0.100
693.200	-2.344	0.100
693.300	6.142	0.100
693.400	-14.381	0.100
693.500	1.911	0.100
693.600	2.673	0.100
693.700	5.134	0.100
693.800	-0.567	0.100
693.900	9.141	0.100
694.000	-22.544	0.100
694.100	2.593	0.100
694.200	0.584	0.100
694.300	-5.877	0.100
694.400	6.012	0.100
694.500	-7.157	0.100
694.600	-12.568	0.100
694.700	-1.812	0.100
694.800	-7.566	0.100
694.900	10.103	0.100
695.000	-12.857	0.100
695.100	-9.571	0.100
695.200	3.028	0.100
695.300	-8.131	0.100
695.400	-7.571	0.100
695.500	-30.561	0.100
695.600	-18.168	0.100
695.700	0.562	0.100
695.800	-3.663	0.100
695.900	-4.396	0.100
696.000	-7.324	0.100
696.100	3.464	0.100
696.200	-15.930	0.100
696.300	-4.682	0.100
696.400	-0.916	0.100
696.500	-4.649	0.100
696.600	-15.199	0.100
696.700	-11.595	0.100
696.800	-7.425	0.100
696.900	-12.403	0.100
697.000	-12.865	0.100
697.100	-7.201	0.100
697.200	6.960	0.100
697.300	-4.250	0.100
697.400	-0.295	0.100
697.500	-19.180	0.100
697.600	-10.721	0.100
697.700	-25.617	0.100
697.800	-1.367	0.100
697.900	3.223	0.100
698.000	-4.861	0.100
698.100	1.046	0.100
698.200	2.942	0.100
698.300	-12.481	0.100
698.400	-36.818	0.100
698.500	3.369	0.100
698.600	-13.187	0.100
698.700	-15.760	0.100
698.800	-15.397	0.100
698.900	-22.226	0.100
699.000	-30.296	0.100
699.100	-3.932	0.100
699.200	-25.550	0.100
699.300	-13.062	0.100
699.400	-13.505	0.100
699.500	-30.074	0.100
699.600	-28.658	0.100
699.700	-11.800	0.100
699.800	-17.106	0.100
699.900	-16.519	0.100
700.000	-11.796	0.100
700.100	-29.906	0.100
700.200	-18.738	0.100
700.300	-17.034	0.100
700.400	-28.077	0.100
700.500	-4.733	0.100
700.600	-17.912	0.100
700.700	3.485	0.100
700.800	-2.053	0.100
700.900	-26.557	0.100
701.000	-10.132	0.100
701.100	-31.229	0.100
701.200	-1.254	0.100
701.300	-7.091	0.100
701.400	-8.018	0.100
701.500	-4.817	0.100
701.600	11.886	0.100
701.700	-3.290	0.100
701.800	-10.736	0.100
701.900	20.614	0.100
702.000	0.995	0.100
702.100	0.715	0.100
702.200	-5.368	0.100
702.300	5.840	0.100
702.400	-11.208	0.100
702.500	-5.538	0.100
702.600	-18.109	0.100
702.700	-8.382	0.100
702.800	0.451	0.100
702.900	-8.879	0.100
703.000	-7.944	0.100
703.100	-2.324	0.100
703.200	-0.133	0.100
703.300	-2.649	0.100
703.400	-8.576	0.100
703.500	10.477	0.100
703.600	-13.203	0.100
703.700	-5.917	0.100
703.800	-17.642	0.100
703.900	10.633	0.100
704.000	5.800	0.100
704.100	-11.283	0.100
704.200	-11.281	0.100
704.300	-2.919	0.100
704.400	5.193	0.100
704.500	-13.211	0.100
704.600	-7.590	0.100
704.700	-1.043	0.100
704.800	-0.866	0.100
704.900	0.018	0.100
705.000	-1.956	0.100
705.100	-24.355	0.100
705.200	-17.958	0.100
705.300	-8.547	0.100
705.400	5.819	0.100
705.500	15.779	0.100
705.600	12.724	0.100
705.700	-6.912	0.100
705.800	-6.132	0.100
705.900	19.974	0.100
706.000	-9.690	0.100
706.100	-11.767	0.100
706.200	4.749	0.100
706.300	10.923	0.100
706.400	-5.805	0.100
706.500	6.366	0.100
706.600	-20.690	0.100
706.700	-16.763	0.100
706.800	-15.229	0.100
706.900	-16.726	0.100
707.000	-6.007	0.100
707.100	-4.403	0.100
707.200	-13.637	0.100
707.300	-4.321	0.100
707.400	-17.783	0.100
707.500	-9.212	0.100
707.600	16.406	0.100
707.700	8.458	0.100
707.800	-4.278	0.100
707.900	-17.752	0.100
708.000	-12.111	0.100
708.100	3.777	0.100
708.200	-3.904	0.100
708.300	8.337	0.100
708.400	-11.895	0.100
708.500	-3.089	0.100
708.600	-1.545	0.100
708.700	8.774	0.100
708.800	-9.280	0.100
708.900	1.123	0.100
709.000	0.747	0.100
709.100	-14.571	0.100
709.200	7.645	0.100
709.300	8.554	0.100
709.400	0.275	0.100
709.500	9.795	0.100
709.600	-13.341	0.100
709.700	1.077	0.100
709.800	12.427	0.100
709.900	-12.096	0.100
710.000	-4.253	0.100
710.100	13.402	0.100
710.200	-13.117	0.100
710.300	13.777	0.100
710.400	1.652	0.100
710.500	5.085	0.100
710.600	3.481	0.100
710.700	14.329	0.100
710.800	-21.497	0.100
710.900	-14.362	0.100
711.000	-9.671	0.100
711.100	1.626	0.100
711.200	7.735	0.100
711.300	-3.637	0.100
711.400	7.669	0.100
711.500	-6.420	0.100
711.600	22.506	0.100
711.700	9.140	0.100
711.800	-9.575	0.100
711.900	-22.938	0.100
712.000	12.505	0.100
712.100	-3.741	0.100
712.200	-1.613	0.100
712.300	2.740	0.100
712.400	-1.160	0.100
712.500	3.222	0.100
712.600	-4.202	0.100
712.700	2.871	0.100
712.800	7.841	0.100
712.900	-7.122	0.100
713.000	15.186	0.100
713.100	-5.082	0.100
713.200	17.840	0.100
713.300	2.303	0.100
713.400	-2.609	0.100
713.500	-6.559	0.100
713.600	6.342	0.100
713.700	-5.388	0.100
713.800	1.711	0.100
713.900	2.701	0.100
714.000	4.377	0.100
714.100	-25.127	0.100
714.200	12.011	0.100
714.300	-3.291	0.100
714.400	1.094	0.100
714.500	3.007	0.100
714.600	10.030	0.100
714.700	-2.306	0.100
714.800	-4.136	0.100
714.900	-0.140	0.100
715.000	-2.881	0.100
715.100	10.389	0.100
715.200	17.471	0.100
715.300	6.897	0.100
715.400	-2.656	0.100
715.500	-2.399	0.100
715.600	3.824	0.100
715.700	-4.431	0.100
715.800	-1.122	0.100
715.900	8.888	0.100
716.000	2.603	0.100
716.100	0.008	0.100
716.200	6.590	0.100
716.300	-0.165	0.100
716.400	4.717	0.100
716.500	3.716	0.100
716.600	4.139	0.100
716.700	13.678	0.100
716.800	14.684	0.100
716.900	0.615	0.100
717.000	17.214	0.100
717.100	2.748	0.100
717.200	0.731	0.100
717.300	28.338	0.100
717.400	-6.643	0.100
717.500	7.523	0.100
717.600	2.243	0.100
717.700	14.254	0.100
717.800	10.741	0.100
717.900	21.320	0.100
718.000	21.693	0.100
718.100	34.913	0.100
718.200	24.442	0.100
718.300	41.979	0.100
718.400	16.066	0.100
718.500	24.775	0.100
718.600	-0.006	0.100
718.700	37.191	0.100
718.800	21.607	0.100
718.900	0.518	0.100
719.000	36.360	0.100
719.100	22.045	0.100
719.200	18.708	0.100
719.300	23.630	0.100
719.400	31.287	0.100
719.500	8.912	0.100
719.600	42.281	0.100
719.700	18.859	0.100
719.800	29.832	0.100
719.900	24.551	0.100
720.000	1.636	0.100
720.100	20.825	0.100
720.200	26.608	0.100
720.300	6.656	0.100
720.400	5.412	0.100
720.500	16.664	0.100
720.600	19.749	0.100
720.700	22.828	0.100
720.800	6.697	0.100
720.900	44.596	0.100
721.000	6.050	0.100
721.100	14.683	0.100
721.200	19.182	0.100
721.300	12.367	0.100
721.400	2.213	0.100
721.500	23.636	0.100
721.600	-4.792	0.100
721.700	16.158	0.100
721.800	9.963	0.100
721.900	19.151	0.100
722.000	20.269	0.100
722.100	23.123	0.100
722.200	-0.123	0.100
722.300	-1.397	0.100
722.400	3.787	0.100
722.500	12.541	0.100
722.600	10.601	0.100
722.700	21.531	0.100
722.800	7.615	0.100
722.900	-3.771	0.100
723.000	2.450	0.100
723.100	2.925	0.100
723.200	22.047	0.100
723.300	1.646	0.100
723.400	11.136	0.100
723.500	8.290	0.100
723.600	22.480	0.100
723.700	12.877	0.100
723.800	7.700	0.100
723.900	19.781	0.100
724.000	21.189	0.100
724.100	14.313	0.100
724.200	-0.683	0.100
724.300	6.663	0.100
724.400	18.468	0.100
724.500	-1.087	0.100
724.600	-7.208	0.100
724.700	8.741	0.100
724.800	25.405	0.100
724.900	11.429	0.100
725.000	0.862	0.100
725.100	24.712	0.100
725.200	17.533	0.100
725.300	24.163	0.100
725.400	32.546	0.100
725.500	7.698	0.100
725.600	19.119	0.100
725.700	14.945	0.100
725.800	22.381	0.100
725.900	2.023	0.100
726.000	34.609	0.100
726.100	15.170	0.100
726.200	16.557	0.100
726.300	18.854	0.100
726.400	14.389	0.100
726.500	10.991	0.100
726.600	4.325	0.100
726.700	7.446	0.100
726.800	8.866	0.100
726.900	21.365	0.100
727.000	5.300	0.100
727.100	10.306	0.100
727.200	12.309	0.100
727.300	8.692	0.100
727.400	20.725	0.100
727.500	-9.729	0.100
727.600	29.318	0.100
727.700	45.783	0.100
727.800	9.362	0.100
727.900	2.486	0.100
728.000	2.610	0.100
728.100	19.501	0.100
728.200	15.577	0.100
728.300	13.941	0.100
728.400	-4.642	0.100
728.500	17.100	0.100
728.600	10.717	0.100
728.700	31.545	0.100
728.800	-10.211	0.100
728.900	19.484	0.100
729.000	17.628	0.100
729.100	28.124	0.100
729.200	5.381	0.100
729.300	23.048	0.100
729.400	10.506	0.100
729.500	6.801	0.100
729.600	5.514	0.100
729.700	13.679	0.100
729.800	21.707	0.100
729.900	12.995	0.100
730.000	8.812	0.100
730.100	-3.161	0.100
730.200	21.681	0.100
730.300	13.394	0.100
730.400	14.415	0.100
730.500	11.923	0.100
730.600	18.058	0.100
730.700	10.188	0.100
730.800	-13.829	0.100
730.900	9.439	0.100
731.000	5.970	0.100
731.100	0.208	0.100
731.200	6.682	0.100
731.300	16.788	0.100
731.400	18.400	0.100
731.500	0.411	0.100
731.600	7.007	0.100
731.700	25.816	0.100
731.800	2.453	0.100
731.900	14.021	0.100
732.000	-10.107	0.100
732.100	16.942	0.100
732.200	0.613	0.100
732.300	13.525	0.100
732.400	5.750	0.100
732.500	20.963	0.100
732.600	18.973	0.100
732.700	16.950	0.100
732.800	15.157	0.100
732.900	9.743	0.100
733.000	-8.559	0.100
733.100	14.694	0.100
733.200	6.685	0.100
733.300	21.174	0.100
733.400	8.445	0.100
733.500	5.171	0.100
733.600	13.810	0.100
733.700	16.139	0.100
733.800	13.143	0.100
733.900	12.596	0.100
734.000	-8.234	0.100
734.100	-11.217	0.100
734.200	-18.216	0.100
734.300	-4.490	0.100
734.400	4.820	0.100
734.500	9.937	0.100
734.600	-5.865	0.100
734.700	-13.012	0.100
734.800	-8.570	0.100
734.900	-11.768	0.100
735.000	-16.086	0.100
735.100	10.877	0.100
735.200	6.649	0.100
735.300	25.616	0.100
735.400	21.344	0.100
735.500	9.178	0.100
735.600	19.578	0.100
735.700	11.671	0.100
735.800	18.515	0.100
735.900	20.280	0.100
736.000	37.401	0.100
736.100	-1.451	0.100
736.200	1.125	0.100
736.300	8.496	0.100
736.400	-5.595	0.100
736.500	12.070	0.100
736.600	29.914	0.100
736.700	2.083	0.100
736.800	22.280	0.100
736.900	17.637	0.100
737.000	11.067	0.100
737.100	23.419	0.100
737.200	6.906	0.100
737.300	15.474	0.100
737.400	8.415	0.100
737.500	16.191	0.100
737.600	17.011	0.100
737.700	20.746	0.100
737.800	17.475	0.100
737.900	11.500	0.100
738.000	23.372	0.100
738.100	31.216	0.100
738.200	12.882	0.100
738.300	-1.266	0.100
738.400	33.861	0.100
738.500	8.103	0.100
738.600	-5.977	0.100
738.700	15.125	0.100
738.800	14.679	0.100
738.900	18.148	0.100
739.000	20.643	0.100
739.100	6.824	0.100
739.200	21.367	0.100
739.300	22.770	0.100
739.400	22.588	0.100
739.500	18.055	0.100
739.600	18.176	0.100
739.700	9.492	0.100
739.800	24.652	0.100
739.900	14.959	0.100
740.000	20.086	0.100
740.100	14.075	0.100
740.200	23.719	0.100
740.300	2.966	0.100
740.400	20.408	0.100
740.500	17.565	0.100
740.600	6.736	0.100
740.700	2.316	0.100
740.800	6.946	0.100
740.900	22.778	0.100
741.000	18.460	0.100
741.100	16.881	0.100
741.200	16.456	0.100
741.300	4.371	0.100
741.400	30.438	0.100
741.500	6.977	0.100
741.600	14.491	0.100
741.700	-3.279	0.100
741.800	8.142	0.100
741.900	10.606	0.100
742.000	3.918	0.100
742.100	17.884	0.100
742.200	12.053	0.100
742.300	4.534	0.100
742.400	9.038	0.100
742.500	32.046	0.100
742.600	18.482	0.100
742.700	-2.108	0.100
742.800	15.267	0.100
742.900	26.705	0.100
743.000	24.762	0.100
743.100	2.541	0.100
743.200	10.484	0.100
743.300	19.986	0.100
743.400	9.008	0.100
743.500	20.953	0.100
743.600	14.130	0.100
743.700	-3.160	0.100
743.800	14.707	0.100
743.900	13.170	0.100
744.000	13.962	0.100
744.100	14.581	0.100
744.200	19.756	0.100
744.300	19.122	0.100
744.400	15.165	0.100
744.500	13.447	0.100
744.600	6.834	0.100
744.700	21.173	0.100
744.800	1.730	0.100
744.900	13.268	0.100
745.000	17.320	0.100
745.100	17.600	0.100
745.200	20.993	0.100
745.300	34.792	0.100
745.400	18.042	0.100
745.500	34.931	0.100
745.600	-5.800	0.100
745.700	18.405	0.100
745.800	30.520	0.100
745.900	10.671	0.100
746.000	14.936	0.100
746.100	19.055	0.100
746.200	31.381	0.100
746.300	5.966	0.100
746.400	32.677	0.100
746.500	45.164	0.100
746.600	6.949	0.100
746.700	16.000	0.100
746.800	10.257	0.100
746.900	13.307	0.100
747.000	28.593	0.100
747.100	13.023	0.100
747.200	19.612	0.100
747.300	18.966	0.100
747.400	16.679	0.100
747.500	19.531	0.100
747.600	-7.281	0.100
747.700	11.453	0.100
747.800	10.397	0.100
747.900	26.880	0.100
748.000	12.226	0.100
748.100	11.688	0.100
748.200	4.724	0.100
748.300	14.063	0.100
748.400	16.082	0.100
748.500	21.461	0.100
748.600	13.242	0.100
748.700	18.405	0.100
748.800	19.564	0.100
748.900	29.193	0.100
749.000	14.994	0.100
749.100	18.591	0.100
749.200	16.630	0.100
749.300	39.552	0.100
749.400	24.572	0.100
749.500	9.492	0.100
749.600	15.552	0.100
749.700	26.625	0.100
749.800	18.912	0.100
749.900	2.503	0.100
750.000	25.924	0.100
750.100	16.821	0.100
750.200	8.857	0.100
750.300	25.965	0.100
750.400	26.401	0.100
750.500	31.693	0.100
750.600	20.080	0.100
750.700	11.438	0.100
750.800	14.234	0.100
750.900	38.937	0.100
751.000	4.921	0.100
751.100	13.425	0.100
751.200	32.151	0.100
751.300	32.234	0.100
751.400	16.547	0.100
751.500	10.638	0.100
751.600	18.595	0.100
751.700	4.729	0.100
751.800	13.449	0.100
751.900	25.068	0.100
752.000	18.778	0.100
752.100	17.999	0.100
752.200	20.037	0.100
752.300	25.664	0.100
752.400	4.950	0.100
752.500	14.140	0.100
752.600	27.045	0.100
752.700	6.335	0.100
752.800	9.032	0.100
752.900	13.163	0.100
753.000	23.168	0.100
753.100	14.681	0.100
753.200	5.789	0.100
753.300	21.179	0.100
753.400	11.748	0.100
753.500	13.120	0.100
753.600	25.741	0.100
753.700	18.689	0.100
753.800	13.490	0.100
753.900	27.525	0.100
754.000	10.219	0.100
754.100	14.706	0.100
754.200	2.271	0.100
754.300	7.755	0.100
754.400	23.281	0.100
754.500	9.535	0.100
754.600	3.200	0.100
754.700	22.693	0.100
754.800	19.793	0.100
754.900	7.027	0.100
755.000	7.906	0.100
755.100	20.536	0.100
755.200	-4.319	0.100
755.300	25.331	0.100
755.400	-2.680	0.100
755.500	26.217	0.100
755.600	5.914	0.100
755.700	6.991	0.100
755.800	12.088	0.100
755.900	22.368	0.100
756.000	9.820	0.100
756.100	13.568	0.100
756.200	1.414	0.100
756.300	1.102	0.100
756.400	11.827	0.100
756.500	0.475	0.100
756.600	7.603	0.100
756.700	3.630	0.100
756.800	10.311	0.100
756.900	0.534	0.100
757.000	1.690	0.100
757.100	0.030	0.100
757.200	1.731	0.100
757.300	15.124	0.100
757.400	23.678	0.100
757.500	3.908	0.100
757.600	10.600	0.100
757.700	13.024	0.100
757.800	11.804	0.100
757.900	5.468	0.100
758.000	8.604	0.100
758.100	0.127	0.100
758.200	34.213	0.100
758.300	18.567	0.100
758.400	0.374	0.100
758.500	3.480	0.100
758.600	4.014	0.100
758.700	12.961	0.100
758.800	10.148	0.100
758.900	21.515	0.100
759.000	1.136	0.100
759.100	-6.892	0.100
759.200	3.717	0.100
759.300	4.670	0.100
759.400	2.246	0.100
759.500	-1.354	0.100
759.600	16.359	0.100
759.700	-27.723	0.100
759.800	21.371	0.100
759.900	3.701	0.100
760.000	12.533	0.100
760.100	2.097	0.100
760.200	-9.607	0.100
760.300	8.858	0.100
760.400	16.027	0.100
760.500	-5.876	0.100
760.600	9.218	0.100
760.700	-13.273	0.100
760.800	12.152	0.100
760.900	10.995	0.100
761.000	12.034	0.100
761.100	11.292	0.100
761.200	33.782	0.100
761.300	7.201	0.100
761.400	-15.181	0.100
761.500	18.729	0.100
761.600	3.863	0.100
761.700	10.983	0.100
761.800	17.051	0.100
761.900	4.141	0.100
762.000	29.208	0.100
762.100	-1.472	0.100
762.200	15.542	0.100
762.300	0.958	0.100
762.400	-0.898	0.100
762.500	10.451	0.100
762.600	3.988	0.100
762.700	-0.897	0.100
762.800	19.267	0.100
762.900	9.683	0.100
763.000	-6.533	0.100
763.100	13.209	0.100
763.200	-3.409	0.100
763.300	-8.457	0.100
763.400	15.936	0.100
763.500	-6.456	0.100
763.600	24.707	0.100
763.700	-7.208	0.100
763.800	-2.631	0.100
763.900	10.489	0.100
764.000	3.457	0.100
764.100	7.168	0.100
764.200	-9.867	0.100
764.300	18.346	0.100
764.400	13.533	0.100
764.500	20.506	0.100
764.600	10.834	0.100
764.700	1.527	0.100
764.800	1.136	0.100
764.900	-3.434	0.100
765.000	9.146	0.100
765.100	12.626	0.100
765.200	-7.689	0.100
765.300	-2.036	0.100
765.400	10.304	0.100
765.500	-4.204	0.100
765.600	0.872	0.100
765.700	16.134	0.100
765.800	21.345	0.100
765.900	0.428	0.100
766.000	8.891	0.100
766.100	10.730	0.100
766.200	-1.288	0.100
766.300	21.395	0.100
766.400	15.448	0.100
766.500	17.915	0.100
766.600	5.013	0.100
766.700	2.831	0.100
766.800	18.861	0.100
766.900	5.107	0.100
767.000	12.342	0.100
767.100	15.655	0.100
767.200	20.652	0.100
767.300	4.025	0.100
767.400	1.933	0.100
767.500	12.832	0.100
767.600	-4.549	0.100
767.700	2.927	0.100
767.800	19.974	0.100
767.900	-0.150	0.100
768.000	10.608	0.100
768.100	1.809	0.100
768.200	15.370	0.100
768.300	13.400	0.100
768.400	15.093	0.100
768.500	12.662	0.100
768.600	11.527	0.100
768.700	18.602	0.100
768.800	-17.144	0.100
768.900	11.982	0.100
769.000	21.482	0.100
769.100	17.716	0.100
769.200	15.733	0.100
769.300	8.285	0.100
769.400	5.781	0.100
769.500	2.655	0.100
769.600	13.816	0.100
769.700	-8.763	0.100
769.800	9.985	0.100
769.900	13.928	0.100
770.000	-3.883	0.100
770.100	13.645	0.100
770.200	-9.393	0.100
770.300	18.313	0.100
770.400	-1.410	0.100
770.500	-10.672	0.100
770.600	5.059	0.100
770.700	-1.776	0.100
770.800	13.237	0.100
770.900	-6.831	0.100
771.000	19.873	0.100
771.100	25.282	0.100
771.200	13.979	0.100
771.300	2.210	0.100
771.400	14.285	0.100
771.500	-3.645	0.100
771.600	-3.530	0.100
771.700	5.091	0.100
771.800	11.662	0.100
771.900	-7.190	0.100
772.000	-3.039	0.100
772.100	17.120	0.100
772.200	17.013	0.100
772.300	20.902	0.100
772.400	10.860	0.100
772.500	20.370	0.100
772.600	1.191	0.100
772.700	19.082	0.100
772.800	14.994	0.100
772.900	-10.236	0.100
773.000	15.914	0.100
773.100	7.202	0.100
773.200	8.950	0.100
773.300	1.513	0.100
773.400	17.289	0.100
773.500	-6.572	0.100
773.600	-1.934	0.100
773.700	0.818	0.100
773.800	6.366	0.100
773.900	11.949	0.100
774.000	4.550	0.100
774.100	10.992	0.100
774.200	5.492	0.100
774.300	18.213	0.100
774.400	-11.483	0.100
774.500	8.549	0.100
774.600	21.484	0.100
774.700	-14.552	0.100
774.800	-7.105	0.100
774.900	25.360	0.100
775.000	0.104	0.100
775.100	22.487	0.100
775.200	14.731	0.100
775.300	2.612	0.100
775.400	2.045	0.100
775.500	19.998	0.100
775.600	6.380	0.100
775.700	-2.364	0.100
775.800	-3.943	0.100
775.900	8.874	0.100
776.000	-2.965	0.100
776.100	7.532	0.100
776.200	16.779	0.100
776.300	7.195	0.100
776.400	2.806	0.100
776.500	-2.992	0.100
776.600	8.414	0.100
776.700	-7.050	0.100
776.800	0.766	0.100
776.900	9.796	0.100
777.000	-5.367	0.100
777.100	22.312	0.100
777.200	33.502	0.100
777.300	2.381	0.100
777.400	-11.000	0.100
777.500	-2.695	0.100
777.600	1.019	0.100
777.700	19.141	0.100
777.800	26.343	0.100
777.900	-14.202	0.100
778.000	3.956	0.100
778.100	16.527	0.100
778.200	10.177	0.100
778.300	8.488	0.100
778.400	5.403	0.100
778.500	-7.665	0.100
778.600	6.031	0.100
778.700	-10.234	0.100
778.800	-5.800	0.100
778.900	-1.199	0.100
779.000	6.608	0.100
779.100	-1.655	0.100
779.200	8.403	0.100
779.300	2.111	0.100
779.400	2.629	0.100
779.500	-6.873	0.100
779.600	21.989	0.100
779.700	4.421	0.100
779.800	-5.382	0.100
779.900	-2.337	0.100
780.000	-4.043	0.100
780.100	7.895	0.100
780.200	10.881	0.100
780.300	11.397	0.100
780.400	-12.001	0.100
780.500	12.833	0.100
780.600	19.710	0.100
780.700	0.886	0.100
780.800	-5.450	0.100
780.900	6.508	0.100
781.000	2.358	0.100
781.100	13.530	0.100
781.200	16.822	0.100
781.300	13.660	0.100
781.400	7.832	0.100
781.500	12.236	0.100
781.600	27.524	0.100
781.700	8.420	0.100
781.800	29.821	0.100
781.900	1.749	0.100
782.000	28.735	0.100
782.100	28.908	0.100
782.200	15.765	0.100
782.300	25.321	0.100
782.400	3.674	0.100
782.500	18.889	0.100
782.600	6.535	0.100
782.700	27.132	0.100
782.800	28.618	0.100
782.900	13.330	0.100
783.000	37.583	0.100
783.100	9.022	0.100
783.200	28.334	0.100
783.300	17.581	0.100
783.400	2.979	0.100
783.500	28.787	0.100
783.600	22.735	0.100
783.700	32.677	0.100
783.800	9.376	0.100
783.900	31.740	0.100
784.000	16.354	0.100
784.100	19.042	0.100
784.200	18.125	0.100
784.300	0.719	0.100
784.400	18.710	0.100
784.500	-1.947	0.100
784.600	28.529	0.100
784.700	-4.168	0.100
784.800	12.150	0.100
784.900	0.455	0.100
785.000	29.555	0.100
785.100	24.738	0.100
785.200	31.119	0.100
785.300	13.870	0.100
785.400	14.323	0.100
785.500	3.375	0.100
785.600	2.412	0.100
785.700	30.531	0.100
785.800	16.888	0.100
785.900	32.779	0.100
786.000	30.095	0.100
786.100	18.435	0.100
786.200	50.583	0.100
786.300	7.929	0.100
786.400	26.398	0.100
786.500	23.006	0.100
786.600	17.634	0.100
786.700	28.195	0.100
786.800	20.404	0.100
786.900	16.332	0.100
787.000	2.364	0.100
787.100	14.751	0.100
787.200	28.414	0.100
787.300	21.413	0.100
787.400	20.797	0.100
787.500	25.194	0.100
787.600	22.490	0.100
787.700	-5.592	0.100
787.800	28.450	0.100
787.900	4.543	0.100
788.000	30.619	0.100
788.100	28.641	0.100
788.200	24.247	0.100
788.300	27.864	0.100
788.400	30.525	0.100
788.500	11.372	0.100
788.600	31.032	0.100
788.700	10.505	0.100
788.800	36.447	0.100
788.900	4.087	0.100
789.000	25.259	0.100
789.100	17.835	0.100
789.200	22.820	0.100
789.300	35.740	0.100
789.400	17.572	0.100
789.500	31.334	0.100
789.600	27.311	0.100
789.700	-0.090	0.100
789.800	36.848	0.100
789.900	17.438	0.100
790.000	32.392	0.100
790.100	13.003	0.100
790.200	39.188	0.100
790.300	14.874	0.100
790.400	19.530	0.100
790.500	37.276	0.100
790.600	21.730	0.100
790.700	18.060	0.100
790.800	21.652	0.100
790.900	20.037	0.100
791.000	13.422	0.100
791.100	26.861	0.100
791.200	13.429	0.100
791.300	40.921	0.100
791.400	40.788	0.100
791.500	30.111	0.100
791.600	18.100	0.100
791.700	29.665	0.100
791.800	23.849	0.100
791.900	43.522	0.100
792.000	26.412	0.100
792.100	37.072	0.100
792.200	10.947	0.100
792.300	33.838	0.100
792.400	33.757	0.100
792.500	25.720	0.100
792.600	21.138	0.100
792.700	31.287	0.100
792.800	36.646	0.100
792.900	28.265	0.100
793.000	16.036	0.100
793.100	30.333	0.100
793.200	16.213	0.100
793.300	39.356	0.100
793.400	37.625	0.100
793.500	25.798	0.100
793.600	39.916	0.100
793.700	32.662	0.100
793.800	17.827	0.100
793.900	17.147	0.100
794.000	55.280	0.100
794.100	40.796	0.100
794.200	44.039	0.100
794.300	4.807	0.100
794.400	40.160	0.100
794.500	38.147	0.100
794.600	29.376	0.100
794.700	49.472	0.100
794.800	43.532	0.100
794.900	25.671	0.100
795.000	37.614	0.100
795.100	36.637	0.100
795.200	42.552	0.100
795.300	39.674	0.100
795.400	22.706	0.100
795.500	45.557	0.100
795.600	52.026	0.100
795.700	23.440	0.100
795.800	39.290	0.100
795.900	37.633	0.100
796.000	17.938	0.100
796.100	47.718	0.100
796.200	42.897	0.100
796.300	39.141	0.100
796.400	39.421	0.100
796.500	20.983	0.100
796.600	34.949	0.100
796.700	40.162	0.100
796.800	39.203	0.100
796.900	33.145	0.100
797.000	36.564	0.100
797.100	38.805	0.100
797.200	49.302	0.100
797.300	36.331	0.100
797.400	42.103	0.100
797.500	55.448	0.100
797.600	29.657	0.100
797.700	52.201	0.100
797.800	25.176	0.100
797.900	35.090	0.100
798.000	41.778	0.100
798.100	58.289	0.100
798.200	40.952	0.100
798.300	37.470	0.100
798.400	29.785	0.100
798.500	63.883	0.100
798.600	26.984	0.100
798.700	47.481	0.100
798.800	37.812	0.100
798.900	37.158	0.100
799.000	27.929	0.100
799.100	43.058	0.100
799.200	40.898	0.100
799.300	58.382	0.100
799.400	40.835	0.100
799.500	48.337	0.100
799.600	29.087	0.100
799.700	45.225	0.100
799.800	56.014	0.100
799.900	45.211	0.100
800.000	37.342	0.100
