time /s	I /nA	E /V
0.100	-10.497	0.100
0.200	-14.270	0.100
0.300	-4.975	0.100
0.400	12.384	0.100
0.500	-10.640	0.100
0.600	-0.064	0.100
0.700	21.592	0.100
0.800	0.861	0.100
0.900	-7.388	0.100
1.000	6.608	0.100
1.100	-5.360	0.100
1.200	6.980	0.100
1.300	3.689	0.100
1.400	-5.092	0.100
1.500	-9.619	0.100
1.600	14.019	0.100
1.700	-3.202	0.100
1.800	15.673	0.100
1.900	-9.698	0.100
2.000	-9.660	0.100
2.100	20.128	0.100
2.200	-7.666	0.100
2.300	5.673	0.100
2.400	10.932	0.100
2.500	-8.697	0.100
2.600	-2.493	0.100
2.700	11.308	0.100
2.800	1.984	0.100
2.900	-12.944	0.100
3.000	13.055	0.100
3.100	4.356	0.100
3.200	3.267	0.100
3.300	3.235	0.100
3.400	-22.181	0.100
3.500	-4.761	0.100
3.600	-11.027	0.100
3.700	6.378	0.100
3.800	23.022	0.100
3.900	0.162	0.100
4.000	-2.129	0.100
4.100	-1.646	0.100
4.200	-8.400	0.100
4.300	10.317	0.100
4.400	-3.381	0.100
4.500	-5.515	0.100
4.600	-0.295	0.100
4.700	-25.580	0.100
4.800	9.752	0.100
4.900	-4.607	0.100
5.000	12.224	0.100
5.100	4.589	0.100
5.200	0.766	0.100
5.300	9.486	0.100
5.400	12.324	0.100
5.500	-26.176	0.100
5.600	1.854	0.100
5.700	-11.803	0.100
5.800	-16.560	0.100
5.900	-12.870	0.100
6.000	14.288	0.100
6.100	12.154	0.100
6.200	-2.237	0.100
6.300	-6.340	0.100
6.400	9.192	0.100
6.500	-4.284	0.100
6.600	9.338	0.100
6.700	9.540	0.100
6.800	10.314	0.100
6.900	-27.695	0.100
7.000	0.865	0.100
7.100	5.936	0.100
7.200	4.553	0.100
7.300	4.492	0.100
7.400	-15.398	0.100
7.500	7.422	0.100
7.600	2.265	0.100
7.700	-3.133	0.100
7.800	-12.948	0.100
7.900	5.236	0.100
8.000	0.677	0.100
8.100	15.063	0.100
8.200	1.429	0.100
8.300	-19.124	0.100
8.400	-13.104	0.100
8.500	-8.901	0.100
8.600	-20.063	0.100
8.700	5.780	0.100
8.800	3.709	0.100
8.900	2.202	0.100
9.000	-7.778	0.100
9.100	-9.421	0.100
9.200	4.425	0.100
9.300	4.704	0.100
9.400	18.860	0.100
9.500	3.001	0.100
9.600	15.152	0.100
9.700	-11.967	0.100
9.800	-16.440	0.100
9.900	2.996	0.100
10.000	1.662	0.100
10.100	-10.862	0.100
10.200	-13.606	0.100
10.300	-19.232	0.100
10.400	15.344	0.100
10.500	-30.649	0.100
10.600	-6.827	0.100
10.700	10.058	0.100
10.800	19.589	0.100
10.900	-10.147	0.100
11.000	13.673	0.100
11.100	-13.046	0.100
11.200	8.197	0.100
11.300	-1.782	0.100
11.400	-15.871	0.100
11.500	-13.664	0.100
11.600	-3.189	0.100
11.700	7.187	0.100
11.800	5.524	0.100
11.900	4.051	0.100
12.000	-14.430	0.100
12.100	19.112	0.100
12.200	1.538	0.100
12.300	-13.390	0.100
12.400	-2.736	0.100
12.500	-2.049	0.100
12.600	-13.459	0.100
12.700	-5.518	0.100
12.800	-12.778	0.100
12.900	-8.306	0.100
13.000	10.029	0.100
13.100	0.830	0.100
13.200	-7.899	0.100
13.300	-21.554	0.100
13.400	9.266	0.100
13.500	11.976	0.100
13.600	-19.621	0.100
13.700	18.566	0.100
13.800	14.205	0.100
13.900	8.994	0.100
14.000	4.003	0.100
14.100	-2.582	0.100
14.200	9.836	0.100
14.300	5.651	0.100
14.400	-3.977	0.100
14.500	-3.335	0.100
14.600	-7.989	0.100
14.700	4.212	0.100
14.800	-7.750	0.100
14.900	23.220	0.100
15.000	4.645	0.100
15.100	-17.890	0.100
15.200	-2.372	0.100
15.300	-1.955	0.100
15.400	-13.137	0.100
15.500	2.938	0.100
15.600	1.690	0.100
15.700	0.241	0.100
15.800	-25.121	0.100
15.900	-0.666	0.100
16.000	0.240	0.100
16.100	-11.832	0.100
16.200	4.137	0.100
16.300	-1.859	0.100
16.400	-5.064	0.100
16.500	-2.653	0.100
16.600	-6.720	0.100
16.700	-12.534	0.100
16.800	-5.072	0.100
16.900	-8.391	0.100
17.000	-7.661	0.100
17.100	7.714	0.100
17.200	-4.161	0.100
17.300	6.310	0.100
17.400	0.209	0.100
17.500	1.284	0.100
17.600	-6.816	0.100
17.700	-4.538	0.100
17.800	-10.143	0.100
17.900	-3.117	0.100
18.000	-4.241	0.100
18.100	4.926	0.100
18.200	-14.150	0.100
18.300	-6.737	0.100
18.400	3.099	0.100
18.500	3.244	0.100
18.600	-18.689	0.100
18.700	0.021	0.100
18.800	3.255	0.100
18.900	-6.453	0.100
19.000	7.943	0.100
19.100	-0.484	0.100
19.200	9.537	0.100
19.300	-5.403	0.100
19.400	-8.073	0.100
19.500	-7.902	0.100
19.600	7.708	0.100
19.700	-2.829	0.100
19.800	0.536	0.100
19.900	-7.804	0.100
20.000	-9.432	0.100
20.100	12.520	0.100
20.200	-8.935	0.100
20.300	-2.501	0.100
20.400	-8.846	0.100
20.500	-0.323	0.100
20.600	-5.406	0.100
20.700	11.909	0.100
20.800	-5.139	0.100
20.900	-8.184	0.100
21.000	1.397	0.100
21.100	-20.847	0.100
21.200	-17.694	0.100
21.300	-11.659	0.100
21.400	5.978	0.100
21.500	-7.124	0.100
21.600	4.690	0.100
21.700	3.057	0.100
21.800	-3.767	0.100
21.900	0.923	0.100
22.000	1.538	0.100
22.100	-22.344	0.100
22.200	20.029	0.100
22.300	-9.130	0.100
22.400	-2.694	0.100
22.500	-1.580	0.100
22.600	-0.412	0.100
22.700	-3.514	0.100
22.800	-15.241	0.100
22.900	1.052	0.100
23.000	-4.036	0.100
23.100	-1.755	0.100
23.200	5.230	0.100
23.300	-11.024	0.100
23.400	-12.136	0.100
23.500	-6.366	0.100
23.600	1.422	0.100
23.700	-6.852	0.100
23.800	0.502	0.100
23.900	-5.769	0.100
24.000	-1.692	0.100
24.100	-8.461	0.100
24.200	2.018	0.100
24.300	-22.888	0.100
24.400	9.152	0.100
24.500	11.075	0.100
24.600	-5.613	0.100
24.700	-7.640	0.100
24.800	-16.638	0.100
24.900	-0.544	0.100
25.000	0.113	0.100
25.100	7.009	0.100
25.200	-19.849	0.100
25.300	0.070	0.100
25.400	7.958	0.100
25.500	-5.743	0.100
25.600	-15.815	0.100
25.700	-11.599	0.100
25.800	-15.494	0.100
25.900	9.053	0.100
26.000	0.247	0.100
26.100	-6.243	0.100
26.200	-5.630	0.100
26.300	-9.510	0.100
26.400	13.901	0.100
26.500	1.745	0.100
26.600	-0.013	0.100
26.700	4.618	0.100
26.800	-0.197	0.100
26.900	-12.996	0.100
27.000	-7.155	0.100
27.100	-20.585	0.100
27.200	7.491	0.100
27.300	7.503	0.100
27.400	-20.115	0.100
27.500	8.410	0.100
27.600	5.023	0.100
27.700	5.331	0.100
27.800	-10.341	0.100
27.900	1.363	0.100
28.000	-15.911	0.100
28.100	-14.064	0.100
28.200	9.992	0.100
28.300	-0.016	0.100
28.400	-4.374	0.100
28.500	-8.719	0.100
28.600	5.277	0.100
28.700	7.458	0.100
28.800	-14.955	0.100
28.900	-2.037	0.100
29.000	-4.177	0.100
29.100	-18.419	0.100
29.200	-17.368	0.100
29.300	8.636	0.100
29.400	-13.538	0.100
29.500	4.190	0.100
29.600	-27.726	0.100
29.700	-7.039	0.100
29.800	5.933	0.100
29.900	3.638	0.100
30.000	4.297	0.100
30.100	-7.449	0.100
30.200	-21.467	0.100
30.300	8.406	0.100
30.400	3.727	0.100
30.500	-2.015	0.100
30.600	6.388	0.100
30.700	4.063	0.100
30.800	22.356	0.100
30.900	6.816	0.100
31.000	12.497	0.100
31.100	16.043	0.100
31.200	2.108	0.100
31.300	-6.396	0.100
31.400	-9.599	0.100
31.500	-3.347	0.100
31.600	-1.169	0.100
31.700	19.693	0.100
31.800	13.791	0.100
31.900	3.908	0.100
32.000	3.640	0.100
32.100	13.245	0.100
32.200	11.516	0.100
32.300	1.888	0.100
32.400	4.767	0.100
32.500	6.989	0.100
32.600	2.510	0.100
32.700	1.825	0.100
32.800	17.919	0.100
32.900	3.059	0.100
33.000	21.083	0.100
33.100	21.821	0.100
33.200	-7.449	0.100
33.300	13.035	0.100
33.400	18.807	0.100
33.500	17.912	0.100
33.600	-5.473	0.100
33.700	5.827	0.100
33.800	16.736	0.100
33.900	1.474	0.100
34.000	20.459	0.100
34.100	10.728	0.100
34.200	17.137	0.100
34.300	18.643	0.100
34.400	19.981	0.100
34.500	18.263	0.100
34.600	16.221	0.100
34.700	5.829	0.100
34.800	7.851	0.100
34.900	21.865	0.100
35.000	8.055	0.100
35.100	9.765	0.100
35.200	6.166	0.100
35.300	-8.012	0.100
35.400	35.335	0.100
35.500	13.846	0.100
35.600	19.204	0.100
35.700	31.293	0.100
35.800	22.975	0.100
35.900	9.405	0.100
36.000	5.090	0.100
36.100	11.012	0.100
36.200	27.814	0.100
36.300	27.077	0.100
36.400	17.354	0.100
36.500	23.579	0.100
36.600	16.682	0.100
36.700	27.745	0.100
36.800	9.992	0.100
36.900	11.741	0.100
37.000	24.776	0.100
37.100	20.065	0.100
37.200	13.924	0.100
37.300	13.026	0.100
37.400	19.697	0.100
37.500	19.911	0.100
37.600	31.961	0.100
37.700	1.276	0.100
37.800	13.195	0.100
37.900	32.632	0.100
38.000	25.293	0.100
38.100	17.887	0.100
38.200	28.225	0.100
38.300	33.695	0.100
38.400	34.302	0.100
38.500	22.129	0.100
38.600	23.018	0.100
38.700	20.484	0.100
38.800	32.002	0.100
38.900	22.369	0.100
39.000	38.114	0.100
39.100	32.436	0.100
39.200	23.021	0.100
39.300	7.825	0.100
39.400	21.141	0.100
39.500	25.582	0.100
39.600	28.682	0.100
39.700	29.019	0.100
39.800	34.734	0.100
39.900	30.339	0.100
40.000	41.254	0.100
40.100	42.190	0.100
40.200	21.995	0.100
40.300	21.327	0.100
40.400	14.715	0.100
40.500	31.572	0.100
40.600	25.676	0.100
40.700	12.675	0.100
40.800	34.840	0.100
40.900	28.483	0.100
41.000	43.867	0.100
41.100	24.270	0.100
41.200	39.895	0.100
41.300	28.656	0.100
41.400	22.927	0.100
41.500	28.492	0.100
41.600	15.617	0.100
41.700	38.614	0.100
41.800	39.715	0.100
41.900	20.154	0.100
42.000	44.116	0.100
42.100	29.415	0.100
42.200	25.311	0.100
42.300	41.048	0.100
42.400	27.732	0.100
42.500	34.237	0.100
42.600	16.434	0.100
42.700	48.117	0.100
42.800	36.169	0.100
42.900	40.309	0.100
43.000	43.723	0.100
43.100	38.873	0.100
43.200	27.646	0.100
43.300	16.559	0.100
43.400	23.504	0.100
43.500	45.486	0.100
43.600	30.330	0.100
43.700	4.201	0.100
43.800	21.304	0.100
43.900	56.657	0.100
44.000	45.946	0.100
44.100	21.063	0.100
44.200	6.065	0.100
44.300	52.090	0.100
44.400	46.314	0.100
44.500	38.110	0.100
44.600	26.252	0.100
44.700	38.911	0.100
44.800	16.533	0.100
44.900	28.411	0.100
45.000	39.610	0.100
45.100	31.674	0.100
45.200	32.625	0.100
45.300	29.732	0.100
45.400	47.686	0.100
45.500	33.129	0.100
45.600	24.514	0.100
45.700	29.809	0.100
45.800	31.038	0.100
45.900	45.448	0.100
46.000	48.068	0.100
46.100	22.106	0.100
46.200	17.495	0.100
46.300	39.748	0.100
46.400	32.697	0.100
46.500	46.193	0.100
46.600	40.294	0.100
46.700	25.072	0.100
46.800	17.712	0.100
46.900	33.846	0.100
47.000	21.531	0.100
47.100	41.042	0.100
47.200	38.554	0.100
47.300	39.788	0.100
47.400	54.529	0.100
47.500	35.126	0.100
47.600	22.768	0.100
47.700	34.461	0.100
47.800	45.488	0.100
47.900	35.980	0.100
48.000	47.384	0.100
48.100	48.317	0.100
48.200	34.222	0.100
48.300	35.401	0.100
48.400	35.875	0.100
48.500	34.141	0.100
48.600	39.276	0.100
48.700	27.963	0.100
48.800	39.370	0.100
48.900	32.344	0.100
49.000	23.732	0.100
49.100	40.101	0.100
49.200	38.229	0.100
49.300	32.330	0.100
49.400	30.476	0.100
49.500	42.457	0.100
49.600	32.245	0.100
49.700	35.237	0.100
49.800	36.636	0.100
49.900	26.655	0.100
50.000	49.636	0.100
50.100	50.111	0.100
50.200	14.817	0.100
50.300	48.137	0.100
50.400	27.377	0.100
50.500	31.927	0.100
50.600	34.966	0.100
50.700	27.900	0.100
50.800	63.720	0.100
50.900	49.863	0.100
51.000	42.063	0.100
51.100	47.752	0.100
51.200	34.147	0.100
51.300	8.613	0.100
51.400	30.377	0.100
51.500	67.725	0.100
51.600	29.251	0.100
51.700	29.629	0.100
51.800	32.665	0.100
51.900	39.322	0.100
52.000	45.624	0.100
52.100	47.100	0.100
52.200	38.821	0.100
52.300	40.736	0.100
52.400	36.978	0.100
52.500	39.226	0.100
52.600	24.745	0.100
52.700	36.627	0.100
52.800	36.710	0.100
52.900	59.742	0.100
53.000	28.832	0.100
53.100	40.178	0.100
53.200	40.668	0.100
53.300	37.507	0.100
53.400	33.046	0.100
53.500	30.935	0.100
53.600	38.721	0.100
53.700	47.807	0.100
53.800	47.030	0.100
53.900	16.173	0.100
54.000	60.385	0.100
54.100	56.332	0.100
54.200	25.524	0.100
54.300	40.406	0.100
54.400	40.178	0.100
54.500	41.108	0.100
54.600	24.942	0.100
54.700	42.948	0.100
54.800	38.051	0.100
54.900	25.221	0.100
55.000	36.138	0.100
55.100	47.421	0.100
55.200	17.795	0.100
55.300	42.892	0.100
55.400	54.550	0.100
55.500	22.308	0.100
55.600	37.035	0.100
55.700	25.245	0.100
55.800	33.074	0.100
55.900	49.139	0.100
56.000	37.956	0.100
56.100	47.258	0.100
56.200	39.814	0.100
56.300	50.614	0.100
56.400	28.679	0.100
56.500	48.425	0.100
56.600	34.869	0.100
56.700	40.624	0.100
56.800	34.510	0.100
56.900	40.398	0.100
57.000	38.114	0.100
57.100	37.395	0.100
57.200	52.692	0.100
57.300	49.930	0.100
57.400	43.443	0.100
57.500	29.740	0.100
57.600	41.105	0.100
57.700	28.992	0.100
57.800	36.586	0.099
57.900	42.688	0.100
58.000	34.423	0.100
58.100	35.271	0.100
58.200	37.532	0.100
58.300	40.309	0.100
58.400	54.383	0.100
58.500	27.647	0.100
58.600	40.279	0.100
58.700	35.893	0.100
58.800	45.288	0.100
58.900	33.774	0.099
59.000	33.301	0.100
59.100	56.634	0.100
59.200	43.827	0.100
59.300	19.057	0.100
59.400	49.751	0.100
59.500	39.544	0.100
59.600	29.752	0.100
59.700	38.878	0.100
59.800	39.055	0.100
59.900	43.748	0.100
60.000	43.647	0.100
60.100	60.120	0.100
60.200	30.307	0.100
60.300	48.104	0.100
60.400	35.625	0.100
60.500	46.778	0.100
60.600	11.642	0.100
60.700	28.734	0.100
60.800	48.153	0.100
60.900	39.135	0.099
61.000	49.972	0.100
61.100	48.282	0.100
61.200	45.268	0.100
61.300	34.694	0.100
61.400	39.399	0.100
61.500	55.915	0.100
61.600	47.710	0.100
61.700	29.143	0.100
61.800	54.448	0.100
61.900	27.552	0.100
62.000	37.653	0.100
62.100	45.396	0.100
62.200	17.042	0.100
62.300	39.892	0.100
62.400	54.924	0.100
62.500	40.783	0.099
62.600	38.740	0.100
62.700	56.643	0.100
62.800	42.132	0.099
62.900	56.234	0.100
63.000	32.862	0.100
63.100	27.650	0.099
63.200	29.540	0.100
63.300	42.210	0.099
63.400	39.609	0.100
63.500	24.440	0.099
63.600	40.188	0.099
63.700	44.980	0.100
63.800	40.939	0.100
63.900	37.760	0.099
64.000	50.813	0.099
64.100	32.343	0.099
64.200	44.844	0.100
64.300	29.830	0.100
64.400	21.332	0.099
64.500	48.445	0.099
64.600	50.753	0.099
64.700	42.647	0.099
64.800	40.696	0.100
64.900	30.318	0.099
65.000	26.766	0.099
65.100	33.863	0.099
65.200	67.438	0.099
65.300	43.392	0.099
65.400	31.618	0.099
65.500	39.032	0.099
65.600	53.254	0.099
65.700	48.679	0.099
65.800	51.997	0.099
65.900	47.341	0.099
66.000	48.273	0.099
66.100	32.232	0.099
66.200	43.269	0.099
66.300	46.988	0.099
66.400	36.212	0.099
66.500	36.466	0.099
66.600	35.096	0.099
66.700	44.927	0.099
66.800	43.035	0.099
66.900	25.653	0.099
67.000	51.336	0.099
67.100	29.208	0.099
67.200	42.728	0.099
67.300	37.936	0.099
67.400	71.505	0.099
67.500	47.039	0.099
67.600	45.376	0.099
67.700	38.980	0.099
67.800	36.744	0.099
67.900	28.887	0.099
68.000	45.249	0.099
68.100	53.882	0.099
68.200	49.190	0.099
68.300	39.865	0.099
68.400	36.068	0.099
68.500	47.723	0.099
68.600	48.512	0.099
68.700	44.851	0.099
68.800	42.905	0.099
68.900	46.161	0.099
69.000	28.474	0.099
69.100	50.684	0.099
69.200	25.276	0.099
69.300	49.087	0.099
69.400	22.425	0.099
69.500	70.849	0.099
69.600	40.800	0.099
69.700	50.701	0.099
69.800	48.992	0.099
69.900	48.435	0.099
70.000	41.530	0.099
70.100	45.337	0.099
70.200	44.382	0.099
70.300	26.042	0.099
70.400	38.770	0.099
70.500	39.054	0.099
70.600	57.278	0.099
70.700	45.348	0.099
70.800	41.087	0.099
70.900	57.403	0.099
71.000	51.426	0.099
71.100	51.040	0.099
71.200	43.924	0.099
71.300	49.801	0.099
71.400	50.579	0.099
71.500	33.215	0.099
71.600	39.413	0.099
71.700	42.908	0.099
71.800	35.861	0.099
71.900	58.239	0.099
72.000	55.902	0.099
72.100	45.877	0.099
72.200	51.691	0.099
72.300	46.529	0.099
72.400	47.963	0.099
72.500	55.234	0.099
72.600	46.004	0.099
72.700	42.856	0.099
72.800	45.414	0.099
72.900	30.285	0.099
73.000	42.624	0.099
73.100	47.752	0.099
73.200	40.214	0.099
73.300	67.562	0.099
73.400	39.311	0.099
73.500	53.407	0.099
73.600	46.378	0.099
73.700	59.750	0.099
73.800	36.831	0.099
73.900	48.328	0.099
74.000	35.927	0.099
74.100	43.538	0.099
74.200	35.292	0.099
74.300	53.753	0.099
74.400	60.576	0.099
74.500	37.033	0.099
74.600	61.651	0.099
74.700	53.506	0.099
74.800	52.643	0.099
74.900	51.595	0.099
75.000	25.020	0.099
75.100	43.092	0.099
75.200	58.268	0.099
75.300	68.220	0.099
75.400	35.202	0.099
75.500	56.496	0.099
75.600	26.692	0.099
75.700	38.948	0.099
75.800	53.272	0.099
75.900	50.603	0.099
76.000	61.654	0.099
76.100	52.919	0.099
76.200	43.017	0.099
76.300	49.279	0.099
76.400	59.861	0.099
76.500	34.602	0.099
76.600	28.863	0.099
76.700	55.466	0.099
76.800	59.825	0.099
76.900	40.205	0.099
77.000	33.666	0.099
77.100	71.446	0.099
77.200	54.250	0.099
77.300	35.801	0.099
77.400	49.663	0.099
77.500	48.035	0.099
77.600	57.008	0.099
77.700	60.976	0.099
77.800	41.106	0.099
77.900	51.656	0.099
78.000	31.806	0.099
78.100	49.196	0.099
78.200	45.497	0.099
78.300	48.057	0.099
78.400	45.586	0.099
78.500	41.793	0.099
78.600	55.723	0.099
78.700	40.317	0.099
78.800	73.488	0.099
78.900	38.024	0.099
79.000	33.515	0.099
79.100	58.662	0.099
79.200	45.912	0.099
79.300	68.523	0.099
79.400	64.053	0.099
79.500	37.303	0.099
79.600	51.147	0.099
79.700	52.743	0.099
79.800	55.321	0.099
79.900	32.194	0.099
80.000	37.958	0.099
80.100	60.389	0.099
80.200	54.192	0.099
80.300	21.246	0.099
80.400	48.138	0.099
80.500	61.550	0.099
80.600	52.666	0.099
80.700	54.900	0.099
80.800	31.576	0.099
80.900	38.905	0.099
81.000	58.476	0.099
81.100	42.492	0.099
81.200	56.128	0.099
81.300	57.734	0.099
81.400	40.556	0.099
81.500	47.129	0.099
81.600	33.520	0.099
81.700	37.518	0.099
81.800	47.657	0.099
81.900	60.920	0.099
82.000	40.135	0.099
82.100	47.453	0.099
82.200	53.881	0.099
82.300	71.128	0.099
82.400	55.429	0.099
82.500	46.426	0.099
82.600	57.350	0.099
82.700	59.894	0.099
82.800	53.698	0.099
82.900	58.970	0.099
83.000	57.046	0.099
83.100	62.230	0.099
83.200	69.796	0.099
83.300	43.927	0.099
83.400	44.960	0.099
83.500	44.321	0.099
83.600	37.187	0.099
83.700	61.843	0.099
83.800	40.516	0.099
83.900	40.023	0.099
84.000	52.272	0.099
84.100	54.995	0.099
84.200	35.858	0.099
84.300	55.168	0.099
84.400	40.985	0.099
84.500	66.120	0.099
84.600	62.456	0.099
84.700	51.152	0.099
84.800	45.066	0.099
84.900	59.715	0.099
85.000	49.435	0.099
85.100	63.247	0.099
85.200	34.982	0.099
85.300	51.146	0.099
85.400	51.598	0.099
85.500	57.248	0.099
85.600	27.295	0.099
85.700	55.878	0.099
85.800	63.014	0.099
85.900	41.106	0.099
86.000	49.424	0.099
86.100	46.697	0.099
86.200	52.637	0.099
86.300	44.042	0.099
86.400	57.190	0.099
86.500	34.239	0.099
86.600	50.897	0.099
86.700	76.097	0.099
86.800	69.224	0.099
86.900	39.837	0.099
87.000	49.346	0.099
87.100	48.345	0.099
87.200	40.058	0.099
87.300	55.804	0.099
87.400	49.440	0.099
87.500	52.912	0.099
87.600	47.119	0.099
87.700	49.377	0.099
87.800	65.166	0.099
87.900	56.419	0.099
88.000	55.496	0.099
88.100	45.911	0.099
88.200	46.102	0.099
88.300	57.342	0.099
88.400	43.785	0.099
88.500	50.635	0.099
88.600	24.919	0.099
88.700	66.011	0.099
88.800	60.408	0.099
88.900	47.152	0.099
89.000	46.831	0.099
89.100	55.208	0.099
89.200	43.041	0.099
89.300	61.953	0.099
89.400	48.222	0.099
89.500	45.509	0.099
89.600	57.708	0.099
89.700	37.259	0.099
89.800	42.276	0.099
89.900	41.873	0.099
90.000	43.398	0.099
90.100	63.998	0.099
90.200	54.327	0.099
90.300	60.607	0.099
90.400	38.468	0.099
90.500	34.072	0.099
90.600	44.776	0.099
90.700	56.939	0.099
90.800	48.489	0.099
90.900	32.691	0.099
91.000	37.627	0.099
91.100	44.645	0.099
91.200	51.061	0.099
91.300	43.676	0.099
91.400	54.964	0.099
91.500	49.294	0.099
91.600	21.198	0.099
91.700	38.499	0.099
91.800	43.953	0.099
91.900	42.649	0.099
92.000	39.193	0.099
92.100	36.413	0.099
92.200	24.551	0.099
92.300	27.863	0.099
92.400	22.716	0.099
92.500	40.424	0.099
92.600	46.530	0.099
92.700	26.399	0.099
92.800	18.588	0.099
92.900	28.204	0.099
93.000	43.124	0.099
93.100	25.708	0.099
93.200	34.234	0.099
93.300	27.845	0.099
93.400	34.752	0.099
93.500	29.905	0.099
93.600	28.447	0.099
93.700	15.335	0.099
93.800	2.377	0.099
93.900	39.006	0.099
94.000	49.616	0.099
94.100	38.536	0.099
94.200	8.979	0.099
94.300	34.624	0.099
94.400	27.180	0.099
94.500	26.586	0.099
94.600	16.196	0.099
94.700	22.570	0.099
94.800	28.539	0.099
94.900	13.589	0.099
95.000	13.619	0.099
95.100	2.947	0.099
95.200	5.548	0.099
95.300	30.236	0.099
95.400	17.617	0.099
95.500	40.464	0.099
95.600	26.189	0.099
95.700	11.588	0.099
95.800	19.457	0.099
95.900	10.126	0.099
96.000	31.638	0.099
96.100	31.978	0.099
96.200	27.868	0.099
96.300	38.760	0.099
96.400	17.928	0.099
96.500	-1.666	0.099
96.600	38.352	0.099
96.700	18.936	0.099
96.800	16.406	0.099
96.900	8.745	0.099
97.000	23.591	0.099
97.100	13.963	0.099
97.200	11.079	0.099
97.300	17.982	0.099
97.400	12.548	0.099
97.500	12.962	0.099
97.600	12.675	0.099
97.700	34.458	0.099
97.800	1.356	0.099
97.900	8.260	0.099
98.000	24.005	0.099
98.100	-10.833	0.099
98.200	39.842	0.099
98.300	8.387	0.099
98.400	24.911	0.099
98.500	10.251	0.099
98.600	2.067	0.099
98.700	16.179	0.099
98.800	4.644	0.099
98.900	15.168	0.099
99.000	10.816	0.099
99.100	15.295	0.099
99.200	34.616	0.100
99.300	13.503	0.100
99.400	17.682	0.100
99.500	2.131	0.100
99.600	13.201	0.100
99.700	6.387	0.100
99.800	17.836	0.100
99.900	36.154	0.100
100.000	-0.134	0.100
100.100	9.339	0.100
100.200	1.267	0.100
100.300	29.629	0.100
100.400	25.394	0.100
100.500	11.636	0.100
100.600	17.695	0.100
100.700	-1.820	0.100
100.800	14.608	0.100
100.900	25.256	0.100
101.000	15.899	0.100
101.100	8.766	0.100
101.200	0.568	0.100
101.300	-0.203	0.100
101.400	26.654	0.100
101.500	4.992	0.100
101.600	9.218	0.100
101.700	-6.260	0.100
101.800	30.520	0.100
101.900	12.804	0.100
102.000	-2.630	0.100
102.100	-12.615	0.100
102.200	20.613	0.100
102.300	8.899	0.100
102.400	9.246	0.100
102.500	3.369	0.100
102.600	33.505	0.100
102.700	12.230	0.100
102.800	17.027	0.100
102.900	6.629	0.100
103.000	7.653	0.100
103.100	15.240	0.100
103.200	0.868	0.100
103.300	-13.390	0.100
103.400	25.052	0.100
103.500	15.486	0.100
103.600	12.261	0.100
103.700	10.897	0.100
103.800	1.265	0.100
103.900	4.840	0.100
104.000	30.610	0.100
104.100	6.516	0.100
104.200	19.733	0.100
104.300	2.915	0.100
104.400	18.755	0.100
104.500	12.742	0.100
104.600	12.381	0.100
104.700	8.046	0.100
104.800	18.653	0.100
104.900	16.774	0.100
105.000	10.639	0.100
105.100	14.019	0.100
105.200	1.713	0.100
105.300	20.232	0.100
105.400	27.558	0.100
105.500	22.857	0.100
105.600	13.641	0.100
105.700	2.561	0.100
105.800	13.092	0.100
105.900	19.527	0.100
106.000	-6.341	0.100
106.100	15.710	0.100
106.200	18.425	0.100
106.300	13.431	0.100
106.400	5.390	0.100
106.500	-0.007	0.100
106.600	20.498	0.100
106.700	24.422	0.100
106.800	14.183	0.100
106.900	-0.116	0.100
107.000	3.011	0.100
107.100	13.256	0.100
107.200	0.419	0.100
107.300	14.467	0.100
107.400	14.818	0.100
107.500	28.369	0.100
107.600	-5.901	0.100
107.700	-11.575	0.100
107.800	1.118	0.100
107.900	8.210	0.100
108.000	7.222	0.100
108.100	9.623	0.100
108.200	19.075	0.100
108.300	10.774	0.100
108.400	6.453	0.100
108.500	7.941	0.100
108.600	7.140	0.100
108.700	32.226	0.100
108.800	20.976	0.100
108.900	7.658	0.100
109.000	10.064	0.100
109.100	15.629	0.100
109.200	3.648	0.100
109.300	7.673	0.100
109.400	24.310	0.100
109.500	22.359	0.100
109.600	24.575	0.100
109.700	13.676	0.100
109.800	-9.970	0.100
109.900	-2.440	0.100
110.000	5.366	0.100
110.100	8.462	0.100
110.200	-10.117	0.100
110.300	21.621	0.100
110.400	24.416	0.100
110.500	28.149	0.100
110.600	16.704	0.100
110.700	14.314	0.100
110.800	7.721	0.100
110.900	-14.923	0.100
111.000	19.691	0.100
111.100	27.405	0.100
111.200	17.298	0.100
111.300	10.396	0.100
111.400	12.456	0.100
111.500	18.890	0.100
111.600	1.314	0.100
111.700	9.698	0.100
111.800	5.654	0.100
111.900	-5.844	0.100
112.000	23.481	0.100
112.100	13.055	0.100
112.200	-0.254	0.100
112.300	-6.694	0.100
112.400	16.159	0.100
112.500	15.273	0.100
112.600	10.327	0.100
112.700	-0.567	0.100
112.800	19.555	0.100
112.900	20.680	0.100
113.000	0.634	0.100
113.100	7.958	0.100
113.200	12.276	0.100
113.300	22.799	0.100
113.400	14.156	0.100
113.500	15.260	0.100
113.600	12.376	0.101
113.700	11.208	0.100
113.800	15.700	0.100
113.900	0.664	0.101
114.000	7.774	0.101
114.100	37.803	0.101
114.200	16.929	0.101
114.300	-3.870	0.101
114.400	15.612	0.100
114.500	3.223	0.101
114.600	5.617	0.100
114.700	3.980	0.101
114.800	5.573	0.100
114.900	16.498	0.100
115.000	17.423	0.100
115.100	6.287	0.100
115.200	13.912	0.100
115.300	5.193	0.100
115.400	-11.630	0.101
115.500	-0.130	0.100
115.600	5.918	0.101
115.700	34.023	0.100
115.800	5.535	0.100
115.900	5.271	0.100
116.000	16.570	0.100
116.100	-6.094	0.100
116.200	-15.151	0.100
116.300	25.592	0.100
116.400	18.007	0.100
116.500	3.136	0.100
116.600	19.725	0.100
116.700	14.766	0.100
116.800	28.779	0.100
116.900	2.184	0.100
117.000	6.010	0.100
117.100	1.164	0.100
117.200	27.039	0.100
117.300	3.373	0.100
117.400	15.166	0.100
117.500	-5.831	0.100
117.600	-3.409	0.100
117.700	0.355	0.100
117.800	25.581	0.100
117.900	1.273	0.100
118.000	14.170	0.100
118.100	9.546	0.100
118.200	2.308	0.100
118.300	3.418	0.100
118.400	9.680	0.100
118.500	7.555	0.100
118.600	5.663	0.100
118.700	-0.070	0.100
118.800	-5.550	0.100
118.900	21.305	0.100
119.000	8.211	0.100
119.100	-0.665	0.100
119.200	16.264	0.100
119.300	-7.567	0.100
119.400	-0.970	0.100
119.500	-13.728	0.100
119.600	13.139	0.100
119.700	0.284	0.100
119.800	2.677	0.100
119.900	-8.570	0.100
120.000	14.734	0.100
120.100	0.243	0.100
120.200	0.626	0.100
120.300	13.993	0.100
120.400	13.612	0.100
120.500	0.654	0.100
120.600	4.929	0.100
120.700	-8.060	0.100
120.800	17.839	0.100
120.900	2.421	0.100
121.000	18.531	0.100
121.100	6.654	0.100
121.200	-8.544	0.100
121.300	-3.177	0.100
121.400	15.744	0.100
121.500	-3.760	0.100
121.600	-1.313	0.100
121.700	-22.250	0.100
121.800	-23.383	0.100
121.900	12.690	0.100
122.000	-1.635	0.100
122.100	-14.196	0.100
122.200	-14.970	0.100
122.300	4.406	0.100
122.400	-3.628	0.100
122.500	-8.854	0.100
122.600	-14.757	0.100
122.700	-2.521	0.100
122.800	15.287	0.100
122.900	1.731	0.100
123.000	-2.958	0.100
123.100	-8.512	0.100
123.200	-6.157	0.100
123.300	5.107	0.100
123.400	-9.566	0.100
123.500	-4.308	0.100
123.600	6.232	0.100
123.700	-2.628	0.100
123.800	-10.520	0.100
123.900	-4.244	0.100
124.000	-12.965	0.100
124.100	0.776	0.100
124.200	-8.214	0.100
124.300	3.384	0.100
124.400	-6.415	0.100
124.500	3.445	0.100
124.600	-15.756	0.100
124.700	-24.083	0.100
124.800	1.282	0.100
124.900	-24.503	0.100
125.000	-6.005	0.100
125.100	-18.044	0.100
125.200	-3.487	0.100
125.300	-32.334	0.100
125.400	-13.114	0.100
125.500	-16.103	0.100
125.600	5.528	0.100
125.700	-8.101	0.100
125.800	-9.827	0.100
125.900	-6.384	0.100
126.000	-0.616	0.100
126.100	-4.984	0.100
126.200	-3.189	0.100
126.300	1.181	0.100
126.400	0.836	0.100
126.500	-6.441	0.100
126.600	-0.957	0.100
126.700	-3.269	0.100
126.800	-6.964	0.100
126.900	6.560	0.100
127.000	-22.138	0.100
127.100	-9.309	0.100
127.200	-5.104	0.100
127.300	-9.550	0.100
127.400	-15.487	0.100
127.500	-2.628	0.100
127.600	-10.992	0.100
127.700	-24.319	0.100
127.800	-9.971	0.100
127.900	-2.188	0.100
128.000	-0.347	0.100
128.100	-7.851	0.100
128.200	-19.310	0.100
128.300	-2.480	0.100
128.400	4.351	0.100
128.500	-4.304	0.100
128.600	-13.776	0.100
128.700	-19.311	0.100
128.800	-10.339	0.100
128.900	-2.510	0.100
129.000	-21.893	0.100
129.100	13.845	0.100
129.200	-19.685	0.100
129.300	-32.985	0.100
129.400	-7.416	0.100
129.500	3.108	0.100
129.600	-10.313	0.100
129.700	-3.303	0.100
129.800	-18.392	0.100
129.900	-23.039	0.100
130.000	-11.981	0.100
130.100	-16.534	0.100
130.200	-6.444	0.100
130.300	-2.743	0.100
130.400	-13.088	0.100
130.500	-4.968	0.100
130.600	-5.293	0.100
130.700	-5.575	0.100
130.800	-33.471	0.100
130.900	-27.884	0.100
131.000	11.285	0.100
131.100	-15.982	0.100
131.200	-12.266	0.100
131.300	-8.530	0.100
131.400	-7.606	0.100
131.500	-1.827	0.100
131.600	-14.647	0.100
131.700	-30.788	0.100
131.800	-9.582	0.100
131.900	-22.515	0.100
132.000	-6.833	0.100
132.100	-10.693	0.100
132.200	-27.988	0.100
132.300	-0.429	0.100
132.400	-0.426	0.100
132.500	-10.082	0.100
132.600	-3.258	0.100
132.700	3.519	0.100
132.800	-11.613	0.100
132.900	3.812	0.100
133.000	-15.608	0.100
133.100	-25.808	0.100
133.200	-17.679	0.100
133.300	4.080	0.100
133.400	12.457	0.100
133.500	-3.378	0.100
133.600	-15.707	0.100
133.700	-12.924	0.100
133.800	-4.974	0.100
133.900	-35.464	0.100
134.000	-27.706	0.100
134.100	-22.538	0.100
134.200	-12.050	0.100
134.300	-16.088	0.100
134.400	-11.043	0.100
134.500	-20.349	0.100
134.600	-11.913	0.100
134.700	-11.958	0.100
134.800	-8.478	0.100
134.900	-3.286	0.100
135.000	-9.234	0.100
135.100	-18.663	0.100
135.200	-7.078	0.100
135.300	-6.082	0.100
135.400	-19.514	0.100
135.500	-11.104	0.100
135.600	-10.534	0.100
135.700	-40.417	0.100
135.800	-39.594	0.100
135.900	-21.810	0.100
136.000	-12.189	0.100
136.100	-13.330	0.100
136.200	14.680	0.100
136.300	-7.871	0.100
136.400	-21.761	0.100
136.500	-13.708	0.100
136.600	-11.553	0.100
136.700	-23.936	0.100
136.800	-22.281	0.100
136.900	3.597	0.100
137.000	-8.989	0.100
137.100	-18.931	0.100
137.200	-15.638	0.100
137.300	-19.268	0.100
137.400	-0.223	0.100
137.500	-16.026	0.100
137.600	-35.668	0.100
137.700	-2.829	0.100
137.800	-5.953	0.100
137.900	-1.500	0.100
138.000	-12.277	0.100
138.100	-8.939	0.100
138.200	-19.596	0.100
138.300	-22.363	0.100
138.400	-22.383	0.100
138.500	-24.925	0.100
138.600	-16.992	0.100
138.700	-0.323	0.100
138.800	-34.613	0.100
138.900	-27.542	0.100
139.000	-17.132	0.100
139.100	-5.772	0.100
139.200	-17.596	0.100
139.300	-20.147	0.100
139.400	-2.645	0.100
139.500	-40.694	0.100
139.600	-4.008	0.100
139.700	-18.851	0.100
139.800	-7.931	0.100
139.900	-15.313	0.100
140.000	4.248	0.100
140.100	-19.863	0.100
140.200	-5.073	0.100
140.300	-11.978	0.100
140.400	-19.031	0.100
140.500	-28.068	0.100
140.600	-10.462	0.100
140.700	-19.626	0.100
140.800	-10.833	0.100
140.900	-9.461	0.100
141.000	-30.473	0.100
141.100	-18.753	0.100
141.200	-22.833	0.100
141.300	-5.748	0.100
141.400	-20.173	0.100
141.500	-15.074	0.100
141.600	-19.328	0.100
141.700	-18.576	0.100
141.800	7.483	0.100
141.900	-21.905	0.100
142.000	-21.718	0.100
142.100	-14.533	0.100
142.200	-18.103	0.100
142.300	-27.398	0.100
142.400	-34.230	0.100
142.500	5.812	0.100
142.600	-13.523	0.100
142.700	-20.576	0.100
142.800	-24.965	0.100
142.900	-8.352	0.100
143.000	-26.576	0.100
143.100	-12.016	0.100
143.200	-14.927	0.100
143.300	-24.546	0.100
143.400	-34.253	0.100
143.500	0.720	0.100
143.600	-4.034	0.100
143.700	-10.112	0.100
143.800	-12.531	0.100
143.900	-17.338	0.100
144.000	-8.584	0.100
144.100	-8.549	0.100
144.200	-15.763	0.100
144.300	-20.297	0.100
144.400	-19.235	0.100
144.500	-11.915	0.100
144.600	-6.867	0.100
144.700	-37.907	0.100
144.800	-18.384	0.100
144.900	-33.099	0.100
145.000	-9.070	0.100
145.100	-18.983	0.100
145.200	-7.738	0.100
145.300	-22.296	0.100
145.400	-3.084	0.100
145.500	-21.238	0.100
145.600	-22.877	0.100
145.700	-21.920	0.100
145.800	-31.120	0.100
145.900	-20.052	0.100
146.000	-20.651	0.100
146.100	-28.040	0.100
146.200	-11.832	0.100
146.300	-17.639	0.100
146.400	-26.449	0.100
146.500	-15.810	0.100
146.600	-4.724	0.100
146.700	-30.316	0.100
146.800	-20.280	0.100
146.900	-4.413	0.100
147.000	-27.105	0.100
147.100	-26.265	0.100
147.200	-11.358	0.100
147.300	-28.068	0.100
147.400	-20.913	0.100
147.500	-2.181	0.100
147.600	-43.921	0.100
147.700	-9.487	0.100
147.800	-6.263	0.100
147.900	-14.124	0.100
148.000	-13.077	0.100
148.100	-18.848	0.100
148.200	-5.130	0.100
148.300	-9.746	0.100
148.400	-8.708	0.100
148.500	-8.461	0.100
148.600	-33.887	0.100
148.700	-23.113	0.100
148.800	-21.592	0.100
148.900	-26.141	0.100
149.000	-14.136	0.100
149.100	-23.470	0.100
149.200	-20.711	0.100
149.300	-5.840	0.100
149.400	-19.613	0.100
149.500	4.883	0.100
149.600	-8.179	0.100
149.700	-24.157	0.100
149.800	-25.471	0.100
149.900	-43.615	0.100
150.000	-25.721	0.100
150.100	-20.055	0.100
150.200	-7.592	0.100
150.300	-15.684	0.100
150.400	-6.904	0.100
150.500	-35.035	0.100
150.600	-18.618	0.100
150.700	-8.446	0.100
150.800	-25.823	0.100
150.900	-29.620	0.100
151.000	-23.415	0.100
151.100	-22.265	0.100
151.200	-9.039	0.100
151.300	-24.267	0.100
151.400	-17.279	0.100
151.500	-7.276	0.100
151.600	-35.475	0.100
151.700	-26.130	0.100
151.800	-17.565	0.100
151.900	-34.141	0.100
152.000	-6.277	0.100
152.100	-19.646	0.100
152.200	-38.557	0.100
152.300	-23.547	0.100
152.400	-16.636	0.100
152.500	-5.872	0.100
152.600	-17.817	0.100
152.700	-31.090	0.100
152.800	-9.862	0.100
152.900	-36.175	0.100
153.000	-2.452	0.100
153.100	-15.543	0.100
153.200	-27.365	0.100
153.300	9.431	0.100
153.400	-21.736	0.100
153.500	-18.687	0.100
153.600	-23.191	0.100
153.700	-16.692	0.100
153.800	-11.751	0.100
153.900	-1.381	0.100
154.000	-21.753	0.100
154.100	-10.613	0.100
154.200	-45.865	0.100
154.300	-26.630	0.100
154.400	-20.806	0.100
154.500	-13.708	0.100
154.600	-0.565	0.100
154.700	-22.918	0.100
154.800	-13.341	0.100
154.900	-31.783	0.100
155.000	-21.235	0.100
155.100	-27.411	0.100
155.200	-22.759	0.100
155.300	-8.389	0.100
155.400	-23.857	0.100
155.500	-25.170	0.100
155.600	-46.737	0.100
155.700	-17.498	0.100
155.800	7.615	0.100
155.900	-30.870	0.100
156.000	-17.941	0.100
156.100	-12.100	0.100
156.200	-10.989	0.100
156.300	-35.628	0.100
156.400	-28.127	0.100
156.500	-12.888	0.100
156.600	-23.423	0.100
156.700	-15.533	0.100
156.800	-17.265	0.100
156.900	-19.730	0.100
157.000	-18.828	0.100
157.100	-22.425	0.100
157.200	-14.935	0.100
157.300	-34.803	0.100
157.400	-13.019	0.100
157.500	-29.748	0.100
157.600	6.355	0.100
157.700	-13.383	0.100
157.800	-22.986	0.100
157.900	-28.017	0.100
158.000	-31.648	0.100
158.100	-9.251	0.100
158.200	-35.058	0.100
158.300	-24.847	0.100
158.400	-42.565	0.100
158.500	-6.364	0.100
158.600	-19.400	0.100
158.700	-23.210	0.100
158.800	-24.263	0.100
158.900	-7.845	0.100
159.000	-21.649	0.100
159.100	-14.279	0.100
159.200	-17.476	0.100
159.300	-19.744	0.100
159.400	-11.064	0.100
159.500	-28.688	0.100
159.600	-24.474	0.100
159.700	-16.448	0.100
159.800	-18.142	0.100
159.900	-15.373	0.100
160.000	-34.547	0.100
160.100	-23.821	0.100
160.200	-15.271	0.100
160.300	-47.399	0.100
160.400	-10.452	0.100
160.500	-10.978	0.100
160.600	-21.749	0.100
160.700	-26.429	0.100
160.800	-41.758	0.100
160.900	-23.536	0.100
161.000	-6.465	0.100
161.100	-9.120	0.100
161.200	-23.476	0.100
161.300	-21.713	0.100
161.400	-3.959	0.100
161.500	-14.384	0.100
161.600	-18.208	0.100
161.700	-30.597	0.100
161.800	-33.217	0.100
161.900	-25.478	0.100
162.000	-20.671	0.100
162.100	-35.087	0.100
162.200	-42.040	0.100
162.300	-10.629	0.100
162.400	-25.173	0.100
162.500	-9.455	0.100
162.600	-32.855	0.100
162.700	1.127	0.100
162.800	-9.919	0.100
162.900	-28.633	0.100
163.000	-34.150	0.100
163.100	-8.898	0.100
163.200	-37.452	0.100
163.300	-13.124	0.100
163.400	-14.319	0.100
163.500	-7.437	0.100
163.600	-33.810	0.100
163.700	-25.442	0.100
163.800	-19.658	0.100
163.900	-15.180	0.100
164.000	-18.080	0.100
164.100	-20.952	0.100
164.200	-20.990	0.100
164.300	-22.550	0.100
164.400	-18.128	0.100
164.500	-0.547	0.100
164.600	-36.883	0.100
164.700	-35.593	0.100
164.800	-30.954	0.100
164.900	-33.068	0.100
165.000	-15.068	0.100
165.100	-17.392	0.100
165.200	-19.112	0.100
165.300	-25.307	0.100
165.400	-26.046	0.100
165.500	-27.022	0.100
165.600	-23.617	0.100
165.700	-35.692	0.100
165.800	-15.226	0.100
165.900	-12.527	0.100
166.000	-8.657	0.100
166.100	-7.330	0.100
166.200	-28.380	0.100
166.300	-34.793	0.100
166.400	-41.332	0.100
166.500	-20.119	0.100
166.600	-14.027	0.100
166.700	-24.559	0.100
166.800	-3.024	0.100
166.900	-16.370	0.100
167.000	-4.929	0.100
167.100	-23.101	0.100
167.200	-37.944	0.100
167.300	-27.721	0.100
167.400	-25.049	0.100
167.500	-22.920	0.100
167.600	-13.192	0.100
167.700	-16.420	0.100
167.800	-26.262	0.100
167.900	-27.787	0.100
168.000	-29.378	0.100
168.100	-7.040	0.100
168.200	-29.070	0.100
168.300	-13.376	0.100
168.400	-12.041	0.100
168.500	-14.429	0.100
168.600	-17.660	0.100
168.700	-31.954	0.100
168.800	-12.424	0.100
168.900	-5.553	0.100
169.000	-36.232	0.100
169.100	-24.001	0.100
169.200	-23.265	0.100
169.300	-24.016	0.100
169.400	-24.663	0.100
169.500	-23.647	0.100
169.600	-22.219	0.100
169.700	2.976	0.100
169.800	-31.100	0.100
169.900	-20.184	0.100
170.000	-34.002	0.100
170.100	-8.170	0.100
170.200	-9.600	0.100
170.300	-12.462	0.100
170.400	-23.903	0.100
170.500	-33.143	0.100
170.600	-22.143	0.100
170.700	-21.238	0.100
170.800	-41.312	0.100
170.900	-18.953	0.100
171.000	-17.933	0.100
171.100	-31.259	0.100
171.200	-22.741	0.100
171.300	-47.884	0.100
171.400	-20.188	0.100
171.500	-11.912	0.100
171.600	-20.354	0.100
171.700	-20.325	0.100
171.800	-24.651	0.100
171.900	-26.320	0.100
172.000	-22.638	0.100
172.100	-24.919	0.100
172.200	-34.917	0.100
172.300	-29.208	0.100
172.400	-18.996	0.100
172.500	-23.000	0.100
172.600	-13.722	0.100
172.700	-9.858	0.100
172.800	-21.539	0.100
172.900	-7.799	0.100
173.000	-23.826	0.100
173.100	-16.880	0.100
173.200	-13.068	0.100
173.300	-33.017	0.100
173.400	-14.662	0.100
173.500	-24.976	0.100
173.600	-20.044	0.100
173.700	-29.941	0.100
173.800	-13.431	0.100
173.900	-29.961	0.100
174.000	-25.751	0.100
174.100	-15.134	0.100
174.200	-18.290	0.100
174.300	-16.420	0.100
174.400	-8.446	0.100
174.500	-23.999	0.100
174.600	-10.385	0.100
174.700	-29.435	0.100
174.800	-37.630	0.100
174.900	-29.774	0.100
175.000	-9.278	0.100
175.100	-25.307	0.100
175.200	-30.467	0.100
175.300	-23.443	0.100
175.400	-29.541	0.100
175.500	-16.797	0.100
175.600	-9.010	0.100
175.700	-39.888	0.100
175.800	-37.966	0.100
175.900	0.655	0.100
176.000	-8.552	0.100
176.100	-32.430	0.100
176.200	-23.115	0.100
176.300	-10.669	0.100
176.400	-25.699	0.100
176.500	-15.663	0.100
176.600	-23.389	0.100
176.700	-21.152	0.100
176.800	-37.636	0.100
176.900	-25.023	0.100
177.000	-42.014	0.100
177.100	-17.447	0.100
177.200	-13.193	0.100
177.300	9.773	0.100
177.400	-36.575	0.100
177.500	-39.955	0.100
177.600	-24.910	0.100
177.700	-3.962	0.100
177.800	-30.842	0.100
177.900	-18.372	0.100
178.000	-13.900	0.100
178.100	-8.093	0.100
178.200	-0.002	0.100
178.300	-29.970	0.100
178.400	-29.990	0.100
178.500	-18.661	0.100
178.600	-23.778	0.100
178.700	-37.135	0.100
178.800	-12.240	0.100
178.900	-18.405	0.100
179.000	-22.445	0.100
179.100	-21.093	0.100
179.200	-29.473	0.100
179.300	-21.855	0.100
179.400	-40.690	0.100
179.500	-29.975	0.100
179.600	-2.237	0.100
179.700	-27.214	0.100
179.800	-5.950	0.100
179.900	-21.554	0.100
180.000	-30.913	0.100
180.100	-16.744	0.100
180.200	-18.563	0.100
180.300	-23.128	0.100
180.400	-29.496	0.100
180.500	-24.162	0.100
180.600	-15.536	0.100
180.700	-25.452	0.100
180.800	-1.010	0.100
180.900	-10.365	0.100
181.000	-36.370	0.100
181.100	-14.014	0.100
181.200	-48.399	0.100
181.300	-11.581	0.100
181.400	-22.020	0.100
181.500	-8.654	0.100
181.600	-10.928	0.100
181.700	-7.151	0.100
181.800	-7.399	0.100
181.900	-18.057	0.100
182.000	-15.476	0.100
182.100	-16.748	0.100
182.200	-4.324	0.100
182.300	6.476	0.100
182.400	-4.362	0.100
182.500	-11.953	0.100
182.600	-4.477	0.100
182.700	-7.253	0.100
182.800	5.341	0.100
182.900	-13.983	0.100
183.000	-7.876	0.100
183.100	-11.835	0.100
183.200	-22.391	0.100
183.300	4.843	0.100
183.400	2.263	0.100
183.500	-6.849	0.100
183.600	-7.727	0.100
183.700	-7.817	0.100
183.800	6.752	0.100
183.900	-12.996	0.100
184.000	-18.963	0.100
184.100	-1.017	0.100
184.200	-19.475	0.100
184.300	-19.218	0.100
184.400	-3.292	0.100
184.500	-13.008	0.100
184.600	-6.675	0.100
184.700	-25.793	0.100
184.800	-13.354	0.100
184.900	-15.225	0.100
185.000	2.200	0.100
185.100	-7.794	0.100
185.200	-6.070	0.100
185.300	-20.361	0.100
185.400	-2.694	0.100
185.500	-13.253	0.100
185.600	-1.023	0.100
185.700	5.200	0.100
185.800	-9.122	0.100
185.900	17.677	0.100
186.000	5.004	0.100
186.100	-14.441	0.100
186.200	5.369	0.100
186.300	-1.149	0.100
186.400	-3.948	0.100
186.500	-8.017	0.100
186.600	-8.363	0.100
186.700	-0.510	0.100
186.800	-12.024	0.100
186.900	-2.354	0.100
187.000	4.859	0.100
187.100	-10.871	0.100
187.200	-13.532	0.100
187.300	-7.301	0.100
187.400	4.630	0.100
187.500	10.837	0.100
187.600	-0.303	0.100
187.700	-16.272	0.100
187.800	-13.505	0.100
187.900	-9.103	0.100
188.000	6.361	0.100
188.100	14.081	0.100
188.200	-12.585	0.100
188.300	2.472	0.100
188.400	11.731	0.100
188.500	-5.198	0.100
188.600	-4.019	0.100
188.700	-22.810	0.100
188.800	-8.783	0.100
188.900	-2.118	0.100
189.000	4.299	0.100
189.100	-2.469	0.100
189.200	23.114	0.100
189.300	6.864	0.100
189.400	11.439	0.100
189.500	7.615	0.100
189.600	-4.632	0.100
189.700	7.101	0.100
189.800	10.233	0.100
189.900	2.639	0.100
190.000	-13.974	0.100
190.100	15.857	0.100
190.200	-12.199	0.100
190.300	-9.994	0.100
190.400	6.966	0.100
190.500	1.485	0.100
190.600	11.458	0.100
190.700	15.069	0.100
190.800	16.146	0.100
190.900	-7.928	0.100
191.000	14.010	0.100
191.100	18.143	0.100
191.200	8.881	0.100
191.300	-5.291	0.100
191.400	15.695	0.100
191.500	6.177	0.100
191.600	-10.173	0.100
191.700	2.519	0.100
191.800	1.935	0.100
191.900	7.025	0.100
192.000	1.408	0.100
192.100	37.755	0.100
192.200	9.390	0.100
192.300	7.264	0.100
192.400	-9.405	0.100
192.500	29.039	0.100
192.600	42.466	0.100
192.700	10.543	0.100
192.800	8.751	0.100
192.900	10.483	0.100
193.000	16.716	0.100
193.100	11.168	0.100
193.200	12.741	0.100
193.300	-4.988	0.100
193.400	32.747	0.100
193.500	32.349	0.100
193.600	12.155	0.100
193.700	7.822	0.100
193.800	-2.871	0.100
193.900	12.742	0.100
194.000	17.729	0.100
194.100	30.736	0.100
194.200	27.407	0.100
194.300	10.501	0.100
194.400	36.177	0.100
194.500	3.632	0.100
194.600	14.531	0.100
194.700	21.793	0.100
194.800	-5.558	0.100
194.900	15.338	0.100
195.000	18.439	0.100
195.100	17.323	0.100
195.200	21.053	0.100
195.300	38.346	0.100
195.400	18.985	0.100
195.500	20.312	0.100
195.600	27.348	0.100
195.700	26.962	0.100
195.800	16.984	0.100
195.900	28.653	0.100
196.000	2.010	0.100
196.100	33.994	0.100
196.200	30.201	0.100
196.300	24.287	0.100
196.400	21.233	0.100
196.500	7.823	0.100
196.600	16.722	0.100
196.700	29.068	0.100
196.800	25.757	0.100
196.900	21.420	0.100
197.000	34.630	0.100
197.100	35.409	0.100
197.200	36.646	0.100
197.300	18.416	0.100
197.400	34.109	0.100
197.500	21.456	0.100
197.600	21.454	0.100
197.700	25.035	0.100
197.800	32.298	0.100
197.900	24.192	0.100
198.000	40.053	0.100
198.100	35.240	0.100
198.200	13.379	0.100
198.300	32.347	0.100
198.400	31.857	0.100
198.500	21.569	0.100
198.600	21.085	0.100
198.700	25.722	0.100
198.800	31.737	0.100
198.900	33.233	0.100
199.000	43.024	0.100
199.100	24.620	0.100
199.200	22.135	0.100
199.300	27.140	0.100
199.400	44.378	0.100
199.500	34.723	0.100
199.600	20.406	0.100
199.700	40.556	0.100
199.800	33.454	0.100
199.900	23.047	0.100
200.000	25.310	0.100
200.100	30.776	0.100
200.200	24.008	0.100
200.300	37.279	0.100
200.400	32.459	0.100
200.500	30.919	0.100
200.600	26.237	0.100
200.700	38.516	0.100
200.800	31.854	0.100
200.900	44.549	0.100
201.000	42.871	0.100
201.100	32.625	0.100
201.200	31.090	0.100
201.300	31.913	0.100
201.400	27.807	0.100
201.500	36.362	0.100
201.600	36.273	0.100
201.700	27.704	0.100
201.800	60.648	0.100
201.900	41.019	0.100
202.000	46.622	0.100
202.100	33.859	0.100
202.200	29.369	0.100
202.300	44.585	0.100
202.400	36.359	0.100
202.500	48.779	0.100
202.600	56.746	0.100
202.700	15.903	0.100
202.800	45.420	0.100
202.900	32.560	0.100
203.000	38.421	0.100
203.100	41.681	0.100
203.200	46.841	0.100
203.300	23.537	0.100
203.400	43.076	0.100
203.500	32.602	0.100
203.600	46.349	0.100
203.700	12.980	0.100
203.800	31.348	0.100
203.900	44.890	0.100
204.000	37.889	0.100
204.100	43.381	0.100
204.200	54.020	0.100
204.300	52.024	0.100
204.400	31.277	0.100
204.500	41.113	0.100
204.600	52.978	0.100
204.700	43.207	0.100
204.800	44.737	0.100
204.900	61.608	0.100
205.000	41.002	0.100
205.100	39.552	0.100
205.200	15.788	0.100
205.300	25.927	0.100
205.400	56.155	0.100
205.500	60.265	0.100
205.600	34.457	0.100
205.700	30.759	0.100
205.800	46.666	0.100
205.900	44.283	0.100
206.000	52.413	0.100
206.100	30.893	0.100
206.200	43.338	0.100
206.300	46.289	0.100
206.400	44.819	0.100
206.500	47.508	0.100
206.600	39.350	0.100
206.700	45.966	0.100
206.800	47.191	0.100
206.900	44.683	0.100
207.000	31.907	0.100
207.100	21.905	0.100
207.200	36.341	0.100
207.300	54.442	0.100
207.400	54.135	0.100
207.500	71.739	0.100
207.600	35.225	0.100
207.700	34.535	0.100
207.800	48.466	0.100
207.900	46.588	0.100
208.000	48.734	0.100
208.100	58.636	0.100
208.200	56.414	0.100
208.300	36.322	0.100
208.400	34.901	0.100
208.500	45.975	0.100
208.600	48.288	0.100
208.700	58.561	0.100
208.800	46.873	0.100
208.900	32.104	0.100
209.000	47.686	0.100
209.100	41.399	0.100
209.200	44.963	0.100
209.300	53.744	0.100
209.400	30.134	0.100
209.500	52.481	0.100
209.600	41.559	0.100
209.700	51.566	0.100
209.800	48.514	0.100
209.900	48.362	0.100
210.000	50.922	0.100
210.100	54.351	0.100
210.200	53.497	0.100
210.300	48.141	0.100
210.400	52.760	0.100
210.500	46.414	0.100
210.600	37.910	0.100
210.700	55.453	0.100
210.800	73.122	0.100
210.900	41.689	0.100
211.000	52.334	0.100
211.100	54.037	0.100
211.200	53.687	0.100
211.300	34.978	0.100
211.400	55.599	0.100
211.500	18.788	0.100
211.600	48.014	0.100
211.700	57.144	0.100
211.800	46.187	0.100
211.900	47.195	0.100
212.000	29.830	0.100
212.100	47.574	0.100
212.200	44.559	0.100
212.300	56.223	0.100
212.400	44.891	0.100
212.500	30.899	0.100
212.600	43.912	0.100
212.700	61.902	0.100
212.800	58.649	0.100
212.900	63.144	0.100
213.000	50.724	0.100
213.100	41.208	0.100
213.200	32.071	0.100
213.300	56.900	0.100
213.400	50.461	0.100
213.500	44.119	0.100
213.600	44.562	0.100
213.700	54.106	0.100
213.800	41.545	0.100
213.900	41.145	0.100
214.000	41.292	0.100
214.100	36.298	0.100
214.200	59.683	0.100
214.300	49.328	0.100
214.400	48.652	0.100
214.500	48.302	0.100
214.600	55.386	0.100
214.700	51.615	0.100
214.800	29.502	0.100
214.900	38.617	0.100
215.000	39.682	0.100
215.100	45.975	0.100
215.200	72.495	0.100
215.300	57.796	0.100
215.400	53.310	0.100
215.500	23.393	0.100
215.600	66.227	0.100
215.700	55.619	0.100
215.800	54.969	0.100
215.900	47.971	0.100
216.000	53.657	0.100
216.100	52.237	0.100
216.200	47.712	0.100
216.300	39.632	0.100
216.400	43.671	0.100
216.500	51.783	0.100
216.600	68.203	0.100
216.700	44.060	0.100
216.800	33.054	0.100
216.900	69.161	0.100
217.000	52.066	0.100
217.100	45.780	0.100
217.200	36.095	0.100
217.300	61.723	0.100
217.400	59.316	0.100
217.500	35.192	0.100
217.600	55.193	0.100
217.700	47.819	0.100
217.800	69.072	0.100
217.900	50.312	0.100
218.000	72.769	0.100
218.100	40.719	0.100
218.200	50.249	0.100
218.300	43.877	0.100
218.400	59.232	0.100
218.500	59.635	0.100
218.600	51.170	0.100
218.700	54.452	0.100
218.800	42.198	0.100
218.900	57.762	0.100
219.000	54.808	0.100
219.100	31.946	0.100
219.200	47.508	0.100
219.300	60.202	0.100
219.400	59.634	0.100
219.500	34.542	0.100
219.600	42.905	0.100
219.700	50.004	0.100
219.800	51.282	0.100
219.900	51.252	0.100
220.000	57.340	0.100
220.100	50.729	0.100
220.200	58.007	0.100
220.300	61.544	0.100
220.400	65.644	0.100
220.500	53.844	0.100
220.600	55.955	0.100
220.700	52.755	0.100
220.800	46.689	0.100
220.900	58.231	0.100
221.000	58.976	0.100
221.100	61.636	0.100
221.200	52.325	0.100
221.300	62.850	0.100
221.400	52.600	0.100
221.500	42.825	0.100
221.600	40.823	0.100
221.700	53.352	0.100
221.800	59.732	0.100
221.900	39.767	0.100
222.000	51.233	0.100
222.100	41.810	0.100
222.200	51.624	0.100
222.300	40.935	0.100
222.400	67.832	0.100
222.500	54.537	0.100
222.600	35.519	0.100
222.700	54.354	0.100
222.800	60.382	0.100
222.900	65.183	0.100
223.000	44.275	0.100
223.100	49.697	0.100
223.200	58.764	0.100
223.300	51.517	0.100
223.400	65.925	0.100
223.500	65.114	0.100
223.600	52.918	0.100
223.700	51.791	0.100
223.800	50.155	0.100
223.900	63.156	0.100
224.000	56.232	0.100
224.100	47.602	0.100
224.200	66.581	0.100
224.300	55.735	0.100
224.400	51.583	0.100
224.500	61.283	0.100
224.600	40.463	0.100
224.700	55.706	0.100
224.800	47.496	0.100
224.900	58.928	0.100
225.000	32.620	0.100
225.100	54.170	0.100
225.200	35.257	0.100
225.300	58.351	0.100
225.400	67.377	0.100
225.500	51.025	0.100
225.600	69.379	0.100
225.700	54.607	0.100
225.800	57.124	0.100
225.900	55.179	0.100
226.000	49.939	0.100
226.100	46.463	0.100
226.200	44.224	0.100
226.300	55.915	0.100
226.400	51.951	0.100
226.500	48.589	0.100
226.600	64.162	0.100
226.700	47.595	0.100
226.800	58.787	0.100
226.900	37.263	0.100
227.000	61.820	0.100
227.100	44.442	0.100
227.200	50.126	0.100
227.300	42.986	0.100
227.400	74.114	0.100
227.500	68.729	0.100
227.600	70.939	0.100
227.700	54.621	0.100
227.800	56.999	0.100
227.900	36.643	0.100
228.000	65.966	0.100
228.100	55.429	0.100
228.200	45.420	0.100
228.300	45.449	0.100
228.400	49.151	0.100
228.500	51.006	0.100
228.600	41.493	0.100
228.700	48.428	0.100
228.800	56.959	0.100
228.900	49.631	0.100
229.000	62.954	0.100
229.100	44.378	0.100
229.200	64.003	0.100
229.300	47.821	0.100
229.400	68.235	0.100
229.500	60.282	0.100
229.600	54.914	0.100
229.700	52.565	0.100
229.800	49.406	0.100
229.900	62.614	0.100
230.000	45.471	0.100
230.100	48.607	0.100
230.200	86.741	0.100
230.300	65.197	0.100
230.400	67.752	0.100
230.500	54.814	0.100
230.600	50.945	0.100
230.700	52.830	0.100
230.800	56.471	0.100
230.900	43.812	0.100
231.000	55.501	0.100
231.100	58.651	0.100
231.200	54.716	0.100
231.300	64.416	0.100
231.400	64.803	0.100
231.500	58.628	0.100
231.600	47.629	0.100
231.700	62.765	0.100
231.800	65.119	0.100
231.900	63.570	0.100
232.000	46.423	0.100
232.100	47.030	0.100
232.200	65.091	0.100
232.300	59.088	0.100
232.400	51.924	0.100
232.500	59.834	0.100
232.600	55.115	0.100
232.700	53.546	0.100
232.800	44.885	0.100
232.900	43.785	0.100
233.000	57.288	0.100
233.100	71.870	0.100
233.200	67.560	0.100
233.300	64.303	0.100
233.400	52.156	0.100
233.500	41.795	0.100
233.600	65.917	0.100
233.700	53.224	0.100
233.800	68.296	0.100
233.900	64.838	0.100
234.000	46.924	0.100
234.100	50.899	0.100
234.200	49.912	0.100
234.300	49.412	0.100
234.400	46.524	0.100
234.500	57.492	0.100
234.600	56.540	0.100
234.700	61.774	0.100
234.800	53.503	0.100
234.900	53.749	0.100
235.000	41.321	0.100
235.100	62.335	0.100
235.200	51.550	0.100
235.300	52.906	0.100
235.400	51.235	0.100
235.500	62.007	0.100
235.600	54.664	0.100
235.700	46.466	0.100
235.800	61.091	0.100
235.900	53.215	0.100
236.000	57.022	0.100
236.100	54.593	0.100
236.200	48.840	0.100
236.300	47.574	0.100
236.400	47.729	0.100
236.500	60.028	0.100
236.600	51.109	0.100
236.700	70.015	0.100
236.800	74.617	0.100
236.900	50.868	0.100
237.000	56.555	0.100
237.100	53.506	0.100
237.200	61.996	0.100
237.300	48.501	0.100
237.400	56.554	0.100
237.500	55.125	0.100
237.600	63.383	0.100
237.700	53.290	0.100
237.800	44.620	0.100
237.900	56.525	0.100
238.000	48.468	0.100
238.100	38.084	0.100
238.200	50.894	0.100
238.300	66.783	0.100
238.400	46.055	0.100
238.500	66.576	0.100
238.600	46.009	0.100
238.700	54.245	0.100
238.800	44.796	0.100
238.900	56.327	0.100
239.000	59.933	0.100
239.100	47.989	0.100
239.200	53.793	0.100
239.300	56.086	0.100
239.400	48.659	0.100
239.500	74.011	0.100
239.600	65.135	0.100
239.700	72.106	0.100
239.800	51.566	0.100
239.900	65.235	0.100
240.000	57.842	0.100
240.100	52.617	0.100
240.200	34.558	0.100
240.300	40.690	0.100
240.400	47.759	0.100
240.500	69.481	0.100
240.600	61.156	0.100
240.700	41.221	0.100
240.800	46.271	0.100
240.900	51.451	0.100
241.000	43.806	0.100
241.100	53.370	0.100
241.200	48.178	0.100
241.300	57.495	0.100
241.400	39.177	0.100
241.500	52.636	0.100
241.600	48.782	0.100
241.700	42.006	0.100
241.800	42.941	0.100
241.900	39.449	0.100
242.000	32.571	0.100
242.100	45.193	0.100
242.200	43.182	0.100
242.300	27.883	0.100
242.400	35.714	0.100
242.500	62.263	0.100
242.600	43.723	0.100
242.700	35.294	0.100
242.800	29.853	0.100
242.900	28.492	0.100
243.000	30.761	0.100
243.100	34.242	0.100
243.200	39.397	0.100
243.300	32.180	0.100
243.400	3.859	0.100
243.500	41.795	0.100
243.600	36.669	0.100
243.700	32.218	0.100
243.800	31.661	0.100
243.900	30.192	0.100
244.000	16.429	0.100
244.100	29.317	0.100
244.200	28.803	0.100
244.300	33.350	0.100
244.400	31.716	0.100
244.500	19.725	0.100
244.600	22.958	0.100
244.700	26.257	0.100
244.800	33.154	0.100
244.900	24.957	0.100
245.000	24.798	0.100
245.100	33.679	0.100
245.200	8.133	0.100
245.300	21.115	0.100
245.400	32.890	0.100
245.500	21.785	0.100
245.600	14.838	0.100
245.700	33.891	0.100
245.800	22.411	0.100
245.900	44.884	0.100
246.000	29.639	0.100
246.100	12.298	0.100
246.200	0.576	0.100
246.300	32.554	0.100
246.400	12.200	0.100
246.500	18.056	0.100
246.600	-7.900	0.100
246.700	26.465	0.100
246.800	20.556	0.100
246.900	29.534	0.100
247.000	-7.347	0.100
247.100	18.988	0.100
247.200	26.660	0.100
247.300	28.730	0.100
247.400	20.938	0.100
247.500	25.145	0.100
247.600	10.282	0.100
247.700	18.068	0.100
247.800	6.718	0.100
247.900	11.493	0.100
248.000	6.796	0.100
248.100	13.639	0.100
248.200	17.150	0.100
248.300	25.104	0.100
248.400	8.257	0.100
248.500	22.026	0.100
248.600	18.260	0.100
248.700	-1.381	0.100
248.800	13.629	0.100
248.900	25.751	0.100
249.000	11.467	0.100
249.100	15.244	0.100
249.200	12.316	0.100
249.300	8.944	0.100
249.400	21.968	0.100
249.500	1.396	0.100
249.600	15.296	0.100
249.700	12.514	0.100
249.800	1.980	0.100
249.900	5.530	0.100
250.000	8.300	0.100
250.100	47.419	0.100
250.200	17.216	0.100
250.300	8.633	0.100
250.400	6.174	0.100
250.500	-1.310	0.100
250.600	10.731	0.100
250.700	6.885	0.100
250.800	3.419	0.100
250.900	6.296	0.100
251.000	16.328	0.100
251.100	-7.146	0.100
251.200	12.480	0.100
251.300	12.798	0.100
251.400	-3.996	0.100
251.500	5.346	0.100
251.600	-22.538	0.100
251.700	-13.460	0.100
251.800	20.022	0.100
251.900	14.450	0.100
252.000	4.586	0.100
252.100	-1.595	0.100
252.200	-6.947	0.100
252.300	19.543	0.100
252.400	0.385	0.100
252.500	-0.238	0.100
252.600	10.138	0.100
252.700	4.383	0.100
252.800	-0.143	0.100
252.900	-3.711	0.100
253.000	15.911	0.100
253.100	17.128	0.100
253.200	20.556	0.100
253.300	-5.526	0.100
253.400	-1.388	0.100
253.500	10.629	0.100
253.600	14.763	0.100
253.700	-2.530	0.100
253.800	-5.878	0.100
253.900	-6.016	0.100
254.000	-1.597	0.100
254.100	12.700	0.100
254.200	-3.473	0.100
254.300	15.664	0.100
254.400	0.267	0.100
254.500	-1.436	0.100
254.600	-4.839	0.100
254.700	9.888	0.100
254.800	3.891	0.100
254.900	8.211	0.100
255.000	9.004	0.100
255.100	3.818	0.100
255.200	14.114	0.100
255.300	-11.904	0.100
255.400	0.047	0.100
255.500	18.092	0.100
255.600	-2.158	0.100
255.700	9.551	0.100
255.800	-8.828	0.100
255.900	8.067	0.100
256.000	15.793	0.100
256.100	-6.251	0.100
256.200	2.919	0.100
256.300	5.784	0.100
256.400	17.910	0.100
256.500	-7.523	0.100
256.600	-9.977	0.100
256.700	11.717	0.100
256.800	2.459	0.100
256.900	12.799	0.100
257.000	5.090	0.100
257.100	5.643	0.100
257.200	-5.780	0.100
257.300	7.184	0.100
257.400	-2.018	0.100
257.500	-1.218	0.100
257.600	-1.629	0.100
257.700	-9.274	0.100
257.800	-10.787	0.100
257.900	-23.043	0.100
258.000	9.408	0.100
258.100	7.978	0.100
258.200	18.092	0.100
258.300	-8.766	0.100
258.400	-6.720	0.100
258.500	9.088	0.100
258.600	-20.013	0.100
258.700	-8.397	0.100
258.800	-1.105	0.100
258.900	2.475	0.100
259.000	2.226	0.100
259.100	0.332	0.100
259.200	10.195	0.100
259.300	-19.669	0.100
259.400	-9.025	0.100
259.500	-9.767	0.100
259.600	4.028	0.100
259.700	1.222	0.100
259.800	-28.624	0.100
259.900	-5.855	0.100
260.000	4.530	0.100
260.100	7.011	0.100
260.200	5.145	0.100
260.300	-27.844	0.100
260.400	4.957	0.100
260.500	1.423	0.100
260.600	-10.031	0.100
260.700	1.025	0.100
260.800	-5.208	0.100
260.900	-0.738	0.100
261.000	2.187	0.100
261.100	0.994	0.100
261.200	-18.549	0.100
261.300	-2.254	0.100
261.400	-8.763	0.100
261.500	-9.476	0.100
261.600	-23.952	0.100
261.700	-11.354	0.100
261.800	-0.024	0.100
261.900	-8.265	0.100
262.000	-13.200	0.100
262.100	13.110	0.100
262.200	-27.319	0.100
262.300	-6.996	0.100
262.400	-2.536	0.100
262.500	-23.978	0.100
262.600	0.402	0.100
262.700	2.363	0.100
262.800	-27.376	0.100
262.900	-5.371	0.100
263.000	-4.299	0.100
263.100	-10.781	0.100
263.200	-7.882	0.100
263.300	-3.166	0.100
263.400	18.068	0.100
263.500	-10.716	0.100
263.600	-3.809	0.100
263.700	6.111	0.100
263.800	-10.788	0.100
263.900	-13.406	0.100
264.000	-5.336	0.100
264.100	3.093	0.100
264.200	-0.760	0.100
264.300	0.076	0.100
264.400	-7.526	0.100
264.500	-2.081	0.100
264.600	-1.713	0.100
264.700	-13.032	0.100
264.800	-25.317	0.100
264.900	-29.916	0.100
265.000	14.254	0.100
265.100	-20.786	0.100
265.200	4.836	0.100
265.300	-5.932	0.100
265.400	-3.734	0.100
265.500	-16.863	0.100
265.600	-10.336	0.100
265.700	-12.753	0.100
265.800	-19.382	0.100
265.900	-20.240	0.100
266.000	-17.423	0.100
266.100	-17.662	0.100
266.200	-7.702	0.100
266.300	-3.445	0.100
266.400	-13.469	0.100
266.500	-0.082	0.100
266.600	-7.249	0.100
266.700	-15.404	0.100
266.800	-8.866	0.100
266.900	-15.160	0.100
267.000	-12.919	0.100
267.100	-18.733	0.100
267.200	-15.430	0.100
267.300	-2.736	0.100
267.400	-17.072	0.100
267.500	-9.157	0.100
267.600	-18.563	0.100
267.700	-14.950	0.100
267.800	-42.074	0.100
267.900	-26.438	0.100
268.000	-19.088	0.100
268.100	-29.887	0.100
268.200	-12.119	0.100
268.300	0.237	0.100
268.400	-14.919	0.100
268.500	-21.163	0.100
268.600	-25.829	0.100
268.700	-20.220	0.100
268.800	-17.335	0.100
268.900	1.199	0.100
269.000	11.381	0.100
269.100	-15.169	0.100
269.200	-19.826	0.100
269.300	-19.074	0.100
269.400	-12.409	0.100
269.500	-29.754	0.100
269.600	-18.085	0.100
269.700	-8.881	0.100
269.800	-13.272	0.100
269.900	-9.950	0.100
270.000	-23.706	0.100
270.100	-24.953	0.100
270.200	-13.298	0.100
270.300	-13.184	0.100
270.400	-11.736	0.100
270.500	-18.988	0.100
270.600	-11.084	0.100
270.700	-10.344	0.100
270.800	-24.159	0.100
270.900	-15.927	0.100
271.000	-12.306	0.100
271.100	-27.013	0.100
271.200	-12.039	0.100
271.300	-5.818	0.100
271.400	-3.168	0.100
271.500	-15.704	0.100
271.600	-14.964	0.100
271.700	-0.547	0.100
271.800	-19.121	0.100
271.900	-23.814	0.100
272.000	-15.721	0.100
272.100	-22.590	0.100
272.200	-13.186	0.100
272.300	-21.923	0.100
272.400	-13.857	0.100
272.500	-22.737	0.100
272.600	-8.230	0.100
272.700	-23.763	0.100
272.800	-19.997	0.100
272.900	-25.966	0.100
273.000	-18.983	0.100
273.100	-6.412	0.100
273.200	-5.316	0.100
273.300	-2.184	0.100
273.400	-18.747	0.100
273.500	-21.905	0.100
273.600	-18.338	0.100
273.700	-8.205	0.100
273.800	-24.848	0.100
273.900	2.722	0.100
274.000	-26.498	0.100
274.100	-25.627	0.100
274.200	-27.609	0.100
274.300	-30.261	0.100
274.400	-19.210	0.100
274.500	-29.858	0.100
274.600	-11.339	0.100
274.700	-21.039	0.100
274.800	-32.148	0.100
274.900	-22.262	0.100
275.000	-15.657	0.100
275.100	-21.178	0.100
275.200	-36.385	0.100
275.300	-27.339	0.100
275.400	-30.933	0.100
275.500	-36.647	0.100
275.600	-1.083	0.100
275.700	-14.591	0.100
275.800	-12.110	0.100
275.900	-13.043	0.100
276.000	-32.562	0.100
276.100	-19.635	0.100
276.200	-20.602	0.100
276.300	-31.632	0.100
276.400	-8.358	0.100
276.500	-48.252	0.100
276.600	-8.809	0.100
276.700	-27.431	0.100
276.800	-47.585	0.100
276.900	-15.940	0.100
277.000	-13.394	0.100
277.100	-30.948	0.100
277.200	-9.683	0.100
277.300	-20.861	0.100
277.400	-26.311	0.100
277.500	-37.365	0.100
277.600	-25.221	0.100
277.700	-24.082	0.100
277.800	-22.736	0.100
277.900	-31.978	0.100
278.000	-20.029	0.100
278.100	-35.257	0.100
278.200	-26.182	0.100
278.300	-10.589	0.100
278.400	-28.727	0.100
278.500	-34.287	0.100
278.600	-20.653	0.100
278.700	-16.060	0.100
278.800	-20.343	0.100
278.900	-12.727	0.100
279.000	-39.555	0.100
279.100	-27.913	0.100
279.200	-11.415	0.100
279.300	-12.292	0.100
279.400	-34.691	0.100
279.500	-12.887	0.100
279.600	-28.124	0.100
279.700	-29.401	0.100
279.800	-25.302	0.100
279.900	-18.226	0.100
280.000	-30.641	0.100
280.100	-38.905	0.100
280.200	-31.698	0.100
280.300	-15.085	0.100
280.400	-19.676	0.100
280.500	-31.138	0.100
280.600	-26.210	0.100
280.700	5.470	0.100
280.800	-31.386	0.100
280.900	-28.949	0.100
281.000	-12.974	0.100
281.100	-46.375	0.100
281.200	-25.724	0.100
281.300	-26.010	0.100
281.400	-26.976	0.100
281.500	-15.221	0.100
281.600	-30.718	0.100
281.700	-37.005	0.100
281.800	-27.588	0.100
281.900	-16.425	0.100
282.000	-9.910	0.100
282.100	-44.168	0.100
282.200	-8.265	0.100
282.300	-30.989	0.100
282.400	-20.965	0.100
282.500	-26.769	0.100
282.600	-15.701	0.100
282.700	-41.476	0.100
282.800	-30.577	0.100
282.900	-41.467	0.100
283.000	-18.655	0.100
283.100	-25.481	0.100
283.200	-32.046	0.100
283.300	-30.997	0.100
283.400	-3.111	0.100
283.500	-41.018	0.100
283.600	-25.800	0.100
283.700	-15.286	0.100
283.800	-22.946	0.100
283.900	-42.324	0.100
284.000	-49.112	0.100
284.100	-10.172	0.100
284.200	-23.585	0.100
284.300	-23.395	0.100
284.400	-29.817	0.100
284.500	-32.300	0.100
284.600	-21.267	0.100
284.700	-22.437	0.100
284.800	-28.267	0.100
284.900	-16.408	0.100
285.000	-19.718	0.100
285.100	-33.963	0.100
285.200	-23.456	0.100
285.300	-42.802	0.100
285.400	-33.536	0.100
285.500	-27.660	0.100
285.600	-27.310	0.100
285.700	-17.860	0.100
285.800	-28.704	0.100
285.900	-32.827	0.100
286.000	-34.403	0.100
286.100	-28.941	0.100
286.200	-24.484	0.100
286.300	-17.274	0.100
286.400	-35.617	0.100
286.500	-29.150	0.100
286.600	-34.092	0.100
286.700	-27.632	0.100
286.800	-20.806	0.100
286.900	-0.767	0.100
287.000	-16.344	0.100
287.100	-21.174	0.100
287.200	-36.234	0.100
287.300	-31.935	0.100
287.400	-35.577	0.100
287.500	-32.292	0.100
287.600	-34.394	0.100
287.700	-30.985	0.100
287.800	-37.863	0.100
287.900	-35.973	0.100
288.000	-29.656	0.100
288.100	-34.576	0.100
288.200	-22.891	0.100
288.300	-35.118	0.100
288.400	-25.402	0.100
288.500	-24.097	0.100
288.600	-35.395	0.100
288.700	-22.158	0.100
288.800	-14.470	0.100
288.900	-29.107	0.100
289.000	-25.698	0.100
289.100	-27.516	0.100
289.200	-24.453	0.100
289.300	-37.690	0.100
289.400	-34.710	0.100
289.500	-32.127	0.100
289.600	-30.879	0.100
289.700	-18.389	0.100
289.800	-18.772	0.100
289.900	-34.871	0.100
290.000	-27.381	0.100
290.100	-18.954	0.100
290.200	-40.098	0.100
290.300	-27.272	0.100
290.400	-25.219	0.100
290.500	-37.920	0.100
290.600	-13.354	0.100
290.700	-25.722	0.100
290.800	-29.102	0.100
290.900	-36.857	0.100
291.000	-51.695	0.100
291.100	-30.221	0.100
291.200	-27.324	0.100
291.300	-30.989	0.100
291.400	-40.963	0.100
291.500	-61.647	0.100
291.600	-27.767	0.100
291.700	-21.720	0.100
291.800	-36.756	0.100
291.900	-11.487	0.100
292.000	-21.057	0.100
292.100	-42.115	0.100
292.200	-35.177	0.100
292.300	-29.394	0.100
292.400	-33.060	0.100
292.500	-42.008	0.100
292.600	-18.755	0.100
292.700	-34.579	0.100
292.800	-34.999	0.100
292.900	-36.759	0.100
293.000	-33.818	0.100
293.100	-29.088	0.100
293.200	-31.938	0.100
293.300	-38.309	0.100
293.400	-28.969	0.100
293.500	-33.643	0.100
293.600	-43.969	0.100
293.700	-19.466	0.100
293.800	-27.807	0.100
293.900	-53.505	0.100
294.000	-11.070	0.100
294.100	-30.387	0.100
294.200	-37.999	0.100
294.300	-24.928	0.100
294.400	-24.638	0.100
294.500	-30.017	0.100
294.600	-31.032	0.100
294.700	-25.862	0.100
294.800	-51.331	0.100
294.900	-44.461	0.100
295.000	-14.490	0.100
295.100	-16.800	0.100
295.200	-28.114	0.100
295.300	-40.382	0.100
295.400	-19.888	0.100
295.500	-9.950	0.100
295.600	-21.229	0.100
295.700	-7.733	0.100
295.800	-39.342	0.100
295.900	-37.691	0.100
296.000	-20.184	0.100
296.100	-34.458	0.100
296.200	-37.113	0.100
296.300	-14.202	0.100
296.400	-33.106	0.100
296.500	-29.430	0.100
296.600	-30.736	0.100
296.700	-36.692	0.100
296.800	-43.024	0.100
296.900	-26.998	0.100
297.000	-43.605	0.100
297.100	-46.572	0.100
297.200	-16.196	0.100
297.300	-15.117	0.100
297.400	-34.894	0.100
297.500	-33.427	0.100
297.600	-21.697	0.100
297.700	-40.093	0.100
297.800	-30.712	0.100
297.900	-31.641	0.100
298.000	-31.331	0.100
298.100	-16.990	0.100
298.200	-32.533	0.100
298.300	-41.882	0.100
298.400	-24.456	0.100
298.500	-35.916	0.100
298.600	-30.152	0.100
298.700	-40.723	0.100
298.800	-37.484	0.100
298.900	-28.064	0.100
299.000	-27.992	0.100
299.100	-27.206	0.100
299.200	-47.222	0.100
299.300	-56.925	0.100
299.400	-20.876	0.100
299.500	-29.413	0.100
299.600	-29.311	0.100
299.700	-34.632	0.100
299.800	-36.661	0.100
299.900	-47.881	0.100
300.000	-17.762	0.100
300.100	-26.450	0.100
300.200	-25.121	0.100
300.300	-36.749	0.100
300.400	-15.084	0.100
300.500	-33.031	0.100
300.600	-41.450	0.100
300.700	-41.484	0.100
300.800	-51.828	0.100
300.900	-34.918	0.100
301.000	-33.341	0.100
301.100	-32.565	0.100
301.200	-39.142	0.100
301.300	-27.183	0.100
301.400	-36.516	0.100
301.500	-27.545	0.100
301.600	-40.771	0.100
301.700	-37.708	0.100
301.800	-28.107	0.100
301.900	-18.329	0.100
302.000	-45.031	0.100
302.100	-43.901	0.100
302.200	-37.005	0.100
302.300	-30.640	0.100
302.400	-20.371	0.100
302.500	-29.490	0.100
302.600	-21.005	0.100
302.700	-40.313	0.100
302.800	-26.219	0.100
302.900	-14.530	0.100
303.000	-43.868	0.100
303.100	-39.434	0.100
303.200	-30.986	0.100
303.300	-49.472	0.100
303.400	-30.566	0.100
303.500	-35.337	0.100
303.600	-28.276	0.100
303.700	-26.971	0.100
303.800	-42.736	0.100
303.900	-32.872	0.100
304.000	-29.501	0.100
304.100	-45.614	0.100
304.200	-37.883	0.100
304.300	-25.810	0.100
304.400	-29.295	0.100
304.500	-39.307	0.100
304.600	-21.864	0.100
304.700	-31.486	0.100
304.800	-41.133	0.100
304.900	-39.975	0.100
305.000	-35.254	0.100
305.100	-30.103	0.100
305.200	-26.815	0.100
305.300	-43.121	0.100
305.400	-36.715	0.100
305.500	-41.315	0.100
305.600	-23.708	0.100
305.700	-30.563	0.100
305.800	-9.364	0.100
305.900	-45.014	0.100
306.000	-33.851	0.100
306.100	-39.309	0.100
306.200	-29.380	0.100
306.300	-34.084	0.100
306.400	-37.156	0.100
306.500	-24.453	0.100
306.600	-48.469	0.100
306.700	-37.090	0.100
306.800	-31.175	0.100
306.900	-18.533	0.100
307.000	-57.431	0.100
307.100	-25.201	0.100
307.200	-17.460	0.100
307.300	-37.963	0.100
307.400	-36.135	0.100
307.500	-53.433	0.100
307.600	-17.119	0.100
307.700	-47.211	0.100
307.800	-47.258	0.100
307.900	-22.523	0.100
308.000	-35.162	0.100
308.100	-26.665	0.100
308.200	-38.283	0.100
308.300	-34.878	0.100
308.400	-16.445	0.100
308.500	-50.125	0.100
308.600	-31.434	0.100
308.700	-50.511	0.100
308.800	-32.245	0.100
308.900	-27.666	0.100
309.000	-40.438	0.100
309.100	-52.434	0.100
309.200	-16.442	0.100
309.300	-28.241	0.100
309.400	-20.933	0.100
309.500	-33.894	0.100
309.600	-38.351	0.100
309.700	-25.897	0.100
309.800	-36.775	0.100
309.900	-29.371	0.100
310.000	-50.196	0.100
310.100	-45.437	0.100
310.200	-25.209	0.100
310.300	-37.135	0.100
310.400	-38.602	0.100
310.500	-38.979	0.100
310.600	-26.729	0.100
310.700	-40.521	0.100
310.800	-33.303	0.100
310.900	-35.380	0.100
311.000	-37.218	0.100
311.100	-28.672	0.100
311.200	-3.280	0.100
311.300	-24.785	0.100
311.400	-29.674	0.100
311.500	-49.969	0.100
311.600	-24.979	0.100
311.700	-35.369	0.100
311.800	-32.512	0.100
311.900	-41.104	0.100
312.000	-34.066	0.100
312.100	-41.225	0.100
312.200	-33.378	0.100
312.300	-37.061	0.100
312.400	-17.605	0.100
312.500	-46.054	0.100
312.600	-40.705	0.100
312.700	-38.962	0.100
312.800	-23.053	0.100
312.900	-17.846	0.100
313.000	-48.940	0.100
313.100	-35.045	0.100
313.200	-36.903	0.100
313.300	-35.331	0.100
313.400	-22.898	0.100
313.500	-40.458	0.100
313.600	-45.106	0.100
313.700	-24.272	0.100
313.800	-26.898	0.100
313.900	-29.248	0.100
314.000	-42.649	0.100
314.100	-37.825	0.100
314.200	-28.469	0.100
314.300	-19.278	0.100
314.400	-40.431	0.100
314.500	-50.432	0.100
314.600	-38.229	0.100
314.700	-30.641	0.100
314.800	-35.539	0.100
314.900	-27.097	0.100
315.000	-26.043	0.100
315.100	-33.175	0.100
315.200	-29.164	0.100
315.300	-31.135	0.100
315.400	-43.837	0.100
315.500	-45.954	0.100
315.600	-32.814	0.100
315.700	-34.348	0.100
315.800	-35.763	0.100
315.900	-25.862	0.100
316.000	-34.300	0.100
316.100	-35.547	0.100
316.200	-20.102	0.100
316.300	-53.918	0.100
316.400	-20.302	0.100
316.500	-33.002	0.100
316.600	-32.131	0.100
316.700	-37.003	0.100
316.800	-46.497	0.100
316.900	-35.515	0.100
317.000	-50.369	0.100
317.100	-20.444	0.100
317.200	-26.196	0.100
317.300	-30.657	0.100
317.400	-35.289	0.100
317.500	-52.452	0.100
317.600	-48.597	0.100
317.700	-43.976	0.100
317.800	-27.431	0.100
317.900	-18.648	0.100
318.000	-35.478	0.100
318.100	-41.308	0.100
318.200	-43.897	0.100
318.300	-40.595	0.100
318.400	-17.196	0.100
318.500	-27.468	0.100
318.600	-37.599	0.100
318.700	-39.730	0.100
318.800	-48.345	0.100
318.900	-28.532	0.100
319.000	-31.960	0.100
319.100	-26.407	0.100
319.200	-23.847	0.100
319.300	-31.043	0.100
319.400	-29.144	0.100
319.500	-11.941	0.100
319.600	-37.776	0.100
319.700	-23.098	0.100
319.800	-36.552	0.100
319.900	-31.820	0.100
320.000	-40.153	0.100
320.100	-38.919	0.100
320.200	-32.019	0.100
320.300	-54.069	0.100
320.400	-34.333	0.100
320.500	-19.854	0.100
320.600	-46.461	0.100
320.700	-42.594	0.100
320.800	-35.766	0.100
320.900	-20.547	0.100
321.000	-41.818	0.100
321.100	-37.612	0.100
321.200	-26.686	0.100
321.300	-32.311	0.100
321.400	-37.256	0.100
321.500	-39.424	0.100
321.600	-39.352	0.100
321.700	-47.501	0.100
321.800	-33.116	0.100
321.900	-36.571	0.100
322.000	-39.517	0.100
322.100	-45.092	0.100
322.200	-38.442	0.100
322.300	-26.777	0.100
322.400	-36.437	0.100
322.500	-31.072	0.100
322.600	-27.344	0.100
322.700	-31.323	0.100
322.800	-40.559	0.100
322.900	-47.162	0.100
323.000	-33.509	0.100
323.100	-24.091	0.100
323.200	-29.590	0.100
323.300	-28.615	0.100
323.400	-26.726	0.100
323.500	-14.755	0.100
323.600	-33.444	0.100
323.700	-48.051	0.100
323.800	-55.092	0.100
323.900	-20.663	0.100
324.000	-49.685	0.100
324.100	-22.285	0.100
324.200	-17.184	0.100
324.300	-36.629	0.100
324.400	-33.307	0.100
324.500	-39.276	0.100
324.600	-31.054	0.100
324.700	-44.568	0.100
324.800	-33.560	0.100
324.900	-33.060	0.100
325.000	-36.634	0.100
325.100	-27.086	0.100
325.200	-13.781	0.100
325.300	-41.924	0.100
325.400	-49.492	0.100
325.500	-40.897	0.100
325.600	-30.301	0.100
325.700	-12.039	0.100
325.800	-36.215	0.100
325.900	-38.608	0.100
326.000	-38.626	0.100
326.100	-39.698	0.100
326.200	-23.700	0.100
326.300	-33.341	0.100
326.400	-61.828	0.100
326.500	-27.845	0.100
326.600	-23.830	0.100
326.700	-47.067	0.100
326.800	-37.437	0.100
326.900	-41.702	0.100
327.000	-42.230	0.100
327.100	-34.619	0.100
327.200	-28.098	0.100
327.300	-30.111	0.100
327.400	-33.151	0.100
327.500	-32.827	0.100
327.600	-43.567	0.100
327.700	-45.538	0.100
327.800	-30.644	0.100
327.900	-51.137	0.100
328.000	-52.075	0.100
328.100	-23.320	0.100
328.200	-26.786	0.100
328.300	-53.005	0.100
328.400	-14.409	0.100
328.500	-50.910	0.100
328.600	-26.666	0.100
328.700	-37.495	0.100
328.800	-23.277	0.100
328.900	-23.018	0.100
329.000	-19.403	0.100
329.100	-31.107	0.100
329.200	-37.644	0.100
329.300	-61.210	0.100
329.400	-23.538	0.100
329.500	-29.648	0.100
329.600	-33.005	0.100
329.700	-65.381	0.100
329.800	-40.960	0.100
329.900	-23.312	0.100
330.000	-21.537	0.100
330.100	-40.799	0.100
330.200	-35.347	0.100
330.300	-35.771	0.100
330.400	-39.926	0.100
330.500	-22.777	0.100
330.600	-39.410	0.100
330.700	-18.663	0.100
330.800	-28.662	0.100
330.900	-25.764	0.100
331.000	-36.368	0.100
331.100	-34.299	0.100
331.200	-18.209	0.100
331.300	-34.632	0.100
331.400	-25.360	0.100
331.500	-26.858	0.100
331.600	-27.953	0.100
331.700	-7.270	0.100
331.800	-26.712	0.100
331.900	-42.048	0.100
332.000	-16.803	0.100
332.100	-11.798	0.100
332.200	-20.788	0.100
332.300	-29.047	0.100
332.400	-13.336	0.100
332.500	-15.704	0.100
332.600	-26.582	0.100
332.700	-23.709	0.100
332.800	-13.713	0.100
332.900	-5.976	0.100
333.000	-22.629	0.100
333.100	-7.612	0.100
333.200	-22.391	0.100
333.300	-22.282	0.100
333.400	-38.007	0.100
333.500	-28.480	0.100
333.600	-29.499	0.100
333.700	-24.309	0.100
333.800	-6.409	0.100
333.900	-12.386	0.100
334.000	-25.759	0.100
334.100	-11.316	0.100
334.200	-31.262	0.100
334.300	-10.548	0.100
334.400	-10.874	0.100
334.500	-12.485	0.100
334.600	-25.106	0.100
334.700	-31.144	0.100
334.800	-12.370	0.100
334.900	2.530	0.100
335.000	-3.301	0.100
335.100	-18.297	0.100
335.200	-15.885	0.100
335.300	-24.361	0.100
335.400	-26.659	0.100
335.500	-20.116	0.100
335.600	-27.181	0.100
335.700	-40.440	0.100
335.800	-27.838	0.100
335.900	-21.864	0.100
336.000	-11.526	0.100
336.100	-13.319	0.100
336.200	-4.903	0.100
336.300	-18.169	0.100
336.400	-28.014	0.100
336.500	-13.872	0.100
336.600	-25.515	0.100
336.700	-34.464	0.100
336.800	-3.852	0.100
336.900	-26.605	0.100
337.000	-21.965	0.100
337.100	-8.733	0.100
337.200	-11.418	0.100
337.300	-21.878	0.100
337.400	-28.498	0.100
337.500	-18.117	0.100
337.600	10.288	0.100
337.700	-25.307	0.100
337.800	-9.513	0.100
337.900	-8.087	0.100
338.000	-35.734	0.100
338.100	-16.000	0.100
338.200	-17.119	0.100
338.300	-18.864	0.100
338.400	-35.148	0.100
338.500	11.420	0.100
338.600	-25.897	0.100
338.700	-16.241	0.100
338.800	5.311	0.100
338.900	-21.269	0.100
339.000	-5.766	0.100
339.100	-9.878	0.100
339.200	-1.767	0.100
339.300	-18.534	0.100
339.400	-18.609	0.100
339.500	-5.999	0.100
339.600	-7.350	0.100
339.700	-13.846	0.100
339.800	-19.383	0.100
339.900	-25.432	0.100
340.000	-8.803	0.100
340.100	-2.015	0.100
340.200	-17.210	0.100
340.300	-24.396	0.100
340.400	-8.113	0.100
340.500	2.515	0.100
340.600	-18.249	0.100
340.700	-15.120	0.100
340.800	1.032	0.100
340.900	-8.779	0.100
341.000	-12.663	0.100
341.100	-2.466	0.100
341.200	-31.507	0.100
341.300	-8.976	0.100
341.400	-13.045	0.100
341.500	-0.438	0.100
341.600	-0.370	0.100
341.700	15.145	0.100
341.800	-6.678	0.100
341.900	-10.896	0.100
342.000	-7.988	0.100
342.100	-7.293	0.100
342.200	9.456	0.100
342.300	-1.675	0.100
342.400	-12.688	0.100
342.500	-5.513	0.100
342.600	-2.172	0.100
342.700	-5.556	0.100
342.800	4.555	0.100
342.900	-13.728	0.100
343.000	1.550	0.100
343.100	6.120	0.100
343.200	7.113	0.100
343.300	-9.197	0.100
343.400	-14.568	0.100
343.500	18.816	0.100
343.600	25.314	0.100
343.700	15.137	0.100
343.800	7.823	0.100
343.900	-5.403	0.100
344.000	2.932	0.100
344.100	0.582	0.100
344.200	15.201	0.100
344.300	1.672	0.100
344.400	23.948	0.100
344.500	28.673	0.100
344.600	18.555	0.100
344.700	14.246	0.100
344.800	16.536	0.100
344.900	15.496	0.100
345.000	25.901	0.100
345.100	11.406	0.100
345.200	18.266	0.100
345.300	24.425	0.100
345.400	9.628	0.100
345.500	3.801	0.100
345.600	8.944	0.100
345.700	4.012	0.100
345.800	10.579	0.100
345.900	17.717	0.100
346.000	6.024	0.100
346.100	18.655	0.100
346.200	8.702	0.100
346.300	12.237	0.100
346.400	10.747	0.100
346.500	21.491	0.100
346.600	14.351	0.100
346.700	32.064	0.100
346.800	26.422	0.100
346.900	25.466	0.100
347.000	-4.112	0.100
347.100	15.831	0.100
347.200	45.173	0.100
347.300	16.536	0.100
347.400	57.895	0.100
347.500	21.739	0.100
347.600	12.598	0.100
347.700	9.842	0.100
347.800	16.385	0.100
347.900	22.710	0.100
348.000	20.426	0.100
348.100	13.302	0.100
348.200	21.217	0.100
348.300	-2.348	0.100
348.400	-0.370	0.100
348.500	21.975	0.100
348.600	16.881	0.100
348.700	37.443	0.100
348.800	30.442	0.100
348.900	23.076	0.100
349.000	29.303	0.100
349.100	33.557	0.100
349.200	22.170	0.100
349.300	24.847	0.100
349.400	31.006	0.100
349.500	34.903	0.100
349.600	24.836	0.100
349.700	16.984	0.100
349.800	22.567	0.100
349.900	38.024	0.100
350.000	32.458	0.100
350.100	30.308	0.100
350.200	40.233	0.100
350.300	14.631	0.100
350.400	34.018	0.100
350.500	34.069	0.100
350.600	24.016	0.100
350.700	33.725	0.100
350.800	36.250	0.100
350.900	37.377	0.100
351.000	40.293	0.100
351.100	31.444	0.100
351.200	18.474	0.100
351.300	15.457	0.100
351.400	62.398	0.100
351.500	21.138	0.100
351.600	38.694	0.100
351.700	39.751	0.100
351.800	24.747	0.100
351.900	46.682	0.100
352.000	45.393	0.100
352.100	30.923	0.100
352.200	26.773	0.100
352.300	36.594	0.100
352.400	45.299	0.100
352.500	32.197	0.100
352.600	24.200	0.100
352.700	39.060	0.100
352.800	44.286	0.100
352.900	39.229	0.100
353.000	9.537	0.100
353.100	46.225	0.100
353.200	39.528	0.100
353.300	52.291	0.100
353.400	40.000	0.100
353.500	20.476	0.100
353.600	35.054	0.100
353.700	35.438	0.100
353.800	33.744	0.100
353.900	35.126	0.100
354.000	37.360	0.100
354.100	30.621	0.100
354.200	44.718	0.100
354.300	43.144	0.100
354.400	46.147	0.100
354.500	25.924	0.100
354.600	47.516	0.100
354.700	25.127	0.100
354.800	35.574	0.100
354.900	40.052	0.100
355.000	37.472	0.100
355.100	36.071	0.100
355.200	45.879	0.100
355.300	22.090	0.100
355.400	27.164	0.100
355.500	56.477	0.100
355.600	34.312	0.100
355.700	19.208	0.100
355.800	23.044	0.100
355.900	33.768	0.100
356.000	42.747	0.100
356.100	57.947	0.100
356.200	38.249	0.100
356.300	34.444	0.100
356.400	31.490	0.100
356.500	36.594	0.100
356.600	58.404	0.100
356.700	42.062	0.100
356.800	41.681	0.100
356.900	28.708	0.100
357.000	58.453	0.100
357.100	40.070	0.100
357.200	65.687	0.100
357.300	46.115	0.100
357.400	15.189	0.100
357.500	30.272	0.100
357.600	51.670	0.100
357.700	35.928	0.100
357.800	35.172	0.100
357.900	31.542	0.100
358.000	17.392	0.100
358.100	24.551	0.100
358.200	39.293	0.100
358.300	39.758	0.100
358.400	65.451	0.100
358.500	47.137	0.100
358.600	39.638	0.100
358.700	38.720	0.100
358.800	40.982	0.100
358.900	42.935	0.100
359.000	46.003	0.100
359.100	40.038	0.100
359.200	22.458	0.100
359.300	46.671	0.100
359.400	34.576	0.100
359.500	52.847	0.100
359.600	36.253	0.100
359.700	40.688	0.100
359.800	16.400	0.100
359.900	40.647	0.100
360.000	46.981	0.100
360.100	51.972	0.100
360.200	45.561	0.100
360.300	34.889	0.100
360.400	35.137	0.100
360.500	28.520	0.100
360.600	35.712	0.100
360.700	53.378	0.100
360.800	58.298	0.100
360.900	25.308	0.100
361.000	34.556	0.100
361.100	47.087	0.100
361.200	43.432	0.100
361.300	49.346	0.100
361.400	44.953	0.100
361.500	48.132	0.100
361.600	51.713	0.100
361.700	32.401	0.100
361.800	41.327	0.100
361.900	50.583	0.100
362.000	44.603	0.100
362.100	55.302	0.100
362.200	30.335	0.100
362.300	33.419	0.100
362.400	44.939	0.100
362.500	37.700	0.100
362.600	44.697	0.100
362.700	53.010	0.100
362.800	23.341	0.100
362.900	42.086	0.100
363.000	51.276	0.100
363.100	53.718	0.100
363.200	35.933	0.100
363.300	55.869	0.100
363.400	39.095	0.100
363.500	31.671	0.100
363.600	44.641	0.100
363.700	44.988	0.100
363.800	27.088	0.100
363.900	32.160	0.100
364.000	57.048	0.100
364.100	63.342	0.100
364.200	36.569	0.100
364.300	39.840	0.100
364.400	51.026	0.100
364.500	46.965	0.100
364.600	41.798	0.100
364.700	33.032	0.100
364.800	52.441	0.100
364.900	46.602	0.100
365.000	41.968	0.100
365.100	38.927	0.100
365.200	55.459	0.100
365.300	66.897	0.100
365.400	51.107	0.100
365.500	46.052	0.100
365.600	34.401	0.100
365.700	29.122	0.100
365.800	58.884	0.100
365.900	47.775	0.100
366.000	49.038	0.100
366.100	62.388	0.100
366.200	30.430	0.100
366.300	39.751	0.100
366.400	43.679	0.100
366.500	46.430	0.100
366.600	40.112	0.100
366.700	60.783	0.100
366.800	36.523	0.100
366.900	44.815	0.100
367.000	50.071	0.100
367.100	26.413	0.100
367.200	42.894	0.100
367.300	52.282	0.100
367.400	54.120	0.100
367.500	49.352	0.100
367.600	38.945	0.100
367.700	30.147	0.100
367.800	38.973	0.100
367.900	49.246	0.100
368.000	44.674	0.100
368.100	48.179	0.100
368.200	36.948	0.100
368.300	55.294	0.100
368.400	46.841	0.100
368.500	26.542	0.100
368.600	38.352	0.100
368.700	47.763	0.100
368.800	48.032	0.100
368.900	30.744	0.100
369.000	46.133	0.100
369.100	54.990	0.100
369.200	38.802	0.100
369.300	48.184	0.100
369.400	60.541	0.100
369.500	45.794	0.100
369.600	40.938	0.100
369.700	52.752	0.100
369.800	60.435	0.100
369.900	43.050	0.100
370.000	35.734	0.100
370.100	52.015	0.100
370.200	43.821	0.100
370.300	44.548	0.100
370.400	45.196	0.100
370.500	46.518	0.100
370.600	41.491	0.100
370.700	45.523	0.100
370.800	53.637	0.100
370.900	45.736	0.100
371.000	60.586	0.100
371.100	44.103	0.100
371.200	35.237	0.100
371.300	37.148	0.100
371.400	47.963	0.100
371.500	49.138	0.100
371.600	42.886	0.100
371.700	52.568	0.100
371.800	47.203	0.100
371.900	29.018	0.100
372.000	63.143	0.100
372.100	65.796	0.100
372.200	46.194	0.100
372.300	54.534	0.100
372.400	48.074	0.100
372.500	37.789	0.100
372.600	27.627	0.100
372.700	56.154	0.100
372.800	62.807	0.100
372.900	49.501	0.100
373.000	51.739	0.100
373.100	35.021	0.100
373.200	35.111	0.100
373.300	35.977	0.100
373.400	46.013	0.100
373.500	34.340	0.100
373.600	38.011	0.100
373.700	54.089	0.100
373.800	56.654	0.100
373.900	56.327	0.100
374.000	43.220	0.100
374.100	37.755	0.100
374.200	47.683	0.100
374.300	46.314	0.100
374.400	50.871	0.100
374.500	46.210	0.100
374.600	51.511	0.100
374.700	48.508	0.100
374.800	37.933	0.100
374.900	39.716	0.100
375.000	46.680	0.100
375.100	41.468	0.100
375.200	33.373	0.100
375.300	55.084	0.100
375.400	60.136	0.100
375.500	36.538	0.100
375.600	44.126	0.100
375.700	34.504	0.100
375.800	51.140	0.100
375.900	60.380	0.100
376.000	42.206	0.100
376.100	33.200	0.100
376.200	45.914	0.100
376.300	56.667	0.100
376.400	48.650	0.100
376.500	60.869	0.100
376.600	39.246	0.100
376.700	45.190	0.100
376.800	58.113	0.100
376.900	47.838	0.100
377.000	45.701	0.100
377.100	38.735	0.100
377.200	40.434	0.100
377.300	56.928	0.100
377.400	40.717	0.100
377.500	66.691	0.100
377.600	41.562	0.100
377.700	50.370	0.100
377.800	57.719	0.100
377.900	42.708	0.100
378.000	46.524	0.100
378.100	18.397	0.100
378.200	58.455	0.100
378.300	59.073	0.100
378.400	58.953	0.100
378.500	57.857	0.100
378.600	45.964	0.100
378.700	29.573	0.100
378.800	28.952	0.100
378.900	38.065	0.100
379.000	36.911	0.100
379.100	37.861	0.100
379.200	31.424	0.100
379.300	58.581	0.100
379.400	29.979	0.100
379.500	40.401	0.100
379.600	42.915	0.100
379.700	58.663	0.100
379.800	40.247	0.100
379.900	53.560	0.100
380.000	52.332	0.100
380.100	55.348	0.100
380.200	49.898	0.100
380.300	41.556	0.100
380.400	26.619	0.100
380.500	34.144	0.100
380.600	50.500	0.100
380.700	56.453	0.100
380.800	45.926	0.100
380.900	43.391	0.100
381.000	51.849	0.100
381.100	32.058	0.100
381.200	45.768	0.100
381.300	39.503	0.100
381.400	47.332	0.100
381.500	46.208	0.100
381.600	26.353	0.100
381.700	31.736	0.100
381.800	43.814	0.100
381.900	59.681	0.100
382.000	44.897	0.100
382.100	61.925	0.100
382.200	35.188	0.100
382.300	35.796	0.100
382.400	51.909	0.100
382.500	42.603	0.100
382.600	39.498	0.100
382.700	56.583	0.100
382.800	47.801	0.100
382.900	36.134	0.100
383.000	32.404	0.100
383.100	52.216	0.100
383.200	62.497	0.100
383.300	54.253	0.100
383.400	43.188	0.100
383.500	28.316	0.100
383.600	48.429	0.100
383.700	32.891	0.100
383.800	47.720	0.100
383.900	45.422	0.100
384.000	53.644	0.100
384.100	51.756	0.100
384.200	41.447	0.100
384.300	42.810	0.100
384.400	54.941	0.100
384.500	48.675	0.100
384.600	35.461	0.100
384.700	50.887	0.100
384.800	31.720	0.100
384.900	49.213	0.100
385.000	36.400	0.100
385.100	50.431	0.100
385.200	52.271	0.100
385.300	36.039	0.100
385.400	38.589	0.100
385.500	48.342	0.100
385.600	50.188	0.100
385.700	38.473	0.100
385.800	39.302	0.100
385.900	16.245	0.100
386.000	51.521	0.100
386.100	43.409	0.100
386.200	52.518	0.100
386.300	30.664	0.100
386.400	48.169	0.100
386.500	42.492	0.100
386.600	53.545	0.100
386.700	52.375	0.100
386.800	55.383	0.100
386.900	40.326	0.100
387.000	27.975	0.100
387.100	69.199	0.100
387.200	40.461	0.100
387.300	46.119	0.100
387.400	33.598	0.100
387.500	33.342	0.100
387.600	46.953	0.100
387.700	44.491	0.100
387.800	39.945	0.100
387.900	37.817	0.100
388.000	41.540	0.100
388.100	29.375	0.100
388.200	46.164	0.100
388.300	38.082	0.100
388.400	56.422	0.100
388.500	44.113	0.100
388.600	54.550	0.100
388.700	46.896	0.100
388.800	53.111	0.100
388.900	54.078	0.100
389.000	45.084	0.100
389.100	52.469	0.100
389.200	45.071	0.100
389.300	38.579	0.100
389.400	51.242	0.100
389.500	52.922	0.100
389.600	47.031	0.100
389.700	46.084	0.100
389.800	50.258	0.100
389.900	40.636	0.100
390.000	39.150	0.100
390.100	39.607	0.100
390.200	49.662	0.100
390.300	43.930	0.100
390.400	32.399	0.100
390.500	55.837	0.100
390.600	35.778	0.100
390.700	37.683	0.100
390.800	50.211	0.100
390.900	32.278	0.100
391.000	48.495	0.100
391.100	52.653	0.100
391.200	56.315	0.100
391.300	54.472	0.100
391.400	45.213	0.100
391.500	17.763	0.100
391.600	21.589	0.100
391.700	38.402	0.100
391.800	23.934	0.100
391.900	33.758	0.100
392.000	65.542	0.100
392.100	16.342	0.100
392.200	36.103	0.100
392.300	27.298	0.100
392.400	31.483	0.100
392.500	31.823	0.100
392.600	27.125	0.100
392.700	29.107	0.100
392.800	31.938	0.100
392.900	34.337	0.100
393.000	21.351	0.100
393.100	32.097	0.100
393.200	28.565	0.100
393.300	26.803	0.100
393.400	25.087	0.100
393.500	22.314	0.100
393.600	31.565	0.100
393.700	43.758	0.100
393.800	29.222	0.100
393.900	5.829	0.100
394.000	34.802	0.100
394.100	33.011	0.100
394.200	20.265	0.100
394.300	8.764	0.100
394.400	26.632	0.100
394.500	39.552	0.100
394.600	17.876	0.100
394.700	31.782	0.100
394.800	5.823	0.100
394.900	18.998	0.100
395.000	22.549	0.100
395.100	16.357	0.100
395.200	22.225	0.100
395.300	2.550	0.100
395.400	12.709	0.100
395.500	27.016	0.100
395.600	15.260	0.100
395.700	9.894	0.100
395.800	27.454	0.100
395.900	19.162	0.100
396.000	19.123	0.100
396.100	-5.684	0.100
396.200	42.768	0.100
396.300	12.788	0.100
396.400	9.758	0.100
396.500	19.955	0.100
396.600	13.999	0.100
396.700	8.886	0.100
396.800	1.865	0.100
396.900	16.133	0.100
397.000	14.539	0.100
397.100	11.794	0.100
397.200	4.675	0.100
397.300	18.772	0.100
397.400	10.881	0.100
397.500	-0.174	0.100
397.600	2.521	0.100
397.700	15.240	0.100
397.800	18.966	0.100
397.900	11.160	0.100
398.000	4.900	0.100
398.100	3.310	0.100
398.200	9.695	0.100
398.300	4.997	0.100
398.400	11.481	0.100
398.500	5.939	0.100
398.600	14.528	0.100
398.700	23.481	0.100
398.800	-2.835	0.100
398.900	-0.879	0.100
399.000	18.260	0.100
399.100	8.869	0.100
399.200	3.131	0.100
399.300	19.300	0.100
399.400	13.771	0.100
399.500	8.303	0.100
399.600	5.110	0.100
399.700	-6.548	0.100
399.800	10.975	0.100
399.900	10.144	0.100
400.000	4.058	0.100
400.100	11.326	0.100
400.200	2.617	0.100
400.300	11.996	0.100
400.400	9.536	0.100
400.500	15.031	0.100
400.600	16.080	0.100
400.700	0.251	0.100
400.800	19.929	0.100
400.900	17.416	0.100
401.000	12.197	0.100
401.100	4.710	0.100
401.200	16.218	0.100
401.300	17.731	0.100
401.400	3.134	0.100
401.500	12.727	0.100
401.600	1.474	0.100
401.700	20.899	0.100
401.800	9.611	0.100
401.900	4.747	0.100
402.000	-2.394	0.100
402.100	-4.141	0.100
402.200	11.735	0.100
402.300	14.798	0.100
402.400	1.705	0.100
402.500	1.641	0.100
402.600	19.047	0.100
402.700	-1.650	0.100
402.800	-16.058	0.100
402.900	4.029	0.100
403.000	0.079	0.100
403.100	7.317	0.100
403.200	4.931	0.100
403.300	13.460	0.100
403.400	2.197	0.100
403.500	-13.049	0.100
403.600	-12.508	0.100
403.700	20.272	0.100
403.800	3.197	0.100
403.900	24.592	0.100
404.000	9.887	0.100
404.100	9.221	0.100
404.200	7.359	0.100
404.300	5.820	0.100
404.400	-1.580	0.100
404.500	-7.425	0.100
404.600	8.377	0.100
404.700	-1.446	0.100
404.800	-17.271	0.100
404.900	7.287	0.100
405.000	-7.295	0.100
405.100	3.917	0.100
405.200	-17.722	0.100
405.300	-3.459	0.100
405.400	-4.062	0.100
405.500	2.495	0.100
405.600	-1.164	0.100
405.700	6.013	0.100
405.800	7.149	0.100
405.900	-8.585	0.100
406.000	-11.365	0.100
406.100	1.022	0.100
406.200	13.354	0.100
406.300	-7.138	0.100
406.400	6.851	0.100
406.500	-10.410	0.100
406.600	-3.777	0.100
406.700	-4.537	0.100
406.800	17.548	0.100
406.900	-5.132	0.100
407.000	2.410	0.100
407.100	-23.335	0.100
407.200	-24.937	0.100
407.300	-0.573	0.100
407.400	10.524	0.100
407.500	-0.243	0.100
407.600	-5.993	0.100
407.700	-19.688	0.100
407.800	6.850	0.100
407.900	-10.236	0.100
408.000	3.556	0.100
408.100	-1.991	0.100
408.200	-28.017	0.100
408.300	20.002	0.100
408.400	-2.826	0.100
408.500	-9.410	0.100
408.600	-5.590	0.100
408.700	9.146	0.100
408.800	-4.413	0.100
408.900	4.486	0.100
409.000	-13.310	0.100
409.100	-13.948	0.100
409.200	-11.552	0.100
409.300	-5.736	0.100
409.400	-8.092	0.100
409.500	2.263	0.100
409.600	-7.342	0.100
409.700	-10.353	0.100
409.800	-7.925	0.100
409.900	-11.501	0.100
410.000	-7.106	0.100
410.100	-8.926	0.100
410.200	-20.378	0.100
410.300	-4.014	0.100
410.400	-3.945	0.100
410.500	-9.884	0.100
410.600	-18.850	0.100
410.700	-22.880	0.100
410.800	-5.572	0.100
410.900	-2.656	0.100
411.000	-8.385	0.100
411.100	-20.010	0.100
411.200	-17.579	0.100
411.300	-10.218	0.100
411.400	10.993	0.100
411.500	-12.686	0.100
411.600	-9.107	0.100
411.700	-8.786	0.100
411.800	2.697	0.100
411.900	0.229	0.100
412.000	-27.149	0.100
412.100	-3.527	0.100
412.200	-9.501	0.100
412.300	-9.588	0.100
412.400	-19.744	0.100
412.500	-5.745	0.100
412.600	-5.996	0.100
412.700	5.272	0.100
412.800	-29.464	0.100
412.900	-9.212	0.100
413.000	-18.364	0.100
413.100	-7.345	0.100
413.200	-10.232	0.100
413.300	-3.565	0.100
413.400	-17.093	0.100
413.500	-17.484	0.100
413.600	-7.790	0.100
413.700	-10.911	0.100
413.800	-36.463	0.100
413.900	-12.079	0.100
414.000	-19.685	0.100
414.100	-8.415	0.100
414.200	-8.570	0.100
414.300	-20.394	0.100
414.400	-9.875	0.100
414.500	-27.946	0.100
414.600	-11.817	0.100
414.700	-2.749	0.100
414.800	-15.806	0.100
414.900	0.654	0.100
415.000	-18.787	0.100
415.100	-14.441	0.100
415.200	-8.398	0.100
415.300	-25.710	0.100
415.400	-17.691	0.100
415.500	-3.603	0.100
415.600	-35.245	0.100
415.700	-11.533	0.100
415.800	-19.724	0.100
415.900	-16.759	0.100
416.000	-12.412	0.100
416.100	-20.803	0.100
416.200	-4.659	0.100
416.300	-9.911	0.100
416.400	-15.269	0.100
416.500	-18.320	0.100
416.600	-1.908	0.100
416.700	-31.520	0.100
416.800	-20.568	0.100
416.900	-22.408	0.100
417.000	2.443	0.100
417.100	-17.179	0.100
417.200	-9.264	0.100
417.300	-19.954	0.100
417.400	-23.890	0.100
417.500	-2.260	0.100
417.600	-16.711	0.100
417.700	-15.977	0.100
417.800	-10.935	0.100
417.900	-6.665	0.100
418.000	-22.058	0.100
418.100	-29.027	0.100
418.200	-22.060	0.100
418.300	-28.507	0.100
418.400	2.044	0.100
418.500	-36.168	0.100
418.600	-18.306	0.100
418.700	-34.002	0.100
418.800	-2.152	0.100
418.900	1.201	0.100
419.000	-0.887	0.100
419.100	-18.473	0.100
419.200	-20.656	0.100
419.300	-27.244	0.100
419.400	-38.337	0.100
419.500	-20.256	0.100
419.600	-6.559	0.100
419.700	-30.448	0.100
419.800	-13.244	0.100
419.900	-19.183	0.100
420.000	-27.710	0.100
420.100	-21.200	0.100
420.200	-25.667	0.100
420.300	-12.642	0.100
420.400	-35.525	0.100
420.500	-30.908	0.100
420.600	-20.343	0.100
420.700	-27.315	0.100
420.800	-14.791	0.100
420.900	-13.180	0.100
421.000	-22.696	0.100
421.100	-12.520	0.100
421.200	-29.210	0.100
421.300	-26.248	0.100
421.400	-28.080	0.100
421.500	-33.545	0.100
421.600	-16.748	0.100
421.700	-27.537	0.100
421.800	-45.249	0.100
421.900	-21.917	0.100
422.000	-17.599	0.100
422.100	-4.204	0.100
422.200	-19.313	0.100
422.300	-27.522	0.100
422.400	-9.519	0.100
422.500	-18.085	0.100
422.600	-26.840	0.100
422.700	-23.970	0.100
422.800	-22.791	0.100
422.900	-13.333	0.100
423.000	-34.350	0.100
423.100	-32.119	0.100
423.200	-22.819	0.100
423.300	-15.370	0.100
423.400	-21.045	0.100
423.500	-21.904	0.100
423.600	-33.721	0.100
423.700	-13.859	0.100
423.800	-24.628	0.100
423.900	-26.371	0.100
424.000	-56.123	0.100
424.100	-11.397	0.100
424.200	-6.835	0.100
424.300	-30.864	0.100
424.400	-28.967	0.100
424.500	-16.581	0.100
424.600	-29.133	0.100
424.700	-23.090	0.100
424.800	-26.361	0.100
424.900	-19.068	0.100
425.000	-36.066	0.100
425.100	-29.295	0.100
425.200	-21.576	0.100
425.300	-19.155	0.100
425.400	-12.398	0.100
425.500	-32.329	0.100
425.600	-29.587	0.100
425.700	-23.354	0.100
425.800	-17.335	0.100
425.900	-0.846	0.100
426.000	-28.943	0.100
426.100	-13.791	0.100
426.200	-20.981	0.100
426.300	-32.777	0.100
426.400	-44.804	0.100
426.500	-15.053	0.100
426.600	-13.834	0.100
426.700	-31.819	0.100
426.800	-31.901	0.100
426.900	-15.473	0.100
427.000	-28.590	0.100
427.100	-21.695	0.100
427.200	-29.285	0.100
427.300	-18.671	0.100
427.400	-21.329	0.100
427.500	-33.962	0.100
427.600	-37.328	0.100
427.700	-29.469	0.100
427.800	-20.719	0.100
427.900	-26.196	0.100
428.000	-32.616	0.100
428.100	-22.563	0.100
428.200	-34.244	0.100
428.300	-27.217	0.100
428.400	-22.813	0.100
428.500	-30.899	0.100
428.600	-55.110	0.100
428.700	-36.747	0.100
428.800	-2.481	0.100
428.900	3.163	0.100
429.000	-19.111	0.100
429.100	-41.596	0.100
429.200	-19.731	0.100
429.300	-43.722	0.100
429.400	-28.667	0.100
429.500	-30.962	0.100
429.600	-55.687	0.100
429.700	-31.823	0.100
429.800	-9.154	0.100
429.900	-29.559	0.100
430.000	-17.171	0.100
430.100	-18.936	0.100
430.200	-25.126	0.100
430.300	-27.620	0.100
430.400	-27.318	0.100
430.500	-18.110	0.100
430.600	-39.609	0.100
430.700	-21.744	0.100
430.800	-26.699	0.100
430.900	-34.940	0.100
431.000	-22.020	0.100
431.100	-19.221	0.100
431.200	-31.958	0.100
431.300	-27.191	0.100
431.400	-23.938	0.100
431.500	-27.660	0.100
431.600	-39.988	0.100
431.700	-18.770	0.100
431.800	-39.864	0.100
431.900	-29.879	0.100
432.000	-43.261	0.100
432.100	-28.184	0.100
432.200	-31.374	0.100
432.300	-8.102	0.100
432.400	-23.522	0.100
432.500	-44.507	0.100
432.600	-29.818	0.100
432.700	-32.860	0.100
432.800	-31.909	0.100
432.900	-29.185	0.100
433.000	-37.051	0.100
433.100	-44.743	0.100
433.200	-24.631	0.100
433.300	-37.382	0.100
433.400	-28.630	0.100
433.500	-17.358	0.100
433.600	-32.461	0.100
433.700	-44.087	0.100
433.800	-27.626	0.100
433.900	-29.302	0.100
434.000	-25.167	0.100
434.100	-36.804	0.100
434.200	-21.172	0.100
434.300	-32.763	0.100
434.400	-34.506	0.100
434.500	-30.143	0.100
434.600	-25.937	0.100
434.700	-30.459	0.100
434.800	-21.477	0.100
434.900	-29.486	0.100
435.000	-24.954	0.100
435.100	-30.001	0.100
435.200	-56.033	0.100
435.300	-28.483	0.100
435.400	-25.526	0.100
435.500	-23.409	0.100
435.600	-27.585	0.100
435.700	-42.128	0.100
435.800	-35.754	0.100
435.900	-40.883	0.100
436.000	-23.559	0.100
436.100	-17.850	0.100
436.200	-47.622	0.100
436.300	-34.009	0.100
436.400	-50.591	0.100
436.500	-37.544	0.100
436.600	-21.116	0.100
436.700	-31.089	0.100
436.800	-34.215	0.100
436.900	-30.166	0.100
437.000	-43.808	0.100
437.100	-38.861	0.100
437.200	-43.819	0.100
437.300	-42.653	0.100
437.400	-22.356	0.100
437.500	-2.191	0.100
437.600	-31.133	0.100
437.700	-47.835	0.100
437.800	-35.933	0.100
437.900	-30.684	0.100
438.000	-36.479	0.100
438.100	-9.580	0.100
438.200	-28.951	0.100
438.300	-45.865	0.100
438.400	-32.700	0.100
438.500	-41.858	0.100
438.600	-34.891	0.100
438.700	-19.727	0.100
438.800	-24.205	0.100
438.900	-48.414	0.100
439.000	-25.506	0.100
439.100	-27.744	0.100
439.200	-30.416	0.100
439.300	-29.470	0.100
439.400	-30.977	0.100
439.500	-32.006	0.100
439.600	-35.904	0.100
439.700	-41.626	0.100
439.800	-40.900	0.100
439.900	-33.163	0.100
440.000	-41.242	0.100
440.100	-12.548	0.100
440.200	-13.017	0.100
440.300	-45.307	0.100
440.400	-34.031	0.100
440.500	-33.218	0.100
440.600	-38.383	0.100
440.700	-43.563	0.100
440.800	-24.715	0.100
440.900	-41.666	0.100
441.000	-38.456	0.100
441.100	-36.585	0.100
441.200	-42.445	0.100
441.300	-36.063	0.100
441.400	-24.192	0.100
441.500	-3.744	0.100
441.600	-22.895	0.100
441.700	-37.290	0.100
441.800	-54.072	0.100
441.900	-36.065	0.100
442.000	-35.139	0.100
442.100	-32.257	0.100
442.200	-56.844	0.100
442.300	-47.812	0.100
442.400	-30.016	0.100
442.500	-46.806	0.100
442.600	-34.072	0.100
442.700	-38.140	0.100
442.800	-24.068	0.100
442.900	-37.259	0.100
443.000	-42.414	0.100
443.100	-37.889	0.100
443.200	-36.401	0.100
443.300	-47.071	0.100
443.400	-23.849	0.100
443.500	-34.150	0.100
443.600	-19.920	0.100
443.700	-39.824	0.100
443.800	-39.762	0.100
443.900	-35.767	0.100
444.000	-34.273	0.100
444.100	-28.642	0.100
444.200	-30.949	0.100
444.300	-30.828	0.100
444.400	-31.881	0.100
444.500	-32.153	0.100
444.600	-31.356	0.100
444.700	-36.646	0.100
444.800	-29.574	0.100
444.900	-23.482	0.100
445.000	-10.074	0.100
445.100	-40.303	0.100
445.200	-43.681	0.100
445.300	-47.185	0.100
445.400	-25.466	0.100
445.500	-21.260	0.100
445.600	-58.204	0.100
445.700	-38.305	0.100
445.800	-18.824	0.100
445.900	-31.816	0.100
446.000	-47.113	0.100
446.100	-28.788	0.100
446.200	-34.966	0.100
446.300	-35.203	0.100
446.400	-36.900	0.100
446.500	-28.747	0.100
446.600	-27.643	0.100
446.700	-42.180	0.100
446.800	-38.272	0.100
446.900	-44.599	0.100
447.000	-34.480	0.100
447.100	-35.249	0.100
447.200	-17.852	0.100
447.300	-39.721	0.100
447.400	-29.401	0.100
447.500	-47.321	0.100
447.600	-26.634	0.100
447.700	-33.798	0.100
447.800	-38.260	0.100
447.900	-37.946	0.100
448.000	-24.963	0.100
448.100	-28.650	0.100
448.200	-30.008	0.100
448.300	-41.311	0.100
448.400	-29.042	0.100
448.500	-32.685	0.100
448.600	-30.792	0.100
448.700	-52.521	0.100
448.800	-41.958	0.100
448.900	-39.411	0.100
449.000	-30.264	0.100
449.100	-32.878	0.100
449.200	-40.057	0.100
449.300	-65.212	0.100
449.400	-41.583	0.100
449.500	-15.465	0.100
449.600	-19.837	0.100
449.700	-44.996	0.100
449.800	-53.697	0.100
449.900	-27.654	0.100
450.000	-35.504	0.100
450.100	-35.685	0.100
450.200	-35.905	0.100
450.300	-34.665	0.100
450.400	-34.201	0.100
450.500	-42.206	0.100
450.600	-59.819	0.100
450.700	-26.939	0.100
450.800	-29.476	0.100
450.900	-36.296	0.100
451.000	-56.904	0.100
451.100	-39.440	0.100
451.200	-41.090	0.100
451.300	-30.238	0.100
451.400	-20.608	0.100
451.500	-16.190	0.100
451.600	-44.271	0.100
451.700	-41.533	0.100
451.800	-36.459	0.100
451.900	-43.074	0.100
452.000	-36.005	0.100
452.100	-30.418	0.100
452.200	-38.453	0.100
452.300	-30.444	0.100
452.400	-36.802	0.100
452.500	-25.302	0.100
452.600	-40.441	0.100
452.700	-34.583	0.100
452.800	-26.208	0.100
452.900	-50.545	0.100
453.000	-39.701	0.100
453.100	-40.722	0.100
453.200	-21.841	0.100
453.300	-34.561	0.100
453.400	-36.724	0.100
453.500	-41.383	0.100
453.600	-38.847	0.100
453.700	-35.702	0.100
453.800	-45.295	0.100
453.900	-37.371	0.100
454.000	-21.093	0.100
454.100	-30.462	0.100
454.200	-41.849	0.100
454.300	-39.486	0.100
454.400	-46.972	0.100
454.500	-45.241	0.100
454.600	-29.948	0.100
454.700	-31.182	0.100
454.800	-44.145	0.100
454.900	-39.908	0.100
455.000	-44.396	0.100
455.100	-35.231	0.100
455.200	-34.005	0.100
455.300	-27.301	0.100
455.400	-29.804	0.100
455.500	-32.582	0.100
455.600	-15.709	0.100
455.700	-22.328	0.100
455.800	-30.099	0.100
455.900	-29.492	0.100
456.000	-41.866	0.100
456.100	-46.864	0.100
456.200	-38.170	0.100
456.300	-43.253	0.100
456.400	-32.498	0.100
456.500	-47.199	0.100
456.600	-39.902	0.100
456.700	-33.818	0.100
456.800	-22.195	0.100
456.900	-52.101	0.100
457.000	-34.159	0.100
457.100	-47.577	0.100
457.200	-27.040	0.100
457.300	-40.553	0.100
457.400	-30.594	0.100
457.500	-47.971	0.100
457.600	-32.708	0.100
457.700	-36.703	0.100
457.800	-24.372	0.100
457.900	-37.409	0.100
458.000	-24.646	0.100
458.100	-34.032	0.100
458.200	-21.457	0.100
458.300	-41.101	0.100
458.400	-39.388	0.100
458.500	-48.497	0.100
458.600	-45.489	0.100
458.700	-37.107	0.100
458.800	-36.051	0.100
458.900	-30.631	0.100
459.000	-37.907	0.100
459.100	-38.159	0.100
459.200	-26.487	0.100
459.300	-49.359	0.100
459.400	-36.371	0.100
459.500	-30.543	0.100
459.600	-34.135	0.100
459.700	-38.930	0.100
459.800	-43.776	0.100
459.900	-33.532	0.100
460.000	-39.724	0.100
460.100	-48.883	0.100
460.200	-35.044	0.100
460.300	-49.302	0.100
460.400	-35.496	0.100
460.500	-18.939	0.100
460.600	-40.110	0.100
460.700	-10.426	0.100
460.800	-30.537	0.100
460.900	-44.252	0.100
461.000	-34.684	0.100
461.100	-29.136	0.100
461.200	-25.054	0.100
461.300	-22.160	0.100
461.400	-57.580	0.100
461.500	-43.345	0.100
461.600	-26.358	0.100
461.700	-28.438	0.100
461.800	-31.394	0.100
461.900	-36.995	0.100
462.000	-47.781	0.100
462.100	-46.040	0.100
462.200	-37.127	0.100
462.300	-29.010	0.100
462.400	-31.507	0.100
462.500	-32.530	0.100
462.600	-52.510	0.100
462.700	-36.620	0.100
462.800	-37.503	0.100
462.900	-9.395	0.100
463.000	-37.343	0.100
463.100	-48.923	0.100
463.200	-36.916	0.100
463.300	-43.932	0.100
463.400	-30.876	0.100
463.500	-36.546	0.100
463.600	-48.362	0.100
463.700	-32.893	0.100
463.800	-29.372	0.100
463.900	-37.460	0.100
464.000	-30.891	0.100
464.100	-47.959	0.100
464.200	-38.674	0.100
464.300	-24.298	0.100
464.400	-16.302	0.100
464.500	-79.055	0.100
464.600	-12.956	0.100
464.700	-28.619	0.100
464.800	-35.928	0.100
464.900	-43.923	0.100
465.000	-25.098	0.100
465.100	-31.763	0.100
465.200	-33.871	0.100
465.300	-33.473	0.100
465.400	-42.138	0.100
465.500	-42.660	0.100
465.600	-30.934	0.100
465.700	-33.306	0.100
465.800	-39.992	0.100
465.900	-27.761	0.100
466.000	-36.237	0.100
466.100	-26.006	0.100
466.200	-52.940	0.100
466.300	-50.330	0.100
466.400	-33.555	0.100
466.500	-44.602	0.100
466.600	-42.709	0.100
466.700	-42.453	0.100
466.800	-35.142	0.100
466.900	-32.305	0.100
467.000	-37.507	0.100
467.100	-34.428	0.100
467.200	-38.754	0.100
467.300	-53.933	0.100
467.400	-39.684	0.100
467.500	-41.938	0.100
467.600	-22.742	0.100
467.700	-31.791	0.100
467.800	-37.135	0.100
467.900	-45.007	0.100
468.000	-42.025	0.100
468.100	-36.568	0.100
468.200	-33.582	0.100
468.300	-42.971	0.100
468.400	-47.792	0.100
468.500	-19.802	0.100
468.600	-37.935	0.100
468.700	-40.806	0.100
468.800	-26.096	0.100
468.900	-31.141	0.100
469.000	-35.843	0.100
469.100	-48.246	0.100
469.200	-36.942	0.100
469.300	-29.203	0.100
469.400	-27.781	0.100
469.500	-49.811	0.100
469.600	-31.449	0.100
469.700	-36.831	0.100
469.800	-46.668	0.100
469.900	-57.650	0.100
470.000	-39.161	0.100
470.100	-45.356	0.100
470.200	-35.251	0.100
470.300	-34.530	0.100
470.400	-36.119	0.100
470.500	-32.682	0.100
470.600	-23.564	0.100
470.700	-33.362	0.100
470.800	-37.103	0.100
470.900	-32.367	0.100
471.000	-29.948	0.100
471.100	-28.750	0.100
471.200	-28.432	0.100
471.300	-59.306	0.100
471.400	-28.633	0.100
471.500	-31.317	0.100
471.600	-49.434	0.100
471.700	-33.099	0.100
471.800	-33.620	0.100
471.900	-45.655	0.100
472.000	-38.124	0.100
472.100	-38.288	0.100
472.200	-33.756	0.100
472.300	-47.934	0.100
472.400	-34.521	0.100
472.500	-49.811	0.100
472.600	-38.495	0.100
472.700	-33.488	0.100
472.800	-52.293	0.100
472.900	-23.768	0.100
473.000	-38.202	0.100
473.100	-41.916	0.100
473.200	-37.080	0.100
473.300	-39.583	0.100
473.400	-51.788	0.100
473.500	-47.738	0.100
473.600	-9.436	0.100
473.700	-28.710	0.100
473.800	-28.786	0.100
473.900	-24.462	0.100
474.000	-39.042	0.100
474.100	-50.801	0.100
474.200	-48.105	0.100
474.300	-23.131	0.100
474.400	-36.422	0.100
474.500	-50.603	0.100
474.600	-25.313	0.100
474.700	-45.819	0.100
474.800	-27.384	0.100
474.900	-22.583	0.100
475.000	-46.454	0.100
475.100	-36.880	0.100
475.200	-52.230	0.100
475.300	-30.540	0.100
475.400	-34.005	0.100
475.500	-27.142	0.100
475.600	-36.073	0.100
475.700	-51.316	0.100
475.800	-22.705	0.100
475.900	-28.581	0.100
476.000	-32.285	0.100
476.100	-42.463	0.100
476.200	-30.085	0.100
476.300	-19.733	0.100
476.400	-61.480	0.100
476.500	-56.994	0.100
476.600	-29.326	0.100
476.700	-37.115	0.100
476.800	-38.703	0.100
476.900	-56.373	0.100
477.000	-30.416	0.100
477.100	-35.740	0.100
477.200	-20.000	0.100
477.300	-28.446	0.100
477.400	-42.143	0.100
477.500	-18.786	0.100
477.600	-36.255	0.100
477.700	-62.372	0.100
477.800	-35.767	0.100
477.900	-31.912	0.100
478.000	-47.188	0.100
478.100	-32.374	0.100
478.200	-27.934	0.100
478.300	-29.210	0.100
478.400	-44.979	0.100
478.500	-33.891	0.100
478.600	-36.726	0.100
478.700	-26.213	0.100
478.800	-30.465	0.100
478.900	-28.872	0.100
479.000	-56.973	0.100
479.100	-38.383	0.100
479.200	-33.390	0.100
479.300	-29.502	0.100
479.400	-33.508	0.100
479.500	-31.020	0.100
479.600	-22.138	0.100
479.700	-37.438	0.100
479.800	-38.452	0.100
479.900	-33.781	0.100
480.000	-43.305	0.100
480.100	-38.731	0.100
480.200	-47.133	0.100
480.300	-27.568	0.100
480.400	-25.201	0.100
480.500	-40.547	0.100
480.600	-44.288	0.100
480.700	-26.315	0.100
480.800	-46.454	0.100
480.900	-19.083	0.100
481.000	-24.031	0.100
481.100	-20.138	0.100
481.200	-46.929	0.100
481.300	-37.077	0.100
481.400	0.367	0.100
481.500	-3.605	0.100
481.600	-29.861	0.100
481.700	-13.853	0.100
481.800	-11.507	0.100
481.900	-38.219	0.100
482.000	-35.915	0.100
482.100	-17.435	0.100
482.200	-13.831	0.100
482.300	-22.373	0.100
482.400	-21.090	0.100
482.500	-46.995	0.100
482.600	-23.409	0.100
482.700	-29.479	0.100
482.800	-29.691	0.100
482.900	-25.253	0.100
483.000	-19.972	0.100
483.100	-11.348	0.100
483.200	-18.871	0.100
483.300	-11.308	0.100
483.400	-25.166	0.100
483.500	-15.048	0.100
483.600	-18.257	0.100
483.700	-5.274	0.100
483.800	-6.750	0.100
483.900	-16.909	0.100
484.000	-27.678	0.100
484.100	-16.897	0.100
484.200	-35.623	0.100
484.300	-3.038	0.100
484.400	-8.660	0.100
484.500	-14.801	0.100
484.600	-31.184	0.100
484.700	-27.615	0.100
484.800	-30.260	0.100
484.900	-3.228	0.100
485.000	-16.799	0.100
485.100	-4.146	0.100
485.200	-18.709	0.100
485.300	-32.642	0.100
485.400	-18.111	0.100
485.500	-22.416	0.100
485.600	-4.831	0.100
485.700	-9.284	0.100
485.800	-14.847	0.100
485.900	-17.651	0.100
486.000	-22.860	0.100
486.100	-32.686	0.100
486.200	-19.022	0.100
486.300	-16.805	0.100
486.400	-17.895	0.100
486.500	-0.410	0.100
486.600	-21.074	0.100
486.700	-27.284	0.100
486.800	-8.657	0.100
486.900	-18.674	0.100
487.000	-12.773	0.100
487.100	-24.923	0.100
487.200	-21.592	0.100
487.300	-20.067	0.100
487.400	-20.970	0.100
487.500	-11.516	0.100
487.600	-27.658	0.100
487.700	-4.689	0.100
487.800	3.513	0.100
487.900	-10.189	0.100
488.000	-21.640	0.100
488.100	-12.467	0.100
488.200	3.296	0.100
488.300	-19.678	0.100
488.400	-10.912	0.100
488.500	-15.609	0.100
488.600	-15.431	0.100
488.700	-18.047	0.100
488.800	-7.089	0.100
488.900	-14.714	0.100
489.000	-16.883	0.100
489.100	-15.848	0.100
489.200	-8.555	0.100
489.300	2.265	0.100
489.400	-18.836	0.100
489.500	-15.074	0.100
489.600	9.073	0.100
489.700	-18.416	0.100
489.800	-15.580	0.100
489.900	-13.285	0.100
490.000	-5.795	0.100
490.100	-18.563	0.100
490.200	-6.123	0.100
490.300	-15.821	0.100
490.400	-6.409	0.100
490.500	-24.940	0.100
490.600	-4.128	0.100
490.700	-12.881	0.100
490.800	-9.807	0.100
490.900	-2.303	0.100
491.000	-12.729	0.100
491.100	-8.771	0.100
491.200	-9.321	0.100
491.300	2.249	0.100
491.400	9.686	0.100
491.500	-0.712	0.100
491.600	-7.006	0.100
491.700	-0.481	0.100
491.800	-8.918	0.100
491.900	-16.229	0.100
492.000	-4.494	0.100
492.100	2.291	0.100
492.200	-6.571	0.100
492.300	20.997	0.100
492.400	-9.435	0.100
492.500	-3.747	0.100
492.600	7.120	0.100
492.700	-8.228	0.100
492.800	-9.826	0.100
492.900	-3.146	0.100
493.000	13.212	0.100
493.100	-19.066	0.100
493.200	-7.796	0.100
493.300	7.104	0.100
493.400	-1.771	0.100
493.500	-2.037	0.100
493.600	12.459	0.100
493.700	-3.053	0.100
493.800	-7.882	0.100
493.900	10.800	0.100
494.000	13.161	0.100
494.100	-0.744	0.100
494.200	5.530	0.100
494.300	0.911	0.100
494.400	-5.015	0.100
494.500	-5.222	0.100
494.600	5.167	0.100
494.700	-2.565	0.100
494.800	28.349	0.100
494.900	24.813	0.100
495.000	9.356	0.100
495.100	1.926	0.100
495.200	5.298	0.100
495.300	16.517	0.100
495.400	6.635	0.100
495.500	16.650	0.100
495.600	8.577	0.100
495.700	4.635	0.100
495.800	31.170	0.100
495.900	11.987	0.100
496.000	44.382	0.100
496.100	15.926	0.100
496.200	-3.487	0.100
496.300	18.353	0.100
496.400	29.655	0.100
496.500	15.270	0.100
496.600	8.358	0.100
496.700	19.802	0.100
496.800	27.112	0.100
496.900	8.679	0.100
497.000	14.449	0.100
497.100	24.629	0.100
497.200	0.352	0.100
497.300	20.702	0.100
497.400	31.717	0.100
497.500	45.291	0.100
497.600	21.512	0.100
497.700	18.103	0.100
497.800	27.336	0.100
497.900	6.408	0.100
498.000	23.240	0.100
498.100	29.738	0.100
498.200	27.580	0.100
498.300	10.232	0.100
498.400	23.611	0.100
498.500	21.088	0.100
498.600	17.766	0.100
498.700	43.616	0.100
498.800	30.873	0.100
498.900	24.897	0.100
499.000	17.815	0.100
499.100	32.619	0.100
499.200	9.356	0.100
499.300	17.363	0.100
499.400	37.004	0.100
499.500	38.246	0.100
499.600	34.262	0.100
499.700	25.900	0.100
499.800	21.652	0.100
499.900	31.619	0.100
500.000	30.791	0.100
500.100	41.646	0.100
500.200	38.744	0.100
500.300	25.823	0.100
500.400	39.532	0.100
500.500	12.123	0.100
500.600	30.174	0.100
500.700	28.763	0.100
500.800	36.160	0.100
500.900	32.596	0.100
501.000	16.780	0.100
501.100	36.158	0.100
501.200	18.718	0.100
501.300	34.691	0.100
501.400	30.968	0.100
501.500	29.511	0.100
501.600	32.358	0.100
501.700	30.143	0.100
501.800	49.547	0.100
501.900	27.548	0.100
502.000	33.350	0.100
502.100	35.781	0.100
502.200	50.116	0.100
502.300	15.189	0.100
502.400	20.683	0.100
502.500	47.123	0.100
502.600	32.948	0.100
502.700	22.141	0.100
502.800	39.091	0.100
502.900	31.423	0.100
503.000	50.313	0.100
503.100	24.236	0.100
503.200	48.288	0.100
503.300	43.128	0.100
503.400	17.245	0.100
503.500	47.346	0.100
503.600	33.823	0.100
503.700	32.497	0.100
503.800	50.384	0.100
503.900	41.488	0.100
504.000	30.712	0.100
504.100	41.352	0.100
504.200	44.721	0.100
504.300	30.426	0.100
504.400	34.656	0.100
504.500	37.552	0.100
504.600	51.026	0.100
504.700	46.970	0.100
504.800	42.917	0.100
504.900	29.876	0.100
505.000	37.809	0.100
505.100	32.944	0.100
505.200	33.848	0.100
505.300	33.069	0.100
505.400	48.877	0.100
505.500	46.913	0.100
505.600	34.401	0.100
505.700	51.601	0.100
505.800	26.197	0.100
505.900	34.251	0.100
506.000	26.994	0.100
506.100	39.183	0.100
506.200	40.115	0.100
506.300	39.954	0.100
506.400	39.681	0.100
506.500	48.169	0.100
506.600	30.042	0.100
506.700	47.599	0.100
506.800	30.961	0.100
506.900	28.530	0.100
507.000	45.463	0.100
507.100	44.436	0.100
507.200	41.375	0.100
507.300	50.626	0.100
507.400	32.931	0.100
507.500	28.987	0.100
507.600	49.309	0.100
507.700	36.173	0.100
507.800	38.904	0.100
507.900	52.838	0.100
508.000	35.781	0.100
508.100	37.230	0.100
508.200	39.347	0.100
508.300	38.016	0.100
508.400	48.681	0.100
508.500	47.387	0.100
508.600	36.460	0.100
508.700	45.402	0.100
508.800	42.584	0.100
508.900	57.908	0.100
509.000	39.310	0.100
509.100	47.014	0.100
509.200	42.802	0.100
509.300	57.259	0.100
509.400	40.020	0.100
509.500	45.537	0.100
509.600	54.606	0.100
509.700	33.117	0.100
509.800	46.533	0.100
509.900	69.380	0.100
510.000	38.415	0.100
510.100	52.039	0.100
510.200	37.926	0.100
510.300	34.236	0.100
510.400	34.317	0.100
510.500	58.165	0.100
510.600	45.054	0.100
510.700	43.890	0.100
510.800	44.143	0.100
510.900	34.191	0.100
511.000	42.779	0.100
511.100	57.186	0.100
511.200	27.002	0.100
511.300	36.184	0.100
511.400	55.498	0.100
511.500	51.248	0.100
511.600	27.043	0.100
511.700	45.521	0.100
511.800	32.990	0.100
511.900	54.731	0.100
512.000	50.148	0.100
512.100	48.716	0.100
512.200	46.205	0.100
512.300	39.308	0.100
512.400	44.712	0.100
512.500	35.780	0.100
512.600	62.755	0.100
512.700	37.078	0.100
512.800	65.893	0.100
512.900	40.841	0.100
513.000	32.139	0.100
513.100	31.480	0.100
513.200	66.820	0.100
513.300	52.559	0.100
513.400	32.160	0.100
513.500	54.363	0.100
513.600	47.864	0.100
513.700	44.119	0.100
513.800	52.696	0.100
513.900	46.450	0.100
514.000	54.480	0.100
514.100	40.009	0.100
514.200	50.611	0.100
514.300	50.057	0.100
514.400	48.156	0.100
514.500	41.018	0.100
514.600	41.148	0.100
514.700	37.339	0.100
514.800	31.331	0.100
514.900	48.127	0.100
515.000	44.680	0.100
515.100	67.355	0.100
515.200	32.672	0.100
515.300	43.429	0.100
515.400	43.481	0.100
515.500	47.408	0.100
515.600	32.781	0.100
515.700	45.570	0.100
515.800	38.620	0.100
515.900	60.966	0.100
516.000	34.155	0.100
516.100	55.441	0.100
516.200	39.123	0.100
516.300	26.983	0.100
516.400	33.938	0.100
516.500	63.380	0.100
516.600	55.180	0.100
516.700	47.543	0.100
516.800	52.409	0.100
516.900	39.986	0.100
517.000	33.986	0.100
517.100	57.075	0.100
517.200	44.497	0.100
517.300	35.615	0.100
517.400	40.630	0.100
517.500	58.400	0.100
517.600	35.459	0.100
517.700	32.936	0.100
517.800	28.040	0.100
517.900	56.736	0.100
518.000	44.339	0.100
518.100	59.928	0.100
518.200	47.163	0.100
518.300	41.378	0.100
518.400	52.276	0.100
518.500	51.765	0.100
518.600	40.490	0.100
518.700	51.650	0.100
518.800	56.368	0.100
518.900	33.574	0.100
519.000	41.041	0.100
519.100	47.759	0.100
519.200	39.538	0.100
519.300	48.984	0.100
519.400	46.726	0.100
519.500	55.245	0.100
519.600	54.253	0.100
519.700	48.327	0.100
519.800	34.234	0.100
519.900	51.868	0.100
520.000	47.287	0.100
520.100	34.832	0.100
520.200	49.070	0.100
520.300	40.242	0.100
520.400	43.820	0.100
520.500	38.390	0.100
520.600	49.190	0.100
520.700	56.885	0.100
520.800	36.842	0.100
520.900	43.939	0.100
521.000	44.602	0.100
521.100	43.222	0.100
521.200	41.548	0.100
521.300	46.262	0.100
521.400	50.247	0.100
521.500	46.225	0.100
521.600	40.693	0.100
521.700	39.791	0.100
521.800	47.891	0.100
521.900	45.764	0.100
522.000	36.771	0.100
522.100	46.421	0.100
522.200	49.444	0.100
522.300	59.457	0.100
522.400	56.304	0.100
522.500	45.130	0.100
522.600	26.401	0.100
522.700	49.949	0.100
522.800	50.465	0.100
522.900	42.382	0.100
523.000	30.555	0.100
523.100	52.150	0.100
523.200	42.564	0.100
523.300	60.521	0.100
523.400	29.338	0.100
523.500	33.296	0.100
523.600	51.003	0.100
523.700	38.028	0.100
523.800	55.901	0.100
523.900	38.246	0.100
524.000	46.668	0.100
524.100	41.011	0.100
524.200	44.591	0.100
524.300	45.865	0.100
524.400	47.209	0.100
524.500	47.871	0.100
524.600	25.283	0.100
524.700	44.973	0.100
524.800	41.332	0.100
524.900	71.031	0.100
525.000	49.041	0.100
525.100	44.373	0.100
525.200	29.268	0.100
525.300	53.635	0.100
525.400	51.724	0.100
525.500	50.559	0.100
525.600	48.319	0.100
525.700	34.072	0.100
525.800	41.717	0.100
525.900	43.734	0.100
526.000	42.529	0.100
526.100	58.245	0.100
526.200	28.320	0.100
526.300	51.201	0.100
526.400	35.970	0.100
526.500	39.132	0.100
526.600	32.205	0.100
526.700	38.001	0.100
526.800	45.503	0.100
526.900	53.477	0.100
527.000	35.793	0.100
527.100	46.125	0.100
527.200	49.124	0.100
527.300	50.476	0.100
527.400	32.583	0.100
527.500	50.284	0.100
527.600	38.655	0.100
527.700	48.419	0.100
527.800	48.088	0.100
527.900	38.603	0.100
528.000	56.476	0.100
528.100	37.119	0.100
528.200	61.426	0.100
528.300	46.476	0.100
528.400	21.077	0.100
528.500	44.953	0.100
528.600	36.242	0.100
528.700	43.590	0.100
528.800	53.212	0.100
528.900	64.950	0.100
529.000	55.090	0.100
529.100	46.919	0.100
529.200	38.159	0.100
529.300	48.448	0.100
529.400	58.879	0.100
529.500	56.972	0.100
529.600	57.403	0.100
529.700	50.684	0.100
529.800	27.729	0.100
529.900	39.773	0.100
530.000	55.676	0.100
530.100	30.830	0.100
530.200	36.892	0.100
530.300	50.160	0.100
530.400	54.816	0.100
530.500	60.205	0.100
530.600	55.709	0.100
530.700	39.704	0.100
530.800	38.537	0.100
530.900	40.604	0.100
531.000	43.135	0.100
531.100	19.161	0.100
531.200	44.393	0.100
531.300	39.954	0.100
531.400	37.766	0.100
531.500	43.185	0.100
531.600	59.589	0.100
531.700	42.370	0.100
531.800	38.021	0.100
531.900	40.219	0.100
532.000	42.759	0.100
532.100	46.637	0.100
532.200	59.761	0.100
532.300	46.958	0.100
532.400	50.296	0.100
532.500	62.638	0.100
532.600	33.827	0.100
532.700	49.932	0.100
532.800	46.860	0.100
532.900	49.208	0.100
533.000	33.788	0.100
533.100	51.284	0.100
533.200	50.831	0.100
533.300	49.636	0.100
533.400	27.049	0.100
533.500	23.277	0.100
533.600	38.425	0.100
533.700	50.273	0.100
533.800	41.085	0.100
533.900	45.212	0.100
534.000	36.169	0.100
534.100	45.495	0.100
534.200	49.424	0.100
534.300	41.845	0.100
534.400	46.000	0.100
534.500	35.329	0.100
534.600	52.018	0.100
534.700	34.627	0.100
534.800	47.191	0.100
534.900	46.901	0.100
535.000	36.170	0.100
535.100	56.249	0.100
535.200	57.075	0.100
535.300	7.762	0.100
535.400	39.039	0.100
535.500	18.886	0.100
535.600	39.150	0.100
535.700	40.014	0.100
535.800	61.964	0.100
535.900	58.968	0.100
536.000	48.357	0.100
536.100	32.594	0.100
536.200	41.875	0.100
536.300	30.891	0.100
536.400	61.556	0.100
536.500	46.587	0.100
536.600	49.998	0.100
536.700	49.246	0.100
536.800	26.088	0.100
536.900	55.203	0.100
537.000	31.454	0.100
537.100	47.292	0.100
537.200	41.605	0.100
537.300	42.025	0.100
537.400	40.480	0.100
537.500	38.071	0.100
537.600	38.068	0.100
537.700	50.037	0.100
537.800	28.506	0.100
537.900	41.275	0.100
538.000	69.696	0.100
538.100	51.951	0.100
538.200	43.274	0.100
538.300	46.476	0.100
538.400	42.108	0.100
538.500	46.102	0.100
538.600	53.077	0.100
538.700	37.941	0.100
538.800	46.386	0.100
538.900	24.972	0.100
539.000	56.796	0.100
539.100	32.954	0.100
539.200	36.022	0.100
539.300	42.287	0.100
539.400	51.417	0.100
539.500	31.538	0.100
539.600	45.768	0.100
539.700	48.124	0.100
539.800	44.030	0.100
539.900	35.735	0.100
540.000	45.028	0.100
540.100	48.665	0.100
540.200	43.325	0.100
540.300	30.393	0.100
540.400	32.649	0.100
540.500	44.030	0.100
540.600	44.802	0.100
540.700	56.739	0.100
540.800	61.363	0.100
540.900	23.056	0.100
541.000	41.090	0.100
541.100	49.066	0.100
541.200	29.612	0.100
541.300	34.664	0.100
541.400	43.777	0.100
541.500	37.624	0.100
541.600	50.744	0.100
541.700	42.043	0.100
541.800	31.489	0.100
541.900	32.329	0.100
542.000	29.554	0.100
542.100	21.410	0.100
542.200	58.423	0.100
542.300	43.319	0.100
542.400	12.562	0.100
542.500	28.242	0.100
542.600	32.105	0.100
542.700	36.840	0.100
542.800	26.125	0.100
542.900	28.247	0.100
543.000	48.160	0.100
543.100	34.498	0.100
543.200	20.304	0.100
543.300	37.567	0.100
543.400	22.527	0.100
543.500	27.354	0.100
543.600	42.236	0.100
543.700	40.148	0.100
543.800	39.945	0.100
543.900	26.015	0.100
544.000	10.782	0.100
544.100	34.504	0.100
544.200	27.644	0.100
544.300	29.068	0.100
544.400	20.002	0.100
544.500	15.496	0.100
544.600	16.929	0.100
544.700	24.974	0.100
544.800	24.305	0.100
544.900	24.477	0.100
545.000	12.537	0.100
545.100	28.095	0.100
545.200	28.129	0.100
545.300	47.692	0.100
545.400	12.031	0.100
545.500	28.493	0.100
545.600	22.495	0.100
545.700	19.766	0.100
545.800	12.778	0.100
545.900	32.997	0.100
546.000	27.604	0.100
546.100	11.409	0.100
546.200	0.908	0.100
546.300	28.897	0.100
546.400	33.307	0.100
546.500	11.827	0.100
546.600	16.009	0.100
546.700	32.827	0.100
546.800	7.862	0.100
546.900	14.721	0.100
547.000	6.965	0.100
547.100	23.797	0.100
547.200	21.408	0.100
547.300	24.042	0.100
547.400	-13.085	0.100
547.500	23.651	0.100
547.600	1.931	0.100
547.700	13.992	0.100
547.800	35.956	0.100
547.900	17.104	0.100
548.000	24.312	0.100
548.100	7.996	0.100
548.200	15.791	0.100
548.300	13.880	0.100
548.400	8.211	0.100
548.500	21.109	0.100
548.600	29.795	0.100
548.700	26.720	0.100
548.800	6.185	0.100
548.900	20.389	0.100
549.000	23.442	0.100
549.100	8.115	0.100
549.200	16.789	0.100
549.300	14.139	0.100
549.400	24.195	0.100
549.500	-3.901	0.100
549.600	6.235	0.100
549.700	18.571	0.100
549.800	19.175	0.100
549.900	2.683	0.100
550.000	34.828	0.100
550.100	3.428	0.100
550.200	18.295	0.100
550.300	11.873	0.100
550.400	6.776	0.100
550.500	7.368	0.100
550.600	16.417	0.100
550.700	23.386	0.100
550.800	19.523	0.100
550.900	21.528	0.100
551.000	-2.046	0.100
551.100	15.134	0.100
551.200	-12.027	0.100
551.300	9.002	0.100
551.400	15.037	0.100
551.500	10.489	0.100
551.600	12.411	0.100
551.700	3.365	0.100
551.800	9.085	0.100
551.900	22.020	0.100
552.000	24.555	0.100
552.100	1.192	0.100
552.200	7.069	0.100
552.300	-6.018	0.100
552.400	-1.266	0.100
552.500	-0.790	0.100
552.600	4.340	0.100
552.700	4.494	0.100
552.800	23.916	0.100
552.900	11.645	0.100
553.000	11.289	0.100
553.100	7.989	0.100
553.200	8.444	0.100
553.300	2.904	0.100
553.400	-9.209	0.100
553.500	9.361	0.100
553.600	-0.720	0.100
553.700	12.034	0.100
553.800	-8.743	0.100
553.900	5.249	0.100
554.000	-3.918	0.100
554.100	15.255	0.100
554.200	8.519	0.100
554.300	4.739	0.100
554.400	0.977	0.100
554.500	16.593	0.100
554.600	14.588	0.100
554.700	-5.729	0.100
554.800	9.211	0.100
554.900	6.842	0.100
555.000	8.607	0.100
555.100	-0.277	0.100
555.200	-1.266	0.100
555.300	1.699	0.100
555.400	-1.068	0.100
555.500	4.290	0.100
555.600	7.325	0.100
555.700	11.228	0.100
555.800	-1.808	0.100
555.900	13.086	0.100
556.000	1.969	0.100
556.100	-1.627	0.100
556.200	-13.091	0.100
556.300	-10.377	0.100
556.400	-13.738	0.100
556.500	13.359	0.100
556.600	10.881	0.100
556.700	-0.219	0.100
556.800	15.229	0.100
556.900	-6.907	0.100
557.000	5.745	0.100
557.100	9.798	0.100
557.200	-15.648	0.100
557.300	12.896	0.100
557.400	-7.138	0.100
557.500	-8.736	0.100
557.600	10.524	0.100
557.700	5.220	0.100
557.800	15.315	0.100
557.900	-11.668	0.100
558.000	-1.633	0.100
558.100	0.718	0.100
558.200	13.411	0.100
558.300	-1.911	0.100
558.400	9.493	0.100
558.500	0.263	0.100
558.600	-6.611	0.100
558.700	-0.867	0.100
558.800	-16.547	0.100
558.900	-0.815	0.100
559.000	8.505	0.100
559.100	-8.202	0.100
559.200	-14.564	0.100
559.300	-9.079	0.100
559.400	12.758	0.100
559.500	-14.923	0.100
559.600	9.565	0.100
559.700	21.282	0.100
559.800	4.227	0.100
559.900	-2.794	0.100
560.000	-18.007	0.100
560.100	8.282	0.100
560.200	-22.578	0.100
560.300	-8.296	0.100
560.400	3.611	0.100
560.500	-3.583	0.100
560.600	-19.989	0.100
560.700	-5.496	0.100
560.800	-0.085	0.100
560.900	-3.413	0.100
561.000	-17.930	0.100
561.100	-0.294	0.100
561.200	-9.471	0.100
561.300	-12.474	0.100
561.400	1.676	0.100
561.500	2.010	0.100
561.600	-24.991	0.100
561.700	-9.870	0.100
561.800	1.408	0.100
561.900	0.330	0.100
562.000	0.264	0.100
562.100	-29.248	0.100
562.200	-15.458	0.100
562.300	7.255	0.100
562.400	-3.432	0.100
562.500	0.779	0.100
562.600	-15.202	0.100
562.700	-5.303	0.100
562.800	0.324	0.100
562.900	8.070	0.100
563.000	2.976	0.100
563.100	-6.183	0.100
563.200	-20.487	0.100
563.300	2.452	0.100
563.400	-12.255	0.100
563.500	-2.175	0.100
563.600	-26.962	0.100
563.700	-12.024	0.100
563.800	-2.362	0.100
563.900	-5.316	0.100
564.000	-2.089	0.100
564.100	-0.131	0.100
564.200	-4.215	0.100
564.300	-7.712	0.100
564.400	-22.760	0.100
564.500	-8.619	0.100
564.600	-1.732	0.100
564.700	9.152	0.100
564.800	-6.312	0.100
564.900	-12.594	0.100
565.000	-13.765	0.100
565.100	-9.997	0.100
565.200	-5.248	0.100
565.300	-5.596	0.100
565.400	4.061	0.100
565.500	-12.065	0.100
565.600	-23.130	0.100
565.700	-31.193	0.100
565.800	-10.013	0.100
565.900	-20.010	0.100
566.000	-13.072	0.100
566.100	-15.151	0.100
566.200	-0.554	0.100
566.300	9.047	0.100
566.400	-20.932	0.100
566.500	-12.407	0.100
566.600	-19.175	0.100
566.700	2.712	0.100
566.800	-1.850	0.100
566.900	-7.147	0.100
567.000	-9.131	0.100
567.100	-16.831	0.100
567.200	-26.165	0.100
567.300	-13.187	0.100
567.400	-12.991	0.100
567.500	-25.852	0.100
567.600	-24.146	0.100
567.700	-26.628	0.100
567.800	-12.015	0.100
567.900	-12.911	0.100
568.000	-7.105	0.100
568.100	-21.879	0.100
568.200	6.125	0.100
568.300	-15.631	0.100
568.400	-16.477	0.100
568.500	-30.266	0.100
568.600	-16.871	0.100
568.700	-0.335	0.100
568.800	-10.525	0.100
568.900	-30.801	0.100
569.000	-18.361	0.100
569.100	-12.988	0.100
569.200	-15.715	0.100
569.300	-19.839	0.100
569.400	-5.702	0.100
569.500	-10.571	0.100
569.600	-11.412	0.100
569.700	-16.428	0.100
569.800	-17.913	0.100
569.900	-11.821	0.100
570.000	-30.792	0.100
570.100	-31.156	0.100
570.200	-7.555	0.100
570.300	-18.721	0.100
570.400	-13.664	0.100
570.500	-11.895	0.100
570.600	-31.721	0.100
570.700	-9.928	0.100
570.800	-18.901	0.100
570.900	-14.697	0.100
571.000	-10.692	0.100
571.100	-16.275	0.100
571.200	-24.189	0.100
571.300	-6.977	0.100
571.400	-33.482	0.100
571.500	-13.547	0.100
571.600	-20.122	0.100
571.700	-26.725	0.100
571.800	-39.023	0.100
571.900	-31.690	0.100
572.000	-22.173	0.100
572.100	-3.373	0.100
572.200	-4.986	0.100
572.300	-28.895	0.100
572.400	-14.965	0.100
572.500	-19.106	0.100
572.600	-27.264	0.100
572.700	-23.823	0.100
572.800	-13.823	0.100
572.900	-11.135	0.100
573.000	-18.565	0.100
573.100	-17.050	0.100
573.200	-27.812	0.100
573.300	-19.793	0.100
573.400	-33.609	0.100
573.500	-14.775	0.100
573.600	-24.841	0.100
573.700	-9.220	0.100
573.800	-34.043	0.100
573.900	-12.793	0.100
574.000	-15.067	0.100
574.100	-41.767	0.100
574.200	-17.892	0.100
574.300	-4.218	0.100
574.400	-10.541	0.100
574.500	-0.807	0.100
574.600	-25.632	0.100
574.700	-23.913	0.100
574.800	-21.254	0.100
574.900	-28.190	0.100
575.000	-30.393	0.100
575.100	-18.542	0.100
575.200	-19.949	0.100
575.300	-13.748	0.100
575.400	-22.915	0.100
575.500	-14.087	0.100
575.600	-34.322	0.100
575.700	-19.218	0.100
575.800	-20.886	0.100
575.900	-25.739	0.100
576.000	-10.365	0.100
576.100	-26.498	0.100
576.200	-19.319	0.100
576.300	-40.337	0.100
576.400	-18.706	0.100
576.500	-20.043	0.100
576.600	-7.247	0.100
576.700	-18.097	0.100
576.800	-37.116	0.100
576.900	-33.502	0.100
577.000	-18.870	0.100
577.100	-21.539	0.100
577.200	-20.754	0.100
577.300	-4.397	0.100
577.400	-27.493	0.100
577.500	-37.526	0.100
577.600	-20.269	0.100
577.700	-29.164	0.100
577.800	-23.263	0.100
577.900	-30.402	0.100
578.000	-56.574	0.100
578.100	-28.906	0.100
578.200	-6.983	0.100
578.300	0.361	0.100
578.400	-22.744	0.100
578.500	-36.583	0.100
578.600	-15.318	0.100
578.700	-21.712	0.100
578.800	-23.516	0.100
578.900	-45.830	0.100
579.000	-44.404	0.100
579.100	-31.627	0.100
579.200	-22.248	0.100
579.300	-32.791	0.100
579.400	-24.433	0.100
579.500	-34.822	0.100
579.600	-17.617	0.100
579.700	-23.158	0.100
579.800	-7.929	0.100
579.900	-7.239	0.100
580.000	-29.570	0.100
580.100	-21.136	0.100
580.200	-27.068	0.100
580.300	-28.803	0.100
580.400	-27.606	0.100
580.500	-25.153	0.100
580.600	-16.367	0.100
580.700	-36.968	0.100
580.800	-24.447	0.100
580.900	-23.947	0.100
581.000	-11.452	0.100
581.100	-26.646	0.100
581.200	-30.784	0.100
581.300	-30.379	0.100
581.400	-31.705	0.100
581.500	-24.382	0.100
581.600	-18.891	0.100
581.700	-19.244	0.100
581.800	-34.067	0.100
581.900	-40.593	0.100
582.000	-23.639	0.100
582.100	-44.254	0.100
582.200	-22.035	0.100
582.300	-35.614	0.100
582.400	-35.298	0.100
582.500	-11.857	0.100
582.600	-22.213	0.100
582.700	-25.678	0.100
582.800	-12.533	0.100
582.900	-31.264	0.100
583.000	-28.064	0.100
583.100	-33.698	0.100
583.200	-30.605	0.100
583.300	-36.258	0.100
583.400	-16.413	0.100
583.500	-36.537	0.100
583.600	-20.292	0.100
583.700	-44.426	0.100
583.800	-46.927	0.100
583.900	-24.644	0.100
584.000	-15.556	0.100
584.100	-6.514	0.100
584.200	-44.588	0.100
584.300	-18.502	0.100
584.400	-33.900	0.100
584.500	-15.833	0.100
584.600	-35.015	0.100
584.700	-23.417	0.100
584.800	-30.693	0.100
584.900	-21.332	0.100
585.000	-24.226	0.100
585.100	-35.495	0.100
585.200	-29.577	0.100
585.300	-37.296	0.100
585.400	-32.420	0.100
585.500	-37.448	0.100
585.600	-20.777	0.100
585.700	-31.336	0.100
585.800	-25.860	0.100
585.900	-20.499	0.100
586.000	-42.726	0.100
586.100	-25.054	0.100
586.200	-16.124	0.100
586.300	-31.888	0.100
586.400	-19.040	0.100
586.500	-18.139	0.100
586.600	-4.439	0.100
586.700	-24.398	0.100
586.800	-43.973	0.100
586.900	-31.159	0.100
587.000	-11.706	0.100
587.100	-48.296	0.100
587.200	-33.623	0.100
587.300	-33.716	0.100
587.400	-49.694	0.100
587.500	-30.643	0.100
587.600	-17.156	0.100
587.700	-31.112	0.100
587.800	-15.732	0.100
587.900	-29.265	0.100
588.000	-34.397	0.100
588.100	-28.187	0.100
588.200	-32.568	0.100
588.300	-30.425	0.100
588.400	-23.331	0.100
588.500	-30.172	0.100
588.600	-43.408	0.100
588.700	-26.012	0.100
588.800	-38.407	0.100
588.900	-35.176	0.100
589.000	-39.546	0.100
589.100	-28.244	0.100
589.200	-26.075	0.100
589.300	-38.021	0.100
589.400	-42.345	0.100
589.500	-20.847	0.100
589.600	-26.950	0.100
589.700	-25.649	0.100
589.800	-41.823	0.100
589.900	-64.700	0.100
590.000	-13.008	0.100
590.100	-26.936	0.100
590.200	-36.810	0.100
590.300	-33.942	0.100
590.400	-43.481	0.100
590.500	-28.791	0.100
590.600	-12.985	0.100
590.700	-53.760	0.100
590.800	-42.138	0.100
590.900	-38.487	0.100
591.000	-9.852	0.100
591.100	-32.346	0.100
591.200	-32.936	0.100
591.300	-40.822	0.100
591.400	-27.566	0.100
591.500	-54.241	0.100
591.600	-37.888	0.100
591.700	-35.309	0.100
591.800	-29.355	0.100
591.900	-25.865	0.100
592.000	-25.241	0.100
592.100	-34.840	0.100
592.200	-15.364	0.100
592.300	-42.318	0.100
592.400	-39.779	0.100
592.500	-40.757	0.100
592.600	-23.309	0.100
592.700	-23.164	0.100
592.800	-33.612	0.100
592.900	-29.305	0.100
593.000	-16.331	0.100
593.100	-24.278	0.100
593.200	-27.681	0.100
593.300	-41.232	0.100
593.400	-36.390	0.100
593.500	-37.279	0.100
593.600	-19.986	0.100
593.700	-37.924	0.100
593.800	-48.371	0.100
593.900	-29.268	0.100
594.000	-32.761	0.100
594.100	-35.487	0.100
594.200	-39.097	0.100
594.300	-33.802	0.100
594.400	-41.424	0.100
594.500	-35.105	0.100
594.600	-24.108	0.100
594.700	-33.116	0.100
594.800	-38.527	0.100
594.900	-28.115	0.100
595.000	-34.123	0.100
595.100	-31.385	0.100
595.200	-25.874	0.100
595.300	-40.124	0.100
595.400	-45.739	0.100
595.500	-32.610	0.100
595.600	-22.589	0.100
595.700	-34.990	0.100
595.800	-22.235	0.100
595.900	-47.550	0.100
596.000	-32.933	0.100
596.100	-35.531	0.100
596.200	-27.933	0.100
596.300	-48.914	0.100
596.400	-32.921	0.100
596.500	-27.109	0.100
596.600	-43.645	0.100
596.700	-17.978	0.100
596.800	-30.778	0.100
596.900	-22.598	0.100
597.000	-43.757	0.100
597.100	-47.513	0.100
597.200	-31.359	0.100
597.300	-32.328	0.100
597.400	-36.637	0.100
597.500	-31.550	0.100
597.600	-26.743	0.100
597.700	-39.839	0.100
597.800	-43.063	0.100
597.900	-30.946	0.100
598.000	-29.925	0.100
598.100	-37.187	0.100
598.200	-27.376	0.100
598.300	-26.616	0.100
598.400	-39.805	0.100
598.500	-42.851	0.100
598.600	-28.472	0.100
598.700	-38.220	0.100
598.800	-38.804	0.100
598.900	-23.138	0.100
599.000	-36.135	0.100
599.100	-27.117	0.100
599.200	-23.095	0.100
599.300	-44.636	0.100
599.400	-27.414	0.100
599.500	-34.656	0.100
599.600	-31.489	0.100
599.700	-14.826	0.100
599.800	-55.388	0.100
599.900	-19.987	0.100
600.000	-27.845	0.100
600.100	-33.184	0.100
600.200	-38.689	0.100
600.300	-45.388	0.100
600.400	-24.801	0.100
600.500	-33.269	0.100
600.600	-36.568	0.100
600.700	-40.389	0.100
600.800	-50.567	0.100
600.900	-35.033	0.100
601.000	-22.607	0.100
601.100	-23.784	0.100
601.200	-29.041	0.100
601.300	-36.542	0.100
601.400	-35.349	0.100
601.500	-38.705	0.100
601.600	-35.812	0.100
601.700	-34.514	0.100
601.800	-36.048	0.100
601.900	-36.821	0.100
602.000	-41.987	0.100
602.100	-39.348	0.100
602.200	-35.501	0.100
602.300	-28.742	0.100
602.400	-20.280	0.100
602.500	-46.291	0.100
602.600	-36.862	0.100
602.700	-42.189	0.100
602.800	-28.285	0.100
602.900	-31.767	0.100
603.000	-39.020	0.100
603.100	-28.560	0.100
603.200	-48.316	0.100
603.300	-34.299	0.100
603.400	-40.550	0.100
603.500	-17.259	0.100
603.600	-41.585	0.100
603.700	-25.350	0.100
603.800	-42.148	0.100
603.900	-34.745	0.100
604.000	-42.885	0.100
604.100	-43.181	0.100
604.200	-26.180	0.100
604.300	-40.696	0.100
604.400	-21.655	0.100
604.500	-34.776	0.100
604.600	-44.412	0.100
604.700	-28.638	0.100
604.800	-24.120	0.100
604.900	-21.586	0.100
605.000	-66.656	0.100
605.100	-35.354	0.100
605.200	-27.117	0.100
605.300	-55.452	0.100
605.400	-22.578	0.100
605.500	-19.368	0.100
605.600	-36.581	0.100
605.700	-34.346	0.100
605.800	-29.280	0.100
605.900	-53.343	0.100
606.000	-12.865	0.100
606.100	-28.586	0.100
606.200	-35.452	0.100
606.300	-36.672	0.100
606.400	-40.860	0.100
606.500	-24.660	0.100
606.600	-36.183	0.100
606.700	-30.131	0.100
606.800	-45.292	0.100
606.900	-28.212	0.100
607.000	-37.394	0.100
607.100	-36.563	0.100
607.200	-33.591	0.100
607.300	-32.863	0.100
607.400	-47.938	0.100
607.500	-24.936	0.100
607.600	-10.272	0.100
607.700	-23.670	0.100
607.800	-16.192	0.100
607.900	-35.024	0.100
608.000	-46.549	0.100
608.100	-24.628	0.100
608.200	-41.545	0.100
608.300	-44.007	0.100
608.400	-37.796	0.100
608.500	-34.323	0.100
608.600	-22.840	0.100
608.700	-56.208	0.100
608.800	-25.072	0.100
608.900	-35.498	0.100
609.000	-38.530	0.100
609.100	-30.781	0.100
609.200	-38.209	0.100
609.300	-27.956	0.100
609.400	-31.201	0.100
609.500	-25.667	0.100
609.600	-42.272	0.100
609.700	-45.463	0.100
609.800	-27.063	0.100
609.900	-59.370	0.100
610.000	-16.394	0.100
610.100	-33.439	0.100
610.200	-47.816	0.100
610.300	-44.701	0.100
610.400	-10.479	0.100
610.500	-23.308	0.100
610.600	-36.897	0.100
610.700	-49.466	0.100
610.800	-24.330	0.100
610.900	-32.714	0.100
611.000	-41.444	0.100
611.100	-28.340	0.100
611.200	-33.531	0.100
611.300	-37.874	0.100
611.400	-19.060	0.100
611.500	-33.218	0.100
611.600	-21.482	0.100
611.700	-27.907	0.100
611.800	-39.735	0.100
611.900	-33.306	0.100
612.000	-49.831	0.100
612.100	-29.643	0.100
612.200	-49.216	0.100
612.300	-25.863	0.100
612.400	-36.626	0.100
612.500	-32.277	0.100
612.600	-33.129	0.100
612.700	-41.090	0.100
612.800	-47.586	0.100
612.900	-36.611	0.100
613.000	-29.699	0.100
613.100	-52.058	0.100
613.200	-44.084	0.100
613.300	-32.510	0.100
613.400	-26.807	0.100
613.500	-31.581	0.100
613.600	-29.815	0.100
613.700	-43.202	0.100
613.800	-47.330	0.100
613.900	-25.865	0.100
614.000	-34.929	0.100
614.100	-22.321	0.100
614.200	-43.533	0.100
614.300	-30.628	0.100
614.400	-37.773	0.100
614.500	-37.780	0.100
614.600	-42.909	0.100
614.700	-43.248	0.100
614.800	-46.288	0.100
614.900	-25.345	0.100
615.000	-28.156	0.100
615.100	-21.649	0.100
615.200	-45.154	0.100
615.300	-39.822	0.100
615.400	-13.296	0.100
615.500	-29.334	0.100
615.600	-48.492	0.100
615.700	-39.428	0.100
615.800	-18.205	0.100
615.900	-29.476	0.100
616.000	-45.434	0.100
616.100	-44.465	0.100
616.200	-33.066	0.100
616.300	-29.079	0.100
616.400	-38.725	0.100
616.500	-32.305	0.100
616.600	-28.103	0.100
616.700	-27.316	0.100
616.800	-49.782	0.100
616.900	-29.344	0.100
617.000	-39.258	0.100
617.100	-38.525	0.100
617.200	-61.984	0.100
617.300	-40.211	0.100
617.400	-37.906	0.100
617.500	-22.242	0.100
617.600	-30.091	0.100
617.700	-17.280	0.100
617.800	-33.690	0.100
617.900	-41.935	0.100
618.000	-31.793	0.100
618.100	-30.647	0.100
618.200	-38.545	0.100
618.300	-20.640	0.100
618.400	-41.018	0.100
618.500	-32.067	0.100
618.600	-44.769	0.100
618.700	-33.742	0.100
618.800	-26.620	0.100
618.900	-39.989	0.100
619.000	-19.221	0.100
619.100	-54.164	0.100
619.200	-25.575	0.100
619.300	-37.472	0.100
619.400	-38.377	0.100
619.500	-16.164	0.100
619.600	-30.888	0.100
619.700	-50.191	0.100
619.800	-29.291	0.100
619.900	-35.971	0.100
620.000	-50.133	0.100
620.100	-40.915	0.100
620.200	-33.857	0.100
620.300	-0.349	0.100
620.400	-34.918	0.100
620.500	-31.258	0.100
620.600	-49.558	0.100
620.700	-43.095	0.100
620.800	-28.765	0.100
620.900	-41.545	0.100
621.000	-34.553	0.100
621.100	-37.118	0.100
621.200	-39.646	0.100
621.300	-33.632	0.100
621.400	-10.101	0.100
621.500	-51.695	0.100
621.600	-44.611	0.100
621.700	-33.362	0.100
621.800	-31.392	0.100
621.900	-21.270	0.100
622.000	-44.222	0.100
622.100	-11.363	0.100
622.200	-28.146	0.100
622.300	-38.855	0.100
622.400	-31.140	0.100
622.500	-20.870	0.100
622.600	-51.797	0.100
622.700	-30.910	0.100
622.800	-35.832	0.100
622.900	-24.289	0.100
623.000	-39.384	0.100
623.100	-28.845	0.100
623.200	-28.900	0.100
623.300	-43.513	0.100
623.400	-22.342	0.100
623.500	-41.251	0.100
623.600	-20.460	0.100
623.700	-32.599	0.100
623.800	-43.285	0.100
623.900	-38.062	0.100
624.000	-37.992	0.100
624.100	-15.907	0.100
624.200	-28.273	0.100
624.300	-28.394	0.100
624.400	-39.244	0.100
624.500	-25.616	0.100
624.600	-47.698	0.100
624.700	-36.174	0.100
624.800	-20.207	0.100
624.900	-42.289	0.100
625.000	-33.249	0.100
625.100	-39.089	0.100
625.200	-28.659	0.100
625.300	-40.745	0.100
625.400	-30.227	0.100
625.500	-19.787	0.100
625.600	-37.304	0.100
625.700	-35.260	0.100
625.800	-22.094	0.100
625.900	-31.817	0.100
626.000	-49.713	0.100
626.100	-36.306	0.100
626.200	-33.571	0.100
626.300	-50.114	0.100
626.400	-33.654	0.100
626.500	-55.921	0.100
626.600	-17.918	0.100
626.700	-26.066	0.100
626.800	-38.941	0.100
626.900	-25.248	0.100
627.000	-25.474	0.100
627.100	-45.942	0.100
627.200	-22.569	0.100
627.300	-48.606	0.100
627.400	-29.709	0.100
627.500	-36.453	0.100
627.600	-27.316	0.100
627.700	-19.921	0.100
627.800	-38.162	0.100
627.900	-37.287	0.100
628.000	-21.710	0.100
628.100	-40.448	0.100
628.200	-29.876	0.100
628.300	-33.339	0.100
628.400	-28.504	0.100
628.500	-40.613	0.100
628.600	-34.026	0.100
628.700	-45.508	0.100
628.800	-34.840	0.100
628.900	-35.495	0.100
629.000	-49.529	0.100
629.100	-13.031	0.100
629.200	-33.258	0.100
629.300	-36.155	0.100
629.400	-36.312	0.100
629.500	-29.475	0.100
629.600	-28.107	0.100
629.700	-30.433	0.100
629.800	-25.460	0.100
629.900	-26.726	0.100
630.000	-45.246	0.100
630.100	-23.067	0.100
630.200	-38.662	0.100
630.300	-35.328	0.100
630.400	-37.869	0.100
630.500	-29.728	0.100
630.600	-22.908	0.100
630.700	-27.597	0.100
630.800	-49.237	0.100
630.900	-29.875	0.100
631.000	-36.825	0.100
631.100	-26.323	0.100
631.200	-15.077	0.100
631.300	-28.094	0.100
631.400	-16.805	0.100
631.500	-32.280	0.100
631.600	-34.259	0.100
631.700	-18.901	0.100
631.800	-12.772	0.100
631.900	-13.770	0.100
632.000	-18.111	0.100
632.100	-18.169	0.100
632.200	-26.487	0.100
632.300	-32.030	0.100
632.400	-1.752	0.100
632.500	7.012	0.100
632.600	-21.773	0.100
632.700	-37.570	0.100
632.800	-30.969	0.100
632.900	-14.254	0.100
633.000	-21.640	0.100
633.100	-14.596	0.100
633.200	-9.048	0.100
633.300	-19.874	0.100
633.400	-14.397	0.100
633.500	-31.123	0.100
633.600	-16.966	0.100
633.700	-5.078	0.100
633.800	-19.048	0.100
633.900	-24.755	0.100
634.000	-10.183	0.100
634.100	-15.760	0.100
634.200	-15.620	0.100
634.300	-13.842	0.100
634.400	-10.600	0.100
634.500	-29.627	0.100
634.600	-14.826	0.100
634.700	-6.113	0.100
634.800	-45.712	0.100
634.900	-24.159	0.100
635.000	-17.033	0.100
635.100	-9.182	0.100
635.200	-20.130	0.100
635.300	-7.108	0.100
635.400	-25.385	0.100
635.500	-13.359	0.100
635.600	-18.638	0.100
635.700	-13.449	0.100
635.800	-13.647	0.100
635.900	-3.001	0.100
636.000	-20.363	0.100
636.100	-29.236	0.100
636.200	-1.278	0.100
636.300	-15.787	0.100
636.400	-14.053	0.100
636.500	-5.700	0.100
636.600	-21.188	0.100
636.700	-4.005	0.100
636.800	-31.052	0.100
636.900	4.288	0.100
637.000	-28.737	0.100
637.100	-17.357	0.100
637.200	-10.960	0.100
637.300	-0.628	0.100
637.400	-27.913	0.100
637.500	-9.021	0.100
637.600	1.445	0.100
637.700	-23.504	0.100
637.800	-9.669	0.100
637.900	-17.780	0.100
638.000	-25.250	0.100
638.100	-24.247	0.100
638.200	-32.239	0.100
638.300	0.864	0.100
638.400	-20.435	0.100
638.500	-13.327	0.100
638.600	-17.815	0.100
638.700	-14.191	0.100
638.800	-15.180	0.100
638.900	-0.850	0.100
639.000	-24.234	0.100
639.100	-9.375	0.100
639.200	-12.779	0.100
639.300	-13.681	0.100
639.400	-28.317	0.100
639.500	-3.695	0.100
639.600	-31.523	0.100
639.700	-22.918	0.100
639.800	-0.878	0.100
639.900	-14.162	0.100
640.000	-7.704	0.100
640.100	-14.035	0.100
640.200	5.763	0.100
640.300	-3.215	0.100
640.400	4.808	0.100
640.500	-6.542	0.100
640.600	-30.792	0.100
640.700	-2.260	0.100
640.800	-5.507	0.100
640.900	-0.750	0.100
641.000	-2.628	0.100
641.100	-20.440	0.100
641.200	5.850	0.100
641.300	14.260	0.100
641.400	5.199	0.100
641.500	-2.320	0.100
641.600	-0.628	0.100
641.700	-8.481	0.100
641.800	-20.958	0.100
641.900	1.195	0.100
642.000	0.251	0.100
642.100	3.039	0.100
642.200	-4.785	0.100
642.300	3.286	0.100
642.400	6.499	0.100
642.500	-0.410	0.100
642.600	5.220	0.100
642.700	-5.619	0.100
642.800	-2.196	0.100
642.900	-0.407	0.100
643.000	-2.588	0.100
643.100	-17.328	0.100
643.200	-14.116	0.100
643.300	-0.577	0.100
643.400	-6.522	0.100
643.500	14.528	0.100
643.600	15.750	0.100
643.700	4.908	0.100
643.800	5.050	0.100
643.900	16.241	0.100
644.000	4.825	0.100
644.100	0.372	0.100
644.200	3.614	0.100
644.300	8.157	0.100
644.400	2.072	0.100
644.500	26.507	0.100
644.600	6.180	0.100
644.700	2.371	0.100
644.800	17.499	0.100
644.900	11.309	0.100
645.000	20.202	0.100
645.100	-7.522	0.100
645.200	6.877	0.100
645.300	16.719	0.100
645.400	1.957	0.100
645.500	7.517	0.100
645.600	13.294	0.100
645.700	20.893	0.100
645.800	9.532	0.100
645.900	19.215	0.100
646.000	8.593	0.100
646.100	8.498	0.100
646.200	19.673	0.100
646.300	9.834	0.100
646.400	33.147	0.100
646.500	7.078	0.100
646.600	30.158	0.100
646.700	25.340	0.100
646.800	13.270	0.100
646.900	3.851	0.100
647.000	10.250	0.100
647.100	16.610	0.100
647.200	50.784	0.100
647.300	29.275	0.100
647.400	3.476	0.100
647.500	27.368	0.100
647.600	15.384	0.100
647.700	18.077	0.100
647.800	20.197	0.100
647.900	13.086	0.100
648.000	13.156	0.100
648.100	15.485	0.100
648.200	-10.177	0.100
648.300	19.849	0.100
648.400	31.895	0.100
648.500	37.197	0.100
648.600	28.561	0.100
648.700	27.577	0.100
648.800	30.330	0.100
648.900	24.512	0.100
649.000	28.783	0.100
649.100	25.780	0.100
649.200	36.322	0.100
649.300	38.065	0.100
649.400	37.263	0.100
649.500	25.290	0.100
649.600	29.563	0.100
649.700	45.419	0.100
649.800	25.259	0.100
649.900	30.390	0.100
650.000	31.814	0.100
650.100	27.094	0.100
650.200	22.677	0.100
650.300	31.012	0.100
650.400	17.534	0.100
650.500	25.489	0.100
650.600	29.306	0.100
650.700	34.129	0.100
650.800	28.219	0.100
650.900	40.343	0.100
651.000	36.440	0.100
651.100	32.059	0.100
651.200	34.142	0.100
651.300	38.715	0.100
651.400	38.971	0.100
651.500	28.844	0.100
651.600	40.122	0.100
651.700	38.523	0.100
651.800	22.421	0.100
651.900	49.139	0.100
652.000	36.563	0.100
652.100	35.772	0.100
652.200	44.982	0.100
652.300	32.927	0.100
652.400	31.331	0.100
652.500	34.274	0.100
652.600	42.097	0.100
652.700	21.817	0.100
652.800	30.046	0.100
652.900	42.213	0.100
653.000	38.275	0.100
653.100	41.497	0.100
653.200	46.602	0.100
653.300	37.276	0.100
653.400	36.606	0.100
653.500	32.436	0.100
653.600	38.908	0.100
653.700	46.533	0.100
653.800	36.690	0.100
653.900	43.242	0.100
654.000	43.840	0.100
654.100	28.599	0.100
654.200	34.959	0.100
654.300	30.462	0.100
654.400	32.212	0.100
654.500	38.983	0.100
654.600	47.608	0.100
654.700	35.077	0.100
654.800	30.102	0.100
654.900	35.994	0.100
655.000	41.671	0.100
655.100	36.100	0.100
655.200	47.477	0.100
655.300	65.749	0.100
655.400	32.994	0.100
655.500	37.250	0.100
655.600	40.155	0.100
655.700	55.073	0.100
655.800	45.362	0.100
655.900	30.984	0.100
656.000	56.532	0.100
656.100	26.335	0.100
656.200	43.585	0.100
656.300	31.670	0.100
656.400	38.241	0.100
656.500	42.702	0.100
656.600	52.772	0.100
656.700	41.481	0.100
656.800	47.588	0.100
656.900	50.005	0.100
657.000	31.608	0.100
657.100	43.929	0.100
657.200	58.656	0.100
657.300	30.365	0.100
657.400	25.520	0.100
657.500	40.987	0.100
657.600	45.279	0.100
657.700	41.289	0.100
657.800	39.359	0.100
657.900	37.711	0.100
658.000	61.703	0.100
658.100	55.614	0.100
658.200	59.874	0.100
658.300	39.371	0.100
658.400	36.652	0.100
658.500	53.399	0.100
658.600	38.019	0.100
658.700	43.407	0.100
658.800	54.518	0.100
658.900	44.878	0.100
659.000	45.155	0.100
659.100	37.746	0.100
659.200	56.704	0.100
659.300	43.107	0.100
659.400	41.717	0.100
659.500	36.592	0.100
659.600	34.555	0.100
659.700	46.481	0.100
659.800	51.639	0.100
659.900	40.769	0.100
660.000	49.740	0.100
660.100	32.539	0.100
660.200	44.782	0.100
660.300	41.116	0.100
660.400	51.885	0.100
660.500	52.513	0.100
660.600	46.386	0.100
660.700	59.163	0.100
660.800	45.636	0.100
660.900	62.511	0.100
661.000	37.745	0.100
661.100	34.536	0.100
661.200	32.988	0.100
661.300	39.649	0.100
661.400	31.156	0.100
661.500	36.802	0.100
661.600	50.592	0.100
661.700	37.884	0.100
661.800	42.607	0.100
661.900	28.509	0.100
662.000	61.800	0.100
662.100	48.031	0.100
662.200	37.216	0.100
662.300	55.984	0.100
662.400	38.350	0.100
662.500	45.860	0.100
662.600	51.852	0.100
662.700	39.938	0.100
662.800	56.741	0.100
662.900	53.238	0.100
663.000	63.028	0.100
663.100	53.338	0.100
663.200	43.368	0.100
663.300	28.898	0.100
663.400	38.750	0.100
663.500	57.307	0.100
663.600	21.111	0.100
663.700	39.376	0.100
663.800	49.251	0.100
663.900	51.903	0.100
664.000	44.488	0.100
664.100	16.388	0.100
664.200	61.648	0.100
664.300	54.048	0.100
664.400	36.448	0.100
664.500	52.467	0.100
664.600	55.254	0.100
664.700	57.557	0.100
664.800	32.015	0.100
664.900	37.513	0.100
665.000	53.347	0.100
665.100	50.171	0.100
665.200	48.248	0.100
665.300	31.592	0.100
665.400	37.081	0.100
665.500	39.664	0.100
665.600	42.199	0.100
665.700	29.786	0.100
665.800	39.264	0.100
665.900	31.726	0.100
666.000	50.189	0.100
666.100	57.302	0.100
666.200	45.310	0.100
666.300	41.827	0.100
666.400	52.682	0.100
666.500	37.826	0.100
666.600	40.386	0.100
666.700	45.829	0.100
666.800	46.895	0.100
666.900	33.431	0.100
667.000	42.249	0.100
667.100	43.141	0.100
667.200	51.604	0.100
667.300	37.155	0.100
667.400	37.323	0.100
667.500	47.041	0.100
667.600	42.342	0.100
667.700	38.830	0.100
667.800	51.599	0.100
667.900	43.708	0.100
668.000	55.671	0.100
668.100	44.957	0.100
668.200	51.075	0.100
668.300	40.115	0.100
668.400	41.430	0.100
668.500	40.340	0.100
668.600	40.064	0.100
668.700	37.746	0.100
668.800	51.650	0.100
668.900	57.802	0.100
669.000	32.025	0.100
669.100	44.661	0.100
669.200	54.353	0.100
669.300	58.237	0.100
669.400	39.429	0.100
669.500	53.353	0.100
669.600	33.892	0.100
669.700	32.547	0.100
669.800	40.282	0.100
669.900	33.362	0.100
670.000	54.983	0.100
670.100	60.999	0.100
670.200	42.333	0.100
670.300	59.083	0.100
670.400	30.190	0.100
670.500	59.491	0.100
670.600	27.712	0.100
670.700	57.209	0.100
670.800	45.262	0.100
670.900	25.365	0.100
671.000	36.013	0.100
671.100	46.184	0.100
671.200	41.099	0.100
671.300	67.048	0.100
671.400	35.672	0.100
671.500	26.551	0.100
671.600	62.152	0.100
671.700	47.928	0.100
671.800	28.624	0.100
671.900	51.604	0.100
672.000	39.908	0.100
672.100	50.979	0.100
672.200	45.006	0.100
672.300	50.431	0.100
672.400	25.486	0.100
672.500	41.930	0.100
672.600	56.332	0.100
672.700	45.385	0.100
672.800	49.765	0.100
672.900	40.245	0.100
673.000	38.128	0.100
673.100	47.211	0.100
673.200	38.822	0.100
673.300	46.788	0.100
673.400	47.629	0.100
673.500	43.849	0.100
673.600	44.002	0.100
673.700	30.232	0.100
673.800	49.561	0.100
673.900	49.930	0.100
674.000	38.540	0.100
674.100	32.085	0.100
674.200	78.955	0.100
674.300	66.360	0.100
674.400	36.405	0.100
674.500	46.490	0.100
674.600	49.962	0.100
674.700	40.029	0.100
674.800	58.157	0.100
674.900	52.148	0.100
675.000	28.864	0.100
675.100	34.129	0.100
675.200	36.774	0.100
675.300	22.805	0.100
675.400	43.294	0.100
675.500	34.757	0.100
675.600	29.223	0.100
675.700	39.314	0.100
675.800	49.955	0.100
675.900	42.597	0.100
676.000	46.153	0.100
676.100	54.014	0.100
676.200	44.724	0.100
676.300	59.100	0.100
676.400	67.006	0.100
676.500	51.900	0.100
676.600	31.473	0.100
676.700	24.555	0.100
676.800	51.072	0.100
676.900	53.569	0.100
677.000	39.330	0.100
677.100	48.653	0.100
677.200	30.453	0.100
677.300	42.385	0.100
677.400	30.681	0.100
677.500	55.585	0.100
677.600	42.152	0.100
677.700	52.602	0.100
677.800	53.651	0.100
677.900	53.047	0.100
678.000	51.064	0.100
678.100	48.908	0.100
678.200	46.630	0.100
678.300	38.076	0.100
678.400	31.122	0.100
678.500	28.400	0.100
678.600	39.941	0.100
678.700	50.399	0.100
678.800	51.647	0.100
678.900	27.724	0.100
679.000	49.047	0.100
679.100	27.845	0.100
679.200	27.752	0.100
679.300	56.158	0.100
679.400	41.470	0.100
679.500	23.752	0.100
679.600	52.311	0.100
679.700	61.631	0.100
679.800	24.575	0.100
679.900	46.778	0.100
680.000	51.570	0.100
680.100	41.036	0.100
680.200	41.865	0.100
680.300	38.559	0.100
680.400	37.020	0.100
680.500	43.798	0.100
680.600	42.055	0.100
680.700	38.640	0.100
680.800	50.459	0.100
680.900	53.716	0.100
681.000	36.169	0.100
681.100	48.198	0.100
681.200	52.682	0.100
681.300	41.200	0.100
681.400	29.215	0.100
681.500	37.222	0.100
681.600	52.082	0.100
681.700	35.223	0.100
681.800	47.617	0.100
681.900	47.068	0.100
682.000	45.155	0.100
682.100	43.591	0.100
682.200	44.591	0.100
682.300	24.577	0.100
682.400	38.384	0.100
682.500	56.752	0.100
682.600	38.459	0.100
682.700	42.535	0.100
682.800	25.802	0.100
682.900	55.430	0.100
683.000	43.746	0.100
683.100	37.694	0.100
683.200	49.732	0.100
683.300	41.615	0.100
683.400	43.926	0.100
683.500	46.676	0.100
683.600	47.971	0.100
683.700	51.895	0.100
683.800	29.346	0.100
683.900	54.412	0.100
684.000	38.714	0.100
684.100	28.087	0.100
684.200	48.653	0.100
684.300	46.349	0.100
684.400	44.615	0.100
684.500	37.535	0.100
684.600	57.377	0.100
684.700	24.282	0.100
684.800	41.450	0.100
684.900	29.967	0.100
685.000	54.248	0.100
685.100	12.807	0.100
685.200	48.874	0.100
685.300	47.484	0.100
685.400	38.514	0.100
685.500	29.265	0.100
685.600	45.129	0.100
685.700	33.319	0.100
685.800	58.973	0.100
685.900	40.685	0.100
686.000	51.886	0.100
686.100	38.439	0.100
686.200	46.838	0.100
686.300	35.688	0.100
686.400	50.393	0.100
686.500	26.956	0.100
686.600	38.182	0.100
686.700	42.688	0.100
686.800	37.541	0.100
686.900	46.821	0.100
687.000	40.752	0.100
687.100	34.821	0.100
687.200	17.048	0.100
687.300	56.940	0.100
687.400	63.613	0.100
687.500	24.687	0.100
687.600	48.242	0.100
687.700	36.552	0.100
687.800	34.576	0.100
687.900	25.199	0.100
688.000	48.229	0.100
688.100	25.914	0.100
688.200	46.386	0.100
688.300	39.624	0.100
688.400	35.297	0.100
688.500	35.891	0.100
688.600	43.401	0.100
688.700	60.566	0.100
688.800	53.663	0.100
688.900	37.368	0.100
689.000	30.502	0.100
689.100	14.093	0.100
689.200	61.269	0.100
689.300	40.412	0.100
689.400	29.058	0.100
689.500	56.209	0.100
689.600	42.026	0.100
689.700	33.730	0.100
689.800	52.653	0.100
689.900	29.228	0.100
690.000	33.250	0.100
690.100	34.162	0.100
690.200	54.549	0.100
690.300	31.722	0.100
690.400	39.008	0.100
690.500	17.996	0.100
690.600	33.652	0.100
690.700	36.152	0.100
690.800	41.255	0.100
690.900	38.128	0.100
691.000	32.536	0.100
691.100	44.186	0.100
691.200	20.721	0.100
691.300	28.874	0.100
691.400	38.387	0.100
691.500	47.887	0.100
691.600	43.545	0.100
691.700	44.680	0.100
691.800	23.671	0.100
691.900	31.176	0.100
692.000	21.054	0.100
692.100	45.063	0.100
692.200	47.804	0.100
692.300	12.971	0.100
692.400	24.270	0.100
692.500	21.531	0.100
692.600	30.725	0.100
692.700	40.903	0.100
692.800	37.837	0.100
692.900	30.482	0.100
693.000	39.017	0.100
693.100	29.274	0.100
693.200	18.741	0.100
693.300	32.287	0.100
693.400	23.950	0.100
693.500	24.295	0.100
693.600	40.184	0.100
693.700	38.323	0.100
693.800	30.051	0.100
693.900	31.754	0.100
694.000	28.369	0.100
694.100	17.275	0.100
694.200	27.371	0.100
694.300	31.156	0.100
694.400	30.646	0.100
694.500	19.601	0.100
694.600	35.050	0.100
694.700	22.060	0.100
694.800	28.803	0.100
694.900	32.878	0.100
695.000	11.548	0.100
695.100	37.484	0.100
695.200	30.419	0.100
695.300	18.853	0.100
695.400	24.450	0.100
695.500	30.267	0.100
695.600	16.158	0.100
695.700	29.767	0.100
695.800	3.347	0.100
695.900	18.359	0.100
696.000	32.260	0.100
696.100	0.781	0.100
696.200	8.065	0.100
696.300	26.680	0.100
696.400	30.273	0.100
696.500	7.940	0.100
696.600	26.885	0.100
696.700	33.305	0.100
696.800	32.639	0.100
696.900	26.406	0.100
697.000	6.867	0.100
697.100	29.951	0.100
697.200	7.523	0.100
697.300	42.521	0.100
697.400	1.668	0.100
697.500	40.515	0.100
697.600	24.929	0.100
697.700	28.654	0.100
697.800	9.601	0.100
697.900	14.121	0.100
698.000	20.809	0.100
698.100	13.067	0.100
698.200	21.955	0.100
698.300	10.655	0.100
698.400	32.652	0.100
698.500	18.986	0.100
698.600	14.343	0.100
698.700	14.134	0.100
698.800	13.310	0.100
698.900	-13.601	0.100
699.000	8.536	0.100
699.100	9.879	0.100
699.200	7.389	0.100
699.300	25.780	0.100
699.400	1.704	0.100
699.500	22.198	0.100
699.600	15.807	0.100
699.700	13.717	0.100
699.800	12.326	0.100
699.900	2.180	0.100
700.000	12.790	0.100
700.100	11.996	0.100
700.200	18.022	0.100
700.300	14.393	0.100
700.400	11.792	0.100
700.500	22.432	0.100
700.600	11.202	0.100
700.700	11.148	0.100
700.800	16.031	0.100
700.900	10.954	0.100
701.000	5.006	0.100
701.100	26.131	0.100
701.200	12.880	0.100
701.300	5.303	0.100
701.400	9.663	0.100
701.500	27.026	0.100
701.600	17.068	0.100
701.700	10.320	0.100
701.800	4.641	0.100
701.900	2.346	0.100
702.000	13.989	0.100
702.100	9.802	0.100
702.200	25.181	0.100
702.300	23.315	0.100
702.400	10.072	0.100
702.500	11.013	0.100
702.600	15.092	0.100
702.700	15.134	0.100
702.800	14.942	0.100
702.900	16.159	0.100
703.000	11.849	0.100
703.100	7.429	0.100
703.200	12.283	0.100
703.300	-5.955	0.100
703.400	9.499	0.100
703.500	4.331	0.100
703.600	6.968	0.100
703.700	11.105	0.100
703.800	4.908	0.100
703.900	9.827	0.100
704.000	14.614	0.100
704.100	11.420	0.100
704.200	6.644	0.100
704.300	6.474	0.100
704.400	-1.166	0.100
704.500	-13.474	0.100
704.600	30.295	0.100
704.700	-0.613	0.100
704.800	-2.895	0.100
704.900	7.351	0.100
705.000	5.760	0.100
705.100	1.371	0.100
705.200	32.962	0.100
705.300	9.557	0.100
705.400	3.859	0.100
705.500	3.113	0.100
705.600	2.295	0.100
705.700	-2.322	0.100
705.800	4.210	0.100
705.900	25.559	0.100
706.000	14.887	0.100
706.100	-9.188	0.100
706.200	-9.471	0.100
706.300	17.620	0.100
706.400	-17.846	0.100
706.500	-18.076	0.100
706.600	-5.473	0.100
706.700	5.499	0.100
706.800	-3.258	0.100
706.900	3.563	0.100
707.000	4.428	0.100
707.100	22.903	0.100
707.200	-3.039	0.100
707.300	-1.095	0.100
707.400	-2.592	0.100
707.500	6.001	0.100
707.600	9.327	0.100
707.700	18.932	0.100
707.800	5.493	0.100
707.900	-13.906	0.100
708.000	0.090	0.100
708.100	0.293	0.100
708.200	1.235	0.100
708.300	-6.501	0.100
708.400	-3.862	0.100
708.500	9.025	0.100
708.600	3.183	0.100
708.700	-7.023	0.100
708.800	15.511	0.100
708.900	-4.068	0.100
709.000	4.121	0.100
709.100	-4.492	0.100
709.200	1.537	0.100
709.300	7.176	0.100
709.400	4.788	0.100
709.500	6.097	0.100
709.600	-7.138	0.100
709.700	-11.588	0.100
709.800	-18.090	0.100
709.900	19.103	0.100
710.000	2.113	0.100
710.100	-14.412	0.100
710.200	12.175	0.100
710.300	-3.300	0.100
710.400	10.371	0.100
710.500	-4.868	0.100
710.600	-25.143	0.100
710.700	-3.658	0.100
710.800	16.558	0.100
710.900	9.192	0.100
711.000	-2.328	0.100
711.100	-16.895	0.100
711.200	-3.519	0.100
711.300	1.546	0.100
711.400	3.910	0.100
711.500	5.268	0.100
711.600	5.065	0.100
711.700	-13.598	0.100
711.800	-0.501	0.100
711.900	-16.673	0.100
712.000	-2.570	0.100
712.100	16.927	0.100
712.200	6.687	0.100
712.300	-11.847	0.100
712.400	-12.260	0.100
712.500	-2.130	0.100
712.600	-10.250	0.100
712.700	-11.920	0.100
712.800	-0.528	0.100
712.900	7.112	0.100
713.000	4.589	0.100
713.100	-4.466	0.100
713.200	2.548	0.100
713.300	-29.780	0.100
713.400	0.387	0.100
713.500	-8.176	0.100
713.600	-11.949	0.100
713.700	12.491	0.100
713.800	-14.956	0.100
713.900	-19.420	0.100
714.000	-7.413	0.100
714.100	-5.336	0.100
714.200	12.908	0.100
714.300	-14.182	0.100
714.400	-11.783	0.100
714.500	-3.655	0.100
714.600	-28.684	0.100
714.700	8.568	0.100
714.800	1.198	0.100
714.900	-14.481	0.100
715.000	-1.079	0.100
715.100	-19.647	0.100
715.200	-0.645	0.100
715.300	-3.868	0.100
715.400	-11.858	0.100
715.500	-2.822	0.100
715.600	-23.323	0.100
715.700	-8.110	0.100
715.800	-12.432	0.100
715.900	-12.323	0.100
716.000	-21.378	0.100
716.100	-2.622	0.100
716.200	2.029	0.100
716.300	-14.418	0.100
716.400	-8.196	0.100
716.500	-20.027	0.100
716.600	-21.644	0.100
716.700	-22.160	0.100
716.800	5.030	0.100
716.900	-11.167	0.100
717.000	-18.293	0.100
717.100	-9.634	0.100
717.200	-13.928	0.100
717.300	-23.663	0.100
717.400	-7.160	0.100
717.500	-5.604	0.100
717.600	-2.992	0.100
717.700	-10.537	0.100
717.800	-30.422	0.100
717.900	-12.862	0.100
718.000	-11.860	0.100
718.100	-14.939	0.100
718.200	-7.120	0.100
718.300	-0.554	0.100
718.400	-2.368	0.100
718.500	-3.464	0.100
718.600	-9.807	0.100
718.700	-7.945	0.100
718.800	-4.279	0.100
718.900	-33.407	0.100
719.000	-21.287	0.100
719.100	-17.437	0.100
719.200	-14.225	0.100
719.300	10.722	0.100
719.400	-6.303	0.100
719.500	-5.920	0.100
719.600	-10.699	0.100
719.700	-20.044	0.100
719.800	-16.635	0.100
719.900	-6.007	0.100
720.000	-14.636	0.100
720.100	-32.087	0.100
720.200	-17.368	0.100
720.300	5.443	0.100
720.400	-17.274	0.100
720.500	-14.182	0.100
720.600	-4.338	0.100
720.700	-10.045	0.100
720.800	-7.325	0.100
720.900	-24.884	0.100
721.000	-25.471	0.100
721.100	-14.193	0.100
721.200	-8.145	0.100
721.300	-2.294	0.100
721.400	-17.671	0.100
721.500	-15.091	0.100
721.600	-22.714	0.100
721.700	-5.115	0.100
721.800	-9.669	0.100
721.900	-15.195	0.100
722.000	-11.671	0.100
722.100	-24.304	0.100
722.200	-14.360	0.100
722.300	-17.972	0.100
722.400	-17.288	0.100
722.500	-25.069	0.100
722.600	-15.957	0.100
722.700	-5.080	0.100
722.800	-21.999	0.100
722.900	-25.008	0.100
723.000	-6.274	0.100
723.100	-9.430	0.100
723.200	-17.332	0.100
723.300	-16.627	0.100
723.400	-30.480	0.100
723.500	-37.425	0.100
723.600	-40.702	0.100
723.700	-10.428	0.100
723.800	-8.273	0.100
723.900	-18.714	0.100
724.000	-9.677	0.100
724.100	-15.893	0.100
724.200	-11.455	0.100
724.300	-18.853	0.100
724.400	-21.108	0.100
724.500	-8.832	0.100
724.600	-22.175	0.100
724.700	-6.571	0.100
724.800	-30.624	0.100
724.900	-0.171	0.100
725.000	-13.738	0.100
725.100	-21.965	0.100
725.200	-8.519	0.100
725.300	-17.204	0.100
725.400	-16.997	0.100
725.500	-11.705	0.100
725.600	-34.386	0.100
725.700	-46.851	0.100
725.800	-39.928	0.100
725.900	-12.398	0.100
726.000	-20.003	0.100
726.100	-12.868	0.100
726.200	-19.981	0.100
726.300	-9.395	0.100
726.400	-18.663	0.100
726.500	-24.861	0.100
726.600	-11.503	0.100
726.700	-23.755	0.100
726.800	-11.671	0.100
726.900	-23.231	0.100
727.000	-23.949	0.100
727.100	-24.631	0.100
727.200	-38.024	0.100
727.300	-23.444	0.100
727.400	-22.340	0.100
727.500	-22.011	0.100
727.600	-11.400	0.100
727.700	-7.794	0.100
727.800	-20.469	0.100
727.900	-6.356	0.100
728.000	-11.397	0.100
728.100	-22.267	0.100
728.200	-13.906	0.100
728.300	-24.750	0.100
728.400	-16.859	0.100
728.500	-13.515	0.100
728.600	-35.301	0.100
728.700	-24.778	0.100
728.800	-17.142	0.100
728.900	-32.705	0.100
729.000	-21.310	0.100
729.100	-17.571	0.100
729.200	-12.783	0.100
729.300	-15.022	0.100
729.400	-26.148	0.100
729.500	-22.949	0.100
729.600	-16.261	0.100
729.700	-36.775	0.100
729.800	-24.060	0.100
729.900	-15.303	0.100
730.000	-44.435	0.100
730.100	-24.073	0.100
730.200	-32.492	0.100
730.300	-28.087	0.100
730.400	-12.628	0.100
730.500	-27.505	0.100
730.600	-30.514	0.100
730.700	-27.200	0.100
730.800	-15.151	0.100
730.900	-17.128	0.100
731.000	-26.784	0.100
731.100	-19.616	0.100
731.200	-26.150	0.100
731.300	-29.608	0.100
731.400	-17.150	0.100
731.500	-27.654	0.100
731.600	-36.252	0.100
731.700	-34.221	0.100
731.800	-32.653	0.100
731.900	-20.274	0.100
732.000	-35.562	0.100
732.100	-24.566	0.100
732.200	-31.442	0.100
732.300	-31.740	0.100
732.400	-24.727	0.100
732.500	-25.750	0.100
732.600	-33.128	0.100
732.700	-40.265	0.100
732.800	-23.932	0.100
732.900	-12.525	0.100
733.000	-31.029	0.100
733.100	-15.030	0.100
733.200	-10.799	0.100
733.300	-20.972	0.100
733.400	-45.862	0.100
733.500	-34.316	0.100
733.600	-19.833	0.100
733.700	-21.600	0.100
733.800	-15.031	0.100
733.900	-29.389	0.100
734.000	-20.058	0.100
734.100	-41.442	0.100
734.200	-21.272	0.100
734.300	-20.890	0.100
734.400	-14.555	0.100
734.500	-40.613	0.100
734.600	-32.584	0.100
734.700	3.097	0.100
734.800	-27.428	0.100
734.900	-18.657	0.100
735.000	-45.479	0.100
735.100	-25.992	0.100
735.200	-18.549	0.100
735.300	-22.192	0.100
735.400	-23.670	0.100
735.500	-40.665	0.100
735.600	-42.355	0.100
735.700	-12.589	0.100
735.800	-15.376	0.100
735.900	-28.716	0.100
736.000	-23.731	0.100
736.100	-29.234	0.100
736.200	-45.592	0.100
736.300	-24.594	0.100
736.400	-18.146	0.100
736.500	-30.983	0.100
736.600	-15.042	0.100
736.700	-35.045	0.100
736.800	-24.554	0.100
736.900	-35.190	0.100
737.000	-17.234	0.100
737.100	-12.303	0.100
737.200	-49.477	0.100
737.300	-28.852	0.100
737.400	-22.196	0.100
737.500	-34.477	0.100
737.600	-36.284	0.100
737.700	-27.178	0.100
737.800	-34.267	0.100
737.900	-33.344	0.100
738.000	-12.363	0.100
738.100	-17.049	0.100
738.200	-31.831	0.100
738.300	-39.834	0.100
738.400	-17.365	0.100
738.500	-37.392	0.100
738.600	-41.324	0.100
738.700	-30.212	0.100
738.800	-25.983	0.100
738.900	-13.877	0.100
739.000	-31.435	0.100
739.100	-28.990	0.100
739.200	0.864	0.100
739.300	-22.293	0.100
739.400	-45.114	0.100
739.500	-23.305	0.100
739.600	-26.613	0.100
739.700	-36.206	0.100
739.800	-25.826	0.100
739.900	-30.117	0.100
740.000	-27.220	0.100
740.100	-35.127	0.100
740.200	-26.001	0.100
740.300	-35.784	0.100
740.400	-39.772	0.100
740.500	-25.675	0.100
740.600	-17.254	0.100
740.700	-42.660	0.100
740.800	-47.133	0.100
740.900	-37.000	0.100
741.000	-22.782	0.100
741.100	-26.771	0.100
741.200	-35.013	0.100
741.300	-32.515	0.100
741.400	-23.380	0.100
741.500	-42.589	0.100
741.600	-36.174	0.100
741.700	-40.095	0.100
741.800	-35.648	0.100
741.900	-19.925	0.100
742.000	-16.745	0.100
742.100	-22.123	0.100
742.200	-28.420	0.100
742.300	-39.793	0.100
742.400	-23.826	0.100
742.500	-20.831	0.100
742.600	-45.926	0.100
742.700	-26.076	0.100
742.800	-32.228	0.100
742.900	-40.673	0.100
743.000	-23.363	0.100
743.100	-24.189	0.100
743.200	-37.175	0.100
743.300	-31.927	0.100
743.400	-37.300	0.100
743.500	-27.158	0.100
743.600	-26.639	0.100
743.700	-46.860	0.100
743.800	-29.769	0.100
743.900	-14.444	0.100
744.000	-35.918	0.100
744.100	-39.974	0.100
744.200	-38.148	0.100
744.300	-23.987	0.100
744.400	-23.518	0.100
744.500	-30.226	0.100
744.600	-27.189	0.100
744.700	-38.488	0.100
744.800	-42.986	0.100
744.900	-22.112	0.100
745.000	-34.647	0.100
745.100	-43.521	0.100
745.200	-10.575	0.100
745.300	-28.583	0.100
745.400	-28.501	0.100
745.500	-22.008	0.100
745.600	-29.616	0.100
745.700	-34.716	0.100
745.800	-32.728	0.100
745.900	-32.272	0.100
746.000	-34.259	0.100
746.100	-30.712	0.100
746.200	-32.191	0.100
746.300	-40.146	0.100
746.400	-47.867	0.100
746.500	-14.032	0.100
746.600	-33.240	0.100
746.700	-20.766	0.100
746.800	-32.599	0.100
746.900	-50.329	0.100
747.000	-19.885	0.100
747.100	-29.374	0.100
747.200	-42.230	0.100
747.300	-28.015	0.100
747.400	-29.279	0.100
747.500	-35.439	0.100
747.600	-34.532	0.100
747.700	-27.649	0.100
747.800	-19.669	0.100
747.900	-36.753	0.100
748.000	-44.662	0.100
748.100	-14.725	0.100
748.200	-51.791	0.100
748.300	-36.891	0.100
748.400	-36.092	0.100
748.500	-43.241	0.100
748.600	-30.089	0.100
748.700	-46.848	0.100
748.800	-27.135	0.100
748.900	-31.733	0.100
749.000	-24.789	0.100
749.100	-33.011	0.100
749.200	-28.829	0.100
749.300	-32.467	0.100
749.400	-37.961	0.100
749.500	-31.225	0.100
749.600	-56.907	0.100
749.700	-30.299	0.100
749.800	-20.919	0.100
749.900	-21.007	0.100
750.000	-28.791	0.100
750.100	-23.510	0.100
750.200	-49.115	0.100
750.300	-32.688	0.100
750.400	-18.982	0.100
750.500	-29.214	0.100
750.600	-44.289	0.100
750.700	-23.000	0.100
750.800	-36.837	0.100
750.900	-25.109	0.100
751.000	-18.379	0.100
751.100	-44.421	0.100
751.200	-33.398	0.100
751.300	-26.925	0.100
751.400	-34.713	0.100
751.500	-35.899	0.100
751.600	-28.262	0.100
751.700	-24.321	0.100
751.800	-42.071	0.100
751.900	-26.504	0.100
752.000	-38.404	0.100
752.100	-29.065	0.100
752.200	-38.846	0.100
752.300	-34.204	0.100
752.400	-26.234	0.100
752.500	-40.087	0.100
752.600	-35.085	0.100
752.700	-32.809	0.100
752.800	-47.800	0.100
752.900	-39.601	0.100
753.000	-19.937	0.100
753.100	-37.918	0.100
753.200	-22.065	0.100
753.300	-30.792	0.100
753.400	-40.832	0.100
753.500	-40.819	0.100
753.600	-32.275	0.100
753.700	-27.054	0.100
753.800	-30.859	0.100
753.900	-57.942	0.100
754.000	-35.012	0.100
754.100	-28.863	0.100
754.200	-16.960	0.100
754.300	-12.405	0.100
754.400	-36.896	0.100
754.500	-34.865	0.100
754.600	-40.723	0.100
754.700	-40.438	0.100
754.800	-16.661	0.100
754.900	-29.337	0.100
755.000	-33.082	0.100
755.100	-26.573	0.100
755.200	-35.921	0.100
755.300	-50.514	0.100
755.400	-43.012	0.100
755.500	-36.138	0.100
755.600	-24.149	0.100
755.700	-34.299	0.100
755.800	-19.823	0.100
755.900	-41.545	0.100
756.000	-39.240	0.100
756.100	-36.051	0.100
756.200	-44.456	0.100
756.300	-17.923	0.100
756.400	-35.677	0.100
756.500	-31.929	0.100
756.600	-30.482	0.100
756.700	-31.354	0.100
756.800	-49.802	0.100
756.900	-22.149	0.100
757.000	-53.203	0.100
757.100	-24.968	0.100
757.200	-45.750	0.100
757.300	-42.339	0.100
757.400	-36.077	0.100
757.500	-41.265	0.100
757.600	-23.006	0.100
757.700	-39.603	0.100
757.800	-27.972	0.100
757.900	-40.081	0.100
758.000	-20.918	0.100
758.100	-34.120	0.100
758.200	-33.618	0.100
758.300	-42.264	0.100
758.400	-36.756	0.100
758.500	-41.007	0.100
758.600	-51.687	0.100
758.700	-17.059	0.100
758.800	-26.102	0.100
758.900	-24.549	0.100
759.000	-25.564	0.100
759.100	-30.540	0.100
759.200	-37.526	0.100
759.300	-30.827	0.100
759.400	-56.577	0.100
759.500	-25.730	0.100
759.600	-27.994	0.100
759.700	-31.829	0.100
759.800	-12.931	0.100
759.900	-25.603	0.100
760.000	-34.573	0.100
760.100	-41.928	0.100
760.200	-40.238	0.100
760.300	-43.231	0.100
760.400	-63.055	0.100
760.500	-25.019	0.100
760.600	-37.579	0.100
760.700	-28.299	0.100
760.800	-33.119	0.100
760.900	-42.002	0.100
761.000	-35.450	0.100
761.100	-25.511	0.100
761.200	-33.695	0.100
761.300	-33.819	0.100
761.400	-35.999	0.100
761.500	-14.021	0.100
761.600	-37.369	0.100
761.700	-29.660	0.100
761.800	-25.138	0.100
761.900	-39.568	0.100
762.000	-29.190	0.100
762.100	-42.845	0.100
762.200	-35.090	0.100
762.300	-32.413	0.100
762.400	-34.219	0.100
762.500	-36.028	0.100
762.600	-19.682	0.100
762.700	-39.453	0.100
762.800	-32.003	0.100
762.900	-26.096	0.100
763.000	-46.779	0.100
763.100	-39.054	0.100
763.200	-20.369	0.100
763.300	-33.844	0.100
763.400	-47.724	0.100
763.500	-26.939	0.100
763.600	-23.550	0.100
763.700	-35.082	0.100
763.800	-41.731	0.100
763.900	-20.064	0.100
764.000	-22.501	0.100
764.100	-44.677	0.100
764.200	-32.351	0.100
764.300	-15.767	0.100
764.400	-20.619	0.100
764.500	-41.475	0.100
764.600	-33.214	0.100
764.700	-31.563	0.100
764.800	-37.138	0.100
764.900	-33.821	0.100
765.000	-45.448	0.100
765.100	-32.631	0.100
765.200	-33.830	0.100
765.300	-33.437	0.100
765.400	-42.646	0.100
765.500	-12.508	0.100
765.600	-28.964	0.100
765.700	-32.450	0.100
765.800	-44.229	0.100
765.900	-37.855	0.100
766.000	-27.171	0.100
766.100	-35.449	0.100
766.200	-30.729	0.100
766.300	-38.292	0.100
766.400	-34.483	0.100
766.500	-43.947	0.100
766.600	-17.998	0.100
766.700	-57.705	0.100
766.800	-33.523	0.100
766.900	-40.506	0.100
767.000	-32.346	0.100
767.100	-41.369	0.100
767.200	-23.000	0.100
767.300	-40.032	0.100
767.400	-33.430	0.100
767.500	-27.401	0.100
767.600	-57.797	0.100
767.700	-20.578	0.100
767.800	-38.597	0.100
767.900	-40.532	0.100
768.000	-33.330	0.100
768.100	-24.977	0.100
768.200	-35.804	0.100
768.300	-47.429	0.100
768.400	-23.394	0.100
768.500	-47.602	0.100
768.600	-29.674	0.100
768.700	-29.486	0.100
768.800	-53.399	0.100
768.900	-45.914	0.100
769.000	-22.175	0.100
769.100	-13.471	0.100
769.200	-22.960	0.100
769.300	-31.339	0.100
769.400	-34.999	0.100
769.500	-44.248	0.100
769.600	-40.150	0.100
769.700	-47.214	0.100
769.800	-40.185	0.100
769.900	-26.343	0.100
770.000	-48.385	0.100
770.100	-21.870	0.100
770.200	-35.508	0.100
770.300	-41.505	0.100
770.400	-44.511	0.100
770.500	-26.030	0.100
770.600	-34.310	0.100
770.700	-25.337	0.100
770.800	-19.431	0.100
770.900	-40.811	0.100
771.000	-38.591	0.100
771.100	-20.535	0.100
771.200	-30.896	0.100
771.300	-27.407	0.100
771.400	-36.552	0.100
771.500	-44.793	0.100
771.600	-47.744	0.100
771.700	-29.248	0.100
771.800	-47.666	0.100
771.900	-40.719	0.100
772.000	-33.093	0.100
772.100	-25.179	0.100
772.200	-15.608	0.100
772.300	-37.687	0.100
772.400	-18.782	0.100
772.500	-34.155	0.100
772.600	-27.896	0.100
772.700	-42.125	0.100
772.800	-38.200	0.100
772.900	-41.386	0.100
773.000	-25.287	0.100
773.100	-34.316	0.100
773.200	-30.062	0.100
773.300	-46.397	0.100
773.400	-20.562	0.100
773.500	-34.625	0.100
773.600	-45.683	0.100
773.700	-27.908	0.100
773.800	-34.553	0.100
773.900	-34.644	0.100
774.000	-19.983	0.100
774.100	-49.739	0.100
774.200	-48.390	0.100
774.300	-31.468	0.100
774.400	-15.626	0.100
774.500	-43.756	0.100
774.600	-23.093	0.100
774.700	-43.639	0.100
774.800	-25.895	0.100
774.900	-48.417	0.100
775.000	-17.703	0.100
775.100	-33.926	0.100
775.200	-29.010	0.100
775.300	-37.074	0.100
775.400	-37.052	0.100
775.500	-23.803	0.100
775.600	-31.599	0.100
775.700	-38.760	0.100
775.800	-26.578	0.100
775.900	-30.729	0.100
776.000	-51.997	0.100
776.100	-52.604	0.100
776.200	-21.672	0.100
776.300	-41.931	0.100
776.400	-40.601	0.100
776.500	-26.157	0.100
776.600	-30.483	0.100
776.700	-35.272	0.100
776.800	-31.458	0.100
776.900	-43.187	0.100
777.000	-44.082	0.100
777.100	-29.855	0.100
777.200	-24.241	0.100
777.300	-36.920	0.100
777.400	-32.648	0.100
777.500	-43.077	0.100
777.600	-32.568	0.100
777.700	-54.816	0.100
777.800	-35.688	0.100
777.900	-26.360	0.100
778.000	-26.096	0.100
778.100	-48.388	0.100
778.200	-32.182	0.100
778.300	-17.850	0.100
778.400	-35.835	0.100
778.500	-29.577	0.100
778.600	-36.246	0.100
778.700	-44.015	0.100
778.800	-47.401	0.100
778.900	-43.055	0.100
779.000	-47.078	0.100
779.100	-28.869	0.100
779.200	-41.321	0.100
779.300	-23.870	0.100
779.400	-17.659	0.100
779.500	-31.875	0.100
779.600	-28.170	0.100
779.700	-45.396	0.100
779.800	-33.494	0.100
779.900	-17.455	0.100
780.000	-45.264	0.100
780.100	-39.246	0.100
780.200	-11.414	0.100
780.300	-27.204	0.100
780.400	-42.600	0.100
780.500	-35.108	0.100
780.600	-16.814	0.100
780.700	-36.624	0.100
780.800	-25.731	0.100
780.900	-21.534	0.100
781.000	-18.767	0.100
781.100	-51.652	0.100
781.200	-18.384	0.100
781.300	-31.181	0.100
781.400	-14.964	0.100
781.500	-44.384	0.100
781.600	-12.312	0.100
781.700	-16.771	0.100
781.800	-32.783	0.100
781.900	-10.088	0.100
782.000	-11.665	0.100
782.100	-11.205	0.100
782.200	-16.196	0.100
782.300	-23.918	0.100
782.400	-24.586	0.100
782.500	8.151	0.100
782.600	-13.325	0.100
782.700	-13.776	0.100
782.800	-13.341	0.100
782.900	-14.289	0.100
783.000	-27.128	0.100
783.100	-23.466	0.100
783.200	-17.594	0.100
783.300	-10.770	0.100
783.400	-15.559	0.100
783.500	-15.703	0.100
783.600	-7.782	0.100
783.700	-17.930	0.100
783.800	-16.561	0.100
783.900	-17.239	0.100
784.000	-5.547	0.100
784.100	-10.319	0.100
784.200	-23.467	0.100
784.300	-16.218	0.100
784.400	-19.819	0.100
784.500	-11.194	0.100
784.600	-9.333	0.100
784.700	-7.420	0.100
784.800	-19.859	0.100
784.900	-30.172	0.100
785.000	-22.583	0.100
785.100	-20.611	0.100
785.200	-19.834	0.100
785.300	-16.926	0.100
785.400	-26.194	0.100
785.500	-16.016	0.100
785.600	-8.670	0.100
785.700	-26.182	0.100
785.800	-19.431	0.100
785.900	-0.967	0.100
786.000	-24.464	0.100
786.100	-22.043	0.100
786.200	-18.528	0.100
786.300	-5.083	0.100
786.400	-21.203	0.100
786.500	-24.925	0.100
786.600	-28.170	0.100
786.700	-22.600	0.100
786.800	-8.432	0.100
786.900	-15.154	0.100
787.000	-24.605	0.100
787.100	-15.778	0.100
787.200	-14.495	0.100
787.300	-17.044	0.100
787.400	-24.687	0.100
787.500	-23.821	0.100
787.600	-5.561	0.100
787.700	-5.932	0.100
787.800	-22.825	0.100
787.900	-4.537	0.100
788.000	-11.847	0.100
788.100	-15.985	0.100
788.200	-3.846	0.100
788.300	-8.268	0.100
788.400	-22.511	0.100
788.500	-23.834	0.100
788.600	-3.988	0.100
788.700	-16.592	0.100
788.800	-18.113	0.100
788.900	-16.204	0.100
789.000	-10.784	0.100
789.100	0.841	0.100
789.200	-5.835	0.100
789.300	2.098	0.100
789.400	9.027	0.100
789.500	-4.678	0.100
789.600	-10.866	0.100
789.700	0.534	0.100
789.800	-15.996	0.100
789.900	-10.387	0.100
790.000	-9.425	0.100
790.100	-20.116	0.100
790.200	-10.196	0.100
790.300	5.837	0.100
790.400	-10.865	0.100
790.500	-17.182	0.100
790.600	-6.081	0.100
790.700	-17.995	0.100
790.800	-14.072	0.100
790.900	-1.620	0.100
791.000	5.418	0.100
791.100	-12.795	0.100
791.200	-5.481	0.100
791.300	-13.042	0.100
791.400	27.773	0.100
791.500	5.656	0.100
791.600	-14.654	0.100
791.700	-8.394	0.100
791.800	9.180	0.100
791.900	-4.022	0.100
792.000	4.964	0.100
792.100	3.421	0.100
792.200	6.089	0.100
792.300	-17.529	0.100
792.400	5.003	0.100
792.500	9.234	0.100
792.600	0.764	0.100
792.700	-13.054	0.100
792.800	11.827	0.100
792.900	-11.282	0.100
793.000	0.304	0.100
793.100	-7.266	0.100
793.200	-1.091	0.100
793.300	5.965	0.100
793.400	2.738	0.100
793.500	7.532	0.100
793.600	2.246	0.100
793.700	13.543	0.100
793.800	-1.281	0.100
793.900	12.234	0.100
794.000	3.756	0.100
794.100	8.559	0.100
794.200	-17.483	0.100
794.300	-0.777	0.100
794.400	7.095	0.100
794.500	21.759	0.100
794.600	16.984	0.100
794.700	5.527	0.100
794.800	7.667	0.100
794.900	-0.568	0.100
795.000	10.958	0.100
795.100	0.836	0.100
795.200	33.072	0.100
795.300	15.641	0.100
795.400	-7.788	0.100
795.500	-4.279	0.100
795.600	-7.612	0.100
795.700	22.887	0.100
795.800	11.794	0.100
795.900	15.186	0.100
796.000	13.624	0.100
796.100	4.233	0.100
796.200	15.493	0.100
796.300	12.088	0.100
796.400	24.344	0.100
796.500	3.712	0.100
796.600	20.179	0.100
796.700	34.872	0.100
796.800	14.823	0.100
796.900	22.008	0.100
797.000	8.446	0.100
797.100	22.112	0.100
797.200	11.547	0.100
797.300	22.624	0.100
797.400	24.505	0.100
797.500	32.672	0.100
797.600	24.163	0.100
797.700	16.555	0.100
797.800	11.274	0.100
797.900	28.840	0.100
798.000	24.534	0.100
798.100	12.001	0.100
798.200	22.443	0.100
798.300	17.829	0.100
798.400	36.059	0.100
798.500	24.778	0.100
798.600	13.687	0.100
798.700	-11.867	0.100
798.800	21.371	0.100
798.900	52.866	0.100
799.000	23.110	0.100
799.100	20.896	0.100
799.200	36.704	0.100
799.300	15.099	0.100
799.400	23.987	0.100
799.500	38.845	0.100
799.600	38.189	0.100
799.700	29.234	0.100
799.800	23.403	0.100
799.900	28.417	0.100
800.000	9.238	0.100
