time /s	I /nA	E /V
0.100	-6.296	0.100
0.200	-5.757	0.100
0.300	5.650	0.100
0.400	9.061	0.100
0.500	-7.520	0.100
0.600	12.571	0.100
0.700	4.286	0.100
0.800	-5.715	0.100
0.900	-9.919	0.100
1.000	9.317	0.100
1.100	-5.735	0.100
1.200	9.495	0.100
1.300	-10.350	0.100
1.400	-4.738	0.100
1.500	-6.548	0.100
1.600	-6.436	0.100
1.700	-1.084	0.100
1.800	-7.443	0.100
1.900	0.401	0.100
2.000	-5.371	0.100
2.100	-11.771	0.100
2.200	9.182	0.100
2.300	3.782	0.100
2.400	-2.144	0.100
2.500	0.654	0.100
2.600	-2.517	0.100
2.700	-3.012	0.100
2.800	-11.370	0.100
2.900	12.409	0.100
3.000	0.967	0.100
3.100	-10.309	0.100
3.200	-2.504	0.100
3.300	22.428	0.100
3.400	0.153	0.100
3.500	-7.194	0.100
3.600	3.037	0.100
3.700	6.932	0.100
3.800	-6.515	0.100
3.900	4.477	0.100
4.000	2.591	0.100
4.100	-1.435	0.100
4.200	-4.812	0.100
4.300	-4.754	0.100
4.400	-4.393	0.100
4.500	-11.074	0.100
4.600	-2.493	0.100
4.700	6.742	0.100
4.800	-2.345	0.100
4.900	-1.337	0.100
5.000	-21.966	0.100
5.100	-11.629	0.100
5.200	-8.042	0.100
5.300	-6.016	0.100
5.400	1.155	0.100
5.500	4.910	0.100
5.600	-2.848	0.100
5.700	-2.068	0.100
5.800	-9.730	0.100
5.900	-3.164	0.100
6.000	-8.482	0.100
6.100	2.306	0.100
6.200	2.136	0.100
6.300	-4.818	0.100
6.400	-2.599	0.100
6.500	-7.972	0.100
6.600	2.871	0.100
6.700	13.681	0.100
6.800	-6.712	0.100
6.900	-11.568	0.100
7.000	-2.820	0.100
7.100	4.094	0.100
7.200	8.319	0.100
7.300	-2.991	0.100
7.400	-2.271	0.100
7.500	-4.500	0.100
7.600	-0.606	0.100
7.700	-5.743	0.100
7.800	-3.705	0.100
7.900	-17.955	0.100
8.000	-21.642	0.100
8.100	-6.056	0.100
8.200	12.487	0.100
8.300	-5.301	0.100
8.400	-9.759	0.100
8.500	-6.714	0.100
8.600	-24.136	0.100
8.700	-7.054	0.100
8.800	11.190	0.100
8.900	4.911	0.100
9.000	11.353	0.100
9.100	13.148	0.100
9.200	-1.156	0.100
9.300	5.269	0.100
9.400	-7.007	0.100
9.500	-7.224	0.100
9.600	-3.257	0.100
9.700	-2.707	0.100
9.800	3.432	0.100
9.900	-5.885	0.100
10.000	-16.684	0.100
10.100	-2.299	0.100
10.200	-4.008	0.100
10.300	-4.766	0.100
10.400	-1.471	0.100
10.500	-6.144	0.100
10.600	-9.610	0.100
10.700	-2.117	0.100
10.800	4.765	0.100
10.900	4.644	0.100
11.000	-12.275	0.100
11.100	1.322	0.100
11.200	5.028	0.100
11.300	4.950	0.100
11.400	2.148	0.100
11.500	2.713	0.100
11.600	0.079	0.100
11.700	-5.427	0.100
11.800	-0.661	0.100
11.900	-5.574	0.100
12.000	-5.782	0.100
12.100	-5.214	0.100
12.200	-14.936	0.100
12.300	4.942	0.100
12.400	-5.392	0.100
12.500	-13.027	0.100
12.600	-1.565	0.100
12.700	28.397	0.100
12.800	-3.107	0.100
12.900	-10.728	0.100
13.000	1.416	0.100
13.100	-3.453	0.100
13.200	1.760	0.100
13.300	0.761	0.100
13.400	2.024	0.100
13.500	-11.200	0.100
13.600	-3.353	0.100
13.700	-4.694	0.100
13.800	-2.381	0.100
13.900	6.367	0.100
14.000	-9.657	0.100
14.100	-15.401	0.100
14.200	-1.884	0.100
14.300	-0.571	0.100
14.400	0.346	0.100
14.500	-12.336	0.100
14.600	-5.593	0.100
14.700	-22.690	0.100
14.800	-1.952	0.100
14.900	17.296	0.100
15.000	11.899	0.100
15.100	0.788	0.100
15.200	9.132	0.100
15.300	-14.672	0.100
15.400	-2.482	0.100
15.500	-2.656	0.100
15.600	1.465	0.100
15.700	0.155	0.100
15.800	-11.754	0.100
15.900	-6.545	0.100
16.000	2.062	0.100
16.100	-0.683	0.100
16.200	-0.510	0.100
16.300	0.139	0.100
16.400	-3.024	0.100
16.500	-8.942	0.100
16.600	7.137	0.100
16.700	12.134	0.100
16.800	-2.366	0.100
16.900	-5.871	0.100
17.000	-9.208	0.100
17.100	1.464	0.100
17.200	0.625	0.100
17.300	-14.920	0.100
17.400	0.691	0.100
17.500	-7.153	0.100
17.600	-7.928	0.100
17.700	-4.957	0.100
17.800	5.082	0.100
17.900	10.796	0.100
18.000	5.276	0.100
18.100	2.573	0.100
18.200	4.690	0.100
18.300	-2.305	0.100
18.400	-12.490	0.100
18.500	-20.203	0.100
18.600	11.959	0.100
18.700	11.892	0.100
18.800	-10.765	0.100
18.900	-8.042	0.100
19.000	-9.698	0.100
19.100	2.028	0.100
19.200	-1.901	0.100
19.300	9.325	0.100
19.400	-0.377	0.100
19.500	-7.409	0.100
19.600	-13.308	0.100
19.700	4.180	0.100
19.800	-7.073	0.100
19.900	0.181	0.100
20.000	-4.263	0.100
20.100	-3.446	0.100
20.200	5.947	0.100
20.300	10.974	0.100
20.400	-3.991	0.100
20.500	-4.878	0.100
20.600	-3.805	0.100
20.700	-5.950	0.100
20.800	-0.785	0.100
20.900	-8.897	0.100
21.000	-10.803	0.100
21.100	-9.318	0.100
21.200	9.611	0.100
21.300	-5.426	0.100
21.400	2.192	0.100
21.500	2.590	0.100
21.600	9.466	0.100
21.700	2.710	0.100
21.800	-6.838	0.100
21.900	-7.244	0.100
22.000	-6.785	0.100
22.100	1.680	0.100
22.200	-13.500	0.100
22.300	14.044	0.100
22.400	0.197	0.100
22.500	0.973	0.100
22.600	-12.724	0.100
22.700	6.687	0.100
22.800	-1.014	0.100
22.900	2.533	0.100
23.000	6.732	0.100
23.100	1.973	0.100
23.200	-12.583	0.100
23.300	-6.591	0.100
23.400	6.126	0.100
23.500	-4.873	0.100
23.600	-5.596	0.100
23.700	-11.611	0.100
23.800	-6.405	0.100
23.900	-0.234	0.100
24.000	-4.088	0.100
24.100	-9.044	0.100
24.200	-3.117	0.100
24.300	-11.332	0.100
24.400	6.947	0.100
24.500	2.374	0.100
24.600	-3.887	0.100
24.700	1.437	0.100
24.800	11.505	0.100
24.900	3.207	0.100
25.000	-4.792	0.100
25.100	-0.046	0.100
25.200	1.539	0.100
25.300	-7.173	0.100
25.400	-2.475	0.100
25.500	-5.320	0.100
25.600	-5.960	0.100
25.700	5.626	0.100
25.800	2.401	0.100
25.900	-17.257	0.100
26.000	-1.257	0.100
26.100	-11.514	0.100
26.200	9.330	0.100
26.300	8.834	0.100
26.400	3.384	0.100
26.500	2.256	0.100
26.600	-3.026	0.100
26.700	-7.904	0.100
26.800	-11.323	0.100
26.900	-1.067	0.100
27.000	2.504	0.100
27.100	1.725	0.100
27.200	-10.750	0.100
27.300	-9.295	0.100
27.400	-26.505	0.100
27.500	3.632	0.100
27.600	-3.108	0.100
27.700	-1.415	0.100
27.800	9.086	0.100
27.900	7.831	0.100
28.000	7.841	0.100
28.100	2.768	0.100
28.200	-8.612	0.100
28.300	0.993	0.100
28.400	-3.439	0.100
28.500	-12.046	0.100
28.600	6.532	0.100
28.700	-8.081	0.100
28.800	-0.166	0.100
28.900	6.890	0.100
29.000	-0.546	0.100
29.100	9.434	0.100
29.200	-6.565	0.100
29.300	2.123	0.100
29.400	-4.749	0.100
29.500	2.101	0.100
29.600	0.395	0.100
29.700	4.404	0.100
29.800	-6.567	0.100
29.900	13.467	0.100
30.000	-12.178	0.100
30.100	-4.602	0.100
30.200	-4.164	0.100
30.300	-4.653	0.100
30.400	-13.692	0.100
30.500	-2.475	0.100
30.600	17.733	0.100
30.700	10.347	0.100
30.800	1.245	0.100
30.900	0.936	0.100
31.000	2.889	0.100
31.100	-17.625	0.100
31.200	-5.070	0.100
31.300	15.463	0.100
31.400	6.669	0.100
31.500	9.383	0.100
31.600	11.213	0.100
31.700	21.504	0.100
31.800	14.688	0.100
31.900	15.314	0.100
32.000	6.886	0.100
32.100	0.838	0.100
32.200	-4.570	0.100
32.300	-1.849	0.100
32.400	12.340	0.100
32.500	18.810	0.100
32.600	13.670	0.100
32.700	20.395	0.100
32.800	9.254	0.100
32.900	11.875	0.100
33.000	24.149	0.100
33.100	12.319	0.100
33.200	18.056	0.100
33.300	12.282	0.100
33.400	17.804	0.100
33.500	29.188	0.100
33.600	28.847	0.100
33.700	22.984	0.100
33.800	30.467	0.100
33.900	26.614	0.100
34.000	12.283	0.100
34.100	29.613	0.100
34.200	28.888	0.100
34.300	23.701	0.100
34.400	6.472	0.100
34.500	40.675	0.100
34.600	33.470	0.100
34.700	40.104	0.100
34.800	40.045	0.100
34.900	33.499	0.100
35.000	31.482	0.100
35.100	29.529	0.100
35.200	43.022	0.100
35.300	23.634	0.100
35.400	38.327	0.100
35.500	30.342	0.100
35.600	37.672	0.100
35.700	29.902	0.100
35.800	33.882	0.100
35.900	24.017	0.100
36.000	25.542	0.100
36.100	43.248	0.100
36.200	43.306	0.100
36.300	35.277	0.100
36.400	32.965	0.100
36.500	25.471	0.100
36.600	35.090	0.100
36.700	37.449	0.100
36.800	41.522	0.100
36.900	42.072	0.100
37.000	38.996	0.100
37.100	36.953	0.100
37.200	39.265	0.100
37.300	24.975	0.100
37.400	30.733	0.100
37.500	50.948	0.100
37.600	51.092	0.100
37.700	39.605	0.100
37.800	31.521	0.100
37.900	40.017	0.100
38.000	43.563	0.100
38.100	46.431	0.100
38.200	34.456	0.100
38.300	26.677	0.100
38.400	29.321	0.100
38.500	46.273	0.100
38.600	43.072	0.100
38.700	30.257	0.100
38.800	41.199	0.100
38.900	50.387	0.100
39.000	53.393	0.100
39.100	49.458	0.100
39.200	42.749	0.100
39.300	40.850	0.100
39.400	35.863	0.100
39.500	25.505	0.100
39.600	27.021	0.100
39.700	43.191	0.100
39.800	40.528	0.100
39.900	39.310	0.100
40.000	36.918	0.100
40.100	56.601	0.100
40.200	48.601	0.100
40.300	44.540	0.100
40.400	40.648	0.100
40.500	47.829	0.100
40.600	42.021	0.100
40.700	42.146	0.100
40.800	46.999	0.100
40.900	28.041	0.100
41.000	36.377	0.100
41.100	55.567	0.100
41.200	44.044	0.100
41.300	37.564	0.100
41.400	33.224	0.100
41.500	42.545	0.100
41.600	35.757	0.100
41.700	47.473	0.100
41.800	51.496	0.100
41.900	24.085	0.100
42.000	40.080	0.100
42.100	54.535	0.100
42.200	56.503	0.100
42.300	44.454	0.100
42.400	44.353	0.100
42.500	49.928	0.100
42.600	40.105	0.100
42.700	23.798	0.100
42.800	39.815	0.100
42.900	45.025	0.100
43.000	37.231	0.100
43.100	52.238	0.100
43.200	46.962	0.100
43.300	52.473	0.100
43.400	27.176	0.100
43.500	41.244	0.100
43.600	32.710	0.100
43.700	56.792	0.100
43.800	35.445	0.100
43.900	42.078	0.100
44.000	35.345	0.100
44.100	28.356	0.100
44.200	44.750	0.100
44.300	41.186	0.100
44.400	41.181	0.100
44.500	43.693	0.100
44.600	35.860	0.100
44.700	39.999	0.100
44.800	36.218	0.100
44.900	15.598	0.100
45.000	38.638	0.100
45.100	48.190	0.100
45.200	43.608	0.100
45.300	49.124	0.100
45.400	35.412	0.100
45.500	35.699	0.100
45.600	31.831	0.100
45.700	59.227	0.100
45.800	41.359	0.100
45.900	43.299	0.100
46.000	37.020	0.100
46.100	31.846	0.100
46.200	25.781	0.100
46.300	38.780	0.100
46.400	37.943	0.100
46.500	52.523	0.100
46.600	46.986	0.100
46.700	51.056	0.100
46.800	37.147	0.100
46.900	35.292	0.100
47.000	36.927	0.100
47.100	30.675	0.100
47.200	52.705	0.100
47.300	45.742	0.100
47.400	48.453	0.100
47.500	39.563	0.100
47.600	34.464	0.100
47.700	41.138	0.100
47.800	49.253	0.100
47.900	29.324	0.100
48.000	30.556	0.100
48.100	39.678	0.100
48.200	41.104	0.100
48.300	49.702	0.100
48.400	38.473	0.100
48.500	45.612	0.100
48.600	44.046	0.100
48.700	26.149	0.100
48.800	28.036	0.100
48.900	51.274	0.100
49.000	41.243	0.100
49.100	35.584	0.100
49.200	47.275	0.100
49.300	33.967	0.100
49.400	31.563	0.100
49.500	36.780	0.100
49.600	46.060	0.100
49.700	36.858	0.100
49.800	53.427	0.100
49.900	40.781	0.100
50.000	38.538	0.100
50.100	26.715	0.100
50.200	39.287	0.100
50.300	41.074	0.100
50.400	39.377	0.100
50.500	45.220	0.100
50.600	43.164	0.100
50.700	27.671	0.100
50.800	35.077	0.100
50.900	50.098	0.100
51.000	40.120	0.100
51.100	47.890	0.100
51.200	33.473	0.100
51.300	50.695	0.100
51.400	44.586	0.100
51.500	37.364	0.100
51.600	44.091	0.100
51.700	39.500	0.100
51.800	37.235	0.100
51.900	44.272	0.100
52.000	28.927	0.100
52.100	42.315	0.100
52.200	52.254	0.100
52.300	30.522	0.100
52.400	43.075	0.100
52.500	43.748	0.100
52.600	38.344	0.100
52.700	24.027	0.100
52.800	57.772	0.100
52.900	49.647	0.100
53.000	39.726	0.100
53.100	31.054	0.100
53.200	31.937	0.100
53.300	60.705	0.100
53.400	38.172	0.100
53.500	38.972	0.100
53.600	46.733	0.100
53.700	42.297	0.100
53.800	28.852	0.100
53.900	47.388	0.100
54.000	43.391	0.100
54.100	41.775	0.100
54.200	28.318	0.100
54.300	41.529	0.100
54.400	45.069	0.100
54.500	36.627	0.100
54.600	40.788	0.100
54.700	35.959	0.100
54.800	47.824	0.100
54.900	48.310	0.100
55.000	42.025	0.100
55.100	40.138	0.100
55.200	43.448	0.100
55.300	35.278	0.100
55.400	36.737	0.100
55.500	42.613	0.100
55.600	54.129	0.100
55.700	50.370	0.100
55.800	37.174	0.100
55.900	50.960	0.100
56.000	44.519	0.100
56.100	41.987	0.100
56.200	41.347	0.100
56.300	41.050	0.100
56.400	38.669	0.100
56.500	46.097	0.100
56.600	37.396	0.100
56.700	35.538	0.100
56.800	39.830	0.100
56.900	50.861	0.100
57.000	34.370	0.100
57.100	33.014	0.100
57.200	47.452	0.100
57.300	47.511	0.100
57.400	42.662	0.100
57.500	52.997	0.100
57.600	35.525	0.100
57.700	47.392	0.100
57.800	31.782	0.100
57.900	40.886	0.100
58.000	37.821	0.100
58.100	48.082	0.100
58.200	47.328	0.100
58.300	40.032	0.100
58.400	52.681	0.100
58.500	39.576	0.100
58.600	29.352	0.100
58.700	30.776	0.100
58.800	49.751	0.100
58.900	36.266	0.100
59.000	33.034	0.100
59.100	36.376	0.100
59.200	49.898	0.100
59.300	35.528	0.100
59.400	50.053	0.100
59.500	48.453	0.100
59.600	39.838	0.100
59.700	36.403	0.100
59.800	51.330	0.100
59.900	41.043	0.100
60.000	34.174	0.100
60.100	44.367	0.100
60.200	49.305	0.100
60.300	38.719	0.100
60.400	47.206	0.100
60.500	38.774	0.100
60.600	49.233	0.100
60.700	33.888	0.100
60.800	50.499	0.100
60.900	33.493	0.100
61.000	38.164	0.100
61.100	48.626	0.100
61.200	42.663	0.100
61.300	54.226	0.100
61.400	56.588	0.100
61.500	47.797	0.100
61.600	45.937	0.100
61.700	27.734	0.100
61.800	34.567	0.100
61.900	42.914	0.100
62.000	48.300	0.100
62.100	51.044	0.100
62.200	30.050	0.100
62.300	35.008	0.100
62.400	43.411	0.100
62.500	41.163	0.100
62.600	33.574	0.100
62.700	45.352	0.100
62.800	59.589	0.100
62.900	46.402	0.100
63.000	37.471	0.100
63.100	44.383	0.100
63.200	45.514	0.100
63.300	39.616	0.100
63.400	30.901	0.100
63.500	53.180	0.100
63.600	45.891	0.100
63.700	52.209	0.100
63.800	55.108	0.100
63.900	47.168	0.100
64.000	39.967	0.100
64.100	40.786	0.100
64.200	31.617	0.100
64.300	47.505	0.100
64.400	33.966	0.100
64.500	22.181	0.100
64.600	52.214	0.100
64.700	48.113	0.100
64.800	55.027	0.100
64.900	42.680	0.100
65.000	48.134	0.100
65.100	33.379	0.100
65.200	44.721	0.100
65.300	44.762	0.100
65.400	43.939	0.100
65.500	50.598	0.100
65.600	56.519	0.100
65.700	59.768	0.100
65.800	31.116	0.100
65.900	37.603	0.100
66.000	43.452	0.100
66.100	41.081	0.100
66.200	35.084	0.100
66.300	43.242	0.100
66.400	46.204	0.100
66.500	44.231	0.100
66.600	37.351	0.100
66.700	37.067	0.100
66.800	39.170	0.100
66.900	55.385	0.100
67.000	49.978	0.100
67.100	50.820	0.100
67.200	49.775	0.100
67.300	51.685	0.100
67.400	39.002	0.100
67.500	50.798	0.100
67.600	43.860	0.100
67.700	51.688	0.100
67.800	41.077	0.100
67.900	45.166	0.100
68.000	52.384	0.100
68.100	48.971	0.100
68.200	39.695	0.100
68.300	46.784	0.100
68.400	40.642	0.100
68.500	39.309	0.100
68.600	34.035	0.100
68.700	26.626	0.100
68.800	54.737	0.100
68.900	50.529	0.100
69.000	36.823	0.100
69.100	42.845	0.100
69.200	42.692	0.100
69.300	31.958	0.100
69.400	56.681	0.100
69.500	49.645	0.100
69.600	48.975	0.100
69.700	53.482	0.100
69.800	51.913	0.100
69.900	47.677	0.100
70.000	35.107	0.100
70.100	46.764	0.100
70.200	34.681	0.100
70.300	56.990	0.100
70.400	53.764	0.100
70.500	35.801	0.100
70.600	52.777	0.100
70.700	46.309	0.100
70.800	58.577	0.100
70.900	61.512	0.100
71.000	63.959	0.100
71.100	46.289	0.100
71.200	51.341	0.100
71.300	45.330	0.100
71.400	52.783	0.100
71.500	55.570	0.100
71.600	45.525	0.100
71.700	34.134	0.100
71.800	47.232	0.100
71.900	57.267	0.100
72.000	49.918	0.100
72.100	42.716	0.100
72.200	44.993	0.100
72.300	58.793	0.100
72.400	45.973	0.100
72.500	38.036	0.100
72.600	60.474	0.100
72.700	54.794	0.100
72.800	50.993	0.100
72.900	35.601	0.100
73.000	44.127	0.100
73.100	52.646	0.100
73.200	51.921	0.100
73.300	43.793	0.100
73.400	48.812	0.100
73.500	56.678	0.100
73.600	56.384	0.100
73.700	47.262	0.100
73.800	43.758	0.100
73.900	58.220	0.100
74.000	51.818	0.100
74.100	40.728	0.100
74.200	39.518	0.100
74.300	44.612	0.100
74.400	39.655	0.100
74.500	41.100	0.100
74.600	42.144	0.100
74.700	49.586	0.100
74.800	50.579	0.100
74.900	51.676	0.100
75.000	53.100	0.100
75.100	37.512	0.100
75.200	58.795	0.100
75.300	51.050	0.100
75.400	42.491	0.100
75.500	47.601	0.100
75.600	51.668	0.100
75.700	43.227	0.100
75.800	52.117	0.100
75.900	45.874	0.100
76.000	57.603	0.100
76.100	46.890	0.100
76.200	61.555	0.100
76.300	45.692	0.100
76.400	52.988	0.100
76.500	60.031	0.100
76.600	50.481	0.100
76.700	43.765	0.100
76.800	51.544	0.100
76.900	56.360	0.100
77.000	48.057	0.100
77.100	56.173	0.100
77.200	43.192	0.100
77.300	51.480	0.100
77.400	59.962	0.100
77.500	55.900	0.100
77.600	56.203	0.100
77.700	54.148	0.100
77.800	47.722	0.100
77.900	45.533	0.100
78.000	59.224	0.100
78.100	43.329	0.100
78.200	46.578	0.100
78.300	53.423	0.100
78.400	54.878	0.100
78.500	44.734	0.100
78.600	46.933	0.100
78.700	51.452	0.100
78.800	55.975	0.100
78.900	54.094	0.100
79.000	34.941	0.100
79.100	51.461	0.100
79.200	49.178	0.100
79.300	65.921	0.100
79.400	60.378	0.100
79.500	40.013	0.100
79.600	53.376	0.100
79.700	54.507	0.100
79.800	54.650	0.100
79.900	59.223	0.100
80.000	51.235	0.100
80.100	56.735	0.100
80.200	41.865	0.100
80.300	62.292	0.100
80.400	35.690	0.100
80.500	38.142	0.100
80.600	42.512	0.100
80.700	54.432	0.100
80.800	60.651	0.100
80.900	57.262	0.100
81.000	46.924	0.100
81.100	47.362	0.100
81.200	46.023	0.100
81.300	46.408	0.100
81.400	57.260	0.100
81.500	43.761	0.100
81.600	51.093	0.100
81.700	54.237	0.100
81.800	59.381	0.100
81.900	54.482	0.100
82.000	58.291	0.100
82.100	43.011	0.100
82.200	48.369	0.100
82.300	58.212	0.100
82.400	57.154	0.100
82.500	56.262	0.100
82.600	58.093	0.100
82.700	40.353	0.100
82.800	45.231	0.100
82.900	52.504	0.100
83.000	56.133	0.100
83.100	55.994	0.100
83.200	55.671	0.100
83.300	52.668	0.100
83.400	54.782	0.100
83.500	51.186	0.100
83.600	43.741	0.100
83.700	44.212	0.100
83.800	55.990	0.100
83.900	51.003	0.100
84.000	57.213	0.100
84.100	45.190	0.100
84.200	46.254	0.100
84.300	55.137	0.100
84.400	60.431	0.100
84.500	65.506	0.100
84.600	61.696	0.100
84.700	39.423	0.100
84.800	46.145	0.100
84.900	49.972	0.100
85.000	59.590	0.100
85.100	62.405	0.100
85.200	53.822	0.100
85.300	54.843	0.100
85.400	61.362	0.100
85.500	54.872	0.100
85.600	57.306	0.100
85.700	49.100	0.100
85.800	51.347	0.100
85.900	61.375	0.100
86.000	52.587	0.100
86.100	54.344	0.100
86.200	38.912	0.100
86.300	51.354	0.100
86.400	66.075	0.100
86.500	67.621	0.100
86.600	52.816	0.100
86.700	47.721	0.100
86.800	57.764	0.100
86.900	48.354	0.100
87.000	63.498	0.100
87.100	62.803	0.100
87.200	53.490	0.100
87.300	49.921	0.100
87.400	49.425	0.100
87.500	59.265	0.100
87.600	55.545	0.100
87.700	41.449	0.100
87.800	37.517	0.100
87.900	64.531	0.100
88.000	50.743	0.100
88.100	61.487	0.100
88.200	64.525	0.100
88.300	59.825	0.100
88.400	71.471	0.100
88.500	55.624	0.100
88.600	45.414	0.100
88.700	40.303	0.100
88.800	40.742	0.100
88.900	64.596	0.100
89.000	55.440	0.100
89.100	50.255	0.100
89.200	63.530	0.100
89.300	49.333	0.100
89.400	55.720	0.100
89.500	46.168	0.100
89.600	55.313	0.100
89.700	55.387	0.100
89.800	68.603	0.100
89.900	46.800	0.100
90.000	60.051	0.100
90.100	62.154	0.100
90.200	62.976	0.100
90.300	49.071	0.100
90.400	60.107	0.100
90.500	51.837	0.100
90.600	51.165	0.100
90.700	61.914	0.100
90.800	46.253	0.100
90.900	47.141	0.100
91.000	46.530	0.100
91.100	52.509	0.100
91.200	62.110	0.100
91.300	43.649	0.100
91.400	50.956	0.100
91.500	57.915	0.100
91.600	45.082	0.100
91.700	49.237	0.100
91.800	47.882	0.100
91.900	39.187	0.100
92.000	45.281	0.100
92.100	43.836	0.100
92.200	37.000	0.100
92.300	33.652	0.100
92.400	50.142	0.100
92.500	50.580	0.100
92.600	23.701	0.100
92.700	49.620	0.100
92.800	43.932	0.100
92.900	26.176	0.100
93.000	39.327	0.100
93.100	40.750	0.100
93.200	39.258	0.100
93.300	35.342	0.100
93.400	32.931	0.100
93.500	25.594	0.100
93.600	30.719	0.100
93.700	22.904	0.100
93.800	14.111	0.100
93.900	20.280	0.100
94.000	26.976	0.100
94.100	22.394	0.100
94.200	28.125	0.100
94.300	27.846	0.100
94.400	15.205	0.100
94.500	24.318	0.100
94.600	24.230	0.100
94.700	21.544	0.100
94.800	25.341	0.100
94.900	15.432	0.100
95.000	6.940	0.100
95.100	25.094	0.100
95.200	1.741	0.100
95.300	29.340	0.100
95.400	17.466	0.100
95.500	7.280	0.100
95.600	31.132	0.100
95.700	25.505	0.100
95.800	22.146	0.100
95.900	8.536	0.100
96.000	8.293	0.100
96.100	18.963	0.100
96.200	18.756	0.100
96.300	25.973	0.100
96.400	3.465	0.100
96.500	11.929	0.100
96.600	12.751	0.100
96.700	22.472	0.100
96.800	21.971	0.100
96.900	17.354	0.100
97.000	27.941	0.100
97.100	14.891	0.100
97.200	-4.745	0.100
97.300	-3.514	0.100
97.400	8.304	0.100
97.500	3.660	0.100
97.600	9.885	0.100
97.700	5.175	0.100
97.800	12.463	0.100
97.900	15.285	0.100
98.000	4.628	0.100
98.100	-13.131	0.100
98.200	3.839	0.100
98.300	10.749	0.100
98.400	21.740	0.100
98.500	7.517	0.100
98.600	-3.032	0.100
98.700	5.525	0.100
98.800	10.054	0.100
98.900	1.718	0.100
99.000	22.114	0.100
99.100	15.758	0.100
99.200	-0.429	0.100
99.300	-1.335	0.100
99.400	-0.926	0.100
99.500	-2.125	0.100
99.600	-9.209	0.100
99.700	1.705	0.100
99.800	-9.304	0.100
99.900	-1.891	0.100
100.000	1.915	0.100
100.100	-5.241	0.100
100.200	5.476	0.100
100.300	9.894	0.100
100.400	-11.128	0.100
100.500	-1.865	0.100
100.600	15.564	0.100
100.700	6.980	0.100
100.800	6.259	0.100
100.900	9.627	0.100
101.000	6.018	0.100
101.100	-6.185	0.100
101.200	4.845	0.100
101.300	15.414	0.100
101.400	7.382	0.100
101.500	-3.840	0.100
101.600	18.576	0.100
101.700	16.472	0.100
101.800	-4.953	0.100
101.900	3.650	0.100
102.000	15.820	0.100
102.100	10.960	0.100
102.200	-2.613	0.100
102.300	4.282	0.100
102.400	-5.635	0.100
102.500	1.753	0.100
102.600	15.519	0.100
102.700	-9.216	0.100
102.800	-16.202	0.100
102.900	1.206	0.100
103.000	25.004	0.100
103.100	-1.203	0.100
103.200	6.354	0.100
103.300	10.818	0.100
103.400	-5.168	0.100
103.500	3.385	0.100
103.600	-2.659	0.100
103.700	7.790	0.100
103.800	-1.816	0.100
103.900	-6.450	0.100
104.000	6.266	0.100
104.100	12.683	0.100
104.200	-25.102	0.100
104.300	0.733	0.100
104.400	3.696	0.100
104.500	0.579	0.100
104.600	12.670	0.100
104.700	10.243	0.100
104.800	2.581	0.100
104.900	-7.885	0.100
105.000	-1.488	0.100
105.100	2.605	0.100
105.200	10.135	0.100
105.300	9.386	0.100
105.400	16.792	0.100
105.500	0.177	0.100
105.600	-1.734	0.100
105.700	5.793	0.100
105.800	-1.044	0.100
105.900	-2.234	0.100
106.000	-7.323	0.100
106.100	19.867	0.100
106.200	13.439	0.100
106.300	9.106	0.100
106.400	2.730	0.100
106.500	-7.426	0.100
106.600	4.545	0.100
106.700	10.688	0.100
106.800	3.340	0.100
106.900	-9.402	0.100
107.000	-13.526	0.100
107.100	-3.344	0.100
107.200	7.405	0.100
107.300	-2.835	0.100
107.400	15.697	0.100
107.500	-1.394	0.100
107.600	10.933	0.100
107.700	-1.929	0.100
107.800	-4.231	0.100
107.900	15.635	0.100
108.000	6.019	0.100
108.100	-26.184	0.100
108.200	-11.983	0.100
108.300	-7.227	0.100
108.400	6.502	0.100
108.500	-2.059	0.100
108.600	1.096	0.100
108.700	-8.035	0.100
108.800	11.028	0.100
108.900	3.626	0.100
109.000	3.250	0.100
109.100	21.259	0.100
109.200	2.077	0.100
109.300	-0.334	0.100
109.400	-3.719	0.100
109.500	7.763	0.100
109.600	4.573	0.100
109.700	-5.624	0.100
109.800	-2.900	0.100
109.900	-8.758	0.100
110.000	-0.041	0.100
110.100	6.394	0.100
110.200	8.381	0.100
110.300	-1.100	0.100
110.400	-3.747	0.100
110.500	-12.120	0.100
110.600	-14.942	0.100
110.700	-7.680	0.100
110.800	21.307	0.100
110.900	15.354	0.100
111.000	4.099	0.100
111.100	-2.421	0.100
111.200	-0.518	0.100
111.300	8.553	0.100
111.400	0.965	0.100
111.500	5.003	0.100
111.600	-7.957	0.100
111.700	-4.711	0.100
111.800	7.772	0.100
111.900	-0.094	0.100
112.000	-13.916	0.100
112.100	-8.111	0.100
112.200	0.767	0.100
112.300	4.341	0.100
112.400	0.981	0.100
112.500	7.422	0.100
112.600	-3.482	0.100
112.700	5.624	0.100
112.800	-0.512	0.100
112.900	-2.904	0.100
113.000	-3.568	0.100
113.100	-0.186	0.100
113.200	4.893	0.100
113.300	-9.414	0.100
113.400	-0.915	0.100
113.500	-2.214	0.100
113.600	-0.080	0.100
113.700	-14.561	0.100
113.800	4.819	0.100
113.900	2.410	0.100
114.000	-1.181	0.100
114.100	-6.831	0.100
114.200	10.889	0.100
114.300	-2.535	0.100
114.400	7.745	0.100
114.500	-6.203	0.100
114.600	9.213	0.100
114.700	-6.110	0.100
114.800	2.011	0.100
114.900	3.831	0.100
115.000	-6.082	0.100
115.100	-4.282	0.100
115.200	2.757	0.100
115.300	-4.874	0.100
115.400	-3.497	0.100
115.500	-5.936	0.100
115.600	4.522	0.100
115.700	-9.044	0.100
115.800	1.044	0.100
115.900	5.324	0.100
116.000	-1.584	0.100
116.100	-5.114	0.100
116.200	12.851	0.100
116.300	5.651	0.100
116.400	-4.069	0.100
116.500	7.427	0.100
116.600	-2.622	0.100
116.700	6.188	0.100
116.800	-9.495	0.100
116.900	8.210	0.100
117.000	-8.178	0.100
117.100	9.251	0.100
117.200	-0.690	0.100
117.300	0.169	0.100
117.400	6.324	0.100
117.500	4.786	0.100
117.600	13.658	0.100
117.700	-9.418	0.100
117.800	-11.321	0.100
117.900	2.172	0.100
118.000	-10.146	0.100
118.100	-3.856	0.100
118.200	-5.398	0.100
118.300	-4.253	0.100
118.400	-0.368	0.100
118.500	-2.373	0.100
118.600	-5.500	0.100
118.700	-0.706	0.100
118.800	-0.854	0.100
118.900	-4.774	0.100
119.000	0.776	0.100
119.100	4.546	0.100
119.200	1.644	0.100
119.300	-13.585	0.100
119.400	-7.543	0.100
119.500	-0.909	0.100
119.600	-1.958	0.100
119.700	-2.088	0.100
119.800	-9.487	0.100
119.900	-7.388	0.100
120.000	-14.849	0.100
120.100	-3.321	0.100
120.200	-5.729	0.100
120.300	8.948	0.100
120.400	-1.517	0.100
120.500	-0.777	0.100
120.600	-2.016	0.100
120.700	2.631	0.100
120.800	10.068	0.100
120.900	3.993	0.100
121.000	2.996	0.100
121.100	-12.072	0.100
121.200	8.039	0.100
121.300	6.643	0.100
121.400	-0.924	0.100
121.500	-3.116	0.100
121.600	-2.787	0.100
121.700	-3.059	0.100
121.800	-2.451	0.100
121.900	-3.049	0.100
122.000	-2.501	0.100
122.100	-14.322	0.100
122.200	-0.105	0.100
122.300	0.667	0.100
122.400	-4.820	0.100
122.500	-6.696	0.100
122.600	-16.169	0.100
122.700	-1.304	0.100
122.800	1.719	0.100
122.900	11.096	0.100
123.000	3.085	0.100
123.100	-11.333	0.100
123.200	-11.471	0.100
123.300	-9.511	0.100
123.400	0.852	0.100
123.500	-12.125	0.100
123.600	0.293	0.100
123.700	-12.597	0.100
123.800	-5.912	0.100
123.900	9.311	0.100
124.000	13.477	0.100
124.100	-7.682	0.100
124.200	-12.197	0.100
124.300	-5.350	0.100
124.400	-3.021	0.100
124.500	-0.674	0.100
124.600	-6.844	0.100
124.700	-15.343	0.100
124.800	-4.625	0.100
124.900	3.783	0.100
125.000	-2.603	0.100
125.100	9.819	0.100
125.200	-2.564	0.100
125.300	-9.022	0.100
125.400	-3.636	0.100
125.500	-8.199	0.100
125.600	-15.522	0.100
125.700	-7.839	0.100
125.800	-1.398	0.100
125.900	-6.352	0.100
126.000	-3.296	0.100
126.100	-4.780	0.100
126.200	-2.254	0.100
126.300	-1.876	0.100
126.400	-10.478	0.100
126.500	-19.387	0.100
126.600	-7.474	0.100
126.700	-1.140	0.100
126.800	-20.300	0.100
126.900	6.312	0.100
127.000	-9.509	0.100
127.100	-3.490	0.100
127.200	-4.005	0.100
127.300	2.097	0.100
127.400	-3.116	0.100
127.500	-3.479	0.100
127.600	-6.054	0.100
127.700	4.183	0.100
127.800	6.411	0.100
127.900	-1.989	0.100
128.000	-16.257	0.100
128.100	3.391	0.100
128.200	6.711	0.100
128.300	-13.064	0.100
128.400	-2.995	0.100
128.500	-11.740	0.100
128.600	-10.245	0.100
128.700	5.535	0.100
128.800	-9.298	0.100
128.900	-21.127	0.100
129.000	-18.046	0.100
129.100	-4.698	0.100
129.200	-8.637	0.100
129.300	-5.228	0.100
129.400	-9.252	0.100
129.500	-3.092	0.100
129.600	3.770	0.100
129.700	-0.707	0.100
129.800	-5.443	0.100
129.900	-11.769	0.100
130.000	-27.255	0.100
130.100	-3.704	0.100
130.200	-3.101	0.100
130.300	3.201	0.100
130.400	-13.702	0.100
130.500	-12.846	0.100
130.600	-10.980	0.100
130.700	11.177	0.100
130.800	-19.163	0.100
130.900	-3.969	0.100
131.000	1.631	0.100
131.100	-8.574	0.100
131.200	-7.141	0.100
131.300	-10.577	0.100
131.400	-5.327	0.100
131.500	-14.378	0.100
131.600	-14.352	0.100
131.700	-9.593	0.100
131.800	-1.710	0.100
131.900	-2.814	0.100
132.000	-9.701	0.100
132.100	-2.984	0.100
132.200	-3.801	0.100
132.300	0.137	0.100
132.400	-6.553	0.100
132.500	-3.673	0.100
132.600	5.146	0.100
132.700	-5.525	0.100
132.800	-7.840	0.100
132.900	-4.632	0.100
133.000	-11.417	0.100
133.100	-16.919	0.100
133.200	1.701	0.100
133.300	-7.866	0.100
133.400	-19.299	0.100
133.500	-12.296	0.100
133.600	-1.598	0.100
133.700	-9.338	0.100
133.800	0.801	0.100
133.900	-16.987	0.100
134.000	-12.060	0.100
134.100	-11.975	0.100
134.200	-9.740	0.100
134.300	-12.862	0.100
134.400	-3.260	0.100
134.500	-6.196	0.100
134.600	-11.985	0.100
134.700	-18.835	0.100
134.800	10.788	0.100
134.900	-7.208	0.100
135.000	-1.052	0.100
135.100	-20.019	0.100
135.200	-15.127	0.100
135.300	-5.249	0.100
135.400	-14.633	0.100
135.500	-12.785	0.100
135.600	-8.944	0.100
135.700	-5.831	0.100
135.800	-6.628	0.100
135.900	-16.806	0.100
136.000	-11.032	0.100
136.100	6.157	0.100
136.200	-26.134	0.100
136.300	-9.215	0.100
136.400	-1.806	0.100
136.500	-6.855	0.100
136.600	-4.825	0.100
136.700	-11.870	0.100
136.800	1.599	0.100
136.900	-11.737	0.100
137.000	-14.862	0.100
137.100	-3.485	0.100
137.200	3.137	0.100
137.300	0.697	0.100
137.400	1.540	0.100
137.500	-2.126	0.100
137.600	-3.809	0.100
137.700	-11.799	0.100
137.800	-17.669	0.100
137.900	0.367	0.100
138.000	-22.474	0.100
138.100	0.070	0.100
138.200	-2.541	0.100
138.300	-6.506	0.100
138.400	1.799	0.100
138.500	-9.516	0.100
138.600	-10.749	0.100
138.700	-7.476	0.100
138.800	-16.267	0.100
138.900	-8.817	0.100
139.000	-14.976	0.100
139.100	4.040	0.100
139.200	-13.167	0.100
139.300	-14.716	0.100
139.400	-12.005	0.100
139.500	-2.684	0.100
139.600	4.080	0.100
139.700	0.083	0.100
139.800	-6.878	0.100
139.900	-2.646	0.100
140.000	-13.846	0.100
140.100	-12.096	0.100
140.200	-13.038	0.100
140.300	-3.217	0.100
140.400	2.778	0.100
140.500	-4.994	0.100
140.600	-6.306	0.100
140.700	-6.859	0.100
140.800	-14.967	0.100
140.900	-16.151	0.100
141.000	-7.520	0.100
141.100	-5.967	0.100
141.200	-6.378	0.100
141.300	-7.535	0.100
141.400	3.694	0.100
141.500	-5.643	0.100
141.600	-7.919	0.100
141.700	-2.204	0.100
141.800	-12.505	0.100
141.900	0.685	0.100
142.000	-19.605	0.100
142.100	-8.467	0.100
142.200	-22.024	0.100
142.300	-8.220	0.100
142.400	-7.486	0.100
142.500	-2.350	0.100
142.600	-14.454	0.100
142.700	-3.890	0.100
142.800	-6.152	0.100
142.900	-10.322	0.100
143.000	-19.134	0.100
143.100	-28.053	0.100
143.200	-2.802	0.100
143.300	-3.245	0.100
143.400	-18.198	0.100
143.500	-10.412	0.100
143.600	-13.466	0.100
143.700	-9.569	0.100
143.800	-1.032	0.100
143.900	-19.782	0.100
144.000	-0.756	0.100
144.100	3.525	0.100
144.200	-3.734	0.100
144.300	-9.885	0.100
144.400	-14.002	0.100
144.500	-11.344	0.100
144.600	-4.616	0.100
144.700	-6.194	0.100
144.800	-0.391	0.100
144.900	-12.692	0.100
145.000	-12.716	0.100
145.100	-1.501	0.100
145.200	-5.314	0.100
145.300	-2.924	0.100
145.400	-16.412	0.100
145.500	-11.628	0.100
145.600	6.717	0.100
145.700	-6.025	0.100
145.800	-17.705	0.100
145.900	-15.956	0.100
146.000	-11.879	0.100
146.100	-16.962	0.100
146.200	0.976	0.100
146.300	-12.942	0.100
146.400	-7.773	0.100
146.500	-5.881	0.100
146.600	-7.168	0.100
146.700	-10.900	0.100
146.800	-9.045	0.100
146.900	-12.196	0.100
147.000	-15.368	0.100
147.100	-20.472	0.100
147.200	-0.351	0.100
147.300	-25.503	0.100
147.400	-0.841	0.100
147.500	-8.828	0.100
147.600	-16.460	0.100
147.700	-6.856	0.100
147.800	-9.546	0.100
147.900	-8.014	0.100
148.000	0.184	0.100
148.100	-9.872	0.100
148.200	-21.524	0.100
148.300	-8.599	0.100
148.400	3.838	0.100
148.500	-4.188	0.100
148.600	-4.679	0.100
148.700	-9.853	0.100
148.800	-7.311	0.100
148.900	-1.516	0.100
149.000	0.067	0.100
149.100	-5.920	0.100
149.200	-17.278	0.100
149.300	-5.118	0.100
149.400	-12.798	0.100
149.500	-12.206	0.100
149.600	-13.571	0.100
149.700	-10.558	0.100
149.800	-7.166	0.100
149.900	-14.907	0.100
150.000	-15.222	0.100
150.100	4.266	0.100
150.200	0.063	0.100
150.300	-22.140	0.100
150.400	-18.588	0.100
150.500	-14.400	0.100
150.600	-2.005	0.100
150.700	-6.784	0.100
150.800	-8.026	0.100
150.900	-14.664	0.100
151.000	-4.589	0.100
151.100	-26.703	0.100
151.200	-0.365	0.100
151.300	-10.867	0.100
151.400	-3.720	0.100
151.500	-12.224	0.100
151.600	-19.276	0.100
151.700	-12.894	0.100
151.800	2.072	0.100
151.900	-10.520	0.100
152.000	-16.568	0.100
152.100	-14.999	0.100
152.200	-9.915	0.100
152.300	-8.758	0.100
152.400	-12.307	0.100
152.500	-6.044	0.100
152.600	-9.390	0.100
152.700	-13.056	0.100
152.800	-4.022	0.100
152.900	-10.911	0.100
153.000	-5.276	0.100
153.100	-13.247	0.100
153.200	-2.083	0.100
153.300	-16.104	0.100
153.400	-4.413	0.100
153.500	1.894	0.100
153.600	-15.801	0.100
153.700	-15.605	0.100
153.800	-22.927	0.100
153.900	-21.864	0.100
154.000	1.270	0.100
154.100	-20.775	0.100
154.200	-15.095	0.100
154.300	-1.427	0.100
154.400	-4.796	0.100
154.500	-13.842	0.100
154.600	-11.462	0.100
154.700	2.613	0.100
154.800	-17.716	0.100
154.900	1.313	0.100
155.000	4.179	0.100
155.100	-15.884	0.100
155.200	-7.932	0.100
155.300	-2.585	0.100
155.400	-9.117	0.100
155.500	-2.541	0.100
155.600	-22.321	0.100
155.700	-7.249	0.100
155.800	-5.486	0.100
155.900	-18.662	0.100
156.000	-12.849	0.100
156.100	-14.846	0.100
156.200	-2.711	0.100
156.300	-13.725	0.100
156.400	-4.486	0.100
156.500	-11.711	0.100
156.600	-13.422	0.100
156.700	-15.002	0.100
156.800	-6.149	0.100
156.900	-16.774	0.100
157.000	-3.098	0.100
157.100	-6.184	0.100
157.200	-16.561	0.100
157.300	-2.091	0.100
157.400	-4.102	0.100
157.500	-5.702	0.100
157.600	-12.813	0.100
157.700	-7.677	0.100
157.800	-6.940	0.100
157.900	-4.182	0.100
158.000	-2.238	0.100
158.100	-7.490	0.100
158.200	-25.226	0.100
158.300	-12.362	0.100
158.400	-15.111	0.100
158.500	-10.575	0.100
158.600	6.340	0.100
158.700	7.849	0.100
158.800	-10.536	0.100
158.900	5.078	0.100
159.000	2.775	0.100
159.100	-0.239	0.100
159.200	-9.882	0.100
159.300	-11.058	0.100
159.400	-20.353	0.100
159.500	-20.995	0.100
159.600	-5.822	0.100
159.700	-9.725	0.100
159.800	-8.217	0.100
159.900	-4.619	0.100
160.000	-10.364	0.100
160.100	-7.333	0.100
160.200	-10.550	0.100
160.300	-7.437	0.100
160.400	-19.853	0.100
160.500	-7.376	0.100
160.600	-10.690	0.100
160.700	-14.408	0.100
160.800	3.993	0.100
160.900	-15.922	0.100
161.000	-2.725	0.100
161.100	-2.428	0.100
161.200	-9.657	0.100
161.300	-4.020	0.100
161.400	-23.529	0.100
161.500	-22.199	0.100
161.600	2.388	0.100
161.700	-30.993	0.100
161.800	-24.748	0.100
161.900	-10.249	0.100
162.000	-9.659	0.100
162.100	-1.020	0.100
162.200	-3.572	0.100
162.300	-9.982	0.100
162.400	-5.404	0.100
162.500	-6.949	0.100
162.600	-13.780	0.100
162.700	-2.868	0.100
162.800	-5.741	0.100
162.900	-21.781	0.100
163.000	-24.369	0.100
163.100	-12.751	0.100
163.200	-6.472	0.100
163.300	-8.344	0.100
163.400	-4.515	0.100
163.500	-2.534	0.100
163.600	-7.183	0.100
163.700	-2.159	0.100
163.800	-17.906	0.100
163.900	-24.857	0.100
164.000	-21.227	0.100
164.100	0.538	0.100
164.200	0.101	0.100
164.300	-3.830	0.100
164.400	-12.212	0.100
164.500	-12.421	0.100
164.600	-6.794	0.100
164.700	-10.041	0.100
164.800	-14.536	0.100
164.900	-3.467	0.100
165.000	-12.313	0.100
165.100	-9.012	0.100
165.200	-6.346	0.100
165.300	-6.818	0.100
165.400	-1.763	0.100
165.500	-11.435	0.100
165.600	-2.078	0.100
165.700	-15.427	0.100
165.800	-2.304	0.100
165.900	-20.226	0.100
166.000	-16.537	0.100
166.100	-11.376	0.100
166.200	-16.446	0.100
166.300	-14.282	0.100
166.400	-9.265	0.100
166.500	9.555	0.100
166.600	10.156	0.100
166.700	-7.458	0.100
166.800	-0.221	0.100
166.900	-1.017	0.100
167.000	-11.171	0.100
167.100	-14.457	0.100
167.200	-3.185	0.100
167.300	2.373	0.100
167.400	-14.465	0.100
167.500	-12.598	0.100
167.600	-23.528	0.100
167.700	-8.284	0.100
167.800	-17.403	0.100
167.900	-6.941	0.100
168.000	-21.080	0.100
168.100	-12.830	0.100
168.200	-4.783	0.100
168.300	-9.808	0.100
168.400	-8.191	0.100
168.500	-1.872	0.100
168.600	-8.361	0.100
168.700	1.031	0.100
168.800	-9.832	0.100
168.900	-3.407	0.100
169.000	-13.242	0.100
169.100	1.766	0.100
169.200	-1.084	0.100
169.300	-4.405	0.100
169.400	-9.939	0.100
169.500	-6.143	0.100
169.600	-10.402	0.100
169.700	-7.554	0.100
169.800	-1.487	0.100
169.900	-16.157	0.100
170.000	-6.881	0.100
170.100	-9.901	0.100
170.200	-16.736	0.100
170.300	-14.898	0.100
170.400	-8.613	0.100
170.500	-15.936	0.100
170.600	-6.283	0.100
170.700	-4.866	0.100
170.800	0.038	0.100
170.900	-2.369	0.100
171.000	-16.828	0.100
171.100	-3.825	0.100
171.200	-7.801	0.100
171.300	-7.176	0.100
171.400	-14.574	0.100
171.500	-0.947	0.100
171.600	-9.769	0.100
171.700	1.286	0.100
171.800	-4.335	0.100
171.900	-14.328	0.100
172.000	-32.304	0.100
172.100	-4.736	0.100
172.200	-5.782	0.100
172.300	-4.315	0.100
172.400	-16.193	0.100
172.500	-7.084	0.100
172.600	-8.185	0.100
172.700	-16.889	0.100
172.800	-10.094	0.100
172.900	-2.995	0.100
173.000	-2.725	0.100
173.100	-1.379	0.100
173.200	-4.441	0.100
173.300	-23.462	0.100
173.400	0.383	0.100
173.500	-5.574	0.100
173.600	-16.390	0.100
173.700	-14.657	0.100
173.800	-10.820	0.100
173.900	-10.816	0.100
174.000	-14.344	0.100
174.100	-11.242	0.100
174.200	-10.982	0.100
174.300	-12.807	0.100
174.400	-9.187	0.100
174.500	1.461	0.100
174.600	-3.297	0.100
174.700	-16.016	0.100
174.800	-9.181	0.100
174.900	-10.763	0.100
175.000	-6.319	0.100
175.100	-21.858	0.100
175.200	6.284	0.100
175.300	2.547	0.100
175.400	-13.777	0.100
175.500	-27.371	0.100
175.600	-1.666	0.100
175.700	-9.035	0.100
175.800	-2.546	0.100
175.900	-5.770	0.100
176.000	-3.922	0.100
176.100	-12.214	0.100
176.200	-6.888	0.100
176.300	-16.171	0.099
176.400	-17.929	0.099
176.500	-9.704	0.099
176.600	-4.299	0.099
176.700	5.641	0.099
176.800	-12.550	0.099
176.900	-25.887	0.099
177.000	-23.634	0.099
177.100	-5.059	0.099
177.200	-8.424	0.099
177.300	-14.378	0.099
177.400	-1.993	0.099
177.500	-3.458	0.099
177.600	-8.870	0.099
177.700	-4.626	0.099
177.800	-7.311	0.099
177.900	-7.348	0.099
178.000	-15.070	0.099
178.100	-8.849	0.099
178.200	-19.149	0.099
178.300	-15.852	0.099
178.400	-7.043	0.099
178.500	-10.792	0.099
178.600	-11.308	0.099
178.700	-4.228	0.099
178.800	-1.918	0.099
178.900	0.814	0.099
179.000	-0.962	0.099
179.100	-0.850	0.099
179.200	-8.177	0.099
179.300	-5.177	0.099
179.400	-4.840	0.099
179.500	-11.107	0.099
179.600	-8.502	0.099
179.700	-8.877	0.099
179.800	13.191	0.099
179.900	7.196	0.099
180.000	-2.017	0.099
180.100	-6.130	0.099
180.200	-15.534	0.099
180.300	-10.132	0.099
180.400	-3.212	0.099
180.500	-16.908	0.099
180.600	-18.398	0.099
180.700	-1.947	0.099
180.800	0.548	0.099
180.900	-4.472	0.099
181.000	-6.707	0.099
181.100	-16.212	0.099
181.200	-1.252	0.099
181.300	-5.159	0.099
181.400	4.200	0.099
181.500	8.161	0.099
181.600	3.811	0.099
181.700	-0.653	0.099
181.800	-1.306	0.099
181.900	2.930	0.099
182.000	12.946	0.099
182.100	20.337	0.099
182.200	3.446	0.099
182.300	21.267	0.099
182.400	4.358	0.099
182.500	23.511	0.099
182.600	23.450	0.099
182.700	13.877	0.099
182.800	4.107	0.099
182.900	22.848	0.099
183.000	28.600	0.099
183.100	25.386	0.099
183.200	18.178	0.099
183.300	17.031	0.099
183.400	22.589	0.099
183.500	16.920	0.099
183.600	32.070	0.099
183.700	29.750	0.099
183.800	16.509	0.099
183.900	1.931	0.099
184.000	29.919	0.099
184.100	35.177	0.099
184.200	32.362	0.099
184.300	35.716	0.099
184.400	34.818	0.099
184.500	21.806	0.099
184.600	28.410	0.099
184.700	29.263	0.099
184.800	24.655	0.099
184.900	28.914	0.099
185.000	27.577	0.099
185.100	31.555	0.099
185.200	24.854	0.099
185.300	44.630	0.099
185.400	26.135	0.099
185.500	26.963	0.099
185.600	25.188	0.099
185.700	24.537	0.099
185.800	28.666	0.099
185.900	27.440	0.099
186.000	31.527	0.099
186.100	18.348	0.099
186.200	9.119	0.099
186.300	20.642	0.099
186.400	43.549	0.099
186.500	25.682	0.099
186.600	23.935	0.099
186.700	40.497	0.099
186.800	33.716	0.099
186.900	37.103	0.099
187.000	37.332	0.099
187.100	28.404	0.099
187.200	36.444	0.099
187.300	36.879	0.099
187.400	41.871	0.099
187.500	34.643	0.099
187.600	36.689	0.099
187.700	29.174	0.099
187.800	31.964	0.099
187.900	33.458	0.099
188.000	31.712	0.099
188.100	25.699	0.099
188.200	35.168	0.099
188.300	22.831	0.099
188.400	35.108	0.099
188.500	28.918	0.099
188.600	33.647	0.099
188.700	33.370	0.099
188.800	20.676	0.099
188.900	26.807	0.099
189.000	49.527	0.099
189.100	40.208	0.099
189.200	49.197	0.099
189.300	27.397	0.099
189.400	27.471	0.099
189.500	39.479	0.099
189.600	36.343	0.099
189.700	39.406	0.099
189.800	44.766	0.099
189.900	47.194	0.099
190.000	35.953	0.099
190.100	39.268	0.099
190.200	29.075	0.099
190.300	27.690	0.099
190.400	37.490	0.099
190.500	38.819	0.099
190.600	37.695	0.099
190.700	31.384	0.099
190.800	36.694	0.099
190.900	45.424	0.099
191.000	44.155	0.099
191.100	42.149	0.099
191.200	39.300	0.099
191.300	47.985	0.099
191.400	53.036	0.099
191.500	32.761	0.099
191.600	44.775	0.099
191.700	41.754	0.099
191.800	34.200	0.099
191.900	33.217	0.099
192.000	35.043	0.099
192.100	50.442	0.099
192.200	32.054	0.099
192.300	42.799	0.099
192.400	54.826	0.099
192.500	59.268	0.099
192.600	33.894	0.099
192.700	44.043	0.099
192.800	39.222	0.099
192.900	41.715	0.099
193.000	38.333	0.099
193.100	53.398	0.099
193.200	31.487	0.099
193.300	53.342	0.099
193.400	52.670	0.100
193.500	58.334	0.100
193.600	56.062	0.100
193.700	35.071	0.100
193.800	47.572	0.100
193.900	51.349	0.100
194.000	48.021	0.100
194.100	45.607	0.100
194.200	44.881	0.100
194.300	53.625	0.100
194.400	45.662	0.100
194.500	42.061	0.100
194.600	49.244	0.100
194.700	47.675	0.100
194.800	52.585	0.100
194.900	49.924	0.100
195.000	63.674	0.100
195.100	42.115	0.100
195.200	65.211	0.100
195.300	53.463	0.100
195.400	52.787	0.100
195.500	41.921	0.100
195.600	52.883	0.100
195.700	47.756	0.100
195.800	59.506	0.100
195.900	50.979	0.100
196.000	47.183	0.100
196.100	53.783	0.100
196.200	50.632	0.100
196.300	53.038	0.100
196.400	38.193	0.100
196.500	58.634	0.100
196.600	45.255	0.100
196.700	58.866	0.100
196.800	59.513	0.100
196.900	54.783	0.100
197.000	57.671	0.100
197.100	58.332	0.100
197.200	56.412	0.100
197.300	65.683	0.100
197.400	59.275	0.100
197.500	49.764	0.100
197.600	51.788	0.100
197.700	54.428	0.100
197.800	66.380	0.100
197.900	53.975	0.100
198.000	58.915	0.100
198.100	67.588	0.100
198.200	61.008	0.100
198.300	45.933	0.100
198.400	51.076	0.100
198.500	53.753	0.100
198.600	62.589	0.100
198.700	62.116	0.100
198.800	48.588	0.100
198.900	45.390	0.100
199.000	57.429	0.100
199.100	82.440	0.100
199.200	57.412	0.100
199.300	49.687	0.100
199.400	51.613	0.100
199.500	70.858	0.100
199.600	62.467	0.100
199.700	63.462	0.100
199.800	70.622	0.100
199.900	53.193	0.100
200.000	69.435	0.100
200.100	57.764	0.100
200.200	64.329	0.100
200.300	71.757	0.100
200.400	64.239	0.100
200.500	69.770	0.100
200.600	64.199	0.100
200.700	62.702	0.100
200.800	78.033	0.100
200.900	62.051	0.100
201.000	58.078	0.100
201.100	68.362	0.100
201.200	71.342	0.100
201.300	44.529	0.100
201.400	59.672	0.100
201.500	69.468	0.100
201.600	69.557	0.100
201.700	53.906	0.100
201.800	83.800	0.100
201.900	55.019	0.100
202.000	86.913	0.100
202.100	66.495	0.100
202.200	66.811	0.100
202.300	74.892	0.100
202.400	69.537	0.100
202.500	71.409	0.100
202.600	72.703	0.100
202.700	74.140	0.100
202.800	69.977	0.100
202.900	64.872	0.100
203.000	66.392	0.100
203.100	78.798	0.100
203.200	70.096	0.100
203.300	65.129	0.100
203.400	66.544	0.100
203.500	77.433	0.100
203.600	68.620	0.100
203.700	60.888	0.100
203.800	71.826	0.100
203.900	71.925	0.100
204.000	75.475	0.100
204.100	63.943	0.100
204.200	67.754	0.100
204.300	70.646	0.100
204.400	65.266	0.100
204.500	64.216	0.100
204.600	66.966	0.100
204.700	70.769	0.100
204.800	75.549	0.100
204.900	71.278	0.100
205.000	64.619	0.100
205.100	59.443	0.100
205.200	79.875	0.100
205.300	79.218	0.100
205.400	75.092	0.100
205.500	71.366	0.100
205.600	79.373	0.100
205.700	84.716	0.100
205.800	70.377	0.100
205.900	81.286	0.100
206.000	82.159	0.100
206.100	65.020	0.100
206.200	69.392	0.100
206.300	64.410	0.100
206.400	80.303	0.100
206.500	61.654	0.100
206.600	81.216	0.100
206.700	73.463	0.100
206.800	68.925	0.100
206.900	67.950	0.100
207.000	78.076	0.100
207.100	74.752	0.100
207.200	78.091	0.100
207.300	82.190	0.100
207.400	77.355	0.100
207.500	75.946	0.100
207.600	69.983	0.100
207.700	70.905	0.100
207.800	57.979	0.100
207.900	86.190	0.100
208.000	79.489	0.100
208.100	77.611	0.100
208.200	73.960	0.100
208.300	71.542	0.100
208.400	77.341	0.100
208.500	78.103	0.100
208.600	87.462	0.100
208.700	79.474	0.100
208.800	75.407	0.100
208.900	74.342	0.100
209.000	75.730	0.100
209.100	72.937	0.100
209.200	75.086	0.100
209.300	81.354	0.100
209.400	69.338	0.100
209.500	84.137	0.100
209.600	76.152	0.100
209.700	58.669	0.100
209.800	68.980	0.100
209.900	74.657	0.100
210.000	78.353	0.100
210.100	75.341	0.100
210.200	75.205	0.100
210.300	74.912	0.100
210.400	83.538	0.100
210.500	66.645	0.100
210.600	54.250	0.100
210.700	64.387	0.100
210.800	79.790	0.100
210.900	82.708	0.100
211.000	87.155	0.100
211.100	88.179	0.100
211.200	87.517	0.100
211.300	86.957	0.100
211.400	63.383	0.100
211.500	79.737	0.100
211.600	80.475	0.100
211.700	70.896	0.100
211.800	74.165	0.100
211.900	75.019	0.100
212.000	73.726	0.100
212.100	72.213	0.100
212.200	74.783	0.100
212.300	70.544	0.100
212.400	75.496	0.100
212.500	73.765	0.100
212.600	85.426	0.100
212.700	75.878	0.100
212.800	75.957	0.100
212.900	61.378	0.100
213.000	65.225	0.100
213.100	82.334	0.100
213.200	72.493	0.100
213.300	62.997	0.100
213.400	92.163	0.100
213.500	86.691	0.100
213.600	97.292	0.100
213.700	66.027	0.100
213.800	78.945	0.100
213.900	77.039	0.100
214.000	74.711	0.100
214.100	80.712	0.100
214.200	77.933	0.100
214.300	73.095	0.100
214.400	80.914	0.100
214.500	64.683	0.100
214.600	85.938	0.100
214.700	68.829	0.100
214.800	87.807	0.100
214.900	75.381	0.100
215.000	78.323	0.100
215.100	72.559	0.100
215.200	67.589	0.100
215.300	56.246	0.100
215.400	70.957	0.100
215.500	79.747	0.100
215.600	82.369	0.100
215.700	81.626	0.100
215.800	82.181	0.100
215.900	75.323	0.100
216.000	76.595	0.100
216.100	74.907	0.100
216.200	81.713	0.100
216.300	77.138	0.100
216.400	70.221	0.100
216.500	78.536	0.100
216.600	75.125	0.100
216.700	78.194	0.100
216.800	66.777	0.100
216.900	75.898	0.100
217.000	72.696	0.100
217.100	77.879	0.100
217.200	83.327	0.100
217.300	77.273	0.100
217.400	76.646	0.100
217.500	56.427	0.100
217.600	52.791	0.100
217.700	95.875	0.100
217.800	74.792	0.100
217.900	81.812	0.100
218.000	81.107	0.100
218.100	72.678	0.100
218.200	74.040	0.100
218.300	69.626	0.100
218.400	52.980	0.100
218.500	77.443	0.100
218.600	87.770	0.100
218.700	79.402	0.100
218.800	60.266	0.100
218.900	76.860	0.100
219.000	88.734	0.100
219.100	81.016	0.100
219.200	83.823	0.100
219.300	73.187	0.100
219.400	72.156	0.100
219.500	73.738	0.100
219.600	76.925	0.100
219.700	70.536	0.100
219.800	70.135	0.100
219.900	74.704	0.100
220.000	60.890	0.100
220.100	78.886	0.100
220.200	72.917	0.100
220.300	77.363	0.100
220.400	88.224	0.100
220.500	93.248	0.100
220.600	80.211	0.100
220.700	72.346	0.100
220.800	82.105	0.100
220.900	72.451	0.100
221.000	62.586	0.100
221.100	68.438	0.100
221.200	73.108	0.100
221.300	75.681	0.100
221.400	70.477	0.100
221.500	69.959	0.100
221.600	84.176	0.100
221.700	70.033	0.100
221.800	77.080	0.100
221.900	66.894	0.100
222.000	60.486	0.100
222.100	75.697	0.100
222.200	73.872	0.100
222.300	67.352	0.100
222.400	77.245	0.100
222.500	65.562	0.100
222.600	73.081	0.100
222.700	76.523	0.100
222.800	83.010	0.100
222.900	70.067	0.100
223.000	77.761	0.100
223.100	71.984	0.100
223.200	75.836	0.100
223.300	81.978	0.100
223.400	68.955	0.100
223.500	83.652	0.100
223.600	72.378	0.100
223.700	73.957	0.100
223.800	75.686	0.100
223.900	58.200	0.100
224.000	73.945	0.100
224.100	78.182	0.100
224.200	76.873	0.100
224.300	63.138	0.100
224.400	79.604	0.100
224.500	91.451	0.100
224.600	88.964	0.100
224.700	77.762	0.100
224.800	68.085	0.100
224.900	64.688	0.100
225.000	67.834	0.100
225.100	59.956	0.100
225.200	80.764	0.100
225.300	70.345	0.100
225.400	71.507	0.100
225.500	74.472	0.100
225.600	74.960	0.100
225.700	73.351	0.100
225.800	65.542	0.100
225.900	68.952	0.100
226.000	80.794	0.100
226.100	71.051	0.100
226.200	69.051	0.100
226.300	74.149	0.100
226.400	72.587	0.100
226.500	73.207	0.100
226.600	65.955	0.100
226.700	78.136	0.100
226.800	77.894	0.100
226.900	78.558	0.100
227.000	65.449	0.100
227.100	69.936	0.100
227.200	65.985	0.100
227.300	86.221	0.100
227.400	72.177	0.100
227.500	74.836	0.100
227.600	75.654	0.100
227.700	69.193	0.100
227.800	68.259	0.100
227.900	71.282	0.100
228.000	73.099	0.100
228.100	62.322	0.100
228.200	69.582	0.100
228.300	76.767	0.100
228.400	78.454	0.100
228.500	79.404	0.100
228.600	73.501	0.100
228.700	67.689	0.100
228.800	82.436	0.100
228.900	65.186	0.100
229.000	65.608	0.100
229.100	64.385	0.100
229.200	66.763	0.100
229.300	64.697	0.100
229.400	66.381	0.100
229.500	67.026	0.100
229.600	69.598	0.100
229.700	63.204	0.100
229.800	77.311	0.100
229.900	95.013	0.100
230.000	68.259	0.100
230.100	69.287	0.100
230.200	59.656	0.100
230.300	65.788	0.100
230.400	71.589	0.100
230.500	74.581	0.100
230.600	84.410	0.100
230.700	73.062	0.100
230.800	62.656	0.100
230.900	68.652	0.100
231.000	71.224	0.100
231.100	82.584	0.100
231.200	74.864	0.100
231.300	71.436	0.100
231.400	66.769	0.100
231.500	70.216	0.100
231.600	74.334	0.100
231.700	61.463	0.100
231.800	65.548	0.100
231.900	67.376	0.100
232.000	62.095	0.100
232.100	72.017	0.100
232.200	68.623	0.100
232.300	79.211	0.100
232.400	68.893	0.100
232.500	60.344	0.100
232.600	70.139	0.100
232.700	66.815	0.100
232.800	86.238	0.100
232.900	61.769	0.100
233.000	79.553	0.100
233.100	74.805	0.100
233.200	77.669	0.100
233.300	72.178	0.100
233.400	75.587	0.100
233.500	58.887	0.100
233.600	82.132	0.100
233.700	75.209	0.100
233.800	78.442	0.100
233.900	77.830	0.100
234.000	76.435	0.100
234.100	71.897	0.100
234.200	58.014	0.100
234.300	67.034	0.100
234.400	66.890	0.100
234.500	77.400	0.100
234.600	77.478	0.100
234.700	70.055	0.100
234.800	58.410	0.100
234.900	69.821	0.100
235.000	62.226	0.100
235.100	69.178	0.100
235.200	77.585	0.100
235.300	73.555	0.100
235.400	71.895	0.100
235.500	77.530	0.100
235.600	60.332	0.100
235.700	56.047	0.100
235.800	63.611	0.100
235.900	65.667	0.100
236.000	71.564	0.100
236.100	61.715	0.100
236.200	65.444	0.100
236.300	75.264	0.100
236.400	69.905	0.100
236.500	72.495	0.100
236.600	86.253	0.100
236.700	60.188	0.100
236.800	80.700	0.100
236.900	76.479	0.100
237.000	62.694	0.100
237.100	61.946	0.100
237.200	64.183	0.100
237.300	67.816	0.100
237.400	73.723	0.100
237.500	69.480	0.100
237.600	78.598	0.100
237.700	63.584	0.100
237.800	67.725	0.100
237.900	68.058	0.100
238.000	83.048	0.100
238.100	62.741	0.100
238.200	74.640	0.100
238.300	72.191	0.100
238.400	76.673	0.100
238.500	80.721	0.100
238.600	63.909	0.100
238.700	75.910	0.100
238.800	66.681	0.100
238.900	75.398	0.100
239.000	66.677	0.100
239.100	51.631	0.100
239.200	58.337	0.100
239.300	78.099	0.100
239.400	80.021	0.100
239.500	73.163	0.100
239.600	72.891	0.100
239.700	61.285	0.100
239.800	62.518	0.100
239.900	69.302	0.100
240.000	67.721	0.100
240.100	63.757	0.100
240.200	77.504	0.100
240.300	70.852	0.100
240.400	77.832	0.100
240.500	82.451	0.100
240.600	64.819	0.100
240.700	53.437	0.100
240.800	62.103	0.100
240.900	74.080	0.100
241.000	60.790	0.100
241.100	50.293	0.100
241.200	59.376	0.100
241.300	57.249	0.100
241.400	63.234	0.100
241.500	69.361	0.100
241.600	51.908	0.100
241.700	60.768	0.100
241.800	49.340	0.100
241.900	60.459	0.100
242.000	47.262	0.100
242.100	41.931	0.100
242.200	49.159	0.100
242.300	62.082	0.100
242.400	53.723	0.100
242.500	49.338	0.100
242.600	42.307	0.100
242.700	46.845	0.100
242.800	35.057	0.100
242.900	65.512	0.100
243.000	50.049	0.100
243.100	35.779	0.100
243.200	38.941	0.100
243.300	30.887	0.100
243.400	21.677	0.100
243.500	51.510	0.100
243.600	35.894	0.100
243.700	28.972	0.100
243.800	33.367	0.100
243.900	28.815	0.100
244.000	23.634	0.100
244.100	31.446	0.100
244.200	32.075	0.100
244.300	30.376	0.100
244.400	23.755	0.100
244.500	33.707	0.100
244.600	19.858	0.100
244.700	30.431	0.100
244.800	36.519	0.100
244.900	21.771	0.100
245.000	16.888	0.100
245.100	12.470	0.100
245.200	26.333	0.100
245.300	17.139	0.100
245.400	11.747	0.100
245.500	10.618	0.100
245.600	15.811	0.100
245.700	24.167	0.100
245.800	19.908	0.100
245.900	24.163	0.100
246.000	12.632	0.100
246.100	16.191	0.100
246.200	24.683	0.100
246.300	12.726	0.100
246.400	11.269	0.100
246.500	18.205	0.100
246.600	17.763	0.100
246.700	14.410	0.100
246.800	19.441	0.100
246.900	9.339	0.100
247.000	21.020	0.100
247.100	12.660	0.100
247.200	21.293	0.100
247.300	9.769	0.100
247.400	24.247	0.100
247.500	12.190	0.100
247.600	4.511	0.100
247.700	9.676	0.100
247.800	-3.085	0.100
247.900	16.045	0.100
248.000	0.310	0.100
248.100	25.832	0.100
248.200	10.566	0.100
248.300	2.732	0.100
248.400	9.304	0.100
248.500	-9.708	0.100
248.600	5.726	0.100
248.700	11.946	0.100
248.800	2.612	0.100
248.900	0.273	0.100
249.000	-3.917	0.100
249.100	1.170	0.100
249.200	4.200	0.100
249.300	9.050	0.100
249.400	11.279	0.100
249.500	15.739	0.100
249.600	1.729	0.100
249.700	-1.724	0.100
249.800	-4.405	0.100
249.900	24.187	0.100
250.000	5.394	0.100
250.100	-2.021	0.100
250.200	4.178	0.100
250.300	9.192	0.100
250.400	10.255	0.100
250.500	14.476	0.100
250.600	12.273	0.100
250.700	-4.308	0.100
250.800	12.505	0.100
250.900	-14.991	0.100
251.000	-0.603	0.100
251.100	14.539	0.100
251.200	7.848	0.100
251.300	-11.300	0.100
251.400	10.368	0.100
251.500	2.713	0.100
251.600	4.977	0.100
251.700	4.498	0.100
251.800	-1.986	0.100
251.900	6.381	0.100
252.000	4.189	0.100
252.100	15.493	0.100
252.200	11.703	0.100
252.300	-6.757	0.100
252.400	2.080	0.100
252.500	4.621	0.100
252.600	14.303	0.100
252.700	-2.918	0.100
252.800	1.513	0.100
252.900	5.866	0.100
253.000	-8.957	0.100
253.100	-16.086	0.100
253.200	-13.683	0.100
253.300	25.005	0.100
253.400	7.113	0.100
253.500	-27.732	0.100
253.600	8.048	0.100
253.700	4.023	0.100
253.800	7.479	0.100
253.900	4.651	0.100
254.000	0.482	0.100
254.100	8.948	0.100
254.200	7.226	0.100
254.300	8.865	0.100
254.400	3.257	0.100
254.500	1.741	0.100
254.600	-11.576	0.100
254.700	-0.051	0.100
254.800	-1.976	0.100
254.900	9.563	0.100
255.000	4.344	0.100
255.100	8.138	0.100
255.200	-9.016	0.100
255.300	3.231	0.100
255.400	12.724	0.100
255.500	2.240	0.100
255.600	-11.712	0.100
255.700	2.549	0.100
255.800	-20.430	0.100
255.900	-3.118	0.100
256.000	6.426	0.100
256.100	0.606	0.100
256.200	11.690	0.100
256.300	-7.804	0.100
256.400	2.141	0.100
256.500	-5.555	0.100
256.600	-2.570	0.100
256.700	-0.317	0.100
256.800	-10.341	0.100
256.900	7.610	0.100
257.000	8.754	0.100
257.100	-9.030	0.100
257.200	-7.571	0.100
257.300	-0.509	0.100
257.400	6.421	0.100
257.500	3.696	0.100
257.600	2.857	0.100
257.700	-17.477	0.100
257.800	-9.266	0.100
257.900	1.495	0.100
258.000	11.684	0.100
258.100	1.035	0.100
258.200	6.035	0.100
258.300	-4.555	0.100
258.400	-7.323	0.100
258.500	8.748	0.100
258.600	-0.053	0.100
258.700	-2.542	0.100
258.800	-2.472	0.100
258.900	-5.673	0.100
259.000	1.715	0.100
259.100	-4.770	0.100
259.200	0.445	0.100
259.300	5.005	0.100
259.400	-4.675	0.100
259.500	3.610	0.100
259.600	1.563	0.100
259.700	0.088	0.100
259.800	-10.529	0.100
259.900	-2.494	0.100
260.000	-17.781	0.100
260.100	-3.060	0.100
260.200	-6.855	0.100
260.300	-1.577	0.100
260.400	7.842	0.100
260.500	-3.106	0.100
260.600	-1.609	0.100
260.700	-1.063	0.100
260.800	-18.602	0.100
260.900	-12.406	0.100
261.000	6.238	0.100
261.100	-11.517	0.100
261.200	-4.243	0.100
261.300	-10.960	0.100
261.400	0.248	0.100
261.500	3.510	0.100
261.600	-7.982	0.100
261.700	-12.136	0.100
261.800	-11.841	0.100
261.900	-2.257	0.100
262.000	-5.543	0.100
262.100	-0.235	0.100
262.200	-7.497	0.100
262.300	-1.313	0.100
262.400	1.377	0.100
262.500	-11.509	0.100
262.600	-3.014	0.100
262.700	-8.084	0.100
262.800	-5.299	0.100
262.900	-1.756	0.100
263.000	-3.049	0.100
263.100	-6.894	0.100
263.200	-3.213	0.100
263.300	-29.420	0.100
263.400	0.970	0.100
263.500	-2.893	0.100
263.600	-6.512	0.100
263.700	-7.693	0.100
263.800	-10.696	0.100
263.900	5.899	0.100
264.000	-14.077	0.100
264.100	-12.091	0.100
264.200	-4.201	0.100
264.300	-7.441	0.100
264.400	-12.667	0.100
264.500	-16.963	0.100
264.600	-21.589	0.100
264.700	-7.810	0.100
264.800	-6.825	0.100
264.900	-9.343	0.100
265.000	-0.304	0.100
265.100	-15.436	0.100
265.200	-5.215	0.100
265.300	-20.173	0.100
265.400	-13.367	0.100
265.500	-6.964	0.100
265.600	0.032	0.100
265.700	-19.068	0.100
265.800	6.010	0.100
265.900	9.684	0.100
266.000	-11.659	0.100
266.100	-4.958	0.100
266.200	-3.944	0.100
266.300	-11.191	0.100
266.400	-12.926	0.100
266.500	-13.560	0.100
266.600	-9.916	0.100
266.700	-3.687	0.100
266.800	-0.879	0.100
266.900	-2.830	0.100
267.000	-10.430	0.100
267.100	-21.341	0.100
267.200	-2.329	0.100
267.300	-17.322	0.100
267.400	-13.839	0.100
267.500	-2.111	0.100
267.600	-12.419	0.100
267.700	-13.380	0.100
267.800	-13.765	0.100
267.900	-4.730	0.100
268.000	-21.446	0.100
268.100	-12.388	0.100
268.200	-12.954	0.100
268.300	-18.528	0.100
268.400	1.678	0.100
268.500	-33.380	0.100
268.600	-7.980	0.100
268.700	-11.637	0.100
268.800	-4.873	0.100
268.900	2.678	0.100
269.000	-13.137	0.100
269.100	-6.739	0.100
269.200	-22.085	0.100
269.300	-4.603	0.100
269.400	-3.014	0.100
269.500	-15.648	0.100
269.600	-7.677	0.100
269.700	-11.452	0.100
269.800	-8.729	0.100
269.900	-10.860	0.100
270.000	-17.938	0.100
270.100	-21.940	0.100
270.200	-23.764	0.100
270.300	-11.699	0.100
270.400	-8.930	0.100
270.500	-0.017	0.100
270.600	-7.714	0.100
270.700	3.614	0.100
270.800	-14.507	0.100
270.900	-12.734	0.100
271.000	-10.449	0.100
271.100	-17.436	0.100
271.200	-19.904	0.100
271.300	-6.252	0.100
271.400	-21.121	0.100
271.500	-11.259	0.100
271.600	-20.941	0.100
271.700	-10.358	0.100
271.800	-11.441	0.100
271.900	-17.590	0.100
272.000	-7.585	0.100
272.100	-20.627	0.100
272.200	-6.264	0.100
272.300	-14.271	0.100
272.400	-15.149	0.100
272.500	-12.486	0.100
272.600	-15.647	0.100
272.700	-2.099	0.100
272.800	-14.534	0.100
272.900	-26.245	0.100
273.000	-15.382	0.100
273.100	-7.542	0.100
273.200	-4.141	0.100
273.300	-13.402	0.100
273.400	-29.215	0.100
273.500	-16.033	0.100
273.600	-19.062	0.100
273.700	-13.318	0.100
273.800	-14.465	0.100
273.900	-12.945	0.100
274.000	-11.596	0.100
274.100	-19.269	0.100
274.200	-10.488	0.100
274.300	-7.210	0.100
274.400	-21.985	0.100
274.500	-27.613	0.100
274.600	-21.202	0.100
274.700	-32.103	0.100
274.800	-10.073	0.100
274.900	-15.106	0.100
275.000	-1.675	0.100
275.100	-13.352	0.100
275.200	-4.663	0.100
275.300	-20.699	0.100
275.400	-14.164	0.100
275.500	-10.894	0.100
275.600	-16.268	0.100
275.700	-13.629	0.100
275.800	-16.536	0.100
275.900	-14.454	0.100
276.000	-15.681	0.100
276.100	-4.852	0.100
276.200	-16.850	0.100
276.300	-16.823	0.100
276.400	-28.896	0.100
276.500	-12.597	0.100
276.600	-7.915	0.100
276.700	-15.223	0.100
276.800	-14.136	0.100
276.900	-23.288	0.100
277.000	-14.386	0.100
277.100	-22.386	0.100
277.200	-5.641	0.100
277.300	-11.387	0.100
277.400	-22.605	0.100
277.500	-5.745	0.100
277.600	-16.036	0.100
277.700	-14.817	0.100
277.800	-14.181	0.100
277.900	-16.347	0.100
278.000	-9.093	0.100
278.100	-15.739	0.100
278.200	-26.840	0.100
278.300	-16.469	0.100
278.400	-14.689	0.100
278.500	-15.643	0.100
278.600	-14.651	0.100
278.700	-24.904	0.100
278.800	-14.848	0.100
278.900	-18.090	0.100
279.000	-16.661	0.100
279.100	-15.680	0.100
279.200	-13.534	0.100
279.300	-19.662	0.100
279.400	-25.408	0.100
279.500	-20.625	0.100
279.600	-17.564	0.100
279.700	-23.443	0.100
279.800	-32.651	0.100
279.900	-16.916	0.100
280.000	-8.877	0.100
280.100	-11.462	0.100
280.200	-17.755	0.100
280.300	-18.590	0.100
280.400	-14.930	0.100
280.500	-24.008	0.100
280.600	-10.601	0.100
280.700	-21.103	0.100
280.800	-22.071	0.100
280.900	0.045	0.100
281.000	-11.819	0.100
281.100	-27.449	0.100
281.200	-13.513	0.100
281.300	-25.585	0.100
281.400	-15.340	0.100
281.500	-14.897	0.100
281.600	-35.294	0.100
281.700	-10.139	0.100
281.800	-19.712	0.100
281.900	-23.181	0.100
282.000	-9.755	0.100
282.100	-14.972	0.100
282.200	-20.076	0.100
282.300	-22.818	0.100
282.400	-11.340	0.100
282.500	-25.028	0.100
282.600	-12.088	0.100
282.700	7.569	0.100
282.800	-20.227	0.100
282.900	-21.716	0.100
283.000	-18.892	0.100
283.100	-22.254	0.100
283.200	-8.870	0.100
283.300	-19.646	0.100
283.400	-21.939	0.100
283.500	-29.719	0.100
283.600	-8.186	0.100
283.700	-16.766	0.100
283.800	-24.240	0.100
283.900	-22.236	0.100
284.000	-39.816	0.100
284.100	-12.107	0.100
284.200	-19.471	0.100
284.300	-7.601	0.100
284.400	-21.291	0.100
284.500	-14.788	0.100
284.600	-27.556	0.100
284.700	-42.227	0.100
284.800	-21.694	0.100
284.900	-16.913	0.100
285.000	-7.339	0.100
285.100	-11.751	0.100
285.200	-16.505	0.100
285.300	-9.974	0.100
285.400	-21.334	0.100
285.500	-12.771	0.100
285.600	-19.332	0.100
285.700	-24.429	0.100
285.800	-37.792	0.100
285.900	-11.013	0.100
286.000	-22.285	0.100
286.100	-17.882	0.100
286.200	-18.252	0.100
286.300	-18.605	0.100
286.400	-24.014	0.100
286.500	-22.253	0.100
286.600	-23.664	0.100
286.700	-19.512	0.100
286.800	-23.407	0.100
286.900	-11.608	0.100
287.000	-18.835	0.100
287.100	-24.750	0.100
287.200	-12.801	0.100
287.300	-17.558	0.100
287.400	-10.177	0.100
287.500	-18.928	0.100
287.600	-38.844	0.100
287.700	-27.723	0.100
287.800	-16.108	0.100
287.900	-18.687	0.100
288.000	-15.900	0.100
288.100	-17.290	0.100
288.200	-41.098	0.100
288.300	-27.506	0.100
288.400	-30.624	0.100
288.500	-11.964	0.100
288.600	-17.574	0.100
288.700	-7.692	0.100
288.800	-15.091	0.100
288.900	-9.544	0.100
289.000	-11.920	0.100
289.100	-21.459	0.100
289.200	-5.760	0.100
289.300	-14.875	0.100
289.400	-19.690	0.100
289.500	-24.353	0.100
289.600	-23.330	0.100
289.700	-8.968	0.100
289.800	-20.904	0.100
289.900	-28.549	0.100
290.000	-23.315	0.100
290.100	-29.097	0.100
290.200	-31.534	0.100
290.300	-19.435	0.100
290.400	-24.829	0.100
290.500	-14.956	0.100
290.600	-26.398	0.100
290.700	-13.576	0.100
290.800	-13.914	0.100
290.900	-22.012	0.100
291.000	-25.014	0.100
291.100	-22.940	0.100
291.200	-5.856	0.100
291.300	-23.967	0.100
291.400	-30.942	0.100
291.500	-26.241	0.100
291.600	-10.640	0.100
291.700	-30.128	0.100
291.800	-9.983	0.100
291.900	-22.677	0.100
292.000	-16.119	0.100
292.100	-8.260	0.100
292.200	-21.748	0.100
292.300	-16.191	0.100
292.400	-27.702	0.100
292.500	-18.607	0.100
292.600	-12.853	0.100
292.700	-12.529	0.100
292.800	-16.160	0.100
292.900	-14.598	0.100
293.000	-14.248	0.100
293.100	-21.601	0.100
293.200	-17.692	0.100
293.300	-21.762	0.100
293.400	-28.262	0.100
293.500	-11.593	0.100
293.600	-34.469	0.100
293.700	-7.836	0.100
293.800	-19.608	0.100
293.900	-17.998	0.100
294.000	-10.897	0.100
294.100	-21.654	0.100
294.200	-17.130	0.100
294.300	-19.843	0.100
294.400	-20.893	0.100
294.500	-20.367	0.100
294.600	-17.627	0.100
294.700	-24.211	0.100
294.800	-15.819	0.100
294.900	-20.001	0.100
295.000	-24.283	0.100
295.100	-20.843	0.100
295.200	-19.768	0.100
295.300	-29.818	0.100
295.400	-16.804	0.100
295.500	-17.949	0.100
295.600	-14.078	0.100
295.700	-31.437	0.100
295.800	-8.860	0.100
295.900	-20.306	0.100
296.000	-17.392	0.100
296.100	-15.139	0.100
296.200	-10.449	0.100
296.300	-20.059	0.100
296.400	-31.132	0.100
296.500	-29.858	0.100
296.600	-24.135	0.100
296.700	-34.993	0.100
296.800	-14.737	0.100
296.900	-15.039	0.100
297.000	-22.241	0.100
297.100	-12.770	0.100
297.200	-18.066	0.100
297.300	-24.278	0.100
297.400	-14.445	0.100
297.500	-20.473	0.100
297.600	-29.311	0.100
297.700	-25.199	0.100
297.800	-24.137	0.100
297.900	-24.023	0.100
298.000	-21.110	0.100
298.100	-18.329	0.100
298.200	-8.958	0.100
298.300	-10.098	0.100
298.400	-28.031	0.100
298.500	-20.670	0.100
298.600	-31.279	0.100
298.700	-5.527	0.100
298.800	-11.408	0.100
298.900	-23.315	0.100
299.000	-27.331	0.100
299.100	-12.823	0.100
299.200	-21.592	0.100
299.300	-20.171	0.100
299.400	-21.959	0.100
299.500	-25.662	0.100
299.600	-17.257	0.100
299.700	-23.073	0.100
299.800	-13.791	0.100
299.900	-23.888	0.100
300.000	-27.667	0.100
300.100	-13.560	0.100
300.200	-10.661	0.100
300.300	-13.762	0.100
300.400	-7.283	0.100
300.500	-15.856	0.100
300.600	-24.604	0.100
300.700	-28.012	0.100
300.800	-47.093	0.100
300.900	-22.235	0.100
301.000	-15.490	0.100
301.100	-12.307	0.100
301.200	-17.728	0.100
301.300	-27.344	0.100
301.400	-28.621	0.100
301.500	-14.283	0.100
301.600	-35.088	0.100
301.700	-11.498	0.100
301.800	-30.502	0.100
301.900	-15.757	0.100
302.000	-25.304	0.100
302.100	-24.252	0.100
302.200	-22.980	0.100
302.300	-28.439	0.100
302.400	-12.971	0.100
302.500	-6.589	0.100
302.600	-17.125	0.100
302.700	-32.038	0.100
302.800	-26.162	0.100
302.900	-30.315	0.100
303.000	-22.891	0.100
303.100	1.349	0.100
303.200	-10.266	0.100
303.300	-14.872	0.100
303.400	-16.382	0.100
303.500	-19.747	0.100
303.600	-29.004	0.100
303.700	-23.841	0.100
303.800	-13.001	0.100
303.900	-9.317	0.100
304.000	-16.454	0.100
304.100	-23.009	0.100
304.200	-24.559	0.100
304.300	-14.668	0.100
304.400	-35.239	0.100
304.500	-15.516	0.100
304.600	-4.255	0.100
304.700	-15.904	0.100
304.800	-19.181	0.100
304.900	-14.604	0.100
305.000	-32.526	0.100
305.100	-17.422	0.100
305.200	-20.048	0.100
305.300	-18.546	0.100
305.400	-16.923	0.100
305.500	-16.618	0.100
305.600	-30.015	0.100
305.700	-15.136	0.100
305.800	-25.879	0.100
305.900	-5.275	0.100
306.000	-24.079	0.100
306.100	-29.171	0.100
306.200	-25.040	0.100
306.300	-20.850	0.100
306.400	-9.161	0.100
306.500	-16.691	0.100
306.600	-11.616	0.100
306.700	-21.146	0.100
306.800	-13.230	0.100
306.900	-21.954	0.100
307.000	-28.006	0.100
307.100	-15.905	0.100
307.200	-16.330	0.100
307.300	-16.003	0.100
307.400	-16.074	0.100
307.500	-24.785	0.100
307.600	-15.189	0.100
307.700	-11.443	0.100
307.800	-16.341	0.100
307.900	-14.497	0.100
308.000	-22.878	0.100
308.100	-20.644	0.100
308.200	-18.971	0.100
308.300	-33.445	0.100
308.400	-23.752	0.100
308.500	-25.625	0.100
308.600	-5.549	0.100
308.700	-25.578	0.100
308.800	-18.353	0.100
308.900	-28.035	0.100
309.000	-20.960	0.100
309.100	-15.646	0.100
309.200	-19.370	0.100
309.300	-27.008	0.100
309.400	-15.586	0.100
309.500	-6.204	0.100
309.600	-21.966	0.100
309.700	-24.258	0.100
309.800	-29.610	0.100
309.900	-8.508	0.100
310.000	-10.462	0.100
310.100	-14.393	0.100
310.200	-19.745	0.100
310.300	-28.075	0.100
310.400	-25.843	0.100
310.500	-20.773	0.100
310.600	-8.863	0.100
310.700	-16.963	0.100
310.800	-20.336	0.100
310.900	-24.059	0.100
311.000	-11.768	0.100
311.100	-24.551	0.100
311.200	-17.212	0.100
311.300	-8.595	0.100
311.400	-23.755	0.100
311.500	-17.582	0.100
311.600	-19.057	0.100
311.700	-15.341	0.100
311.800	-18.058	0.100
311.900	-16.895	0.100
312.000	-11.611	0.100
312.100	-17.324	0.100
312.200	-18.944	0.100
312.300	-20.190	0.100
312.400	-12.909	0.100
312.500	-27.372	0.100
312.600	-12.683	0.100
312.700	-14.551	0.100
312.800	-20.367	0.100
312.900	-10.939	0.100
313.000	-23.415	0.100
313.100	-30.958	0.100
313.200	-14.922	0.100
313.300	0.849	0.100
313.400	-12.444	0.100
313.500	-28.203	0.100
313.600	-10.754	0.100
313.700	-27.974	0.100
313.800	-19.498	0.100
313.900	-12.420	0.100
314.000	-23.308	0.100
314.100	-20.529	0.100
314.200	-7.056	0.100
314.300	-35.773	0.100
314.400	-37.057	0.100
314.500	-40.227	0.100
314.600	-24.353	0.100
314.700	-12.590	0.100
314.800	-25.647	0.100
314.900	-10.729	0.100
315.000	-10.207	0.100
315.100	-9.294	0.100
315.200	-5.245	0.100
315.300	-16.986	0.100
315.400	-14.121	0.100
315.500	-7.510	0.100
315.600	-14.910	0.100
315.700	-18.379	0.100
315.800	-39.327	0.100
315.900	-27.672	0.100
316.000	-41.628	0.100
316.100	-42.154	0.100
316.200	-10.721	0.100
316.300	-20.002	0.100
316.400	-22.477	0.100
316.500	-29.825	0.100
316.600	-31.065	0.100
316.700	-24.319	0.100
316.800	-9.699	0.100
316.900	-11.222	0.100
317.000	-15.981	0.100
317.100	-16.774	0.100
317.200	-31.270	0.100
317.300	-18.004	0.100
317.400	-17.265	0.100
317.500	-17.248	0.100
317.600	-3.897	0.100
317.700	0.241	0.100
317.800	-26.200	0.100
317.900	-14.729	0.100
318.000	-23.392	0.100
318.100	-17.247	0.100
318.200	-22.570	0.100
318.300	-15.448	0.100
318.400	-20.798	0.100
318.500	-21.382	0.100
318.600	-20.183	0.100
318.700	-21.064	0.100
318.800	-10.881	0.100
318.900	-14.974	0.100
319.000	-18.347	0.100
319.100	-17.588	0.100
319.200	-25.220	0.100
319.300	-27.308	0.100
319.400	-15.883	0.100
319.500	-28.495	0.100
319.600	2.845	0.100
319.700	-12.326	0.100
319.800	-21.207	0.100
319.900	-12.648	0.100
320.000	-22.575	0.100
320.100	-11.264	0.100
320.200	-18.504	0.100
320.300	-7.955	0.100
320.400	-15.229	0.100
320.500	-13.959	0.100
320.600	-14.028	0.100
320.700	-16.110	0.100
320.800	-15.663	0.100
320.900	-22.017	0.100
321.000	-24.762	0.100
321.100	-22.218	0.100
321.200	-19.973	0.100
321.300	-36.176	0.100
321.400	-11.503	0.100
321.500	-13.286	0.100
321.600	-7.300	0.100
321.700	-25.119	0.100
321.800	-11.509	0.100
321.900	-24.575	0.100
322.000	-18.511	0.100
322.100	-19.646	0.100
322.200	-16.761	0.100
322.300	-22.496	0.100
322.400	-27.094	0.100
322.500	-20.201	0.100
322.600	-13.196	0.100
322.700	-9.142	0.100
322.800	-23.282	0.100
322.900	-18.205	0.100
323.000	-20.759	0.100
323.100	-21.732	0.100
323.200	-29.252	0.100
323.300	-25.211	0.100
323.400	-17.897	0.100
323.500	-32.034	0.100
323.600	-16.243	0.100
323.700	-13.211	0.100
323.800	11.058	0.100
323.900	-9.099	0.100
324.000	-17.772	0.100
324.100	-14.758	0.100
324.200	-26.155	0.100
324.300	-16.766	0.100
324.400	-9.224	0.100
324.500	-17.692	0.100
324.600	-8.060	0.100
324.700	-21.448	0.100
324.800	-20.789	0.100
324.900	-15.304	0.100
325.000	-23.858	0.100
325.100	-28.478	0.100
325.200	-15.719	0.100
325.300	-23.953	0.100
325.400	-13.273	0.100
325.500	-14.957	0.100
325.600	-9.936	0.100
325.700	-17.668	0.100
325.800	-19.689	0.100
325.900	-30.423	0.100
326.000	-7.388	0.100
326.100	-5.412	0.100
326.200	-19.439	0.100
326.300	-11.207	0.100
326.400	-10.553	0.100
326.500	-16.815	0.100
326.600	-39.919	0.100
326.700	-20.307	0.100
326.800	-24.223	0.100
326.900	-11.678	0.100
327.000	-5.609	0.100
327.100	-6.477	0.100
327.200	-19.170	0.100
327.300	-24.394	0.100
327.400	-15.537	0.100
327.500	-18.051	0.100
327.600	-13.070	0.100
327.700	-17.675	0.100
327.800	-28.711	0.100
327.900	-33.618	0.100
328.000	-1.831	0.100
328.100	-15.686	0.100
328.200	-18.217	0.100
328.300	-17.919	0.100
328.400	-28.777	0.100
328.500	-23.349	0.100
328.600	-22.535	0.100
328.700	-6.579	0.100
328.800	-8.107	0.100
328.900	-35.113	0.100
329.000	-10.084	0.100
329.100	-20.482	0.100
329.200	-25.805	0.100
329.300	-5.112	0.100
329.400	-15.765	0.100
329.500	-26.120	0.100
329.600	-18.111	0.100
329.700	-13.869	0.100
329.800	-10.440	0.100
329.900	-17.593	0.100
330.000	-20.418	0.100
330.100	-29.805	0.100
330.200	-4.223	0.100
330.300	10.816	0.100
330.400	-16.818	0.100
330.500	-21.713	0.100
330.600	-6.210	0.100
330.700	-21.319	0.100
330.800	-23.904	0.100
330.900	-1.817	0.100
331.000	-4.689	0.100
331.100	-10.316	0.100
331.200	-14.726	0.100
331.300	-8.064	0.100
331.400	-13.258	0.100
331.500	-15.374	0.100
331.600	-20.454	0.100
331.700	-1.804	0.100
331.800	-3.167	0.100
331.900	12.433	0.100
332.000	11.968	0.100
332.100	5.726	0.100
332.200	7.890	0.100
332.300	0.242	0.100
332.400	7.259	0.100
332.500	6.336	0.100
332.600	14.501	0.100
332.700	-12.339	0.100
332.800	4.344	0.100
332.900	4.262	0.100
333.000	27.174	0.100
333.100	22.900	0.100
333.200	28.533	0.100
333.300	23.547	0.100
333.400	18.927	0.100
333.500	19.862	0.100
333.600	17.184	0.100
333.700	30.761	0.100
333.800	29.291	0.100
333.900	25.674	0.100
334.000	17.903	0.100
334.100	23.307	0.100
334.200	34.323	0.100
334.300	37.058	0.100
334.400	13.835	0.100
334.500	17.797	0.100
334.600	14.823	0.100
334.700	40.261	0.100
334.800	25.905	0.100
334.900	18.802	0.100
335.000	22.987	0.100
335.100	24.895	0.100
335.200	28.612	0.100
335.300	32.773	0.100
335.400	15.304	0.100
335.500	35.085	0.100
335.600	31.730	0.100
335.700	21.977	0.100
335.800	28.036	0.100
335.900	30.887	0.100
336.000	5.963	0.100
336.100	22.030	0.100
336.200	37.234	0.100
336.300	26.430	0.100
336.400	27.228	0.100
336.500	39.176	0.100
336.600	36.651	0.100
336.700	31.197	0.100
336.800	19.566	0.100
336.900	32.903	0.100
337.000	44.865	0.100
337.100	32.263	0.100
337.200	29.305	0.100
337.300	26.136	0.100
337.400	27.137	0.100
337.500	34.128	0.100
337.600	20.033	0.100
337.700	23.902	0.100
337.800	23.684	0.100
337.900	39.441	0.100
338.000	33.086	0.100
338.100	31.856	0.100
338.200	27.400	0.100
338.300	33.183	0.100
338.400	25.756	0.100
338.500	24.083	0.100
338.600	41.967	0.100
338.700	33.264	0.100
338.800	25.519	0.100
338.900	34.248	0.100
339.000	35.217	0.100
339.100	46.126	0.100
339.200	43.769	0.100
339.300	34.754	0.100
339.400	36.425	0.100
339.500	18.559	0.100
339.600	30.472	0.100
339.700	26.910	0.100
339.800	34.546	0.100
339.900	23.752	0.100
340.000	25.053	0.100
340.100	36.846	0.100
340.200	34.285	0.100
340.300	51.859	0.100
340.400	37.572	0.100
340.500	32.955	0.100
340.600	18.047	0.100
340.700	40.699	0.100
340.800	36.853	0.100
340.900	47.090	0.100
341.000	34.152	0.100
341.100	35.518	0.100
341.200	34.734	0.100
341.300	42.441	0.100
341.400	26.511	0.100
341.500	32.000	0.100
341.600	43.247	0.100
341.700	59.092	0.100
341.800	39.918	0.100
341.900	33.327	0.100
342.000	43.275	0.100
342.100	31.945	0.100
342.200	32.436	0.100
342.300	34.615	0.100
342.400	30.994	0.100
342.500	37.899	0.100
342.600	38.461	0.100
342.700	27.328	0.100
342.800	37.160	0.100
342.900	49.184	0.100
343.000	48.131	0.100
343.100	38.826	0.100
343.200	44.185	0.100
343.300	35.257	0.100
343.400	37.116	0.100
343.500	41.269	0.100
343.600	52.921	0.100
343.700	51.316	0.100
343.800	43.673	0.100
343.900	37.603	0.100
344.000	32.032	0.100
344.100	34.143	0.100
344.200	42.123	0.100
344.300	45.099	0.100
344.400	46.736	0.100
344.500	48.892	0.100
344.600	38.245	0.100
344.700	44.279	0.100
344.800	49.336	0.100
344.900	52.585	0.100
345.000	30.839	0.100
345.100	53.207	0.100
345.200	54.119	0.100
345.300	44.972	0.100
345.400	47.440	0.100
345.500	48.857	0.100
345.600	59.157	0.100
345.700	44.117	0.100
345.800	50.142	0.100
345.900	54.850	0.100
346.000	43.313	0.100
346.100	39.797	0.100
346.200	56.680	0.100
346.300	45.923	0.100
346.400	46.346	0.100
346.500	53.429	0.100
346.600	59.340	0.100
346.700	47.611	0.100
346.800	52.688	0.100
346.900	57.957	0.100
347.000	31.022	0.100
347.100	59.874	0.100
347.200	59.522	0.100
347.300	51.356	0.100
347.400	43.170	0.100
347.500	57.043	0.100
347.600	52.053	0.100
347.700	64.936	0.100
347.800	54.268	0.100
347.900	54.422	0.100
348.000	52.140	0.100
348.100	52.350	0.100
348.200	57.542	0.100
348.300	55.474	0.100
348.400	53.078	0.100
348.500	54.809	0.100
348.600	46.472	0.100
348.700	43.252	0.100
348.800	59.774	0.100
348.900	64.521	0.100
349.000	56.288	0.100
349.100	63.924	0.100
349.200	66.913	0.100
349.300	58.164	0.100
349.400	51.256	0.100
349.500	37.812	0.100
349.600	53.745	0.100
349.700	52.864	0.100
349.800	57.504	0.100
349.900	63.023	0.100
350.000	56.278	0.100
350.100	72.178	0.100
350.200	66.292	0.100
350.300	52.905	0.100
350.400	60.547	0.100
350.500	62.498	0.100
350.600	60.069	0.100
350.700	67.601	0.100
350.800	66.725	0.100
350.900	56.575	0.100
351.000	62.265	0.100
351.100	58.432	0.100
351.200	71.777	0.100
351.300	62.256	0.100
351.400	58.631	0.100
351.500	50.124	0.100
351.600	69.100	0.100
351.700	66.556	0.100
351.800	53.736	0.100
351.900	67.211	0.100
352.000	69.213	0.100
352.100	72.904	0.100
352.200	56.318	0.100
352.300	63.871	0.100
352.400	69.172	0.100
352.500	59.257	0.100
352.600	65.325	0.100
352.700	75.537	0.100
352.800	70.707	0.100
352.900	69.042	0.100
353.000	67.767	0.100
353.100	73.504	0.100
353.200	50.309	0.100
353.300	67.450	0.100
353.400	75.048	0.100
353.500	64.520	0.100
353.600	62.032	0.100
353.700	72.039	0.100
353.800	66.531	0.100
353.900	56.828	0.100
354.000	70.642	0.100
354.100	64.844	0.100
354.200	81.572	0.100
354.300	74.093	0.100
354.400	75.747	0.100
354.500	56.092	0.100
354.600	69.494	0.100
354.700	64.197	0.100
354.800	79.247	0.100
354.900	59.895	0.100
355.000	76.669	0.100
355.100	68.286	0.100
355.200	54.048	0.100
355.300	52.722	0.100
355.400	64.196	0.100
355.500	90.146	0.100
355.600	82.452	0.100
355.700	67.225	0.100
355.800	58.157	0.100
355.900	71.187	0.100
356.000	70.413	0.100
356.100	75.701	0.100
356.200	69.126	0.100
356.300	76.107	0.100
356.400	64.798	0.100
356.500	76.897	0.100
356.600	76.641	0.100
356.700	76.937	0.100
356.800	70.018	0.100
356.900	71.880	0.100
357.000	75.813	0.100
357.100	55.094	0.100
357.200	65.787	0.100
357.300	64.339	0.100
357.400	72.129	0.100
357.500	74.017	0.100
357.600	57.791	0.100
357.700	87.258	0.100
357.800	88.355	0.100
357.900	83.325	0.100
358.000	76.955	0.100
358.100	70.514	0.100
358.200	82.630	0.100
358.300	77.457	0.100
358.400	57.781	0.100
358.500	73.254	0.100
358.600	85.617	0.100
358.700	73.140	0.100
358.800	53.987	0.100
358.900	81.424	0.100
359.000	82.211	0.100
359.100	86.368	0.100
359.200	87.762	0.100
359.300	78.877	0.100
359.400	75.768	0.100
359.500	73.163	0.100
359.600	67.694	0.100
359.700	72.452	0.100
359.800	69.610	0.100
359.900	93.194	0.100
360.000	79.294	0.100
360.100	69.105	0.100
360.200	71.056	0.100
360.300	62.880	0.100
360.400	64.641	0.100
360.500	84.570	0.100
360.600	77.248	0.100
360.700	73.587	0.100
360.800	73.672	0.100
360.900	66.011	0.100
361.000	69.650	0.100
361.100	77.350	0.100
361.200	88.189	0.100
361.300	75.294	0.100
361.400	77.861	0.100
361.500	77.698	0.100
361.600	79.880	0.100
361.700	77.860	0.100
361.800	78.615	0.100
361.900	71.869	0.100
362.000	78.624	0.100
362.100	72.352	0.100
362.200	60.335	0.100
362.300	58.825	0.100
362.400	71.863	0.100
362.500	76.765	0.100
362.600	65.965	0.100
362.700	76.252	0.100
362.800	84.876	0.100
362.900	78.455	0.100
363.000	72.953	0.100
363.100	58.144	0.100
363.200	80.864	0.100
363.300	76.007	0.100
363.400	70.160	0.100
363.500	75.748	0.100
363.600	67.810	0.100
363.700	66.291	0.100
363.800	69.838	0.100
363.900	85.063	0.100
364.000	74.927	0.100
364.100	83.690	0.100
364.200	74.747	0.100
364.300	76.495	0.100
364.400	80.680	0.100
364.500	75.467	0.100
364.600	76.326	0.100
364.700	76.370	0.100
364.800	71.379	0.100
364.900	70.564	0.100
365.000	71.949	0.100
365.100	77.356	0.100
365.200	68.914	0.100
365.300	71.065	0.100
365.400	72.114	0.100
365.500	76.333	0.100
365.600	82.803	0.100
365.700	74.062	0.100
365.800	77.640	0.100
365.900	69.812	0.100
366.000	74.534	0.100
366.100	83.163	0.100
366.200	81.215	0.100
366.300	73.492	0.100
366.400	71.162	0.100
366.500	69.607	0.100
366.600	75.727	0.100
366.700	81.548	0.100
366.800	78.666	0.100
366.900	79.234	0.100
367.000	67.080	0.100
367.100	86.435	0.100
367.200	71.108	0.100
367.300	72.661	0.100
367.400	74.405	0.100
367.500	82.724	0.100
367.600	66.840	0.100
367.700	72.711	0.100
367.800	72.917	0.100
367.900	74.430	0.100
368.000	61.656	0.100
368.100	66.791	0.100
368.200	84.302	0.100
368.300	66.272	0.100
368.400	79.584	0.100
368.500	78.798	0.100
368.600	71.495	0.100
368.700	77.110	0.100
368.800	71.279	0.100
368.900	74.049	0.100
369.000	64.769	0.100
369.100	75.145	0.100
369.200	72.381	0.100
369.300	77.119	0.100
369.400	89.080	0.100
369.500	56.994	0.100
369.600	77.920	0.100
369.700	74.214	0.100
369.800	75.530	0.100
369.900	78.714	0.100
370.000	78.095	0.100
370.100	53.759	0.100
370.200	68.286	0.100
370.300	85.693	0.100
370.400	83.590	0.100
370.500	67.528	0.100
370.600	72.485	0.100
370.700	74.249	0.100
370.800	61.854	0.100
370.900	74.309	0.100
371.000	74.163	0.100
371.100	74.184	0.100
371.200	78.697	0.100
371.300	71.925	0.100
371.400	70.153	0.100
371.500	67.079	0.100
371.600	67.103	0.100
371.700	72.158	0.100
371.800	67.763	0.100
371.900	68.069	0.100
372.000	50.698	0.100
372.100	68.556	0.100
372.200	65.546	0.100
372.300	73.176	0.100
372.400	83.823	0.100
372.500	72.678	0.100
372.600	63.399	0.100
372.700	75.345	0.100
372.800	72.907	0.100
372.900	59.391	0.100
373.000	79.810	0.100
373.100	76.158	0.100
373.200	76.513	0.100
373.300	65.712	0.100
373.400	66.990	0.100
373.500	67.613	0.100
373.600	48.591	0.100
373.700	65.097	0.100
373.800	67.918	0.100
373.900	67.686	0.100
374.000	75.017	0.100
374.100	70.664	0.100
374.200	63.231	0.100
374.300	76.646	0.100
374.400	63.292	0.100
374.500	72.556	0.100
374.600	69.515	0.100
374.700	69.413	0.100
374.800	69.329	0.100
374.900	65.960	0.100
375.000	83.002	0.100
375.100	64.465	0.100
375.200	64.282	0.100
375.300	70.336	0.100
375.400	68.480	0.100
375.500	60.850	0.100
375.600	75.778	0.100
375.700	73.124	0.100
375.800	60.567	0.100
375.900	54.515	0.100
376.000	73.345	0.100
376.100	75.588	0.100
376.200	73.184	0.100
376.300	71.286	0.100
376.400	65.494	0.100
376.500	63.688	0.100
376.600	69.051	0.100
376.700	76.842	0.100
376.800	67.098	0.100
376.900	60.514	0.100
377.000	60.318	0.100
377.100	66.618	0.100
377.200	66.328	0.100
377.300	83.394	0.100
377.400	71.360	0.100
377.500	80.035	0.100
377.600	60.882	0.100
377.700	58.949	0.100
377.800	76.207	0.100
377.900	77.338	0.100
378.000	72.959	0.100
378.100	65.493	0.100
378.200	65.249	0.100
378.300	68.561	0.100
378.400	69.159	0.100
378.500	58.458	0.100
378.600	72.291	0.100
378.700	77.569	0.100
378.800	64.794	0.100
378.900	51.589	0.100
379.000	76.501	0.100
379.100	72.239	0.100
379.200	68.115	0.100
379.300	68.338	0.100
379.400	74.111	0.100
379.500	65.373	0.100
379.600	58.818	0.100
379.700	61.533	0.100
379.800	74.094	0.100
379.900	68.032	0.100
380.000	66.410	0.100
380.100	62.539	0.100
380.200	57.558	0.100
380.300	69.287	0.100
380.400	76.959	0.100
380.500	68.409	0.100
380.600	62.576	0.100
380.700	74.564	0.100
380.800	72.297	0.100
380.900	72.684	0.100
381.000	72.498	0.100
381.100	69.916	0.100
381.200	70.221	0.100
381.300	76.428	0.100
381.400	58.624	0.100
381.500	71.407	0.100
381.600	67.044	0.100
381.700	64.910	0.100
381.800	74.367	0.100
381.900	73.793	0.100
382.000	70.399	0.100
382.100	74.771	0.100
382.200	61.681	0.100
382.300	68.478	0.100
382.400	55.672	0.100
382.500	67.699	0.100
382.600	82.862	0.100
382.700	46.359	0.100
382.800	58.533	0.100
382.900	72.284	0.100
383.000	76.248	0.100
383.100	63.123	0.100
383.200	69.921	0.100
383.300	50.766	0.100
383.400	54.763	0.100
383.500	72.516	0.100
383.600	73.961	0.100
383.700	65.424	0.100
383.800	60.101	0.100
383.900	64.934	0.100
384.000	66.626	0.100
384.100	70.167	0.100
384.200	60.893	0.100
384.300	67.860	0.100
384.400	57.796	0.100
384.500	76.937	0.100
384.600	70.699	0.100
384.700	69.565	0.100
384.800	61.538	0.100
384.900	72.818	0.100
385.000	63.333	0.100
385.100	62.686	0.100
385.200	55.707	0.100
385.300	66.508	0.100
385.400	77.216	0.100
385.500	65.051	0.100
385.600	59.182	0.100
385.700	62.392	0.100
385.800	70.474	0.100
385.900	70.713	0.100
386.000	74.665	0.100
386.100	67.162	0.100
386.200	61.874	0.100
386.300	61.729	0.100
386.400	65.973	0.100
386.500	72.222	0.100
386.600	76.749	0.100
386.700	60.693	0.100
386.800	68.601	0.100
386.900	69.611	0.100
387.000	68.274	0.100
387.100	63.888	0.100
387.200	54.255	0.100
387.300	71.707	0.100
387.400	73.395	0.100
387.500	68.069	0.100
387.600	52.805	0.100
387.700	65.612	0.100
387.800	58.334	0.100
387.900	67.981	0.100
388.000	74.858	0.100
388.100	63.764	0.100
388.200	50.000	0.100
388.300	58.718	0.100
388.400	58.241	0.100
388.500	56.938	0.100
388.600	75.357	0.100
388.700	72.963	0.100
388.800	59.193	0.100
388.900	63.871	0.100
389.000	78.003	0.100
389.100	67.478	0.100
389.200	64.016	0.100
389.300	64.891	0.100
389.400	69.730	0.100
389.500	55.203	0.100
389.600	75.315	0.100
389.700	67.399	0.100
389.800	73.665	0.100
389.900	58.547	0.100
390.000	51.977	0.100
390.100	49.529	0.100
390.200	72.919	0.100
390.300	72.166	0.100
390.400	56.204	0.100
390.500	61.215	0.100
390.600	65.679	0.100
390.700	74.010	0.100
390.800	48.058	0.100
390.900	65.509	0.100
391.000	61.842	0.100
391.100	60.603	0.100
391.200	57.020	0.100
391.300	58.729	0.100
391.400	54.314	0.100
391.500	58.584	0.100
391.600	53.015	0.100
391.700	48.474	0.100
391.800	38.889	0.100
391.900	55.214	0.100
392.000	57.015	0.100
392.100	51.596	0.100
392.200	51.241	0.100
392.300	49.947	0.100
392.400	54.016	0.100
392.500	52.885	0.100
392.600	40.929	0.100
392.700	33.514	0.100
392.800	28.050	0.100
392.900	34.309	0.100
393.000	35.202	0.100
393.100	30.750	0.100
393.200	27.362	0.100
393.300	29.257	0.100
393.400	19.057	0.100
393.500	41.195	0.100
393.600	34.799	0.100
393.700	22.733	0.100
393.800	34.901	0.100
393.900	17.093	0.100
394.000	13.803	0.100
394.100	24.719	0.100
394.200	9.006	0.100
394.300	17.860	0.100
394.400	30.852	0.100
394.500	7.608	0.100
394.600	15.691	0.100
394.700	25.068	0.100
394.800	13.551	0.100
394.900	-10.208	0.100
395.000	15.048	0.100
395.100	25.424	0.100
395.200	15.926	0.100
395.300	16.105	0.100
395.400	18.085	0.100
395.500	15.873	0.100
395.600	5.682	0.100
395.700	7.338	0.100
395.800	7.923	0.100
395.900	9.169	0.100
396.000	4.384	0.100
396.100	5.809	0.100
396.200	3.484	0.100
396.300	11.738	0.100
396.400	-5.724	0.100
396.500	2.515	0.100
396.600	7.491	0.100
396.700	5.631	0.100
396.800	6.768	0.100
396.900	10.304	0.100
397.000	10.730	0.100
397.100	3.132	0.100
397.200	2.180	0.100
397.300	0.104	0.100
397.400	3.022	0.100
397.500	-5.960	0.100
397.600	1.513	0.100
397.700	-3.178	0.100
397.800	-3.096	0.100
397.900	0.920	0.100
398.000	0.623	0.100
398.100	19.893	0.100
398.200	-4.760	0.100
398.300	-7.215	0.100
398.400	1.410	0.100
398.500	11.265	0.100
398.600	7.788	0.100
398.700	-2.058	0.100
398.800	-8.446	0.100
398.900	3.223	0.100
399.000	-1.680	0.100
399.100	0.312	0.100
399.200	4.025	0.100
399.300	1.491	0.100
399.400	2.312	0.100
399.500	-10.401	0.100
399.600	-9.916	0.100
399.700	10.291	0.100
399.800	12.917	0.100
399.900	-7.049	0.100
400.000	-3.140	0.100
400.100	-3.746	0.100
400.200	-13.237	0.100
400.300	-11.606	0.100
400.400	-0.137	0.100
400.500	-14.403	0.100
400.600	-3.275	0.100
400.700	-6.484	0.100
400.800	-14.984	0.100
400.900	-16.172	0.100
401.000	-15.189	0.100
401.100	9.642	0.100
401.200	5.477	0.100
401.300	-6.565	0.100
401.400	2.627	0.100
401.500	-1.476	0.100
401.600	-5.532	0.100
401.700	-13.929	0.100
401.800	-2.150	0.100
401.900	-8.686	0.100
402.000	1.391	0.100
402.100	7.617	0.100
402.200	-2.217	0.100
402.300	-6.889	0.100
402.400	-14.687	0.100
402.500	-9.939	0.100
402.600	-2.224	0.100
402.700	-7.467	0.100
402.800	-10.824	0.100
402.900	-16.700	0.100
403.000	-1.863	0.100
403.100	1.870	0.100
403.200	0.464	0.100
403.300	14.121	0.100
403.400	1.947	0.100
403.500	-5.356	0.100
403.600	-17.070	0.100
403.700	-7.564	0.100
403.800	-3.110	0.100
403.900	-9.072	0.100
404.000	0.075	0.100
404.100	-11.497	0.100
404.200	-15.510	0.100
404.300	-4.399	0.100
404.400	-0.150	0.100
404.500	-9.349	0.100
404.600	-1.937	0.100
404.700	-7.598	0.100
404.800	-16.440	0.100
404.900	-7.413	0.100
405.000	9.384	0.100
405.100	-0.112	0.100
405.200	-3.468	0.100
405.300	-26.864	0.100
405.400	-20.729	0.100
405.500	-5.416	0.100
405.600	-4.273	0.100
405.700	10.119	0.100
405.800	-0.820	0.100
405.900	-8.508	0.100
406.000	-3.830	0.100
406.100	-8.564	0.100
406.200	-13.533	0.100
406.300	-10.630	0.100
406.400	-11.990	0.100
406.500	0.960	0.100
406.600	-4.986	0.100
406.700	-3.318	0.100
406.800	-5.492	0.100
406.900	-19.406	0.100
407.000	-7.296	0.100
407.100	-9.043	0.100
407.200	-6.340	0.100
407.300	-15.608	0.100
407.400	-12.850	0.100
407.500	-0.107	0.100
407.600	-10.019	0.100
407.700	-7.467	0.100
407.800	-4.329	0.100
407.900	1.068	0.100
408.000	0.894	0.100
408.100	-4.883	0.100
408.200	-26.943	0.100
408.300	-3.343	0.100
408.400	-14.234	0.100
408.500	-1.088	0.100
408.600	-0.775	0.100
408.700	-15.894	0.100
408.800	-16.393	0.100
408.900	-5.685	0.100
409.000	-17.296	0.100
409.100	-22.723	0.100
409.200	-0.566	0.100
409.300	0.933	0.100
409.400	2.325	0.100
409.500	-7.241	0.100
409.600	-12.363	0.100
409.700	-15.470	0.100
409.800	-8.845	0.100
409.900	-9.094	0.100
410.000	-9.605	0.100
410.100	-13.494	0.100
410.200	-9.279	0.100
410.300	-1.164	0.100
410.400	-3.599	0.100
410.500	-15.321	0.100
410.600	-1.672	0.100
410.700	-10.276	0.100
410.800	-21.008	0.100
410.900	-15.277	0.100
411.000	-23.615	0.100
411.100	-13.739	0.100
411.200	-7.049	0.100
411.300	-12.498	0.100
411.400	-16.198	0.100
411.500	2.663	0.100
411.600	-0.403	0.100
411.700	-9.769	0.100
411.800	-9.519	0.100
411.900	-12.826	0.100
412.000	2.221	0.100
412.100	-11.381	0.100
412.200	-11.296	0.100
412.300	-12.569	0.100
412.400	-25.776	0.100
412.500	-10.279	0.100
412.600	-15.933	0.100
412.700	-23.158	0.100
412.800	-24.316	0.100
412.900	-14.337	0.100
413.000	-12.993	0.100
413.100	-11.773	0.100
413.200	-13.504	0.100
413.300	-9.402	0.100
413.400	-13.261	0.100
413.500	-12.636	0.100
413.600	-12.923	0.100
413.700	-16.084	0.100
413.800	-16.946	0.100
413.900	-4.817	0.100
414.000	-3.473	0.100
414.100	-26.148	0.100
414.200	-20.211	0.100
414.300	-20.250	0.100
414.400	-31.427	0.100
414.500	-9.143	0.100
414.600	-1.395	0.100
414.700	-2.265	0.100
414.800	-4.421	0.100
414.900	-16.897	0.100
415.000	-25.473	0.100
415.100	-33.925	0.100
415.200	-9.092	0.100
415.300	-29.740	0.100
415.400	-17.978	0.100
415.500	-20.884	0.100
415.600	-14.552	0.100
415.700	-4.778	0.100
415.800	-14.416	0.100
415.900	-16.075	0.100
416.000	-28.810	0.100
416.100	-14.626	0.100
416.200	-18.533	0.100
416.300	-9.039	0.100
416.400	-11.812	0.100
416.500	-14.425	0.100
416.600	-17.393	0.100
416.700	-22.837	0.100
416.800	-21.365	0.100
416.900	-21.236	0.100
417.000	-17.770	0.100
417.100	-9.853	0.100
417.200	-13.788	0.100
417.300	-25.686	0.100
417.400	-37.278	0.100
417.500	-7.381	0.100
417.600	-14.529	0.100
417.700	-11.302	0.100
417.800	-25.848	0.100
417.900	-20.164	0.100
418.000	-20.437	0.100
418.100	-19.775	0.100
418.200	-19.785	0.100
418.300	-19.541	0.100
418.400	-8.859	0.100
418.500	-13.508	0.100
418.600	-10.330	0.100
418.700	-15.828	0.100
418.800	-27.119	0.100
418.900	-16.264	0.100
419.000	-22.659	0.100
419.100	-17.912	0.100
419.200	-28.657	0.100
419.300	-16.903	0.100
419.400	-16.997	0.100
419.500	-11.054	0.100
419.600	-28.862	0.100
419.700	-28.987	0.100
419.800	-13.824	0.100
419.900	-9.865	0.100
420.000	-18.169	0.100
420.100	-11.276	0.100
420.200	-12.154	0.100
420.300	-16.737	0.100
420.400	-14.997	0.100
420.500	-30.016	0.100
420.600	-15.238	0.100
420.700	-19.305	0.100
420.800	-10.664	0.100
420.900	-21.562	0.100
421.000	-17.985	0.100
421.100	-24.988	0.100
421.200	-16.915	0.100
421.300	-19.226	0.100
421.400	-23.487	0.100
421.500	-24.604	0.100
421.600	-24.050	0.100
421.700	-17.641	0.100
421.800	-12.687	0.100
421.900	-21.923	0.100
422.000	-15.744	0.100
422.100	-25.965	0.100
422.200	-24.625	0.100
422.300	-34.006	0.100
422.400	-21.920	0.100
422.500	-20.728	0.100
422.600	-24.660	0.100
422.700	-16.547	0.100
422.800	-24.393	0.100
422.900	-14.041	0.100
423.000	-36.303	0.100
423.100	-26.822	0.100
423.200	-17.122	0.100
423.300	-18.822	0.100
423.400	-17.363	0.100
423.500	-13.770	0.100
423.600	-22.637	0.100
423.700	-22.814	0.100
423.800	-29.585	0.100
423.900	-34.800	0.100
424.000	-25.499	0.100
424.100	-29.684	0.100
424.200	-25.768	0.100
424.300	-19.652	0.100
424.400	-33.952	0.100
424.500	-14.709	0.100
424.600	-7.312	0.100
424.700	-15.023	0.100
424.800	-17.847	0.100
424.900	-13.397	0.100
425.000	-14.179	0.100
425.100	-31.406	0.100
425.200	-32.000	0.100
425.300	-33.750	0.100
425.400	-32.791	0.100
425.500	-20.555	0.100
425.600	-29.187	0.100
425.700	-34.594	0.100
425.800	-15.278	0.100
425.900	-28.702	0.100
426.000	-30.354	0.100
426.100	-34.477	0.100
426.200	-9.469	0.100
426.300	-14.443	0.100
426.400	-37.989	0.100
426.500	-16.042	0.100
426.600	-18.796	0.100
426.700	-26.327	0.100
426.800	-28.220	0.100
426.900	-28.110	0.100
427.000	-24.762	0.100
427.100	-23.652	0.100
427.200	-37.457	0.100
427.300	-19.243	0.100
427.400	-18.059	0.100
427.500	-22.040	0.100
427.600	-21.569	0.100
427.700	-23.465	0.100
427.800	-27.311	0.100
427.900	-26.509	0.100
428.000	-20.969	0.100
428.100	-31.150	0.100
428.200	-22.453	0.100
428.300	-21.749	0.100
428.400	-17.742	0.100
428.500	-25.677	0.100
428.600	-24.695	0.100
428.700	-22.218	0.100
428.800	-23.867	0.100
428.900	-14.731	0.100
429.000	-41.765	0.100
429.100	-19.994	0.100
429.200	-32.625	0.100
429.300	-19.738	0.100
429.400	-29.152	0.100
429.500	-32.076	0.100
429.600	-30.778	0.100
429.700	-22.503	0.100
429.800	-22.323	0.100
429.900	-7.384	0.100
430.000	-32.966	0.100
430.100	-19.929	0.100
430.200	-23.516	0.100
430.300	-32.428	0.100
430.400	-34.321	0.100
430.500	-41.233	0.100
430.600	-17.632	0.100
430.700	-35.950	0.100
430.800	-20.597	0.100
430.900	-13.929	0.100
431.000	-32.881	0.100
431.100	-23.434	0.100
431.200	-21.861	0.100
431.300	-43.930	0.100
431.400	-21.972	0.100
431.500	-12.920	0.100
431.600	-24.601	0.100
431.700	-28.307	0.100
431.800	-27.765	0.100
431.900	-31.975	0.100
432.000	-38.377	0.100
432.100	-28.510	0.100
432.200	-24.070	0.100
432.300	-38.218	0.100
432.400	-25.999	0.100
432.500	-31.041	0.100
432.600	-19.218	0.100
432.700	-31.156	0.100
432.800	-30.986	0.100
432.900	-20.949	0.100
433.000	-13.841	0.100
433.100	-31.998	0.100
433.200	-35.137	0.100
433.300	-14.264	0.100
433.400	-26.920	0.100
433.500	-24.438	0.100
433.600	-34.104	0.100
433.700	-30.884	0.100
433.800	-28.736	0.100
433.900	-19.081	0.100
434.000	-14.398	0.100
434.100	-26.728	0.100
434.200	-25.992	0.100
434.300	-11.196	0.100
434.400	-35.182	0.100
434.500	-28.064	0.100
434.600	-29.849	0.100
434.700	-34.706	0.100
434.800	-31.397	0.100
434.900	-22.847	0.100
435.000	-15.528	0.100
435.100	-12.055	0.100
435.200	-35.613	0.100
435.300	-28.513	0.100
435.400	-30.189	0.100
435.500	-41.913	0.100
435.600	-25.685	0.100
435.700	-27.537	0.100
435.800	-38.234	0.100
435.900	-42.066	0.100
436.000	-19.638	0.100
436.100	-16.355	0.100
436.200	-13.773	0.100
436.300	-24.291	0.100
436.400	-31.053	0.100
436.500	-24.641	0.100
436.600	-31.701	0.100
436.700	-12.967	0.100
436.800	-29.940	0.100
436.900	-39.177	0.100
437.000	-25.381	0.100
437.100	-30.920	0.100
437.200	-30.212	0.100
437.300	-28.822	0.100
437.400	-12.934	0.100
437.500	-27.022	0.100
437.600	-28.953	0.100
437.700	-20.186	0.100
437.800	-19.500	0.100
437.900	-25.267	0.100
438.000	-25.950	0.100
438.100	-18.646	0.100
438.200	-21.443	0.100
438.300	-20.954	0.100
438.400	-30.551	0.100
438.500	-31.403	0.100
438.600	-29.374	0.100
438.700	-22.294	0.100
438.800	-33.838	0.100
438.900	-21.157	0.100
439.000	-30.907	0.100
439.100	-43.489	0.100
439.200	-30.340	0.100
439.300	-6.886	0.100
439.400	-24.295	0.100
439.500	-35.752	0.100
439.600	-22.143	0.100
439.700	-25.445	0.100
439.800	-39.674	0.100
439.900	-26.729	0.100
440.000	-30.273	0.100
440.100	-27.633	0.100
440.200	-33.926	0.100
440.300	-36.693	0.100
440.400	-32.176	0.100
440.500	-23.928	0.100
440.600	-40.345	0.100
440.700	-26.211	0.100
440.800	-24.958	0.100
440.900	-24.478	0.100
441.000	-21.218	0.100
441.100	-13.369	0.100
441.200	-40.118	0.100
441.300	-22.229	0.100
441.400	-29.182	0.100
441.500	-31.928	0.100
441.600	-22.936	0.100
441.700	-35.972	0.100
441.800	-28.346	0.100
441.900	-15.091	0.100
442.000	-42.519	0.100
442.100	-28.355	0.100
442.200	-18.600	0.100
442.300	-19.592	0.100
442.400	-20.363	0.100
442.500	-31.866	0.100
442.600	-31.569	0.100
442.700	-30.843	0.100
442.800	-38.571	0.100
442.900	-19.529	0.100
443.000	-36.652	0.100
443.100	-15.356	0.100
443.200	-36.567	0.100
443.300	-25.952	0.100
443.400	-24.947	0.100
443.500	-11.797	0.100
443.600	-27.513	0.100
443.700	-40.881	0.100
443.800	-40.307	0.100
443.900	-32.542	0.100
444.000	-32.697	0.100
444.100	-27.545	0.100
444.200	-22.323	0.100
444.300	-25.534	0.100
444.400	-18.902	0.100
444.500	-28.996	0.100
444.600	-22.819	0.100
444.700	-20.516	0.100
444.800	-36.228	0.100
444.900	-17.643	0.100
445.000	-19.456	0.100
445.100	-24.330	0.100
445.200	-28.491	0.100
445.300	-30.184	0.100
445.400	-29.110	0.100
445.500	-29.883	0.100
445.600	-29.011	0.100
445.700	-33.245	0.100
445.800	-25.821	0.100
445.900	-27.541	0.100
446.000	-26.575	0.100
446.100	-29.372	0.100
446.200	-26.051	0.100
446.300	-17.954	0.100
446.400	-23.964	0.100
446.500	-29.213	0.100
446.600	-17.345	0.100
446.700	-31.524	0.100
446.800	-22.590	0.100
446.900	-29.424	0.100
447.000	-26.717	0.100
447.100	-25.857	0.100
447.200	-30.101	0.100
447.300	-34.218	0.100
447.400	-14.579	0.100
447.500	-28.557	0.100
447.600	-12.446	0.100
447.700	-32.965	0.100
447.800	-28.843	0.100
447.900	-23.698	0.100
448.000	-35.121	0.100
448.100	-28.438	0.100
448.200	-33.391	0.100
448.300	-26.132	0.100
448.400	-28.280	0.100
448.500	-17.424	0.100
448.600	-36.919	0.100
448.700	-36.184	0.100
448.800	-21.198	0.100
448.900	-17.164	0.100
449.000	-22.496	0.100
449.100	-19.350	0.100
449.200	-21.081	0.100
449.300	-22.238	0.100
449.400	-10.671	0.100
449.500	-27.469	0.100
449.600	-37.776	0.100
449.700	-45.257	0.100
449.800	-20.367	0.100
449.900	-20.817	0.100
450.000	-20.492	0.100
450.100	-24.702	0.100
450.200	-24.347	0.100
450.300	-33.243	0.100
450.400	-33.584	0.100
450.500	-27.287	0.100
450.600	-27.866	0.100
450.700	-29.660	0.100
450.800	-20.846	0.100
450.900	-18.921	0.100
451.000	-35.323	0.100
451.100	-22.769	0.100
451.200	-31.900	0.100
451.300	-38.974	0.100
451.400	-29.123	0.100
451.500	-19.879	0.100
451.600	-31.791	0.100
451.700	-29.902	0.100
451.800	-24.039	0.100
451.900	-26.566	0.100
452.000	-22.071	0.100
452.100	-20.127	0.100
452.200	-22.434	0.100
452.300	-29.761	0.100
452.400	-24.595	0.100
452.500	-32.571	0.100
452.600	-16.440	0.100
452.700	-41.120	0.100
452.800	-14.839	0.100
452.900	-19.405	0.100
453.000	-16.508	0.100
453.100	-32.913	0.100
453.200	-38.444	0.100
453.300	-23.162	0.100
453.400	-36.097	0.100
453.500	-26.359	0.100
453.600	-29.688	0.100
453.700	-27.532	0.100
453.800	-17.658	0.100
453.900	-17.666	0.100
454.000	-14.286	0.100
454.100	-37.878	0.100
454.200	-30.131	0.100
454.300	-23.430	0.100
454.400	-28.451	0.100
454.500	-23.648	0.100
454.600	-24.215	0.100
454.700	-29.849	0.100
454.800	-40.007	0.100
454.900	-24.185	0.100
455.000	-27.322	0.100
455.100	-25.862	0.100
455.200	-29.699	0.100
455.300	-30.135	0.100
455.400	-32.415	0.100
455.500	-26.831	0.100
455.600	-27.497	0.100
455.700	-14.434	0.100
455.800	-36.763	0.100
455.900	-31.720	0.100
456.000	-25.494	0.100
456.100	-15.498	0.100
456.200	-20.352	0.100
456.300	-18.638	0.100
456.400	-28.755	0.100
456.500	-26.372	0.100
456.600	-27.585	0.100
456.700	-29.414	0.100
456.800	-32.735	0.100
456.900	-30.870	0.100
457.000	-21.737	0.100
457.100	-36.639	0.100
457.200	-16.504	0.100
457.300	-36.003	0.100
457.400	-33.285	0.100
457.500	-16.448	0.100
457.600	-23.298	0.100
457.700	-19.244	0.100
457.800	-20.894	0.100
457.900	-31.957	0.100
458.000	-38.692	0.100
458.100	-16.828	0.100
458.200	-35.142	0.100
458.300	-12.561	0.100
458.400	-19.201	0.100
458.500	-13.034	0.100
458.600	-24.306	0.100
458.700	-39.728	0.100
458.800	-30.218	0.100
458.900	-17.607	0.100
459.000	-13.310	0.100
459.100	-26.870	0.100
459.200	-31.897	0.100
459.300	-26.846	0.100
459.400	-28.660	0.100
459.500	-20.641	0.100
459.600	-20.814	0.100
459.700	-21.226	0.100
459.800	-18.077	0.100
459.900	-28.229	0.100
460.000	-39.129	0.100
460.100	-22.554	0.100
460.200	-19.300	0.100
460.300	-32.437	0.100
460.400	-19.673	0.100
460.500	-17.145	0.100
460.600	-20.787	0.100
460.700	-31.084	0.100
460.800	-22.540	0.100
460.900	-11.499	0.100
461.000	-33.301	0.100
461.100	-21.581	0.100
461.200	-12.484	0.100
461.300	-31.767	0.100
461.400	-38.385	0.100
461.500	-28.186	0.100
461.600	-13.752	0.100
461.700	-28.290	0.100
461.800	-24.047	0.100
461.900	-22.671	0.100
462.000	-7.416	0.100
462.100	-27.109	0.100
462.200	-35.572	0.100
462.300	-46.059	0.100
462.400	-39.307	0.100
462.500	-25.195	0.100
462.600	-28.797	0.100
462.700	-5.216	0.100
462.800	-41.738	0.100
462.900	-32.629	0.100
463.000	-12.177	0.100
463.100	-17.410	0.100
463.200	-16.870	0.100
463.300	-16.295	0.100
463.400	-29.027	0.100
463.500	-24.331	0.100
463.600	-23.560	0.100
463.700	-31.506	0.100
463.800	-35.466	0.100
463.900	-19.691	0.100
464.000	-21.151	0.100
464.100	-18.437	0.100
464.200	-26.455	0.100
464.300	-18.228	0.100
464.400	-24.347	0.100
464.500	-35.588	0.100
464.600	-27.976	0.100
464.700	-18.174	0.100
464.800	-24.299	0.100
464.900	-20.882	0.100
465.000	-29.100	0.100
465.100	-28.978	0.100
465.200	-14.484	0.100
465.300	-30.260	0.100
465.400	-16.407	0.100
465.500	-22.468	0.100
465.600	-17.263	0.100
465.700	-33.297	0.100
465.800	-19.971	0.100
465.900	-22.668	0.100
466.000	-29.814	0.100
466.100	-26.209	0.100
466.200	-12.523	0.100
466.300	-34.280	0.100
466.400	-31.439	0.100
466.500	-12.818	0.100
466.600	-21.399	0.100
466.700	-22.289	0.100
466.800	-21.015	0.100
466.900	-19.765	0.100
467.000	-35.367	0.100
467.100	-26.773	0.100
467.200	-23.819	0.100
467.300	-21.116	0.100
467.400	-15.303	0.100
467.500	-20.677	0.100
467.600	-28.773	0.100
467.700	-15.659	0.100
467.800	-24.554	0.100
467.900	-36.714	0.100
468.000	-28.782	0.100
468.100	-25.279	0.100
468.200	-28.416	0.100
468.300	-24.939	0.100
468.400	-30.309	0.100
468.500	-29.824	0.100
468.600	-15.098	0.100
468.700	-17.869	0.100
468.800	-21.498	0.100
468.900	-25.422	0.100
469.000	-27.256	0.100
469.100	-15.823	0.100
469.200	-26.225	0.100
469.300	-31.093	0.100
469.400	-25.161	0.100
469.500	-37.051	0.100
469.600	-41.730	0.100
469.700	-35.224	0.100
469.800	-14.559	0.100
469.900	-9.158	0.100
470.000	-18.287	0.100
470.100	-24.170	0.100
470.200	-24.215	0.100
470.300	-26.514	0.100
470.400	-25.019	0.100
470.500	-23.809	0.100
470.600	-13.390	0.100
470.700	-32.436	0.100
470.800	-18.515	0.100
470.900	-25.646	0.100
471.000	-28.720	0.100
471.100	-19.480	0.100
471.200	-10.172	0.100
471.300	-32.671	0.100
471.400	-29.532	0.100
471.500	-20.179	0.100
471.600	-27.371	0.100
471.700	-20.157	0.100
471.800	-23.912	0.100
471.900	-38.117	0.100
472.000	-31.431	0.100
472.100	-35.011	0.100
472.200	-24.658	0.100
472.300	-21.886	0.100
472.400	-25.166	0.100
472.500	-24.150	0.100
472.600	-27.249	0.100
472.700	-15.646	0.100
472.800	-11.777	0.100
472.900	-27.191	0.100
473.000	-16.774	0.100
473.100	-30.771	0.100
473.200	-20.108	0.100
473.300	-28.898	0.100
473.400	-27.816	0.100
473.500	-13.581	0.100
473.600	-32.283	0.100
473.700	-25.574	0.100
473.800	-40.103	0.100
473.900	-38.926	0.100
474.000	-18.348	0.100
474.100	-17.031	0.100
474.200	-17.451	0.100
474.300	-23.071	0.100
474.400	-14.425	0.100
474.500	-29.525	0.100
474.600	-35.872	0.100
474.700	-24.693	0.100
474.800	-14.378	0.100
474.900	-23.752	0.100
475.000	-19.486	0.100
475.100	-18.755	0.100
475.200	-29.228	0.100
475.300	-30.327	0.100
475.400	-20.388	0.100
475.500	-14.421	0.100
475.600	-18.852	0.100
475.700	-22.764	0.100
475.800	-24.230	0.100
475.900	-16.322	0.100
476.000	-32.894	0.100
476.100	-41.821	0.100
476.200	-28.991	0.100
476.300	-24.664	0.100
476.400	-13.241	0.100
476.500	-32.284	0.100
476.600	-25.186	0.100
476.700	-28.365	0.100
476.800	-28.040	0.100
476.900	-23.923	0.100
477.000	-22.097	0.100
477.100	-17.644	0.100
477.200	-16.145	0.100
477.300	-18.347	0.100
477.400	-11.086	0.100
477.500	-18.074	0.100
477.600	-29.420	0.100
477.700	-25.993	0.100
477.800	-26.808	0.100
477.900	-19.049	0.100
478.000	-27.950	0.100
478.100	-22.557	0.100
478.200	-36.775	0.100
478.300	-32.278	0.100
478.400	-16.122	0.100
478.500	-9.977	0.100
478.600	-19.771	0.100
478.700	-26.978	0.100
478.800	-29.121	0.100
478.900	-15.043	0.100
479.000	-16.153	0.100
479.100	-18.653	0.100
479.200	-18.186	0.100
479.300	-25.782	0.100
479.400	-29.011	0.100
479.500	-22.379	0.100
479.600	-18.073	0.100
479.700	-24.678	0.100
479.800	-5.504	0.100
479.900	-9.224	0.100
480.000	-41.952	0.100
480.100	-21.923	0.100
480.200	-21.133	0.100
480.300	-15.722	0.100
480.400	-30.370	0.100
480.500	-23.648	0.100
480.600	-19.090	0.100
480.700	-32.441	0.100
480.800	-21.669	0.100
480.900	-19.793	0.100
481.000	-7.715	0.100
481.100	-19.140	0.100
481.200	-22.312	0.100
481.300	-26.196	0.100
481.400	-12.619	0.100
481.500	-12.438	0.100
481.600	-13.656	0.100
481.700	-4.779	0.100
481.800	-12.869	0.100
481.900	8.086	0.100
482.000	-9.092	0.100
482.100	2.926	0.100
482.200	-5.629	0.100
482.300	2.892	0.100
482.400	10.626	0.100
482.500	12.031	0.100
482.600	1.706	0.100
482.700	17.474	0.100
482.800	17.133	0.100
482.900	16.577	0.100
483.000	2.353	0.100
483.100	6.701	0.100
483.200	11.203	0.100
483.300	22.497	0.100
483.400	5.404	0.100
483.500	19.434	0.100
483.600	24.910	0.100
483.700	24.957	0.100
483.800	11.356	0.100
483.900	20.416	0.100
484.000	19.844	0.100
484.100	25.423	0.100
484.200	29.278	0.100
484.300	26.811	0.100
484.400	16.877	0.100
484.500	19.068	0.100
484.600	31.313	0.100
484.700	29.715	0.100
484.800	24.514	0.100
484.900	18.131	0.100
485.000	25.504	0.100
485.100	32.456	0.100
485.200	23.850	0.100
485.300	29.293	0.100
485.400	27.864	0.100
485.500	36.437	0.100
485.600	25.819	0.100
485.700	24.062	0.100
485.800	23.247	0.100
485.900	16.748	0.100
486.000	30.767	0.100
486.100	22.261	0.100
486.200	26.303	0.100
486.300	32.718	0.100
486.400	6.771	0.100
486.500	31.880	0.100
486.600	34.741	0.100
486.700	25.479	0.100
486.800	14.148	0.100
486.900	36.605	0.100
487.000	29.736	0.100
487.100	26.935	0.100
487.200	19.895	0.100
487.300	20.164	0.100
487.400	26.053	0.100
487.500	25.000	0.100
487.600	22.964	0.100
487.700	22.769	0.100
487.800	30.387	0.100
487.900	20.099	0.100
488.000	31.186	0.100
488.100	44.347	0.100
488.200	46.721	0.100
488.300	18.816	0.100
488.400	35.975	0.100
488.500	29.318	0.100
488.600	21.891	0.100
488.700	6.867	0.100
488.800	30.929	0.100
488.900	23.396	0.100
489.000	30.180	0.100
489.100	36.722	0.100
489.200	31.337	0.100
489.300	22.237	0.100
489.400	29.270	0.100
489.500	27.983	0.100
489.600	17.526	0.100
489.700	34.303	0.100
489.800	36.915	0.100
489.900	38.131	0.100
490.000	20.085	0.100
490.100	24.914	0.100
490.200	35.774	0.100
490.300	27.071	0.100
490.400	33.665	0.100
490.500	34.162	0.100
490.600	41.845	0.100
490.700	26.118	0.100
490.800	32.958	0.100
490.900	37.348	0.100
491.000	35.967	0.100
491.100	45.359	0.100
491.200	30.143	0.100
491.300	40.100	0.100
491.400	27.722	0.100
491.500	33.714	0.100
491.600	31.495	0.100
491.700	26.360	0.100
491.800	31.443	0.100
491.900	36.085	0.100
492.000	30.713	0.100
492.100	25.790	0.100
492.200	44.726	0.100
492.300	35.200	0.100
492.400	31.182	0.100
492.500	32.074	0.100
492.600	42.322	0.100
492.700	38.620	0.100
492.800	37.676	0.100
492.900	43.097	0.100
493.000	35.399	0.100
493.100	34.812	0.100
493.200	39.042	0.100
493.300	36.620	0.100
493.400	46.592	0.100
493.500	39.885	0.100
493.600	34.545	0.100
493.700	40.952	0.100
493.800	51.349	0.100
493.900	36.942	0.100
494.000	47.550	0.100
494.100	43.887	0.100
494.200	39.363	0.100
494.300	38.738	0.100
494.400	39.865	0.100
494.500	50.173	0.100
494.600	24.439	0.100
494.700	41.331	0.100
494.800	43.851	0.100
494.900	40.839	0.100
495.000	32.505	0.100
495.100	28.745	0.100
495.200	62.797	0.100
495.300	35.212	0.100
495.400	52.092	0.100
495.500	46.946	0.100
495.600	37.476	0.100
495.700	54.199	0.100
495.800	36.893	0.100
495.900	45.478	0.100
496.000	54.425	0.100
496.100	45.124	0.100
496.200	56.916	0.100
496.300	43.155	0.100
496.400	45.505	0.100
496.500	41.188	0.100
496.600	51.098	0.100
496.700	38.600	0.100
496.800	47.560	0.100
496.900	45.163	0.100
497.000	32.497	0.100
497.100	50.632	0.100
497.200	39.322	0.100
497.300	51.601	0.100
497.400	48.851	0.100
497.500	30.649	0.100
497.600	36.433	0.100
497.700	53.048	0.100
497.800	48.458	0.100
497.900	61.138	0.100
498.000	62.396	0.100
498.100	49.076	0.100
498.200	46.372	0.100
498.300	55.508	0.100
498.400	41.937	0.100
498.500	50.165	0.100
498.600	49.412	0.100
498.700	49.260	0.100
498.800	57.089	0.100
498.900	43.248	0.100
499.000	46.274	0.100
499.100	56.817	0.100
499.200	60.986	0.100
499.300	51.098	0.100
499.400	45.840	0.100
499.500	44.452	0.100
499.600	42.171	0.100
499.700	51.395	0.100
499.800	41.422	0.100
499.900	55.370	0.100
500.000	60.643	0.100
500.100	49.857	0.100
500.200	64.189	0.100
500.300	56.814	0.100
500.400	54.566	0.100
500.500	47.590	0.100
500.600	55.426	0.100
500.700	52.193	0.100
500.800	52.394	0.100
500.900	48.668	0.100
501.000	67.495	0.100
501.100	56.890	0.100
501.200	49.807	0.100
501.300	74.101	0.100
501.400	57.210	0.100
501.500	63.095	0.100
501.600	59.540	0.100
501.700	55.557	0.100
501.800	63.719	0.100
501.900	58.220	0.100
502.000	59.370	0.100
502.100	74.135	0.100
502.200	62.830	0.100
502.300	56.087	0.100
502.400	69.463	0.100
502.500	52.223	0.100
502.600	60.019	0.100
502.700	67.427	0.100
502.800	67.100	0.100
502.900	66.766	0.100
503.000	57.662	0.100
503.100	60.617	0.100
503.200	58.219	0.100
503.300	46.494	0.100
503.400	65.393	0.100
503.500	75.264	0.100
503.600	71.163	0.100
503.700	62.122	0.100
503.800	69.466	0.100
503.900	54.417	0.100
504.000	65.861	0.100
504.100	60.482	0.100
504.200	67.441	0.100
504.300	65.947	0.100
504.400	54.686	0.100
504.500	63.192	0.100
504.600	69.142	0.100
504.700	63.039	0.100
504.800	45.449	0.100
504.900	69.049	0.100
505.000	49.431	0.100
505.100	69.375	0.100
505.200	73.710	0.100
505.300	68.180	0.100
505.400	57.086	0.100
505.500	64.137	0.100
505.600	80.041	0.100
505.700	58.263	0.100
505.800	72.837	0.100
505.900	70.967	0.100
506.000	70.123	0.100
506.100	74.090	0.100
506.200	64.753	0.100
506.300	69.095	0.100
506.400	64.587	0.100
506.500	59.525	0.100
506.600	77.147	0.100
506.700	69.941	0.100
506.800	61.709	0.100
506.900	80.098	0.100
507.000	65.236	0.100
507.100	72.690	0.100
507.200	72.730	0.100
507.300	90.743	0.100
507.400	77.919	0.100
507.500	66.227	0.100
507.600	49.953	0.100
507.700	57.382	0.100
507.800	68.474	0.100
507.900	68.311	0.100
508.000	69.655	0.100
508.100	73.481	0.100
508.200	62.730	0.100
508.300	70.152	0.100
508.400	69.986	0.100
508.500	62.228	0.100
508.600	74.437	0.100
508.700	63.196	0.100
508.800	74.324	0.100
508.900	72.162	0.100
509.000	68.368	0.100
509.100	65.717	0.100
509.200	74.748	0.100
509.300	74.889	0.100
509.400	69.315	0.100
509.500	66.689	0.100
509.600	59.966	0.100
509.700	72.243	0.100
509.800	77.175	0.100
509.900	70.686	0.100
510.000	63.229	0.100
510.100	73.609	0.100
510.200	72.827	0.100
510.300	71.304	0.100
510.400	73.199	0.100
510.500	63.980	0.100
510.600	79.006	0.100
510.700	70.802	0.100
510.800	73.514	0.100
510.900	85.367	0.100
511.000	56.386	0.100
511.100	68.288	0.100
511.200	60.196	0.100
511.300	70.929	0.100
511.400	50.721	0.100
511.500	77.918	0.100
511.600	78.286	0.100
511.700	66.255	0.100
511.800	60.824	0.100
511.900	88.310	0.100
512.000	71.541	0.100
512.100	67.310	0.100
512.200	78.465	0.100
512.300	69.260	0.100
512.400	63.539	0.100
512.500	83.221	0.100
512.600	65.311	0.100
512.700	77.168	0.100
512.800	84.151	0.100
512.900	68.050	0.100
513.000	74.403	0.100
513.100	57.844	0.100
513.200	77.302	0.100
513.300	73.295	0.100
513.400	74.853	0.100
513.500	61.391	0.100
513.600	67.068	0.100
513.700	68.524	0.100
513.800	73.398	0.100
513.900	60.355	0.100
514.000	74.750	0.100
514.100	64.050	0.100
514.200	78.885	0.100
514.300	67.311	0.100
514.400	74.643	0.100
514.500	67.350	0.100
514.600	69.042	0.100
514.700	70.207	0.100
514.800	82.556	0.100
514.900	65.722	0.100
515.000	73.329	0.100
515.100	78.893	0.100
515.200	70.803	0.100
515.300	64.908	0.100
515.400	61.224	0.100
515.500	59.130	0.100
515.600	75.996	0.100
515.700	88.432	0.100
515.800	76.058	0.100
515.900	61.022	0.100
516.000	62.752	0.100
516.100	62.392	0.100
516.200	85.877	0.100
516.300	79.372	0.100
516.400	74.445	0.100
516.500	68.923	0.100
516.600	55.783	0.100
516.700	68.054	0.100
516.800	69.070	0.100
516.900	68.685	0.100
517.000	70.653	0.100
517.100	76.456	0.100
517.200	73.372	0.100
517.300	77.934	0.100
517.400	65.468	0.100
517.500	68.038	0.100
517.600	78.620	0.100
517.700	71.911	0.100
517.800	72.121	0.100
517.900	56.540	0.100
518.000	69.117	0.100
518.100	63.546	0.100
518.200	65.778	0.100
518.300	63.966	0.100
518.400	63.436	0.100
518.500	82.725	0.100
518.600	78.019	0.100
518.700	59.897	0.100
518.800	60.563	0.100
518.900	73.818	0.100
519.000	64.947	0.100
519.100	61.126	0.100
519.200	78.043	0.100
519.300	72.395	0.100
519.400	59.249	0.100
519.500	69.561	0.100
519.600	74.571	0.100
519.700	65.808	0.100
519.800	69.797	0.100
519.900	47.842	0.100
520.000	68.739	0.100
520.100	79.402	0.100
520.200	71.386	0.100
520.300	67.445	0.100
520.400	64.570	0.100
520.500	60.113	0.100
520.600	69.925	0.100
520.700	74.723	0.100
520.800	74.454	0.100
520.900	60.384	0.100
521.000	63.112	0.100
521.100	71.529	0.100
521.200	73.333	0.100
521.300	77.132	0.100
521.400	73.329	0.100
521.500	67.027	0.100
521.600	59.533	0.100
521.700	58.759	0.100
521.800	81.780	0.100
521.900	69.760	0.100
522.000	68.637	0.100
522.100	54.002	0.100
522.200	62.744	0.100
522.300	66.181	0.100
522.400	73.046	0.100
522.500	66.266	0.100
522.600	65.498	0.100
522.700	65.563	0.100
522.800	74.744	0.100
522.900	56.012	0.100
523.000	78.474	0.100
523.100	73.423	0.100
523.200	71.902	0.100
523.300	63.243	0.100
523.400	51.049	0.100
523.500	72.496	0.100
523.600	67.653	0.100
523.700	82.562	0.100
523.800	77.869	0.100
523.900	46.481	0.100
524.000	67.916	0.100
524.100	56.336	0.100
524.200	52.952	0.100
524.300	65.514	0.100
524.400	66.401	0.100
524.500	67.249	0.100
524.600	65.275	0.100
524.700	57.738	0.100
524.800	48.778	0.100
524.900	69.705	0.100
525.000	72.193	0.100
525.100	78.713	0.100
525.200	60.883	0.100
525.300	63.201	0.100
525.400	78.775	0.100
525.500	66.019	0.100
525.600	65.743	0.100
525.700	60.163	0.100
525.800	64.679	0.100
525.900	73.514	0.100
526.000	72.478	0.100
526.100	67.096	0.100
526.200	54.839	0.100
526.300	71.587	0.100
526.400	74.251	0.100
526.500	60.156	0.100
526.600	53.559	0.100
526.700	73.876	0.100
526.800	63.084	0.100
526.900	64.292	0.100
527.000	64.677	0.100
527.100	66.243	0.100
527.200	72.108	0.100
527.300	63.522	0.100
527.400	66.299	0.100
527.500	77.195	0.100
527.600	63.353	0.100
527.700	63.129	0.100
527.800	65.724	0.100
527.900	53.651	0.100
528.000	60.728	0.100
528.100	56.223	0.100
528.200	60.286	0.100
528.300	62.996	0.100
528.400	58.734	0.100
528.500	58.975	0.100
528.600	64.642	0.100
528.700	74.172	0.100
528.800	73.554	0.100
528.900	57.690	0.100
529.000	73.299	0.100
529.100	81.126	0.100
529.200	56.656	0.100
529.300	68.553	0.100
529.400	68.804	0.100
529.500	66.725	0.100
529.600	61.522	0.100
529.700	58.038	0.100
529.800	72.822	0.100
529.900	68.840	0.100
530.000	50.984	0.100
530.100	75.053	0.100
530.200	64.931	0.100
530.300	57.493	0.100
530.400	63.024	0.100
530.500	63.677	0.100
530.600	58.253	0.100
530.700	51.411	0.100
530.800	53.507	0.100
530.900	70.078	0.100
531.000	68.411	0.100
531.100	55.821	0.100
531.200	78.529	0.100
531.300	81.290	0.100
531.400	70.453	0.100
531.500	61.113	0.100
531.600	63.710	0.100
531.700	56.988	0.100
531.800	64.750	0.100
531.900	68.348	0.100
532.000	59.831	0.100
532.100	61.304	0.100
532.200	56.238	0.100
532.300	61.341	0.100
532.400	66.083	0.100
532.500	63.732	0.100
532.600	54.821	0.100
532.700	56.504	0.100
532.800	62.855	0.100
532.900	69.564	0.100
533.000	61.770	0.100
533.100	69.735	0.100
533.200	56.998	0.100
533.300	65.280	0.100
533.400	61.972	0.100
533.500	68.007	0.100
533.600	38.498	0.100
533.700	64.636	0.100
533.800	71.279	0.100
533.900	63.133	0.100
534.000	59.753	0.100
534.100	69.462	0.100
534.200	54.214	0.100
534.300	65.341	0.100
534.400	61.992	0.100
534.500	52.916	0.100
534.600	30.771	0.100
534.700	61.881	0.100
534.800	55.289	0.100
534.900	64.332	0.100
535.000	69.872	0.100
535.100	60.219	0.100
535.200	72.147	0.100
535.300	62.537	0.100
535.400	53.826	0.100
535.500	51.326	0.100
535.600	58.214	0.100
535.700	60.044	0.100
535.800	62.132	0.100
535.900	69.038	0.100
536.000	65.661	0.100
536.100	41.383	0.100
536.200	48.007	0.100
536.300	68.111	0.100
536.400	53.835	0.100
536.500	59.137	0.100
536.600	49.710	0.100
536.700	63.719	0.100
536.800	69.988	0.100
536.900	72.215	0.100
537.000	59.488	0.100
537.100	56.696	0.100
537.200	57.928	0.100
537.300	58.967	0.100
537.400	61.104	0.100
537.500	56.908	0.100
537.600	61.106	0.100
537.700	62.800	0.100
537.800	66.286	0.100
537.900	58.868	0.100
538.000	64.581	0.100
538.100	54.176	0.100
538.200	57.706	0.100
538.300	61.867	0.100
538.400	58.781	0.100
538.500	58.176	0.100
538.600	65.463	0.100
538.700	61.363	0.100
538.800	72.035	0.100
538.900	66.453	0.100
539.000	54.350	0.100
539.100	45.715	0.100
539.200	69.310	0.100
539.300	59.308	0.100
539.400	48.616	0.100
539.500	60.184	0.100
539.600	63.838	0.100
539.700	59.358	0.100
539.800	60.745	0.100
539.900	47.270	0.100
540.000	53.632	0.100
540.100	59.690	0.100
540.200	71.644	0.100
540.300	51.849	0.100
540.400	57.112	0.100
540.500	49.416	0.100
540.600	54.251	0.100
540.700	58.219	0.100
540.800	58.417	0.100
540.900	55.928	0.100
541.000	50.879	0.100
541.100	46.159	0.100
541.200	49.212	0.100
541.300	43.921	0.100
541.400	67.131	0.100
541.500	37.565	0.100
541.600	56.612	0.100
541.700	49.017	0.100
541.800	53.699	0.100
541.900	43.839	0.100
542.000	36.602	0.100
542.100	49.132	0.100
542.200	39.337	0.100
542.300	50.919	0.100
542.400	30.769	0.100
542.500	45.750	0.100
542.600	52.854	0.100
542.700	32.167	0.100
542.800	24.766	0.100
542.900	26.685	0.100
543.000	33.128	0.100
543.100	27.591	0.100
543.200	27.134	0.100
543.300	21.022	0.100
543.400	34.353	0.100
543.500	24.640	0.100
543.600	23.140	0.100
543.700	20.699	0.100
543.800	32.552	0.100
543.900	14.322	0.100
544.000	22.898	0.100
544.100	14.310	0.100
544.200	16.438	0.100
544.300	3.560	0.100
544.400	31.059	0.100
544.500	20.160	0.100
544.600	4.126	0.100
544.700	18.920	0.100
544.800	6.430	0.100
544.900	7.319	0.100
545.000	11.866	0.100
545.100	19.661	0.100
545.200	5.375	0.100
545.300	-3.487	0.100
545.400	8.811	0.100
545.500	9.271	0.100
545.600	14.441	0.100
545.700	11.794	0.100
545.800	-3.888	0.100
545.900	-4.336	0.100
546.000	-0.283	0.100
546.100	16.734	0.100
546.200	18.996	0.100
546.300	-8.181	0.100
546.400	-3.978	0.100
546.500	-12.246	0.100
546.600	-8.607	0.100
546.700	-3.099	0.100
546.800	4.575	0.100
546.900	-4.027	0.100
547.000	-15.369	0.100
547.100	5.649	0.100
547.200	-0.999	0.100
547.300	5.363	0.100
547.400	4.896	0.100
547.500	6.077	0.100
547.600	-7.948	0.100
547.700	-7.470	0.100
547.800	-1.863	0.100
547.900	-17.001	0.100
548.000	-7.668	0.100
548.100	7.509	0.100
548.200	-8.632	0.100
548.300	-4.659	0.100
548.400	-9.736	0.100
548.500	-6.634	0.100
548.600	-9.770	0.100
548.700	-0.681	0.100
548.800	-2.597	0.100
548.900	-6.436	0.100
549.000	-19.629	0.100
549.100	-6.004	0.100
549.200	-1.479	0.100
549.300	-12.857	0.100
549.400	2.876	0.100
549.500	-9.464	0.100
549.600	-11.616	0.100
549.700	-3.351	0.100
549.800	0.951	0.100
549.900	-7.553	0.100
550.000	-3.420	0.100
550.100	-19.255	0.100
550.200	-6.051	0.100
550.300	-18.580	0.100
550.400	-10.343	0.100
550.500	-5.443	0.100
550.600	-0.643	0.100
550.700	-13.488	0.100
550.800	-5.649	0.100
550.900	-9.548	0.100
551.000	-12.091	0.100
551.100	4.266	0.100
551.200	-8.118	0.100
551.300	-6.586	0.100
551.400	-14.809	0.100
551.500	-13.923	0.100
551.600	-12.683	0.100
551.700	-7.437	0.100
551.800	-8.328	0.100
551.900	-25.623	0.100
552.000	-2.646	0.100
552.100	0.047	0.100
552.200	-6.738	0.100
552.300	-23.213	0.100
552.400	-1.655	0.100
552.500	-16.338	0.100
552.600	0.806	0.100
552.700	-8.355	0.100
552.800	-5.720	0.100
552.900	-9.186	0.100
553.000	-2.814	0.100
553.100	-1.112	0.100
553.200	0.108	0.100
553.300	-18.850	0.100
553.400	-4.353	0.100
553.500	-24.351	0.100
553.600	-22.179	0.100
553.700	-16.066	0.100
553.800	-11.752	0.100
553.900	-12.900	0.100
554.000	-3.963	0.100
554.100	-9.615	0.100
554.200	-9.125	0.100
554.300	-18.797	0.100
554.400	-9.875	0.100
554.500	-9.148	0.100
554.600	-9.745	0.100
554.700	-14.744	0.100
554.800	1.231	0.100
554.900	-21.780	0.100
555.000	-24.620	0.100
555.100	-16.431	0.100
555.200	-5.731	0.100
555.300	-4.925	0.100
555.400	-19.721	0.100
555.500	-18.173	0.100
555.600	-24.720	0.100
555.700	8.252	0.100
555.800	-9.105	0.100
555.900	-9.983	0.100
556.000	-12.957	0.100
556.100	-4.980	0.100
556.200	-19.790	0.100
556.300	-18.027	0.100
556.400	-10.582	0.100
556.500	-22.312	0.100
556.600	-9.478	0.100
556.700	-2.020	0.100
556.800	-0.877	0.100
556.900	-19.310	0.100
557.000	-15.380	0.100
557.100	-11.444	0.100
557.200	-24.198	0.100
557.300	-14.759	0.100
557.400	-1.186	0.100
557.500	-22.457	0.100
557.600	-3.605	0.100
557.700	-17.054	0.100
557.800	-8.790	0.100
557.900	-20.600	0.100
558.000	-9.513	0.100
558.100	-34.575	0.100
558.200	-24.020	0.100
558.300	-12.411	0.100
558.400	-11.324	0.100
558.500	-19.313	0.100
558.600	-21.680	0.100
558.700	-14.842	0.100
558.800	-12.745	0.100
558.900	-9.962	0.100
559.000	-12.442	0.100
559.100	-14.966	0.100
559.200	-25.456	0.100
559.300	-19.650	0.100
559.400	3.000	0.100
559.500	-10.064	0.100
559.600	-22.547	0.100
559.700	-31.655	0.100
559.800	-0.398	0.100
559.900	-10.275	0.100
560.000	-5.933	0.100
560.100	-24.147	0.100
560.200	-7.882	0.100
560.300	-14.289	0.100
560.400	-17.407	0.100
560.500	-30.977	0.100
560.600	-32.917	0.100
560.700	-9.807	0.100
560.800	-20.704	0.100
560.900	-18.804	0.100
561.000	-24.217	0.100
561.100	-19.554	0.100
561.200	-8.038	0.100
561.300	-11.786	0.100
561.400	-21.028	0.100
561.500	-12.444	0.100
561.600	-22.725	0.100
561.700	-17.405	0.100
561.800	-7.001	0.100
561.900	-11.270	0.100
562.000	-28.820	0.100
562.100	-22.175	0.100
562.200	-20.274	0.100
562.300	-21.859	0.100
562.400	-21.980	0.100
562.500	-20.041	0.100
562.600	-15.097	0.100
562.700	-13.910	0.100
562.800	-23.519	0.100
562.900	-20.456	0.100
563.000	-16.072	0.100
563.100	-27.094	0.100
563.200	-15.035	0.100
563.300	-20.994	0.100
563.400	-26.291	0.100
563.500	-35.586	0.100
563.600	-20.722	0.100
563.700	-20.509	0.100
563.800	-13.837	0.100
563.900	-20.672	0.100
564.000	-14.113	0.100
564.100	-24.801	0.100
564.200	-28.015	0.100
564.300	-5.779	0.100
564.400	-26.553	0.100
564.500	-25.531	0.100
564.600	-29.527	0.100
564.700	-7.919	0.100
564.800	-10.826	0.100
564.900	-21.710	0.100
565.000	-33.035	0.100
565.100	-20.549	0.100
565.200	-23.209	0.100
565.300	-21.113	0.100
565.400	-23.210	0.100
565.500	-26.030	0.100
565.600	-18.560	0.100
565.700	-10.549	0.100
565.800	-25.855	0.100
565.900	-27.128	0.100
566.000	-23.862	0.100
566.100	-26.184	0.100
566.200	-10.560	0.100
566.300	-19.628	0.100
566.400	-14.782	0.100
566.500	-3.332	0.100
566.600	-22.134	0.100
566.700	-26.155	0.100
566.800	-14.958	0.100
566.900	-14.752	0.100
567.000	-30.491	0.100
567.100	-19.602	0.100
567.200	-28.244	0.100
567.300	-13.558	0.100
567.400	-21.950	0.100
567.500	-15.681	0.100
567.600	-37.109	0.100
567.700	-24.245	0.100
567.800	-19.887	0.100
567.900	-18.051	0.100
568.000	-30.525	0.100
568.100	-25.571	0.100
568.200	-12.833	0.100
568.300	-27.617	0.100
568.400	-9.675	0.100
568.500	-25.849	0.100
568.600	-25.150	0.100
568.700	-38.465	0.100
568.800	-24.541	0.100
568.900	-38.927	0.100
569.000	-11.354	0.100
569.100	-16.951	0.100
569.200	-23.772	0.100
569.300	-25.572	0.100
569.400	-16.152	0.100
569.500	-23.912	0.100
569.600	-25.715	0.100
569.700	-21.278	0.100
569.800	-26.463	0.100
569.900	-28.811	0.100
570.000	-27.828	0.100
570.100	-41.713	0.100
570.200	-20.127	0.100
570.300	-19.335	0.100
570.400	-20.848	0.100
570.500	-25.942	0.100
570.600	-18.882	0.100
570.700	-28.087	0.100
570.800	-50.793	0.100
570.900	-32.675	0.100
571.000	-25.799	0.100
571.100	-25.174	0.100
571.200	-17.348	0.100
571.300	-36.314	0.100
571.400	-8.384	0.100
571.500	-37.979	0.100
571.600	-19.641	0.100
571.700	-24.162	0.100
571.800	-32.383	0.100
571.900	-18.728	0.100
572.000	-14.823	0.100
572.100	-22.684	0.100
572.200	-26.936	0.100
572.300	-33.532	0.100
572.400	-22.353	0.100
572.500	-13.676	0.100
572.600	-24.258	0.100
572.700	-38.875	0.100
572.800	-31.230	0.100
572.900	-27.851	0.100
573.000	-20.422	0.100
573.100	-23.429	0.100
573.200	-27.672	0.100
573.300	-35.056	0.100
573.400	-27.782	0.100
573.500	-37.308	0.100
573.600	-14.171	0.100
573.700	-19.814	0.100
573.800	-26.720	0.100
573.900	-25.936	0.100
574.000	-40.278	0.100
574.100	-28.930	0.100
574.200	-26.195	0.100
574.300	-27.114	0.100
574.400	-28.605	0.100
574.500	-20.075	0.100
574.600	-25.743	0.100
574.700	-26.774	0.100
574.800	-39.961	0.100
574.900	-15.746	0.100
575.000	-27.297	0.100
575.100	-13.980	0.100
575.200	-26.409	0.100
575.300	-31.624	0.100
575.400	-29.203	0.100
575.500	-25.301	0.100
575.600	-32.058	0.100
575.700	-37.430	0.100
575.800	-41.729	0.100
575.900	-31.510	0.100
576.000	-26.099	0.100
576.100	-34.589	0.100
576.200	-22.138	0.100
576.300	-28.424	0.100
576.400	-37.522	0.100
576.500	-25.536	0.100
576.600	-29.891	0.100
576.700	-41.072	0.100
576.800	-35.427	0.100
576.900	-29.319	0.100
577.000	-21.721	0.100
577.100	-39.250	0.100
577.200	-24.789	0.100
577.300	-31.555	0.100
577.400	-18.822	0.100
577.500	-34.945	0.100
577.600	-42.038	0.100
577.700	-37.921	0.100
577.800	-27.775	0.100
577.900	-26.475	0.100
578.000	-23.590	0.100
578.100	-31.129	0.100
578.200	-24.688	0.100
578.300	-37.607	0.100
578.400	-34.625	0.100
578.500	-22.750	0.100
578.600	-24.885	0.100
578.700	-20.340	0.100
578.800	-39.523	0.100
578.900	-33.558	0.100
579.000	-26.296	0.100
579.100	-26.539	0.100
579.200	-25.594	0.100
579.300	-23.043	0.100
579.400	-26.060	0.100
579.500	-37.054	0.100
579.600	-31.861	0.100
579.700	-30.880	0.100
579.800	-26.196	0.100
579.900	-32.466	0.100
580.000	-27.277	0.100
580.100	-47.098	0.100
580.200	-35.685	0.100
580.300	-32.256	0.100
580.400	-35.255	0.100
580.500	-27.129	0.100
580.600	-28.883	0.100
580.700	-54.009	0.100
580.800	-31.680	0.100
580.900	-10.280	0.100
581.000	-30.424	0.100
581.100	-37.086	0.100
581.200	-22.025	0.100
581.300	-28.760	0.100
581.400	-43.179	0.100
581.500	-27.456	0.100
581.600	-26.337	0.100
581.700	-38.679	0.100
581.800	-31.847	0.100
581.900	-39.529	0.100
582.000	-32.510	0.100
582.100	-27.111	0.100
582.200	-31.862	0.100
582.300	-29.885	0.100
582.400	-37.177	0.100
582.500	-27.198	0.100
582.600	-39.967	0.100
582.700	-30.393	0.100
582.800	-24.732	0.100
582.900	-35.371	0.100
583.000	-43.734	0.100
583.100	-42.146	0.100
583.200	-20.374	0.100
583.300	-25.002	0.100
583.400	-24.966	0.100
583.500	-32.956	0.100
583.600	-38.946	0.100
583.700	-46.557	0.100
583.800	-28.374	0.100
583.900	-22.338	0.100
584.000	-21.679	0.100
584.100	-36.842	0.100
584.200	-31.578	0.100
584.300	-24.126	0.100
584.400	-36.281	0.100
584.500	-46.386	0.100
584.600	-35.005	0.100
584.700	-42.663	0.100
584.800	-35.194	0.100
584.900	-27.810	0.100
585.000	-29.164	0.100
585.100	-39.943	0.100
585.200	-30.452	0.100
585.300	-31.949	0.100
585.400	-32.958	0.100
585.500	-20.570	0.100
585.600	-28.110	0.100
585.700	-31.845	0.100
585.800	-32.811	0.100
585.900	-27.124	0.100
586.000	-34.590	0.100
586.100	-30.623	0.100
586.200	-39.468	0.100
586.300	-31.137	0.100
586.400	-23.661	0.100
586.500	-38.776	0.100
586.600	-29.373	0.100
586.700	-33.533	0.100
586.800	-39.352	0.100
586.900	-26.685	0.100
587.000	-27.220	0.100
587.100	-48.777	0.100
587.200	-40.779	0.100
587.300	-27.700	0.100
587.400	-37.299	0.100
587.500	-39.092	0.100
587.600	-33.497	0.100
587.700	-24.325	0.100
587.800	-27.363	0.100
587.900	-41.184	0.100
588.000	-40.734	0.100
588.100	-24.212	0.100
588.200	-38.713	0.100
588.300	-37.012	0.100
588.400	-37.725	0.100
588.500	-34.709	0.100
588.600	-34.745	0.100
588.700	-24.221	0.100
588.800	-42.848	0.100
588.900	-29.113	0.100
589.000	-37.331	0.100
589.100	-31.635	0.100
589.200	-33.990	0.100
589.300	-24.946	0.100
589.400	-28.780	0.100
589.500	-34.408	0.100
589.600	-30.632	0.100
589.700	-29.786	0.100
589.800	-37.842	0.100
589.900	-33.458	0.100
590.000	-30.737	0.100
590.100	-26.754	0.100
590.200	-29.992	0.100
590.300	-42.184	0.100
590.400	-33.891	0.100
590.500	-25.391	0.100
590.600	-25.523	0.100
590.700	-37.032	0.100
590.800	-36.830	0.100
590.900	-38.619	0.100
591.000	-35.811	0.100
591.100	-29.622	0.100
591.200	-42.412	0.100
591.300	-19.078	0.100
591.400	-34.548	0.100
591.500	-42.687	0.100
591.600	-44.396	0.100
591.700	-34.763	0.100
591.800	-17.711	0.100
591.900	-24.011	0.100
592.000	-51.418	0.100
592.100	-56.357	0.100
592.200	-23.195	0.100
592.300	-17.769	0.100
592.400	-38.144	0.100
592.500	-35.766	0.100
592.600	-38.270	0.100
592.700	-46.727	0.100
592.800	-33.239	0.100
592.900	-29.606	0.100
593.000	-32.490	0.100
593.100	-41.481	0.100
593.200	-33.405	0.100
593.300	-47.922	0.100
593.400	-28.958	0.100
593.500	-38.550	0.100
593.600	-25.590	0.100
593.700	-17.298	0.100
593.800	-29.965	0.100
593.900	-42.833	0.100
594.000	-25.011	0.100
594.100	-32.757	0.100
594.200	-21.706	0.100
594.300	-30.262	0.100
594.400	-45.062	0.100
594.500	-20.120	0.100
594.600	-36.757	0.100
594.700	-38.888	0.100
594.800	-44.069	0.100
594.900	-31.711	0.100
595.000	-30.201	0.100
595.100	-27.747	0.100
595.200	-35.074	0.100
595.300	-32.222	0.100
595.400	-22.721	0.100
595.500	-35.151	0.100
595.600	-39.599	0.100
595.700	-51.876	0.100
595.800	-33.267	0.100
595.900	-37.265	0.100
596.000	-22.044	0.100
596.100	-22.942	0.100
596.200	-27.703	0.100
596.300	-42.321	0.100
596.400	-48.833	0.100
596.500	-32.748	0.100
596.600	-41.858	0.100
596.700	-24.418	0.100
596.800	-36.015	0.100
596.900	-30.532	0.100
597.000	-38.113	0.100
597.100	-34.333	0.100
597.200	-36.648	0.100
597.300	-33.154	0.100
597.400	-21.824	0.100
597.500	-23.940	0.100
597.600	-36.526	0.100
597.700	-37.683	0.100
597.800	-29.943	0.100
597.900	-41.427	0.100
598.000	-45.828	0.100
598.100	-37.198	0.100
598.200	-34.238	0.100
598.300	-31.832	0.100
598.400	-42.851	0.100
598.500	-26.594	0.100
598.600	-35.514	0.100
598.700	-31.241	0.100
598.800	-40.606	0.100
598.900	-34.036	0.100
599.000	-26.982	0.100
599.100	-32.926	0.100
599.200	-29.724	0.100
599.300	-42.746	0.100
599.400	-19.627	0.100
599.500	-31.049	0.100
599.600	-29.571	0.100
599.700	-34.383	0.100
599.800	-40.596	0.100
599.900	-33.325	0.100
600.000	-25.702	0.100
600.100	-34.459	0.100
600.200	-38.415	0.100
600.300	-30.600	0.100
600.400	-31.174	0.100
600.500	-48.249	0.100
600.600	-22.591	0.100
600.700	-35.542	0.100
600.800	-18.749	0.100
600.900	-29.780	0.100
601.000	-30.625	0.100
601.100	-31.007	0.100
601.200	-33.318	0.100
601.300	-40.422	0.100
601.400	-30.688	0.100
601.500	-37.684	0.100
601.600	-43.739	0.100
601.700	-28.871	0.100
601.800	-19.936	0.100
601.900	-43.760	0.100
602.000	-31.934	0.100
602.100	-31.972	0.100
602.200	-50.187	0.100
602.300	-24.345	0.100
602.400	-18.798	0.100
602.500	-39.044	0.100
602.600	-38.463	0.100
602.700	-29.432	0.100
602.800	-39.649	0.100
602.900	-30.142	0.100
603.000	-23.070	0.100
603.100	-34.711	0.100
603.200	-43.482	0.100
603.300	-41.007	0.100
603.400	-29.964	0.100
603.500	-42.307	0.100
603.600	-28.895	0.100
603.700	-37.430	0.100
603.800	-43.311	0.100
603.900	-34.954	0.100
604.000	-21.403	0.100
604.100	-21.173	0.100
604.200	-42.436	0.100
604.300	-33.382	0.100
604.400	-43.561	0.100
604.500	-34.136	0.100
604.600	-35.646	0.100
604.700	-32.904	0.100
604.800	-44.805	0.100
604.900	-31.287	0.100
605.000	-37.557	0.100
605.100	-34.403	0.100
605.200	-31.027	0.100
605.300	-37.509	0.100
605.400	-23.443	0.100
605.500	-26.968	0.100
605.600	-39.048	0.100
605.700	-33.274	0.100
605.800	-41.087	0.100
605.900	-34.346	0.100
606.000	-33.710	0.100
606.100	-18.590	0.100
606.200	-41.158	0.100
606.300	-34.599	0.100
606.400	-26.628	0.100
606.500	-29.083	0.100
606.600	-27.948	0.100
606.700	-37.113	0.100
606.800	-23.586	0.100
606.900	-32.352	0.100
607.000	-30.769	0.100
607.100	-25.742	0.100
607.200	-33.150	0.100
607.300	-33.012	0.100
607.400	-46.047	0.100
607.500	-39.775	0.100
607.600	-18.250	0.100
607.700	-28.512	0.100
607.800	-47.892	0.100
607.900	-23.879	0.100
608.000	-40.148	0.100
608.100	-41.527	0.100
608.200	-35.586	0.100
608.300	-34.539	0.100
608.400	-29.167	0.100
608.500	-26.934	0.100
608.600	-38.614	0.100
608.700	-38.844	0.100
608.800	-27.166	0.100
608.900	-39.740	0.100
609.000	-24.563	0.100
609.100	-23.910	0.100
609.200	-29.976	0.100
609.300	-46.161	0.100
609.400	-34.994	0.100
609.500	-26.361	0.100
609.600	-22.964	0.100
609.700	-25.617	0.100
609.800	-32.049	0.100
609.900	-19.496	0.100
610.000	-32.123	0.100
610.100	-32.444	0.100
610.200	-33.681	0.100
610.300	-36.605	0.100
610.400	-31.860	0.100
610.500	-39.030	0.100
610.600	-32.837	0.100
610.700	-28.476	0.100
610.800	-19.142	0.100
610.900	-24.516	0.100
611.000	-44.276	0.100
611.100	-27.206	0.100
611.200	-36.431	0.100
611.300	-35.788	0.100
611.400	-35.545	0.100
611.500	-37.403	0.100
611.600	-46.676	0.100
611.700	-27.395	0.100
611.800	-29.950	0.100
611.900	-33.913	0.100
612.000	-25.668	0.100
612.100	-28.241	0.100
612.200	-37.523	0.100
612.300	-32.462	0.100
612.400	-37.074	0.100
612.500	-45.099	0.100
612.600	-39.196	0.100
612.700	-29.322	0.100
612.800	-24.078	0.100
612.900	-41.520	0.100
613.000	-22.025	0.100
613.100	-19.814	0.100
613.200	-32.167	0.100
613.300	-29.079	0.100
613.400	-33.342	0.100
613.500	-30.437	0.100
613.600	-30.770	0.100
613.700	-41.306	0.100
613.800	-36.395	0.100
613.900	-18.068	0.100
614.000	-25.928	0.100
614.100	-44.951	0.100
614.200	-35.629	0.100
614.300	-34.109	0.100
614.400	-26.062	0.100
614.500	-30.153	0.100
614.600	-32.736	0.100
614.700	-27.985	0.100
614.800	-37.828	0.100
614.900	-23.987	0.100
615.000	-26.674	0.100
615.100	-42.693	0.100
615.200	-28.755	0.100
615.300	-19.468	0.100
615.400	-24.654	0.100
615.500	-36.604	0.100
615.600	-36.580	0.100
615.700	-30.300	0.100
615.800	-41.189	0.100
615.900	-29.211	0.100
616.000	-31.359	0.100
616.100	-19.918	0.100
616.200	-26.992	0.100
616.300	-30.123	0.100
616.400	-33.718	0.100
616.500	-20.106	0.100
616.600	-31.488	0.100
616.700	-36.673	0.100
616.800	-36.326	0.100
616.900	-36.178	0.100
617.000	-26.965	0.100
617.100	-22.772	0.100
617.200	-33.879	0.100
617.300	-27.905	0.100
617.400	-21.949	0.100
617.500	-27.208	0.100
617.600	-19.749	0.100
617.700	-34.093	0.100
617.800	-44.655	0.100
617.900	-35.590	0.100
618.000	-31.054	0.100
618.100	-39.522	0.100
618.200	-23.584	0.100
618.300	-21.086	0.100
618.400	-35.152	0.100
618.500	-24.165	0.100
618.600	-28.651	0.100
618.700	-34.795	0.100
618.800	-14.881	0.100
618.900	-45.439	0.100
619.000	-19.178	0.100
619.100	-26.954	0.100
619.200	-31.346	0.100
619.300	-26.048	0.100
619.400	-30.688	0.100
619.500	-35.640	0.100
619.600	-22.389	0.100
619.700	-28.410	0.100
619.800	-42.795	0.100
619.900	-34.748	0.100
620.000	-22.442	0.100
620.100	-24.290	0.100
620.200	-30.251	0.100
620.300	-34.890	0.100
620.400	-35.534	0.100
620.500	-19.967	0.100
620.600	-33.835	0.100
620.700	-32.910	0.100
620.800	-39.691	0.100
620.900	-18.724	0.100
621.000	-23.418	0.100
621.100	-27.837	0.100
621.200	-32.353	0.100
621.300	-32.094	0.100
621.400	-45.495	0.100
621.500	-35.945	0.100
621.600	-14.022	0.100
621.700	-35.407	0.100
621.800	-37.084	0.100
621.900	-31.074	0.100
622.000	-34.422	0.100
622.100	-27.319	0.100
622.200	-28.897	0.100
622.300	-29.454	0.100
622.400	-24.631	0.100
622.500	-32.125	0.100
622.600	-31.147	0.100
622.700	-22.794	0.100
622.800	-17.271	0.100
622.900	-38.430	0.100
623.000	-21.558	0.100
623.100	-20.035	0.100
623.200	-35.142	0.100
623.300	-23.351	0.100
623.400	-32.546	0.100
623.500	-24.516	0.100
623.600	-29.006	0.100
623.700	-35.477	0.100
623.800	-19.880	0.100
623.900	-23.266	0.100
624.000	-25.230	0.100
624.100	-32.071	0.100
624.200	-41.485	0.100
624.300	-46.158	0.100
624.400	-39.665	0.100
624.500	-32.544	0.100
624.600	-15.923	0.100
624.700	-31.179	0.100
624.800	-35.135	0.100
624.900	-43.612	0.100
625.000	-37.253	0.100
625.100	-31.823	0.100
625.200	-29.146	0.100
625.300	-27.714	0.100
625.400	-28.912	0.100
625.500	-31.061	0.100
625.600	-35.408	0.100
625.700	-25.031	0.100
625.800	-20.801	0.100
625.900	-34.434	0.100
626.000	-35.147	0.100
626.100	-32.370	0.100
626.200	-30.489	0.100
626.300	-15.423	0.100
626.400	-28.673	0.100
626.500	-31.905	0.100
626.600	-22.227	0.100
626.700	-19.713	0.100
626.800	-25.817	0.100
626.900	-21.070	0.100
627.000	-37.057	0.100
627.100	-41.516	0.100
627.200	-31.038	0.100
627.300	-22.061	0.100
627.400	-32.932	0.100
627.500	-12.207	0.100
627.600	-24.529	0.100
627.700	-32.794	0.100
627.800	-23.164	0.100
627.900	-39.620	0.100
628.000	-37.397	0.100
628.100	-48.732	0.100
628.200	-30.546	0.100
628.300	-33.237	0.100
628.400	-32.917	0.100
628.500	-29.080	0.100
628.600	-36.099	0.100
628.700	-42.505	0.100
628.800	-36.335	0.100
628.900	-21.542	0.100
629.000	-14.332	0.100
629.100	-30.192	0.100
629.200	-32.286	0.100
629.300	-21.567	0.100
629.400	-22.681	0.100
629.500	-28.100	0.100
629.600	-37.047	0.100
629.700	-31.619	0.100
629.800	-30.899	0.100
629.900	-35.491	0.100
630.000	-27.309	0.100
630.100	-28.239	0.100
630.200	-35.308	0.100
630.300	-30.935	0.100
630.400	-35.392	0.100
630.500	-30.200	0.100
630.600	-29.580	0.100
630.700	-32.054	0.100
630.800	-22.014	0.100
630.900	-39.618	0.100
631.000	-29.964	0.100
631.100	-23.332	0.100
631.200	-24.709	0.100
631.300	-21.461	0.100
631.400	-12.655	0.100
631.500	-22.269	0.100
631.600	-15.794	0.100
631.700	-32.894	0.100
631.800	-7.704	0.100
631.900	-6.470	0.100
632.000	-14.359	0.100
632.100	-20.471	0.100
632.200	-11.694	0.100
632.300	-5.662	0.100
632.400	-1.100	0.100
632.500	-11.819	0.100
632.600	8.366	0.100
632.700	2.356	0.100
632.800	10.871	0.100
632.900	23.868	0.100
633.000	11.837	0.100
633.100	-4.442	0.100
633.200	8.943	0.100
633.300	-14.484	0.100
633.400	-3.757	0.100
633.500	17.027	0.100
633.600	19.459	0.100
633.700	17.402	0.100
633.800	12.164	0.100
633.900	22.681	0.100
634.000	35.690	0.100
634.100	17.331	0.100
634.200	13.166	0.100
634.300	20.945	0.100
634.400	27.867	0.100
634.500	6.628	0.100
634.600	9.622	0.100
634.700	31.540	0.100
634.800	7.616	0.100
634.900	7.183	0.100
635.000	21.342	0.100
635.100	15.208	0.100
635.200	24.274	0.100
635.300	32.290	0.100
635.400	17.108	0.100
635.500	17.911	0.100
635.600	20.625	0.100
635.700	33.758	0.100
635.800	18.474	0.100
635.900	13.517	0.100
636.000	9.076	0.100
636.100	5.266	0.100
636.200	21.106	0.100
636.300	10.801	0.100
636.400	25.227	0.100
636.500	27.808	0.100
636.600	26.411	0.100
636.700	21.741	0.100
636.800	25.522	0.100
636.900	20.703	0.100
637.000	30.059	0.100
637.100	7.786	0.100
637.200	28.095	0.100
637.300	17.188	0.100
637.400	28.847	0.100
637.500	10.777	0.100
637.600	26.640	0.100
637.700	19.245	0.100
637.800	20.856	0.100
637.900	15.894	0.100
638.000	29.184	0.100
638.100	20.001	0.100
638.200	20.097	0.100
638.300	21.172	0.100
638.400	27.934	0.100
638.500	23.242	0.100
638.600	26.278	0.100
638.700	32.455	0.100
638.800	24.011	0.100
638.900	36.812	0.100
639.000	18.061	0.100
639.100	12.547	0.100
639.200	15.087	0.100
639.300	18.286	0.100
639.400	9.901	0.100
639.500	22.808	0.100
639.600	30.018	0.100
639.700	22.238	0.100
639.800	20.227	0.100
639.900	14.918	0.100
640.000	24.231	0.100
640.100	20.658	0.100
640.200	19.852	0.100
640.300	23.614	0.100
640.400	28.596	0.100
640.500	26.528	0.100
640.600	22.773	0.100
640.700	24.582	0.100
640.800	20.216	0.100
640.900	26.407	0.100
641.000	23.394	0.100
641.100	53.816	0.100
641.200	24.543	0.100
641.300	21.822	0.100
641.400	25.832	0.100
641.500	22.265	0.100
641.600	35.319	0.100
641.700	13.761	0.100
641.800	40.457	0.100
641.900	39.566	0.100
642.000	23.998	0.100
642.100	21.420	0.100
642.200	31.295	0.100
642.300	33.496	0.100
642.400	8.048	0.100
642.500	28.444	0.100
642.600	27.844	0.100
642.700	39.562	0.100
642.800	22.887	0.100
642.900	40.035	0.100
643.000	31.320	0.100
643.100	30.904	0.100
643.200	39.735	0.100
643.300	35.053	0.100
643.400	36.080	0.100
643.500	26.283	0.100
643.600	22.921	0.100
643.700	35.299	0.100
643.800	30.985	0.100
643.900	24.808	0.100
644.000	17.338	0.100
644.100	54.612	0.100
644.200	40.691	0.100
644.300	27.581	0.100
644.400	31.619	0.100
644.500	33.090	0.100
644.600	31.361	0.100
644.700	35.171	0.100
644.800	41.461	0.100
644.900	35.469	0.100
645.000	40.615	0.100
645.100	44.989	0.100
645.200	45.115	0.100
645.300	15.307	0.100
645.400	27.931	0.100
645.500	40.126	0.100
645.600	30.701	0.100
645.700	29.251	0.100
645.800	32.132	0.100
645.900	38.920	0.100
646.000	44.535	0.100
646.100	42.272	0.100
646.200	24.923	0.100
646.300	16.721	0.100
646.400	33.827	0.100
646.500	48.985	0.100
646.600	47.171	0.100
646.700	38.776	0.100
646.800	28.247	0.100
646.900	40.734	0.100
647.000	36.625	0.100
647.100	33.400	0.100
647.200	36.368	0.100
647.300	36.490	0.100
647.400	49.483	0.100
647.500	38.312	0.100
647.600	32.976	0.100
647.700	38.988	0.100
647.800	32.476	0.100
647.900	35.473	0.100
648.000	36.648	0.100
648.100	46.412	0.100
648.200	62.531	0.100
648.300	44.020	0.100
648.400	33.197	0.100
648.500	39.633	0.100
648.600	49.246	0.100
648.700	45.645	0.100
648.800	51.862	0.100
648.900	46.856	0.100
649.000	48.405	0.100
649.100	32.638	0.100
649.200	41.442	0.100
649.300	50.574	0.100
649.400	42.190	0.100
649.500	30.564	0.100
649.600	41.830	0.100
649.700	52.135	0.100
649.800	42.814	0.100
649.900	27.554	0.100
650.000	41.427	0.100
650.100	54.822	0.100
650.200	57.460	0.100
650.300	32.208	0.100
650.400	44.342	0.100
650.500	40.212	0.100
650.600	51.308	0.100
650.700	41.311	0.100
650.800	46.322	0.100
650.900	52.970	0.100
651.000	58.502	0.100
651.100	51.408	0.100
651.200	42.800	0.100
651.300	46.101	0.100
651.400	29.321	0.100
651.500	55.621	0.100
651.600	36.975	0.100
651.700	64.026	0.100
651.800	47.624	0.100
651.900	46.113	0.100
652.000	46.452	0.100
652.100	41.232	0.100
652.200	52.517	0.100
652.300	54.771	0.100
652.400	42.092	0.100
652.500	55.478	0.100
652.600	55.933	0.100
652.700	62.620	0.100
652.800	57.709	0.100
652.900	48.802	0.100
653.000	39.923	0.100
653.100	60.102	0.100
653.200	53.940	0.100
653.300	55.281	0.100
653.400	52.093	0.100
653.500	41.029	0.100
653.600	63.168	0.100
653.700	56.463	0.100
653.800	49.552	0.100
653.900	41.073	0.100
654.000	58.425	0.100
654.100	60.837	0.100
654.200	53.516	0.100
654.300	75.401	0.100
654.400	56.528	0.100
654.500	60.734	0.100
654.600	52.916	0.100
654.700	38.750	0.100
654.800	53.974	0.100
654.900	50.472	0.100
655.000	45.432	0.100
655.100	60.632	0.100
655.200	67.474	0.100
655.300	68.960	0.100
655.400	58.341	0.100
655.500	54.979	0.100
655.600	60.809	0.100
655.700	52.808	0.100
655.800	38.654	0.100
655.900	51.350	0.100
656.000	63.494	0.100
656.100	77.179	0.100
656.200	60.908	0.100
656.300	65.810	0.100
656.400	58.572	0.100
656.500	52.990	0.100
656.600	60.262	0.100
656.700	64.823	0.100
656.800	53.038	0.100
656.900	59.310	0.100
657.000	67.037	0.100
657.100	74.887	0.100
657.200	67.863	0.100
657.300	58.378	0.100
657.400	60.665	0.100
657.500	62.608	0.100
657.600	62.160	0.100
657.700	70.483	0.100
657.800	58.867	0.100
657.900	50.559	0.100
658.000	60.416	0.100
658.100	58.493	0.100
658.200	63.426	0.100
658.300	71.146	0.100
658.400	63.754	0.100
658.500	52.663	0.100
658.600	68.012	0.100
658.700	70.689	0.100
658.800	58.522	0.100
658.900	57.128	0.100
659.000	64.707	0.100
659.100	71.067	0.100
659.200	55.358	0.100
659.300	43.940	0.100
659.400	64.942	0.100
659.500	63.612	0.100
659.600	66.688	0.100
659.700	64.498	0.100
659.800	69.556	0.100
659.900	73.657	0.100
660.000	66.442	0.100
660.100	68.065	0.100
660.200	50.621	0.100
660.300	51.204	0.100
660.400	68.661	0.100
660.500	67.796	0.100
660.600	65.148	0.100
660.700	68.485	0.100
660.800	67.591	0.100
660.900	58.748	0.100
661.000	70.498	0.100
661.100	63.313	0.100
661.200	69.611	0.100
661.300	66.852	0.100
661.400	61.459	0.100
661.500	62.139	0.100
661.600	59.939	0.100
661.700	54.725	0.100
661.800	74.613	0.100
661.900	60.455	0.100
662.000	56.279	0.100
662.100	70.269	0.100
662.200	63.825	0.100
662.300	63.246	0.100
662.400	62.987	0.100
662.500	57.030	0.100
662.600	65.095	0.100
662.700	73.039	0.100
662.800	71.407	0.100
662.900	47.188	0.100
663.000	51.633	0.100
663.100	59.194	0.100
663.200	72.946	0.100
663.300	76.969	0.100
663.400	69.210	0.100
663.500	71.662	0.100
663.600	65.717	0.100
663.700	68.253	0.100
663.800	62.105	0.100
663.900	65.456	0.100
664.000	66.202	0.100
664.100	62.712	0.100
664.200	61.491	0.100
664.300	78.384	0.100
664.400	66.763	0.100
664.500	65.070	0.100
664.600	63.690	0.100
664.700	65.318	0.100
664.800	66.417	0.100
664.900	67.167	0.100
665.000	69.416	0.100
665.100	72.435	0.100
665.200	69.359	0.100
665.300	68.647	0.100
665.400	68.399	0.100
665.500	66.347	0.100
665.600	62.929	0.100
665.700	61.045	0.100
665.800	46.189	0.100
665.900	81.031	0.100
666.000	80.183	0.100
666.100	78.578	0.100
666.200	60.284	0.100
666.300	54.635	0.100
666.400	59.136	0.100
666.500	68.376	0.100
666.600	65.772	0.100
666.700	67.483	0.100
666.800	57.543	0.100
666.900	56.034	0.100
667.000	59.725	0.100
667.100	55.639	0.100
667.200	67.634	0.100
667.300	63.494	0.100
667.400	57.574	0.100
667.500	66.482	0.100
667.600	73.242	0.100
667.700	74.072	0.100
667.800	71.064	0.100
667.900	70.400	0.100
668.000	69.745	0.100
668.100	51.252	0.100
668.200	79.052	0.100
668.300	76.062	0.100
668.400	61.093	0.100
668.500	49.720	0.100
668.600	45.982	0.100
668.700	68.922	0.100
668.800	81.191	0.100
668.900	61.834	0.100
669.000	74.368	0.100
669.100	64.501	0.100
669.200	62.964	0.100
669.300	64.826	0.100
669.400	73.278	0.100
669.500	55.882	0.100
669.600	65.930	0.100
669.700	62.028	0.100
669.800	60.566	0.100
669.900	71.946	0.100
670.000	53.748	0.100
670.100	62.586	0.100
670.200	61.304	0.100
670.300	64.247	0.100
670.400	66.955	0.100
670.500	55.578	0.100
670.600	55.679	0.100
670.700	62.375	0.100
670.800	78.859	0.100
670.900	66.586	0.100
671.000	69.099	0.100
671.100	50.559	0.100
671.200	66.866	0.100
671.300	74.130	0.100
671.400	62.208	0.100
671.500	57.815	0.100
671.600	58.212	0.100
671.700	57.847	0.100
671.800	64.597	0.100
671.900	59.668	0.100
672.000	67.214	0.100
672.100	64.509	0.100
672.200	79.211	0.100
672.300	61.727	0.100
672.400	80.107	0.100
672.500	63.790	0.100
672.600	51.397	0.100
672.700	66.299	0.100
672.800	57.203	0.100
672.900	53.071	0.100
673.000	60.182	0.100
673.100	72.328	0.100
673.200	65.157	0.100
673.300	51.388	0.100
673.400	75.466	0.100
673.500	66.649	0.100
673.600	60.424	0.100
673.700	53.952	0.100
673.800	54.928	0.100
673.900	53.615	0.100
674.000	81.578	0.100
674.100	57.856	0.100
674.200	67.153	0.100
674.300	46.969	0.100
674.400	76.918	0.100
674.500	41.637	0.100
674.600	59.341	0.100
674.700	36.307	0.100
674.800	56.474	0.100
674.900	59.656	0.100
675.000	69.157	0.100
675.100	71.209	0.100
675.200	69.712	0.100
675.300	48.957	0.100
675.400	61.028	0.100
675.500	76.772	0.100
675.600	72.353	0.100
675.700	64.943	0.100
675.800	52.995	0.100
675.900	79.857	0.100
676.000	59.416	0.100
676.100	62.942	0.100
676.200	42.324	0.100
676.300	56.740	0.100
676.400	73.147	0.100
676.500	52.505	0.100
676.600	50.384	0.100
676.700	67.586	0.100
676.800	63.292	0.100
676.900	65.916	0.100
677.000	52.234	0.100
677.100	67.299	0.100
677.200	73.973	0.100
677.300	59.405	0.100
677.400	70.143	0.100
677.500	57.892	0.100
677.600	50.885	0.100
677.700	37.831	0.100
677.800	57.778	0.100
677.900	58.746	0.100
678.000	65.889	0.100
678.100	60.271	0.100
678.200	65.797	0.100
678.300	69.647	0.100
678.400	45.173	0.100
678.500	66.356	0.100
678.600	70.547	0.100
678.700	65.214	0.100
678.800	71.677	0.100
678.900	57.643	0.100
679.000	63.344	0.100
679.100	56.168	0.100
679.200	59.585	0.100
679.300	55.197	0.100
679.400	50.756	0.100
679.500	68.975	0.100
679.600	56.497	0.100
679.700	65.192	0.100
679.800	69.275	0.100
679.900	44.030	0.100
680.000	64.419	0.100
680.100	60.226	0.100
680.200	64.794	0.100
680.300	45.004	0.100
680.400	62.104	0.100
680.500	56.787	0.100
680.600	54.531	0.100
680.700	61.653	0.100
680.800	43.930	0.100
680.900	58.121	0.100
681.000	60.284	0.100
681.100	76.911	0.100
681.200	63.978	0.100
681.300	60.765	0.100
681.400	35.882	0.100
681.500	64.411	0.100
681.600	46.329	0.100
681.700	63.161	0.100
681.800	65.759	0.100
681.900	75.796	0.100
682.000	68.439	0.100
682.100	62.553	0.100
682.200	63.382	0.100
682.300	59.209	0.100
682.400	54.436	0.100
682.500	57.193	0.100
682.600	52.716	0.100
682.700	50.076	0.100
682.800	56.172	0.100
682.900	60.981	0.100
683.000	51.575	0.100
683.100	54.948	0.100
683.200	55.592	0.100
683.300	61.984	0.100
683.400	67.944	0.100
683.500	53.082	0.100
683.600	50.500	0.100
683.700	51.035	0.100
683.800	64.726	0.100
683.900	47.155	0.100
684.000	54.227	0.100
684.100	46.657	0.100
684.200	62.028	0.100
684.300	73.272	0.100
684.400	73.552	0.100
684.500	61.827	0.100
684.600	47.085	0.100
684.700	60.000	0.100
684.800	54.948	0.100
684.900	56.602	0.100
685.000	46.774	0.100
685.100	60.888	0.100
685.200	56.063	0.100
685.300	57.803	0.100
685.400	57.713	0.100
685.500	52.881	0.100
685.600	67.437	0.100
685.700	62.879	0.100
685.800	58.550	0.100
685.900	58.226	0.100
686.000	46.248	0.100
686.100	50.375	0.100
686.200	56.045	0.100
686.300	59.808	0.100
686.400	55.617	0.100
686.500	53.985	0.100
686.600	53.465	0.100
686.700	58.729	0.100
686.800	55.412	0.100
686.900	50.903	0.100
687.000	65.395	0.100
687.100	59.073	0.100
687.200	44.913	0.100
687.300	45.634	0.100
687.400	55.703	0.100
687.500	44.436	0.100
687.600	59.788	0.100
687.700	72.533	0.100
687.800	69.377	0.100
687.900	54.310	0.100
688.000	55.234	0.100
688.100	51.230	0.100
688.200	53.180	0.100
688.300	46.074	0.100
688.400	56.215	0.100
688.500	69.359	0.100
688.600	66.367	0.100
688.700	55.033	0.100
688.800	61.822	0.100
688.900	63.332	0.100
689.000	41.974	0.100
689.100	58.752	0.100
689.200	58.211	0.100
689.300	50.769	0.100
689.400	54.251	0.100
689.500	58.215	0.100
689.600	56.187	0.100
689.700	67.752	0.100
689.800	58.756	0.100
689.900	41.622	0.100
690.000	63.739	0.100
690.100	65.374	0.100
690.200	49.535	0.100
690.300	60.715	0.100
690.400	50.503	0.100
690.500	58.769	0.100
690.600	49.775	0.100
690.700	44.850	0.100
690.800	54.566	0.100
690.900	58.360	0.100
691.000	59.483	0.100
691.100	44.463	0.100
691.200	50.600	0.100
691.300	46.234	0.100
691.400	53.345	0.100
691.500	47.882	0.100
691.600	47.815	0.100
691.700	45.149	0.100
691.800	49.209	0.100
691.900	37.374	0.100
692.000	37.505	0.100
692.100	31.923	0.100
692.200	28.966	0.100
692.300	37.550	0.100
692.400	41.812	0.100
692.500	42.320	0.100
692.600	31.123	0.100
692.700	28.513	0.100
692.800	27.063	0.100
692.900	35.489	0.100
693.000	27.046	0.100
693.100	36.105	0.100
693.200	29.788	0.100
693.300	24.770	0.100
693.400	7.399	0.100
693.500	23.879	0.100
693.600	21.280	0.100
693.700	5.457	0.099
693.800	27.186	0.100
693.900	9.335	0.100
694.000	26.162	0.100
694.100	22.707	0.100
694.200	4.199	0.100
694.300	9.798	0.100
694.400	11.927	0.100
694.500	18.352	0.100
694.600	16.220	0.100
694.700	23.258	0.100
694.800	11.115	0.100
694.900	7.127	0.100
695.000	6.458	0.100
695.100	9.847	0.100
695.200	23.413	0.100
695.300	3.894	0.100
695.400	1.126	0.100
695.500	7.184	0.100
695.600	0.977	0.100
695.700	-15.606	0.099
695.800	-14.306	0.100
695.900	8.196	0.100
696.000	7.492	0.100
696.100	2.235	0.099
696.200	-8.345	0.099
696.300	9.113	0.099
696.400	-1.537	0.099
696.500	-15.487	0.099
696.600	16.349	0.100
696.700	9.208	0.099
696.800	10.002	0.099
696.900	-10.143	0.099
697.000	1.347	0.099
697.100	-11.081	0.100
697.200	-7.398	0.100
697.300	-4.119	0.099
697.400	-1.103	0.099
697.500	-7.318	0.099
697.600	2.274	0.100
697.700	-8.097	0.099
697.800	-30.305	0.099
697.900	8.460	0.099
698.000	-4.393	0.099
698.100	-0.771	0.100
698.200	-8.973	0.099
698.300	8.680	0.099
698.400	-2.934	0.099
698.500	-3.347	0.099
698.600	-9.035	0.100
698.700	-15.195	0.099
698.800	-1.678	0.099
698.900	-11.852	0.099
699.000	-4.701	0.099
699.100	-8.348	0.099
699.200	-0.820	0.099
699.300	-23.178	0.099
699.400	-6.719	0.099
699.500	-4.246	0.099
699.600	-14.020	0.099
699.700	-9.430	0.099
699.800	-16.794	0.099
699.900	-10.630	0.099
700.000	-4.546	0.099
700.100	0.939	0.099
700.200	4.783	0.099
700.300	-4.916	0.099
700.400	-14.706	0.099
700.500	-12.100	0.099
700.600	-9.256	0.099
700.700	-12.798	0.099
700.800	-10.349	0.099
700.900	-12.050	0.099
701.000	-19.254	0.099
701.100	4.999	0.099
701.200	-10.138	0.099
701.300	-9.249	0.099
701.400	-6.927	0.099
701.500	5.225	0.099
701.600	-14.967	0.099
701.700	-19.580	0.099
701.800	-21.060	0.099
701.900	-19.580	0.099
702.000	-15.239	0.099
702.100	-4.610	0.099
702.200	-5.478	0.099
702.300	-12.369	0.099
702.400	-6.423	0.099
702.500	-5.520	0.099
702.600	-12.935	0.099
702.700	-12.681	0.099
702.800	-18.261	0.099
702.900	-15.089	0.099
703.000	-8.616	0.099
703.100	-3.441	0.099
703.200	-12.073	0.099
703.300	-23.428	0.099
703.400	-9.272	0.099
703.500	-20.664	0.099
703.600	5.880	0.099
703.700	-7.742	0.099
703.800	-14.660	0.099
703.900	-30.274	0.099
704.000	-26.416	0.099
704.100	-10.808	0.099
704.200	-0.939	0.099
704.300	-3.019	0.099
704.400	-18.690	0.099
704.500	-22.581	0.099
704.600	-0.069	0.099
704.700	-13.856	0.099
704.800	-21.459	0.099
704.900	-19.081	0.099
705.000	-18.871	0.099
705.100	-13.022	0.099
705.200	-14.940	0.099
705.300	-18.664	0.099
705.400	-12.895	0.099
705.500	-24.414	0.099
705.600	-16.038	0.099
705.700	-6.454	0.099
705.800	-7.540	0.099
705.900	-16.632	0.099
706.000	-13.087	0.099
706.100	-15.958	0.099
706.200	-36.257	0.099
706.300	-23.597	0.099
706.400	-10.079	0.099
706.500	-13.942	0.099
706.600	-11.337	0.099
706.700	-16.705	0.099
706.800	-19.789	0.099
706.900	-14.657	0.099
707.000	-21.208	0.099
707.100	-20.336	0.099
707.200	-14.918	0.099
707.300	-12.170	0.099
707.400	-30.083	0.099
707.500	-23.986	0.099
707.600	-19.646	0.099
707.700	-28.626	0.099
707.800	-10.860	0.099
707.900	-10.985	0.099
708.000	-11.033	0.099
708.100	-1.055	0.099
708.200	-25.444	0.099
708.300	-19.764	0.099
708.400	-20.056	0.099
708.500	-25.617	0.099
708.600	-18.642	0.099
708.700	-12.519	0.099
708.800	-25.829	0.099
708.900	-23.913	0.099
709.000	-15.612	0.099
709.100	-9.311	0.099
709.200	-16.949	0.099
709.300	-11.952	0.099
709.400	-24.343	0.099
709.500	-28.202	0.099
709.600	-7.318	0.099
709.700	-20.349	0.099
709.800	-24.945	0.099
709.900	-24.719	0.099
710.000	-18.892	0.099
710.100	-24.254	0.099
710.200	-27.882	0.099
710.300	-28.072	0.099
710.400	-14.775	0.099
710.500	-5.709	0.099
710.600	-15.495	0.099
710.700	-19.321	0.099
710.800	-51.253	0.099
710.900	-32.142	0.099
711.000	-14.771	0.099
711.100	-19.928	0.099
711.200	-14.293	0.099
711.300	-13.509	0.099
711.400	-5.753	0.099
711.500	-17.878	0.099
711.600	-38.393	0.099
711.700	-18.105	0.099
711.800	-9.038	0.099
711.900	-9.148	0.099
712.000	-24.653	0.099
712.100	-22.305	0.099
712.200	-20.670	0.099
712.300	-20.645	0.099
712.400	-17.374	0.099
712.500	-9.734	0.099
712.600	-21.076	0.099
712.700	-29.878	0.099
712.800	-29.401	0.099
712.900	-24.781	0.099
713.000	-31.412	0.099
713.100	-21.389	0.099
713.200	-26.927	0.099
713.300	-25.104	0.099
713.400	-30.821	0.099
713.500	-22.748	0.099
713.600	-23.430	0.099
713.700	-36.365	0.099
713.800	-32.499	0.099
713.900	-19.229	0.099
714.000	-37.501	0.099
714.100	-21.691	0.099
714.200	-25.992	0.099
714.300	-21.626	0.099
714.400	-16.533	0.099
714.500	-24.193	0.099
714.600	-20.740	0.099
714.700	-29.031	0.099
714.800	-26.177	0.099
714.900	-17.470	0.099
715.000	-18.901	0.099
715.100	-28.211	0.099
715.200	-21.791	0.099
715.300	-24.333	0.099
715.400	-24.963	0.099
715.500	-36.176	0.099
715.600	-13.622	0.099
715.700	-26.835	0.099
715.800	-26.474	0.099
715.900	-21.004	0.099
716.000	-25.546	0.099
716.100	-22.868	0.099
716.200	-34.215	0.099
716.300	-28.474	0.099
716.400	-19.978	0.099
716.500	-33.673	0.099
716.600	-14.587	0.099
716.700	-28.885	0.099
716.800	-24.060	0.099
716.900	-22.975	0.099
717.000	-30.726	0.099
717.100	-24.245	0.099
717.200	-17.420	0.099
717.300	-35.435	0.099
717.400	-27.490	0.099
717.500	-23.568	0.099
717.600	-27.855	0.099
717.700	-35.461	0.099
717.800	-24.011	0.099
717.900	-49.030	0.099
718.000	-28.415	0.099
718.100	-18.525	0.099
718.200	-33.864	0.099
718.300	-21.720	0.099
718.400	-26.273	0.099
718.500	-20.046	0.099
718.600	-46.480	0.099
718.700	-40.806	0.099
718.800	-31.647	0.099
718.900	-32.689	0.099
719.000	-25.928	0.099
719.100	-29.122	0.099
719.200	-31.842	0.099
719.300	-36.244	0.099
719.400	-22.903	0.099
719.500	-34.646	0.099
719.600	-27.768	0.099
719.700	-26.492	0.099
719.800	-24.031	0.099
719.900	-18.846	0.099
720.000	-42.234	0.099
720.100	-46.932	0.099
720.200	-36.829	0.099
720.300	-26.880	0.099
720.400	-21.114	0.099
720.500	-31.805	0.099
720.600	-30.203	0.099
720.700	-37.397	0.099
720.800	-22.673	0.099
720.900	-35.883	0.099
721.000	-39.188	0.099
721.100	-34.373	0.099
721.200	-18.788	0.099
721.300	-34.291	0.099
721.400	-32.086	0.099
721.500	-23.770	0.099
721.600	-24.313	0.099
721.700	-26.514	0.099
721.800	-28.634	0.099
721.900	-27.500	0.099
722.000	-26.442	0.099
722.100	-37.562	0.099
722.200	-28.315	0.099
722.300	-29.558	0.099
722.400	-25.662	0.099
722.500	-43.753	0.099
722.600	-41.276	0.099
722.700	-33.480	0.099
722.800	-35.190	0.099
722.900	-24.242	0.099
723.000	-31.712	0.099
723.100	-33.081	0.099
723.200	-25.632	0.099
723.300	-33.522	0.099
723.400	-36.914	0.099
723.500	-55.714	0.099
723.600	-35.108	0.099
723.700	-34.419	0.099
723.800	-43.586	0.099
723.900	-33.699	0.099
724.000	-8.996	0.099
724.100	-17.548	0.099
724.200	-36.231	0.099
724.300	-33.348	0.099
724.400	-39.872	0.099
724.500	-34.352	0.099
724.600	-35.986	0.099
724.700	-34.637	0.099
724.800	-25.557	0.099
724.900	-38.483	0.099
725.000	-39.851	0.099
725.100	-27.309	0.099
725.200	-38.975	0.099
725.300	-25.716	0.099
725.400	-22.510	0.099
725.500	-28.416	0.099
725.600	-36.057	0.099
725.700	-28.642	0.099
725.800	-27.617	0.099
725.900	-22.198	0.099
726.000	-44.233	0.099
726.100	-38.071	0.099
726.200	-36.985	0.099
726.300	-57.313	0.099
726.400	-42.687	0.099
726.500	-37.017	0.099
726.600	-29.149	0.099
726.700	-32.091	0.099
726.800	-31.641	0.099
726.900	-30.007	0.099
727.000	-46.933	0.099
727.100	-35.406	0.099
727.200	-33.985	0.099
727.300	-39.769	0.099
727.400	-32.258	0.099
727.500	-44.414	0.099
727.600	-51.945	0.099
727.700	-46.220	0.099
727.800	-34.961	0.099
727.900	-30.870	0.099
728.000	-26.791	0.099
728.100	-34.287	0.099
728.200	-38.562	0.099
728.300	-26.902	0.099
728.400	-33.990	0.099
728.500	-35.370	0.099
728.600	-40.051	0.099
728.700	-57.242	0.099
728.800	-21.121	0.099
728.900	-19.555	0.099
729.000	-39.102	0.099
729.100	-31.200	0.099
729.200	-33.225	0.099
729.300	-39.370	0.099
729.400	-36.704	0.099
729.500	-35.747	0.099
729.600	-45.134	0.099
729.700	-24.355	0.099
729.800	-39.693	0.099
729.900	-40.052	0.099
730.000	-34.570	0.099
730.100	-36.705	0.099
730.200	-34.110	0.099
730.300	-29.249	0.099
730.400	-31.752	0.099
730.500	-27.283	0.099
730.600	-33.578	0.099
730.700	-40.091	0.099
730.800	-35.150	0.099
730.900	-55.567	0.099
731.000	-29.240	0.099
731.100	-32.973	0.099
731.200	-56.822	0.099
731.300	-58.454	0.099
731.400	-37.055	0.099
731.500	-20.581	0.099
731.600	-29.929	0.099
731.700	-48.033	0.099
731.800	-44.909	0.099
731.900	-36.799	0.099
732.000	-34.509	0.099
732.100	-30.249	0.099
732.200	-46.495	0.099
732.300	-34.289	0.099
732.400	-46.251	0.099
732.500	-27.480	0.099
732.600	-37.890	0.099
732.700	-37.830	0.099
732.800	-42.209	0.099
732.900	-45.597	0.099
733.000	-40.867	0.099
733.100	-42.446	0.099
733.200	-41.433	0.099
733.300	-19.701	0.099
733.400	-35.558	0.099
733.500	-43.615	0.099
733.600	-38.331	0.099
733.700	-38.340	0.099
733.800	-27.842	0.099
733.900	-27.259	0.099
734.000	-42.806	0.099
734.100	-42.174	0.099
734.200	-60.616	0.099
734.300	-40.863	0.099
734.400	-32.210	0.099
734.500	-25.954	0.099
734.600	-39.552	0.099
734.700	-24.588	0.099
734.800	-52.585	0.099
734.900	-41.990	0.099
735.000	-31.935	0.099
735.100	-45.572	0.099
735.200	-55.270	0.099
735.300	-44.614	0.099
735.400	-51.324	0.099
735.500	-36.057	0.099
735.600	-22.916	0.099
735.700	-25.549	0.099
735.800	-32.730	0.099
735.900	-36.998	0.099
736.000	-44.988	0.099
736.100	-49.146	0.099
736.200	-37.324	0.099
736.300	-36.503	0.099
736.400	-39.641	0.099
736.500	-37.412	0.099
736.600	-39.960	0.099
736.700	-45.410	0.099
736.800	-43.271	0.099
736.900	-49.812	0.099
737.000	-32.615	0.099
737.100	-41.856	0.099
737.200	-34.919	0.099
737.300	-35.441	0.099
737.400	-32.770	0.099
737.500	-32.807	0.099
737.600	-54.585	0.099
737.700	-43.341	0.099
737.800	-34.217	0.099
737.900	-43.627	0.099
738.000	-42.181	0.099
738.100	-48.175	0.099
738.200	-42.841	0.099
738.300	-19.964	0.099
738.400	-36.646	0.099
738.500	-33.998	0.099
738.600	-39.213	0.099
738.700	-49.245	0.099
738.800	-36.939	0.099
738.900	-42.696	0.099
739.000	-38.945	0.099
739.100	-42.712	0.099
739.200	-29.546	0.099
739.300	-45.957	0.099
739.400	-42.540	0.099
739.500	-50.485	0.099
739.600	-33.467	0.099
739.700	-43.732	0.099
739.800	-39.098	0.099
739.900	-28.829	0.099
740.000	-42.313	0.099
740.100	-33.942	0.099
740.200	-31.391	0.099
740.300	-36.595	0.099
740.400	-45.576	0.099
740.500	-45.054	0.099
740.600	-31.403	0.099
740.700	-30.911	0.099
740.800	-29.771	0.099
740.900	-49.037	0.099
741.000	-38.501	0.099
741.100	-47.275	0.099
741.200	-62.039	0.099
741.300	-28.649	0.099
741.400	-31.808	0.099
741.500	-47.808	0.099
741.600	-52.851	0.099
741.700	-36.669	0.099
741.800	-33.206	0.099
741.900	-43.735	0.099
742.000	-48.385	0.099
742.100	-36.057	0.099
742.200	-43.648	0.099
742.300	-44.524	0.099
742.400	-45.674	0.099
742.500	-26.621	0.099
742.600	-37.985	0.099
742.700	-47.558	0.099
742.800	-42.052	0.099
742.900	-45.059	0.099
743.000	-37.532	0.099
743.100	-49.295	0.099
743.200	-21.216	0.099
743.300	-31.939	0.099
743.400	-45.425	0.099
743.500	-40.490	0.099
743.600	-41.638	0.099
743.700	-39.928	0.099
743.800	-37.789	0.099
743.900	-28.798	0.099
744.000	-52.269	0.099
744.100	-35.429	0.099
744.200	-51.507	0.099
744.300	-28.288	0.099
744.400	-27.685	0.099
744.500	-44.681	0.099
744.600	-34.602	0.099
744.700	-38.185	0.099
744.800	-47.949	0.099
744.900	-31.527	0.099
745.000	-51.345	0.099
745.100	-37.415	0.099
745.200	-41.159	0.099
745.300	-50.288	0.099
745.400	-31.795	0.099
745.500	-25.340	0.099
745.600	-46.127	0.099
745.700	-57.450	0.099
745.800	-45.751	0.099
745.900	-52.362	0.099
746.000	-24.521	0.099
746.100	-33.786	0.099
746.200	-34.912	0.099
746.300	-31.960	0.099
746.400	-35.466	0.099
746.500	-21.699	0.099
746.600	-48.353	0.099
746.700	-43.497	0.099
746.800	-52.714	0.099
746.900	-45.667	0.099
747.000	-21.545	0.099
747.100	-38.544	0.099
747.200	-28.318	0.099
747.300	-34.881	0.099
747.400	-28.386	0.099
747.500	-41.884	0.099
747.600	-54.188	0.099
747.700	-36.689	0.099
747.800	-31.639	0.099
747.900	-44.499	0.099
748.000	-49.445	0.100
748.100	-32.389	0.100
748.200	-38.577	0.100
748.300	-40.005	0.100
748.400	-33.588	0.100
748.500	-45.422	0.100
748.600	-42.196	0.100
748.700	-36.510	0.100
748.800	-25.513	0.100
748.900	-32.166	0.100
749.000	-35.656	0.100
749.100	-37.365	0.100
749.200	-44.933	0.100
749.300	-45.751	0.100
749.400	-43.054	0.100
749.500	-36.853	0.100
749.600	-40.103	0.100
749.700	-30.748	0.100
749.800	-57.665	0.100
749.900	-47.410	0.100
750.000	-32.818	0.100
750.100	-35.057	0.100
750.200	-34.304	0.100
750.300	-51.977	0.100
750.400	-39.084	0.100
750.500	-24.499	0.100
750.600	-34.023	0.100
750.700	-35.086	0.100
750.800	-38.081	0.100
750.900	-41.648	0.100
751.000	-36.270	0.100
751.100	-47.287	0.100
751.200	-40.346	0.100
751.300	-40.687	0.100
751.400	-43.060	0.100
751.500	-40.222	0.100
751.600	-36.733	0.100
751.700	-43.856	0.100
751.800	-44.353	0.100
751.900	-34.159	0.100
752.000	-24.922	0.100
752.100	-43.064	0.100
752.200	-45.427	0.100
752.300	-55.015	0.100
752.400	-40.377	0.100
752.500	-26.730	0.100
752.600	-21.088	0.100
752.700	-44.459	0.100
752.800	-38.444	0.100
752.900	-35.349	0.100
753.000	-44.372	0.100
753.100	-22.775	0.100
753.200	-35.288	0.100
753.300	-41.843	0.100
753.400	-38.096	0.100
753.500	-45.178	0.100
753.600	-54.204	0.100
753.700	-37.452	0.100
753.800	-21.761	0.100
753.900	-33.042	0.100
754.000	-23.313	0.100
754.100	-33.489	0.100
754.200	-39.618	0.100
754.300	-36.508	0.100
754.400	-51.602	0.100
754.500	-47.091	0.100
754.600	-22.360	0.100
754.700	-20.169	0.100
754.800	-43.931	0.100
754.900	-20.349	0.100
755.000	-29.990	0.100
755.100	-34.300	0.100
755.200	-34.000	0.100
755.300	-37.458	0.100
755.400	-33.450	0.100
755.500	-34.743	0.100
755.600	-53.212	0.100
755.700	-50.738	0.100
755.800	-35.104	0.100
755.900	-42.964	0.100
756.000	-44.658	0.100
756.100	-47.011	0.100
756.200	-21.172	0.100
756.300	-42.533	0.100
756.400	-38.475	0.100
756.500	-30.791	0.100
756.600	-35.868	0.100
756.700	-28.531	0.100
756.800	-37.638	0.100
756.900	-34.377	0.100
757.000	-38.768	0.100
757.100	-33.383	0.100
757.200	-38.673	0.100
757.300	-35.864	0.100
757.400	-41.227	0.100
757.500	-42.719	0.100
757.600	-37.971	0.100
757.700	-39.005	0.100
757.800	-30.421	0.100
757.900	-26.587	0.100
758.000	-32.715	0.100
758.100	-42.125	0.100
758.200	-33.554	0.100
758.300	-32.918	0.100
758.400	-31.474	0.100
758.500	-45.476	0.100
758.600	-50.531	0.100
758.700	-44.615	0.100
758.800	-24.719	0.100
758.900	-34.467	0.100
759.000	-34.734	0.100
759.100	-35.212	0.100
759.200	-35.943	0.100
759.300	-44.972	0.100
759.400	-42.089	0.100
759.500	-30.215	0.100
759.600	-33.213	0.100
759.700	-33.845	0.100
759.800	-40.102	0.100
759.900	-32.900	0.100
760.000	-33.785	0.100
760.100	-32.100	0.100
760.200	-43.501	0.100
760.300	-30.225	0.100
760.400	-30.026	0.100
760.500	-26.449	0.100
760.600	-46.141	0.100
760.700	-29.757	0.100
760.800	-38.735	0.100
760.900	-46.104	0.100
761.000	-46.492	0.100
761.100	-27.810	0.100
761.200	-35.383	0.100
761.300	-32.107	0.100
761.400	-42.349	0.100
761.500	-39.459	0.100
761.600	-34.850	0.100
761.700	-38.223	0.100
761.800	-21.471	0.100
761.900	-35.326	0.100
762.000	-38.367	0.100
762.100	-35.148	0.100
762.200	-29.598	0.100
762.300	-38.285	0.100
762.400	-34.730	0.100
762.500	-41.772	0.100
762.600	-35.927	0.100
762.700	-26.200	0.100
762.800	-37.879	0.100
762.900	-38.971	0.100
763.000	-34.178	0.100
763.100	-36.731	0.100
763.200	-34.605	0.100
763.300	-44.006	0.100
763.400	-34.142	0.100
763.500	-34.580	0.100
763.600	-40.843	0.100
763.700	-42.164	0.100
763.800	-21.545	0.100
763.900	-41.502	0.100
764.000	-41.964	0.100
764.100	-33.009	0.100
764.200	-33.475	0.100
764.300	-47.547	0.100
764.400	-34.525	0.100
764.500	-30.235	0.100
764.600	-34.518	0.100
764.700	-30.960	0.100
764.800	-29.431	0.100
764.900	-34.310	0.100
765.000	-26.592	0.100
765.100	-39.249	0.100
765.200	-43.812	0.100
765.300	-27.698	0.100
765.400	-24.336	0.100
765.500	-42.551	0.100
765.600	-38.502	0.100
765.700	-48.954	0.100
765.800	-39.031	0.100
765.900	-28.417	0.100
766.000	-22.412	0.100
766.100	-30.542	0.100
766.200	-32.377	0.100
766.300	-28.739	0.100
766.400	-36.136	0.100
766.500	-29.709	0.100
766.600	-30.382	0.100
766.700	-28.970	0.100
766.800	-41.830	0.100
766.900	-35.523	0.100
767.000	-38.598	0.100
767.100	-28.697	0.100
767.200	-32.826	0.100
767.300	-37.102	0.100
767.400	-32.714	0.100
767.500	-25.366	0.100
767.600	-38.791	0.100
767.700	-31.994	0.100
767.800	-48.109	0.100
767.900	-34.465	0.100
768.000	-41.302	0.100
768.100	-32.344	0.100
768.200	-26.537	0.100
768.300	-35.433	0.100
768.400	-41.743	0.100
768.500	-40.073	0.100
768.600	-36.782	0.100
768.700	-26.017	0.100
768.800	-47.263	0.100
768.900	-33.544	0.100
769.000	-25.663	0.100
769.100	-34.325	0.100
769.200	-43.780	0.100
769.300	-30.866	0.100
769.400	-47.089	0.100
769.500	-28.817	0.100
769.600	-32.225	0.100
769.700	-27.090	0.100
769.800	-40.070	0.100
769.900	-25.667	0.100
770.000	-24.869	0.100
770.100	-42.154	0.100
770.200	-34.582	0.100
770.300	-38.393	0.100
770.400	-53.718	0.100
770.500	-16.910	0.100
770.600	-15.379	0.100
770.700	-36.313	0.100
770.800	-52.497	0.100
770.900	-38.772	0.100
771.000	-34.478	0.100
771.100	-33.393	0.100
771.200	-37.774	0.100
771.300	-37.481	0.100
771.400	-35.496	0.100
771.500	-21.108	0.100
771.600	-37.796	0.100
771.700	-47.174	0.100
771.800	-35.552	0.100
771.900	-32.994	0.100
772.000	-21.779	0.100
772.100	-28.553	0.100
772.200	-34.965	0.100
772.300	-42.367	0.100
772.400	-39.002	0.100
772.500	-33.324	0.100
772.600	-46.202	0.100
772.700	-52.546	0.100
772.800	-22.446	0.100
772.900	-27.638	0.100
773.000	-38.698	0.100
773.100	-25.736	0.100
773.200	-23.688	0.100
773.300	-33.925	0.100
773.400	-30.759	0.100
773.500	-36.586	0.100
773.600	-31.466	0.100
773.700	-40.929	0.100
773.800	-31.744	0.100
773.900	-28.935	0.100
774.000	-34.256	0.100
774.100	-36.184	0.100
774.200	-31.439	0.100
774.300	-42.625	0.100
774.400	-26.047	0.100
774.500	-36.764	0.100
774.600	-48.396	0.100
774.700	-22.251	0.100
774.800	-27.877	0.100
774.900	-41.071	0.100
775.000	-36.300	0.100
775.100	-35.807	0.100
775.200	-32.361	0.100
775.300	-36.253	0.100
775.400	-23.017	0.100
775.500	-39.767	0.100
775.600	-37.560	0.100
775.700	-29.078	0.100
775.800	-33.342	0.100
775.900	-37.176	0.100
776.000	-45.760	0.100
776.100	-27.163	0.100
776.200	-23.334	0.100
776.300	-33.589	0.100
776.400	-33.968	0.100
776.500	-40.872	0.100
776.600	-40.348	0.100
776.700	-38.528	0.100
776.800	-31.557	0.100
776.900	-44.722	0.100
777.000	-30.513	0.100
777.100	-34.213	0.100
777.200	-37.018	0.100
777.300	-16.368	0.100
777.400	-28.530	0.100
777.500	-25.799	0.100
777.600	-35.236	0.100
777.700	-33.541	0.100
777.800	-28.577	0.100
777.900	-33.159	0.100
778.000	-18.231	0.100
778.100	-34.028	0.100
778.200	-35.282	0.100
778.300	-31.205	0.100
778.400	-29.959	0.100
778.500	-32.312	0.100
778.600	-32.541	0.100
778.700	-42.752	0.100
778.800	-27.264	0.100
778.900	-29.779	0.100
779.000	-30.993	0.100
779.100	-36.663	0.100
779.200	-21.236	0.100
779.300	-29.614	0.100
779.400	-34.804	0.100
779.500	-40.392	0.100
779.600	-40.900	0.100
779.700	-32.947	0.100
779.800	-32.576	0.100
779.900	-30.268	0.100
780.000	-32.042	0.100
780.100	-36.959	0.100
780.200	-29.053	0.100
780.300	-22.872	0.100
780.400	-39.130	0.100
780.500	-28.391	0.100
780.600	-27.311	0.100
780.700	-35.290	0.100
780.800	-29.718	0.100
780.900	-31.082	0.100
781.000	-42.657	0.100
781.100	-19.722	0.100
781.200	-35.147	0.100
781.300	-32.940	0.100
781.400	-11.533	0.100
781.500	-31.439	0.100
781.600	-27.300	0.100
781.700	-21.302	0.100
781.800	-21.645	0.100
781.900	-15.010	0.100
782.000	-17.171	0.100
782.100	-15.131	0.100
782.200	-22.114	0.100
782.300	-13.289	0.100
782.400	-8.772	0.100
782.500	-5.013	0.100
782.600	3.618	0.100
782.700	3.490	0.100
782.800	0.055	0.100
782.900	8.266	0.100
783.000	4.689	0.100
783.100	-1.296	0.100
783.200	0.273	0.100
783.300	6.432	0.100
783.400	-0.233	0.100
783.500	6.631	0.100
783.600	16.654	0.100
783.700	13.301	0.100
783.800	9.237	0.100
783.900	12.459	0.100
784.000	23.604	0.100
784.100	16.055	0.100
784.200	21.186	0.100
784.300	10.285	0.100
784.400	15.839	0.100
784.500	11.003	0.100
784.600	17.732	0.100
784.700	15.756	0.100
784.800	17.027	0.100
784.900	17.674	0.100
785.000	22.965	0.100
785.100	14.626	0.100
785.200	19.665	0.100
785.300	-2.840	0.100
785.400	0.950	0.100
785.500	18.316	0.100
785.600	19.009	0.100
785.700	25.048	0.100
785.800	24.821	0.100
785.900	4.075	0.100
786.000	20.422	0.100
786.100	21.771	0.100
786.200	13.195	0.100
786.300	19.179	0.100
786.400	17.594	0.100
786.500	27.520	0.100
786.600	20.011	0.100
786.700	6.045	0.100
786.800	28.916	0.100
786.900	18.937	0.100
787.000	16.970	0.100
787.100	14.837	0.100
787.200	28.570	0.100
787.300	19.175	0.100
787.400	16.706	0.100
787.500	18.171	0.100
787.600	14.846	0.100
787.700	7.758	0.100
787.800	12.705	0.100
787.900	14.199	0.100
788.000	13.398	0.100
788.100	7.955	0.100
788.200	28.196	0.100
788.300	12.129	0.100
788.400	15.528	0.100
788.500	13.969	0.100
788.600	14.767	0.100
788.700	26.975	0.100
788.800	22.502	0.100
788.900	27.954	0.100
789.000	13.762	0.100
789.100	3.946	0.100
789.200	4.678	0.100
789.300	32.071	0.100
789.400	27.277	0.100
789.500	24.425	0.100
789.600	12.440	0.100
789.700	20.333	0.100
789.800	7.722	0.100
789.900	25.872	0.100
790.000	15.455	0.100
790.100	26.963	0.100
790.200	23.402	0.100
790.300	23.627	0.100
790.400	19.881	0.100
790.500	23.326	0.100
790.600	20.552	0.100
790.700	30.532	0.100
790.800	24.881	0.100
790.900	10.147	0.100
791.000	15.891	0.100
791.100	29.751	0.100
791.200	21.271	0.100
791.300	9.651	0.100
791.400	13.584	0.100
791.500	22.237	0.100
791.600	30.259	0.100
791.700	31.962	0.100
791.800	18.914	0.100
791.900	26.862	0.100
792.000	32.601	0.100
792.100	33.635	0.100
792.200	16.693	0.100
792.300	24.539	0.100
792.400	21.813	0.100
792.500	15.343	0.100
792.600	28.748	0.100
792.700	17.820	0.100
792.800	23.790	0.100
792.900	28.624	0.100
793.000	29.424	0.100
793.100	30.392	0.100
793.200	26.587	0.100
793.300	22.446	0.100
793.400	17.126	0.100
793.500	17.749	0.100
793.600	25.267	0.100
793.700	11.012	0.100
793.800	36.281	0.100
793.900	24.336	0.100
794.000	42.915	0.100
794.100	34.376	0.100
794.200	32.729	0.100
794.300	28.968	0.100
794.400	24.713	0.100
794.500	29.197	0.100
794.600	36.937	0.100
794.700	31.945	0.100
794.800	14.367	0.100
794.900	14.991	0.100
795.000	26.905	0.100
795.100	20.816	0.100
795.200	44.093	0.100
795.300	36.658	0.100
795.400	27.542	0.100
795.500	28.273	0.100
795.600	39.481	0.100
795.700	37.006	0.100
795.800	28.846	0.100
795.900	33.179	0.100
796.000	34.216	0.100
796.100	27.622	0.100
796.200	28.241	0.100
796.300	34.098	0.100
796.400	35.304	0.100
796.500	32.904	0.100
796.600	53.105	0.100
796.700	24.706	0.100
796.800	38.504	0.100
796.900	36.754	0.100
797.000	42.970	0.100
797.100	35.278	0.100
797.200	27.403	0.100
797.300	22.609	0.100
797.400	48.075	0.100
797.500	35.299	0.100
797.600	42.380	0.100
797.700	49.698	0.100
797.800	21.873	0.100
797.900	30.137	0.100
798.000	38.087	0.100
798.100	41.371	0.100
798.200	23.967	0.100
798.300	38.387	0.100
798.400	29.155	0.100
798.500	34.416	0.100
798.600	33.068	0.100
798.700	41.101	0.100
798.800	25.547	0.100
798.900	51.293	0.100
799.000	23.706	0.100
799.100	36.435	0.100
799.200	30.904	0.100
799.300	34.924	0.100
799.400	38.808	0.100
799.500	46.914	0.100
799.600	30.840	0.100
799.700	52.538	0.100
799.800	46.720	0.100
799.900	30.820	0.100
800.000	28.168	0.100
