time /s	I /nA	E /V
0.100	31.744	0.099
0.200	32.292	0.099
0.300	38.362	0.099
0.400	41.002	0.100
0.500	40.508	0.099
0.600	39.646	0.099
0.700	29.923	0.099
0.800	30.081	0.099
0.900	28.224	0.100
1.000	22.321	0.099
1.100	21.817	0.099
1.200	34.113	0.099
1.300	35.696	0.099
1.400	22.701	0.099
1.500	36.189	0.099
1.600	39.572	0.099
1.700	26.379	0.099
1.800	29.864	0.099
1.900	30.237	0.099
2.000	29.237	0.099
2.100	43.130	0.099
2.200	22.488	0.099
2.300	26.895	0.099
2.400	21.525	0.099
2.500	34.259	0.099
2.600	33.593	0.099
2.700	26.776	0.099
2.800	34.150	0.099
2.900	26.022	0.099
3.000	30.511	0.099
3.100	30.983	0.099
3.200	44.811	0.099
3.300	31.206	0.099
3.400	26.794	0.099
3.500	30.784	0.099
3.600	40.370	0.099
3.700	37.213	0.099
3.800	23.730	0.099
3.900	22.764	0.099
4.000	44.689	0.099
4.100	28.135	0.099
4.200	32.539	0.099
4.300	29.887	0.099
4.400	25.325	0.099
4.500	29.430	0.099
4.600	24.807	0.099
4.700	25.371	0.099
4.800	26.823	0.099
4.900	38.587	0.099
5.000	32.917	0.099
5.100	35.010	0.099
5.200	33.528	0.099
5.300	25.119	0.099
5.400	33.656	0.099
5.500	36.034	0.099
5.600	34.440	0.099
5.700	22.890	0.099
5.800	29.869	0.099
5.900	28.891	0.099
6.000	28.273	0.099
6.100	32.070	0.099
6.200	29.880	0.099
6.300	30.947	0.099
6.400	21.990	0.099
6.500	28.472	0.099
6.600	27.655	0.099
6.700	29.588	0.099
6.800	34.121	0.099
6.900	32.240	0.099
7.000	37.389	0.099
7.100	30.019	0.099
7.200	27.530	0.099
7.300	31.726	0.099
7.400	30.378	0.099
7.500	33.969	0.099
7.600	29.167	0.099
7.700	30.746	0.099
7.800	27.847	0.099
7.900	29.415	0.099
8.000	22.613	0.099
8.100	25.964	0.099
8.200	24.924	0.099
8.300	31.568	0.099
8.400	31.074	0.099
8.500	28.319	0.099
8.600	26.575	0.099
8.700	25.525	0.099
8.800	35.415	0.099
8.900	20.855	0.099
9.000	27.497	0.099
9.100	37.110	0.099
9.200	28.413	0.099
9.300	30.780	0.099
9.400	40.186	0.099
9.500	26.304	0.099
9.600	30.347	0.099
9.700	36.423	0.099
9.800	41.134	0.099
9.900	28.595	0.099
10.000	29.343	0.099
10.100	24.124	0.099
10.200	25.381	0.099
10.300	31.875	0.099
10.400	32.550	0.099
10.500	15.611	0.099
10.600	18.374	0.099
10.700	22.411	0.099
10.800	31.609	0.099
10.900	35.988	0.099
11.000	38.550	0.099
11.100	20.601	0.099
11.200	28.029	0.099
11.300	27.481	0.099
11.400	17.132	0.099
11.500	27.309	0.099
11.600	36.137	0.099
11.700	34.331	0.099
11.800	34.013	0.099
11.900	29.678	0.099
12.000	21.620	0.099
12.100	23.814	0.099
12.200	35.986	0.099
12.300	39.369	0.099
12.400	36.221	0.099
12.500	27.481	0.099
12.600	21.340	0.099
12.700	16.239	0.099
12.800	20.981	0.099
12.900	33.268	0.099
13.000	30.516	0.099
13.100	19.963	0.099
13.200	26.570	0.099
13.300	31.411	0.099
13.400	26.997	0.099
13.500	38.302	0.099
13.600	25.002	0.099
13.700	26.870	0.099
13.800	28.877	0.099
13.900	25.855	0.099
14.000	27.700	0.099
14.100	27.185	0.099
14.200	22.785	0.099
14.300	31.755	0.099
14.400	34.736	0.099
14.500	20.725	0.099
14.600	24.697	0.099
14.700	25.834	0.099
14.800	22.291	0.099
14.900	23.989	0.099
15.000	37.533	0.099
15.100	39.883	0.099
15.200	36.164	0.099
15.300	22.406	0.099
15.400	25.746	0.099
15.500	20.150	0.099
15.600	29.214	0.099
15.700	30.894	0.099
15.800	25.143	0.099
15.900	34.774	0.099
16.000	27.048	0.099
16.100	29.664	0.099
16.200	28.520	0.099
16.300	28.030	0.099
16.400	26.400	0.099
16.500	35.166	0.099
16.600	31.958	0.099
16.700	22.748	0.099
16.800	25.406	0.099
16.900	25.027	0.099
17.000	16.141	0.099
17.100	14.344	0.099
17.200	11.739	0.099
17.300	34.339	0.099
17.400	27.686	0.099
17.500	31.838	0.099
17.600	31.884	0.099
17.700	34.095	0.099
17.800	34.913	0.099
17.900	24.445	0.099
18.000	21.001	0.099
18.100	25.233	0.099
18.200	31.767	0.099
18.300	28.294	0.099
18.400	23.836	0.099
18.500	25.972	0.099
18.600	41.799	0.099
18.700	29.636	0.099
18.800	27.486	0.099
18.900	28.426	0.099
19.000	19.561	0.099
19.100	25.666	0.099
19.200	23.743	0.099
19.300	25.937	0.099
19.400	22.888	0.099
19.500	27.155	0.099
19.600	28.822	0.099
19.700	22.275	0.099
19.800	21.255	0.099
19.900	31.665	0.099
20.000	17.553	0.099
20.100	31.279	0.099
20.200	38.607	0.099
20.300	34.530	0.099
20.400	26.856	0.099
20.500	27.983	0.099
20.600	22.274	0.099
20.700	26.907	0.099
20.800	21.150	0.099
20.900	13.546	0.099
21.000	27.617	0.099
21.100	33.114	0.099
21.200	32.195	0.099
21.300	33.217	0.099
21.400	32.533	0.099
21.500	24.924	0.099
21.600	31.598	0.099
21.700	24.759	0.099
21.800	9.793	0.099
21.900	28.502	0.099
22.000	26.502	0.099
22.100	24.711	0.099
22.200	28.688	0.099
22.300	20.445	0.099
22.400	25.697	0.099
22.500	22.679	0.099
22.600	27.975	0.099
22.700	22.835	0.099
22.800	28.136	0.099
22.900	32.222	0.099
23.000	25.174	0.099
23.100	29.983	0.099
23.200	34.259	0.099
23.300	21.297	0.099
23.400	18.788	0.099
23.500	20.629	0.099
23.600	28.178	0.099
23.700	29.977	0.099
23.800	20.662	0.099
23.900	23.933	0.099
24.000	20.719	0.099
24.100	27.256	0.099
24.200	48.844	0.099
24.300	30.986	0.099
24.400	24.121	0.099
24.500	23.707	0.099
24.600	22.770	0.099
24.700	23.141	0.099
24.800	28.918	0.099
24.900	32.177	0.099
25.000	26.576	0.099
25.100	15.552	0.099
25.200	23.967	0.099
25.300	25.601	0.099
25.400	20.867	0.099
25.500	22.774	0.099
25.600	28.903	0.099
25.700	16.214	0.099
25.800	21.035	0.099
25.900	31.209	0.099
26.000	26.636	0.099
26.100	29.132	0.099
26.200	29.471	0.099
26.300	18.367	0.099
26.400	22.528	0.099
26.500	32.780	0.099
26.600	25.905	0.099
26.700	36.721	0.099
26.800	37.011	0.099
26.900	30.279	0.099
27.000	21.425	0.099
27.100	24.440	0.099
27.200	25.720	0.099
27.300	29.052	0.099
27.400	22.674	0.099
27.500	23.854	0.099
27.600	32.314	0.099
27.700	25.891	0.099
27.800	28.826	0.099
27.900	37.148	0.099
28.000	25.201	0.099
28.100	21.751	0.099
28.200	29.069	0.099
28.300	24.292	0.099
28.400	19.024	0.099
28.500	24.261	0.099
28.600	24.266	0.099
28.700	26.712	0.099
28.800	11.130	0.099
28.900	8.012	0.099
29.000	36.154	0.099
29.100	24.941	0.099
29.200	29.233	0.099
29.300	23.063	0.099
29.400	29.752	0.099
29.500	29.819	0.099
29.600	22.152	0.099
29.700	28.914	0.099
29.800	21.681	0.099
29.900	16.039	0.099
30.000	26.902	0.099
30.100	26.266	0.099
30.200	35.741	0.099
30.300	21.059	0.099
30.400	25.154	0.099
30.500	16.477	0.099
30.600	24.251	0.099
30.700	19.620	0.099
30.800	21.014	0.099
30.900	28.055	0.099
31.000	23.871	0.099
31.100	21.827	0.099
31.200	23.020	0.099
31.300	39.189	0.099
31.400	29.181	0.099
31.500	26.885	0.099
31.600	37.039	0.099
31.700	45.201	0.099
31.800	34.724	0.099
31.900	27.101	0.099
32.000	40.659	0.099
32.100	40.093	0.099
32.200	32.849	0.099
32.300	46.264	0.099
32.400	34.879	0.099
32.500	34.341	0.099
32.600	42.307	0.099
32.700	39.505	0.099
32.800	30.442	0.099
32.900	38.834	0.099
33.000	39.178	0.099
33.100	37.399	0.099
33.200	46.098	0.099
33.300	47.201	0.099
33.400	48.248	0.099
33.500	35.953	0.099
33.600	39.183	0.099
33.700	56.905	0.099
33.800	46.388	0.099
33.900	49.337	0.099
34.000	45.007	0.099
34.100	45.654	0.099
34.200	43.479	0.099
34.300	37.073	0.099
34.400	39.328	0.099
34.500	43.358	0.099
34.600	35.188	0.099
34.700	48.750	0.099
34.800	48.442	0.099
34.900	48.888	0.099
35.000	44.944	0.099
35.100	50.228	0.099
35.200	47.077	0.099
35.300	57.623	0.099
35.400	45.849	0.099
35.500	55.544	0.099
35.600	55.829	0.099
35.700	52.773	0.099
35.800	51.445	0.099
35.900	42.128	0.099
36.000	44.921	0.099
36.100	55.593	0.099
36.200	43.713	0.099
36.300	38.541	0.099
36.400	42.569	0.099
36.500	57.418	0.099
36.600	64.889	0.099
36.700	59.928	0.099
36.800	57.140	0.099
36.900	51.745	0.099
37.000	51.040	0.099
37.100	50.561	0.099
37.200	49.116	0.099
37.300	51.136	0.099
37.400	60.473	0.099
37.500	55.297	0.099
37.600	49.501	0.099
37.700	57.004	0.099
37.800	51.061	0.099
37.900	43.829	0.099
38.000	47.680	0.099
38.100	51.315	0.099
38.200	50.087	0.099
38.300	48.295	0.099
38.400	54.270	0.099
38.500	51.046	0.099
38.600	37.119	0.099
38.700	45.205	0.099
38.800	52.696	0.099
38.900	58.048	0.099
39.000	55.452	0.099
39.100	58.730	0.099
39.200	56.118	0.099
39.300	51.690	0.099
39.400	51.173	0.100
39.500	51.794	0.100
39.600	54.580	0.099
39.700	52.207	0.099
39.800	41.379	0.099
39.900	49.912	0.099
40.000	54.812	0.099
40.100	49.977	0.099
40.200	58.018	0.099
40.300	40.866	0.099
40.400	44.577	0.099
40.500	54.535	0.099
40.600	51.037	0.099
40.700	58.489	0.099
40.800	47.976	0.100
40.900	50.770	0.099
41.000	53.379	0.099
41.100	51.193	0.099
41.200	46.696	0.099
41.300	60.107	0.099
41.400	46.845	0.100
41.500	54.662	0.100
41.600	47.961	0.099
41.700	50.871	0.100
41.800	42.290	0.100
41.900	54.881	0.100
42.000	42.728	0.100
42.100	49.664	0.100
42.200	41.233	0.100
42.300	45.211	0.100
42.400	44.798	0.100
42.500	50.082	0.100
42.600	42.609	0.100
42.700	55.129	0.100
42.800	58.196	0.100
42.900	45.810	0.100
43.000	52.051	0.100
43.100	50.151	0.100
43.200	50.003	0.100
43.300	51.281	0.100
43.400	53.022	0.100
43.500	51.652	0.100
43.600	48.236	0.100
43.700	51.457	0.100
43.800	56.144	0.100
43.900	46.256	0.100
44.000	35.183	0.100
44.100	42.106	0.100
44.200	58.076	0.100
44.300	45.000	0.100
44.400	44.547	0.100
44.500	45.213	0.100
44.600	49.085	0.100
44.700	50.080	0.100
44.800	51.957	0.100
44.900	41.255	0.100
45.000	47.599	0.100
45.100	45.764	0.100
45.200	47.432	0.100
45.300	48.775	0.100
45.400	47.254	0.100
45.500	47.297	0.100
45.600	42.163	0.100
45.700	44.322	0.100
45.800	53.263	0.100
45.900	49.677	0.100
46.000	58.111	0.100
46.100	48.996	0.100
46.200	37.845	0.100
46.300	37.674	0.100
46.400	48.164	0.100
46.500	49.627	0.100
46.600	44.872	0.100
46.700	43.887	0.100
46.800	43.258	0.100
46.900	37.600	0.100
47.000	50.277	0.100
47.100	50.199	0.100
47.200	52.652	0.100
47.300	47.780	0.100
47.400	50.407	0.100
47.500	49.569	0.100
47.600	54.004	0.100
47.700	38.642	0.100
47.800	39.355	0.100
47.900	48.803	0.100
48.000	47.699	0.100
48.100	40.672	0.100
48.200	44.228	0.100
48.300	46.317	0.100
48.400	51.896	0.100
48.500	48.152	0.100
48.600	41.213	0.100
48.700	38.313	0.100
48.800	45.151	0.100
48.900	35.032	0.100
49.000	45.640	0.100
49.100	47.925	0.100
49.200	55.495	0.100
49.300	36.365	0.100
49.400	40.467	0.100
49.500	41.894	0.100
49.600	42.544	0.100
49.700	42.833	0.100
49.800	41.214	0.100
49.900	36.350	0.100
50.000	45.859	0.100
50.100	58.793	0.100
50.200	45.051	0.100
50.300	48.159	0.100
50.400	47.970	0.100
50.500	48.914	0.100
50.600	54.030	0.100
50.700	48.911	0.100
50.800	56.881	0.100
50.900	35.099	0.100
51.000	48.376	0.100
51.100	41.954	0.100
51.200	48.063	0.100
51.300	40.743	0.100
51.400	39.254	0.100
51.500	42.860	0.100
51.600	48.681	0.100
51.700	39.268	0.100
51.800	47.771	0.100
51.900	40.170	0.100
52.000	35.090	0.100
52.100	41.522	0.100
52.200	48.686	0.100
52.300	50.435	0.100
52.400	50.986	0.100
52.500	49.710	0.100
52.600	55.499	0.100
52.700	44.374	0.100
52.800	42.629	0.100
52.900	41.428	0.100
53.000	37.994	0.100
53.100	37.842	0.100
53.200	41.982	0.100
53.300	46.736	0.100
53.400	48.018	0.100
53.500	41.315	0.100
53.600	46.343	0.100
53.700	38.363	0.100
53.800	43.553	0.100
53.900	49.732	0.100
54.000	50.093	0.100
54.100	47.573	0.100
54.200	47.826	0.100
54.300	46.400	0.100
54.400	42.472	0.100
54.500	29.748	0.100
54.600	29.155	0.100
54.700	53.087	0.100
54.800	54.555	0.100
54.900	49.132	0.100
55.000	42.594	0.100
55.100	43.362	0.100
55.200	39.206	0.100
55.300	51.909	0.100
55.400	48.055	0.100
55.500	44.813	0.100
55.600	50.554	0.100
55.700	52.638	0.100
55.800	50.851	0.100
55.900	43.195	0.100
56.000	47.353	0.100
56.100	43.217	0.100
56.200	50.015	0.100
56.300	43.945	0.100
56.400	48.818	0.100
56.500	56.488	0.100
56.600	46.031	0.100
56.700	52.023	0.100
56.800	47.677	0.100
56.900	47.711	0.100
57.000	35.223	0.100
57.100	45.518	0.100
57.200	34.558	0.100
57.300	37.409	0.100
57.400	38.885	0.100
57.500	35.017	0.100
57.600	56.360	0.100
57.700	47.170	0.100
57.800	53.377	0.100
57.900	41.218	0.100
58.000	42.830	0.100
58.100	48.978	0.100
58.200	43.213	0.100
58.300	54.294	0.100
58.400	54.382	0.100
58.500	44.712	0.100
58.600	50.370	0.100
58.700	36.440	0.100
58.800	34.196	0.100
58.900	53.248	0.100
59.000	45.010	0.100
59.100	51.570	0.100
59.200	52.534	0.100
59.300	51.189	0.100
59.400	37.499	0.100
59.500	46.620	0.100
59.600	48.147	0.100
59.700	48.838	0.100
59.800	35.079	0.100
59.900	46.841	0.100
60.000	37.838	0.100
60.100	52.055	0.100
60.200	50.123	0.100
60.300	49.422	0.100
60.400	56.035	0.100
60.500	40.426	0.100
60.600	44.965	0.100
60.700	44.156	0.100
60.800	42.410	0.100
60.900	55.649	0.100
61.000	48.964	0.100
61.100	48.118	0.100
61.200	44.543	0.100
61.300	53.613	0.100
61.400	40.415	0.100
61.500	44.201	0.100
61.600	50.935	0.100
61.700	47.047	0.100
61.800	47.657	0.100
61.900	40.754	0.100
62.000	42.768	0.100
62.100	56.922	0.100
62.200	47.823	0.100
62.300	55.344	0.100
62.400	47.810	0.100
62.500	36.900	0.100
62.600	44.710	0.100
62.700	57.370	0.100
62.800	41.853	0.100
62.900	36.844	0.100
63.000	35.035	0.100
63.100	42.385	0.100
63.200	49.664	0.100
63.300	51.351	0.100
63.400	47.928	0.100
63.500	45.311	0.100
63.600	50.974	0.100
63.700	37.268	0.100
63.800	52.391	0.100
63.900	47.732	0.100
64.000	41.086	0.100
64.100	39.824	0.100
64.200	50.174	0.100
64.300	47.719	0.100
64.400	47.563	0.100
64.500	45.368	0.100
64.600	38.354	0.100
64.700	46.703	0.100
64.800	54.017	0.100
64.900	48.806	0.100
65.000	48.387	0.100
65.100	41.082	0.100
65.200	46.803	0.100
65.300	42.482	0.100
65.400	40.696	0.100
65.500	56.554	0.100
65.600	48.920	0.100
65.700	55.734	0.100
65.800	54.325	0.100
65.900	44.341	0.100
66.000	51.070	0.100
66.100	51.967	0.100
66.200	49.327	0.100
66.300	45.876	0.100
66.400	56.872	0.100
66.500	43.791	0.100
66.600	48.732	0.100
66.700	49.269	0.100
66.800	44.818	0.100
66.900	45.244	0.100
67.000	38.133	0.100
67.100	49.432	0.100
67.200	50.403	0.100
67.300	49.816	0.100
67.400	41.079	0.100
67.500	35.301	0.100
67.600	50.297	0.100
67.700	51.593	0.100
67.800	49.353	0.100
67.900	51.189	0.100
68.000	45.924	0.100
68.100	42.990	0.100
68.200	47.645	0.100
68.300	37.870	0.100
68.400	47.863	0.100
68.500	43.991	0.100
68.600	40.656	0.100
68.700	58.051	0.100
68.800	48.750	0.100
68.900	64.007	0.100
69.000	54.695	0.100
69.100	52.473	0.100
69.200	53.847	0.100
69.300	52.288	0.100
69.400	46.642	0.100
69.500	56.688	0.100
69.600	53.572	0.100
69.700	47.056	0.100
69.800	47.436	0.100
69.900	47.903	0.100
70.000	52.301	0.100
70.100	50.229	0.100
70.200	52.718	0.100
70.300	44.187	0.100
70.400	45.651	0.100
70.500	44.209	0.100
70.600	46.731	0.100
70.700	44.502	0.100
70.800	48.070	0.100
70.900	44.923	0.100
71.000	59.816	0.100
71.100	56.629	0.100
71.200	42.166	0.100
71.300	47.457	0.100
71.400	50.455	0.100
71.500	46.715	0.100
71.600	48.595	0.100
71.700	40.980	0.100
71.800	48.858	0.100
71.900	48.212	0.100
72.000	51.123	0.100
72.100	49.257	0.100
72.200	52.215	0.100
72.300	58.063	0.100
72.400	49.785	0.100
72.500	55.561	0.100
72.600	50.693	0.100
72.700	48.152	0.100
72.800	46.118	0.100
72.900	37.055	0.100
73.000	43.444	0.100
73.100	47.882	0.100
73.200	57.305	0.100
73.300	46.318	0.100
73.400	55.122	0.100
73.500	43.015	0.100
73.600	46.458	0.100
73.700	53.578	0.100
73.800	55.343	0.100
73.900	58.871	0.100
74.000	45.407	0.100
74.100	36.143	0.100
74.200	38.634	0.100
74.300	39.712	0.100
74.400	52.412	0.100
74.500	51.473	0.100
74.600	53.635	0.100
74.700	45.334	0.100
74.800	47.886	0.100
74.900	42.594	0.100
75.000	50.254	0.100
75.100	51.716	0.100
75.200	48.347	0.100
75.300	53.543	0.100
75.400	47.666	0.100
75.500	50.603	0.100
75.600	54.881	0.100
75.700	49.587	0.100
75.800	44.611	0.100
75.900	40.450	0.100
76.000	44.057	0.100
76.100	55.964	0.100
76.200	57.666	0.100
76.300	53.057	0.100
76.400	48.201	0.100
76.500	50.009	0.100
76.600	55.075	0.100
76.700	52.384	0.100
76.800	52.034	0.100
76.900	49.683	0.100
77.000	65.121	0.100
77.100	47.494	0.100
77.200	50.012	0.100
77.300	48.586	0.100
77.400	55.263	0.100
77.500	50.524	0.100
77.600	50.364	0.100
77.700	52.253	0.100
77.800	53.804	0.100
77.900	52.805	0.100
78.000	52.455	0.100
78.100	59.253	0.100
78.200	58.521	0.100
78.300	49.640	0.100
78.400	46.270	0.100
78.500	50.368	0.100
78.600	56.258	0.100
78.700	55.021	0.100
78.800	47.483	0.100
78.900	52.169	0.100
79.000	48.636	0.100
79.100	50.156	0.100
79.200	44.183	0.100
79.300	54.815	0.100
79.400	46.548	0.100
79.500	44.905	0.100
79.600	48.954	0.100
79.700	48.465	0.100
79.800	43.012	0.100
79.900	49.748	0.100
80.000	53.756	0.100
80.100	52.461	0.100
80.200	48.506	0.100
80.300	53.305	0.100
80.400	47.010	0.100
80.500	49.552	0.100
80.600	48.916	0.100
80.700	45.851	0.100
80.800	44.936	0.100
80.900	59.210	0.100
81.000	47.792	0.100
81.100	56.241	0.100
81.200	51.186	0.100
81.300	54.823	0.100
81.400	56.424	0.100
81.500	44.870	0.100
81.600	48.168	0.100
81.700	50.375	0.100
81.800	50.729	0.100
81.900	37.155	0.100
82.000	51.061	0.100
82.100	49.988	0.100
82.200	58.023	0.100
82.300	51.203	0.100
82.400	55.008	0.100
82.500	51.889	0.100
82.600	50.011	0.100
82.700	49.245	0.100
82.800	50.748	0.100
82.900	54.544	0.100
83.000	49.757	0.100
83.100	52.571	0.100
83.200	46.960	0.100
83.300	55.674	0.100
83.400	54.389	0.100
83.500	56.393	0.100
83.600	44.521	0.100
83.700	51.963	0.100
83.800	49.067	0.100
83.900	46.890	0.100
84.000	45.768	0.100
84.100	49.841	0.100
84.200	55.771	0.100
84.300	50.896	0.100
84.400	54.754	0.100
84.500	45.952	0.100
84.600	46.299	0.100
84.700	50.080	0.100
84.800	48.459	0.100
84.900	48.151	0.100
85.000	53.647	0.100
85.100	57.408	0.100
85.200	47.471	0.100
85.300	43.628	0.100
85.400	50.506	0.100
85.500	48.933	0.100
85.600	62.907	0.100
85.700	57.059	0.100
85.800	48.200	0.100
85.900	40.841	0.100
86.000	48.986	0.100
86.100	58.411	0.100
86.200	49.553	0.100
86.300	59.035	0.100
86.400	43.439	0.100
86.500	65.616	0.100
86.600	48.172	0.100
86.700	60.155	0.100
86.800	58.982	0.100
86.900	51.528	0.100
87.000	60.005	0.100
87.100	60.446	0.100
87.200	43.934	0.100
87.300	48.773	0.100
87.400	39.184	0.100
87.500	37.218	0.100
87.600	46.773	0.100
87.700	57.111	0.100
87.800	56.505	0.100
87.900	54.068	0.100
88.000	49.519	0.100
88.100	52.614	0.100
88.200	50.912	0.100
88.300	57.325	0.100
88.400	60.691	0.100
88.500	51.408	0.100
88.600	55.589	0.100
88.700	54.601	0.100
88.800	54.296	0.100
88.900	52.742	0.100
89.000	49.319	0.100
89.100	43.672	0.100
89.200	51.324	0.100
89.300	39.874	0.100
89.400	50.169	0.100
89.500	56.649	0.100
89.600	51.665	0.100
89.700	53.067	0.100
89.800	40.977	0.100
89.900	49.104	0.100
90.000	45.285	0.100
90.100	54.266	0.100
90.200	49.474	0.100
90.300	61.614	0.100
90.400	56.758	0.100
90.500	52.789	0.100
90.600	53.007	0.100
90.700	52.830	0.100
90.800	57.808	0.100
90.900	44.630	0.100
91.000	43.077	0.100
91.100	49.728	0.100
91.200	54.538	0.100
91.300	60.773	0.100
91.400	52.246	0.100
91.500	47.058	0.100
91.600	44.675	0.100
91.700	50.153	0.100
91.800	41.948	0.100
91.900	36.948	0.100
92.000	49.456	0.100
92.100	41.219	0.100
92.200	44.226	0.100
92.300	27.935	0.100
92.400	40.865	0.100
92.500	39.989	0.100
92.600	31.203	0.100
92.700	45.330	0.100
92.800	40.035	0.100
92.900	41.036	0.100
93.000	36.497	0.100
93.100	38.079	0.100
93.200	46.865	0.100
93.300	42.481	0.100
93.400	43.465	0.100
93.500	47.997	0.100
93.600	39.533	0.100
93.700	42.503	0.100
93.800	35.911	0.100
93.900	31.506	0.100
94.000	25.470	0.100
94.100	28.442	0.100
94.200	36.840	0.100
94.300	42.233	0.100
94.400	38.888	0.100
94.500	24.031	0.100
94.600	23.599	0.100
94.700	34.717	0.100
94.800	39.583	0.100
94.900	29.906	0.100
95.000	33.190	0.100
95.100	37.726	0.100
95.200	36.098	0.100
95.300	31.324	0.100
95.400	37.486	0.100
95.500	27.992	0.100
95.600	27.437	0.100
95.700	26.978	0.100
95.800	26.084	0.100
95.900	25.010	0.100
96.000	29.494	0.100
96.100	21.154	0.100
96.200	30.985	0.100
96.300	31.254	0.100
96.400	27.949	0.100
96.500	22.493	0.100
96.600	25.358	0.100
96.700	29.061	0.100
96.800	26.573	0.100
96.900	24.150	0.100
97.000	31.536	0.100
97.100	28.852	0.100
97.200	20.369	0.100
97.300	15.317	0.100
97.400	25.936	0.100
97.500	25.591	0.100
97.600	26.512	0.100
97.700	14.527	0.100
97.800	12.535	0.100
97.900	27.479	0.100
98.000	22.005	0.100
98.100	21.828	0.100
98.200	33.531	0.100
98.300	31.151	0.100
98.400	25.701	0.100
98.500	23.553	0.100
98.600	29.011	0.100
98.700	29.349	0.100
98.800	21.885	0.100
98.900	18.692	0.100
99.000	26.225	0.100
99.100	0.953	0.100
99.200	11.830	0.100
99.300	6.551	0.100
99.400	20.060	0.100
99.500	14.482	0.100
99.600	13.393	0.100
99.700	16.293	0.100
99.800	18.739	0.100
99.900	17.169	0.100
100.000	19.000	0.100
100.100	17.715	0.100
100.200	21.732	0.100
100.300	25.561	0.100
100.400	20.499	0.100
100.500	21.201	0.100
100.600	19.941	0.100
100.700	33.243	0.100
100.800	21.103	0.100
100.900	28.447	0.100
101.000	23.908	0.100
101.100	22.109	0.100
101.200	20.433	0.100
101.300	16.983	0.100
101.400	20.607	0.100
101.500	15.757	0.100
101.600	17.308	0.100
101.700	25.206	0.100
101.800	19.943	0.100
101.900	16.039	0.100
102.000	18.737	0.100
102.100	24.809	0.100
102.200	10.616	0.100
102.300	14.259	0.100
102.400	21.012	0.100
102.500	22.528	0.100
102.600	16.599	0.100
102.700	14.959	0.100
102.800	17.687	0.100
102.900	20.652	0.100
103.000	19.761	0.100
103.100	30.497	0.100
103.200	24.869	0.100
103.300	27.718	0.100
103.400	23.006	0.100
103.500	16.701	0.100
103.600	14.072	0.100
103.700	10.350	0.100
103.800	21.134	0.100
103.900	23.016	0.100
104.000	27.334	0.100
104.100	20.075	0.100
104.200	21.120	0.100
104.300	21.768	0.100
104.400	18.095	0.100
104.500	15.054	0.100
104.600	12.816	0.100
104.700	15.007	0.100
104.800	20.030	0.100
104.900	26.817	0.100
105.000	27.540	0.100
105.100	24.875	0.100
105.200	22.321	0.100
105.300	28.318	0.100
105.400	28.879	0.100
105.500	28.285	0.100
105.600	25.508	0.100
105.700	24.859	0.100
105.800	21.518	0.100
105.900	18.607	0.100
106.000	19.525	0.100
106.100	21.376	0.100
106.200	5.474	0.100
106.300	15.251	0.100
106.400	16.890	0.100
106.500	22.878	0.100
106.600	25.292	0.100
106.700	25.120	0.100
106.800	17.598	0.100
106.900	11.620	0.100
107.000	22.401	0.100
107.100	17.545	0.100
107.200	22.911	0.100
107.300	14.235	0.100
107.400	31.177	0.100
107.500	18.080	0.100
107.600	20.755	0.100
107.700	20.562	0.100
107.800	11.269	0.100
107.900	15.681	0.100
108.000	9.478	0.100
108.100	15.915	0.100
108.200	19.352	0.100
108.300	18.601	0.100
108.400	12.769	0.100
108.500	17.513	0.100
108.600	24.504	0.100
108.700	21.544	0.100
108.800	22.930	0.100
108.900	19.162	0.100
109.000	13.168	0.100
109.100	22.072	0.100
109.200	25.098	0.100
109.300	23.185	0.100
109.400	22.069	0.100
109.500	26.830	0.100
109.600	23.297	0.100
109.700	13.786	0.100
109.800	23.479	0.100
109.900	17.606	0.100
110.000	9.110	0.100
110.100	29.529	0.100
110.200	14.654	0.100
110.300	38.647	0.100
110.400	25.718	0.100
110.500	20.503	0.100
110.600	17.417	0.100
110.700	18.227	0.100
110.800	21.508	0.100
110.900	22.307	0.100
111.000	18.763	0.100
111.100	15.272	0.100
111.200	24.719	0.100
111.300	16.361	0.100
111.400	20.715	0.100
111.500	19.692	0.100
111.600	20.396	0.100
111.700	20.410	0.100
111.800	9.775	0.100
111.900	23.180	0.100
112.000	21.674	0.100
112.100	5.207	0.100
112.200	21.466	0.100
112.300	25.483	0.100
112.400	15.081	0.100
112.500	23.048	0.100
112.600	20.634	0.100
112.700	21.292	0.100
112.800	24.220	0.100
112.900	20.240	0.100
113.000	18.170	0.100
113.100	24.172	0.100
113.200	18.116	0.100
113.300	19.271	0.100
113.400	17.921	0.100
113.500	23.608	0.100
113.600	22.233	0.100
113.700	25.512	0.100
113.800	22.909	0.100
113.900	16.973	0.100
114.000	23.194	0.100
114.100	17.697	0.100
114.200	21.198	0.100
114.300	10.749	0.100
114.400	19.575	0.100
114.500	17.163	0.100
114.600	17.976	0.100
114.700	19.255	0.100
114.800	21.907	0.100
114.900	16.489	0.100
115.000	24.370	0.100
115.100	21.778	0.100
115.200	20.572	0.100
115.300	11.247	0.100
115.400	16.286	0.100
115.500	12.637	0.100
115.600	25.127	0.100
115.700	17.580	0.100
115.800	16.929	0.100
115.900	17.773	0.100
116.000	28.428	0.100
116.100	28.504	0.100
116.200	23.646	0.100
116.300	20.832	0.100
116.400	16.871	0.100
116.500	24.518	0.100
116.600	19.239	0.100
116.700	16.809	0.100
116.800	18.439	0.100
116.900	13.754	0.100
117.000	2.457	0.100
117.100	12.519	0.100
117.200	8.569	0.100
117.300	5.148	0.100
117.400	25.131	0.100
117.500	17.639	0.100
117.600	20.082	0.100
117.700	24.259	0.100
117.800	32.754	0.100
117.900	26.704	0.100
118.000	32.662	0.100
118.100	33.797	0.100
118.200	19.789	0.100
118.300	15.945	0.100
118.400	18.770	0.100
118.500	17.700	0.100
118.600	27.047	0.100
118.700	11.823	0.100
118.800	14.485	0.100
118.900	16.748	0.100
119.000	16.643	0.100
119.100	19.788	0.100
119.200	22.620	0.100
119.300	22.081	0.100
119.400	14.579	0.100
119.500	17.677	0.100
119.600	20.738	0.100
119.700	21.335	0.100
119.800	13.854	0.100
119.900	16.831	0.100
120.000	18.475	0.100
120.100	12.981	0.100
120.200	10.678	0.100
120.300	16.084	0.100
120.400	12.434	0.100
120.500	8.650	0.100
120.600	12.900	0.100
120.700	15.033	0.100
120.800	12.501	0.100
120.900	25.430	0.100
121.000	22.059	0.100
121.100	16.569	0.100
121.200	19.009	0.100
121.300	19.431	0.100
121.400	8.408	0.100
121.500	20.940	0.100
121.600	15.332	0.100
121.700	16.998	0.100
121.800	12.993	0.100
121.900	13.782	0.100
122.000	19.294	0.100
122.100	18.349	0.100
122.200	12.795	0.100
122.300	12.820	0.100
122.400	22.993	0.100
122.500	16.986	0.100
122.600	18.324	0.100
122.700	20.774	0.100
122.800	28.058	0.100
122.900	23.207	0.100
123.000	16.913	0.100
123.100	19.493	0.100
123.200	22.769	0.100
123.300	18.845	0.100
123.400	15.169	0.100
123.500	4.357	0.100
123.600	18.907	0.100
123.700	15.028	0.100
123.800	14.882	0.100
123.900	8.221	0.100
124.000	20.211	0.100
124.100	19.996	0.100
124.200	22.249	0.100
124.300	6.515	0.100
124.400	11.376	0.100
124.500	10.885	0.100
124.600	8.737	0.100
124.700	20.960	0.100
124.800	17.605	0.100
124.900	17.073	0.100
125.000	16.910	0.100
125.100	15.744	0.100
125.200	18.661	0.100
125.300	21.338	0.100
125.400	16.730	0.100
125.500	4.921	0.100
125.600	14.156	0.100
125.700	15.650	0.100
125.800	14.669	0.100
125.900	22.829	0.100
126.000	20.132	0.100
126.100	18.047	0.100
126.200	12.762	0.100
126.300	16.399	0.100
126.400	21.230	0.100
126.500	15.652	0.100
126.600	16.411	0.100
126.700	6.888	0.100
126.800	15.436	0.100
126.900	9.221	0.100
127.000	22.104	0.100
127.100	24.301	0.100
127.200	23.729	0.100
127.300	18.379	0.100
127.400	19.671	0.100
127.500	21.227	0.100
127.600	21.800	0.100
127.700	15.278	0.100
127.800	18.928	0.100
127.900	12.748	0.100
128.000	7.986	0.100
128.100	20.176	0.100
128.200	13.817	0.100
128.300	14.814	0.100
128.400	23.807	0.100
128.500	21.149	0.100
128.600	22.306	0.100
128.700	19.085	0.100
128.800	14.335	0.100
128.900	13.625	0.100
129.000	15.122	0.100
129.100	8.534	0.100
129.200	6.233	0.100
129.300	4.584	0.100
129.400	11.068	0.100
129.500	14.368	0.100
129.600	18.270	0.100
129.700	17.171	0.100
129.800	26.374	0.100
129.900	12.550	0.100
130.000	19.094	0.100
130.100	7.028	0.100
130.200	6.791	0.100
130.300	22.174	0.100
130.400	23.709	0.100
130.500	20.081	0.100
130.600	19.236	0.100
130.700	12.382	0.100
130.800	5.099	0.100
130.900	6.157	0.100
131.000	16.362	0.100
131.100	13.686	0.100
131.200	17.827	0.100
131.300	17.831	0.100
131.400	13.069	0.100
131.500	11.000	0.100
131.600	10.500	0.100
131.700	18.203	0.100
131.800	12.341	0.100
131.900	15.229	0.100
132.000	28.356	0.100
132.100	23.736	0.100
132.200	20.061	0.100
132.300	13.913	0.100
132.400	19.552	0.100
132.500	12.837	0.100
132.600	8.112	0.100
132.700	7.451	0.100
132.800	14.779	0.100
132.900	16.474	0.100
133.000	15.659	0.100
133.100	21.804	0.100
133.200	18.716	0.100
133.300	16.170	0.100
133.400	9.419	0.100
133.500	11.349	0.100
133.600	17.297	0.100
133.700	17.023	0.100
133.800	12.287	0.100
133.900	13.678	0.100
134.000	14.966	0.100
134.100	4.289	0.100
134.200	-1.238	0.100
134.300	15.385	0.100
134.400	13.603	0.100
134.500	23.659	0.100
134.600	7.813	0.100
134.700	20.882	0.100
134.800	26.047	0.100
134.900	14.411	0.100
135.000	10.777	0.100
135.100	10.432	0.100
135.200	12.231	0.100
135.300	19.091	0.100
135.400	21.056	0.100
135.500	15.828	0.100
135.600	12.889	0.100
135.700	12.489	0.100
135.800	9.296	0.100
135.900	11.992	0.100
136.000	7.429	0.100
136.100	13.090	0.100
136.200	18.267	0.100
136.300	14.292	0.100
136.400	15.786	0.100
136.500	19.488	0.100
136.600	10.400	0.100
136.700	11.152	0.100
136.800	14.505	0.100
136.900	-4.100	0.100
137.000	2.114	0.100
137.100	21.249	0.100
137.200	18.806	0.100
137.300	16.879	0.100
137.400	14.832	0.100
137.500	3.171	0.100
137.600	26.283	0.100
137.700	17.826	0.100
137.800	12.495	0.100
137.900	12.163	0.100
138.000	16.886	0.100
138.100	13.250	0.100
138.200	2.679	0.100
138.300	14.693	0.100
138.400	26.294	0.100
138.500	16.897	0.100
138.600	16.035	0.100
138.700	15.011	0.100
138.800	13.103	0.100
138.900	5.530	0.100
139.000	7.165	0.100
139.100	4.499	0.100
139.200	11.171	0.100
139.300	7.271	0.100
139.400	13.624	0.100
139.500	19.478	0.100
139.600	16.613	0.100
139.700	22.334	0.100
139.800	22.736	0.100
139.900	17.890	0.100
140.000	10.072	0.100
140.100	9.037	0.100
140.200	15.893	0.100
140.300	11.889	0.100
140.400	15.104	0.100
140.500	12.339	0.100
140.600	10.398	0.100
140.700	9.661	0.100
140.800	18.603	0.100
140.900	20.002	0.100
141.000	9.981	0.100
141.100	12.514	0.100
141.200	13.906	0.100
141.300	13.185	0.100
141.400	5.077	0.100
141.500	11.404	0.100
141.600	1.013	0.100
141.700	16.910	0.100
141.800	13.517	0.100
141.900	11.075	0.100
142.000	14.058	0.100
142.100	20.069	0.100
142.200	17.871	0.100
142.300	18.911	0.100
142.400	12.099	0.100
142.500	4.097	0.100
142.600	11.098	0.100
142.700	21.187	0.100
142.800	9.421	0.100
142.900	20.797	0.100
143.000	7.913	0.100
143.100	9.297	0.100
143.200	6.182	0.100
143.300	-0.510	0.100
143.400	11.494	0.100
143.500	15.341	0.100
143.600	8.955	0.100
143.700	6.178	0.100
143.800	12.634	0.100
143.900	17.862	0.100
144.000	11.818	0.100
144.100	10.809	0.100
144.200	14.230	0.100
144.300	9.083	0.100
144.400	11.439	0.100
144.500	13.065	0.100
144.600	16.032	0.100
144.700	10.316	0.100
144.800	4.281	0.100
144.900	3.816	0.100
145.000	17.603	0.100
145.100	8.294	0.100
145.200	9.664	0.100
145.300	2.486	0.100
145.400	1.415	0.100
145.500	17.383	0.100
145.600	20.477	0.100
145.700	10.895	0.100
145.800	13.548	0.100
145.900	14.584	0.100
146.000	4.673	0.100
146.100	13.190	0.100
146.200	12.935	0.100
146.300	17.971	0.100
146.400	17.941	0.100
146.500	13.203	0.100
146.600	28.731	0.100
146.700	16.257	0.100
146.800	16.865	0.100
146.900	11.596	0.100
147.000	12.631	0.100
147.100	9.168	0.100
147.200	4.639	0.100
147.300	17.585	0.100
147.400	5.542	0.100
147.500	12.060	0.100
147.600	13.844	0.100
147.700	12.021	0.100
147.800	9.304	0.100
147.900	6.182	0.100
148.000	5.796	0.100
148.100	18.751	0.100
148.200	12.405	0.100
148.300	6.909	0.100
148.400	9.307	0.100
148.500	10.688	0.100
148.600	10.985	0.100
148.700	12.916	0.100
148.800	13.422	0.100
148.900	12.105	0.100
149.000	11.871	0.100
149.100	16.163	0.100
149.200	8.614	0.100
149.300	4.088	0.100
149.400	12.296	0.100
149.500	13.502	0.100
149.600	17.598	0.100
149.700	7.433	0.100
149.800	4.663	0.100
149.900	8.971	0.100
150.000	6.974	0.100
150.100	2.463	0.100
150.200	4.722	0.100
150.300	12.884	0.100
150.400	8.550	0.100
150.500	14.631	0.100
150.600	21.185	0.100
150.700	19.129	0.100
150.800	15.776	0.100
150.900	14.747	0.100
151.000	5.545	0.100
151.100	18.886	0.100
151.200	19.709	0.100
151.300	9.409	0.100
151.400	10.167	0.100
151.500	10.824	0.100
151.600	-1.369	0.100
151.700	-0.093	0.100
151.800	8.815	0.100
151.900	10.897	0.100
152.000	21.795	0.100
152.100	13.760	0.100
152.200	9.351	0.100
152.300	14.557	0.100
152.400	8.021	0.100
152.500	5.532	0.100
152.600	5.491	0.100
152.700	12.613	0.100
152.800	7.223	0.100
152.900	14.983	0.100
153.000	17.299	0.100
153.100	10.326	0.100
153.200	15.693	0.100
153.300	6.982	0.100
153.400	4.849	0.100
153.500	14.574	0.100
153.600	11.785	0.100
153.700	2.805	0.100
153.800	14.494	0.100
153.900	14.590	0.100
154.000	3.048	0.100
154.100	10.655	0.100
154.200	17.700	0.100
154.300	26.031	0.100
154.400	15.447	0.100
154.500	14.754	0.100
154.600	9.344	0.100
154.700	14.439	0.100
154.800	2.215	0.100
154.900	9.864	0.100
155.000	5.982	0.100
155.100	11.116	0.100
155.200	5.099	0.100
155.300	8.196	0.100
155.400	15.636	0.100
155.500	4.583	0.100
155.600	8.516	0.100
155.700	16.492	0.100
155.800	7.966	0.100
155.900	4.769	0.100
156.000	11.276	0.100
156.100	12.638	0.100
156.200	17.953	0.100
156.300	17.558	0.100
156.400	20.021	0.100
156.500	16.033	0.100
156.600	5.885	0.100
156.700	10.974	0.100
156.800	6.710	0.100
156.900	12.180	0.100
157.000	12.512	0.100
157.100	9.714	0.100
157.200	13.799	0.100
157.300	1.050	0.100
157.400	8.394	0.100
157.500	8.221	0.100
157.600	17.630	0.100
157.700	18.494	0.100
157.800	13.681	0.100
157.900	6.900	0.100
158.000	8.071	0.100
158.100	6.401	0.100
158.200	15.331	0.100
158.300	14.032	0.100
158.400	9.838	0.100
158.500	15.806	0.100
158.600	7.313	0.100
158.700	4.137	0.100
158.800	10.939	0.100
158.900	13.206	0.100
159.000	11.000	0.100
159.100	10.788	0.100
159.200	16.389	0.100
159.300	9.571	0.100
159.400	5.383	0.100
159.500	17.730	0.100
159.600	9.059	0.100
159.700	9.375	0.100
159.800	10.286	0.100
159.900	8.816	0.100
160.000	8.326	0.100
160.100	7.866	0.100
160.200	7.738	0.100
160.300	3.252	0.100
160.400	6.643	0.100
160.500	14.097	0.100
160.600	17.043	0.100
160.700	13.932	0.100
160.800	7.676	0.100
160.900	-3.728	0.100
161.000	3.848	0.100
161.100	14.257	0.100
161.200	13.113	0.100
161.300	11.627	0.100
161.400	11.568	0.100
161.500	12.408	0.100
161.600	8.145	0.100
161.700	14.186	0.100
161.800	15.533	0.100
161.900	12.377	0.100
162.000	5.017	0.100
162.100	12.695	0.100
162.200	18.488	0.100
162.300	15.995	0.100
162.400	20.684	0.100
162.500	6.679	0.100
162.600	8.843	0.100
162.700	12.680	0.100
162.800	14.957	0.100
162.900	8.497	0.100
163.000	15.541	0.100
163.100	8.311	0.100
163.200	6.005	0.100
163.300	-0.290	0.100
163.400	9.181	0.100
163.500	6.852	0.100
163.600	5.706	0.100
163.700	5.746	0.100
163.800	13.165	0.100
163.900	9.059	0.100
164.000	12.376	0.100
164.100	18.250	0.100
164.200	8.194	0.100
164.300	8.137	0.100
164.400	2.893	0.100
164.500	5.379	0.100
164.600	2.825	0.100
164.700	3.998	0.100
164.800	8.797	0.100
164.900	11.421	0.100
165.000	10.407	0.100
165.100	15.500	0.100
165.200	10.950	0.100
165.300	10.893	0.100
165.400	4.061	0.100
165.500	16.730	0.100
165.600	5.420	0.100
165.700	9.628	0.100
165.800	11.330	0.100
165.900	14.056	0.100
166.000	8.817	0.100
166.100	8.913	0.100
166.200	11.687	0.100
166.300	11.102	0.100
166.400	7.758	0.100
166.500	6.245	0.100
166.600	7.276	0.100
166.700	15.538	0.100
166.800	25.869	0.100
166.900	13.790	0.100
167.000	9.261	0.100
167.100	10.105	0.100
167.200	5.422	0.100
167.300	12.306	0.100
167.400	15.604	0.100
167.500	8.377	0.100
167.600	7.011	0.100
167.700	1.449	0.100
167.800	12.080	0.100
167.900	16.605	0.100
168.000	9.128	0.100
168.100	10.934	0.100
168.200	1.386	0.100
168.300	11.468	0.100
168.400	8.728	0.100
168.500	8.124	0.100
168.600	9.347	0.100
168.700	7.637	0.100
168.800	7.421	0.100
168.900	7.956	0.100
169.000	16.121	0.100
169.100	14.054	0.100
169.200	2.300	0.100
169.300	6.022	0.100
169.400	4.373	0.100
169.500	9.650	0.100
169.600	13.106	0.100
169.700	7.542	0.100
169.800	9.913	0.100
169.900	11.191	0.100
170.000	16.646	0.100
170.100	14.693	0.100
170.200	13.200	0.100
170.300	1.947	0.100
170.400	6.984	0.100
170.500	9.721	0.100
170.600	9.365	0.100
170.700	5.429	0.100
170.800	8.812	0.100
170.900	12.027	0.100
171.000	14.513	0.100
171.100	13.741	0.100
171.200	14.377	0.100
171.300	11.248	0.100
171.400	4.369	0.100
171.500	18.323	0.100
171.600	15.432	0.100
171.700	10.493	0.100
171.800	12.200	0.100
171.900	5.218	0.100
172.000	6.103	0.100
172.100	14.891	0.100
172.200	10.035	0.100
172.300	8.048	0.100
172.400	11.751	0.100
172.500	10.838	0.100
172.600	11.958	0.100
172.700	3.642	0.100
172.800	3.944	0.100
172.900	-1.449	0.100
173.000	6.337	0.100
173.100	8.163	0.100
173.200	0.810	0.100
173.300	16.447	0.100
173.400	5.879	0.100
173.500	11.749	0.100
173.600	7.494	0.100
173.700	8.288	0.100
173.800	8.322	0.100
173.900	12.716	0.100
174.000	13.717	0.100
174.100	11.521	0.100
174.200	11.841	0.100
174.300	15.366	0.100
174.400	11.459	0.100
174.500	4.575	0.100
174.600	-3.502	0.100
174.700	9.815	0.100
174.800	15.723	0.100
174.900	6.108	0.100
175.000	19.781	0.100
175.100	17.229	0.100
175.200	12.014	0.100
175.300	12.314	0.100
175.400	12.875	0.100
175.500	15.626	0.100
175.600	10.662	0.100
175.700	4.720	0.100
175.800	4.775	0.100
175.900	9.237	0.100
176.000	1.872	0.100
176.100	12.439	0.100
176.200	6.354	0.100
176.300	5.829	0.100
176.400	-2.147	0.100
176.500	13.972	0.100
176.600	6.045	0.100
176.700	6.446	0.100
176.800	6.302	0.100
176.900	3.771	0.100
177.000	1.412	0.100
177.100	4.480	0.100
177.200	12.687	0.100
177.300	7.610	0.100
177.400	21.023	0.100
177.500	11.094	0.100
177.600	11.362	0.100
177.700	8.167	0.100
177.800	11.278	0.100
177.900	12.273	0.100
178.000	16.813	0.100
178.100	12.093	0.100
178.200	15.936	0.100
178.300	11.991	0.100
178.400	12.979	0.100
178.500	8.222	0.100
178.600	4.044	0.100
178.700	7.372	0.100
178.800	3.983	0.100
178.900	2.107	0.100
179.000	-2.838	0.100
179.100	11.337	0.100
179.200	19.575	0.100
179.300	15.572	0.100
179.400	7.965	0.100
179.500	11.935	0.100
179.600	9.381	0.100
179.700	11.133	0.100
179.800	0.452	0.100
179.900	11.003	0.100
180.000	8.973	0.100
180.100	11.145	0.100
180.200	6.569	0.100
180.300	4.626	0.100
180.400	8.694	0.100
180.500	12.153	0.100
180.600	15.280	0.100
180.700	13.372	0.100
180.800	21.357	0.100
180.900	18.629	0.100
181.000	5.277	0.100
181.100	6.454	0.100
181.200	9.895	0.100
181.300	6.861	0.100
181.400	27.076	0.100
181.500	15.621	0.100
181.600	14.367	0.100
181.700	10.152	0.100
181.800	15.137	0.100
181.900	24.140	0.100
182.000	20.958	0.100
182.100	19.923	0.100
182.200	15.763	0.100
182.300	18.475	0.100
182.400	25.821	0.100
182.500	21.699	0.100
182.600	9.693	0.100
182.700	18.798	0.100
182.800	21.237	0.100
182.900	34.026	0.100
183.000	20.235	0.100
183.100	32.346	0.100
183.200	20.102	0.100
183.300	23.932	0.100
183.400	20.860	0.100
183.500	20.380	0.100
183.600	19.056	0.100
183.700	25.483	0.100
183.800	25.520	0.100
183.900	26.498	0.100
184.000	24.942	0.100
184.100	32.421	0.100
184.200	29.211	0.100
184.300	29.271	0.100
184.400	14.836	0.100
184.500	21.113	0.100
184.600	18.620	0.100
184.700	24.613	0.100
184.800	34.737	0.100
184.900	38.465	0.100
185.000	32.874	0.100
185.100	30.209	0.100
185.200	25.821	0.100
185.300	27.760	0.100
185.400	26.711	0.100
185.500	14.626	0.100
185.600	22.367	0.100
185.700	30.893	0.100
185.800	27.642	0.100
185.900	33.710	0.100
186.000	19.808	0.100
186.100	36.890	0.100
186.200	26.244	0.100
186.300	29.398	0.100
186.400	24.855	0.100
186.500	27.305	0.100
186.600	31.980	0.100
186.700	35.851	0.100
186.800	29.157	0.100
186.900	32.736	0.100
187.000	27.901	0.100
187.100	26.700	0.100
187.200	23.108	0.100
187.300	22.147	0.100
187.400	22.938	0.100
187.500	38.800	0.100
187.600	34.381	0.100
187.700	29.789	0.100
187.800	37.977	0.100
187.900	20.975	0.100
188.000	32.412	0.100
188.100	32.169	0.100
188.200	28.355	0.100
188.300	28.635	0.100
188.400	40.092	0.100
188.500	40.580	0.100
188.600	31.949	0.100
188.700	24.321	0.100
188.800	27.799	0.100
188.900	34.313	0.100
189.000	26.464	0.100
189.100	33.840	0.100
189.200	30.919	0.100
189.300	27.721	0.100
189.400	26.209	0.100
189.500	19.809	0.100
189.600	42.610	0.100
189.700	40.388	0.100
189.800	43.049	0.100
189.900	35.490	0.100
190.000	32.013	0.100
190.100	37.004	0.100
190.200	36.840	0.100
190.300	31.030	0.100
190.400	35.950	0.100
190.500	43.441	0.100
190.600	41.864	0.100
190.700	30.952	0.100
190.800	21.678	0.100
190.900	31.470	0.100
191.000	41.258	0.100
191.100	36.725	0.100
191.200	34.120	0.100
191.300	36.930	0.100
191.400	24.876	0.100
191.500	34.829	0.100
191.600	32.779	0.100
191.700	43.468	0.100
191.800	38.807	0.100
191.900	34.834	0.100
192.000	32.598	0.100
192.100	26.170	0.100
192.200	20.435	0.100
192.300	31.941	0.100
192.400	31.745	0.100
192.500	35.894	0.100
192.600	39.850	0.100
192.700	40.558	0.100
192.800	42.641	0.100
192.900	39.901	0.100
193.000	37.763	0.100
193.100	42.826	0.100
193.200	33.714	0.100
193.300	46.912	0.100
193.400	37.080	0.100
193.500	30.785	0.100
193.600	36.119	0.100
193.700	29.567	0.100
193.800	33.701	0.100
193.900	43.132	0.100
194.000	42.489	0.100
194.100	47.691	0.100
194.200	31.740	0.100
194.300	46.346	0.100
194.400	36.289	0.100
194.500	40.979	0.100
194.600	33.205	0.100
194.700	30.116	0.100
194.800	44.993	0.100
194.900	42.250	0.100
195.000	45.476	0.100
195.100	25.246	0.100
195.200	31.523	0.100
195.300	45.168	0.100
195.400	32.914	0.100
195.500	45.183	0.100
195.600	41.151	0.100
195.700	28.122	0.100
195.800	46.474	0.100
195.900	44.232	0.100
196.000	43.327	0.100
196.100	45.639	0.100
196.200	38.794	0.100
196.300	39.002	0.100
196.400	37.123	0.100
196.500	37.700	0.100
196.600	39.711	0.100
196.700	40.550	0.100
196.800	52.300	0.100
196.900	41.468	0.100
197.000	40.791	0.100
197.100	32.857	0.100
197.200	40.285	0.100
197.300	41.853	0.100
197.400	34.258	0.100
197.500	39.428	0.100
197.600	41.318	0.100
197.700	44.741	0.100
197.800	28.457	0.100
197.900	43.836	0.100
198.000	40.329	0.100
198.100	45.109	0.100
198.200	37.493	0.100
198.300	47.387	0.100
198.400	42.652	0.100
198.500	41.731	0.100
198.600	47.515	0.100
198.700	45.104	0.100
198.800	46.151	0.100
198.900	49.868	0.100
199.000	42.027	0.100
199.100	44.623	0.100
199.200	46.640	0.100
199.300	40.850	0.100
199.400	38.318	0.100
199.500	51.712	0.100
199.600	40.242	0.100
199.700	40.358	0.100
199.800	39.896	0.100
199.900	40.865	0.100
200.000	40.503	0.100
200.100	45.581	0.100
200.200	44.962	0.100
200.300	44.356	0.100
200.400	40.123	0.100
200.500	43.452	0.100
200.600	34.513	0.100
200.700	42.617	0.100
200.800	47.027	0.100
200.900	46.770	0.100
201.000	48.605	0.100
201.100	42.508	0.100
201.200	35.698	0.100
201.300	47.232	0.100
201.400	49.488	0.100
201.500	44.028	0.100
201.600	50.239	0.100
201.700	45.246	0.100
201.800	58.968	0.100
201.900	50.126	0.100
202.000	46.517	0.100
202.100	50.850	0.100
202.200	41.749	0.100
202.300	39.074	0.100
202.400	41.202	0.100
202.500	48.318	0.100
202.600	40.019	0.100
202.700	39.355	0.100
202.800	38.493	0.100
202.900	48.646	0.100
203.000	48.954	0.100
203.100	50.999	0.100
203.200	45.388	0.100
203.300	42.397	0.100
203.400	39.134	0.100
203.500	50.127	0.100
203.600	46.604	0.100
203.700	53.370	0.100
203.800	52.354	0.100
203.900	39.684	0.100
204.000	45.149	0.100
204.100	43.952	0.100
204.200	51.965	0.100
204.300	49.024	0.100
204.400	51.069	0.100
204.500	38.566	0.100
204.600	45.107	0.100
204.700	54.346	0.100
204.800	40.783	0.100
204.900	47.725	0.100
205.000	52.521	0.100
205.100	44.773	0.100
205.200	36.152	0.100
205.300	53.346	0.100
205.400	41.323	0.100
205.500	47.096	0.100
205.600	44.624	0.100
205.700	43.343	0.100
205.800	45.966	0.100
205.900	49.338	0.100
206.000	47.424	0.100
206.100	47.233	0.100
206.200	53.698	0.100
206.300	54.426	0.100
206.400	50.440	0.100
206.500	50.402	0.100
206.600	51.802	0.100
206.700	40.896	0.100
206.800	43.606	0.100
206.900	47.955	0.100
207.000	45.979	0.100
207.100	50.967	0.100
207.200	40.547	0.100
207.300	44.417	0.100
207.400	56.426	0.100
207.500	49.475	0.100
207.600	52.343	0.100
207.700	51.903	0.100
207.800	53.525	0.100
207.900	51.022	0.100
208.000	49.516	0.100
208.100	46.487	0.100
208.200	53.782	0.100
208.300	36.878	0.100
208.400	47.201	0.100
208.500	47.830	0.100
208.600	43.991	0.100
208.700	32.627	0.100
208.800	44.957	0.100
208.900	54.903	0.100
209.000	58.574	0.100
209.100	56.080	0.100
209.200	60.928	0.100
209.300	64.405	0.100
209.400	62.235	0.100
209.500	51.807	0.100
209.600	46.123	0.100
209.700	50.284	0.100
209.800	49.255	0.100
209.900	54.649	0.100
210.000	43.010	0.100
210.100	49.328	0.100
210.200	45.688	0.100
210.300	58.302	0.100
210.400	52.866	0.100
210.500	57.906	0.100
210.600	48.869	0.100
210.700	51.427	0.100
210.800	53.563	0.100
210.900	50.915	0.100
211.000	59.740	0.100
211.100	51.310	0.100
211.200	47.631	0.100
211.300	43.589	0.100
211.400	55.990	0.100
211.500	55.862	0.100
211.600	55.395	0.100
211.700	50.556	0.100
211.800	53.035	0.100
211.900	46.950	0.100
212.000	52.774	0.100
212.100	56.797	0.100
212.200	54.078	0.100
212.300	52.442	0.100
212.400	45.720	0.100
212.500	44.455	0.100
212.600	47.086	0.100
212.700	64.536	0.100
212.800	54.540	0.100
212.900	55.266	0.100
213.000	45.431	0.100
213.100	62.554	0.100
213.200	52.684	0.100
213.300	46.376	0.100
213.400	55.573	0.100
213.500	50.064	0.100
213.600	62.177	0.100
213.700	53.142	0.100
213.800	48.517	0.100
213.900	52.620	0.100
214.000	51.625	0.100
214.100	52.811	0.100
214.200	47.519	0.100
214.300	57.148	0.100
214.400	61.273	0.100
214.500	50.530	0.100
214.600	58.209	0.100
214.700	61.409	0.100
214.800	53.944	0.100
214.900	49.801	0.100
215.000	48.833	0.100
215.100	53.761	0.100
215.200	48.527	0.100
215.300	51.162	0.100
215.400	51.302	0.100
215.500	52.718	0.100
215.600	54.044	0.100
215.700	48.220	0.100
215.800	49.564	0.100
215.900	53.985	0.100
216.000	60.337	0.100
216.100	52.235	0.100
216.200	45.830	0.100
216.300	46.942	0.100
216.400	51.384	0.100
216.500	56.691	0.100
216.600	55.294	0.100
216.700	61.007	0.100
216.800	54.059	0.100
216.900	47.046	0.100
217.000	60.487	0.100
217.100	58.235	0.100
217.200	60.941	0.100
217.300	62.882	0.100
217.400	55.914	0.100
217.500	58.012	0.100
217.600	50.283	0.100
217.700	52.038	0.100
217.800	48.697	0.100
217.900	58.156	0.100
218.000	64.835	0.100
218.100	60.732	0.100
218.200	50.500	0.100
218.300	54.561	0.100
218.400	51.451	0.100
218.500	57.721	0.100
218.600	57.848	0.100
218.700	56.313	0.100
218.800	55.851	0.100
218.900	60.374	0.100
219.000	56.623	0.100
219.100	53.539	0.100
219.200	47.862	0.100
219.300	53.119	0.100
219.400	57.196	0.100
219.500	60.077	0.100
219.600	53.389	0.100
219.700	60.832	0.100
219.800	50.564	0.100
219.900	54.264	0.100
220.000	61.279	0.100
220.100	56.952	0.100
220.200	52.865	0.100
220.300	47.396	0.100
220.400	57.515	0.100
220.500	46.867	0.100
220.600	59.718	0.100
220.700	57.638	0.100
220.800	50.593	0.100
220.900	53.862	0.100
221.000	54.577	0.100
221.100	54.757	0.100
221.200	52.517	0.100
221.300	61.016	0.100
221.400	62.610	0.100
221.500	54.535	0.100
221.600	51.169	0.100
221.700	45.935	0.100
221.800	64.293	0.100
221.900	61.516	0.100
222.000	49.173	0.100
222.100	53.992	0.100
222.200	52.413	0.100
222.300	57.919	0.100
222.400	54.951	0.100
222.500	54.559	0.100
222.600	65.692	0.100
222.700	60.445	0.100
222.800	65.732	0.100
222.900	57.111	0.100
223.000	58.821	0.100
223.100	61.779	0.100
223.200	61.016	0.100
223.300	58.190	0.100
223.400	60.692	0.100
223.500	61.744	0.100
223.600	59.898	0.100
223.700	64.404	0.100
223.800	58.727	0.100
223.900	57.767	0.100
224.000	54.884	0.100
224.100	60.542	0.100
224.200	62.894	0.100
224.300	58.116	0.100
224.400	52.235	0.100
224.500	52.173	0.100
224.600	57.008	0.100
224.700	52.138	0.100
224.800	60.872	0.100
224.900	50.954	0.100
225.000	58.872	0.100
225.100	59.488	0.100
225.200	48.729	0.100
225.300	51.803	0.100
225.400	65.785	0.100
225.500	63.905	0.100
225.600	57.144	0.100
225.700	55.375	0.100
225.800	56.616	0.100
225.900	64.421	0.100
226.000	54.903	0.100
226.100	57.087	0.100
226.200	57.656	0.100
226.300	65.301	0.100
226.400	54.808	0.100
226.500	57.263	0.100
226.600	70.542	0.100
226.700	56.835	0.100
226.800	50.920	0.100
226.900	54.491	0.100
227.000	56.687	0.100
227.100	56.284	0.100
227.200	58.733	0.100
227.300	57.871	0.100
227.400	74.105	0.100
227.500	61.357	0.100
227.600	67.631	0.100
227.700	62.265	0.100
227.800	60.322	0.100
227.900	64.526	0.100
228.000	58.378	0.100
228.100	54.442	0.100
228.200	53.121	0.100
228.300	62.207	0.100
228.400	54.687	0.100
228.500	58.971	0.100
228.600	59.201	0.100
228.700	52.083	0.100
228.800	55.377	0.100
228.900	62.634	0.100
229.000	59.197	0.100
229.100	61.931	0.100
229.200	50.645	0.100
229.300	60.814	0.100
229.400	59.176	0.100
229.500	59.690	0.100
229.600	59.358	0.100
229.700	56.962	0.100
229.800	64.392	0.100
229.900	56.879	0.100
230.000	56.047	0.100
230.100	55.232	0.100
230.200	62.416	0.100
230.300	68.083	0.100
230.400	66.157	0.100
230.500	64.465	0.100
230.600	63.731	0.100
230.700	50.317	0.100
230.800	54.749	0.100
230.900	57.886	0.100
231.000	67.780	0.100
231.100	62.591	0.100
231.200	68.186	0.100
231.300	60.205	0.100
231.400	60.226	0.100
231.500	65.072	0.100
231.600	63.773	0.100
231.700	63.996	0.100
231.800	63.213	0.100
231.900	56.960	0.100
232.000	53.786	0.100
232.100	65.109	0.100
232.200	61.654	0.100
232.300	54.087	0.100
232.400	64.611	0.100
232.500	61.447	0.100
232.600	58.992	0.100
232.700	64.339	0.100
232.800	65.533	0.100
232.900	64.421	0.100
233.000	64.545	0.100
233.100	57.078	0.100
233.200	57.729	0.100
233.300	48.683	0.100
233.400	52.446	0.100
233.500	58.163	0.100
233.600	63.473	0.100
233.700	56.293	0.100
233.800	54.117	0.100
233.900	58.745	0.100
234.000	66.502	0.100
234.100	51.094	0.100
234.200	56.429	0.100
234.300	65.064	0.100
234.400	64.302	0.100
234.500	63.674	0.100
234.600	67.635	0.100
234.700	67.447	0.100
234.800	57.916	0.100
234.900	54.733	0.100
235.000	66.972	0.100
235.100	60.101	0.100
235.200	65.105	0.100
235.300	65.274	0.100
235.400	65.675	0.100
235.500	64.481	0.100
235.600	56.217	0.100
235.700	60.400	0.100
235.800	58.854	0.100
235.900	56.080	0.100
236.000	61.869	0.100
236.100	54.784	0.100
236.200	65.340	0.100
236.300	66.887	0.100
236.400	58.035	0.100
236.500	66.455	0.100
236.600	53.110	0.100
236.700	61.127	0.100
236.800	56.430	0.100
236.900	60.013	0.100
237.000	59.831	0.100
237.100	56.598	0.100
237.200	60.571	0.100
237.300	63.699	0.100
237.400	59.007	0.100
237.500	56.154	0.100
237.600	53.434	0.100
237.700	65.588	0.100
237.800	63.723	0.100
237.900	67.539	0.100
238.000	66.447	0.100
238.100	57.608	0.100
238.200	62.108	0.100
238.300	61.030	0.100
238.400	63.985	0.100
238.500	57.715	0.100
238.600	64.803	0.100
238.700	71.432	0.100
238.800	66.217	0.100
238.900	64.603	0.100
239.000	59.357	0.100
239.100	68.518	0.100
239.200	60.198	0.100
239.300	58.332	0.100
239.400	60.135	0.100
239.500	58.823	0.100
239.600	62.124	0.100
239.700	54.738	0.100
239.800	59.867	0.100
239.900	67.460	0.100
240.000	70.492	0.100
240.100	69.593	0.100
240.200	64.553	0.100
240.300	65.817	0.100
240.400	67.756	0.100
240.500	61.484	0.100
240.600	64.266	0.100
240.700	68.839	0.100
240.800	62.242	0.100
240.900	54.391	0.100
241.000	61.347	0.100
241.100	55.428	0.100
241.200	61.409	0.100
241.300	58.330	0.100
241.400	54.381	0.100
241.500	61.381	0.100
241.600	61.395	0.100
241.700	56.910	0.100
241.800	48.762	0.100
241.900	56.175	0.100
242.000	55.689	0.100
242.100	55.281	0.100
242.200	62.101	0.100
242.300	52.512	0.100
242.400	50.390	0.100
242.500	58.155	0.100
242.600	52.927	0.100
242.700	55.570	0.100
242.800	54.023	0.100
242.900	50.095	0.100
243.000	52.198	0.100
243.100	51.293	0.100
243.200	40.127	0.100
243.300	45.559	0.100
243.400	44.954	0.100
243.500	47.723	0.100
243.600	31.110	0.100
243.700	40.468	0.100
243.800	57.294	0.100
243.900	45.330	0.100
244.000	39.401	0.100
244.100	36.280	0.100
244.200	43.084	0.100
244.300	47.215	0.100
244.400	45.586	0.100
244.500	33.613	0.100
244.600	53.275	0.100
244.700	50.417	0.100
244.800	41.485	0.100
244.900	37.100	0.100
245.000	36.645	0.100
245.100	47.515	0.100
245.200	36.613	0.100
245.300	39.738	0.100
245.400	38.519	0.100
245.500	34.782	0.100
245.600	38.678	0.100
245.700	40.424	0.100
245.800	43.713	0.100
245.900	40.332	0.100
246.000	35.491	0.100
246.100	29.211	0.100
246.200	33.267	0.100
246.300	38.718	0.100
246.400	40.935	0.100
246.500	42.894	0.100
246.600	35.507	0.100
246.700	36.523	0.100
246.800	26.202	0.100
246.900	45.132	0.100
247.000	35.723	0.100
247.100	34.341	0.100
247.200	28.995	0.100
247.300	27.600	0.100
247.400	37.841	0.100
247.500	22.356	0.100
247.600	29.761	0.100
247.700	26.313	0.100
247.800	26.484	0.100
247.900	35.249	0.100
248.000	34.463	0.100
248.100	36.488	0.100
248.200	24.122	0.100
248.300	36.343	0.100
248.400	35.550	0.100
248.500	29.924	0.100
248.600	32.443	0.100
248.700	26.837	0.100
248.800	34.592	0.100
248.900	28.782	0.100
249.000	35.200	0.100
249.100	27.104	0.100
249.200	30.480	0.100
249.300	26.893	0.100
249.400	30.725	0.100
249.500	35.823	0.100
249.600	29.747	0.100
249.700	22.789	0.100
249.800	21.742	0.100
249.900	32.507	0.100
250.000	25.645	0.100
250.100	26.719	0.100
250.200	29.006	0.100
250.300	26.039	0.100
250.400	38.766	0.100
250.500	22.892	0.100
250.600	24.869	0.100
250.700	22.209	0.100
250.800	26.474	0.100
250.900	23.251	0.100
251.000	14.379	0.100
251.100	24.679	0.100
251.200	32.082	0.100
251.300	37.070	0.100
251.400	29.371	0.100
251.500	24.282	0.100
251.600	31.539	0.100
251.700	21.214	0.100
251.800	28.166	0.100
251.900	21.369	0.100
252.000	32.659	0.100
252.100	36.389	0.100
252.200	42.804	0.100
252.300	34.791	0.100
252.400	24.436	0.100
252.500	19.988	0.100
252.600	28.330	0.100
252.700	27.377	0.100
252.800	33.897	0.100
252.900	27.044	0.100
253.000	30.822	0.100
253.100	30.539	0.100
253.200	31.254	0.100
253.300	27.560	0.100
253.400	20.878	0.100
253.500	18.247	0.100
253.600	26.000	0.100
253.700	26.865	0.100
253.800	29.550	0.100
253.900	25.696	0.100
254.000	21.436	0.100
254.100	26.145	0.100
254.200	19.512	0.100
254.300	13.655	0.100
254.400	25.918	0.100
254.500	27.550	0.100
254.600	26.227	0.100
254.700	20.392	0.100
254.800	20.102	0.100
254.900	24.370	0.100
255.000	21.037	0.100
255.100	24.877	0.100
255.200	29.635	0.100
255.300	30.600	0.100
255.400	35.537	0.100
255.500	23.483	0.100
255.600	23.763	0.100
255.700	21.613	0.100
255.800	17.162	0.100
255.900	8.296	0.100
256.000	17.496	0.100
256.100	22.173	0.100
256.200	30.476	0.100
256.300	22.793	0.100
256.400	20.443	0.100
256.500	21.675	0.100
256.600	22.047	0.100
256.700	28.524	0.100
256.800	21.535	0.100
256.900	21.714	0.100
257.000	25.101	0.100
257.100	19.680	0.100
257.200	21.340	0.100
257.300	18.705	0.100
257.400	16.929	0.100
257.500	21.469	0.100
257.600	21.388	0.100
257.700	28.512	0.100
257.800	24.707	0.100
257.900	23.228	0.100
258.000	23.880	0.100
258.100	22.265	0.100
258.200	23.379	0.100
258.300	28.950	0.100
258.400	20.841	0.100
258.500	26.040	0.100
258.600	31.434	0.100
258.700	31.347	0.100
258.800	27.337	0.100
258.900	20.426	0.100
259.000	13.997	0.100
259.100	16.252	0.100
259.200	21.003	0.100
259.300	26.531	0.100
259.400	16.348	0.100
259.500	15.892	0.100
259.600	12.967	0.100
259.700	18.271	0.100
259.800	17.583	0.100
259.900	13.669	0.100
260.000	12.551	0.100
260.100	22.312	0.100
260.200	20.189	0.100
260.300	21.951	0.100
260.400	23.207	0.100
260.500	25.280	0.100
260.600	19.570	0.100
260.700	10.342	0.100
260.800	23.004	0.100
260.900	32.581	0.100
261.000	27.285	0.100
261.100	19.292	0.100
261.200	22.749	0.100
261.300	29.414	0.100
261.400	15.768	0.100
261.500	22.847	0.100
261.600	14.865	0.100
261.700	25.961	0.100
261.800	19.908	0.100
261.900	11.967	0.100
262.000	18.740	0.100
262.100	19.766	0.100
262.200	26.331	0.100
262.300	22.667	0.100
262.400	29.067	0.100
262.500	22.342	0.100
262.600	24.545	0.100
262.700	20.975	0.100
262.800	20.322	0.100
262.900	11.375	0.100
263.000	12.132	0.100
263.100	7.393	0.100
263.200	7.121	0.100
263.300	22.985	0.100
263.400	27.288	0.100
263.500	19.014	0.100
263.600	6.055	0.100
263.700	12.074	0.100
263.800	14.265	0.100
263.900	21.017	0.100
264.000	20.924	0.100
264.100	19.729	0.100
264.200	11.522	0.100
264.300	22.404	0.100
264.400	14.447	0.100
264.500	19.868	0.100
264.600	18.543	0.100
264.700	23.466	0.100
264.800	21.547	0.100
264.900	20.610	0.100
265.000	20.523	0.100
265.100	26.902	0.100
265.200	13.729	0.100
265.300	8.807	0.100
265.400	18.069	0.100
265.500	12.679	0.100
265.600	17.209	0.100
265.700	13.888	0.100
265.800	17.223	0.100
265.900	18.969	0.100
266.000	18.927	0.100
266.100	16.898	0.100
266.200	17.867	0.100
266.300	19.799	0.100
266.400	18.557	0.100
266.500	14.336	0.100
266.600	15.999	0.100
266.700	12.822	0.100
266.800	12.566	0.100
266.900	16.040	0.100
267.000	13.761	0.100
267.100	19.960	0.100
267.200	9.967	0.100
267.300	21.761	0.100
267.400	12.886	0.100
267.500	12.639	0.100
267.600	9.632	0.100
267.700	9.141	0.100
267.800	20.600	0.100
267.900	22.207	0.100
268.000	20.675	0.100
268.100	17.752	0.100
268.200	13.417	0.100
268.300	15.438	0.100
268.400	19.448	0.100
268.500	13.094	0.100
268.600	11.036	0.100
268.700	20.570	0.100
268.800	6.085	0.100
268.900	13.721	0.100
269.000	15.505	0.100
269.100	13.566	0.100
269.200	7.177	0.100
269.300	10.240	0.100
269.400	20.777	0.100
269.500	19.346	0.100
269.600	13.211	0.100
269.700	16.841	0.100
269.800	2.726	0.100
269.900	8.551	0.100
270.000	17.177	0.100
270.100	9.124	0.100
270.200	8.493	0.100
270.300	13.070	0.100
270.400	18.394	0.100
270.500	17.350	0.100
270.600	21.048	0.100
270.700	19.101	0.100
270.800	17.273	0.100
270.900	9.239	0.100
271.000	9.011	0.100
271.100	19.981	0.100
271.200	12.129	0.100
271.300	4.790	0.100
271.400	11.041	0.100
271.500	19.864	0.100
271.600	17.484	0.100
271.700	9.730	0.100
271.800	15.281	0.100
271.900	19.688	0.100
272.000	11.536	0.100
272.100	17.041	0.100
272.200	2.828	0.100
272.300	5.628	0.100
272.400	12.751	0.100
272.500	13.591	0.100
272.600	12.639	0.100
272.700	11.164	0.100
272.800	11.330	0.100
272.900	7.394	0.100
273.000	11.474	0.100
273.100	6.961	0.100
273.200	13.273	0.100
273.300	11.939	0.100
273.400	21.670	0.100
273.500	12.457	0.100
273.600	12.042	0.100
273.700	12.777	0.100
273.800	16.673	0.100
273.900	15.101	0.100
274.000	15.793	0.100
274.100	11.881	0.100
274.200	4.803	0.100
274.300	2.918	0.100
274.400	11.040	0.100
274.500	9.183	0.100
274.600	10.073	0.100
274.700	-3.269	0.100
274.800	19.006	0.100
274.900	10.026	0.100
275.000	27.403	0.100
275.100	11.461	0.100
275.200	13.924	0.100
275.300	17.114	0.100
275.400	12.966	0.100
275.500	11.405	0.100
275.600	14.833	0.100
275.700	3.925	0.100
275.800	5.344	0.100
275.900	19.421	0.100
276.000	11.829	0.100
276.100	12.056	0.100
276.200	3.094	0.100
276.300	6.862	0.100
276.400	14.768	0.100
276.500	5.343	0.100
276.600	-2.821	0.100
276.700	7.334	0.100
276.800	4.942	0.100
276.900	10.833	0.100
277.000	18.217	0.100
277.100	13.810	0.100
277.200	11.837	0.100
277.300	3.572	0.100
277.400	1.473	0.100
277.500	6.658	0.100
277.600	8.282	0.100
277.700	4.935	0.100
277.800	14.009	0.100
277.900	10.683	0.100
278.000	15.535	0.100
278.100	8.706	0.100
278.200	11.262	0.100
278.300	9.944	0.100
278.400	17.789	0.100
278.500	20.941	0.100
278.600	9.777	0.100
278.700	13.025	0.100
278.800	5.761	0.100
278.900	-5.354	0.100
279.000	1.033	0.100
279.100	12.678	0.100
279.200	16.625	0.100
279.300	12.355	0.100
279.400	11.398	0.100
279.500	5.489	0.100
279.600	6.948	0.100
279.700	6.591	0.100
279.800	10.212	0.100
279.900	4.784	0.100
280.000	5.764	0.100
280.100	6.594	0.100
280.200	6.459	0.100
280.300	14.923	0.100
280.400	15.808	0.100
280.500	13.577	0.100
280.600	6.078	0.100
280.700	4.445	0.100
280.800	3.204	0.100
280.900	5.996	0.100
281.000	6.088	0.100
281.100	2.917	0.100
281.200	8.291	0.100
281.300	5.998	0.100
281.400	5.911	0.100
281.500	1.080	0.100
281.600	14.177	0.100
281.700	12.121	0.100
281.800	9.472	0.100
281.900	2.279	0.100
282.000	-1.102	0.100
282.100	10.126	0.100
282.200	7.423	0.100
282.300	13.895	0.100
282.400	10.111	0.100
282.500	11.467	0.100
282.600	3.377	0.100
282.700	12.943	0.100
282.800	5.788	0.100
282.900	6.407	0.100
283.000	8.981	0.100
283.100	4.361	0.100
283.200	6.243	0.100
283.300	8.225	0.100
283.400	4.175	0.100
283.500	2.201	0.100
283.600	3.185	0.100
283.700	4.759	0.100
283.800	7.250	0.100
283.900	7.522	0.100
284.000	1.402	0.100
284.100	11.203	0.100
284.200	15.481	0.100
284.300	8.513	0.100
284.400	4.597	0.100
284.500	3.251	0.100
284.600	0.189	0.100
284.700	15.356	0.100
284.800	7.994	0.100
284.900	5.267	0.100
285.000	6.739	0.100
285.100	5.287	0.100
285.200	9.810	0.100
285.300	7.137	0.100
285.400	6.940	0.100
285.500	9.046	0.100
285.600	11.494	0.100
285.700	5.050	0.100
285.800	-0.788	0.100
285.900	9.605	0.100
286.000	-4.070	0.100
286.100	8.818	0.100
286.200	7.758	0.100
286.300	14.600	0.100
286.400	9.890	0.100
286.500	3.849	0.100
286.600	5.911	0.100
286.700	3.589	0.100
286.800	5.371	0.100
286.900	3.653	0.100
287.000	5.159	0.100
287.100	2.845	0.100
287.200	3.832	0.100
287.300	12.303	0.100
287.400	5.143	0.100
287.500	3.565	0.100
287.600	5.329	0.100
287.700	9.792	0.100
287.800	11.719	0.100
287.900	5.210	0.100
288.000	-5.601	0.100
288.100	-5.306	0.100
288.200	11.184	0.100
288.300	11.177	0.100
288.400	-0.411	0.100
288.500	6.228	0.100
288.600	0.993	0.100
288.700	2.212	0.100
288.800	9.527	0.100
288.900	2.697	0.100
289.000	5.368	0.100
289.100	2.631	0.100
289.200	1.417	0.100
289.300	6.376	0.100
289.400	6.557	0.100
289.500	6.660	0.100
289.600	8.598	0.100
289.700	0.603	0.100
289.800	9.420	0.100
289.900	9.734	0.100
290.000	4.145	0.100
290.100	-0.117	0.100
290.200	9.535	0.100
290.300	9.240	0.100
290.400	8.718	0.100
290.500	3.022	0.100
290.600	3.003	0.100
290.700	9.588	0.100
290.800	1.568	0.100
290.900	0.651	0.100
291.000	0.491	0.100
291.100	0.459	0.100
291.200	0.861	0.100
291.300	13.613	0.100
291.400	4.132	0.100
291.500	0.610	0.100
291.600	-3.774	0.100
291.700	3.031	0.100
291.800	2.444	0.100
291.900	6.481	0.100
292.000	2.485	0.100
292.100	3.318	0.100
292.200	3.931	0.100
292.300	8.260	0.100
292.400	9.089	0.100
292.500	10.595	0.100
292.600	-0.020	0.100
292.700	-1.953	0.100
292.800	-6.908	0.100
292.900	0.992	0.100
293.000	5.685	0.100
293.100	-0.685	0.100
293.200	10.745	0.100
293.300	1.340	0.100
293.400	6.688	0.100
293.500	9.700	0.100
293.600	5.206	0.100
293.700	8.178	0.100
293.800	9.429	0.100
293.900	3.443	0.100
294.000	4.000	0.100
294.100	2.283	0.100
294.200	7.195	0.100
294.300	3.775	0.100
294.400	2.974	0.100
294.500	0.335	0.100
294.600	5.702	0.100
294.700	1.710	0.100
294.800	9.467	0.100
294.900	-9.769	0.100
295.000	-7.522	0.100
295.100	1.506	0.100
295.200	4.519	0.100
295.300	8.217	0.100
295.400	2.091	0.100
295.500	4.237	0.100
295.600	11.582	0.100
295.700	9.147	0.100
295.800	7.661	0.100
295.900	19.746	0.100
296.000	2.804	0.100
296.100	-1.687	0.100
296.200	-4.479	0.100
296.300	-7.363	0.100
296.400	1.363	0.100
296.500	-0.440	0.100
296.600	2.695	0.100
296.700	6.338	0.100
296.800	-0.493	0.100
296.900	-4.794	0.100
297.000	-0.397	0.100
297.100	1.205	0.100
297.200	9.462	0.100
297.300	0.878	0.100
297.400	2.102	0.100
297.500	6.529	0.100
297.600	1.084	0.100
297.700	1.289	0.100
297.800	5.704	0.100
297.900	-4.998	0.100
298.000	10.197	0.100
298.100	-0.595	0.100
298.200	-4.102	0.100
298.300	7.054	0.100
298.400	7.968	0.100
298.500	9.910	0.100
298.600	1.710	0.100
298.700	3.125	0.100
298.800	0.926	0.100
298.900	7.158	0.100
299.000	11.855	0.100
299.100	6.463	0.100
299.200	-6.725	0.100
299.300	4.425	0.100
299.400	-9.361	0.100
299.500	9.900	0.100
299.600	11.670	0.100
299.700	1.370	0.100
299.800	5.267	0.100
299.900	-2.184	0.100
300.000	-0.317	0.100
300.100	2.972	0.100
300.200	4.096	0.100
300.300	-5.871	0.100
300.400	3.387	0.100
300.500	-2.311	0.100
300.600	9.084	0.100
300.700	1.427	0.100
300.800	9.053	0.100
300.900	3.066	0.100
301.000	2.911	0.100
301.100	6.682	0.100
301.200	0.077	0.100
301.300	2.720	0.100
301.400	-0.511	0.100
301.500	4.678	0.100
301.600	-3.117	0.100
301.700	-2.819	0.100
301.800	-1.104	0.100
301.900	-5.247	0.100
302.000	-5.687	0.100
302.100	-2.002	0.100
302.200	4.703	0.100
302.300	-4.983	0.100
302.400	-3.211	0.100
302.500	11.605	0.100
302.600	10.274	0.100
302.700	0.970	0.100
302.800	-1.433	0.100
302.900	-0.143	0.100
303.000	-1.605	0.100
303.100	-1.505	0.100
303.200	-1.880	0.100
303.300	4.415	0.100
303.400	-1.910	0.100
303.500	-6.081	0.100
303.600	-3.666	0.100
303.700	0.492	0.100
303.800	-2.226	0.100
303.900	-0.645	0.100
304.000	-2.376	0.100
304.100	8.263	0.100
304.200	8.808	0.100
304.300	3.598	0.100
304.400	1.622	0.100
304.500	2.727	0.100
304.600	5.402	0.100
304.700	2.447	0.100
304.800	-7.176	0.100
304.900	-7.526	0.100
305.000	-4.636	0.100
305.100	0.766	0.100
305.200	2.072	0.100
305.300	6.505	0.100
305.400	2.094	0.100
305.500	10.890	0.100
305.600	-2.432	0.100
305.700	2.928	0.100
305.800	-1.763	0.100
305.900	-9.290	0.100
306.000	-1.799	0.100
306.100	0.809	0.100
306.200	-0.556	0.100
306.300	1.546	0.100
306.400	-4.115	0.100
306.500	9.616	0.100
306.600	8.668	0.100
306.700	4.996	0.100
306.800	-8.704	0.100
306.900	5.663	0.100
307.000	1.879	0.100
307.100	5.166	0.100
307.200	1.821	0.100
307.300	-3.589	0.100
307.400	7.674	0.100
307.500	-5.768	0.100
307.600	-0.206	0.100
307.700	0.293	0.100
307.800	4.626	0.100
307.900	2.156	0.100
308.000	3.624	0.100
308.100	1.310	0.100
308.200	4.304	0.100
308.300	0.338	0.100
308.400	2.159	0.100
308.500	3.401	0.100
308.600	-6.316	0.100
308.700	-5.805	0.100
308.800	5.743	0.100
308.900	10.731	0.100
309.000	7.134	0.100
309.100	3.411	0.100
309.200	-0.885	0.100
309.300	2.271	0.100
309.400	-3.386	0.100
309.500	10.285	0.100
309.600	-4.065	0.100
309.700	2.320	0.100
309.800	-0.558	0.100
309.900	-2.349	0.100
310.000	-3.205	0.100
310.100	8.933	0.100
310.200	-1.683	0.100
310.300	3.933	0.100
310.400	-4.324	0.100
310.500	-3.241	0.100
310.600	-0.863	0.100
310.700	0.782	0.100
310.800	6.635	0.100
310.900	0.854	0.100
311.000	-10.410	0.100
311.100	7.782	0.100
311.200	-0.428	0.100
311.300	-0.422	0.100
311.400	5.184	0.100
311.500	10.287	0.100
311.600	9.996	0.100
311.700	2.122	0.100
311.800	-5.722	0.100
311.900	1.912	0.100
312.000	-1.503	0.100
312.100	0.312	0.100
312.200	3.040	0.100
312.300	1.102	0.100
312.400	1.151	0.100
312.500	-2.140	0.100
312.600	2.244	0.100
312.700	-1.509	0.100
312.800	-3.688	0.100
312.900	4.531	0.100
313.000	1.601	0.100
313.100	10.585	0.100
313.200	-5.783	0.100
313.300	-8.644	0.100
313.400	-5.915	0.100
313.500	8.398	0.100
313.600	0.437	0.100
313.700	9.043	0.100
313.800	5.927	0.100
313.900	7.591	0.100
314.000	-1.321	0.100
314.100	-5.263	0.100
314.200	-1.047	0.100
314.300	-4.653	0.100
314.400	-5.157	0.100
314.500	1.143	0.100
314.600	-2.134	0.100
314.700	-6.596	0.100
314.800	3.300	0.100
314.900	7.737	0.100
315.000	2.679	0.100
315.100	1.786	0.100
315.200	4.519	0.100
315.300	-3.746	0.100
315.400	7.371	0.100
315.500	2.705	0.100
315.600	0.338	0.100
315.700	-0.113	0.100
315.800	-1.638	0.100
315.900	-10.731	0.100
316.000	-6.739	0.100
316.100	4.970	0.100
316.200	-1.680	0.100
316.300	11.495	0.100
316.400	2.564	0.100
316.500	4.994	0.100
316.600	1.759	0.100
316.700	-5.516	0.100
316.800	4.830	0.100
316.900	1.865	0.100
317.000	5.636	0.100
317.100	-1.550	0.100
317.200	-1.087	0.100
317.300	-1.572	0.100
317.400	-4.764	0.100
317.500	-6.168	0.100
317.600	-6.745	0.100
317.700	1.229	0.100
317.800	-7.642	0.100
317.900	1.977	0.100
318.000	5.743	0.100
318.100	4.992	0.100
318.200	-1.850	0.100
318.300	-4.589	0.100
318.400	-6.281	0.100
318.500	3.311	0.100
318.600	-6.010	0.100
318.700	-2.262	0.100
318.800	-10.201	0.100
318.900	-1.618	0.100
319.000	2.010	0.100
319.100	2.484	0.100
319.200	11.534	0.100
319.300	11.306	0.100
319.400	4.378	0.100
319.500	4.233	0.100
319.600	5.208	0.100
319.700	6.507	0.100
319.800	2.123	0.100
319.900	-0.805	0.100
320.000	2.907	0.100
320.100	2.402	0.100
320.200	-3.582	0.100
320.300	-0.465	0.100
320.400	0.586	0.100
320.500	4.740	0.100
320.600	7.059	0.100
320.700	-3.130	0.100
320.800	-6.699	0.100
320.900	2.708	0.100
321.000	8.278	0.100
321.100	-1.044	0.100
321.200	0.410	0.100
321.300	4.716	0.100
321.400	-3.401	0.100
321.500	-11.833	0.100
321.600	-6.915	0.100
321.700	-11.084	0.100
321.800	2.912	0.100
321.900	4.104	0.100
322.000	-1.563	0.100
322.100	-3.592	0.100
322.200	0.550	0.100
322.300	2.128	0.100
322.400	-5.281	0.100
322.500	-5.619	0.100
322.600	-0.987	0.100
322.700	-1.893	0.100
322.800	-9.039	0.100
322.900	4.795	0.100
323.000	3.724	0.100
323.100	2.803	0.100
323.200	-0.779	0.100
323.300	1.867	0.100
323.400	4.498	0.100
323.500	3.114	0.100
323.600	-4.673	0.100
323.700	4.155	0.100
323.800	-0.601	0.100
323.900	-7.777	0.100
324.000	4.544	0.100
324.100	3.396	0.100
324.200	7.185	0.100
324.300	1.381	0.100
324.400	5.400	0.100
324.500	0.623	0.100
324.600	7.397	0.100
324.700	-11.781	0.100
324.800	3.939	0.100
324.900	2.254	0.100
325.000	5.667	0.100
325.100	-1.319	0.100
325.200	9.176	0.100
325.300	2.709	0.100
325.400	0.718	0.100
325.500	6.103	0.100
325.600	3.760	0.100
325.700	-2.366	0.100
325.800	-4.746	0.100
325.900	-2.119	0.100
326.000	7.282	0.100
326.100	-4.065	0.100
326.200	4.465	0.100
326.300	1.658	0.100
326.400	0.582	0.100
326.500	3.434	0.100
326.600	2.760	0.100
326.700	0.905	0.100
326.800	-2.450	0.100
326.900	-3.731	0.100
327.000	-2.125	0.100
327.100	-2.100	0.100
327.200	-7.900	0.100
327.300	-9.304	0.100
327.400	-3.495	0.100
327.500	2.300	0.100
327.600	-9.715	0.100
327.700	0.720	0.100
327.800	-1.464	0.100
327.900	1.533	0.100
328.000	5.181	0.100
328.100	-4.785	0.100
328.200	-0.493	0.100
328.300	-4.084	0.100
328.400	-3.431	0.100
328.500	-6.626	0.100
328.600	0.598	0.100
328.700	2.732	0.100
328.800	3.192	0.100
328.900	-3.097	0.100
329.000	0.053	0.100
329.100	1.824	0.100
329.200	-10.486	0.100
329.300	-3.676	0.100
329.400	-0.746	0.100
329.500	-0.921	0.100
329.600	3.631	0.100
329.700	-2.222	0.100
329.800	-0.851	0.100
329.900	7.014	0.100
330.000	8.006	0.100
330.100	5.463	0.100
330.200	5.756	0.100
330.300	-4.350	0.100
330.400	1.924	0.100
330.500	3.292	0.100
330.600	-2.805	0.100
330.700	-3.179	0.100
330.800	-4.493	0.100
330.900	6.596	0.100
331.000	-1.591	0.100
331.100	7.799	0.100
331.200	6.000	0.100
331.300	9.257	0.100
331.400	-2.272	0.100
331.500	4.344	0.100
331.600	-2.121	0.100
331.700	6.582	0.100
331.800	-1.137	0.100
331.900	3.223	0.100
332.000	1.340	0.100
332.100	-3.088	0.100
332.200	11.249	0.100
332.300	13.459	0.100
332.400	15.654	0.100
332.500	19.452	0.100
332.600	15.539	0.100
332.700	14.910	0.100
332.800	6.265	0.100
332.900	11.889	0.100
333.000	7.064	0.100
333.100	18.130	0.100
333.200	13.243	0.100
333.300	12.981	0.100
333.400	16.493	0.100
333.500	16.582	0.100
333.600	17.756	0.100
333.700	5.251	0.100
333.800	11.838	0.100
333.900	13.193	0.100
334.000	13.380	0.100
334.100	20.066	0.100
334.200	12.486	0.100
334.300	16.964	0.100
334.400	20.147	0.100
334.500	26.143	0.100
334.600	23.234	0.100
334.700	16.331	0.100
334.800	18.261	0.100
334.900	15.287	0.100
335.000	16.374	0.100
335.100	16.116	0.100
335.200	10.369	0.100
335.300	17.345	0.100
335.400	26.916	0.100
335.500	21.161	0.100
335.600	23.749	0.100
335.700	22.352	0.100
335.800	20.974	0.100
335.900	17.998	0.100
336.000	20.834	0.100
336.100	18.681	0.100
336.200	13.277	0.100
336.300	26.373	0.100
336.400	17.026	0.100
336.500	16.983	0.100
336.600	24.874	0.100
336.700	16.462	0.100
336.800	19.978	0.100
336.900	11.139	0.100
337.000	9.799	0.100
337.100	18.939	0.100
337.200	25.331	0.100
337.300	28.878	0.100
337.400	26.866	0.100
337.500	23.418	0.100
337.600	17.110	0.100
337.700	25.270	0.100
337.800	21.890	0.100
337.900	23.490	0.100
338.000	22.458	0.100
338.100	13.467	0.100
338.200	11.097	0.100
338.300	19.642	0.100
338.400	29.860	0.100
338.500	23.956	0.100
338.600	23.088	0.100
338.700	24.930	0.100
338.800	25.692	0.100
338.900	24.784	0.100
339.000	19.567	0.100
339.100	24.065	0.100
339.200	25.774	0.100
339.300	20.541	0.100
339.400	18.451	0.100
339.500	13.581	0.100
339.600	16.436	0.100
339.700	21.291	0.100
339.800	28.060	0.100
339.900	19.030	0.100
340.000	26.976	0.100
340.100	25.275	0.100
340.200	20.674	0.100
340.300	32.390	0.100
340.400	24.869	0.100
340.500	19.709	0.100
340.600	27.754	0.100
340.700	32.178	0.100
340.800	27.298	0.100
340.900	23.641	0.100
341.000	27.395	0.100
341.100	25.581	0.100
341.200	22.155	0.100
341.300	32.529	0.100
341.400	28.174	0.100
341.500	26.822	0.100
341.600	36.181	0.100
341.700	25.793	0.100
341.800	20.649	0.100
341.900	21.547	0.100
342.000	41.312	0.100
342.100	26.772	0.100
342.200	30.389	0.100
342.300	25.461	0.100
342.400	19.278	0.100
342.500	28.387	0.100
342.600	25.120	0.100
342.700	29.018	0.100
342.800	38.444	0.100
342.900	26.274	0.100
343.000	21.760	0.100
343.100	24.641	0.100
343.200	27.359	0.100
343.300	33.558	0.100
343.400	19.573	0.100
343.500	27.052	0.100
343.600	34.347	0.100
343.700	40.660	0.100
343.800	35.285	0.100
343.900	29.824	0.100
344.000	31.575	0.100
344.100	27.630	0.100
344.200	32.082	0.100
344.300	32.819	0.100
344.400	33.711	0.100
344.500	36.653	0.100
344.600	36.491	0.100
344.700	29.699	0.100
344.800	27.176	0.100
344.900	27.434	0.100
345.000	31.237	0.100
345.100	33.992	0.100
345.200	30.071	0.100
345.300	33.201	0.100
345.400	32.174	0.100
345.500	40.422	0.100
345.600	37.908	0.100
345.700	35.174	0.100
345.800	29.667	0.100
345.900	29.825	0.100
346.000	26.886	0.100
346.100	27.096	0.100
346.200	33.257	0.100
346.300	40.411	0.100
346.400	36.777	0.100
346.500	34.587	0.100
346.600	37.788	0.100
346.700	34.529	0.100
346.800	26.303	0.100
346.900	36.343	0.100
347.000	30.344	0.100
347.100	36.238	0.100
347.200	35.287	0.100
347.300	37.235	0.100
347.400	36.453	0.100
347.500	35.686	0.100
347.600	41.715	0.100
347.700	43.493	0.100
347.800	45.294	0.100
347.900	30.321	0.100
348.000	37.182	0.100
348.100	34.931	0.100
348.200	39.286	0.100
348.300	39.872	0.100
348.400	40.217	0.100
348.500	39.004	0.100
348.600	40.103	0.100
348.700	33.938	0.100
348.800	41.281	0.100
348.900	42.159	0.100
349.000	38.757	0.100
349.100	34.060	0.100
349.200	33.588	0.100
349.300	37.905	0.100
349.400	40.932	0.100
349.500	39.239	0.100
349.600	38.171	0.100
349.700	38.625	0.100
349.800	39.245	0.100
349.900	37.624	0.100
350.000	37.318	0.100
350.100	35.070	0.100
350.200	44.819	0.100
350.300	43.866	0.100
350.400	38.160	0.100
350.500	34.304	0.100
350.600	34.975	0.100
350.700	37.253	0.100
350.800	38.275	0.100
350.900	41.353	0.100
351.000	25.751	0.100
351.100	42.703	0.100
351.200	48.270	0.100
351.300	46.037	0.100
351.400	37.309	0.100
351.500	29.708	0.100
351.600	47.471	0.100
351.700	42.418	0.100
351.800	46.001	0.100
351.900	44.617	0.100
352.000	37.993	0.100
352.100	43.561	0.100
352.200	40.656	0.100
352.300	34.989	0.100
352.400	43.031	0.100
352.500	36.248	0.100
352.600	42.189	0.100
352.700	45.983	0.100
352.800	46.330	0.100
352.900	44.654	0.100
353.000	47.368	0.100
353.100	43.659	0.100
353.200	43.716	0.100
353.300	38.631	0.100
353.400	50.202	0.100
353.500	37.248	0.100
353.600	36.548	0.100
353.700	48.548	0.100
353.800	45.591	0.100
353.900	48.724	0.100
354.000	42.240	0.100
354.100	49.144	0.100
354.200	50.174	0.100
354.300	46.732	0.100
354.400	43.542	0.100
354.500	50.659	0.100
354.600	45.341	0.100
354.700	43.090	0.100
354.800	45.564	0.100
354.900	48.991	0.100
355.000	41.510	0.100
355.100	38.734	0.100
355.200	45.843	0.100
355.300	38.684	0.100
355.400	42.621	0.100
355.500	35.389	0.100
355.600	39.444	0.100
355.700	33.626	0.100
355.800	47.928	0.100
355.900	51.575	0.100
356.000	41.767	0.100
356.100	44.932	0.100
356.200	56.409	0.100
356.300	53.817	0.100
356.400	52.834	0.100
356.500	49.583	0.100
356.600	50.376	0.100
356.700	55.440	0.100
356.800	45.351	0.100
356.900	40.728	0.100
357.000	40.697	0.100
357.100	44.063	0.100
357.200	46.673	0.100
357.300	50.892	0.100
357.400	45.215	0.100
357.500	52.451	0.100
357.600	44.504	0.100
357.700	47.847	0.100
357.800	46.199	0.100
357.900	46.085	0.100
358.000	49.806	0.100
358.100	43.905	0.100
358.200	44.189	0.100
358.300	45.321	0.100
358.400	49.800	0.100
358.500	52.612	0.100
358.600	52.995	0.100
358.700	56.471	0.100
358.800	46.452	0.100
358.900	42.266	0.100
359.000	49.761	0.100
359.100	54.639	0.100
359.200	52.818	0.100
359.300	43.369	0.100
359.400	48.705	0.100
359.500	46.369	0.100
359.600	50.810	0.100
359.700	44.704	0.100
359.800	50.759	0.100
359.900	45.223	0.100
360.000	49.665	0.100
360.100	52.132	0.100
360.200	55.729	0.100
360.300	56.574	0.100
360.400	52.824	0.100
360.500	52.394	0.100
360.600	50.804	0.100
360.700	51.571	0.100
360.800	49.366	0.100
360.900	56.124	0.100
361.000	50.080	0.100
361.100	53.541	0.100
361.200	56.820	0.100
361.300	44.531	0.100
361.400	45.152	0.100
361.500	58.781	0.100
361.600	51.455	0.100
361.700	46.026	0.100
361.800	49.604	0.100
361.900	49.890	0.100
362.000	49.468	0.100
362.100	56.234	0.100
362.200	60.773	0.100
362.300	60.464	0.100
362.400	54.198	0.100
362.500	39.424	0.100
362.600	55.382	0.100
362.700	60.114	0.100
362.800	61.347	0.100
362.900	54.017	0.100
363.000	52.876	0.100
363.100	51.262	0.100
363.200	49.903	0.100
363.300	56.754	0.100
363.400	47.153	0.100
363.500	58.373	0.100
363.600	47.570	0.100
363.700	57.752	0.100
363.800	57.778	0.100
363.900	57.690	0.100
364.000	56.293	0.100
364.100	50.894	0.100
364.200	57.450	0.100
364.300	63.409	0.100
364.400	54.846	0.100
364.500	55.151	0.100
364.600	47.640	0.100
364.700	46.715	0.100
364.800	49.306	0.100
364.900	48.841	0.100
365.000	46.961	0.100
365.100	54.480	0.100
365.200	53.240	0.100
365.300	61.693	0.100
365.400	57.562	0.100
365.500	51.247	0.100
365.600	54.113	0.100
365.700	56.148	0.100
365.800	65.674	0.100
365.900	55.506	0.100
366.000	65.432	0.100
366.100	55.465	0.100
366.200	59.917	0.100
366.300	59.143	0.100
366.400	45.536	0.100
366.500	51.899	0.100
366.600	53.605	0.100
366.700	59.611	0.100
366.800	48.655	0.100
366.900	46.615	0.100
367.000	48.155	0.100
367.100	56.271	0.100
367.200	47.114	0.100
367.300	52.645	0.100
367.400	73.429	0.100
367.500	68.880	0.100
367.600	62.167	0.100
367.700	59.719	0.100
367.800	67.920	0.100
367.900	54.972	0.100
368.000	53.647	0.100
368.100	58.380	0.100
368.200	61.785	0.100
368.300	57.187	0.100
368.400	67.081	0.100
368.500	54.929	0.100
368.600	55.712	0.100
368.700	52.946	0.100
368.800	68.160	0.100
368.900	63.836	0.100
369.000	58.321	0.100
369.100	54.202	0.100
369.200	55.708	0.100
369.300	55.962	0.100
369.400	57.609	0.100
369.500	42.766	0.100
369.600	61.523	0.100
369.700	56.984	0.100
369.800	59.021	0.100
369.900	61.695	0.100
370.000	58.597	0.100
370.100	61.298	0.100
370.200	62.565	0.100
370.300	64.591	0.100
370.400	56.649	0.100
370.500	63.860	0.100
370.600	60.255	0.100
370.700	60.340	0.100
370.800	59.197	0.100
370.900	63.543	0.100
371.000	55.632	0.100
371.100	53.014	0.100
371.200	60.549	0.100
371.300	57.795	0.100
371.400	54.829	0.100
371.500	54.705	0.100
371.600	59.393	0.100
371.700	66.099	0.100
371.800	61.994	0.100
371.900	64.835	0.100
372.000	56.762	0.100
372.100	58.728	0.100
372.200	63.379	0.100
372.300	63.406	0.100
372.400	59.174	0.100
372.500	58.984	0.100
372.600	58.968	0.100
372.700	53.278	0.100
372.800	51.719	0.100
372.900	56.882	0.100
373.000	57.044	0.100
373.100	64.425	0.100
373.200	62.228	0.100
373.300	61.723	0.100
373.400	61.135	0.100
373.500	63.891	0.100
373.600	57.547	0.100
373.700	53.632	0.100
373.800	56.997	0.100
373.900	58.160	0.100
374.000	63.243	0.100
374.100	58.600	0.100
374.200	63.392	0.100
374.300	59.337	0.100
374.400	59.814	0.100
374.500	53.962	0.100
374.600	59.225	0.100
374.700	61.869	0.100
374.800	63.257	0.100
374.900	61.193	0.100
375.000	58.228	0.100
375.100	67.300	0.100
375.200	66.214	0.100
375.300	62.720	0.100
375.400	54.071	0.100
375.500	46.291	0.100
375.600	59.329	0.100
375.700	58.478	0.100
375.800	63.310	0.100
375.900	62.877	0.100
376.000	65.179	0.100
376.100	66.093	0.100
376.200	62.373	0.100
376.300	64.052	0.100
376.400	60.372	0.100
376.500	63.980	0.100
376.600	62.063	0.100
376.700	60.214	0.100
376.800	56.662	0.100
376.900	59.495	0.100
377.000	63.724	0.100
377.100	66.547	0.100
377.200	56.605	0.100
377.300	59.100	0.100
377.400	74.976	0.100
377.500	54.891	0.100
377.600	63.384	0.100
377.700	66.164	0.100
377.800	60.291	0.100
377.900	61.318	0.100
378.000	61.091	0.100
378.100	50.844	0.100
378.200	45.898	0.100
378.300	54.777	0.100
378.400	61.116	0.100
378.500	55.200	0.100
378.600	65.501	0.100
378.700	67.284	0.100
378.800	63.771	0.100
378.900	66.423	0.100
379.000	71.064	0.100
379.100	64.409	0.100
379.200	52.507	0.100
379.300	63.492	0.100
379.400	59.715	0.100
379.500	56.351	0.100
379.600	58.222	0.100
379.700	47.885	0.100
379.800	63.037	0.100
379.900	64.228	0.100
380.000	58.951	0.100
380.100	63.115	0.100
380.200	55.103	0.100
380.300	70.609	0.100
380.400	66.846	0.100
380.500	55.050	0.100
380.600	53.752	0.100
380.700	69.042	0.100
380.800	68.613	0.100
380.900	59.996	0.100
381.000	56.529	0.100
381.100	66.873	0.100
381.200	62.881	0.100
381.300	60.067	0.100
381.400	61.423	0.100
381.500	57.982	0.100
381.600	57.076	0.100
381.700	49.034	0.100
381.800	61.574	0.100
381.900	65.013	0.100
382.000	67.264	0.100
382.100	69.713	0.100
382.200	66.419	0.100
382.300	64.336	0.100
382.400	64.794	0.100
382.500	64.364	0.100
382.600	61.889	0.100
382.700	62.306	0.100
382.800	57.957	0.100
382.900	58.123	0.100
383.000	74.043	0.100
383.100	62.003	0.100
383.200	57.552	0.100
383.300	59.179	0.100
383.400	60.323	0.100
383.500	65.422	0.100
383.600	65.868	0.100
383.700	61.644	0.100
383.800	69.042	0.100
383.900	63.289	0.100
384.000	70.389	0.100
384.100	72.551	0.100
384.200	66.694	0.100
384.300	67.288	0.100
384.400	61.904	0.100
384.500	66.665	0.100
384.600	57.268	0.100
384.700	63.255	0.100
384.800	58.727	0.100
384.900	64.090	0.100
385.000	60.097	0.100
385.100	64.355	0.100
385.200	58.851	0.100
385.300	68.964	0.100
385.400	66.917	0.100
385.500	68.439	0.100
385.600	62.731	0.100
385.700	57.412	0.100
385.800	58.785	0.100
385.900	62.216	0.100
386.000	62.601	0.100
386.100	70.824	0.100
386.200	72.387	0.100
386.300	64.339	0.100
386.400	62.622	0.100
386.500	56.616	0.100
386.600	56.595	0.100
386.700	62.295	0.100
386.800	59.070	0.100
386.900	69.174	0.100
387.000	65.255	0.100
387.100	68.914	0.100
387.200	62.282	0.100
387.300	58.583	0.100
387.400	63.100	0.100
387.500	66.385	0.100
387.600	59.070	0.100
387.700	62.147	0.100
387.800	66.108	0.100
387.900	61.225	0.100
388.000	63.177	0.100
388.100	62.558	0.100
388.200	65.228	0.100
388.300	61.976	0.100
388.400	70.779	0.100
388.500	68.425	0.100
388.600	66.268	0.100
388.700	56.023	0.100
388.800	59.180	0.100
388.900	56.844	0.100
389.000	59.331	0.100
389.100	57.529	0.100
389.200	62.526	0.100
389.300	58.460	0.100
389.400	60.897	0.100
389.500	63.653	0.100
389.600	58.440	0.100
389.700	61.444	0.100
389.800	63.756	0.100
389.900	73.666	0.100
390.000	67.137	0.100
390.100	72.002	0.100
390.200	67.110	0.100
390.300	63.842	0.100
390.400	60.791	0.100
390.500	58.707	0.100
390.600	56.850	0.100
390.700	54.603	0.100
390.800	58.236	0.100
390.900	66.467	0.100
391.000	65.312	0.100
391.100	62.823	0.100
391.200	64.197	0.100
391.300	53.198	0.100
391.400	57.325	0.100
391.500	57.998	0.100
391.600	54.554	0.100
391.700	54.927	0.100
391.800	56.621	0.100
391.900	60.821	0.100
392.000	55.190	0.100
392.100	56.577	0.100
392.200	51.629	0.100
392.300	59.004	0.100
392.400	51.299	0.100
392.500	53.150	0.100
392.600	55.138	0.100
392.700	58.725	0.100
392.800	62.988	0.100
392.900	48.841	0.100
393.000	41.923	0.100
393.100	52.858	0.100
393.200	54.002	0.100
393.300	48.645	0.100
393.400	49.325	0.100
393.500	47.446	0.100
393.600	48.483	0.100
393.700	43.346	0.100
393.800	48.068	0.100
393.900	50.987	0.100
394.000	55.065	0.100
394.100	45.397	0.100
394.200	40.363	0.100
394.300	37.949	0.100
394.400	37.908	0.100
394.500	39.646	0.100
394.600	46.342	0.100
394.700	42.661	0.100
394.800	35.821	0.100
394.900	36.804	0.100
395.000	43.497	0.100
395.100	39.274	0.100
395.200	38.425	0.100
395.300	47.475	0.100
395.400	43.141	0.100
395.500	35.709	0.100
395.600	30.081	0.100
395.700	36.816	0.100
395.800	31.993	0.100
395.900	33.044	0.100
396.000	41.310	0.100
396.100	44.122	0.100
396.200	37.232	0.100
396.300	28.168	0.100
396.400	22.412	0.100
396.500	26.173	0.100
396.600	40.087	0.100
396.700	37.575	0.100
396.800	39.440	0.100
396.900	36.660	0.100
397.000	33.090	0.100
397.100	28.151	0.100
397.200	33.141	0.100
397.300	25.520	0.100
397.400	36.747	0.100
397.500	39.203	0.100
397.600	31.671	0.100
397.700	20.935	0.100
397.800	24.832	0.100
397.900	25.704	0.100
398.000	26.056	0.100
398.100	35.751	0.100
398.200	36.590	0.100
398.300	35.168	0.100
398.400	31.075	0.100
398.500	22.174	0.100
398.600	19.190	0.100
398.700	29.806	0.100
398.800	35.915	0.100
398.900	17.238	0.100
399.000	35.071	0.100
399.100	28.283	0.100
399.200	34.382	0.100
399.300	37.968	0.100
399.400	25.184	0.100
399.500	22.526	0.100
399.600	23.902	0.100
399.700	25.715	0.100
399.800	23.905	0.100
399.900	28.104	0.100
400.000	23.164	0.100
400.100	30.575	0.100
400.200	26.052	0.100
400.300	28.762	0.100
400.400	30.464	0.100
400.500	32.718	0.100
400.600	28.870	0.100
400.700	32.543	0.100
400.800	19.620	0.100
400.900	16.124	0.100
401.000	27.754	0.100
401.100	30.713	0.100
401.200	26.793	0.100
401.300	30.924	0.100
401.400	30.221	0.100
401.500	14.824	0.100
401.600	23.529	0.100
401.700	26.505	0.100
401.800	25.289	0.100
401.900	25.199	0.100
402.000	23.496	0.100
402.100	19.149	0.100
402.200	26.008	0.100
402.300	23.061	0.100
402.400	24.849	0.100
402.500	27.155	0.100
402.600	26.306	0.100
402.700	28.677	0.100
402.800	28.367	0.100
402.900	20.718	0.100
403.000	20.963	0.100
403.100	25.577	0.100
403.200	26.003	0.100
403.300	34.749	0.100
403.400	25.477	0.100
403.500	17.357	0.100
403.600	29.480	0.100
403.700	19.550	0.100
403.800	26.704	0.100
403.900	12.962	0.100
404.000	19.487	0.100
404.100	18.270	0.100
404.200	21.937	0.100
404.300	15.384	0.100
404.400	12.932	0.100
404.500	28.513	0.100
404.600	23.912	0.100
404.700	20.987	0.100
404.800	19.204	0.100
404.900	22.837	0.100
405.000	21.021	0.100
405.100	27.608	0.100
405.200	21.439	0.100
405.300	21.222	0.100
405.400	26.182	0.100
405.500	15.510	0.100
405.600	22.092	0.100
405.700	18.494	0.100
405.800	18.296	0.100
405.900	24.334	0.100
406.000	21.006	0.100
406.100	22.976	0.100
406.200	20.203	0.100
406.300	9.191	0.100
406.400	15.212	0.100
406.500	16.533	0.100
406.600	14.801	0.100
406.700	23.804	0.100
406.800	26.406	0.100
406.900	25.001	0.100
407.000	14.418	0.100
407.100	23.906	0.100
407.200	33.215	0.100
407.300	24.797	0.100
407.400	20.548	0.100
407.500	19.370	0.100
407.600	23.185	0.100
407.700	22.523	0.100
407.800	26.055	0.100
407.900	17.594	0.100
408.000	14.764	0.100
408.100	25.654	0.100
408.200	21.026	0.100
408.300	18.164	0.100
408.400	13.005	0.100
408.500	19.355	0.100
408.600	23.254	0.100
408.700	18.285	0.100
408.800	16.366	0.100
408.900	15.563	0.100
409.000	20.200	0.100
409.100	23.981	0.100
409.200	15.199	0.100
409.300	17.044	0.100
409.400	17.416	0.100
409.500	18.506	0.100
409.600	11.557	0.100
409.700	21.243	0.100
409.800	18.200	0.100
409.900	20.596	0.100
410.000	16.645	0.100
410.100	18.842	0.100
410.200	21.307	0.100
410.300	14.867	0.100
410.400	19.084	0.100
410.500	31.020	0.100
410.600	14.944	0.100
410.700	19.468	0.100
410.800	15.165	0.100
410.900	18.149	0.100
411.000	16.202	0.100
411.100	13.911	0.100
411.200	17.482	0.100
411.300	16.442	0.100
411.400	12.134	0.100
411.500	17.217	0.100
411.600	14.187	0.100
411.700	12.868	0.100
411.800	18.713	0.100
411.900	15.995	0.100
412.000	16.275	0.100
412.100	20.454	0.100
412.200	26.104	0.100
412.300	27.973	0.100
412.400	26.807	0.100
412.500	25.878	0.100
412.600	16.254	0.100
412.700	18.282	0.100
412.800	18.176	0.100
412.900	19.399	0.100
413.000	13.271	0.100
413.100	16.783	0.100
413.200	15.855	0.100
413.300	7.286	0.100
413.400	11.681	0.100
413.500	18.983	0.100
413.600	14.006	0.100
413.700	15.111	0.100
413.800	15.392	0.100
413.900	16.124	0.100
414.000	15.018	0.100
414.100	8.374	0.100
414.200	18.034	0.100
414.300	21.558	0.100
414.400	18.499	0.100
414.500	15.670	0.100
414.600	16.801	0.100
414.700	14.434	0.100
414.800	17.812	0.100
414.900	16.456	0.100
415.000	10.682	0.100
415.100	14.406	0.100
415.200	15.880	0.100
415.300	9.471	0.100
415.400	6.455	0.100
415.500	9.508	0.100
415.600	17.400	0.100
415.700	14.450	0.100
415.800	13.588	0.100
415.900	15.523	0.100
416.000	15.331	0.100
416.100	17.477	0.100
416.200	11.242	0.100
416.300	15.280	0.100
416.400	10.845	0.100
416.500	9.265	0.100
416.600	6.984	0.100
416.700	10.986	0.100
416.800	14.714	0.100
416.900	17.987	0.100
417.000	16.816	0.100
417.100	9.976	0.100
417.200	4.333	0.100
417.300	2.350	0.100
417.400	1.844	0.100
417.500	12.760	0.100
417.600	12.090	0.100
417.700	18.848	0.100
417.800	9.856	0.100
417.900	18.496	0.100
418.000	14.213	0.100
418.100	12.173	0.100
418.200	7.417	0.100
418.300	7.325	0.100
418.400	6.164	0.100
418.500	3.180	0.100
418.600	12.435	0.100
418.700	17.304	0.100
418.800	12.953	0.100
418.900	19.373	0.100
419.000	13.438	0.100
419.100	4.489	0.100
419.200	1.511	0.100
419.300	8.703	0.100
419.400	13.979	0.100
419.500	8.008	0.100
419.600	9.974	0.100
419.700	7.275	0.100
419.800	5.468	0.100
419.900	9.454	0.100
420.000	4.490	0.100
420.100	14.426	0.100
420.200	17.901	0.100
420.300	9.253	0.100
420.400	6.536	0.100
420.500	8.806	0.100
420.600	8.398	0.100
420.700	3.036	0.100
420.800	6.541	0.100
420.900	12.422	0.100
421.000	4.096	0.100
421.100	10.439	0.100
421.200	10.653	0.100
421.300	3.107	0.100
421.400	7.737	0.100
421.500	3.387	0.100
421.600	4.992	0.100
421.700	3.175	0.100
421.800	3.127	0.100
421.900	14.157	0.100
422.000	7.827	0.100
422.100	7.999	0.100
422.200	7.987	0.100
422.300	8.026	0.100
422.400	13.771	0.100
422.500	11.369	0.100
422.600	8.966	0.100
422.700	7.418	0.100
422.800	4.768	0.100
422.900	7.160	0.100
423.000	4.472	0.100
423.100	10.478	0.100
423.200	5.570	0.100
423.300	8.663	0.100
423.400	5.243	0.100
423.500	2.882	0.100
423.600	5.730	0.100
423.700	-4.469	0.100
423.800	10.172	0.100
423.900	8.239	0.100
424.000	4.920	0.100
424.100	7.065	0.100
424.200	7.339	0.100
424.300	2.545	0.100
424.400	3.773	0.100
424.500	7.025	0.100
424.600	3.799	0.100
424.700	13.817	0.100
424.800	15.350	0.100
424.900	5.978	0.100
425.000	0.368	0.100
425.100	11.198	0.100
425.200	11.400	0.100
425.300	3.461	0.100
425.400	6.788	0.100
425.500	-1.623	0.100
425.600	2.108	0.100
425.700	7.795	0.100
425.800	0.665	0.100
425.900	8.016	0.100
426.000	14.846	0.100
426.100	4.427	0.100
426.200	-1.480	0.100
426.300	0.950	0.100
426.400	3.124	0.100
426.500	5.866	0.100
426.600	9.592	0.100
426.700	12.366	0.100
426.800	5.807	0.100
426.900	3.751	0.100
427.000	2.279	0.100
427.100	4.780	0.100
427.200	4.030	0.100
427.300	-1.378	0.100
427.400	10.088	0.100
427.500	11.465	0.100
427.600	4.051	0.100
427.700	-8.200	0.100
427.800	-5.976	0.100
427.900	-5.370	0.100
428.000	5.444	0.100
428.100	7.840	0.100
428.200	3.223	0.100
428.300	2.425	0.100
428.400	-2.339	0.100
428.500	3.703	0.100
428.600	5.309	0.100
428.700	0.090	0.100
428.800	-2.527	0.100
428.900	-3.705	0.100
429.000	5.639	0.100
429.100	8.411	0.100
429.200	10.550	0.100
429.300	5.689	0.100
429.400	-6.106	0.100
429.500	-4.997	0.100
429.600	7.917	0.100
429.700	3.824	0.100
429.800	2.434	0.100
429.900	3.119	0.100
430.000	2.644	0.100
430.100	14.075	0.100
430.200	7.260	0.100
430.300	7.978	0.100
430.400	10.643	0.100
430.500	6.055	0.100
430.600	7.240	0.100
430.700	1.783	0.100
430.800	-6.006	0.100
430.900	-0.082	0.100
431.000	-5.820	0.100
431.100	-2.586	0.100
431.200	-5.990	0.100
431.300	-2.426	0.100
431.400	-1.946	0.100
431.500	7.447	0.100
431.600	9.057	0.100
431.700	-0.867	0.100
431.800	13.056	0.100
431.900	2.834	0.100
432.000	-1.838	0.100
432.100	6.070	0.100
432.200	1.882	0.100
432.300	-2.529	0.100
432.400	6.313	0.100
432.500	4.279	0.100
432.600	3.059	0.100
432.700	-0.024	0.100
432.800	-4.267	0.100
432.900	10.741	0.100
433.000	10.518	0.100
433.100	-4.506	0.100
433.200	-1.081	0.100
433.300	2.190	0.100
433.400	12.802	0.100
433.500	10.077	0.100
433.600	0.707	0.100
433.700	0.386	0.100
433.800	-1.464	0.100
433.900	-0.832	0.100
434.000	-3.231	0.100
434.100	-0.963	0.100
434.200	8.293	0.100
434.300	0.014	0.100
434.400	-8.216	0.100
434.500	-2.115	0.100
434.600	-5.269	0.100
434.700	2.804	0.100
434.800	0.567	0.100
434.900	-1.012	0.100
435.000	-1.186	0.100
435.100	-14.812	0.100
435.200	-4.686	0.100
435.300	0.674	0.100
435.400	-0.760	0.100
435.500	4.524	0.100
435.600	2.884	0.100
435.700	-1.635	0.100
435.800	10.462	0.100
435.900	0.824	0.100
436.000	1.780	0.100
436.100	-1.395	0.100
436.200	-3.113	0.100
436.300	-0.153	0.100
436.400	-7.738	0.100
436.500	-6.551	0.100
436.600	-1.755	0.100
436.700	4.362	0.100
436.800	5.169	0.100
436.900	0.668	0.100
437.000	4.777	0.100
437.100	-5.429	0.100
437.200	8.767	0.100
437.300	1.837	0.100
437.400	-7.279	0.100
437.500	-10.674	0.100
437.600	-2.851	0.100
437.700	4.426	0.100
437.800	3.259	0.100
437.900	5.612	0.100
438.000	-3.653	0.100
438.100	-7.200	0.100
438.200	-1.514	0.100
438.300	-5.711	0.100
438.400	-0.498	0.100
438.500	-5.126	0.100
438.600	1.551	0.100
438.700	-4.042	0.100
438.800	0.411	0.100
438.900	-3.861	0.100
439.000	-5.715	0.100
439.100	-2.989	0.100
439.200	-4.604	0.100
439.300	8.822	0.100
439.400	-1.710	0.100
439.500	-4.117	0.100
439.600	-3.836	0.100
439.700	-1.814	0.100
439.800	-7.420	0.100
439.900	-3.516	0.100
440.000	5.459	0.100
440.100	-0.834	0.100
440.200	0.053	0.100
440.300	4.033	0.100
440.400	-3.173	0.100
440.500	3.430	0.100
440.600	-5.879	0.100
440.700	-3.789	0.100
440.800	-1.502	0.100
440.900	3.793	0.100
441.000	-3.566	0.100
441.100	-14.606	0.100
441.200	-10.137	0.100
441.300	3.250	0.100
441.400	-14.345	0.100
441.500	3.684	0.100
441.600	4.991	0.100
441.700	-1.386	0.100
441.800	2.454	0.100
441.900	1.517	0.100
442.000	-3.147	0.100
442.100	-4.997	0.100
442.200	-2.556	0.100
442.300	2.456	0.100
442.400	-2.380	0.100
442.500	4.228	0.100
442.600	-11.189	0.100
442.700	1.043	0.100
442.800	1.879	0.100
442.900	-11.844	0.100
443.000	-5.993	0.100
443.100	-4.667	0.100
443.200	-1.198	0.100
443.300	0.629	0.100
443.400	-8.953	0.100
443.500	3.504	0.100
443.600	9.209	0.100
443.700	1.997	0.100
443.800	-5.134	0.100
443.900	-5.947	0.100
444.000	1.421	0.100
444.100	-3.321	0.100
444.200	-3.978	0.100
444.300	-3.386	0.100
444.400	0.131	0.100
444.500	-4.228	0.100
444.600	-4.308	0.100
444.700	-4.234	0.100
444.800	-5.450	0.100
444.900	-4.848	0.100
445.000	-8.842	0.100
445.100	3.654	0.100
445.200	-6.784	0.100
445.300	1.161	0.100
445.400	-3.150	0.100
445.500	0.310	0.100
445.600	-1.590	0.100
445.700	3.593	0.100
445.800	-1.968	0.100
445.900	-2.620	0.100
446.000	-7.797	0.100
446.100	-3.316	0.100
446.200	-0.581	0.100
446.300	-5.795	0.100
446.400	-5.629	0.100
446.500	-4.078	0.100
446.600	-3.660	0.100
446.700	-2.086	0.100
446.800	-1.142	0.100
446.900	-8.456	0.100
447.000	-6.391	0.100
447.100	-4.550	0.100
447.200	-1.426	0.100
447.300	-3.960	0.100
447.400	-3.734	0.100
447.500	-6.723	0.100
447.600	-6.665	0.100
447.700	7.431	0.100
447.800	-10.831	0.100
447.900	-4.435	0.100
448.000	0.955	0.100
448.100	-0.958	0.100
448.200	-9.978	0.100
448.300	-9.134	0.100
448.400	-14.454	0.100
448.500	5.880	0.100
448.600	-1.156	0.100
448.700	-2.762	0.100
448.800	-2.436	0.100
448.900	-7.649	0.100
449.000	1.205	0.100
449.100	-4.690	0.100
449.200	-4.854	0.100
449.300	-5.000	0.100
449.400	1.383	0.100
449.500	-3.230	0.100
449.600	-12.877	0.100
449.700	-6.825	0.100
449.800	-6.497	0.100
449.900	0.702	0.100
450.000	-2.016	0.100
450.100	-2.816	0.100
450.200	-5.533	0.100
450.300	-8.745	0.100
450.400	-3.953	0.100
450.500	-2.480	0.100
450.600	-2.063	0.100
450.700	-3.965	0.100
450.800	-9.350	0.100
450.900	0.433	0.100
451.000	-2.521	0.100
451.100	-8.147	0.100
451.200	-3.991	0.100
451.300	-4.740	0.100
451.400	-6.644	0.100
451.500	-11.337	0.100
451.600	-1.581	0.100
451.700	-5.674	0.100
451.800	-2.520	0.100
451.900	-15.797	0.100
452.000	-3.715	0.100
452.100	2.678	0.100
452.200	0.939	0.100
452.300	-7.433	0.100
452.400	-10.001	0.100
452.500	3.808	0.100
452.600	-1.668	0.100
452.700	-6.646	0.100
452.800	-5.236	0.100
452.900	-0.667	0.100
453.000	-4.020	0.100
453.100	0.158	0.100
453.200	-7.840	0.100
453.300	-6.735	0.100
453.400	-6.423	0.100
453.500	-2.485	0.100
453.600	-5.137	0.100
453.700	-10.175	0.100
453.800	-6.970	0.100
453.900	-9.310	0.100
454.000	-11.263	0.100
454.100	-9.073	0.100
454.200	-5.102	0.100
454.300	-1.821	0.100
454.400	-11.956	0.100
454.500	-4.932	0.100
454.600	-2.636	0.100
454.700	-8.671	0.100
454.800	-7.797	0.100
454.900	-1.717	0.100
455.000	1.055	0.100
455.100	-5.240	0.100
455.200	-8.567	0.100
455.300	-9.848	0.100
455.400	-4.524	0.100
455.500	-10.750	0.100
455.600	-6.988	0.100
455.700	-7.728	0.100
455.800	-8.407	0.100
455.900	-1.051	0.100
456.000	-9.124	0.100
456.100	0.317	0.100
456.200	-2.523	0.100
456.300	-14.953	0.100
456.400	-17.164	0.100
456.500	-12.243	0.100
456.600	-6.801	0.100
456.700	3.849	0.100
456.800	6.439	0.100
456.900	-1.249	0.100
457.000	-6.204	0.100
457.100	-9.629	0.100
457.200	-4.570	0.100
457.300	-5.007	0.100
457.400	-8.011	0.100
457.500	-5.103	0.100
457.600	-4.981	0.100
457.700	-9.804	0.100
457.800	-7.537	0.100
457.900	0.839	0.100
458.000	-1.884	0.100
458.100	-5.827	0.100
458.200	0.688	0.100
458.300	4.552	0.100
458.400	-1.121	0.100
458.500	-4.870	0.100
458.600	-4.246	0.100
458.700	-7.207	0.100
458.800	-10.402	0.100
458.900	-7.790	0.100
459.000	-5.716	0.100
459.100	10.993	0.100
459.200	-15.310	0.100
459.300	-9.039	0.100
459.400	-7.749	0.100
459.500	-7.293	0.100
459.600	-13.921	0.100
459.700	-10.778	0.100
459.800	-5.355	0.100
459.900	-6.840	0.100
460.000	-7.999	0.100
460.100	-13.497	0.100
460.200	-10.764	0.100
460.300	-0.512	0.100
460.400	1.899	0.100
460.500	-0.838	0.100
460.600	-3.789	0.100
460.700	-13.902	0.100
460.800	-10.041	0.100
460.900	-8.348	0.100
461.000	-11.387	0.100
461.100	-9.761	0.100
461.200	-12.375	0.100
461.300	-8.830	0.100
461.400	-0.717	0.100
461.500	-7.207	0.100
461.600	-14.653	0.100
461.700	-3.326	0.100
461.800	-0.869	0.100
461.900	-1.213	0.100
462.000	-7.481	0.100
462.100	-3.769	0.100
462.200	1.700	0.100
462.300	-6.255	0.100
462.400	-9.629	0.100
462.500	-7.716	0.100
462.600	6.142	0.100
462.700	-1.577	0.100
462.800	-11.318	0.100
462.900	-15.372	0.100
463.000	-6.091	0.100
463.100	-11.746	0.100
463.200	-6.828	0.100
463.300	-4.243	0.100
463.400	-9.323	0.100
463.500	-10.109	0.100
463.600	-2.554	0.100
463.700	-7.798	0.100
463.800	-1.437	0.100
463.900	2.600	0.100
464.000	-13.160	0.100
464.100	-6.573	0.100
464.200	-8.991	0.100
464.300	-9.619	0.100
464.400	-10.049	0.100
464.500	-4.450	0.100
464.600	-2.277	0.100
464.700	-1.707	0.100
464.800	-0.471	0.100
464.900	-8.614	0.100
465.000	-4.251	0.100
465.100	-5.831	0.100
465.200	-5.780	0.100
465.300	-7.812	0.100
465.400	-2.741	0.100
465.500	-7.111	0.100
465.600	-9.182	0.100
465.700	-9.696	0.100
465.800	-2.294	0.100
465.900	-7.945	0.100
466.000	-1.375	0.100
466.100	-9.042	0.100
466.200	-15.249	0.100
466.300	-9.455	0.100
466.400	-10.120	0.100
466.500	-2.756	0.100
466.600	2.826	0.100
466.700	-6.145	0.100
466.800	-8.128	0.100
466.900	-8.547	0.100
467.000	-7.397	0.100
467.100	-9.099	0.100
467.200	-4.618	0.100
467.300	-4.905	0.100
467.400	-5.756	0.100
467.500	-4.401	0.100
467.600	-3.817	0.100
467.700	-11.994	0.100
467.800	-9.785	0.100
467.900	-7.406	0.100
468.000	-2.830	0.100
468.100	0.235	0.100
468.200	-13.876	0.100
468.300	-7.265	0.100
468.400	-6.798	0.100
468.500	-4.975	0.100
468.600	-8.975	0.100
468.700	-10.658	0.100
468.800	-8.004	0.100
468.900	-0.494	0.100
469.000	-5.238	0.100
469.100	-7.348	0.100
469.200	-11.074	0.100
469.300	-8.813	0.100
469.400	-5.915	0.100
469.500	-13.109	0.100
469.600	-3.379	0.100
469.700	-2.433	0.100
469.800	-2.691	0.100
469.900	-4.492	0.100
470.000	-11.614	0.100
470.100	-11.098	0.100
470.200	-4.298	0.100
470.300	-11.621	0.100
470.400	-10.253	0.100
470.500	-10.325	0.100
470.600	-9.078	0.100
470.700	-6.430	0.100
470.800	-6.267	0.100
470.900	-5.447	0.100
471.000	-8.091	0.100
471.100	-4.514	0.100
471.200	-4.559	0.100
471.300	-3.191	0.100
471.400	0.371	0.100
471.500	-2.650	0.100
471.600	-12.792	0.100
471.700	-8.475	0.100
471.800	-4.348	0.100
471.900	-7.708	0.100
472.000	-2.501	0.100
472.100	-10.334	0.100
472.200	-1.079	0.100
472.300	-6.127	0.100
472.400	-14.214	0.100
472.500	-10.806	0.100
472.600	-9.610	0.100
472.700	-1.683	0.100
472.800	-3.123	0.100
472.900	-1.540	0.100
473.000	-11.455	0.100
473.100	-11.821	0.100
473.200	-5.062	0.100
473.300	-4.134	0.100
473.400	-3.763	0.100
473.500	-4.051	0.100
473.600	-7.827	0.100
473.700	-14.053	0.100
473.800	-14.567	0.100
473.900	-8.306	0.100
474.000	-10.494	0.100
474.100	-11.592	0.100
474.200	-3.640	0.100
474.300	-10.526	0.100
474.400	3.470	0.100
474.500	-9.242	0.100
474.600	-12.733	0.100
474.700	-10.953	0.100
474.800	-11.448	0.100
474.900	-3.086	0.100
475.000	-4.391	0.100
475.100	-3.280	0.100
475.200	-11.036	0.100
475.300	-15.246	0.100
475.400	-1.978	0.100
475.500	-7.498	0.100
475.600	-6.142	0.100
475.700	-10.808	0.100
475.800	-5.550	0.100
475.900	-2.768	0.100
476.000	-14.436	0.100
476.100	-13.791	0.100
476.200	-12.270	0.100
476.300	-6.493	0.100
476.400	-2.418	0.100
476.500	-7.736	0.100
476.600	-8.635	0.100
476.700	-8.789	0.100
476.800	-14.192	0.100
476.900	-2.604	0.100
477.000	3.221	0.100
477.100	-3.828	0.100
477.200	-7.662	0.100
477.300	-3.203	0.100
477.400	-8.099	0.100
477.500	-4.468	0.100
477.600	-3.551	0.100
477.700	-7.562	0.100
477.800	-6.945	0.100
477.900	-4.648	0.100
478.000	-8.035	0.100
478.100	-14.160	0.100
478.200	-17.434	0.100
478.300	-5.053	0.100
478.400	-8.331	0.100
478.500	-1.462	0.100
478.600	-11.722	0.100
478.700	-4.959	0.100
478.800	-3.161	0.100
478.900	-0.900	0.100
479.000	-4.319	0.100
479.100	-10.775	0.100
479.200	-19.477	0.100
479.300	-12.229	0.100
479.400	-9.734	0.100
479.500	-0.381	0.100
479.600	2.458	0.100
479.700	-6.825	0.100
479.800	-21.206	0.100
479.900	-16.452	0.100
480.000	-9.221	0.100
480.100	-4.680	0.100
480.200	-3.995	0.100
480.300	-10.760	0.100
480.400	-10.854	0.100
480.500	-10.753	0.100
480.600	-5.399	0.100
480.700	1.941	0.100
480.800	-3.029	0.100
480.900	-3.823	0.100
481.000	-2.872	0.100
481.100	-4.331	0.100
481.200	-8.135	0.100
481.300	-10.068	0.100
481.400	2.621	0.100
481.500	3.243	0.100
481.600	-1.164	0.100
481.700	-5.766	0.100
481.800	-1.135	0.100
481.900	-3.168	0.100
482.000	1.087	0.100
482.100	2.368	0.100
482.200	1.267	0.100
482.300	1.008	0.100
482.400	-8.589	0.100
482.500	-8.329	0.100
482.600	2.811	0.100
482.700	1.723	0.100
482.800	13.070	0.100
482.900	4.877	0.100
483.000	6.925	0.100
483.100	13.257	0.100
483.200	10.871	0.100
483.300	9.375	0.100
483.400	2.659	0.100
483.500	11.482	0.100
483.600	8.135	0.100
483.700	2.824	0.100
483.800	7.151	0.100
483.900	10.499	0.100
484.000	4.501	0.100
484.100	1.434	0.100
484.200	10.958	0.100
484.300	8.853	0.100
484.400	6.180	0.100
484.500	12.046	0.100
484.600	4.346	0.100
484.700	6.839	0.100
484.800	10.177	0.100
484.900	7.398	0.100
485.000	10.511	0.100
485.100	6.170	0.100
485.200	11.582	0.100
485.300	10.463	0.100
485.400	14.290	0.100
485.500	16.937	0.100
485.600	16.557	0.100
485.700	6.887	0.100
485.800	7.447	0.100
485.900	15.203	0.100
486.000	11.704	0.100
486.100	10.591	0.100
486.200	16.550	0.100
486.300	15.091	0.100
486.400	4.091	0.100
486.500	3.036	0.100
486.600	11.904	0.100
486.700	10.029	0.100
486.800	12.753	0.100
486.900	8.663	0.100
487.000	18.832	0.100
487.100	10.493	0.100
487.200	7.135	0.100
487.300	11.323	0.100
487.400	8.940	0.100
487.500	10.446	0.100
487.600	16.732	0.100
487.700	16.574	0.100
487.800	16.252	0.100
487.900	11.593	0.100
488.000	8.669	0.100
488.100	4.977	0.100
488.200	3.891	0.100
488.300	8.040	0.100
488.400	9.426	0.100
488.500	17.193	0.100
488.600	16.051	0.100
488.700	7.658	0.100
488.800	7.075	0.100
488.900	5.734	0.100
489.000	21.330	0.100
489.100	15.733	0.100
489.200	18.505	0.100
489.300	10.675	0.100
489.400	16.563	0.100
489.500	19.715	0.100
489.600	15.097	0.100
489.700	21.357	0.100
489.800	28.897	0.100
489.900	10.946	0.100
490.000	10.530	0.100
490.100	15.139	0.100
490.200	15.697	0.100
490.300	22.697	0.100
490.400	18.893	0.100
490.500	21.556	0.100
490.600	23.879	0.100
490.700	19.598	0.100
490.800	19.419	0.100
490.900	17.823	0.100
491.000	23.710	0.100
491.100	20.468	0.100
491.200	25.928	0.100
491.300	9.652	0.100
491.400	19.231	0.100
491.500	9.691	0.100
491.600	5.845	0.100
491.700	14.126	0.100
491.800	21.188	0.100
491.900	17.193	0.100
492.000	9.153	0.100
492.100	20.431	0.100
492.200	17.779	0.100
492.300	19.368	0.100
492.400	18.057	0.100
492.500	17.945	0.100
492.600	25.087	0.100
492.700	22.341	0.100
492.800	23.482	0.100
492.900	19.881	0.100
493.000	25.070	0.100
493.100	16.949	0.100
493.200	22.007	0.100
493.300	22.622	0.100
493.400	28.704	0.100
493.500	19.649	0.100
493.600	14.865	0.100
493.700	15.228	0.100
493.800	27.642	0.100
493.900	18.423	0.100
494.000	26.815	0.100
494.100	22.136	0.100
494.200	24.723	0.100
494.300	25.740	0.100
494.400	21.921	0.100
494.500	24.113	0.100
494.600	23.187	0.100
494.700	19.378	0.100
494.800	23.161	0.100
494.900	19.092	0.100
495.000	27.502	0.100
495.100	26.003	0.100
495.200	19.638	0.100
495.300	23.978	0.100
495.400	27.110	0.100
495.500	25.709	0.100
495.600	30.187	0.100
495.700	24.921	0.100
495.800	24.456	0.100
495.900	16.382	0.100
496.000	24.437	0.100
496.100	24.780	0.100
496.200	25.957	0.100
496.300	25.285	0.100
496.400	32.476	0.100
496.500	34.260	0.100
496.600	29.606	0.100
496.700	31.697	0.100
496.800	29.414	0.100
496.900	28.122	0.100
497.000	30.081	0.100
497.100	31.543	0.100
497.200	30.398	0.100
497.300	34.827	0.100
497.400	28.465	0.100
497.500	23.133	0.100
497.600	31.866	0.100
497.700	30.442	0.100
497.800	32.797	0.100
497.900	29.019	0.100
498.000	26.790	0.100
498.100	36.125	0.100
498.200	30.476	0.100
498.300	31.309	0.100
498.400	38.095	0.100
498.500	28.027	0.100
498.600	28.018	0.100
498.700	33.995	0.100
498.800	36.740	0.100
498.900	40.884	0.100
499.000	27.412	0.100
499.100	30.574	0.100
499.200	26.010	0.100
499.300	31.115	0.100
499.400	32.252	0.100
499.500	27.960	0.100
499.600	38.059	0.100
499.700	37.159	0.100
499.800	25.576	0.100
499.900	35.204	0.100
500.000	32.632	0.100
500.100	37.327	0.100
500.200	41.740	0.100
500.300	33.325	0.100
500.400	37.158	0.100
500.500	34.259	0.100
500.600	40.886	0.100
500.700	30.523	0.100
500.800	42.026	0.100
500.900	33.437	0.100
501.000	31.975	0.100
501.100	31.668	0.100
501.200	33.482	0.100
501.300	34.408	0.100
501.400	30.284	0.100
501.500	39.173	0.100
501.600	28.056	0.100
501.700	36.531	0.100
501.800	41.029	0.100
501.900	40.628	0.100
502.000	39.245	0.100
502.100	37.424	0.100
502.200	34.906	0.100
502.300	27.749	0.100
502.400	33.554	0.100
502.500	36.068	0.100
502.600	43.972	0.100
502.700	36.380	0.100
502.800	43.475	0.100
502.900	34.472	0.100
503.000	35.580	0.100
503.100	40.088	0.100
503.200	47.537	0.100
503.300	42.950	0.100
503.400	40.052	0.100
503.500	30.324	0.100
503.600	43.205	0.100
503.700	44.480	0.100
503.800	42.492	0.100
503.900	37.686	0.100
504.000	42.050	0.100
504.100	42.065	0.100
504.200	42.811	0.100
504.300	43.549	0.100
504.400	44.280	0.100
504.500	34.236	0.100
504.600	36.526	0.100
504.700	38.601	0.100
504.800	39.970	0.100
504.900	39.750	0.100
505.000	36.882	0.100
505.100	34.703	0.100
505.200	37.936	0.100
505.300	47.602	0.100
505.400	39.534	0.100
505.500	42.307	0.100
505.600	49.625	0.100
505.700	42.827	0.100
505.800	47.281	0.100
505.900	39.166	0.100
506.000	47.961	0.100
506.100	35.369	0.100
506.200	40.975	0.100
506.300	37.194	0.100
506.400	45.681	0.100
506.500	47.049	0.100
506.600	42.126	0.100
506.700	50.003	0.100
506.800	44.011	0.100
506.900	49.229	0.100
507.000	41.914	0.100
507.100	40.080	0.100
507.200	41.447	0.100
507.300	45.674	0.100
507.400	48.275	0.100
507.500	42.190	0.100
507.600	41.141	0.100
507.700	50.914	0.100
507.800	48.343	0.100
507.900	46.287	0.100
508.000	47.267	0.100
508.100	41.951	0.100
508.200	49.209	0.100
508.300	49.674	0.100
508.400	43.073	0.100
508.500	48.217	0.100
508.600	42.393	0.100
508.700	51.203	0.100
508.800	45.145	0.100
508.900	40.487	0.100
509.000	33.531	0.100
509.100	36.621	0.100
509.200	39.601	0.100
509.300	46.909	0.100
509.400	46.400	0.100
509.500	52.021	0.100
509.600	47.811	0.100
509.700	42.857	0.100
509.800	57.810	0.100
509.900	53.021	0.100
510.000	47.762	0.100
510.100	54.004	0.100
510.200	44.212	0.100
510.300	46.183	0.100
510.400	56.789	0.100
510.500	48.842	0.100
510.600	52.678	0.100
510.700	49.153	0.100
510.800	55.611	0.100
510.900	52.283	0.100
511.000	53.623	0.100
511.100	48.448	0.100
511.200	49.208	0.100
511.300	45.809	0.100
511.400	53.077	0.100
511.500	33.763	0.100
511.600	41.487	0.100
511.700	50.952	0.100
511.800	47.767	0.100
511.900	45.474	0.100
512.000	55.318	0.100
512.100	57.637	0.100
512.200	36.020	0.100
512.300	53.022	0.100
512.400	55.598	0.100
512.500	55.040	0.100
512.600	51.681	0.100
512.700	53.931	0.100
512.800	50.683	0.100
512.900	53.513	0.100
513.000	52.732	0.100
513.100	45.276	0.100
513.200	45.561	0.100
513.300	59.622	0.100
513.400	56.854	0.100
513.500	52.216	0.100
513.600	60.857	0.100
513.700	60.930	0.100
513.800	52.321	0.100
513.900	44.722	0.100
514.000	46.835	0.100
514.100	46.558	0.100
514.200	52.772	0.100
514.300	55.108	0.100
514.400	53.117	0.100
514.500	54.562	0.100
514.600	54.098	0.100
514.700	46.020	0.100
514.800	59.953	0.100
514.900	61.806	0.100
515.000	56.115	0.100
515.100	55.197	0.100
515.200	50.811	0.100
515.300	50.484	0.100
515.400	57.312	0.100
515.500	52.652	0.100
515.600	54.164	0.100
515.700	50.769	0.100
515.800	54.111	0.100
515.900	56.521	0.100
516.000	55.559	0.100
516.100	45.330	0.100
516.200	46.705	0.100
516.300	57.791	0.100
516.400	62.738	0.100
516.500	52.385	0.100
516.600	56.919	0.100
516.700	52.446	0.100
516.800	54.916	0.100
516.900	55.558	0.100
517.000	53.090	0.100
517.100	55.589	0.100
517.200	63.948	0.100
517.300	57.578	0.100
517.400	55.772	0.100
517.500	54.291	0.100
517.600	54.977	0.100
517.700	49.722	0.100
517.800	52.607	0.100
517.900	58.154	0.100
518.000	50.828	0.100
518.100	57.203	0.100
518.200	55.811	0.100
518.300	50.124	0.100
518.400	56.095	0.100
518.500	63.934	0.100
518.600	62.317	0.100
518.700	61.341	0.100
518.800	52.883	0.100
518.900	53.666	0.100
519.000	49.025	0.100
519.100	47.523	0.100
519.200	55.912	0.100
519.300	54.806	0.100
519.400	51.507	0.100
519.500	53.502	0.100
519.600	55.299	0.100
519.700	62.187	0.100
519.800	63.452	0.100
519.900	55.556	0.100
520.000	64.373	0.100
520.100	51.886	0.100
520.200	46.823	0.100
520.300	58.588	0.100
520.400	59.796	0.100
520.500	59.648	0.100
520.600	69.217	0.100
520.700	49.773	0.100
520.800	61.775	0.100
520.900	59.418	0.100
521.000	45.505	0.100
521.100	54.474	0.100
521.200	54.766	0.100
521.300	60.643	0.100
521.400	59.967	0.100
521.500	58.017	0.100
521.600	58.660	0.100
521.700	59.322	0.100
521.800	60.918	0.100
521.900	55.849	0.100
522.000	64.880	0.100
522.100	59.777	0.100
522.200	58.929	0.100
522.300	62.176	0.100
522.400	56.645	0.100
522.500	62.451	0.100
522.600	59.947	0.100
522.700	59.641	0.100
522.800	51.015	0.100
522.900	59.788	0.100
523.000	57.462	0.100
523.100	60.526	0.100
523.200	60.373	0.100
523.300	61.930	0.100
523.400	67.309	0.100
523.500	56.695	0.100
523.600	60.392	0.100
523.700	64.251	0.100
523.800	59.423	0.100
523.900	56.174	0.100
524.000	57.610	0.100
524.100	56.710	0.100
524.200	56.092	0.100
524.300	61.798	0.100
524.400	56.858	0.100
524.500	58.221	0.100
524.600	51.697	0.100
524.700	51.204	0.100
524.800	55.382	0.100
524.900	52.928	0.100
525.000	70.901	0.100
525.100	60.827	0.100
525.200	69.583	0.100
525.300	60.211	0.100
525.400	59.541	0.100
525.500	61.548	0.100
525.600	58.584	0.100
525.700	56.459	0.100
525.800	60.585	0.100
525.900	63.120	0.100
526.000	61.505	0.100
526.100	56.388	0.100
526.200	68.846	0.100
526.300	62.761	0.100
526.400	55.169	0.100
526.500	63.397	0.100
526.600	63.280	0.100
526.700	60.980	0.100
526.800	64.380	0.100
526.900	66.732	0.100
527.000	60.884	0.100
527.100	57.523	0.100
527.200	69.816	0.100
527.300	58.622	0.100
527.400	71.094	0.100
527.500	57.509	0.100
527.600	65.816	0.100
527.700	58.778	0.100
527.800	58.954	0.100
527.900	67.370	0.100
528.000	55.316	0.100
528.100	61.887	0.100
528.200	58.121	0.100
528.300	61.074	0.100
528.400	59.416	0.100
528.500	57.727	0.100
528.600	61.372	0.100
528.700	65.789	0.100
528.800	61.392	0.100
528.900	57.232	0.100
529.000	57.563	0.100
529.100	65.296	0.100
529.200	67.094	0.100
529.300	68.074	0.100
529.400	71.488	0.100
529.500	66.829	0.100
529.600	68.293	0.100
529.700	59.357	0.100
529.800	60.898	0.100
529.900	64.326	0.100
530.000	58.115	0.100
530.100	59.705	0.100
530.200	64.597	0.100
530.300	52.884	0.100
530.400	63.676	0.100
530.500	62.497	0.100
530.600	52.329	0.100
530.700	58.439	0.100
530.800	63.703	0.100
530.900	61.514	0.100
531.000	62.507	0.100
531.100	64.003	0.100
531.200	70.175	0.100
531.300	66.481	0.100
531.400	64.080	0.100
531.500	61.460	0.100
531.600	66.191	0.100
531.700	63.996	0.100
531.800	61.588	0.100
531.900	57.856	0.100
532.000	59.215	0.100
532.100	66.398	0.100
532.200	59.528	0.100
532.300	58.295	0.100
532.400	56.994	0.100
532.500	60.703	0.100
532.600	62.356	0.100
532.700	61.583	0.100
532.800	59.772	0.100
532.900	58.632	0.100
533.000	52.994	0.100
533.100	64.426	0.100
533.200	63.542	0.100
533.300	54.829	0.100
533.400	55.770	0.100
533.500	63.234	0.100
533.600	63.060	0.100
533.700	65.006	0.100
533.800	63.487	0.100
533.900	71.340	0.100
534.000	60.530	0.100
534.100	65.310	0.100
534.200	59.215	0.100
534.300	55.294	0.100
534.400	60.106	0.100
534.500	60.635	0.100
534.600	65.653	0.100
534.700	67.915	0.100
534.800	62.849	0.100
534.900	65.990	0.100
535.000	58.955	0.100
535.100	59.978	0.100
535.200	57.328	0.100
535.300	62.594	0.100
535.400	57.892	0.100
535.500	56.723	0.100
535.600	56.034	0.100
535.700	63.178	0.100
535.800	62.677	0.100
535.900	67.448	0.100
536.000	68.170	0.100
536.100	66.186	0.100
536.200	64.031	0.100
536.300	67.426	0.100
536.400	64.091	0.100
536.500	67.374	0.100
536.600	60.302	0.100
536.700	62.983	0.100
536.800	67.955	0.100
536.900	60.494	0.100
537.000	59.382	0.100
537.100	67.956	0.100
537.200	65.194	0.100
537.300	62.709	0.100
537.400	66.895	0.100
537.500	62.863	0.100
537.600	64.301	0.100
537.700	66.733	0.100
537.800	56.933	0.100
537.900	61.009	0.100
538.000	58.621	0.100
538.100	63.023	0.100
538.200	59.588	0.100
538.300	60.790	0.100
538.400	59.733	0.100
538.500	59.046	0.100
538.600	66.755	0.100
538.700	65.240	0.100
538.800	60.439	0.100
538.900	65.354	0.100
539.000	68.670	0.100
539.100	58.608	0.100
539.200	67.616	0.100
539.300	68.735	0.100
539.400	54.919	0.100
539.500	69.465	0.100
539.600	63.530	0.100
539.700	59.610	0.100
539.800	66.748	0.100
539.900	64.976	0.100
540.000	63.919	0.100
540.100	54.342	0.100
540.200	58.887	0.100
540.300	55.608	0.100
540.400	69.145	0.100
540.500	69.897	0.100
540.600	71.731	0.100
540.700	64.155	0.100
540.800	64.238	0.100
540.900	60.018	0.100
541.000	67.291	0.100
541.100	57.852	0.100
541.200	56.512	0.100
541.300	69.376	0.100
541.400	52.404	0.100
541.500	35.606	0.100
541.600	47.824	0.100
541.700	58.947	0.100
541.800	55.678	0.100
541.900	61.188	0.100
542.000	58.558	0.100
542.100	61.136	0.100
542.200	55.103	0.100
542.300	56.772	0.100
542.400	47.763	0.100
542.500	59.483	0.100
542.600	59.925	0.100
542.700	50.362	0.100
542.800	44.328	0.100
542.900	49.620	0.100
543.000	55.481	0.100
543.100	50.045	0.100
543.200	44.086	0.100
543.300	46.572	0.100
543.400	46.512	0.100
543.500	43.323	0.100
543.600	43.180	0.100
543.700	46.250	0.100
543.800	34.122	0.100
543.900	34.695	0.100
544.000	53.397	0.100
544.100	35.704	0.100
544.200	43.062	0.100
544.300	44.673	0.100
544.400	46.470	0.100
544.500	36.584	0.100
544.600	42.512	0.100
544.700	39.650	0.100
544.800	46.744	0.100
544.900	42.531	0.100
545.000	42.239	0.100
545.100	46.679	0.100
545.200	43.118	0.100
545.300	39.609	0.100
545.400	28.165	0.100
545.500	35.777	0.100
545.600	52.889	0.100
545.700	42.218	0.100
545.800	36.775	0.100
545.900	32.139	0.100
546.000	40.731	0.100
546.100	33.096	0.100
546.200	36.727	0.100
546.300	33.873	0.100
546.400	29.178	0.100
546.500	19.231	0.100
546.600	30.353	0.100
546.700	40.064	0.100
546.800	31.288	0.100
546.900	27.039	0.100
547.000	35.204	0.100
547.100	24.528	0.100
547.200	29.133	0.100
547.300	29.376	0.100
547.400	29.454	0.100
547.500	25.298	0.100
547.600	33.452	0.100
547.700	26.635	0.100
547.800	28.636	0.100
547.900	34.496	0.100
548.000	37.231	0.100
548.100	33.318	0.100
548.200	35.073	0.100
548.300	23.059	0.100
548.400	24.342	0.100
548.500	19.622	0.100
548.600	28.002	0.100
548.700	25.996	0.100
548.800	25.422	0.100
548.900	25.454	0.100
549.000	30.806	0.100
549.100	28.099	0.100
549.200	30.159	0.100
549.300	14.451	0.100
549.400	35.276	0.100
549.500	34.005	0.100
549.600	28.900	0.100
549.700	28.025	0.100
549.800	27.014	0.100
549.900	27.808	0.100
550.000	30.334	0.100
550.100	28.715	0.100
550.200	23.107	0.100
550.300	21.271	0.100
550.400	27.260	0.100
550.500	33.691	0.100
550.600	29.095	0.100
550.700	24.302	0.100
550.800	26.066	0.100
550.900	26.725	0.100
551.000	16.836	0.100
551.100	32.579	0.100
551.200	24.868	0.100
551.300	22.825	0.100
551.400	15.426	0.100
551.500	19.338	0.100
551.600	22.019	0.100
551.700	21.863	0.100
551.800	31.080	0.100
551.900	38.628	0.100
552.000	30.679	0.100
552.100	28.738	0.100
552.200	22.517	0.100
552.300	25.867	0.100
552.400	27.516	0.100
552.500	25.676	0.100
552.600	26.472	0.100
552.700	26.174	0.100
552.800	26.505	0.100
552.900	25.091	0.100
553.000	23.806	0.100
553.100	23.331	0.100
553.200	25.482	0.100
553.300	20.128	0.100
553.400	22.379	0.100
553.500	23.515	0.100
553.600	21.750	0.100
553.700	20.851	0.100
553.800	23.749	0.100
553.900	18.036	0.100
554.000	17.071	0.100
554.100	20.205	0.100
554.200	21.750	0.100
554.300	17.687	0.100
554.400	21.197	0.100
554.500	25.244	0.100
554.600	27.428	0.100
554.700	19.995	0.100
554.800	24.653	0.100
554.900	18.650	0.100
555.000	20.464	0.100
555.100	17.748	0.100
555.200	13.616	0.100
555.300	9.469	0.100
555.400	18.828	0.100
555.500	23.674	0.100
555.600	12.688	0.100
555.700	21.161	0.100
555.800	23.361	0.100
555.900	15.635	0.100
556.000	18.938	0.100
556.100	19.029	0.100
556.200	13.990	0.100
556.300	15.505	0.100
556.400	11.304	0.100
556.500	16.174	0.100
556.600	24.550	0.100
556.700	12.182	0.100
556.800	15.413	0.100
556.900	25.431	0.100
557.000	22.736	0.100
557.100	17.857	0.100
557.200	20.160	0.100
557.300	19.084	0.100
557.400	27.236	0.100
557.500	19.992	0.100
557.600	18.036	0.100
557.700	18.024	0.100
557.800	15.709	0.100
557.900	20.835	0.100
558.000	15.633	0.100
558.100	17.599	0.100
558.200	14.007	0.100
558.300	16.808	0.100
558.400	21.992	0.100
558.500	11.602	0.100
558.600	17.398	0.100
558.700	18.326	0.100
558.800	9.985	0.100
558.900	13.426	0.100
559.000	17.534	0.100
559.100	12.980	0.100
559.200	17.597	0.100
559.300	7.745	0.100
559.400	5.003	0.100
559.500	15.813	0.100
559.600	15.015	0.100
559.700	14.901	0.100
559.800	19.658	0.100
559.900	14.930	0.100
560.000	7.995	0.100
560.100	13.396	0.100
560.200	16.643	0.100
560.300	12.788	0.100
560.400	15.948	0.100
560.500	14.000	0.100
560.600	14.531	0.100
560.700	24.642	0.100
560.800	23.206	0.100
560.900	19.584	0.100
561.000	13.014	0.100
561.100	-1.075	0.100
561.200	4.408	0.100
561.300	16.807	0.100
561.400	15.737	0.100
561.500	14.521	0.100
561.600	7.043	0.100
561.700	26.682	0.100
561.800	20.021	0.100
561.900	15.055	0.100
562.000	8.130	0.100
562.100	7.356	0.100
562.200	19.719	0.100
562.300	2.978	0.100
562.400	-2.591	0.100
562.500	3.374	0.100
562.600	7.287	0.100
562.700	12.008	0.100
562.800	15.829	0.100
562.900	19.313	0.100
563.000	16.741	0.100
563.100	16.486	0.100
563.200	16.242	0.100
563.300	4.994	0.100
563.400	11.590	0.100
563.500	11.446	0.100
563.600	13.048	0.100
563.700	20.481	0.100
563.800	14.744	0.100
563.900	10.021	0.100
564.000	7.290	0.100
564.100	15.455	0.100
564.200	16.988	0.100
564.300	15.745	0.100
564.400	15.471	0.100
564.500	15.722	0.100
564.600	9.725	0.100
564.700	12.929	0.100
564.800	23.142	0.100
564.900	17.243	0.100
565.000	16.997	0.100
565.100	5.078	0.100
565.200	8.889	0.100
565.300	13.522	0.100
565.400	11.187	0.100
565.500	3.810	0.100
565.600	10.795	0.100
565.700	14.842	0.100
565.800	15.566	0.100
565.900	3.458	0.100
566.000	5.890	0.100
566.100	19.266	0.100
566.200	12.951	0.100
566.300	11.905	0.100
566.400	13.028	0.100
566.500	11.232	0.100
566.600	5.177	0.100
566.700	3.757	0.100
566.800	8.348	0.100
566.900	8.384	0.100
567.000	6.843	0.100
567.100	3.996	0.100
567.200	-0.508	0.100
567.300	-0.902	0.100
567.400	16.511	0.100
567.500	2.102	0.100
567.600	14.928	0.100
567.700	4.358	0.100
567.800	7.691	0.100
567.900	14.088	0.100
568.000	7.820	0.100
568.100	15.002	0.100
568.200	7.295	0.100
568.300	-0.965	0.100
568.400	4.879	0.100
568.500	5.251	0.100
568.600	10.621	0.100
568.700	-0.243	0.100
568.800	11.200	0.100
568.900	8.232	0.100
569.000	4.552	0.100
569.100	2.424	0.100
569.200	12.700	0.100
569.300	8.335	0.100
569.400	1.587	0.100
569.500	15.560	0.100
569.600	4.289	0.100
569.700	14.324	0.100
569.800	9.642	0.100
569.900	13.601	0.100
570.000	5.067	0.100
570.100	10.317	0.100
570.200	7.339	0.100
570.300	12.188	0.100
570.400	4.046	0.100
570.500	6.370	0.100
570.600	4.680	0.100
570.700	2.847	0.100
570.800	-0.781	0.100
570.900	13.664	0.100
571.000	17.162	0.100
571.100	4.141	0.100
571.200	13.355	0.100
571.300	0.392	0.100
571.400	8.381	0.100
571.500	-5.755	0.100
571.600	5.319	0.100
571.700	9.648	0.100
571.800	8.847	0.100
571.900	5.302	0.100
572.000	2.226	0.100
572.100	-2.518	0.100
572.200	2.078	0.100
572.300	2.967	0.100
572.400	-0.767	0.100
572.500	1.535	0.100
572.600	-1.350	0.100
572.700	6.237	0.100
572.800	2.480	0.100
572.900	5.323	0.100
573.000	2.406	0.100
573.100	0.738	0.100
573.200	-1.229	0.100
573.300	8.311	0.100
573.400	8.697	0.100
573.500	5.195	0.100
573.600	7.866	0.100
573.700	2.999	0.100
573.800	1.893	0.100
573.900	-5.973	0.100
574.000	-8.206	0.100
574.100	4.432	0.100
574.200	11.350	0.100
574.300	5.744	0.100
574.400	6.333	0.100
574.500	0.187	0.100
574.600	8.482	0.100
574.700	4.646	0.100
574.800	4.582	0.100
574.900	5.450	0.100
575.000	3.684	0.100
575.100	12.713	0.100
575.200	3.118	0.100
575.300	6.400	0.100
575.400	-0.463	0.100
575.500	5.142	0.100
575.600	4.919	0.100
575.700	6.953	0.100
575.800	6.570	0.100
575.900	-5.372	0.100
576.000	-0.181	0.100
576.100	-1.710	0.100
576.200	2.336	0.100
576.300	6.080	0.100
576.400	6.969	0.100
576.500	10.898	0.100
576.600	6.743	0.100
576.700	2.113	0.100
576.800	3.240	0.100
576.900	-0.232	0.100
577.000	-7.188	0.100
577.100	-6.545	0.100
577.200	-2.811	0.100
577.300	3.419	0.100
577.400	-6.540	0.100
577.500	-2.095	0.100
577.600	-5.219	0.100
577.700	5.393	0.100
577.800	7.054	0.100
577.900	5.622	0.100
578.000	7.565	0.100
578.100	9.055	0.100
578.200	-9.901	0.100
578.300	1.075	0.100
578.400	-2.386	0.100
578.500	-6.189	0.100
578.600	-5.576	0.100
578.700	1.782	0.100
578.800	-4.192	0.100
578.900	-4.409	0.100
579.000	-4.621	0.100
579.100	-2.198	0.100
579.200	-0.602	0.100
579.300	1.840	0.100
579.400	4.146	0.100
579.500	-0.174	0.100
579.600	-9.104	0.100
579.700	-0.750	0.100
579.800	-0.573	0.100
579.900	3.340	0.100
580.000	-5.842	0.100
580.100	-7.568	0.100
580.200	1.724	0.100
580.300	-0.425	0.100
580.400	-3.505	0.100
580.500	6.644	0.100
580.600	0.410	0.100
580.700	0.079	0.100
580.800	-2.260	0.100
580.900	-0.081	0.100
581.000	0.317	0.100
581.100	-5.629	0.100
581.200	-0.559	0.100
581.300	-2.852	0.100
581.400	-0.302	0.100
581.500	-8.544	0.100
581.600	-1.501	0.100
581.700	-1.718	0.100
581.800	-4.788	0.100
581.900	-9.171	0.100
582.000	1.147	0.100
582.100	-4.782	0.100
582.200	-1.930	0.100
582.300	1.576	0.100
582.400	6.811	0.100
582.500	-4.060	0.100
582.600	-5.697	0.100
582.700	-2.590	0.100
582.800	-7.400	0.100
582.900	-0.166	0.100
583.000	-5.795	0.100
583.100	-6.005	0.100
583.200	-0.305	0.100
583.300	-0.696	0.100
583.400	0.722	0.100
583.500	1.704	0.100
583.600	-1.239	0.100
583.700	-4.109	0.100
583.800	-8.761	0.100
583.900	-8.717	0.100
584.000	-5.163	0.100
584.100	-1.176	0.100
584.200	-1.393	0.100
584.300	7.329	0.100
584.400	3.524	0.100
584.500	3.229	0.100
584.600	-6.143	0.100
584.700	0.712	0.100
584.800	-9.080	0.100
584.900	-11.429	0.100
585.000	-1.511	0.100
585.100	3.682	0.100
585.200	-4.844	0.100
585.300	-1.987	0.100
585.400	1.467	0.100
585.500	-2.581	0.100
585.600	-9.050	0.100
585.700	-8.616	0.100
585.800	-13.548	0.100
585.900	-0.724	0.100
586.000	-7.885	0.100
586.100	-10.936	0.100
586.200	-8.615	0.100
586.300	-4.968	0.100
586.400	-5.676	0.100
586.500	-4.638	0.100
586.600	-9.637	0.100
586.700	0.430	0.100
586.800	-9.200	0.100
586.900	3.163	0.100
587.000	-5.710	0.100
587.100	-4.647	0.100
587.200	-3.500	0.100
587.300	-13.577	0.100
587.400	-19.546	0.100
587.500	-3.904	0.100
587.600	0.053	0.100
587.700	-4.541	0.100
587.800	2.624	0.100
587.900	-2.090	0.100
588.000	-3.667	0.100
588.100	-7.422	0.100
588.200	-12.617	0.100
588.300	2.601	0.100
588.400	-0.169	0.100
588.500	-1.118	0.100
588.600	-4.522	0.100
588.700	-4.208	0.100
588.800	-11.634	0.100
588.900	-10.882	0.100
589.000	-5.565	0.100
589.100	-4.085	0.100
589.200	3.994	0.100
589.300	-1.267	0.100
589.400	-6.749	0.100
589.500	-9.442	0.100
589.600	0.340	0.100
589.700	-9.176	0.100
589.800	-7.078	0.100
589.900	-4.576	0.100
590.000	-3.499	0.100
590.100	-14.052	0.100
590.200	-16.254	0.100
590.300	-6.427	0.100
590.400	-6.810	0.100
590.500	-3.943	0.100
590.600	-13.940	0.100
590.700	-9.901	0.100
590.800	-11.753	0.100
590.900	-7.273	0.100
591.000	-18.648	0.100
591.100	-4.143	0.100
591.200	-3.107	0.100
591.300	-7.592	0.100
591.400	-9.932	0.100
591.500	-11.347	0.100
591.600	-7.656	0.100
591.700	-8.933	0.100
591.800	6.610	0.100
591.900	4.149	0.100
592.000	-1.062	0.100
592.100	-5.219	0.100
592.200	2.297	0.100
592.300	-2.044	0.100
592.400	-7.264	0.100
592.500	0.064	0.100
592.600	0.586	0.100
592.700	-3.888	0.100
592.800	-12.456	0.100
592.900	-16.515	0.100
593.000	-18.703	0.100
593.100	-1.349	0.100
593.200	-6.480	0.100
593.300	-7.681	0.100
593.400	-4.181	0.100
593.500	-5.362	0.100
593.600	-4.816	0.100
593.700	-9.324	0.100
593.800	-13.829	0.100
593.900	-4.894	0.100
594.000	-12.394	0.100
594.100	-14.798	0.100
594.200	-12.692	0.100
594.300	-4.101	0.100
594.400	-7.932	0.100
594.500	-15.733	0.100
594.600	-20.961	0.100
594.700	-13.663	0.100
594.800	-10.946	0.100
594.900	-11.778	0.100
595.000	-12.421	0.100
595.100	-11.777	0.100
595.200	-10.189	0.100
595.300	-14.746	0.100
595.400	-18.587	0.100
595.500	-19.809	0.100
595.600	-11.366	0.100
595.700	-6.186	0.100
595.800	-9.496	0.100
595.900	-11.402	0.100
596.000	-11.330	0.100
596.100	-6.891	0.100
596.200	-18.280	0.100
596.300	-13.162	0.100
596.400	-14.180	0.100
596.500	-14.702	0.100
596.600	-6.948	0.100
596.700	-4.558	0.100
596.800	4.520	0.100
596.900	-5.429	0.100
597.000	-1.031	0.100
597.100	-2.879	0.100
597.200	-4.627	0.100
597.300	-11.399	0.100
597.400	-3.929	0.100
597.500	-3.704	0.100
597.600	-13.055	0.100
597.700	-9.117	0.100
597.800	-8.010	0.100
597.900	-9.101	0.100
598.000	-9.576	0.100
598.100	-14.814	0.100
598.200	-12.485	0.100
598.300	-6.742	0.100
598.400	-8.123	0.100
598.500	-7.761	0.100
598.600	-11.392	0.100
598.700	-8.406	0.100
598.800	-5.256	0.100
598.900	-1.075	0.100
599.000	-9.761	0.100
599.100	-13.796	0.100
599.200	-12.111	0.100
599.300	-14.889	0.100
599.400	-10.701	0.100
599.500	-9.546	0.100
599.600	-17.570	0.100
599.700	-14.645	0.100
599.800	-20.066	0.100
599.900	-15.026	0.100
600.000	-13.047	0.100
600.100	-5.743	0.100
600.200	-9.037	0.100
600.300	-15.766	0.100
600.400	-10.400	0.100
600.500	2.762	0.100
600.600	-6.174	0.100
600.700	-4.277	0.100
600.800	-10.620	0.100
600.900	-8.757	0.100
601.000	-8.165	0.100
601.100	-5.462	0.100
601.200	-9.582	0.100
601.300	-12.968	0.100
601.400	-8.308	0.100
601.500	-6.274	0.100
601.600	-8.593	0.100
601.700	-1.273	0.100
601.800	-14.679	0.100
601.900	-10.611	0.100
602.000	-17.672	0.100
602.100	-14.615	0.100
602.200	-9.826	0.100
602.300	-11.216	0.100
602.400	2.067	0.100
602.500	-4.263	0.100
602.600	-9.118	0.100
602.700	-14.713	0.100
602.800	-15.483	0.100
602.900	-17.653	0.100
603.000	-10.139	0.100
603.100	-6.133	0.100
603.200	-14.222	0.100
603.300	-12.740	0.100
603.400	-10.220	0.100
603.500	-9.557	0.100
603.600	-8.654	0.100
603.700	-5.775	0.100
603.800	-8.217	0.100
603.900	-9.351	0.100
604.000	-10.800	0.100
604.100	-8.803	0.100
604.200	-11.136	0.100
604.300	-8.159	0.100
604.400	-0.441	0.100
604.500	-5.172	0.100
604.600	-13.074	0.100
604.700	-12.565	0.100
604.800	-7.155	0.100
604.900	-7.106	0.100
605.000	-9.014	0.100
605.100	-7.006	0.100
605.200	-9.353	0.100
605.300	-13.571	0.100
605.400	-17.332	0.100
605.500	-11.387	0.100
605.600	-4.202	0.100
605.700	-6.333	0.100
605.800	-11.684	0.100
605.900	-10.227	0.100
606.000	-7.473	0.100
606.100	-17.040	0.100
606.200	-10.859	0.100
606.300	-16.541	0.100
606.400	-11.720	0.100
606.500	-2.195	0.100
606.600	-4.638	0.100
606.700	-4.841	0.100
606.800	-16.217	0.100
606.900	-8.891	0.100
607.000	-9.379	0.100
607.100	-10.501	0.100
607.200	-13.731	0.100
607.300	-11.400	0.100
607.400	-15.304	0.100
607.500	-14.600	0.100
607.600	-4.027	0.100
607.700	-8.669	0.100
607.800	-10.990	0.100
607.900	-12.033	0.100
608.000	-21.185	0.100
608.100	-12.067	0.100
608.200	-9.120	0.100
608.300	-7.492	0.100
608.400	-14.479	0.100
608.500	-13.352	0.100
608.600	-9.945	0.100
608.700	-15.281	0.100
608.800	-12.417	0.100
608.900	-9.724	0.100
609.000	-10.724	0.100
609.100	-15.848	0.100
609.200	-6.080	0.100
609.300	-15.735	0.100
609.400	-8.857	0.100
609.500	-9.737	0.100
609.600	-7.826	0.100
609.700	-4.735	0.100
609.800	-7.115	0.100
609.900	-12.149	0.100
610.000	-13.489	0.100
610.100	-8.803	0.100
610.200	-5.281	0.100
610.300	-11.311	0.100
610.400	-13.553	0.100
610.500	-5.070	0.100
610.600	-6.249	0.100
610.700	-11.062	0.100
610.800	-12.852	0.100
610.900	-14.641	0.100
611.000	-15.894	0.100
611.100	-12.100	0.100
611.200	-10.279	0.100
611.300	-16.829	0.100
611.400	-11.566	0.100
611.500	-24.539	0.100
611.600	-16.278	0.100
611.700	-17.715	0.100
611.800	-11.082	0.100
611.900	-11.337	0.100
612.000	-12.338	0.100
612.100	-10.679	0.100
612.200	-14.011	0.100
612.300	-21.042	0.100
612.400	-12.958	0.100
612.500	-7.883	0.100
612.600	-13.739	0.100
612.700	-10.237	0.100
612.800	-10.501	0.100
612.900	-10.939	0.100
613.000	-13.254	0.100
613.100	-9.394	0.100
613.200	-10.219	0.100
613.300	-12.511	0.100
613.400	-10.597	0.100
613.500	-14.160	0.100
613.600	-14.901	0.100
613.700	-8.189	0.100
613.800	-14.297	0.100
613.900	-17.801	0.100
614.000	-8.163	0.100
614.100	-14.547	0.100
614.200	0.548	0.100
614.300	-8.362	0.100
614.400	-13.440	0.100
614.500	-17.737	0.100
614.600	-20.667	0.100
614.700	-9.830	0.100
614.800	-10.587	0.100
614.900	-9.777	0.100
615.000	-11.568	0.100
615.100	-7.896	0.100
615.200	-4.835	0.100
615.300	-12.865	0.100
615.400	-10.806	0.100
615.500	-10.818	0.100
615.600	-11.116	0.100
615.700	-14.690	0.100
615.800	-4.544	0.100
615.900	-9.362	0.100
616.000	-8.689	0.100
616.100	-12.398	0.100
616.200	-18.233	0.100
616.300	-18.860	0.100
616.400	-11.777	0.100
616.500	-12.149	0.100
616.600	-11.550	0.100
616.700	-7.633	0.100
616.800	-16.604	0.100
616.900	-9.434	0.100
617.000	-9.635	0.100
617.100	-13.131	0.100
617.200	-11.361	0.100
617.300	-13.548	0.100
617.400	-13.145	0.100
617.500	-13.378	0.100
617.600	-13.289	0.100
617.700	-15.172	0.100
617.800	-11.172	0.100
617.900	-14.407	0.100
618.000	-10.336	0.100
618.100	-8.420	0.100
618.200	-10.454	0.100
618.300	-14.681	0.100
618.400	-9.535	0.100
618.500	-8.633	0.100
618.600	-6.770	0.100
618.700	-11.891	0.100
618.800	-12.998	0.100
618.900	-8.924	0.100
619.000	-12.438	0.100
619.100	-21.647	0.100
619.200	-15.098	0.100
619.300	-8.859	0.100
619.400	-3.602	0.100
619.500	-13.845	0.100
619.600	-14.637	0.100
619.700	-8.839	0.100
619.800	-12.958	0.100
619.900	-13.483	0.100
620.000	-10.587	0.100
620.100	-11.121	0.100
620.200	-9.239	0.100
620.300	-12.190	0.100
620.400	-12.502	0.100
620.500	-13.340	0.100
620.600	-16.097	0.100
620.700	-12.233	0.100
620.800	-13.054	0.100
620.900	-4.461	0.100
621.000	-14.942	0.100
621.100	-14.621	0.100
621.200	-12.347	0.100
621.300	-11.410	0.100
621.400	-13.972	0.100
621.500	-15.146	0.100
621.600	-1.848	0.100
621.700	-6.477	0.100
621.800	-14.687	0.100
621.900	-12.012	0.100
622.000	-8.305	0.100
622.100	-19.556	0.100
622.200	-17.232	0.100
622.300	-7.819	0.100
622.400	-17.089	0.100
622.500	-20.182	0.100
622.600	-16.640	0.100
622.700	-14.617	0.100
622.800	-15.365	0.100
622.900	-7.687	0.100
623.000	-4.870	0.100
623.100	-4.037	0.100
623.200	-17.292	0.100
623.300	-14.365	0.100
623.400	-7.950	0.100
623.500	-7.713	0.100
623.600	-10.843	0.100
623.700	-4.772	0.100
623.800	-15.808	0.100
623.900	-15.858	0.100
624.000	-5.909	0.100
624.100	-5.827	0.100
624.200	-12.015	0.100
624.300	-18.644	0.100
624.400	-18.402	0.100
624.500	-13.951	0.100
624.600	-16.079	0.100
624.700	-11.737	0.100
624.800	-16.928	0.100
624.900	-11.458	0.100
625.000	-10.787	0.100
625.100	-4.626	0.100
625.200	-7.282	0.100
625.300	-12.116	0.100
625.400	-15.943	0.100
625.500	-13.049	0.100
625.600	-14.761	0.100
625.700	-7.778	0.100
625.800	-10.654	0.100
625.900	-16.813	0.100
626.000	-7.039	0.100
626.100	-6.425	0.100
626.200	-18.145	0.100
626.300	-18.233	0.100
626.400	-14.543	0.100
626.500	-6.973	0.100
626.600	-11.433	0.100
626.700	-15.443	0.100
626.800	-14.720	0.100
626.900	-18.401	0.100
627.000	-7.868	0.100
627.100	-10.011	0.100
627.200	-9.045	0.100
627.300	-13.938	0.100
627.400	-15.648	0.100
627.500	-18.878	0.100
627.600	-17.046	0.100
627.700	-15.508	0.100
627.800	-11.862	0.100
627.900	-16.979	0.100
628.000	-19.329	0.100
628.100	-18.422	0.100
628.200	-7.401	0.100
628.300	-18.080	0.100
628.400	-14.969	0.100
628.500	-21.134	0.100
628.600	-8.257	0.100
628.700	-6.052	0.100
628.800	-4.059	0.100
628.900	-14.019	0.100
629.000	-13.188	0.100
629.100	-11.206	0.100
629.200	-9.530	0.100
629.300	-9.141	0.100
629.400	-11.999	0.100
629.500	-21.056	0.100
629.600	-10.112	0.100
629.700	-16.053	0.100
629.800	-15.136	0.100
629.900	-12.189	0.100
630.000	-12.377	0.100
630.100	-6.553	0.100
630.200	-10.815	0.100
630.300	-20.125	0.100
630.400	-14.082	0.100
630.500	-8.155	0.100
630.600	-8.512	0.100
630.700	-10.618	0.100
630.800	-11.626	0.100
630.900	-16.005	0.100
631.000	-11.590	0.100
631.100	-10.909	0.100
631.200	-13.082	0.100
631.300	-14.029	0.100
631.400	-13.495	0.100
631.500	-8.304	0.100
631.600	-10.722	0.100
631.700	-7.290	0.100
631.800	-11.735	0.100
631.900	-2.246	0.100
632.000	3.863	0.100
632.100	-8.099	0.100
632.200	-1.885	0.100
632.300	-6.990	0.100
632.400	-3.299	0.100
632.500	3.026	0.100
632.600	1.623	0.100
632.700	-0.740	0.100
632.800	-8.946	0.100
632.900	-6.245	0.100
633.000	12.414	0.100
633.100	-2.126	0.100
633.200	-2.749	0.100
633.300	3.236	0.100
633.400	-2.782	0.100
633.500	-0.649	0.100
633.600	-5.598	0.100
633.700	-7.236	0.100
633.800	2.786	0.100
633.900	0.587	0.100
634.000	6.224	0.100
634.100	3.819	0.100
634.200	5.635	0.100
634.300	2.130	0.100
634.400	7.275	0.100
634.500	5.627	0.100
634.600	1.699	0.100
634.700	10.854	0.100
634.800	10.915	0.100
634.900	-2.531	0.100
635.000	9.993	0.100
635.100	6.948	0.100
635.200	9.022	0.100
635.300	7.554	0.100
635.400	2.608	0.100
635.500	4.474	0.100
635.600	-2.368	0.100
635.700	2.729	0.100
635.800	8.563	0.100
635.900	-0.899	0.100
636.000	-1.093	0.100
636.100	3.605	0.100
636.200	-0.245	0.100
636.300	11.524	0.100
636.400	5.712	0.100
636.500	7.547	0.100
636.600	7.206	0.100
636.700	-1.815	0.100
636.800	1.479	0.100
636.900	8.484	0.100
637.000	8.551	0.100
637.100	13.320	0.100
637.200	10.709	0.100
637.300	7.412	0.100
637.400	5.229	0.100
637.500	8.073	0.100
637.600	3.286	0.100
637.700	7.597	0.100
637.800	1.167	0.100
637.900	5.485	0.100
638.000	8.159	0.100
638.100	6.042	0.100
638.200	0.093	0.100
638.300	7.703	0.100
638.400	9.328	0.100
638.500	8.677	0.100
638.600	4.922	0.100
638.700	6.355	0.100
638.800	7.838	0.100
638.900	7.397	0.100
639.000	-1.984	0.100
639.100	3.761	0.100
639.200	5.848	0.100
639.300	11.496	0.100
639.400	17.184	0.100
639.500	8.334	0.100
639.600	10.349	0.100
639.700	10.120	0.100
639.800	5.209	0.100
639.900	8.052	0.100
640.000	9.003	0.100
640.100	0.763	0.100
640.200	-0.627	0.100
640.300	6.582	0.100
640.400	9.050	0.100
640.500	-0.711	0.100
640.600	6.693	0.100
640.700	14.218	0.100
640.800	8.895	0.100
640.900	4.289	0.100
641.000	15.109	0.100
641.100	13.767	0.100
641.200	9.033	0.100
641.300	15.013	0.100
641.400	3.288	0.100
641.500	13.115	0.100
641.600	14.207	0.100
641.700	6.305	0.100
641.800	20.617	0.100
641.900	15.080	0.100
642.000	21.013	0.100
642.100	-3.189	0.100
642.200	11.312	0.100
642.300	5.631	0.100
642.400	12.844	0.100
642.500	18.243	0.100
642.600	22.322	0.100
642.700	23.430	0.100
642.800	22.825	0.100
642.900	18.409	0.100
643.000	13.156	0.100
643.100	7.358	0.100
643.200	14.856	0.100
643.300	12.509	0.100
643.400	9.379	0.100
643.500	11.797	0.100
643.600	25.498	0.100
643.700	24.408	0.100
643.800	20.255	0.100
643.900	11.612	0.100
644.000	20.373	0.100
644.100	18.869	0.100
644.200	11.022	0.100
644.300	11.171	0.100
644.400	23.277	0.100
644.500	10.502	0.100
644.600	13.470	0.100
644.700	8.423	0.100
644.800	11.566	0.100
644.900	10.765	0.100
645.000	20.238	0.100
645.100	18.644	0.100
645.200	23.825	0.100
645.300	21.708	0.100
645.400	15.670	0.100
645.500	19.853	0.100
645.600	21.005	0.100
645.700	24.466	0.100
645.800	22.748	0.100
645.900	20.845	0.100
646.000	25.278	0.100
646.100	18.954	0.100
646.200	19.264	0.100
646.300	12.581	0.100
646.400	20.688	0.100
646.500	24.863	0.100
646.600	17.974	0.100
646.700	16.673	0.100
646.800	23.238	0.100
646.900	22.939	0.100
647.000	22.344	0.100
647.100	21.211	0.100
647.200	21.615	0.100
647.300	23.093	0.100
647.400	27.166	0.100
647.500	26.888	0.100
647.600	30.807	0.100
647.700	26.011	0.100
647.800	23.152	0.100
647.900	34.356	0.100
648.000	30.069	0.100
648.100	29.722	0.100
648.200	23.986	0.100
648.300	21.018	0.100
648.400	22.360	0.100
648.500	23.298	0.100
648.600	24.109	0.100
648.700	32.795	0.100
648.800	26.723	0.100
648.900	25.327	0.100
649.000	20.913	0.100
649.100	26.348	0.100
649.200	28.357	0.100
649.300	27.946	0.100
649.400	27.374	0.100
649.500	28.734	0.100
649.600	27.673	0.100
649.700	27.203	0.100
649.800	25.931	0.100
649.900	31.716	0.100
650.000	28.624	0.100
650.100	23.725	0.100
650.200	27.902	0.100
650.300	33.020	0.100
650.400	31.890	0.100
650.500	30.153	0.100
650.600	30.810	0.100
650.700	35.908	0.100
650.800	30.819	0.100
650.900	29.446	0.100
651.000	37.884	0.100
651.100	39.279	0.100
651.200	30.118	0.100
651.300	30.697	0.100
651.400	24.437	0.100
651.500	28.882	0.100
651.600	22.527	0.100
651.700	31.852	0.100
651.800	30.777	0.100
651.900	33.013	0.100
652.000	29.935	0.100
652.100	26.368	0.100
652.200	42.414	0.100
652.300	38.169	0.100
652.400	37.154	0.100
652.500	33.230	0.100
652.600	37.450	0.100
652.700	38.463	0.100
652.800	35.781	0.100
652.900	30.216	0.100
653.000	36.527	0.100
653.100	26.239	0.100
653.200	37.543	0.100
653.300	33.930	0.100
653.400	37.415	0.100
653.500	36.593	0.100
653.600	31.831	0.100
653.700	33.095	0.100
653.800	32.938	0.100
653.900	26.092	0.100
654.000	33.820	0.100
654.100	41.543	0.100
654.200	27.366	0.100
654.300	29.190	0.100
654.400	39.234	0.100
654.500	40.628	0.100
654.600	39.533	0.100
654.700	35.496	0.100
654.800	43.260	0.100
654.900	34.190	0.100
655.000	31.928	0.100
655.100	25.976	0.100
655.200	42.318	0.100
655.300	40.756	0.100
655.400	29.278	0.100
655.500	37.713	0.100
655.600	34.561	0.100
655.700	35.280	0.100
655.800	37.301	0.100
655.900	40.541	0.100
656.000	41.157	0.100
656.100	39.559	0.100
656.200	47.186	0.100
656.300	46.743	0.100
656.400	44.290	0.100
656.500	45.677	0.100
656.600	46.721	0.100
656.700	39.501	0.100
656.800	38.052	0.100
656.900	36.182	0.100
657.000	38.924	0.100
657.100	42.814	0.100
657.200	39.929	0.100
657.300	48.509	0.100
657.400	41.131	0.100
657.500	34.791	0.100
657.600	43.106	0.100
657.700	45.189	0.100
657.800	39.116	0.100
657.900	35.093	0.100
658.000	37.387	0.100
658.100	39.217	0.100
658.200	44.698	0.100
658.300	56.235	0.100
658.400	53.205	0.100
658.500	43.014	0.100
658.600	40.303	0.100
658.700	42.856	0.100
658.800	40.442	0.100
658.900	41.931	0.100
659.000	48.698	0.100
659.100	50.575	0.100
659.200	44.331	0.100
659.300	33.389	0.100
659.400	42.424	0.100
659.500	44.710	0.100
659.600	44.846	0.100
659.700	48.834	0.100
659.800	50.745	0.100
659.900	52.303	0.100
660.000	45.689	0.100
660.100	35.804	0.100
660.200	33.666	0.100
660.300	36.032	0.100
660.400	45.945	0.100
660.500	56.079	0.100
660.600	57.674	0.100
660.700	50.163	0.100
660.800	47.347	0.100
660.900	50.162	0.100
661.000	47.772	0.100
661.100	46.677	0.100
661.200	42.709	0.100
661.300	47.554	0.100
661.400	48.740	0.100
661.500	43.410	0.100
661.600	45.911	0.100
661.700	46.934	0.100
661.800	52.623	0.100
661.900	46.718	0.100
662.000	45.187	0.100
662.100	52.428	0.100
662.200	48.950	0.100
662.300	54.527	0.100
662.400	43.704	0.100
662.500	49.555	0.100
662.600	44.692	0.100
662.700	50.776	0.100
662.800	47.727	0.100
662.900	44.094	0.100
663.000	50.983	0.100
663.100	51.202	0.100
663.200	45.932	0.100
663.300	41.429	0.100
663.400	49.757	0.100
663.500	56.629	0.100
663.600	56.335	0.100
663.700	52.816	0.100
663.800	46.584	0.100
663.900	50.256	0.100
664.000	48.675	0.100
664.100	48.906	0.100
664.200	46.704	0.100
664.300	52.934	0.100
664.400	51.047	0.100
664.500	41.366	0.100
664.600	47.214	0.100
664.700	57.563	0.100
664.800	54.685	0.100
664.900	47.891	0.100
665.000	58.287	0.100
665.100	56.906	0.100
665.200	52.316	0.100
665.300	52.706	0.100
665.400	47.703	0.100
665.500	50.090	0.100
665.600	45.497	0.100
665.700	50.326	0.100
665.800	53.160	0.100
665.900	51.649	0.100
666.000	43.468	0.100
666.100	60.199	0.100
666.200	47.267	0.100
666.300	55.514	0.100
666.400	51.305	0.100
666.500	47.385	0.100
666.600	60.951	0.100
666.700	58.639	0.100
666.800	56.372	0.100
666.900	47.091	0.100
667.000	50.016	0.100
667.100	55.423	0.100
667.200	49.812	0.100
667.300	53.514	0.100
667.400	63.369	0.100
667.500	50.528	0.100
667.600	49.931	0.100
667.700	57.750	0.100
667.800	57.746	0.100
667.900	56.749	0.100
668.000	56.968	0.100
668.100	53.833	0.100
668.200	51.338	0.100
668.300	48.195	0.100
668.400	55.177	0.100
668.500	63.851	0.100
668.600	55.764	0.100
668.700	54.536	0.100
668.800	54.767	0.100
668.900	54.795	0.100
669.000	57.616	0.100
669.100	59.799	0.100
669.200	52.373	0.100
669.300	45.395	0.100
669.400	62.181	0.100
669.500	56.512	0.100
669.600	58.615	0.100
669.700	58.528	0.100
669.800	51.460	0.100
669.900	53.578	0.100
670.000	52.911	0.100
670.100	57.978	0.100
670.200	57.221	0.100
670.300	56.394	0.100
670.400	57.963	0.100
670.500	56.821	0.100
670.600	57.309	0.100
670.700	60.454	0.100
670.800	57.621	0.100
670.900	53.788	0.100
671.000	59.754	0.100
671.100	52.759	0.100
671.200	53.571	0.100
671.300	56.136	0.100
671.400	60.154	0.100
671.500	63.239	0.100
671.600	60.500	0.100
671.700	58.599	0.100
671.800	53.951	0.100
671.900	50.184	0.100
672.000	51.886	0.100
672.100	53.264	0.100
672.200	48.264	0.100
672.300	54.515	0.100
672.400	50.866	0.100
672.500	54.065	0.100
672.600	60.149	0.100
672.700	56.869	0.100
672.800	59.133	0.100
672.900	61.015	0.100
673.000	54.197	0.100
673.100	57.462	0.100
673.200	60.917	0.100
673.300	55.404	0.100
673.400	61.558	0.100
673.500	62.297	0.100
673.600	59.565	0.100
673.700	59.334	0.100
673.800	55.804	0.100
673.900	55.656	0.100
674.000	59.161	0.100
674.100	56.044	0.100
674.200	54.080	0.100
674.300	59.757	0.100
674.400	56.310	0.100
674.500	53.774	0.100
674.600	58.940	0.100
674.700	64.158	0.100
674.800	61.975	0.100
674.900	60.674	0.100
675.000	53.249	0.100
675.100	56.819	0.100
675.200	60.139	0.100
675.300	62.287	0.100
675.400	60.324	0.100
675.500	53.741	0.100
675.600	49.217	0.100
675.700	52.288	0.100
675.800	51.901	0.100
675.900	56.859	0.100
676.000	61.049	0.100
676.100	69.642	0.100
676.200	56.021	0.100
676.300	66.352	0.100
676.400	65.246	0.100
676.500	57.965	0.100
676.600	64.711	0.100
676.700	59.089	0.100
676.800	62.089	0.100
676.900	61.680	0.100
677.000	54.341	0.100
677.100	52.604	0.100
677.200	64.934	0.100
677.300	54.129	0.100
677.400	49.584	0.100
677.500	52.236	0.100
677.600	53.815	0.100
677.700	61.262	0.100
677.800	57.706	0.100
677.900	62.142	0.100
678.000	60.071	0.100
678.100	49.096	0.100
678.200	53.510	0.100
678.300	59.265	0.100
678.400	56.790	0.100
678.500	58.994	0.100
678.600	54.589	0.100
678.700	61.884	0.100
678.800	70.161	0.100
678.900	60.147	0.100
679.000	47.410	0.100
679.100	56.671	0.100
679.200	59.799	0.100
679.300	63.185	0.100
679.400	64.969	0.100
679.500	58.463	0.100
679.600	56.209	0.100
679.700	51.741	0.100
679.800	56.620	0.100
679.900	63.201	0.100
680.000	64.241	0.100
680.100	61.645	0.100
680.200	62.354	0.100
680.300	64.121	0.100
680.400	56.246	0.100
680.500	53.804	0.100
680.600	63.343	0.100
680.700	60.961	0.100
680.800	62.021	0.100
680.900	58.122	0.100
681.000	54.394	0.100
681.100	50.193	0.100
681.200	64.774	0.100
681.300	62.439	0.100
681.400	55.683	0.100
681.500	59.748	0.100
681.600	59.685	0.100
681.700	62.250	0.100
681.800	57.199	0.100
681.900	60.703	0.100
682.000	61.417	0.100
682.100	68.854	0.100
682.200	58.284	0.100
682.300	52.919	0.100
682.400	64.600	0.100
682.500	59.114	0.100
682.600	60.814	0.100
682.700	63.141	0.100
682.800	57.785	0.100
682.900	64.848	0.100
683.000	61.485	0.100
683.100	62.604	0.100
683.200	64.054	0.100
683.300	61.637	0.100
683.400	61.252	0.100
683.500	57.573	0.100
683.600	53.632	0.100
683.700	53.808	0.100
683.800	50.683	0.100
683.900	62.594	0.100
684.000	56.339	0.100
684.100	64.306	0.100
684.200	61.706	0.100
684.300	57.963	0.100
684.400	48.726	0.100
684.500	63.372	0.100
684.600	55.619	0.100
684.700	57.957	0.100
684.800	58.902	0.100
684.900	59.383	0.100
685.000	60.731	0.100
685.100	54.419	0.100
685.200	56.377	0.100
685.300	63.730	0.100
685.400	54.848	0.100
685.500	58.753	0.100
685.600	51.950	0.100
685.700	52.903	0.100
685.800	60.699	0.100
685.900	57.830	0.100
686.000	58.187	0.100
686.100	64.773	0.100
686.200	61.499	0.100
686.300	62.588	0.100
686.400	53.018	0.100
686.500	58.097	0.100
686.600	58.805	0.100
686.700	68.962	0.100
686.800	57.964	0.100
686.900	52.506	0.100
687.000	61.663	0.100
687.100	59.551	0.100
687.200	59.270	0.100
687.300	56.741	0.100
687.400	50.058	0.100
687.500	52.836	0.100
687.600	61.536	0.100
687.700	67.167	0.100
687.800	65.644	0.100
687.900	64.874	0.100
688.000	68.287	0.100
688.100	59.916	0.100
688.200	61.934	0.100
688.300	57.307	0.100
688.400	58.060	0.100
688.500	55.855	0.100
688.600	58.360	0.100
688.700	58.604	0.100
688.800	53.343	0.100
688.900	65.193	0.100
689.000	52.431	0.100
689.100	58.521	0.100
689.200	55.412	0.100
689.300	58.730	0.100
689.400	61.804	0.100
689.500	59.305	0.100
689.600	60.779	0.100
689.700	52.684	0.100
689.800	50.038	0.100
689.900	61.361	0.100
690.000	59.291	0.100
690.100	52.349	0.100
690.200	62.652	0.100
690.300	53.320	0.100
690.400	61.159	0.100
690.500	50.946	0.100
690.600	56.442	0.100
690.700	56.069	0.100
690.800	50.086	0.100
690.900	64.493	0.100
691.000	62.120	0.100
691.100	60.196	0.100
691.200	54.342	0.100
691.300	61.785	0.100
691.400	51.801	0.100
691.500	47.104	0.100
691.600	40.532	0.100
691.700	46.200	0.100
691.800	52.584	0.100
691.900	53.081	0.100
692.000	51.020	0.100
692.100	60.978	0.100
692.200	55.106	0.100
692.300	53.569	0.100
692.400	47.898	0.100
692.500	56.398	0.100
692.600	51.684	0.100
692.700	48.034	0.100
692.800	39.214	0.100
692.900	43.053	0.100
693.000	35.738	0.100
693.100	45.061	0.100
693.200	38.281	0.100
693.300	45.682	0.100
693.400	37.621	0.100
693.500	42.201	0.100
693.600	47.361	0.100
693.700	47.558	0.100
693.800	51.694	0.100
693.900	42.495	0.100
694.000	48.681	0.100
694.100	40.275	0.100
694.200	39.700	0.100
694.300	31.334	0.100
694.400	33.734	0.100
694.500	38.167	0.100
694.600	29.609	0.100
694.700	36.891	0.100
694.800	43.652	0.100
694.900	35.631	0.100
695.000	42.625	0.100
695.100	39.664	0.100
695.200	43.143	0.100
695.300	37.007	0.100
695.400	46.882	0.100
695.500	39.094	0.100
695.600	33.585	0.100
695.700	36.599	0.100
695.800	30.635	0.100
695.900	29.754	0.100
696.000	32.603	0.100
696.100	31.731	0.100
696.200	29.025	0.100
696.300	35.683	0.100
696.400	30.879	0.100
696.500	29.676	0.100
696.600	35.557	0.100
696.700	29.095	0.100
696.800	28.014	0.100
696.900	27.161	0.100
697.000	28.236	0.100
697.100	30.181	0.100
697.200	29.288	0.100
697.300	36.550	0.100
697.400	27.665	0.100
697.500	30.104	0.100
697.600	30.543	0.100
697.700	28.707	0.100
697.800	37.220	0.100
697.900	32.767	0.100
698.000	31.625	0.100
698.100	18.882	0.100
698.200	26.652	0.100
698.300	31.196	0.100
698.400	23.073	0.100
698.500	17.615	0.100
698.600	24.633	0.100
698.700	22.810	0.100
698.800	35.455	0.100
698.900	29.009	0.100
699.000	31.612	0.100
699.100	23.237	0.100
699.200	20.311	0.100
699.300	27.275	0.100
699.400	24.373	0.100
699.500	27.713	0.100
699.600	24.521	0.100
699.700	27.780	0.100
699.800	30.755	0.100
699.900	30.819	0.100
700.000	31.133	0.100
700.100	33.621	0.100
700.200	23.951	0.100
700.300	27.803	0.100
700.400	19.007	0.100
700.500	18.867	0.100
700.600	19.572	0.100
700.700	26.699	0.100
700.800	29.761	0.100
700.900	27.381	0.100
701.000	29.142	0.100
701.100	20.977	0.100
701.200	21.282	0.100
701.300	14.149	0.100
701.400	23.709	0.100
701.500	20.753	0.100
701.600	20.988	0.100
701.700	20.827	0.100
701.800	24.946	0.100
701.900	24.972	0.100
702.000	22.421	0.100
702.100	25.487	0.100
702.200	22.932	0.100
702.300	22.877	0.100
702.400	11.342	0.100
702.500	21.483	0.100
702.600	24.019	0.100
702.700	20.535	0.100
702.800	26.646	0.100
702.900	14.011	0.100
703.000	24.896	0.100
703.100	17.399	0.100
703.200	20.570	0.100
703.300	16.332	0.100
703.400	18.811	0.100
703.500	20.163	0.100
703.600	17.694	0.100
703.700	25.256	0.100
703.800	19.255	0.100
703.900	19.598	0.100
704.000	17.302	0.100
704.100	26.099	0.100
704.200	24.720	0.100
704.300	25.245	0.100
704.400	23.575	0.100
704.500	20.439	0.100
704.600	13.933	0.100
704.700	9.965	0.100
704.800	12.187	0.100
704.900	18.584	0.100
705.000	21.031	0.100
705.100	26.162	0.100
705.200	20.591	0.100
705.300	18.204	0.100
705.400	13.222	0.100
705.500	14.269	0.100
705.600	15.787	0.100
705.700	27.164	0.100
705.800	22.795	0.100
705.900	13.874	0.100
706.000	22.950	0.100
706.100	12.685	0.100
706.200	11.219	0.100
706.300	19.587	0.100
706.400	21.293	0.100
706.500	17.943	0.100
706.600	19.766	0.100
706.700	14.931	0.100
706.800	10.705	0.100
706.900	6.479	0.100
707.000	8.434	0.100
707.100	16.675	0.100
707.200	22.037	0.100
707.300	18.296	0.100
707.400	12.242	0.100
707.500	9.940	0.100
707.600	6.681	0.100
707.700	12.968	0.100
707.800	25.895	0.100
707.900	26.789	0.100
708.000	22.204	0.100
708.100	19.163	0.100
708.200	14.232	0.100
708.300	17.592	0.100
708.400	17.442	0.100
708.500	14.062	0.100
708.600	21.404	0.100
708.700	18.794	0.100
708.800	13.634	0.100
708.900	6.733	0.100
709.000	9.118	0.100
709.100	6.447	0.100
709.200	6.317	0.100
709.300	10.277	0.100
709.400	16.727	0.100
709.500	23.237	0.100
709.600	17.309	0.100
709.700	19.934	0.100
709.800	19.590	0.100
709.900	19.758	0.100
710.000	5.434	0.100
710.100	3.984	0.100
710.200	3.841	0.100
710.300	16.620	0.100
710.400	15.229	0.100
710.500	12.300	0.100
710.600	14.330	0.100
710.700	11.687	0.100
710.800	11.502	0.100
710.900	8.126	0.100
711.000	12.480	0.100
711.100	17.850	0.100
711.200	7.902	0.100
711.300	15.728	0.100
711.400	17.169	0.100
711.500	12.367	0.100
711.600	14.716	0.100
711.700	9.687	0.100
711.800	16.414	0.100
711.900	11.600	0.100
712.000	9.083	0.100
712.100	15.475	0.100
712.200	12.280	0.100
712.300	7.715	0.100
712.400	8.584	0.100
712.500	10.247	0.100
712.600	6.492	0.100
712.700	8.308	0.100
712.800	12.727	0.100
712.900	8.106	0.100
713.000	8.453	0.100
713.100	2.145	0.100
713.200	17.141	0.100
713.300	8.524	0.100
713.400	8.085	0.100
713.500	14.307	0.100
713.600	10.815	0.100
713.700	6.439	0.100
713.800	10.513	0.100
713.900	14.572	0.100
714.000	16.660	0.100
714.100	15.331	0.100
714.200	8.433	0.100
714.300	11.903	0.100
714.400	10.105	0.100
714.500	-4.269	0.100
714.600	3.500	0.100
714.700	0.968	0.100
714.800	12.635	0.100
714.900	12.987	0.100
715.000	3.775	0.100
715.100	8.095	0.100
715.200	4.334	0.100
715.300	16.228	0.100
715.400	14.692	0.100
715.500	12.844	0.100
715.600	7.743	0.100
715.700	0.165	0.100
715.800	3.244	0.100
715.900	3.038	0.100
716.000	5.520	0.100
716.100	7.587	0.100
716.200	-0.813	0.100
716.300	3.473	0.100
716.400	10.298	0.100
716.500	3.229	0.100
716.600	10.621	0.100
716.700	-2.200	0.100
716.800	2.263	0.100
716.900	3.037	0.100
717.000	4.522	0.100
717.100	6.218	0.100
717.200	7.243	0.100
717.300	7.252	0.100
717.400	8.692	0.100
717.500	9.594	0.100
717.600	9.129	0.100
717.700	-0.733	0.100
717.800	5.255	0.100
717.900	3.092	0.100
718.000	8.781	0.100
718.100	8.127	0.100
718.200	2.401	0.100
718.300	11.897	0.100
718.400	7.304	0.100
718.500	8.393	0.100
718.600	8.292	0.100
718.700	8.662	0.100
718.800	5.485	0.100
718.900	3.114	0.100
719.000	1.340	0.100
719.100	7.276	0.100
719.200	4.139	0.100
719.300	5.662	0.100
719.400	-1.349	0.100
719.500	5.433	0.100
719.600	6.997	0.100
719.700	-1.473	0.100
719.800	-1.529	0.100
719.900	-0.156	0.100
720.000	3.678	0.100
720.100	1.289	0.100
720.200	8.819	0.100
720.300	6.126	0.100
720.400	-2.913	0.100
720.500	-0.997	0.100
720.600	6.386	0.100
720.700	2.730	0.100
720.800	-3.837	0.100
720.900	-0.302	0.100
721.000	8.440	0.100
721.100	8.801	0.100
721.200	6.385	0.100
721.300	1.258	0.100
721.400	-0.393	0.100
721.500	-5.299	0.100
721.600	-5.726	0.100
721.700	4.486	0.100
721.800	3.873	0.100
721.900	5.462	0.100
722.000	8.288	0.100
722.100	1.851	0.100
722.200	5.569	0.100
722.300	-7.770	0.100
722.400	-2.764	0.100
722.500	-0.762	0.100
722.600	3.138	0.100
722.700	-0.029	0.100
722.800	-5.101	0.100
722.900	2.678	0.100
723.000	5.544	0.100
723.100	3.234	0.100
723.200	4.910	0.100
723.300	2.401	0.100
723.400	4.366	0.100
723.500	-5.413	0.100
723.600	2.489	0.100
723.700	-1.807	0.100
723.800	2.555	0.100
723.900	1.846	0.100
724.000	5.018	0.100
724.100	1.352	0.100
724.200	1.357	0.100
724.300	0.368	0.100
724.400	-2.337	0.100
724.500	-2.173	0.100
724.600	4.741	0.100
724.700	-1.280	0.100
724.800	-1.250	0.100
724.900	-4.286	0.100
725.000	-0.087	0.100
725.100	-2.335	0.100
725.200	-3.076	0.100
725.300	6.996	0.100
725.400	-1.433	0.100
725.500	-4.371	0.100
725.600	-2.147	0.100
725.700	-2.786	0.100
725.800	-4.942	0.100
725.900	0.493	0.100
726.000	2.548	0.100
726.100	-3.729	0.100
726.200	-6.804	0.100
726.300	-0.399	0.100
726.400	-0.878	0.100
726.500	-2.541	0.100
726.600	2.397	0.100
726.700	0.263	0.100
726.800	-3.213	0.100
726.900	-13.089	0.100
727.000	3.494	0.100
727.100	2.525	0.100
727.200	-2.807	0.100
727.300	-8.849	0.100
727.400	-16.655	0.100
727.500	-2.775	0.100
727.600	-15.215	0.100
727.700	-2.611	0.100
727.800	5.151	0.100
727.900	-1.005	0.100
728.000	-13.372	0.100
728.100	-5.326	0.100
728.200	-2.074	0.100
728.300	-3.243	0.100
728.400	-3.709	0.100
728.500	-9.301	0.100
728.600	-4.250	0.100
728.700	-0.457	0.100
728.800	-3.130	0.100
728.900	-0.971	0.100
729.000	-11.650	0.100
729.100	-8.689	0.100
729.200	-5.021	0.100
729.300	-4.802	0.100
729.400	3.520	0.100
729.500	5.215	0.100
729.600	4.936	0.100
729.700	-1.199	0.100
729.800	-2.945	0.100
729.900	-10.637	0.100
730.000	-14.036	0.100
730.100	-2.136	0.100
730.200	-7.035	0.100
730.300	-15.752	0.100
730.400	6.139	0.100
730.500	-1.290	0.100
730.600	-8.951	0.100
730.700	-3.693	0.100
730.800	-3.762	0.100
730.900	-11.265	0.100
731.000	-1.347	0.100
731.100	6.018	0.100
731.200	1.315	0.100
731.300	-7.930	0.100
731.400	-3.097	0.100
731.500	-5.631	0.100
731.600	-3.270	0.100
731.700	-8.245	0.100
731.800	-4.908	0.100
731.900	-12.921	0.100
732.000	-10.777	0.100
732.100	-0.889	0.100
732.200	-2.425	0.100
732.300	-9.918	0.100
732.400	-5.120	0.100
732.500	-2.410	0.100
732.600	0.998	0.100
732.700	-1.289	0.100
732.800	-0.224	0.100
732.900	-6.524	0.100
733.000	-4.570	0.100
733.100	2.484	0.100
733.200	-5.312	0.100
733.300	-13.860	0.100
733.400	-13.562	0.100
733.500	-4.226	0.100
733.600	-4.635	0.100
733.700	-2.091	0.100
733.800	-13.177	0.100
733.900	-16.993	0.100
734.000	-13.043	0.100
734.100	0.434	0.100
734.200	-6.683	0.100
734.300	-15.351	0.100
734.400	-11.399	0.100
734.500	-5.457	0.100
734.600	-4.425	0.100
734.700	-4.991	0.100
734.800	-7.481	0.100
734.900	-6.414	0.100
735.000	-4.868	0.100
735.100	-9.221	0.100
735.200	-1.863	0.100
735.300	-5.751	0.100
735.400	-11.219	0.100
735.500	-15.210	0.100
735.600	-5.555	0.100
735.700	-6.092	0.100
735.800	-1.292	0.100
735.900	-4.726	0.100
736.000	-4.833	0.100
736.100	-8.034	0.100
736.200	-16.224	0.100
736.300	-15.316	0.100
736.400	-8.061	0.100
736.500	-11.924	0.100
736.600	-12.844	0.100
736.700	-6.137	0.100
736.800	-3.443	0.100
736.900	-12.459	0.100
737.000	-8.250	0.100
737.100	-9.823	0.100
737.200	-6.248	0.100
737.300	-2.656	0.100
737.400	-11.321	0.100
737.500	-13.189	0.100
737.600	-6.713	0.100
737.700	-3.541	0.100
737.800	-14.312	0.100
737.900	-14.957	0.100
738.000	-5.719	0.100
738.100	-8.094	0.100
738.200	-13.735	0.100
738.300	-18.979	0.100
738.400	-10.597	0.100
738.500	-14.790	0.100
738.600	-4.925	0.100
738.700	-6.280	0.100
738.800	-14.144	0.100
738.900	-9.922	0.100
739.000	-7.617	0.100
739.100	-10.352	0.100
739.200	-20.919	0.100
739.300	-9.238	0.100
739.400	-15.632	0.100
739.500	-6.643	0.100
739.600	-12.018	0.100
739.700	-14.597	0.100
739.800	-15.383	0.100
739.900	-3.101	0.100
740.000	-15.140	0.100
740.100	-18.097	0.100
740.200	-13.562	0.100
740.300	-14.787	0.100
740.400	-4.328	0.100
740.500	-4.362	0.100
740.600	-1.048	0.100
740.700	-13.241	0.100
740.800	-8.476	0.100
740.900	-15.141	0.100
741.000	-12.334	0.100
741.100	-7.527	0.100
741.200	-10.666	0.100
741.300	-13.316	0.100
741.400	-14.603	0.100
741.500	-22.732	0.100
741.600	-16.495	0.100
741.700	-9.080	0.100
741.800	-15.996	0.100
741.900	-8.951	0.100
742.000	-12.486	0.100
742.100	-16.700	0.100
742.200	-20.805	0.100
742.300	-8.818	0.100
742.400	-12.681	0.100
742.500	-8.685	0.100
742.600	-9.427	0.100
742.700	-4.820	0.100
742.800	-5.363	0.100
742.900	-9.872	0.100
743.000	-12.728	0.100
743.100	-12.453	0.100
743.200	-14.986	0.100
743.300	-9.280	0.100
743.400	-4.433	0.100
743.500	-7.714	0.100
743.600	-11.563	0.100
743.700	-12.959	0.100
743.800	-3.938	0.100
743.900	-8.264	0.100
744.000	-20.246	0.100
744.100	-18.348	0.100
744.200	-20.896	0.100
744.300	-20.629	0.100
744.400	-10.717	0.100
744.500	-14.059	0.100
744.600	-9.656	0.100
744.700	-7.758	0.100
744.800	-11.420	0.100
744.900	-12.832	0.100
745.000	-19.936	0.100
745.100	-17.704	0.100
745.200	-18.612	0.100
745.300	-18.425	0.100
745.400	-6.945	0.100
745.500	-9.020	0.100
745.600	-11.209	0.100
745.700	-10.913	0.100
745.800	-8.263	0.100
745.900	-21.708	0.100
746.000	-14.879	0.100
746.100	-13.876	0.100
746.200	-11.598	0.100
746.300	-10.488	0.100
746.400	-12.691	0.100
746.500	-15.970	0.100
746.600	-11.790	0.100
746.700	-10.532	0.100
746.800	-12.697	0.100
746.900	-12.071	0.100
747.000	-15.803	0.100
747.100	-14.853	0.100
747.200	-14.796	0.100
747.300	-17.323	0.100
747.400	-5.864	0.100
747.500	-10.175	0.100
747.600	-6.737	0.100
747.700	-12.726	0.100
747.800	-17.197	0.100
747.900	-9.620	0.100
748.000	-19.572	0.100
748.100	-9.349	0.100
748.200	-16.055	0.100
748.300	-14.203	0.100
748.400	-13.162	0.100
748.500	-16.245	0.100
748.600	-14.546	0.100
748.700	-21.963	0.100
748.800	-8.335	0.100
748.900	-12.561	0.100
749.000	-9.370	0.100
749.100	-9.564	0.100
749.200	-14.933	0.100
749.300	-19.812	0.100
749.400	-16.827	0.100
749.500	-10.045	0.100
749.600	-13.937	0.100
749.700	-10.564	0.100
749.800	-11.897	0.100
749.900	-17.890	0.100
750.000	-13.493	0.100
750.100	-10.368	0.100
750.200	-14.897	0.100
750.300	-14.936	0.100
750.400	-14.174	0.100
750.500	-17.684	0.100
750.600	-14.728	0.100
750.700	-16.189	0.100
750.800	-14.834	0.100
750.900	-25.311	0.100
751.000	-12.224	0.100
751.100	-8.609	0.100
751.200	-10.457	0.100
751.300	-17.129	0.100
751.400	-14.140	0.100
751.500	-20.401	0.100
751.600	-14.358	0.100
751.700	-15.107	0.100
751.800	-10.307	0.100
751.900	-15.361	0.100
752.000	-10.392	0.100
752.100	-15.064	0.100
752.200	-16.783	0.100
752.300	-9.791	0.100
752.400	-15.953	0.100
752.500	-16.094	0.100
752.600	-22.588	0.100
752.700	-11.817	0.100
752.800	-12.366	0.100
752.900	-12.329	0.100
753.000	-15.996	0.100
753.100	-20.313	0.100
753.200	-15.752	0.100
753.300	-12.405	0.100
753.400	-12.350	0.100
753.500	-17.487	0.100
753.600	-15.385	0.100
753.700	-15.502	0.100
753.800	-16.565	0.100
753.900	-21.936	0.100
754.000	-8.641	0.100
754.100	-18.815	0.100
754.200	-12.113	0.100
754.300	-8.127	0.100
754.400	-11.788	0.100
754.500	-16.053	0.100
754.600	-13.252	0.100
754.700	-19.578	0.100
754.800	-18.412	0.100
754.900	-17.755	0.100
755.000	-12.864	0.100
755.100	-23.789	0.100
755.200	-18.914	0.100
755.300	-20.267	0.100
755.400	-11.474	0.100
755.500	-14.429	0.100
755.600	-15.512	0.100
755.700	-24.745	0.100
755.800	-21.311	0.100
755.900	-21.210	0.100
756.000	-14.852	0.100
756.100	-10.879	0.100
756.200	-10.161	0.100
756.300	-15.138	0.100
756.400	-16.659	0.100
756.500	-11.368	0.100
756.600	-18.483	0.100
756.700	-15.115	0.100
756.800	-15.825	0.100
756.900	-13.575	0.100
757.000	-22.409	0.100
757.100	-19.325	0.100
757.200	-18.478	0.100
757.300	-20.296	0.100
757.400	-7.556	0.100
757.500	-15.352	0.100
757.600	-14.123	0.100
757.700	-20.402	0.100
757.800	-14.190	0.100
757.900	-14.039	0.100
758.000	-8.113	0.100
758.100	-15.419	0.100
758.200	-8.495	0.100
758.300	-13.579	0.100
758.400	-24.234	0.100
758.500	-16.195	0.100
758.600	-31.323	0.100
758.700	-18.091	0.100
758.800	-23.521	0.100
758.900	-17.042	0.100
759.000	-12.727	0.100
759.100	-5.351	0.100
759.200	-8.816	0.100
759.300	-16.029	0.100
759.400	-20.673	0.100
759.500	-17.752	0.100
759.600	-20.914	0.100
759.700	-25.217	0.100
759.800	-10.943	0.100
759.900	-17.880	0.100
760.000	-17.819	0.100
760.100	-17.364	0.100
760.200	-16.772	0.100
760.300	-12.620	0.100
760.400	-17.484	0.100
760.500	-13.010	0.100
760.600	-21.788	0.100
760.700	-12.328	0.100
760.800	-26.253	0.100
760.900	-20.085	0.100
761.000	-12.135	0.100
761.100	-15.152	0.100
761.200	-15.851	0.100
761.300	-15.429	0.100
761.400	-14.457	0.100
761.500	-18.098	0.100
761.600	-11.910	0.100
761.700	-16.310	0.100
761.800	-14.467	0.100
761.900	-13.569	0.100
762.000	-14.950	0.100
762.100	-15.996	0.100
762.200	-14.959	0.100
762.300	-20.937	0.100
762.400	-11.118	0.100
762.500	-12.192	0.100
762.600	-16.341	0.100
762.700	-11.201	0.100
762.800	-18.446	0.100
762.900	-24.042	0.100
763.000	-15.671	0.100
763.100	-18.986	0.100
763.200	-21.020	0.100
763.300	-16.755	0.100
763.400	-18.298	0.100
763.500	-18.596	0.100
763.600	-19.725	0.100
763.700	-10.214	0.100
763.800	-11.635	0.100
763.900	-17.306	0.100
764.000	-15.635	0.100
764.100	-16.192	0.100
764.200	-17.326	0.100
764.300	-15.067	0.100
764.400	-21.829	0.100
764.500	-17.684	0.100
764.600	-19.651	0.100
764.700	-12.833	0.100
764.800	-12.251	0.100
764.900	-20.953	0.100
765.000	-17.936	0.100
765.100	-23.239	0.100
765.200	-15.780	0.100
765.300	-19.393	0.100
765.400	-20.995	0.100
765.500	-17.720	0.100
765.600	-9.785	0.100
765.700	-9.855	0.100
765.800	-17.549	0.100
765.900	-27.726	0.100
766.000	-19.674	0.100
766.100	-17.875	0.100
766.200	-18.731	0.100
766.300	-24.459	0.100
766.400	-19.044	0.100
766.500	-15.256	0.100
766.600	-11.037	0.100
766.700	-15.809	0.100
766.800	-13.925	0.100
766.900	-18.315	0.100
767.000	-20.530	0.100
767.100	-18.207	0.100
767.200	-18.753	0.100
767.300	-23.162	0.100
767.400	-23.503	0.100
767.500	-21.054	0.100
767.600	-14.388	0.100
767.700	-7.212	0.100
767.800	-10.435	0.100
767.900	-12.302	0.100
768.000	-21.882	0.100
768.100	-11.910	0.100
768.200	-18.434	0.100
768.300	-21.343	0.100
768.400	-13.140	0.100
768.500	-19.774	0.100
768.600	-18.236	0.100
768.700	-14.443	0.100
768.800	-23.682	0.100
768.900	-25.233	0.100
769.000	-26.044	0.100
769.100	-24.892	0.100
769.200	-19.664	0.100
769.300	-10.468	0.100
769.400	-25.741	0.100
769.500	-20.786	0.100
769.600	-16.536	0.100
769.700	-12.614	0.100
769.800	-14.837	0.100
769.900	-18.631	0.100
770.000	-19.204	0.100
770.100	-25.380	0.100
770.200	-18.492	0.100
770.300	-10.921	0.100
770.400	-14.078	0.100
770.500	-12.541	0.100
770.600	-23.558	0.100
770.700	-13.003	0.100
770.800	-25.096	0.100
770.900	-26.342	0.100
771.000	-19.996	0.100
771.100	-20.480	0.100
771.200	-13.752	0.100
771.300	-18.408	0.100
771.400	-9.394	0.100
771.500	-15.229	0.100
771.600	-15.975	0.100
771.700	-15.883	0.100
771.800	-12.580	0.100
771.900	-15.502	0.100
772.000	-23.936	0.100
772.100	-19.198	0.100
772.200	-18.229	0.100
772.300	-17.205	0.100
772.400	-17.559	0.100
772.500	-24.406	0.100
772.600	-21.609	0.100
772.700	-29.370	0.100
772.800	-16.358	0.100
772.900	-14.215	0.100
773.000	-20.007	0.100
773.100	-22.948	0.100
773.200	-4.720	0.100
773.300	-13.304	0.100
773.400	-20.693	0.100
773.500	-19.182	0.100
773.600	-21.589	0.100
773.700	-21.926	0.100
773.800	-16.650	0.100
773.900	-14.063	0.100
774.000	-15.126	0.100
774.100	-16.305	0.100
774.200	-13.557	0.100
774.300	-14.382	0.100
774.400	-20.603	0.100
774.500	-16.957	0.100
774.600	-14.386	0.100
774.700	-12.116	0.100
774.800	-29.652	0.100
774.900	-21.508	0.100
775.000	-8.804	0.100
775.100	-13.323	0.100
775.200	-18.272	0.100
775.300	-19.807	0.100
775.400	-23.999	0.100
775.500	-14.505	0.100
775.600	-25.254	0.100
775.700	-18.720	0.100
775.800	-10.176	0.100
775.900	-10.252	0.100
776.000	-15.790	0.100
776.100	-20.857	0.100
776.200	-20.036	0.100
776.300	-20.534	0.100
776.400	-14.554	0.100
776.500	-20.205	0.100
776.600	-10.239	0.100
776.700	-14.543	0.100
776.800	-12.938	0.100
776.900	-17.711	0.100
777.000	-18.005	0.100
777.100	-12.978	0.100
777.200	-10.237	0.100
777.300	-19.681	0.100
777.400	-17.169	0.100
777.500	-21.852	0.100
777.600	-16.477	0.100
777.700	-17.681	0.100
777.800	-15.587	0.100
777.900	-20.644	0.100
778.000	-30.309	0.100
778.100	-26.102	0.100
778.200	-27.983	0.100
778.300	-17.115	0.100
778.400	-10.671	0.100
778.500	-16.681	0.100
778.600	-11.272	0.100
778.700	-23.874	0.100
778.800	-17.338	0.100
778.900	-25.488	0.100
779.000	-25.942	0.100
779.100	-17.812	0.100
779.200	-15.215	0.100
779.300	-7.964	0.100
779.400	-22.770	0.100
779.500	-23.264	0.100
779.600	-16.900	0.100
779.700	-17.559	0.100
779.800	-14.560	0.100
779.900	-14.586	0.100
780.000	-13.485	0.100
780.100	-17.961	0.100
780.200	-20.661	0.100
780.300	-24.912	0.100
780.400	-18.984	0.100
780.500	-17.005	0.100
780.600	-17.898	0.100
780.700	-28.035	0.100
780.800	-23.738	0.100
780.900	-17.549	0.100
781.000	-12.188	0.100
781.100	-19.212	0.100
781.200	-16.589	0.100
781.300	-10.667	0.100
781.400	-13.437	0.100
781.500	-13.867	0.100
781.600	-17.105	0.100
781.700	-12.232	0.100
781.800	-10.762	0.100
781.900	-11.639	0.100
782.000	-14.328	0.100
782.100	-12.968	0.100
782.200	-6.730	0.100
782.300	-11.198	0.100
782.400	-9.635	0.100
782.500	-3.477	0.100
782.600	2.163	0.100
782.700	-1.540	0.100
782.800	-10.286	0.100
782.900	-15.708	0.100
783.000	-8.538	0.100
783.100	-5.323	0.100
783.200	-0.727	0.100
783.300	-0.922	0.100
783.400	-7.336	0.100
783.500	-12.998	0.100
783.600	-8.211	0.100
783.700	1.199	0.100
783.800	-0.364	0.100
783.900	-6.545	0.100
784.000	-4.679	0.100
784.100	-3.725	0.100
784.200	0.419	0.100
784.300	-7.182	0.100
784.400	0.132	0.100
784.500	-3.140	0.100
784.600	-2.151	0.100
784.700	-1.448	0.100
784.800	8.290	0.100
784.900	0.301	0.100
785.000	1.858	0.100
785.100	10.269	0.100
785.200	-0.533	0.100
785.300	2.933	0.100
785.400	-1.199	0.100
785.500	-2.006	0.100
785.600	5.563	0.100
785.700	-12.291	0.100
785.800	-11.702	0.100
785.900	-0.976	0.100
786.000	-6.868	0.100
786.100	0.116	0.100
786.200	-4.453	0.100
786.300	2.723	0.100
786.400	-4.740	0.100
786.500	-7.682	0.100
786.600	-7.415	0.100
786.700	-13.699	0.100
786.800	4.230	0.100
786.900	-4.286	0.100
787.000	-4.340	0.100
787.100	-1.659	0.100
787.200	-0.649	0.100
787.300	-2.503	0.100
787.400	-3.007	0.100
787.500	-0.968	0.100
787.600	-9.015	0.100
787.700	-0.009	0.100
787.800	-2.855	0.100
787.900	-1.830	0.100
788.000	-3.877	0.100
788.100	-1.605	0.100
788.200	-0.505	0.100
788.300	-1.201	0.100
788.400	-2.107	0.100
788.500	1.832	0.100
788.600	-8.868	0.100
788.700	-15.214	0.100
788.800	-7.090	0.100
788.900	-6.933	0.100
789.000	9.697	0.100
789.100	0.162	0.100
789.200	1.689	0.100
789.300	5.000	0.100
789.400	-4.701	0.100
789.500	-4.513	0.100
789.600	9.500	0.100
789.700	-1.786	0.100
789.800	-1.285	0.100
789.900	-3.900	0.100
790.000	-1.338	0.100
790.100	2.758	0.100
790.200	0.031	0.100
790.300	6.588	0.100
790.400	0.221	0.100
790.500	-2.318	0.100
790.600	3.346	0.100
790.700	2.797	0.100
790.800	-3.874	0.100
790.900	-3.065	0.100
791.000	-0.853	0.100
791.100	0.661	0.100
791.200	5.303	0.100
791.300	7.106	0.100
791.400	3.356	0.100
791.500	-2.085	0.100
791.600	0.627	0.100
791.700	7.670	0.100
791.800	-2.182	0.100
791.900	8.904	0.100
792.000	5.641	0.100
792.100	2.290	0.100
792.200	4.188	0.100
792.300	0.238	0.100
792.400	-2.698	0.100
792.500	11.347	0.100
792.600	5.186	0.100
792.700	3.557	0.100
792.800	7.902	0.100
792.900	7.369	0.100
793.000	6.102	0.100
793.100	6.682	0.100
793.200	12.605	0.100
793.300	10.306	0.100
793.400	14.732	0.100
793.500	7.216	0.100
793.600	9.009	0.100
793.700	12.115	0.100
793.800	5.486	0.100
793.900	4.214	0.100
794.000	15.639	0.100
794.100	15.491	0.100
794.200	3.142	0.100
794.300	2.030	0.100
794.400	15.130	0.100
794.500	9.582	0.100
794.600	11.655	0.100
794.700	7.826	0.100
794.800	12.044	0.100
794.900	14.600	0.100
795.000	19.542	0.100
795.100	14.777	0.100
795.200	16.396	0.100
795.300	14.101	0.100
795.400	21.765	0.100
795.500	9.092	0.100
795.600	25.003	0.100
795.700	11.619	0.100
795.800	13.476	0.100
795.900	12.238	0.100
796.000	7.943	0.100
796.100	5.826	0.100
796.200	12.176	0.100
796.300	14.344	0.100
796.400	13.179	0.100
796.500	7.668	0.100
796.600	5.953	0.100
796.700	6.555	0.100
796.800	16.111	0.100
796.900	20.394	0.100
797.000	15.015	0.100
797.100	21.559	0.100
797.200	31.825	0.100
797.300	21.036	0.100
797.400	18.421	0.100
797.500	11.383	0.100
797.600	9.125	0.100
797.700	26.384	0.100
797.800	20.668	0.100
797.900	18.519	0.100
798.000	17.831	0.100
798.100	7.843	0.100
798.200	19.828	0.100
798.300	16.150	0.100
798.400	22.223	0.100
798.500	9.757	0.100
798.600	17.259	0.100
798.700	16.279	0.100
798.800	18.785	0.100
798.900	30.090	0.100
799.000	26.553	0.100
799.100	27.142	0.100
799.200	24.930	0.100
799.300	24.171	0.100
799.400	29.143	0.100
799.500	20.992	0.100
799.600	21.971	0.100
799.700	19.733	0.100
799.800	24.981	0.100
799.900	28.593	0.100
800.000	21.442	0.100
