time /s	I /nA	E /V
0.100	-24.714	0.100
0.200	-19.549	0.100
0.300	-11.406	0.100
0.400	-15.425	0.100
0.500	-17.582	0.100
0.600	-18.909	0.100
0.700	-25.833	0.100
0.800	-24.115	0.100
0.900	-10.730	0.100
1.000	-20.962	0.100
1.100	-16.977	0.100
1.200	-11.704	0.100
1.300	-10.535	0.100
1.400	-14.070	0.100
1.500	-11.225	0.100
1.600	-12.833	0.100
1.700	-18.755	0.100
1.800	-31.074	0.100
1.900	-20.176	0.100
2.000	-14.276	0.100
2.100	-19.804	0.100
2.200	-13.395	0.100
2.300	-15.258	0.100
2.400	-14.775	0.100
2.500	-14.979	0.100
2.600	-25.600	0.100
2.700	-18.878	0.100
2.800	-15.160	0.100
2.900	-20.976	0.100
3.000	-27.165	0.100
3.100	-22.840	0.100
3.200	-8.551	0.100
3.300	-17.746	0.100
3.400	-19.012	0.100
3.500	-16.865	0.100
3.600	-21.896	0.100
3.700	-27.593	0.100
3.800	-23.908	0.100
3.900	-16.659	0.100
4.000	-10.498	0.100
4.100	-18.445	0.100
4.200	-11.922	0.100
4.300	-19.710	0.100
4.400	-10.386	0.100
4.500	-18.879	0.100
4.600	-17.873	0.100
4.700	-24.222	0.100
4.800	-13.944	0.100
4.900	-17.423	0.100
5.000	-20.847	0.100
5.100	-13.682	0.100
5.200	-16.961	0.100
5.300	-14.439	0.100
5.400	-14.020	0.100
5.500	-30.519	0.100
5.600	-31.441	0.100
5.700	-22.896	0.100
5.800	-21.394	0.100
5.900	-10.757	0.100
6.000	-11.658	0.100
6.100	-20.148	0.100
6.200	-19.916	0.100
6.300	-13.714	0.100
6.400	-19.581	0.100
6.500	-16.761	0.100
6.600	-11.686	0.100
6.700	-16.164	0.100
6.800	-23.362	0.100
6.900	-13.854	0.100
7.000	-16.209	0.100
7.100	-24.562	0.100
7.200	-24.679	0.100
7.300	-16.181	0.100
7.400	-14.844	0.100
7.500	-20.295	0.100
7.600	-10.530	0.100
7.700	-22.846	0.100
7.800	-20.966	0.100
7.900	-16.412	0.100
8.000	-19.563	0.100
8.100	-15.424	0.100
8.200	-14.452	0.100
8.300	-17.909	0.100
8.400	-12.665	0.100
8.500	-20.879	0.100
8.600	-25.027	0.100
8.700	-16.017	0.100
8.800	-15.233	0.100
8.900	-19.518	0.100
9.000	-20.923	0.100
9.100	-14.156	0.100
9.200	-20.070	0.100
9.300	-20.165	0.100
9.400	-23.206	0.100
9.500	-14.336	0.100
9.600	-16.359	0.100
9.700	-15.430	0.100
9.800	-18.972	0.100
9.900	-11.818	0.100
10.000	-15.672	0.100
10.100	-17.728	0.100
10.200	-20.503	0.100
10.300	-25.774	0.100
10.400	-16.880	0.100
10.500	-16.363	0.100
10.600	-15.419	0.100
10.700	-15.063	0.100
10.800	-29.844	0.100
10.900	-19.745	0.100
11.000	-22.602	0.100
11.100	-24.902	0.100
11.200	-14.665	0.100
11.300	-14.397	0.100
11.400	-14.624	0.100
11.500	-20.917	0.100
11.600	-21.126	0.100
11.700	-22.390	0.100
11.800	-17.638	0.100
11.900	-9.114	0.100
12.000	-18.232	0.100
12.100	-17.759	0.100
12.200	-21.189	0.100
12.300	-17.312	0.100
12.400	-17.732	0.100
12.500	-14.788	0.100
12.600	-17.844	0.100
12.700	-20.247	0.100
12.800	-14.554	0.100
12.900	-13.333	0.100
13.000	-26.117	0.100
13.100	-20.697	0.100
13.200	-10.966	0.100
13.300	-25.453	0.100
13.400	-16.621	0.100
13.500	-10.798	0.100
13.600	-12.170	0.100
13.700	-20.456	0.100
13.800	-26.038	0.100
13.900	-16.533	0.100
14.000	-29.077	0.100
14.100	-7.833	0.100
14.200	-15.628	0.100
14.300	-24.210	0.100
14.400	-19.992	0.100
14.500	-6.582	0.100
14.600	-6.646	0.100
14.700	-14.834	0.100
14.800	-25.471	0.100
14.900	-20.609	0.100
15.000	-26.405	0.100
15.100	-16.020	0.100
15.200	-11.843	0.100
15.300	-15.684	0.100
15.400	-15.228	0.100
15.500	-24.027	0.100
15.600	-30.432	0.100
15.700	-11.977	0.100
15.800	-11.404	0.100
15.900	-17.950	0.100
16.000	-27.174	0.100
16.100	-14.605	0.100
16.200	-19.767	0.100
16.300	-3.335	0.100
16.400	-11.784	0.100
16.500	-22.198	0.100
16.600	-16.854	0.100
16.700	-12.988	0.100
16.800	-12.295	0.100
16.900	-21.503	0.100
17.000	-14.906	0.100
17.100	-10.742	0.100
17.200	-8.773	0.100
17.300	-17.738	0.100
17.400	-22.358	0.100
17.500	-27.308	0.100
17.600	-14.879	0.100
17.700	-19.255	0.100
17.800	-14.201	0.100
17.900	-32.072	0.100
18.000	-21.084	0.100
18.100	-4.688	0.100
18.200	-17.140	0.100
18.300	-24.487	0.100
18.400	-19.649	0.100
18.500	-13.513	0.100
18.600	-15.727	0.100
18.700	-15.303	0.100
18.800	-17.822	0.100
18.900	-9.985	0.100
19.000	-12.954	0.100
19.100	-13.283	0.100
19.200	-21.009	0.100
19.300	-29.296	0.100
19.400	-14.616	0.100
19.500	-15.115	0.100
19.600	-27.023	0.100
19.700	-20.767	0.100
19.800	-18.354	0.100
19.900	-6.108	0.100
20.000	-14.566	0.100
20.100	-23.759	0.100
20.200	-11.810	0.100
20.300	-25.131	0.100
20.400	-16.942	0.100
20.500	-15.749	0.100
20.600	-3.043	0.100
20.700	-7.886	0.100
20.800	-13.394	0.100
20.900	-19.497	0.100
21.000	-26.458	0.100
21.100	-15.828	0.100
21.200	-21.329	0.100
21.300	-13.892	0.100
21.400	-19.649	0.100
21.500	-32.168	0.100
21.600	-18.203	0.100
21.700	-13.404	0.100
21.800	-11.316	0.100
21.900	-17.259	0.100
22.000	-18.083	0.100
22.100	-16.796	0.100
22.200	-18.366	0.100
22.300	-12.807	0.100
22.400	-11.598	0.100
22.500	-8.898	0.100
22.600	-12.857	0.100
22.700	-25.132	0.100
22.800	-13.421	0.100
22.900	-12.995	0.100
23.000	-22.191	0.100
23.100	-24.057	0.100
23.200	-26.831	0.100
23.300	-25.633	0.100
23.400	-11.504	0.100
23.500	-16.584	0.100
23.600	-13.945	0.100
23.700	-22.721	0.100
23.800	-13.349	0.100
23.900	-10.112	0.100
24.000	-15.812	0.100
24.100	-6.417	0.100
24.200	-15.251	0.100
24.300	-13.406	0.100
24.400	-10.820	0.100
24.500	-16.710	0.100
24.600	-7.989	0.100
24.700	-8.719	0.100
24.800	-13.451	0.100
24.900	-18.720	0.100
25.000	-12.209	0.100
25.100	-16.100	0.100
25.200	-14.544	0.100
25.300	-18.813	0.100
25.400	-19.527	0.100
25.500	-14.581	0.100
25.600	-24.079	0.100
25.700	-9.833	0.100
25.800	-20.684	0.100
25.900	-17.410	0.100
26.000	-16.216	0.100
26.100	-13.018	0.100
26.200	-23.528	0.100
26.300	-21.567	0.100
26.400	-15.447	0.100
26.500	-12.082	0.100
26.600	-4.824	0.100
26.700	-21.322	0.100
26.800	-14.915	0.100
26.900	-15.123	0.100
27.000	-30.910	0.100
27.100	-11.723	0.100
27.200	-18.285	0.100
27.300	-7.367	0.100
27.400	-15.882	0.100
27.500	-16.182	0.100
27.600	-20.819	0.100
27.700	-10.188	0.100
27.800	-9.841	0.100
27.900	-10.640	0.100
28.000	-19.835	0.100
28.100	-24.663	0.100
28.200	-18.632	0.100
28.300	-9.624	0.100
28.400	-7.007	0.100
28.500	-22.810	0.100
28.600	-25.987	0.100
28.700	-19.101	0.100
28.800	-17.819	0.100
28.900	-13.603	0.100
29.000	-13.506	0.100
29.100	-10.942	0.100
29.200	-16.397	0.100
29.300	-11.502	0.100
29.400	-21.410	0.100
29.500	-15.746	0.100
29.600	-14.375	0.100
29.700	-15.762	0.100
29.800	-15.326	0.100
29.900	-17.789	0.100
30.000	-17.992	0.100
30.100	-8.047	0.100
30.200	-8.219	0.100
30.300	-8.315	0.100
30.400	-15.281	0.100
30.500	-14.909	0.100
30.600	-7.049	0.100
30.700	-2.327	0.100
30.800	-10.434	0.100
30.900	3.416	0.100
31.000	-4.834	0.100
31.100	-5.812	0.100
31.200	-0.821	0.100
31.300	4.339	0.100
31.400	-3.974	0.100
31.500	0.087	0.100
31.600	-1.456	0.100
31.700	13.342	0.100
31.800	-0.883	0.100
31.900	6.760	0.100
32.000	6.423	0.100
32.100	1.166	0.100
32.200	-0.945	0.100
32.300	-6.794	0.100
32.400	1.877	0.100
32.500	-0.346	0.100
32.600	-14.539	0.100
32.700	3.899	0.100
32.800	2.629	0.100
32.900	2.666	0.100
33.000	0.969	0.100
33.100	0.328	0.100
33.200	12.037	0.100
33.300	12.878	0.100
33.400	15.432	0.100
33.500	0.814	0.100
33.600	2.532	0.100
33.700	-12.815	0.100
33.800	9.396	0.100
33.900	16.326	0.100
34.000	23.987	0.100
34.100	6.562	0.100
34.200	3.607	0.100
34.300	-2.462	0.100
34.400	11.982	0.100
34.500	5.888	0.100
34.600	13.458	0.100
34.700	8.156	0.100
34.800	3.933	0.100
34.900	-3.655	0.100
35.000	5.932	0.100
35.100	12.190	0.100
35.200	11.135	0.100
35.300	7.875	0.100
35.400	10.394	0.100
35.500	14.639	0.100
35.600	9.611	0.100
35.700	1.910	0.100
35.800	10.825	0.100
35.900	14.644	0.100
36.000	4.279	0.100
36.100	11.994	0.100
36.200	14.597	0.100
36.300	16.357	0.100
36.400	11.186	0.100
36.500	8.638	0.100
36.600	11.444	0.100
36.700	16.341	0.100
36.800	26.387	0.100
36.900	20.742	0.100
37.000	18.658	0.100
37.100	14.423	0.100
37.200	10.935	0.100
37.300	12.601	0.100
37.400	14.673	0.100
37.500	21.450	0.100
37.600	16.561	0.100
37.700	12.102	0.100
37.800	14.842	0.100
37.900	14.265	0.100
38.000	15.608	0.100
38.100	20.669	0.100
38.200	26.013	0.100
38.300	21.150	0.100
38.400	7.767	0.100
38.500	17.262	0.100
38.600	22.939	0.100
38.700	27.237	0.100
38.800	17.964	0.100
38.900	26.054	0.100
39.000	26.322	0.100
39.100	22.289	0.100
39.200	18.448	0.100
39.300	20.297	0.100
39.400	25.914	0.100
39.500	15.581	0.100
39.600	26.941	0.100
39.700	25.716	0.100
39.800	24.475	0.100
39.900	36.232	0.100
40.000	18.239	0.100
40.100	23.053	0.100
40.200	21.223	0.100
40.300	28.019	0.100
40.400	31.552	0.100
40.500	24.257	0.100
40.600	11.580	0.100
40.700	26.531	0.100
40.800	17.200	0.100
40.900	24.457	0.100
41.000	25.760	0.100
41.100	23.646	0.100
41.200	36.305	0.100
41.300	22.006	0.100
41.400	18.217	0.100
41.500	20.925	0.100
41.600	27.129	0.100
41.700	21.985	0.100
41.800	22.293	0.100
41.900	28.131	0.100
42.000	28.546	0.100
42.100	29.222	0.100
42.200	24.330	0.100
42.300	22.446	0.100
42.400	24.756	0.100
42.500	24.147	0.100
42.600	28.400	0.100
42.700	11.145	0.100
42.800	18.774	0.100
42.900	21.356	0.100
43.000	29.823	0.100
43.100	33.270	0.100
43.200	19.542	0.100
43.300	22.693	0.100
43.400	17.290	0.100
43.500	25.354	0.100
43.600	29.090	0.100
43.700	19.317	0.100
43.800	17.879	0.100
43.900	29.188	0.100
44.000	29.085	0.100
44.100	20.751	0.100
44.200	22.089	0.100
44.300	15.840	0.100
44.400	18.177	0.100
44.500	19.151	0.100
44.600	32.301	0.100
44.700	31.672	0.100
44.800	22.326	0.100
44.900	13.411	0.100
45.000	17.027	0.100
45.100	14.327	0.100
45.200	23.835	0.100
45.300	27.199	0.100
45.400	16.556	0.100
45.500	19.957	0.100
45.600	18.894	0.100
45.700	19.518	0.100
45.800	27.418	0.100
45.900	26.464	0.100
46.000	20.897	0.100
46.100	27.755	0.100
46.200	22.256	0.100
46.300	19.951	0.100
46.400	14.146	0.100
46.500	17.701	0.100
46.600	21.539	0.100
46.700	17.339	0.100
46.800	11.767	0.100
46.900	21.007	0.100
47.000	16.126	0.100
47.100	12.511	0.100
47.200	20.835	0.100
47.300	22.086	0.100
47.400	23.010	0.100
47.500	13.136	0.100
47.600	19.693	0.100
47.700	23.722	0.100
47.800	20.366	0.100
47.900	15.986	0.100
48.000	29.935	0.100
48.100	23.509	0.100
48.200	15.360	0.100
48.300	10.516	0.100
48.400	11.374	0.100
48.500	3.889	0.100
48.600	9.450	0.100
48.700	33.301	0.100
48.800	14.042	0.100
48.900	21.093	0.100
49.000	20.331	0.100
49.100	25.788	0.100
49.200	17.190	0.100
49.300	17.625	0.100
49.400	21.679	0.100
49.500	15.995	0.100
49.600	7.785	0.100
49.700	21.128	0.100
49.800	17.030	0.100
49.900	18.567	0.100
50.000	14.390	0.100
50.100	25.418	0.100
50.200	15.641	0.100
50.300	22.721	0.100
50.400	16.064	0.100
50.500	19.771	0.100
50.600	8.206	0.100
50.700	17.390	0.100
50.800	20.641	0.100
50.900	11.879	0.100
51.000	13.055	0.100
51.100	14.922	0.100
51.200	11.985	0.100
51.300	14.637	0.100
51.400	17.479	0.100
51.500	11.339	0.100
51.600	12.583	0.100
51.700	16.364	0.100
51.800	15.600	0.100
51.900	5.055	0.100
52.000	18.786	0.100
52.100	18.008	0.100
52.200	16.426	0.100
52.300	14.967	0.100
52.400	12.112	0.100
52.500	9.473	0.100
52.600	13.086	0.100
52.700	20.616	0.100
52.800	8.912	0.100
52.900	6.226	0.100
53.000	18.898	0.100
53.100	16.402	0.100
53.200	23.132	0.100
53.300	18.370	0.100
53.400	14.812	0.100
53.500	6.466	0.100
53.600	14.993	0.100
53.700	12.255	0.100
53.800	19.881	0.100
53.900	12.434	0.100
54.000	19.635	0.100
54.100	15.167	0.100
54.200	19.059	0.100
54.300	21.378	0.100
54.400	14.154	0.100
54.500	14.670	0.100
54.600	18.495	0.100
54.700	18.449	0.100
54.800	4.966	0.100
54.900	5.667	0.100
55.000	4.405	0.100
55.100	18.491	0.100
55.200	3.423	0.100
55.300	18.513	0.100
55.400	16.837	0.100
55.500	18.294	0.100
55.600	27.245	0.100
55.700	14.799	0.100
55.800	15.078	0.100
55.900	13.870	0.100
56.000	17.230	0.100
56.100	20.347	0.100
56.200	20.060	0.100
56.300	23.095	0.100
56.400	12.836	0.100
56.500	4.216	0.100
56.600	9.684	0.100
56.700	19.731	0.100
56.800	14.777	0.100
56.900	19.524	0.100
57.000	15.526	0.100
57.100	3.944	0.100
57.200	7.010	0.100
57.300	31.722	0.100
57.400	25.723	0.100
57.500	22.219	0.100
57.600	13.465	0.100
57.700	9.264	0.100
57.800	16.656	0.100
57.900	10.466	0.100
58.000	4.014	0.100
58.100	17.739	0.100
58.200	28.141	0.100
58.300	24.956	0.100
58.400	18.706	0.100
58.500	6.442	0.100
58.600	15.329	0.100
58.700	18.087	0.100
58.800	21.455	0.100
58.900	15.898	0.100
59.000	21.102	0.100
59.100	3.927	0.100
59.200	5.332	0.100
59.300	4.151	0.100
59.400	24.854	0.100
59.500	14.085	0.100
59.600	12.707	0.100
59.700	28.584	0.100
59.800	26.574	0.100
59.900	22.523	0.100
60.000	7.733	0.100
60.100	13.368	0.100
60.200	20.631	0.100
60.300	23.605	0.100
60.400	18.575	0.100
60.500	17.216	0.100
60.600	23.336	0.100
60.700	17.502	0.100
60.800	14.785	0.100
60.900	25.879	0.100
61.000	5.712	0.100
61.100	16.119	0.100
61.200	25.579	0.100
61.300	22.402	0.100
61.400	20.252	0.100
61.500	20.058	0.100
61.600	17.631	0.100
61.700	6.713	0.100
61.800	23.827	0.100
61.900	18.360	0.100
62.000	6.213	0.100
62.100	11.301	0.100
62.200	23.326	0.100
62.300	23.366	0.100
62.400	23.536	0.100
62.500	20.303	0.100
62.600	17.476	0.100
62.700	6.221	0.100
62.800	17.663	0.100
62.900	21.574	0.100
63.000	11.405	0.100
63.100	21.748	0.100
63.200	25.486	0.100
63.300	19.383	0.100
63.400	12.480	0.100
63.500	22.917	0.100
63.600	15.452	0.100
63.700	17.042	0.100
63.800	13.422	0.100
63.900	11.218	0.100
64.000	24.364	0.100
64.100	17.683	0.100
64.200	13.750	0.100
64.300	21.277	0.100
64.400	24.479	0.100
64.500	24.935	0.100
64.600	25.672	0.100
64.700	12.199	0.100
64.800	23.653	0.100
64.900	17.711	0.100
65.000	19.119	0.100
65.100	20.393	0.100
65.200	22.310	0.100
65.300	26.110	0.100
65.400	29.511	0.100
65.500	33.609	0.100
65.600	29.024	0.100
65.700	16.644	0.100
65.800	7.843	0.100
65.900	23.058	0.100
66.000	22.389	0.100
66.100	21.793	0.100
66.200	27.533	0.100
66.300	15.207	0.100
66.400	21.635	0.100
66.500	21.370	0.100
66.600	17.771	0.100
66.700	18.022	0.100
66.800	29.779	0.100
66.900	24.571	0.100
67.000	27.426	0.100
67.100	10.153	0.100
67.200	15.635	0.100
67.300	15.877	0.100
67.400	31.111	0.100
67.500	34.848	0.100
67.600	27.349	0.100
67.700	18.900	0.100
67.800	21.289	0.100
67.900	19.826	0.100
68.000	30.612	0.100
68.100	14.268	0.100
68.200	26.753	0.100
68.300	21.151	0.100
68.400	25.552	0.100
68.500	27.136	0.100
68.600	13.449	0.100
68.700	32.001	0.100
68.800	17.619	0.100
68.900	28.041	0.100
69.000	17.465	0.100
69.100	21.405	0.100
69.200	18.239	0.100
69.300	30.502	0.100
69.400	20.853	0.100
69.500	8.204	0.100
69.600	28.644	0.100
69.700	30.831	0.100
69.800	27.162	0.100
69.900	30.684	0.100
70.000	20.416	0.100
70.100	33.872	0.100
70.200	25.682	0.100
70.300	10.620	0.100
70.400	5.301	0.100
70.500	18.016	0.100
70.600	29.155	0.100
70.700	27.490	0.100
70.800	20.839	0.100
70.900	32.000	0.100
71.000	36.445	0.100
71.100	28.057	0.100
71.200	23.889	0.100
71.300	25.585	0.100
71.400	25.336	0.100
71.500	27.216	0.100
71.600	26.135	0.100
71.700	30.348	0.100
71.800	26.926	0.100
71.900	17.956	0.100
72.000	25.167	0.100
72.100	29.942	0.100
72.200	28.755	0.100
72.300	28.075	0.100
72.400	18.387	0.100
72.500	23.987	0.100
72.600	32.721	0.100
72.700	33.045	0.100
72.800	20.671	0.100
72.900	17.333	0.100
73.000	37.015	0.100
73.100	35.156	0.100
73.200	24.392	0.100
73.300	32.491	0.100
73.400	27.822	0.100
73.500	30.220	0.100
73.600	27.510	0.100
73.700	30.502	0.100
73.800	29.706	0.100
73.900	15.097	0.100
74.000	23.052	0.100
74.100	29.219	0.100
74.200	37.055	0.100
74.300	32.887	0.100
74.400	31.683	0.100
74.500	25.068	0.100
74.600	33.675	0.100
74.700	28.718	0.100
74.800	24.320	0.100
74.900	30.085	0.100
75.000	21.800	0.100
75.100	22.012	0.100
75.200	36.310	0.100
75.300	23.908	0.100
75.400	23.262	0.100
75.500	28.687	0.100
75.600	32.255	0.100
75.700	34.978	0.100
75.800	19.656	0.100
75.900	37.503	0.100
76.000	24.548	0.100
76.100	33.348	0.100
76.200	28.570	0.100
76.300	35.153	0.100
76.400	24.251	0.100
76.500	27.851	0.100
76.600	36.601	0.100
76.700	27.654	0.100
76.800	31.841	0.100
76.900	51.318	0.100
77.000	29.082	0.100
77.100	29.257	0.100
77.200	30.489	0.100
77.300	28.354	0.100
77.400	30.042	0.100
77.500	20.707	0.100
77.600	38.288	0.100
77.700	37.092	0.100
77.800	32.833	0.100
77.900	37.063	0.100
78.000	32.269	0.100
78.100	20.985	0.100
78.200	17.766	0.100
78.300	30.355	0.100
78.400	33.299	0.100
78.500	26.748	0.100
78.600	32.859	0.100
78.700	35.114	0.100
78.800	25.304	0.100
78.900	34.385	0.100
79.000	29.191	0.100
79.100	33.147	0.100
79.200	29.217	0.100
79.300	34.555	0.100
79.400	32.010	0.100
79.500	26.301	0.100
79.600	33.218	0.100
79.700	23.974	0.100
79.800	32.952	0.100
79.900	32.191	0.100
80.000	32.454	0.100
80.100	26.089	0.100
80.200	33.499	0.100
80.300	35.224	0.100
80.400	33.246	0.100
80.500	30.399	0.100
80.600	39.237	0.100
80.700	28.896	0.100
80.800	26.703	0.100
80.900	32.961	0.100
81.000	26.133	0.100
81.100	32.256	0.100
81.200	29.755	0.100
81.300	38.862	0.100
81.400	34.397	0.100
81.500	26.064	0.100
81.600	42.152	0.100
81.700	39.741	0.100
81.800	36.740	0.100
81.900	32.902	0.100
82.000	33.908	0.100
82.100	31.712	0.100
82.200	33.606	0.100
82.300	35.228	0.100
82.400	23.107	0.100
82.500	28.930	0.100
82.600	34.336	0.100
82.700	29.541	0.100
82.800	34.183	0.100
82.900	29.477	0.100
83.000	33.079	0.100
83.100	34.714	0.100
83.200	34.435	0.100
83.300	33.962	0.100
83.400	31.352	0.100
83.500	25.508	0.100
83.600	34.423	0.100
83.700	30.301	0.100
83.800	36.938	0.100
83.900	33.658	0.100
84.000	36.115	0.100
84.100	38.810	0.100
84.200	41.523	0.100
84.300	33.773	0.100
84.400	30.074	0.100
84.500	34.899	0.100
84.600	33.461	0.100
84.700	32.850	0.100
84.800	26.028	0.100
84.900	24.801	0.100
85.000	50.004	0.100
85.100	35.394	0.100
85.200	40.405	0.100
85.300	37.920	0.100
85.400	27.982	0.100
85.500	30.697	0.100
85.600	37.755	0.100
85.700	35.432	0.100
85.800	31.646	0.100
85.900	29.307	0.100
86.000	38.382	0.100
86.100	33.124	0.100
86.200	29.902	0.100
86.300	38.624	0.100
86.400	33.584	0.100
86.500	42.868	0.100
86.600	39.111	0.100
86.700	33.628	0.100
86.800	49.926	0.100
86.900	37.771	0.100
87.000	24.388	0.100
87.100	28.666	0.100
87.200	31.200	0.100
87.300	37.593	0.100
87.400	36.812	0.100
87.500	21.493	0.100
87.600	27.218	0.100
87.700	43.442	0.100
87.800	51.883	0.100
87.900	34.161	0.100
88.000	27.511	0.100
88.100	42.919	0.100
88.200	35.396	0.100
88.300	35.298	0.100
88.400	36.864	0.100
88.500	36.579	0.100
88.600	39.200	0.100
88.700	29.669	0.100
88.800	40.079	0.100
88.900	38.404	0.100
89.000	34.349	0.100
89.100	42.052	0.100
89.200	30.315	0.100
89.300	21.189	0.100
89.400	33.740	0.100
89.500	27.861	0.100
89.600	48.180	0.100
89.700	38.359	0.100
89.800	22.811	0.100
89.900	26.517	0.100
90.000	27.280	0.100
90.100	24.339	0.100
90.200	35.448	0.100
90.300	26.055	0.100
90.400	30.185	0.100
90.500	29.578	0.100
90.600	15.021	0.100
90.700	13.883	0.100
90.800	24.000	0.100
90.900	24.359	0.100
91.000	22.508	0.100
91.100	30.052	0.100
91.200	24.377	0.100
91.300	24.130	0.100
91.400	15.458	0.100
91.500	19.476	0.100
91.600	5.984	0.100
91.700	6.016	0.100
91.800	8.068	0.100
91.900	8.782	0.100
92.000	3.226	0.100
92.100	8.647	0.100
92.200	10.249	0.100
92.300	3.598	0.100
92.400	10.404	0.100
92.500	22.074	0.100
92.600	-3.050	0.100
92.700	9.666	0.100
92.800	-0.996	0.100
92.900	0.041	0.100
93.000	-4.013	0.100
93.100	2.983	0.100
93.200	-3.734	0.100
93.300	-6.779	0.100
93.400	5.525	0.100
93.500	-4.258	0.100
93.600	-3.575	0.100
93.700	3.023	0.100
93.800	-10.763	0.100
93.900	-6.020	0.100
94.000	-4.591	0.100
94.100	-4.695	0.100
94.200	-6.719	0.100
94.300	-6.789	0.100
94.400	-0.998	0.100
94.500	4.128	0.100
94.600	-4.269	0.100
94.700	-8.472	0.100
94.800	-10.215	0.100
94.900	-9.935	0.100
95.000	-1.537	0.100
95.100	7.579	0.100
95.200	-5.984	0.100
95.300	-11.976	0.100
95.400	-7.014	0.100
95.500	-5.639	0.100
95.600	-1.293	0.100
95.700	-3.222	0.100
95.800	-8.414	0.100
95.900	0.550	0.100
96.000	-14.850	0.100
96.100	-2.809	0.100
96.200	-3.369	0.100
96.300	-11.155	0.100
96.400	-6.755	0.100
96.500	-13.016	0.100
96.600	-5.298	0.100
96.700	-9.192	0.100
96.800	-8.498	0.100
96.900	4.599	0.100
97.000	-12.013	0.100
97.100	-6.554	0.100
97.200	-11.250	0.100
97.300	-5.524	0.100
97.400	-6.191	0.100
97.500	-6.784	0.100
97.600	1.755	0.100
97.700	-10.880	0.100
97.800	-3.609	0.100
97.900	-5.464	0.100
98.000	-10.743	0.100
98.100	-4.795	0.100
98.200	-4.127	0.100
98.300	-6.600	0.100
98.400	-0.254	0.100
98.500	-8.159	0.100
98.600	-8.212	0.100
98.700	-13.237	0.100
98.800	-7.963	0.100
98.900	-5.883	0.100
99.000	1.845	0.100
99.100	-4.844	0.100
99.200	-5.399	0.100
99.300	-6.218	0.100
99.400	-9.433	0.100
99.500	-6.792	0.100
99.600	14.354	0.100
99.700	6.069	0.100
99.800	4.629	0.100
99.900	-7.450	0.100
100.000	-6.224	0.100
100.100	-5.475	0.100
100.200	-2.485	0.100
100.300	-9.192	0.100
100.400	-5.889	0.100
100.500	0.050	0.100
100.600	4.033	0.100
100.700	2.726	0.100
100.800	-6.332	0.100
100.900	-3.744	0.100
101.000	-5.420	0.100
101.100	-14.109	0.100
101.200	-7.713	0.100
101.300	-11.993	0.100
101.400	6.069	0.100
101.500	-1.755	0.100
101.600	-2.047	0.100
101.700	-8.685	0.100
101.800	-9.328	0.100
101.900	-2.536	0.100
102.000	5.627	0.100
102.100	-5.994	0.100
102.200	-6.353	0.100
102.300	-9.550	0.100
102.400	2.148	0.100
102.500	3.526	0.100
102.600	1.715	0.100
102.700	3.722	0.100
102.800	1.158	0.100
102.900	-6.293	0.100
103.000	-6.774	0.100
103.100	6.027	0.100
103.200	1.948	0.100
103.300	-0.463	0.100
103.400	-0.113	0.100
103.500	-3.856	0.100
103.600	9.432	0.100
103.700	1.288	0.100
103.800	5.125	0.100
103.900	3.759	0.100
104.000	1.728	0.100
104.100	4.240	0.100
104.200	-1.755	0.100
104.300	-9.624	0.100
104.400	-5.581	0.100
104.500	-0.980	0.100
104.600	14.391	0.100
104.700	-7.452	0.100
104.800	-4.032	0.100
104.900	1.282	0.100
105.000	3.933	0.100
105.100	-7.800	0.100
105.200	-3.369	0.100
105.300	-2.105	0.100
105.400	-4.050	0.100
105.500	2.662	0.100
105.600	3.790	0.100
105.700	-6.432	0.100
105.800	-1.616	0.100
105.900	0.469	0.100
106.000	-3.286	0.100
106.100	-5.412	0.100
106.200	-9.785	0.100
106.300	-1.565	0.100
106.400	-5.980	0.100
106.500	-2.987	0.100
106.600	-2.174	0.100
106.700	0.720	0.100
106.800	1.368	0.100
106.900	2.579	0.100
107.000	8.562	0.100
107.100	2.131	0.100
107.200	10.913	0.100
107.300	9.138	0.100
107.400	1.581	0.100
107.500	-0.582	0.100
107.600	-5.585	0.100
107.700	-9.435	0.100
107.800	-10.344	0.100
107.900	1.058	0.100
108.000	14.516	0.100
108.100	3.707	0.100
108.200	-3.141	0.100
108.300	-5.886	0.100
108.400	-1.303	0.100
108.500	3.576	0.100
108.600	-6.183	0.100
108.700	-2.912	0.100
108.800	10.903	0.100
108.900	0.127	0.100
109.000	1.160	0.100
109.100	-8.953	0.100
109.200	-16.103	0.100
109.300	-4.749	0.100
109.400	2.013	0.100
109.500	-5.199	0.100
109.600	-0.106	0.100
109.700	5.086	0.100
109.800	1.051	0.100
109.900	-0.825	0.100
110.000	16.317	0.100
110.100	-4.793	0.100
110.200	-0.676	0.100
110.300	-3.039	0.100
110.400	1.209	0.100
110.500	8.104	0.100
110.600	-2.285	0.100
110.700	2.129	0.100
110.800	-9.338	0.100
110.900	-8.329	0.100
111.000	1.135	0.100
111.100	1.912	0.100
111.200	9.834	0.100
111.300	-5.203	0.100
111.400	-8.307	0.100
111.500	2.305	0.100
111.600	4.442	0.100
111.700	-0.275	0.100
111.800	-0.122	0.100
111.900	2.550	0.100
112.000	-8.995	0.100
112.100	-4.780	0.100
112.200	2.793	0.100
112.300	-1.710	0.100
112.400	8.491	0.100
112.500	-2.649	0.100
112.600	-0.411	0.100
112.700	-3.825	0.100
112.800	-2.191	0.100
112.900	0.274	0.100
113.000	-6.934	0.100
113.100	2.361	0.100
113.200	-13.226	0.100
113.300	0.149	0.100
113.400	0.376	0.100
113.500	4.574	0.100
113.600	0.637	0.100
113.700	-2.258	0.100
113.800	-1.884	0.100
113.900	-5.128	0.100
114.000	-7.028	0.100
114.100	-9.269	0.100
114.200	9.260	0.100
114.300	2.120	0.100
114.400	-1.466	0.100
114.500	8.520	0.100
114.600	-9.132	0.100
114.700	-4.693	0.100
114.800	6.790	0.100
114.900	5.638	0.100
115.000	0.829	0.100
115.100	-7.908	0.100
115.200	-12.636	0.100
115.300	-5.257	0.100
115.400	-6.659	0.100
115.500	-5.081	0.100
115.600	-1.451	0.100
115.700	6.754	0.100
115.800	6.750	0.100
115.900	-7.172	0.100
116.000	-5.169	0.100
116.100	13.159	0.100
116.200	-15.456	0.100
116.300	2.098	0.100
116.400	3.848	0.100
116.500	-1.184	0.100
116.600	-2.447	0.100
116.700	0.997	0.100
116.800	5.591	0.100
116.900	8.320	0.100
117.000	1.911	0.100
117.100	-6.639	0.100
117.200	-6.849	0.100
117.300	2.305	0.100
117.400	8.748	0.100
117.500	-1.288	0.100
117.600	7.083	0.100
117.700	3.234	0.100
117.800	3.509	0.100
117.900	-7.229	0.100
118.000	-1.714	0.100
118.100	9.808	0.100
118.200	4.559	0.100
118.300	-5.614	0.100
118.400	-0.106	0.100
118.500	-1.651	0.100
118.600	-2.370	0.100
118.700	-13.748	0.100
118.800	1.007	0.100
118.900	3.058	0.100
119.000	-12.399	0.100
119.100	-0.613	0.100
119.200	5.111	0.100
119.300	2.223	0.100
119.400	-6.722	0.100
119.500	7.069	0.100
119.600	-0.512	0.100
119.700	0.002	0.100
119.800	-2.556	0.100
119.900	2.088	0.100
120.000	3.226	0.100
120.100	-3.281	0.100
120.200	-2.892	0.100
120.300	-1.338	0.100
120.400	5.532	0.100
120.500	12.603	0.100
120.600	-1.060	0.100
120.700	-1.944	0.100
120.800	1.952	0.100
120.900	4.013	0.100
121.000	-7.103	0.100
121.100	0.880	0.100
121.200	-2.108	0.100
121.300	0.650	0.100
121.400	-10.040	0.100
121.500	-2.750	0.100
121.600	8.121	0.100
121.700	5.979	0.100
121.800	1.192	0.100
121.900	7.105	0.100
122.000	3.226	0.100
122.100	17.346	0.100
122.200	1.846	0.100
122.300	-2.702	0.100
122.400	0.599	0.100
122.500	-3.672	0.100
122.600	1.262	0.100
122.700	1.390	0.100
122.800	0.648	0.100
122.900	-0.274	0.100
123.000	-4.967	0.100
123.100	-0.966	0.100
123.200	9.542	0.100
123.300	11.191	0.100
123.400	5.649	0.100
123.500	4.937	0.100
123.600	-0.381	0.100
123.700	-6.464	0.100
123.800	4.912	0.100
123.900	-0.579	0.100
124.000	7.897	0.100
124.100	5.515	0.100
124.200	-0.485	0.100
124.300	-8.015	0.100
124.400	-3.132	0.100
124.500	-1.792	0.100
124.600	10.024	0.100
124.700	5.278	0.100
124.800	-1.239	0.100
124.900	13.378	0.100
125.000	6.309	0.100
125.100	-2.300	0.100
125.200	6.715	0.100
125.300	-1.491	0.100
125.400	1.232	0.100
125.500	-2.167	0.100
125.600	-6.811	0.100
125.700	10.004	0.100
125.800	8.285	0.100
125.900	2.735	0.100
126.000	8.559	0.100
126.100	-1.133	0.100
126.200	8.043	0.100
126.300	9.120	0.100
126.400	-2.304	0.100
126.500	4.442	0.100
126.600	-4.889	0.100
126.700	2.500	0.100
126.800	10.167	0.100
126.900	-3.083	0.100
127.000	2.618	0.100
127.100	-2.666	0.100
127.200	6.030	0.100
127.300	0.508	0.100
127.400	-7.710	0.100
127.500	-2.804	0.100
127.600	10.530	0.100
127.700	-2.829	0.100
127.800	1.614	0.100
127.900	5.737	0.100
128.000	9.592	0.100
128.100	6.512	0.100
128.200	-2.319	0.100
128.300	7.371	0.100
128.400	2.123	0.100
128.500	-3.736	0.100
128.600	-3.753	0.100
128.700	5.575	0.100
128.800	-2.012	0.100
128.900	5.911	0.100
129.000	-1.143	0.100
129.100	0.256	0.100
129.200	-9.579	0.100
129.300	-0.172	0.100
129.400	-3.695	0.100
129.500	0.366	0.100
129.600	0.769	0.100
129.700	-3.168	0.100
129.800	4.330	0.100
129.900	0.964	0.100
130.000	5.404	0.100
130.100	7.363	0.100
130.200	-12.357	0.100
130.300	3.720	0.100
130.400	-1.529	0.100
130.500	2.544	0.100
130.600	5.115	0.100
130.700	1.735	0.100
130.800	4.674	0.100
130.900	2.210	0.100
131.000	5.735	0.100
131.100	3.691	0.100
131.200	-1.531	0.100
131.300	-4.375	0.100
131.400	10.786	0.100
131.500	-2.347	0.100
131.600	-0.714	0.100
131.700	8.632	0.100
131.800	5.885	0.100
131.900	1.108	0.100
132.000	4.579	0.100
132.100	1.997	0.100
132.200	-1.780	0.100
132.300	11.865	0.100
132.400	11.469	0.100
132.500	0.188	0.100
132.600	11.532	0.100
132.700	-4.724	0.100
132.800	6.514	0.100
132.900	10.306	0.100
133.000	11.938	0.100
133.100	3.643	0.100
133.200	0.935	0.100
133.300	4.858	0.100
133.400	9.461	0.100
133.500	-1.731	0.100
133.600	-5.358	0.100
133.700	12.564	0.100
133.800	8.930	0.100
133.900	0.559	0.100
134.000	-6.197	0.100
134.100	-3.623	0.100
134.200	-4.200	0.100
134.300	-0.555	0.100
134.400	1.577	0.100
134.500	10.317	0.100
134.600	5.960	0.100
134.700	0.250	0.100
134.800	-9.819	0.100
134.900	4.889	0.100
135.000	6.566	0.100
135.100	21.959	0.100
135.200	6.211	0.100
135.300	12.531	0.100
135.400	12.649	0.100
135.500	-0.395	0.100
135.600	1.316	0.100
135.700	7.998	0.100
135.800	-3.538	0.100
135.900	10.136	0.100
136.000	8.239	0.100
136.100	2.731	0.100
136.200	6.701	0.100
136.300	1.918	0.100
136.400	-1.226	0.100
136.500	-2.120	0.100
136.600	7.215	0.100
136.700	7.829	0.100
136.800	2.815	0.100
136.900	6.145	0.100
137.000	-10.086	0.100
137.100	3.037	0.100
137.200	19.909	0.100
137.300	9.971	0.100
137.400	-5.280	0.100
137.500	4.954	0.100
137.600	0.578	0.100
137.700	-0.936	0.100
137.800	4.624	0.100
137.900	15.121	0.100
138.000	1.749	0.100
138.100	0.477	0.100
138.200	7.844	0.100
138.300	13.674	0.100
138.400	-6.151	0.100
138.500	3.272	0.100
138.600	0.737	0.100
138.700	1.191	0.100
138.800	2.464	0.100
138.900	13.053	0.100
139.000	9.298	0.100
139.100	8.104	0.100
139.200	0.589	0.100
139.300	10.975	0.100
139.400	1.742	0.100
139.500	2.862	0.100
139.600	4.244	0.100
139.700	4.149	0.100
139.800	5.227	0.100
139.900	8.818	0.100
140.000	15.278	0.100
140.100	13.095	0.100
140.200	6.503	0.100
140.300	-0.162	0.100
140.400	-1.774	0.100
140.500	18.973	0.100
140.600	5.308	0.100
140.700	5.874	0.100
140.800	9.451	0.100
140.900	13.131	0.100
141.000	12.399	0.100
141.100	-5.235	0.100
141.200	-2.529	0.100
141.300	11.697	0.100
141.400	9.259	0.100
141.500	9.190	0.100
141.600	-2.551	0.100
141.700	5.549	0.100
141.800	13.594	0.100
141.900	4.515	0.100
142.000	6.028	0.100
142.100	18.713	0.100
142.200	14.511	0.100
142.300	-0.680	0.100
142.400	1.770	0.100
142.500	4.938	0.100
142.600	4.389	0.100
142.700	-7.653	0.100
142.800	14.002	0.100
142.900	10.293	0.100
143.000	7.317	0.100
143.100	-0.525	0.100
143.200	-2.541	0.100
143.300	5.542	0.100
143.400	4.029	0.100
143.500	1.436	0.100
143.600	3.246	0.100
143.700	4.571	0.100
143.800	9.187	0.100
143.900	9.114	0.100
144.000	6.954	0.100
144.100	5.743	0.100
144.200	16.167	0.100
144.300	-4.602	0.100
144.400	-4.573	0.100
144.500	-2.657	0.100
144.600	9.774	0.100
144.700	11.508	0.100
144.800	0.170	0.100
144.900	-6.029	0.100
145.000	1.760	0.100
145.100	3.371	0.100
145.200	1.326	0.100
145.300	7.851	0.100
145.400	0.910	0.100
145.500	4.214	0.100
145.600	2.812	0.100
145.700	6.218	0.100
145.800	6.479	0.100
145.900	-1.008	0.100
146.000	-4.521	0.100
146.100	-4.846	0.100
146.200	1.349	0.100
146.300	3.987	0.100
146.400	8.606	0.100
146.500	4.712	0.100
146.600	0.342	0.100
146.700	-3.233	0.100
146.800	3.037	0.100
146.900	-4.428	0.100
147.000	-1.490	0.100
147.100	4.523	0.100
147.200	-9.694	0.100
147.300	-3.668	0.100
147.400	-0.947	0.100
147.500	-2.404	0.100
147.600	-0.874	0.100
147.700	5.790	0.100
147.800	10.915	0.100
147.900	3.911	0.100
148.000	8.791	0.100
148.100	9.810	0.100
148.200	2.642	0.100
148.300	-7.906	0.100
148.400	-6.009	0.100
148.500	-2.208	0.100
148.600	-3.152	0.100
148.700	-7.939	0.100
148.800	-2.676	0.100
148.900	5.533	0.100
149.000	1.591	0.100
149.100	1.586	0.100
149.200	1.873	0.100
149.300	0.961	0.100
149.400	-1.944	0.100
149.500	-9.309	0.100
149.600	6.938	0.100
149.700	2.588	0.100
149.800	-2.083	0.100
149.900	-1.329	0.100
150.000	-2.169	0.100
150.100	-6.372	0.100
150.200	-8.677	0.100
150.300	-5.278	0.100
150.400	8.817	0.100
150.500	10.839	0.100
150.600	6.243	0.100
150.700	2.689	0.100
150.800	-5.979	0.100
150.900	-3.025	0.100
151.000	-5.933	0.100
151.100	-3.274	0.100
151.200	-4.359	0.100
151.300	4.021	0.100
151.400	5.468	0.100
151.500	-5.458	0.100
151.600	6.763	0.100
151.700	6.963	0.100
151.800	-6.221	0.100
151.900	-8.525	0.100
152.000	1.422	0.100
152.100	-8.183	0.100
152.200	-5.780	0.100
152.300	3.748	0.100
152.400	-2.556	0.100
152.500	-10.364	0.100
152.600	6.698	0.100
152.700	-3.689	0.100
152.800	7.938	0.100
152.900	-11.452	0.100
153.000	-9.851	0.100
153.100	-5.083	0.100
153.200	5.364	0.100
153.300	-3.762	0.100
153.400	-1.196	0.100
153.500	-6.512	0.100
153.600	-2.254	0.100
153.700	6.285	0.100
153.800	-5.815	0.100
153.900	-2.241	0.100
154.000	2.249	0.100
154.100	-7.867	0.100
154.200	4.255	0.100
154.300	-2.404	0.100
154.400	-2.524	0.100
154.500	-5.819	0.100
154.600	1.250	0.100
154.700	-10.235	0.100
154.800	-11.390	0.100
154.900	-4.852	0.100
155.000	-2.812	0.100
155.100	-1.506	0.100
155.200	-8.330	0.100
155.300	-4.811	0.100
155.400	-12.701	0.100
155.500	-1.009	0.100
155.600	-6.177	0.100
155.700	-3.900	0.100
155.800	-2.936	0.100
155.900	-17.853	0.100
156.000	-4.378	0.100
156.100	-0.201	0.100
156.200	-6.931	0.100
156.300	-2.589	0.100
156.400	-8.272	0.100
156.500	-1.691	0.100
156.600	-13.709	0.100
156.700	-1.968	0.100
156.800	-8.405	0.100
156.900	-4.379	0.100
157.000	-0.389	0.100
157.100	-3.723	0.100
157.200	-10.370	0.100
157.300	1.687	0.100
157.400	-5.548	0.100
157.500	-3.606	0.100
157.600	-16.478	0.100
157.700	-1.831	0.100
157.800	-9.541	0.100
157.900	-10.993	0.100
158.000	-13.398	0.100
158.100	-4.932	0.100
158.200	-11.988	0.100
158.300	-12.272	0.100
158.400	-13.595	0.100
158.500	-7.951	0.100
158.600	-0.230	0.100
158.700	-5.359	0.100
158.800	-4.437	0.100
158.900	-8.309	0.100
159.000	-9.960	0.100
159.100	1.852	0.100
159.200	-1.790	0.100
159.300	-9.315	0.100
159.400	-9.517	0.100
159.500	-12.343	0.100
159.600	-10.507	0.100
159.700	-21.456	0.100
159.800	-2.122	0.100
159.900	-5.380	0.100
160.000	-6.600	0.100
160.100	-13.539	0.100
160.200	-6.165	0.100
160.300	0.966	0.100
160.400	-1.729	0.100
160.500	-5.977	0.100
160.600	-9.324	0.100
160.700	-11.362	0.100
160.800	-7.785	0.100
160.900	-11.053	0.100
161.000	10.651	0.100
161.100	4.176	0.100
161.200	1.706	0.100
161.300	-11.521	0.100
161.400	0.110	0.100
161.500	-3.673	0.100
161.600	-8.469	0.100
161.700	-1.954	0.100
161.800	0.610	0.100
161.900	-6.998	0.100
162.000	-3.624	0.100
162.100	-12.281	0.100
162.200	-7.244	0.100
162.300	-12.749	0.100
162.400	-0.376	0.100
162.500	-1.796	0.100
162.600	-9.188	0.100
162.700	-10.559	0.100
162.800	-22.351	0.100
162.900	-10.265	0.100
163.000	-10.238	0.100
163.100	-13.013	0.100
163.200	-8.685	0.100
163.300	-1.928	0.100
163.400	-14.426	0.100
163.500	-10.994	0.100
163.600	-10.324	0.100
163.700	-18.019	0.100
163.800	-6.951	0.100
163.900	-7.422	0.100
164.000	-3.346	0.100
164.100	-8.783	0.100
164.200	-13.260	0.100
164.300	-6.011	0.100
164.400	-6.359	0.100
164.500	-20.665	0.100
164.600	-9.720	0.100
164.700	-8.396	0.100
164.800	-5.030	0.100
164.900	-3.592	0.100
165.000	-6.976	0.100
165.100	-2.474	0.100
165.200	-16.392	0.099
165.300	-21.061	0.099
165.400	-7.909	0.099
165.500	-4.317	0.099
165.600	-7.466	0.099
165.700	-22.632	0.099
165.800	-20.197	0.099
165.900	-17.094	0.099
166.000	-6.314	0.099
166.100	-11.698	0.100
166.200	-13.093	0.099
166.300	-9.475	0.100
166.400	-6.239	0.099
166.500	-2.307	0.099
166.600	-18.796	0.099
166.700	-14.669	0.099
166.800	-11.305	0.099
166.900	-1.498	0.100
167.000	-20.337	0.099
167.100	-13.415	0.099
167.200	-14.743	0.100
167.300	-16.560	0.099
167.400	-19.019	0.099
167.500	-17.103	0.099
167.600	-13.843	0.099
167.700	-12.824	0.099
167.800	-14.323	0.099
167.900	-22.347	0.099
168.000	-14.549	0.099
168.100	-8.981	0.099
168.200	-15.424	0.100
168.300	-12.702	0.099
168.400	-7.376	0.099
168.500	-6.060	0.099
168.600	-7.103	0.100
168.700	-16.715	0.099
168.800	-13.446	0.099
168.900	-20.187	0.099
169.000	-24.134	0.099
169.100	-9.998	0.099
169.200	-13.831	0.099
169.300	-8.052	0.099
169.400	-8.836	0.099
169.500	-16.300	0.099
169.600	-16.963	0.099
169.700	-8.843	0.099
169.800	-14.491	0.099
169.900	-11.201	0.099
170.000	-20.533	0.099
170.100	-8.887	0.099
170.200	-13.986	0.099
170.300	-14.862	0.099
170.400	-11.351	0.099
170.500	-9.538	0.099
170.600	-1.160	0.099
170.700	-6.610	0.099
170.800	-21.323	0.099
170.900	-19.648	0.099
171.000	-13.603	0.099
171.100	-5.613	0.099
171.200	-12.164	0.099
171.300	-15.383	0.099
171.400	-21.683	0.099
171.500	-19.747	0.099
171.600	-13.224	0.099
171.700	-20.152	0.099
171.800	-19.120	0.099
171.900	-19.007	0.099
172.000	-10.254	0.099
172.100	-14.876	0.099
172.200	-15.763	0.099
172.300	-15.357	0.099
172.400	-16.907	0.099
172.500	-15.051	0.099
172.600	-13.429	0.099
172.700	-7.916	0.099
172.800	-15.342	0.099
172.900	-14.874	0.099
173.000	-25.207	0.099
173.100	-29.029	0.099
173.200	-10.040	0.099
173.300	-10.334	0.099
173.400	-15.098	0.099
173.500	-17.975	0.099
173.600	-10.194	0.099
173.700	-18.643	0.099
173.800	-17.983	0.099
173.900	-17.054	0.099
174.000	-17.689	0.099
174.100	-14.183	0.099
174.200	-19.791	0.099
174.300	-10.416	0.099
174.400	-7.733	0.099
174.500	-14.541	0.099
174.600	-20.867	0.099
174.700	-21.340	0.099
174.800	-9.756	0.099
174.900	-7.451	0.099
175.000	-9.360	0.099
175.100	-5.837	0.099
175.200	-23.106	0.099
175.300	-19.171	0.099
175.400	-10.489	0.099
175.500	-12.461	0.099
175.600	-21.229	0.099
175.700	-13.036	0.099
175.800	-24.502	0.099
175.900	-25.100	0.099
176.000	-9.841	0.099
176.100	-18.950	0.099
176.200	-12.487	0.099
176.300	-6.967	0.099
176.400	-12.072	0.099
176.500	-19.622	0.099
176.600	-14.077	0.099
176.700	-21.547	0.099
176.800	-20.496	0.099
176.900	-23.627	0.099
177.000	-16.689	0.099
177.100	-19.844	0.099
177.200	-5.669	0.099
177.300	-9.295	0.099
177.400	-17.615	0.099
177.500	-9.228	0.099
177.600	-3.831	0.099
177.700	-24.757	0.099
177.800	-18.536	0.099
177.900	-22.594	0.099
178.000	-22.856	0.099
178.100	-21.786	0.099
178.200	-20.439	0.099
178.300	-21.213	0.099
178.400	-23.252	0.099
178.500	-17.032	0.099
178.600	-15.457	0.099
178.700	-9.264	0.099
178.800	-19.693	0.099
178.900	-16.054	0.099
179.000	-13.794	0.099
179.100	-25.278	0.099
179.200	-19.945	0.099
179.300	-22.941	0.099
179.400	-22.521	0.099
179.500	-20.155	0.099
179.600	-12.172	0.099
179.700	-10.399	0.099
179.800	-11.951	0.099
179.900	-24.016	0.099
180.000	-15.779	0.099
180.100	-12.506	0.099
180.200	-9.750	0.099
180.300	-19.354	0.099
180.400	-17.414	0.099
180.500	-8.140	0.099
180.600	3.135	0.099
180.700	-10.456	0.099
180.800	-2.377	0.099
180.900	14.752	0.099
181.000	-7.409	0.099
181.100	4.680	0.099
181.200	3.798	0.099
181.300	6.157	0.099
181.400	4.712	0.099
181.500	-2.320	0.099
181.600	8.458	0.099
181.700	-3.410	0.099
181.800	17.169	0.099
181.900	15.424	0.099
182.000	9.443	0.099
182.100	11.887	0.099
182.200	-3.661	0.099
182.300	13.503	0.099
182.400	15.430	0.099
182.500	10.501	0.099
182.600	15.839	0.099
182.700	-6.902	0.099
182.800	-0.704	0.099
182.900	6.220	0.099
183.000	3.133	0.099
183.100	11.799	0.099
183.200	8.187	0.099
183.300	6.896	0.099
183.400	1.701	0.099
183.500	8.234	0.099
183.600	4.717	0.099
183.700	8.990	0.099
183.800	14.083	0.099
183.900	8.930	0.099
184.000	3.553	0.099
184.100	17.153	0.099
184.200	8.446	0.099
184.300	11.179	0.099
184.400	8.028	0.099
184.500	-8.349	0.099
184.600	4.446	0.099
184.700	10.857	0.099
184.800	4.499	0.099
184.900	-1.200	0.099
185.000	7.720	0.099
185.100	13.658	0.099
185.200	5.732	0.099
185.300	3.543	0.099
185.400	14.145	0.099
185.500	10.241	0.099
185.600	3.980	0.099
185.700	8.294	0.099
185.800	3.663	0.099
185.900	-1.874	0.099
186.000	6.136	0.099
186.100	11.167	0.099
186.200	1.646	0.099
186.300	-0.871	0.099
186.400	0.049	0.099
186.500	3.789	0.099
186.600	12.572	0.099
186.700	7.217	0.099
186.800	-1.534	0.099
186.900	15.336	0.099
187.000	4.340	0.099
187.100	-2.709	0.099
187.200	5.210	0.099
187.300	-1.141	0.099
187.400	16.412	0.099
187.500	5.413	0.099
187.600	-0.761	0.099
187.700	5.532	0.099
187.800	0.386	0.099
187.900	10.316	0.099
188.000	3.942	0.099
188.100	11.341	0.099
188.200	-3.916	0.099
188.300	6.875	0.099
188.400	18.445	0.099
188.500	7.715	0.099
188.600	11.008	0.099
188.700	-0.151	0.099
188.800	4.553	0.099
188.900	10.575	0.099
189.000	11.782	0.099
189.100	21.432	0.099
189.200	5.004	0.099
189.300	6.030	0.099
189.400	-0.675	0.099
189.500	9.883	0.099
189.600	11.779	0.099
189.700	8.137	0.099
189.800	17.254	0.099
189.900	13.964	0.099
190.000	-1.878	0.099
190.100	12.825	0.099
190.200	20.070	0.099
190.300	12.887	0.099
190.400	18.665	0.099
190.500	17.779	0.099
190.600	13.690	0.099
190.700	3.076	0.099
190.800	2.120	0.099
190.900	6.792	0.099
191.000	19.005	0.099
191.100	20.909	0.099
191.200	12.402	0.099
191.300	16.271	0.099
191.400	9.319	0.099
191.500	11.751	0.099
191.600	14.359	0.099
191.700	20.985	0.099
191.800	14.937	0.099
191.900	18.291	0.099
192.000	12.563	0.099
192.100	14.645	0.099
192.200	23.776	0.099
192.300	21.225	0.099
192.400	24.970	0.099
192.500	17.653	0.099
192.600	16.428	0.099
192.700	14.325	0.099
192.800	22.280	0.099
192.900	18.228	0.099
193.000	17.965	0.099
193.100	24.798	0.099
193.200	21.849	0.099
193.300	12.597	0.099
193.400	23.637	0.099
193.500	24.972	0.099
193.600	33.473	0.099
193.700	21.856	0.099
193.800	16.323	0.099
193.900	29.071	0.099
194.000	26.197	0.099
194.100	26.591	0.099
194.200	22.468	0.099
194.300	21.040	0.099
194.400	23.622	0.099
194.500	25.811	0.099
194.600	31.737	0.099
194.700	31.790	0.099
194.800	27.769	0.099
194.900	18.766	0.099
195.000	21.949	0.099
195.100	26.800	0.099
195.200	24.745	0.099
195.300	25.759	0.099
195.400	33.249	0.099
195.500	28.225	0.099
195.600	19.766	0.099
195.700	31.930	0.099
195.800	24.112	0.099
195.900	28.701	0.099
196.000	31.063	0.099
196.100	35.730	0.099
196.200	24.150	0.099
196.300	20.703	0.099
196.400	21.239	0.099
196.500	34.689	0.099
196.600	34.438	0.099
196.700	36.816	0.099
196.800	32.800	0.099
196.900	26.646	0.099
197.000	30.851	0.099
197.100	33.290	0.099
197.200	25.006	0.099
197.300	36.878	0.099
197.400	38.591	0.099
197.500	38.874	0.099
197.600	25.169	0.099
197.700	29.085	0.099
197.800	41.739	0.099
197.900	36.813	0.099
198.000	35.351	0.099
198.100	41.794	0.099
198.200	33.064	0.099
198.300	21.264	0.099
198.400	24.109	0.099
198.500	36.672	0.099
198.600	30.459	0.099
198.700	33.130	0.099
198.800	37.150	0.099
198.900	38.429	0.099
199.000	36.740	0.099
199.100	26.702	0.099
199.200	30.482	0.099
199.300	29.672	0.099
199.400	27.549	0.099
199.500	35.882	0.099
199.600	41.640	0.099
199.700	30.783	0.099
199.800	32.136	0.099
199.900	20.974	0.099
200.000	28.937	0.099
200.100	39.109	0.099
200.200	37.312	0.099
200.300	35.217	0.099
200.400	37.169	0.099
200.500	33.580	0.099
200.600	32.735	0.099
200.700	39.290	0.099
200.800	40.292	0.099
200.900	27.303	0.099
201.000	29.209	0.099
201.100	27.845	0.099
201.200	36.005	0.099
201.300	38.757	0.099
201.400	42.535	0.099
201.500	36.606	0.099
201.600	47.198	0.099
201.700	35.500	0.099
201.800	33.346	0.099
201.900	32.419	0.099
202.000	34.019	0.099
202.100	33.287	0.099
202.200	36.880	0.099
202.300	40.630	0.099
202.400	35.015	0.099
202.500	37.881	0.099
202.600	30.437	0.099
202.700	31.232	0.099
202.800	31.614	0.099
202.900	37.320	0.099
203.000	38.924	0.099
203.100	37.184	0.099
203.200	31.984	0.099
203.300	25.810	0.099
203.400	26.988	0.099
203.500	41.698	0.099
203.600	33.485	0.099
203.700	34.893	0.099
203.800	32.241	0.099
203.900	38.917	0.099
204.000	27.398	0.099
204.100	32.634	0.099
204.200	33.068	0.099
204.300	32.987	0.099
204.400	28.113	0.099
204.500	39.349	0.099
204.600	42.866	0.099
204.700	39.045	0.100
204.800	46.020	0.100
204.900	37.267	0.100
205.000	25.989	0.100
205.100	37.896	0.100
205.200	31.586	0.100
205.300	31.768	0.099
205.400	24.983	0.100
205.500	26.698	0.100
205.600	28.823	0.100
205.700	40.324	0.100
205.800	41.122	0.100
205.900	41.825	0.100
206.000	36.487	0.100
206.100	34.722	0.100
206.200	28.888	0.100
206.300	40.927	0.100
206.400	37.239	0.100
206.500	31.547	0.100
206.600	35.748	0.100
206.700	41.956	0.100
206.800	41.572	0.100
206.900	32.061	0.100
207.000	36.971	0.100
207.100	21.193	0.100
207.200	37.658	0.100
207.300	36.227	0.100
207.400	36.518	0.100
207.500	34.249	0.100
207.600	26.202	0.100
207.700	35.204	0.100
207.800	37.605	0.100
207.900	33.012	0.100
208.000	34.505	0.100
208.100	22.278	0.100
208.200	28.708	0.100
208.300	30.396	0.100
208.400	34.237	0.100
208.500	38.703	0.100
208.600	43.682	0.100
208.700	37.628	0.100
208.800	29.229	0.100
208.900	29.663	0.100
209.000	37.023	0.100
209.100	34.619	0.100
209.200	47.467	0.100
209.300	33.405	0.100
209.400	32.372	0.100
209.500	32.221	0.100
209.600	31.514	0.100
209.700	32.219	0.100
209.800	22.711	0.100
209.900	41.635	0.100
210.000	34.886	0.100
210.100	32.406	0.100
210.200	35.103	0.100
210.300	33.465	0.100
210.400	37.810	0.100
210.500	43.623	0.100
210.600	35.004	0.100
210.700	28.003	0.100
210.800	34.107	0.100
210.900	44.025	0.100
211.000	29.548	0.100
211.100	27.707	0.100
211.200	47.025	0.100
211.300	29.802	0.100
211.400	33.404	0.100
211.500	40.894	0.100
211.600	36.718	0.100
211.700	33.166	0.100
211.800	31.221	0.100
211.900	39.429	0.100
212.000	32.892	0.100
212.100	28.288	0.100
212.200	41.885	0.100
212.300	41.488	0.100
212.400	34.168	0.100
212.500	28.578	0.100
212.600	32.593	0.100
212.700	22.976	0.100
212.800	18.559	0.100
212.900	39.751	0.100
213.000	39.155	0.100
213.100	34.779	0.100
213.200	32.150	0.100
213.300	32.288	0.100
213.400	21.970	0.100
213.500	31.862	0.100
213.600	38.739	0.100
213.700	27.077	0.100
213.800	32.667	0.100
213.900	22.645	0.100
214.000	23.087	0.100
214.100	38.139	0.100
214.200	29.090	0.100
214.300	27.738	0.100
214.400	32.222	0.100
214.500	35.701	0.100
214.600	35.512	0.100
214.700	32.970	0.100
214.800	29.045	0.100
214.900	30.390	0.100
215.000	32.374	0.100
215.100	37.475	0.100
215.200	30.017	0.100
215.300	30.871	0.100
215.400	36.430	0.100
215.500	29.391	0.100
215.600	26.718	0.100
215.700	27.834	0.100
215.800	27.225	0.100
215.900	30.632	0.100
216.000	27.142	0.100
216.100	28.632	0.100
216.200	29.406	0.100
216.300	34.786	0.100
216.400	26.742	0.100
216.500	28.952	0.100
216.600	18.825	0.100
216.700	27.854	0.100
216.800	37.392	0.100
216.900	32.627	0.100
217.000	37.818	0.100
217.100	27.490	0.100
217.200	24.667	0.100
217.300	30.340	0.100
217.400	30.113	0.100
217.500	37.180	0.100
217.600	33.808	0.100
217.700	44.962	0.100
217.800	30.696	0.100
217.900	28.814	0.100
218.000	38.325	0.100
218.100	32.001	0.100
218.200	38.126	0.100
218.300	38.598	0.100
218.400	34.764	0.100
218.500	27.872	0.100
218.600	28.076	0.100
218.700	37.617	0.100
218.800	29.849	0.100
218.900	37.513	0.100
219.000	37.364	0.100
219.100	36.362	0.100
219.200	35.627	0.100
219.300	35.525	0.101
219.400	32.579	0.100
219.500	25.747	0.100
219.600	37.630	0.100
219.700	37.109	0.100
219.800	39.839	0.100
219.900	34.968	0.100
220.000	24.776	0.101
220.100	38.339	0.100
220.200	33.533	0.100
220.300	30.745	0.100
220.400	29.973	0.100
220.500	39.114	0.100
220.600	35.614	0.100
220.700	36.283	0.100
220.800	42.510	0.100
220.900	39.663	0.100
221.000	37.245	0.100
221.100	43.562	0.100
221.200	39.005	0.100
221.300	38.572	0.100
221.400	29.398	0.100
221.500	38.461	0.100
221.600	39.309	0.100
221.700	28.843	0.100
221.800	39.526	0.100
221.900	37.902	0.100
222.000	40.662	0.100
222.100	25.658	0.100
222.200	36.416	0.100
222.300	38.608	0.100
222.400	36.928	0.100
222.500	25.550	0.100
222.600	29.032	0.100
222.700	40.162	0.100
222.800	34.231	0.100
222.900	34.441	0.100
223.000	37.432	0.100
223.100	39.235	0.100
223.200	37.892	0.100
223.300	40.529	0.100
223.400	24.497	0.100
223.500	35.281	0.100
223.600	36.287	0.100
223.700	37.466	0.100
223.800	32.574	0.100
223.900	22.798	0.100
224.000	31.507	0.100
224.100	30.045	0.100
224.200	40.078	0.100
224.300	42.105	0.100
224.400	28.654	0.100
224.500	43.541	0.100
224.600	44.144	0.100
224.700	48.080	0.100
224.800	29.559	0.100
224.900	28.775	0.100
225.000	29.827	0.100
225.100	33.088	0.100
225.200	43.152	0.100
225.300	38.705	0.100
225.400	47.355	0.100
225.500	29.923	0.100
225.600	35.706	0.100
225.700	34.594	0.100
225.800	33.466	0.100
225.900	32.028	0.100
226.000	44.759	0.100
226.100	33.835	0.100
226.200	28.962	0.100
226.300	36.215	0.100
226.400	32.516	0.100
226.500	46.601	0.100
226.600	27.151	0.100
226.700	43.182	0.100
226.800	36.159	0.100
226.900	43.279	0.100
227.000	23.762	0.100
227.100	28.118	0.100
227.200	37.536	0.100
227.300	22.316	0.100
227.400	34.240	0.100
227.500	27.034	0.100
227.600	26.474	0.100
227.700	40.511	0.100
227.800	37.240	0.100
227.900	42.686	0.100
228.000	42.444	0.100
228.100	29.612	0.100
228.200	32.799	0.100
228.300	47.189	0.100
228.400	33.988	0.100
228.500	39.235	0.100
228.600	32.754	0.100
228.700	32.793	0.100
228.800	38.114	0.100
228.900	39.833	0.100
229.000	34.484	0.100
229.100	35.582	0.100
229.200	27.903	0.100
229.300	40.175	0.100
229.400	31.475	0.100
229.500	29.366	0.100
229.600	52.466	0.100
229.700	34.327	0.100
229.800	30.003	0.100
229.900	31.798	0.100
230.000	29.605	0.100
230.100	35.859	0.100
230.200	45.925	0.100
230.300	35.458	0.100
230.400	26.875	0.100
230.500	29.090	0.100
230.600	34.090	0.100
230.700	34.664	0.100
230.800	30.929	0.100
230.900	32.491	0.100
231.000	43.900	0.100
231.100	39.215	0.100
231.200	30.339	0.100
231.300	32.679	0.100
231.400	32.074	0.100
231.500	29.826	0.100
231.600	33.780	0.100
231.700	32.139	0.100
231.800	36.887	0.100
231.900	32.029	0.100
232.000	33.201	0.100
232.100	40.431	0.100
232.200	34.770	0.100
232.300	25.274	0.100
232.400	37.753	0.100
232.500	31.270	0.100
232.600	28.346	0.100
232.700	28.714	0.100
232.800	37.176	0.100
232.900	34.989	0.100
233.000	19.338	0.100
233.100	39.106	0.100
233.200	39.788	0.100
233.300	32.698	0.100
233.400	31.398	0.100
233.500	33.155	0.100
233.600	39.031	0.100
233.700	41.080	0.100
233.800	29.524	0.100
233.900	29.364	0.100
234.000	20.298	0.100
234.100	31.262	0.100
234.200	28.694	0.100
234.300	25.092	0.100
234.400	31.513	0.100
234.500	38.437	0.100
234.600	42.638	0.100
234.700	43.785	0.100
234.800	34.248	0.100
234.900	30.088	0.100
235.000	36.426	0.100
235.100	39.050	0.100
235.200	29.291	0.100
235.300	33.425	0.100
235.400	32.657	0.100
235.500	33.436	0.100
235.600	39.701	0.100
235.700	33.478	0.100
235.800	26.268	0.100
235.900	30.151	0.100
236.000	21.505	0.100
236.100	34.318	0.100
236.200	33.625	0.100
236.300	23.329	0.100
236.400	21.190	0.100
236.500	32.045	0.100
236.600	34.294	0.100
236.700	35.515	0.100
236.800	31.563	0.100
236.900	39.763	0.100
237.000	26.728	0.100
237.100	23.119	0.100
237.200	22.046	0.100
237.300	36.135	0.100
237.400	33.723	0.100
237.500	26.754	0.100
237.600	39.117	0.100
237.700	36.720	0.100
237.800	33.211	0.100
237.900	26.755	0.100
238.000	38.761	0.100
238.100	39.126	0.100
238.200	22.507	0.100
238.300	40.510	0.100
238.400	33.561	0.100
238.500	27.737	0.100
238.600	43.810	0.100
238.700	23.830	0.100
238.800	22.980	0.100
238.900	35.044	0.100
239.000	37.365	0.100
239.100	43.155	0.100
239.200	46.505	0.100
239.300	39.708	0.100
239.400	34.891	0.100
239.500	35.838	0.100
239.600	30.801	0.100
239.700	23.910	0.100
239.800	25.776	0.100
239.900	35.116	0.100
240.000	23.682	0.100
240.100	27.744	0.100
240.200	25.385	0.100
240.300	26.695	0.100
240.400	17.967	0.100
240.500	22.990	0.100
240.600	18.092	0.100
240.700	18.616	0.100
240.800	10.248	0.100
240.900	10.895	0.100
241.000	18.753	0.100
241.100	18.903	0.100
241.200	11.181	0.100
241.300	10.383	0.100
241.400	7.457	0.100
241.500	16.225	0.100
241.600	3.683	0.100
241.700	0.195	0.100
241.800	7.261	0.100
241.900	10.600	0.100
242.000	5.526	0.100
242.100	5.180	0.100
242.200	1.301	0.100
242.300	3.124	0.100
242.400	-3.843	0.100
242.500	4.073	0.100
242.600	3.604	0.100
242.700	1.100	0.100
242.800	-1.008	0.100
242.900	-3.226	0.100
243.000	-6.326	0.100
243.100	3.695	0.100
243.200	-6.282	0.100
243.300	-9.351	0.100
243.400	-3.448	0.100
243.500	-4.162	0.100
243.600	-4.587	0.100
243.700	-7.758	0.100
243.800	-5.284	0.100
243.900	-7.360	0.100
244.000	-16.493	0.100
244.100	-8.526	0.100
244.200	-11.105	0.100
244.300	-18.748	0.100
244.400	-2.502	0.100
244.500	-18.049	0.100
244.600	-10.865	0.100
244.700	-11.851	0.100
244.800	-7.281	0.100
244.900	-11.781	0.100
245.000	-16.132	0.100
245.100	-11.119	0.100
245.200	-5.664	0.100
245.300	-12.490	0.100
245.400	-21.540	0.100
245.500	-11.516	0.100
245.600	-10.835	0.100
245.700	-16.006	0.100
245.800	-8.504	0.100
245.900	-12.020	0.100
246.000	-8.497	0.100
246.100	-11.587	0.100
246.200	-7.177	0.100
246.300	-15.072	0.100
246.400	-14.476	0.100
246.500	-23.262	0.100
246.600	-21.995	0.100
246.700	-5.335	0.100
246.800	-12.166	0.100
246.900	-5.298	0.100
247.000	-9.545	0.100
247.100	-8.073	0.100
247.200	-9.477	0.100
247.300	-18.325	0.100
247.400	-9.313	0.100
247.500	-14.536	0.100
247.600	-15.031	0.100
247.700	-3.295	0.100
247.800	-16.554	0.100
247.900	-8.848	0.100
248.000	-10.213	0.100
248.100	-15.696	0.100
248.200	-20.741	0.100
248.300	-11.287	0.100
248.400	-15.075	0.100
248.500	-18.403	0.100
248.600	-8.095	0.100
248.700	-11.628	0.100
248.800	-15.705	0.100
248.900	-15.546	0.100
249.000	-20.602	0.100
249.100	-2.048	0.100
249.200	-16.908	0.100
249.300	-20.140	0.100
249.400	-15.440	0.100
249.500	-16.540	0.100
249.600	-9.570	0.100
249.700	-13.467	0.100
249.800	-20.717	0.100
249.900	-13.990	0.100
250.000	-13.754	0.100
250.100	-10.084	0.100
250.200	-21.075	0.100
250.300	-11.410	0.100
250.400	-15.461	0.100
250.500	-6.884	0.100
250.600	-17.553	0.100
250.700	-19.985	0.100
250.800	-19.162	0.100
250.900	-18.418	0.100
251.000	-19.889	0.100
251.100	-17.731	0.100
251.200	-22.896	0.100
251.300	-18.882	0.100
251.400	-0.829	0.100
251.500	-11.414	0.100
251.600	-23.473	0.100
251.700	-10.308	0.100
251.800	-20.871	0.100
251.900	-11.690	0.100
252.000	-18.566	0.100
252.100	-20.034	0.100
252.200	-19.133	0.100
252.300	-4.269	0.100
252.400	-9.757	0.100
252.500	-15.777	0.100
252.600	-29.629	0.100
252.700	-13.793	0.100
252.800	-12.922	0.100
252.900	-13.433	0.100
253.000	-10.343	0.100
253.100	-19.955	0.100
253.200	-17.537	0.100
253.300	-27.207	0.100
253.400	-14.779	0.100
253.500	-16.237	0.100
253.600	-20.460	0.100
253.700	-23.869	0.100
253.800	-17.766	0.100
253.900	-19.788	0.100
254.000	-18.771	0.100
254.100	-12.117	0.100
254.200	-16.602	0.100
254.300	-20.041	0.100
254.400	-12.170	0.100
254.500	-16.139	0.100
254.600	-9.369	0.100
254.700	-6.419	0.100
254.800	-22.189	0.100
254.900	-12.622	0.100
255.000	-21.043	0.100
255.100	-21.245	0.100
255.200	-16.790	0.100
255.300	-17.460	0.100
255.400	-16.697	0.100
255.500	-16.442	0.100
255.600	-9.629	0.100
255.700	-21.278	0.100
255.800	-24.810	0.100
255.900	-21.440	0.100
256.000	-8.278	0.100
256.100	-17.077	0.100
256.200	-19.463	0.100
256.300	-26.387	0.100
256.400	-14.497	0.100
256.500	-28.944	0.100
256.600	-21.784	0.100
256.700	-13.634	0.100
256.800	-16.752	0.100
256.900	-16.336	0.100
257.000	-21.032	0.100
257.100	-24.360	0.100
257.200	-13.741	0.100
257.300	-15.102	0.100
257.400	-20.828	0.100
257.500	-16.630	0.100
257.600	-25.146	0.100
257.700	-19.013	0.100
257.800	-21.977	0.100
257.900	-13.552	0.100
258.000	-20.624	0.100
258.100	-15.849	0.100
258.200	-24.849	0.100
258.300	-21.843	0.100
258.400	-21.115	0.100
258.500	-28.629	0.100
258.600	-25.076	0.100
258.700	-16.775	0.100
258.800	-17.279	0.100
258.900	-24.795	0.100
259.000	-17.872	0.100
259.100	-23.154	0.100
259.200	-18.719	0.100
259.300	-16.685	0.100
259.400	-22.552	0.100
259.500	-24.983	0.100
259.600	-21.819	0.100
259.700	-34.763	0.100
259.800	-24.969	0.100
259.900	-20.573	0.100
260.000	-16.153	0.100
260.100	-22.899	0.100
260.200	-17.102	0.100
260.300	-20.770	0.100
260.400	-17.256	0.100
260.500	-17.883	0.100
260.600	-22.055	0.100
260.700	-32.857	0.100
260.800	-29.544	0.100
260.900	-26.748	0.100
261.000	-21.879	0.100
261.100	-0.713	0.100
261.200	-12.570	0.100
261.300	-23.310	0.100
261.400	-29.260	0.100
261.500	-17.683	0.100
261.600	-19.971	0.100
261.700	-14.290	0.100
261.800	-24.583	0.100
261.900	-28.576	0.100
262.000	-24.009	0.100
262.100	-25.770	0.100
262.200	-21.280	0.100
262.300	-30.109	0.100
262.400	-16.728	0.100
262.500	-15.111	0.100
262.600	-20.408	0.100
262.700	-26.433	0.100
262.800	-20.046	0.100
262.900	-22.890	0.100
263.000	-13.492	0.100
263.100	-27.869	0.100
263.200	-12.229	0.100
263.300	-17.362	0.100
263.400	-23.642	0.100
263.500	-31.214	0.100
263.600	-29.067	0.100
263.700	-13.214	0.100
263.800	-20.588	0.100
263.900	-18.709	0.100
264.000	-28.355	0.100
264.100	-18.986	0.100
264.200	-25.037	0.100
264.300	-27.734	0.100
264.400	-24.599	0.100
264.500	-30.612	0.100
264.600	-19.010	0.100
264.700	-15.015	0.100
264.800	-30.461	0.100
264.900	-26.063	0.100
265.000	-33.046	0.100
265.100	-28.178	0.100
265.200	-19.561	0.100
265.300	-22.329	0.100
265.400	-24.933	0.100
265.500	-28.602	0.100
265.600	-28.104	0.100
265.700	-21.455	0.100
265.800	-23.340	0.100
265.900	-26.163	0.100
266.000	-22.796	0.100
266.100	-24.671	0.100
266.200	-21.118	0.100
266.300	-25.028	0.100
266.400	-17.057	0.100
266.500	-38.855	0.100
266.600	-22.071	0.100
266.700	-14.062	0.100
266.800	-24.727	0.100
266.900	-22.326	0.100
267.000	-34.035	0.100
267.100	-20.965	0.100
267.200	-23.399	0.100
267.300	-30.025	0.100
267.400	-27.522	0.100
267.500	-24.303	0.100
267.600	-31.827	0.100
267.700	-30.862	0.100
267.800	-25.554	0.100
267.900	-30.059	0.100
268.000	-34.810	0.100
268.100	-18.973	0.100
268.200	-27.917	0.100
268.300	-38.175	0.100
268.400	-17.487	0.100
268.500	-17.489	0.100
268.600	-33.338	0.100
268.700	-18.519	0.100
268.800	-26.320	0.100
268.900	-33.178	0.100
269.000	-26.234	0.100
269.100	-24.639	0.100
269.200	-12.872	0.100
269.300	-28.700	0.100
269.400	-27.687	0.100
269.500	-17.039	0.100
269.600	-30.239	0.100
269.700	-27.692	0.100
269.800	-34.728	0.100
269.900	-32.498	0.100
270.000	-32.640	0.100
270.100	-26.726	0.100
270.200	-18.005	0.100
270.300	-22.370	0.100
270.400	-25.635	0.100
270.500	-23.740	0.100
270.600	-22.752	0.100
270.700	-25.278	0.100
270.800	-19.330	0.100
270.900	-40.535	0.100
271.000	-38.573	0.100
271.100	-41.071	0.100
271.200	-17.333	0.100
271.300	-28.518	0.100
271.400	-27.056	0.100
271.500	-21.150	0.100
271.600	-26.791	0.100
271.700	-23.717	0.100
271.800	-25.249	0.100
271.900	-35.359	0.100
272.000	-31.221	0.100
272.100	-19.354	0.100
272.200	-26.021	0.100
272.300	-23.184	0.100
272.400	-23.445	0.100
272.500	-35.662	0.100
272.600	-35.204	0.100
272.700	-20.964	0.100
272.800	-38.772	0.100
272.900	-28.416	0.100
273.000	-14.840	0.100
273.100	-27.686	0.100
273.200	-34.979	0.100
273.300	-34.701	0.100
273.400	-23.448	0.100
273.500	-25.189	0.100
273.600	-31.211	0.100
273.700	-23.258	0.100
273.800	-33.221	0.100
273.900	-24.282	0.100
274.000	-20.078	0.100
274.100	-25.902	0.100
274.200	-23.153	0.100
274.300	-29.781	0.100
274.400	-33.410	0.100
274.500	-25.687	0.100
274.600	-27.374	0.100
274.700	-26.790	0.100
274.800	-27.746	0.100
274.900	-27.401	0.100
275.000	-32.237	0.100
275.100	-20.927	0.100
275.200	-39.164	0.100
275.300	-27.277	0.100
275.400	-27.260	0.100
275.500	-38.624	0.100
275.600	-27.485	0.100
275.700	-27.719	0.100
275.800	-18.845	0.100
275.900	-22.062	0.100
276.000	-28.828	0.100
276.100	-27.762	0.100
276.200	-23.798	0.100
276.300	-36.169	0.100
276.400	-30.507	0.100
276.500	-31.862	0.100
276.600	-28.210	0.100
276.700	-37.966	0.100
276.800	-35.465	0.100
276.900	-16.974	0.100
277.000	-22.621	0.100
277.100	-21.912	0.100
277.200	-21.612	0.100
277.300	-17.974	0.100
277.400	-28.821	0.100
277.500	-28.584	0.100
277.600	-23.838	0.100
277.700	-27.755	0.100
277.800	-37.614	0.100
277.900	-32.926	0.100
278.000	-21.996	0.100
278.100	-31.323	0.100
278.200	-30.472	0.100
278.300	-28.065	0.100
278.400	-24.166	0.100
278.500	-24.067	0.100
278.600	-29.208	0.100
278.700	-26.500	0.100
278.800	-27.464	0.100
278.900	-24.876	0.100
279.000	-21.866	0.100
279.100	-27.675	0.100
279.200	-20.544	0.100
279.300	-20.617	0.100
279.400	-20.119	0.100
279.500	-41.639	0.100
279.600	-42.201	0.100
279.700	-23.626	0.100
279.800	-6.957	0.100
279.900	-32.822	0.100
280.000	-23.927	0.100
280.100	-26.650	0.100
280.200	-31.097	0.100
280.300	-35.986	0.100
280.400	-27.571	0.100
280.500	-16.433	0.100
280.600	-27.378	0.100
280.700	-34.474	0.100
280.800	-25.631	0.100
280.900	-28.571	0.100
281.000	-20.588	0.100
281.100	-21.240	0.100
281.200	-25.615	0.100
281.300	-22.323	0.100
281.400	-32.819	0.100
281.500	-29.283	0.100
281.600	-28.412	0.100
281.700	-29.795	0.100
281.800	-24.302	0.100
281.900	-30.337	0.100
282.000	-28.353	0.100
282.100	-29.833	0.100
282.200	-39.899	0.100
282.300	-33.673	0.100
282.400	-18.506	0.100
282.500	-18.726	0.100
282.600	-25.424	0.100
282.700	-21.869	0.100
282.800	-31.845	0.100
282.900	-31.045	0.100
283.000	-20.494	0.100
283.100	-27.342	0.100
283.200	-25.804	0.100
283.300	-30.238	0.100
283.400	-30.658	0.100
283.500	-20.941	0.100
283.600	-22.340	0.100
283.700	-30.760	0.100
283.800	-28.529	0.100
283.900	-22.714	0.100
284.000	-21.386	0.100
284.100	-22.566	0.100
284.200	-30.193	0.100
284.300	-35.272	0.100
284.400	-26.866	0.100
284.500	-29.997	0.100
284.600	-31.465	0.100
284.700	-35.079	0.100
284.800	-33.851	0.100
284.900	-31.290	0.100
285.000	-32.869	0.100
285.100	-28.440	0.100
285.200	-27.555	0.100
285.300	-25.390	0.100
285.400	-16.114	0.100
285.500	-21.343	0.100
285.600	-29.225	0.100
285.700	-29.792	0.100
285.800	-35.329	0.100
285.900	-28.278	0.100
286.000	-24.826	0.100
286.100	-24.983	0.100
286.200	-30.931	0.100
286.300	-26.682	0.100
286.400	-30.239	0.100
286.500	-23.644	0.100
286.600	-30.376	0.100
286.700	-26.075	0.100
286.800	-25.743	0.100
286.900	-32.236	0.100
287.000	-27.124	0.100
287.100	-24.904	0.100
287.200	-31.617	0.100
287.300	-19.261	0.100
287.400	-25.052	0.100
287.500	-29.065	0.100
287.600	-24.328	0.100
287.700	-25.707	0.100
287.800	-40.720	0.100
287.900	-40.018	0.100
288.000	-31.887	0.100
288.100	-29.506	0.100
288.200	-25.189	0.100
288.300	-24.811	0.100
288.400	-27.790	0.100
288.500	-20.581	0.100
288.600	-32.441	0.100
288.700	-35.878	0.100
288.800	-25.693	0.100
288.900	-28.500	0.100
289.000	-32.467	0.100
289.100	-38.404	0.100
289.200	-25.255	0.100
289.300	-29.188	0.100
289.400	-26.450	0.100
289.500	-35.669	0.100
289.600	-30.029	0.100
289.700	-29.155	0.100
289.800	-28.475	0.100
289.900	-22.294	0.100
290.000	-21.129	0.100
290.100	-24.162	0.100
290.200	-20.591	0.100
290.300	-26.120	0.100
290.400	-32.637	0.100
290.500	-39.179	0.100
290.600	-31.612	0.100
290.700	-28.310	0.100
290.800	-32.188	0.100
290.900	-34.768	0.100
291.000	-9.193	0.100
291.100	-22.533	0.100
291.200	-21.680	0.100
291.300	-33.675	0.100
291.400	-41.272	0.100
291.500	-27.991	0.100
291.600	-26.683	0.100
291.700	-20.597	0.100
291.800	-36.681	0.100
291.900	-26.050	0.100
292.000	-12.877	0.100
292.100	-33.749	0.100
292.200	-33.812	0.100
292.300	-36.200	0.100
292.400	-40.411	0.100
292.500	-26.214	0.100
292.600	-17.596	0.100
292.700	-14.447	0.100
292.800	-28.315	0.100
292.900	-30.812	0.100
293.000	-23.590	0.100
293.100	-22.493	0.100
293.200	-25.694	0.100
293.300	-30.020	0.100
293.400	-31.315	0.100
293.500	-32.135	0.100
293.600	-16.829	0.100
293.700	-15.781	0.100
293.800	-24.108	0.100
293.900	-23.271	0.100
294.000	-36.765	0.100
294.100	-37.270	0.100
294.200	-29.795	0.100
294.300	-41.838	0.100
294.400	-34.377	0.100
294.500	-29.710	0.100
294.600	-29.978	0.100
294.700	-22.076	0.100
294.800	-23.049	0.100
294.900	-31.724	0.100
295.000	-31.616	0.100
295.100	-24.630	0.100
295.200	-35.986	0.100
295.300	-23.460	0.100
295.400	-25.298	0.100
295.500	-12.780	0.100
295.600	-22.892	0.100
295.700	-28.905	0.100
295.800	-25.514	0.100
295.900	-25.178	0.100
296.000	-30.456	0.100
296.100	-23.664	0.100
296.200	-22.612	0.100
296.300	-25.760	0.100
296.400	-33.907	0.100
296.500	-22.359	0.100
296.600	-30.765	0.100
296.700	-23.981	0.100
296.800	-29.451	0.100
296.900	-28.473	0.100
297.000	-34.113	0.100
297.100	-38.356	0.100
297.200	-27.916	0.100
297.300	-25.238	0.100
297.400	-15.228	0.100
297.500	-23.995	0.100
297.600	-25.516	0.100
297.700	-27.558	0.100
297.800	-29.828	0.100
297.900	-25.931	0.100
298.000	-24.146	0.100
298.100	-26.980	0.100
298.200	-38.974	0.100
298.300	-27.341	0.100
298.400	-17.766	0.100
298.500	-25.592	0.100
298.600	-30.209	0.100
298.700	-26.115	0.100
298.800	-35.694	0.100
298.900	-34.112	0.100
299.000	-32.618	0.100
299.100	-21.667	0.100
299.200	-21.374	0.100
299.300	-25.003	0.100
299.400	-25.506	0.100
299.500	-23.743	0.100
299.600	-27.171	0.100
299.700	-29.792	0.100
299.800	-31.726	0.100
299.900	-27.610	0.100
300.000	-30.494	0.100
300.100	-26.461	0.100
300.200	-26.354	0.100
300.300	-15.743	0.100
300.400	-26.720	0.100
300.500	-28.817	0.100
300.600	-29.288	0.100
300.700	-26.426	0.100
300.800	-27.031	0.100
300.900	-18.352	0.100
301.000	-26.962	0.100
301.100	-37.221	0.100
301.200	-32.509	0.100
301.300	-32.119	0.100
301.400	-10.580	0.100
301.500	-18.935	0.100
301.600	-22.600	0.100
301.700	-35.600	0.100
301.800	-21.296	0.100
301.900	-21.348	0.100
302.000	-22.708	0.100
302.100	-21.829	0.100
302.200	-26.761	0.100
302.300	-28.765	0.100
302.400	-35.284	0.100
302.500	-41.754	0.100
302.600	-22.963	0.100
302.700	-8.939	0.100
302.800	-22.194	0.100
302.900	-24.121	0.100
303.000	-19.541	0.100
303.100	-20.811	0.100
303.200	-24.594	0.100
303.300	-28.309	0.100
303.400	-26.091	0.100
303.500	-27.199	0.100
303.600	-24.391	0.100
303.700	-38.698	0.100
303.800	-17.853	0.100
303.900	-14.527	0.100
304.000	-24.401	0.100
304.100	-27.909	0.100
304.200	-36.244	0.100
304.300	-29.961	0.100
304.400	-26.176	0.100
304.500	-28.315	0.100
304.600	-27.289	0.100
304.700	-23.457	0.100
304.800	-30.114	0.100
304.900	-23.736	0.100
305.000	-48.097	0.100
305.100	-36.661	0.100
305.200	-31.887	0.100
305.300	-23.448	0.100
305.400	-26.274	0.100
305.500	-27.326	0.100
305.600	-21.121	0.100
305.700	-30.157	0.100
305.800	-34.373	0.100
305.900	-36.901	0.100
306.000	-14.347	0.100
306.100	-22.384	0.100
306.200	-24.034	0.100
306.300	-21.667	0.100
306.400	-24.369	0.100
306.500	-25.567	0.100
306.600	-23.870	0.100
306.700	-22.607	0.100
306.800	-27.623	0.100
306.900	-25.776	0.100
307.000	-36.282	0.100
307.100	-26.775	0.100
307.200	-21.140	0.100
307.300	-28.705	0.100
307.400	-24.596	0.100
307.500	-24.751	0.100
307.600	-24.707	0.100
307.700	-21.525	0.100
307.800	-30.000	0.100
307.900	-22.789	0.100
308.000	-27.437	0.100
308.100	-21.816	0.100
308.200	-23.241	0.100
308.300	-28.982	0.100
308.400	-32.755	0.100
308.500	-17.433	0.100
308.600	-22.859	0.100
308.700	-26.723	0.100
308.800	-26.281	0.100
308.900	-17.707	0.100
309.000	-26.189	0.100
309.100	-28.504	0.100
309.200	-18.914	0.100
309.300	-43.549	0.100
309.400	-48.149	0.100
309.500	-22.847	0.100
309.600	-24.077	0.100
309.700	-29.538	0.100
309.800	-28.773	0.100
309.900	-30.705	0.100
310.000	-31.525	0.100
310.100	-28.796	0.100
310.200	-32.630	0.100
310.300	-28.427	0.100
310.400	-13.259	0.100
310.500	-21.127	0.100
310.600	-24.195	0.100
310.700	-25.086	0.100
310.800	-26.639	0.100
310.900	-17.946	0.100
311.000	-25.967	0.100
311.100	-29.577	0.100
311.200	-21.716	0.100
311.300	-28.813	0.100
311.400	-25.246	0.100
311.500	-15.454	0.100
311.600	-19.599	0.100
311.700	-28.059	0.100
311.800	-18.411	0.100
311.900	-29.316	0.100
312.000	-21.810	0.100
312.100	-28.862	0.100
312.200	-29.564	0.100
312.300	-28.767	0.100
312.400	-27.283	0.100
312.500	-25.985	0.100
312.600	-27.279	0.100
312.700	-15.378	0.100
312.800	-19.931	0.100
312.900	-21.348	0.100
313.000	-34.823	0.100
313.100	-15.876	0.100
313.200	-32.851	0.100
313.300	-21.924	0.100
313.400	-25.526	0.100
313.500	-27.602	0.100
313.600	-36.165	0.100
313.700	-32.575	0.100
313.800	-27.223	0.100
313.900	-20.154	0.100
314.000	-27.174	0.100
314.100	-23.620	0.100
314.200	-29.834	0.100
314.300	-25.013	0.100
314.400	-22.987	0.100
314.500	-18.207	0.100
314.600	-18.439	0.100
314.700	-36.870	0.100
314.800	-30.460	0.100
314.900	-21.285	0.100
315.000	-27.680	0.100
315.100	-26.396	0.100
315.200	-24.769	0.100
315.300	-24.036	0.100
315.400	-19.625	0.100
315.500	-34.116	0.100
315.600	-27.492	0.100
315.700	-26.814	0.100
315.800	-28.107	0.100
315.900	-24.002	0.100
316.000	-24.734	0.100
316.100	-20.353	0.100
316.200	-23.897	0.100
316.300	-18.488	0.100
316.400	-27.000	0.100
316.500	-25.126	0.100
316.600	-27.681	0.100
316.700	-30.892	0.100
316.800	-29.594	0.100
316.900	-24.448	0.100
317.000	-16.157	0.100
317.100	-16.254	0.100
317.200	-32.186	0.100
317.300	-29.978	0.100
317.400	-22.269	0.100
317.500	-17.839	0.100
317.600	-31.194	0.100
317.700	-23.052	0.100
317.800	-17.482	0.100
317.900	-20.418	0.100
318.000	-20.373	0.100
318.100	-28.103	0.100
318.200	-26.713	0.100
318.300	-27.676	0.100
318.400	-19.281	0.100
318.500	-28.189	0.100
318.600	-26.276	0.100
318.700	-26.793	0.100
318.800	-35.008	0.100
318.900	-27.456	0.100
319.000	-24.348	0.100
319.100	-18.993	0.100
319.200	-24.483	0.100
319.300	-24.543	0.100
319.400	-29.035	0.100
319.500	-27.514	0.100
319.600	-15.889	0.100
319.700	-15.882	0.100
319.800	-17.332	0.100
319.900	-14.072	0.100
320.000	-34.718	0.100
320.100	-39.318	0.100
320.200	-30.839	0.100
320.300	-29.742	0.100
320.400	-25.650	0.100
320.500	-19.480	0.100
320.600	-25.506	0.100
320.700	-25.160	0.100
320.800	-21.964	0.100
320.900	-24.886	0.100
321.000	-30.061	0.100
321.100	-32.279	0.100
321.200	-26.058	0.100
321.300	-13.668	0.100
321.400	-25.484	0.100
321.500	-20.362	0.100
321.600	-22.890	0.100
321.700	-27.161	0.100
321.800	-28.297	0.100
321.900	-27.002	0.100
322.000	-26.505	0.100
322.100	-23.855	0.100
322.200	-24.113	0.100
322.300	-23.175	0.100
322.400	-17.471	0.100
322.500	-17.075	0.100
322.600	-27.566	0.100
322.700	-22.507	0.100
322.800	-25.847	0.100
322.900	-21.818	0.100
323.000	-24.443	0.100
323.100	-34.838	0.100
323.200	-23.968	0.100
323.300	-36.941	0.100
323.400	-20.725	0.100
323.500	-18.168	0.100
323.600	-21.732	0.100
323.700	-25.966	0.100
323.800	-28.075	0.100
323.900	-36.889	0.100
324.000	-25.604	0.100
324.100	-25.402	0.100
324.200	-21.237	0.100
324.300	-29.804	0.100
324.400	-25.202	0.100
324.500	-31.081	0.100
324.600	-19.562	0.100
324.700	-18.291	0.100
324.800	-16.528	0.100
324.900	-28.177	0.100
325.000	-33.575	0.100
325.100	-28.993	0.100
325.200	-27.577	0.100
325.300	-20.919	0.100
325.400	-18.475	0.100
325.500	-21.903	0.100
325.600	-25.391	0.100
325.700	-16.729	0.100
325.800	-21.391	0.100
325.900	-28.866	0.100
326.000	-31.312	0.100
326.100	-21.691	0.100
326.200	-21.625	0.100
326.300	-25.333	0.100
326.400	-19.773	0.100
326.500	-22.345	0.100
326.600	-24.820	0.100
326.700	-25.654	0.100
326.800	-23.645	0.100
326.900	-26.879	0.100
327.000	-27.982	0.100
327.100	-26.732	0.100
327.200	-19.842	0.100
327.300	-20.260	0.100
327.400	-27.387	0.100
327.500	-25.449	0.100
327.600	-29.694	0.100
327.700	-29.511	0.100
327.800	-21.276	0.100
327.900	-29.599	0.100
328.000	-39.344	0.100
328.100	-23.086	0.100
328.200	-15.966	0.100
328.300	-14.010	0.100
328.400	-22.732	0.100
328.500	-26.902	0.100
328.600	-20.898	0.100
328.700	-28.109	0.100
328.800	-19.037	0.100
328.900	-20.169	0.100
329.000	-30.897	0.100
329.100	-18.319	0.100
329.200	-25.317	0.100
329.300	-22.237	0.100
329.400	-23.807	0.100
329.500	-21.616	0.100
329.600	-17.937	0.100
329.700	-17.629	0.100
329.800	-26.556	0.100
329.900	-14.605	0.100
330.000	-13.478	0.100
330.100	-15.263	0.100
330.200	-13.584	0.100
330.300	-11.871	0.100
330.400	-18.152	0.100
330.500	-10.735	0.100
330.600	-11.451	0.100
330.700	-7.635	0.100
330.800	-7.942	0.100
330.900	-0.843	0.100
331.000	-1.665	0.100
331.100	-0.979	0.100
331.200	-5.020	0.100
331.300	2.621	0.100
331.400	-5.727	0.100
331.500	-1.232	0.100
331.600	4.621	0.100
331.700	0.909	0.100
331.800	0.648	0.100
331.900	0.806	0.100
332.000	3.735	0.100
332.100	0.799	0.100
332.200	3.103	0.100
332.300	-2.849	0.100
332.400	13.277	0.100
332.500	9.565	0.100
332.600	5.208	0.100
332.700	-9.681	0.100
332.800	-5.906	0.100
332.900	8.377	0.100
333.000	5.484	0.100
333.100	10.442	0.100
333.200	6.723	0.100
333.300	3.255	0.100
333.400	-6.944	0.100
333.500	-1.086	0.100
333.600	7.092	0.100
333.700	3.726	0.100
333.800	13.292	0.100
333.900	-0.616	0.100
334.000	13.450	0.100
334.100	-2.082	0.100
334.200	2.293	0.100
334.300	0.028	0.100
334.400	-4.132	0.100
334.500	6.685	0.100
334.600	6.613	0.100
334.700	4.193	0.100
334.800	-1.549	0.100
334.900	9.638	0.100
335.000	9.889	0.100
335.100	-4.267	0.100
335.200	2.662	0.100
335.300	-1.969	0.100
335.400	-8.657	0.100
335.500	-2.300	0.100
335.600	4.276	0.100
335.700	-3.830	0.100
335.800	2.513	0.100
335.900	3.517	0.100
336.000	2.779	0.100
336.100	-7.960	0.100
336.200	-3.344	0.100
336.300	-5.759	0.100
336.400	-4.148	0.100
336.500	-1.768	0.100
336.600	1.360	0.100
336.700	8.232	0.100
336.800	-1.485	0.100
336.900	-7.569	0.100
337.000	7.568	0.100
337.100	-8.084	0.100
337.200	1.167	0.100
337.300	3.051	0.100
337.400	-0.157	0.100
337.500	6.941	0.100
337.600	11.555	0.100
337.700	0.470	0.100
337.800	2.772	0.100
337.900	8.096	0.100
338.000	3.333	0.100
338.100	1.488	0.100
338.200	4.173	0.100
338.300	2.386	0.100
338.400	10.065	0.100
338.500	7.352	0.100
338.600	14.491	0.100
338.700	-0.373	0.100
338.800	2.141	0.100
338.900	-5.024	0.100
339.000	4.522	0.100
339.100	11.779	0.100
339.200	6.175	0.100
339.300	9.158	0.100
339.400	11.103	0.100
339.500	8.114	0.100
339.600	7.182	0.100
339.700	5.177	0.100
339.800	9.886	0.100
339.900	-16.144	0.100
340.000	10.236	0.100
340.100	4.105	0.100
340.200	10.090	0.100
340.300	4.600	0.100
340.400	9.894	0.100
340.500	9.550	0.100
340.600	8.209	0.100
340.700	14.416	0.100
340.800	17.908	0.100
340.900	5.486	0.100
341.000	-2.049	0.100
341.100	7.827	0.100
341.200	7.180	0.100
341.300	7.235	0.100
341.400	6.925	0.100
341.500	6.086	0.100
341.600	5.599	0.100
341.700	11.100	0.100
341.800	9.397	0.100
341.900	10.052	0.100
342.000	15.364	0.100
342.100	5.651	0.100
342.200	0.493	0.100
342.300	13.491	0.100
342.400	8.985	0.100
342.500	19.401	0.100
342.600	21.353	0.100
342.700	12.220	0.100
342.800	9.850	0.100
342.900	15.191	0.100
343.000	17.121	0.100
343.100	22.985	0.100
343.200	16.008	0.100
343.300	14.507	0.100
343.400	11.934	0.100
343.500	12.130	0.100
343.600	20.231	0.100
343.700	7.944	0.100
343.800	20.509	0.100
343.900	14.973	0.100
344.000	23.207	0.100
344.100	21.326	0.100
344.200	21.487	0.100
344.300	22.129	0.100
344.400	22.204	0.100
344.500	14.969	0.100
344.600	23.232	0.100
344.700	24.242	0.100
344.800	18.192	0.100
344.900	19.499	0.100
345.000	31.285	0.100
345.100	31.695	0.100
345.200	14.432	0.100
345.300	23.606	0.100
345.400	22.251	0.100
345.500	21.382	0.100
345.600	22.104	0.100
345.700	16.054	0.100
345.800	29.346	0.100
345.900	27.819	0.100
346.000	19.037	0.100
346.100	22.456	0.100
346.200	33.549	0.100
346.300	28.152	0.100
346.400	29.915	0.100
346.500	16.387	0.100
346.600	17.051	0.100
346.700	32.324	0.100
346.800	36.972	0.100
346.900	28.546	0.100
347.000	34.091	0.100
347.100	20.073	0.100
347.200	31.803	0.100
347.300	32.485	0.100
347.400	19.938	0.100
347.500	42.602	0.100
347.600	33.262	0.100
347.700	26.833	0.100
347.800	26.608	0.100
347.900	40.285	0.100
348.000	39.776	0.100
348.100	32.950	0.100
348.200	32.268	0.100
348.300	36.163	0.100
348.400	29.602	0.100
348.500	33.566	0.100
348.600	29.104	0.100
348.700	33.017	0.100
348.800	33.389	0.100
348.900	33.227	0.100
349.000	38.006	0.100
349.100	38.305	0.100
349.200	28.382	0.100
349.300	23.100	0.100
349.400	20.550	0.100
349.500	20.516	0.100
349.600	22.965	0.100
349.700	35.033	0.100
349.800	40.795	0.100
349.900	36.446	0.100
350.000	25.436	0.100
350.100	43.778	0.100
350.200	36.558	0.100
350.300	29.142	0.100
350.400	31.749	0.100
350.500	37.160	0.100
350.600	36.445	0.100
350.700	30.804	0.100
350.800	36.292	0.100
350.900	29.875	0.100
351.000	33.096	0.100
351.100	31.566	0.100
351.200	31.492	0.100
351.300	40.533	0.100
351.400	32.812	0.100
351.500	32.764	0.100
351.600	39.408	0.100
351.700	37.040	0.100
351.800	35.664	0.100
351.900	39.320	0.100
352.000	30.351	0.100
352.100	35.311	0.100
352.200	29.715	0.100
352.300	34.013	0.100
352.400	39.445	0.100
352.500	38.163	0.100
352.600	37.113	0.100
352.700	27.777	0.100
352.800	37.089	0.100
352.900	44.914	0.100
353.000	27.602	0.100
353.100	35.006	0.100
353.200	48.805	0.100
353.300	47.443	0.100
353.400	39.176	0.100
353.500	36.587	0.100
353.600	33.488	0.100
353.700	45.136	0.100
353.800	44.033	0.100
353.900	32.596	0.100
354.000	37.163	0.100
354.100	40.438	0.100
354.200	32.311	0.100
354.300	36.882	0.100
354.400	37.468	0.100
354.500	24.491	0.100
354.600	27.217	0.100
354.700	43.656	0.100
354.800	43.381	0.100
354.900	34.878	0.100
355.000	36.098	0.100
355.100	33.945	0.100
355.200	40.151	0.100
355.300	43.311	0.100
355.400	39.697	0.100
355.500	31.977	0.100
355.600	35.554	0.100
355.700	34.190	0.100
355.800	33.592	0.100
355.900	35.817	0.100
356.000	34.212	0.100
356.100	35.143	0.100
356.200	33.952	0.100
356.300	36.292	0.100
356.400	32.404	0.100
356.500	41.341	0.100
356.600	38.544	0.100
356.700	36.826	0.100
356.800	35.625	0.100
356.900	40.821	0.100
357.000	26.855	0.100
357.100	42.341	0.100
357.200	35.105	0.100
357.300	28.726	0.100
357.400	37.828	0.100
357.500	42.913	0.100
357.600	35.585	0.100
357.700	36.221	0.100
357.800	30.820	0.100
357.900	34.523	0.100
358.000	34.293	0.100
358.100	38.723	0.100
358.200	48.039	0.100
358.300	38.422	0.100
358.400	40.171	0.100
358.500	28.387	0.100
358.600	33.147	0.100
358.700	31.127	0.100
358.800	43.623	0.100
358.900	35.614	0.100
359.000	41.868	0.100
359.100	33.504	0.100
359.200	39.877	0.100
359.300	33.044	0.100
359.400	24.168	0.100
359.500	43.562	0.100
359.600	40.690	0.100
359.700	40.806	0.100
359.800	36.615	0.100
359.900	28.181	0.100
360.000	32.701	0.100
360.100	34.449	0.100
360.200	37.644	0.100
360.300	47.946	0.100
360.400	39.394	0.100
360.500	47.189	0.100
360.600	35.786	0.100
360.700	23.700	0.100
360.800	17.404	0.100
360.900	26.321	0.100
361.000	25.772	0.100
361.100	32.009	0.100
361.200	40.157	0.100
361.300	40.705	0.100
361.400	36.997	0.100
361.500	39.624	0.100
361.600	36.298	0.100
361.700	31.673	0.100
361.800	33.259	0.100
361.900	36.335	0.100
362.000	42.467	0.100
362.100	37.178	0.100
362.200	39.961	0.100
362.300	44.782	0.100
362.400	30.780	0.100
362.500	30.817	0.100
362.600	22.819	0.100
362.700	30.427	0.100
362.800	33.554	0.100
362.900	37.876	0.100
363.000	35.650	0.100
363.100	38.003	0.100
363.200	28.204	0.100
363.300	40.944	0.100
363.400	44.672	0.100
363.500	41.804	0.100
363.600	35.061	0.100
363.700	35.851	0.100
363.800	37.165	0.100
363.900	31.936	0.100
364.000	21.237	0.100
364.100	41.686	0.100
364.200	32.073	0.100
364.300	35.045	0.100
364.400	21.819	0.100
364.500	32.346	0.100
364.600	38.590	0.100
364.700	32.452	0.100
364.800	35.070	0.100
364.900	39.956	0.100
365.000	30.791	0.100
365.100	35.463	0.100
365.200	23.736	0.100
365.300	36.520	0.100
365.400	40.161	0.100
365.500	41.910	0.100
365.600	34.697	0.100
365.700	28.184	0.100
365.800	34.758	0.100
365.900	40.597	0.100
366.000	38.143	0.100
366.100	38.070	0.100
366.200	27.626	0.100
366.300	45.190	0.100
366.400	34.477	0.100
366.500	40.802	0.100
366.600	36.511	0.100
366.700	33.315	0.100
366.800	31.740	0.100
366.900	39.805	0.100
367.000	38.547	0.100
367.100	34.833	0.100
367.200	25.560	0.100
367.300	35.960	0.100
367.400	41.016	0.100
367.500	32.184	0.100
367.600	33.921	0.100
367.700	36.325	0.100
367.800	44.842	0.100
367.900	39.810	0.100
368.000	28.427	0.100
368.100	33.371	0.100
368.200	47.087	0.100
368.300	44.933	0.100
368.400	26.084	0.100
368.500	33.269	0.100
368.600	34.349	0.100
368.700	36.277	0.100
368.800	24.330	0.100
368.900	44.061	0.100
369.000	28.343	0.100
369.100	31.571	0.100
369.200	36.034	0.100
369.300	37.022	0.100
369.400	37.882	0.100
369.500	21.491	0.100
369.600	32.570	0.100
369.700	30.546	0.100
369.800	28.461	0.100
369.900	36.118	0.100
370.000	28.929	0.100
370.100	38.864	0.100
370.200	39.874	0.100
370.300	34.284	0.100
370.400	36.502	0.100
370.500	34.488	0.100
370.600	32.414	0.100
370.700	41.143	0.100
370.800	32.473	0.100
370.900	39.295	0.100
371.000	46.425	0.100
371.100	34.718	0.100
371.200	35.386	0.100
371.300	36.908	0.100
371.400	36.104	0.100
371.500	39.784	0.100
371.600	40.870	0.100
371.700	30.141	0.100
371.800	34.465	0.100
371.900	31.754	0.100
372.000	28.905	0.100
372.100	36.185	0.100
372.200	43.393	0.100
372.300	32.159	0.100
372.400	30.719	0.100
372.500	43.799	0.100
372.600	36.652	0.100
372.700	28.951	0.100
372.800	36.004	0.100
372.900	32.594	0.100
373.000	35.318	0.100
373.100	33.682	0.100
373.200	36.453	0.100
373.300	21.936	0.100
373.400	34.248	0.100
373.500	24.753	0.100
373.600	47.384	0.100
373.700	30.085	0.100
373.800	39.918	0.100
373.900	29.048	0.100
374.000	35.806	0.100
374.100	32.635	0.100
374.200	35.964	0.100
374.300	37.283	0.100
374.400	22.240	0.100
374.500	23.470	0.100
374.600	32.096	0.100
374.700	29.700	0.100
374.800	47.219	0.100
374.900	40.872	0.100
375.000	35.972	0.100
375.100	34.512	0.100
375.200	25.833	0.100
375.300	39.960	0.100
375.400	39.659	0.100
375.500	26.240	0.100
375.600	44.882	0.100
375.700	27.932	0.100
375.800	39.674	0.100
375.900	39.274	0.100
376.000	42.418	0.100
376.100	36.738	0.100
376.200	36.429	0.100
376.300	30.554	0.100
376.400	26.874	0.100
376.500	29.622	0.100
376.600	28.857	0.100
376.700	38.388	0.100
376.800	39.730	0.100
376.900	36.365	0.100
377.000	30.578	0.100
377.100	33.895	0.100
377.200	29.851	0.100
377.300	36.285	0.100
377.400	36.510	0.100
377.500	34.803	0.100
377.600	42.019	0.100
377.700	38.070	0.100
377.800	34.100	0.100
377.900	38.703	0.100
378.000	26.986	0.100
378.100	35.579	0.100
378.200	45.004	0.100
378.300	32.295	0.100
378.400	26.923	0.100
378.500	39.643	0.100
378.600	36.503	0.100
378.700	38.377	0.100
378.800	33.965	0.100
378.900	33.481	0.100
379.000	28.530	0.100
379.100	30.384	0.100
379.200	41.907	0.100
379.300	23.286	0.100
379.400	36.037	0.100
379.500	41.646	0.100
379.600	31.971	0.100
379.700	35.299	0.100
379.800	36.372	0.100
379.900	33.770	0.100
380.000	30.490	0.100
380.100	34.618	0.100
380.200	36.718	0.100
380.300	35.021	0.100
380.400	35.546	0.100
380.500	31.462	0.100
380.600	36.491	0.100
380.700	39.135	0.100
380.800	37.298	0.100
380.900	24.057	0.100
381.000	42.262	0.100
381.100	35.684	0.100
381.200	32.482	0.100
381.300	27.285	0.100
381.400	34.026	0.100
381.500	41.585	0.100
381.600	27.854	0.100
381.700	28.280	0.100
381.800	29.967	0.100
381.900	38.421	0.100
382.000	35.612	0.100
382.100	40.347	0.100
382.200	38.931	0.100
382.300	37.658	0.100
382.400	26.378	0.100
382.500	22.183	0.100
382.600	29.316	0.100
382.700	39.320	0.100
382.800	43.513	0.100
382.900	33.901	0.100
383.000	35.254	0.100
383.100	35.354	0.100
383.200	39.779	0.100
383.300	35.202	0.100
383.400	22.718	0.100
383.500	40.544	0.100
383.600	43.066	0.100
383.700	34.176	0.100
383.800	38.547	0.100
383.900	32.197	0.100
384.000	34.403	0.100
384.100	38.140	0.100
384.200	38.325	0.100
384.300	28.437	0.100
384.400	29.831	0.100
384.500	37.807	0.100
384.600	33.134	0.100
384.700	27.519	0.100
384.800	29.130	0.100
384.900	36.286	0.100
385.000	29.484	0.100
385.100	36.172	0.100
385.200	36.404	0.100
385.300	34.628	0.100
385.400	39.914	0.100
385.500	39.736	0.100
385.600	39.565	0.100
385.700	34.044	0.100
385.800	31.545	0.100
385.900	31.335	0.100
386.000	24.268	0.100
386.100	39.977	0.100
386.200	36.629	0.100
386.300	35.102	0.100
386.400	38.656	0.100
386.500	37.976	0.100
386.600	29.527	0.100
386.700	30.517	0.100
386.800	23.064	0.100
386.900	32.559	0.100
387.000	32.431	0.100
387.100	21.389	0.100
387.200	26.113	0.100
387.300	24.358	0.100
387.400	40.845	0.100
387.500	39.049	0.100
387.600	26.346	0.100
387.700	40.342	0.100
387.800	36.370	0.100
387.900	30.987	0.100
388.000	35.240	0.100
388.100	41.384	0.100
388.200	42.455	0.100
388.300	36.337	0.100
388.400	30.378	0.100
388.500	27.214	0.100
388.600	30.060	0.100
388.700	37.149	0.100
388.800	40.640	0.100
388.900	38.146	0.100
389.000	41.651	0.100
389.100	27.558	0.100
389.200	30.036	0.100
389.300	39.105	0.100
389.400	36.685	0.100
389.500	31.099	0.100
389.600	37.435	0.100
389.700	27.900	0.100
389.800	31.403	0.100
389.900	36.829	0.100
390.000	30.087	0.100
390.100	25.614	0.100
390.200	21.394	0.100
390.300	23.041	0.100
390.400	27.574	0.100
390.500	28.724	0.100
390.600	20.527	0.100
390.700	16.973	0.100
390.800	27.423	0.100
390.900	21.015	0.100
391.000	15.582	0.100
391.100	12.621	0.100
391.200	13.204	0.100
391.300	0.499	0.100
391.400	7.218	0.100
391.500	7.294	0.100
391.600	-5.547	0.100
391.700	1.585	0.100
391.800	5.897	0.100
391.900	6.088	0.100
392.000	-5.974	0.100
392.100	-3.562	0.100
392.200	4.071	0.100
392.300	20.919	0.100
392.400	-1.920	0.100
392.500	-8.072	0.100
392.600	-1.682	0.100
392.700	-4.149	0.100
392.800	-2.154	0.100
392.900	-3.256	0.100
393.000	-8.199	0.100
393.100	-9.294	0.100
393.200	-0.036	0.100
393.300	0.883	0.100
393.400	-0.540	0.100
393.500	-6.648	0.100
393.600	-3.760	0.100
393.700	-12.428	0.100
393.800	-7.621	0.100
393.900	-11.379	0.100
394.000	-8.362	0.100
394.100	4.184	0.100
394.200	-16.078	0.100
394.300	-7.930	0.100
394.400	-3.435	0.100
394.500	-12.341	0.100
394.600	-17.930	0.100
394.700	-14.530	0.100
394.800	-12.153	0.100
394.900	-1.704	0.100
395.000	-0.737	0.100
395.100	-27.359	0.100
395.200	-16.161	0.100
395.300	-23.471	0.100
395.400	-1.014	0.100
395.500	-2.899	0.100
395.600	-14.651	0.100
395.700	-12.726	0.100
395.800	-12.722	0.100
395.900	-19.586	0.100
396.000	-9.288	0.100
396.100	-4.791	0.100
396.200	-11.308	0.100
396.300	-12.621	0.100
396.400	-13.058	0.100
396.500	-14.568	0.100
396.600	-15.960	0.100
396.700	-18.208	0.100
396.800	-13.379	0.100
396.900	-11.900	0.100
397.000	-5.242	0.100
397.100	-20.161	0.100
397.200	-14.336	0.100
397.300	-17.599	0.100
397.400	-21.537	0.100
397.500	-15.410	0.100
397.600	-15.963	0.100
397.700	-7.937	0.100
397.800	-6.836	0.100
397.900	-11.251	0.100
398.000	-17.068	0.100
398.100	-15.081	0.100
398.200	-8.084	0.100
398.300	-22.449	0.100
398.400	-21.365	0.100
398.500	-13.405	0.100
398.600	-15.973	0.100
398.700	-13.098	0.100
398.800	-19.098	0.100
398.900	-23.010	0.100
399.000	-10.102	0.100
399.100	-13.374	0.100
399.200	-12.376	0.100
399.300	-6.869	0.100
399.400	-18.746	0.100
399.500	-12.277	0.100
399.600	-10.971	0.100
399.700	-23.078	0.100
399.800	-22.164	0.100
399.900	-20.272	0.100
400.000	-12.589	0.100
400.100	-24.805	0.100
400.200	-7.150	0.100
400.300	-14.295	0.100
400.400	-10.810	0.100
400.500	-15.765	0.100
400.600	-15.682	0.100
400.700	-17.622	0.100
400.800	-24.268	0.100
400.900	-26.845	0.100
401.000	-16.327	0.100
401.100	-6.220	0.100
401.200	-9.172	0.100
401.300	-11.858	0.100
401.400	-18.542	0.100
401.500	-20.330	0.100
401.600	-20.346	0.100
401.700	-14.841	0.100
401.800	-13.711	0.100
401.900	-12.142	0.100
402.000	-29.654	0.100
402.100	-20.763	0.100
402.200	-17.601	0.100
402.300	-18.572	0.100
402.400	-18.482	0.100
402.500	-12.387	0.100
402.600	-24.637	0.100
402.700	-30.042	0.100
402.800	-12.840	0.100
402.900	-19.299	0.100
403.000	-18.975	0.100
403.100	-11.336	0.100
403.200	-23.062	0.100
403.300	-21.808	0.100
403.400	-23.071	0.100
403.500	-6.501	0.100
403.600	-11.267	0.100
403.700	-16.202	0.100
403.800	-20.005	0.100
403.900	-20.011	0.100
404.000	-23.768	0.100
404.100	-12.618	0.100
404.200	-23.083	0.100
404.300	-15.987	0.100
404.400	-26.677	0.100
404.500	-25.249	0.100
404.600	-11.029	0.100
404.700	-18.848	0.100
404.800	-23.912	0.100
404.900	-20.412	0.100
405.000	-15.262	0.100
405.100	-17.625	0.100
405.200	-12.955	0.100
405.300	-17.873	0.100
405.400	-29.918	0.100
405.500	-13.387	0.100
405.600	-22.071	0.100
405.700	-12.704	0.100
405.800	-20.512	0.100
405.900	-23.526	0.100
406.000	-23.216	0.100
406.100	-14.598	0.100
406.200	-33.899	0.100
406.300	-25.484	0.100
406.400	-14.261	0.100
406.500	-8.920	0.100
406.600	-15.327	0.100
406.700	-15.175	0.100
406.800	-26.499	0.100
406.900	-18.834	0.100
407.000	-25.500	0.100
407.100	-16.136	0.100
407.200	-22.847	0.100
407.300	-20.701	0.100
407.400	-22.777	0.100
407.500	-14.516	0.100
407.600	-24.137	0.100
407.700	-19.979	0.100
407.800	-22.122	0.100
407.900	-12.054	0.100
408.000	-18.486	0.100
408.100	-23.448	0.100
408.200	-18.841	0.100
408.300	-26.116	0.100
408.400	-28.136	0.100
408.500	-28.502	0.100
408.600	-28.208	0.100
408.700	-14.761	0.100
408.800	-21.527	0.100
408.900	-16.410	0.100
409.000	-19.777	0.100
409.100	-33.227	0.100
409.200	-16.237	0.100
409.300	-18.154	0.100
409.400	-18.072	0.100
409.500	-15.573	0.100
409.600	-16.869	0.100
409.700	-23.978	0.100
409.800	-17.828	0.100
409.900	-20.624	0.100
410.000	-27.967	0.100
410.100	-20.136	0.100
410.200	-15.656	0.100
410.300	-23.718	0.100
410.400	-36.617	0.100
410.500	-20.235	0.100
410.600	-15.778	0.100
410.700	-27.829	0.100
410.800	-20.411	0.100
410.900	-22.593	0.100
411.000	-26.431	0.100
411.100	-22.213	0.100
411.200	-21.635	0.100
411.300	-21.062	0.100
411.400	-20.860	0.100
411.500	-25.114	0.100
411.600	-21.727	0.100
411.700	-19.863	0.100
411.800	-18.917	0.100
411.900	-17.496	0.100
412.000	-20.120	0.100
412.100	-18.101	0.100
412.200	-17.251	0.100
412.300	-25.476	0.100
412.400	-26.624	0.100
412.500	-16.159	0.100
412.600	-29.445	0.100
412.700	-15.093	0.100
412.800	-29.895	0.100
412.900	-31.196	0.100
413.000	-31.580	0.100
413.100	-17.065	0.100
413.200	-22.441	0.100
413.300	-22.448	0.100
413.400	-29.320	0.100
413.500	-22.590	0.100
413.600	-25.104	0.100
413.700	-20.097	0.100
413.800	-16.003	0.100
413.900	-20.337	0.100
414.000	-29.997	0.100
414.100	-29.784	0.100
414.200	-19.658	0.100
414.300	-22.265	0.100
414.400	-23.145	0.100
414.500	-23.426	0.100
414.600	-17.835	0.100
414.700	-20.566	0.100
414.800	-18.440	0.100
414.900	-18.015	0.100
415.000	-15.198	0.100
415.100	-24.112	0.100
415.200	-22.972	0.100
415.300	-20.526	0.100
415.400	-37.981	0.100
415.500	-29.695	0.100
415.600	-18.277	0.100
415.700	-19.591	0.100
415.800	-20.924	0.100
415.900	-21.470	0.100
416.000	-28.557	0.100
416.100	-23.857	0.100
416.200	-27.244	0.100
416.300	-27.324	0.100
416.400	-31.139	0.100
416.500	-12.305	0.100
416.600	-26.704	0.100
416.700	-39.351	0.100
416.800	-31.036	0.100
416.900	-19.229	0.100
417.000	-18.349	0.100
417.100	-21.854	0.100
417.200	-27.245	0.100
417.300	-21.125	0.100
417.400	-20.934	0.100
417.500	-25.671	0.100
417.600	-27.344	0.100
417.700	-24.462	0.100
417.800	-22.916	0.100
417.900	-24.647	0.100
418.000	-13.642	0.100
418.100	-24.511	0.100
418.200	-27.833	0.100
418.300	-31.829	0.100
418.400	-18.732	0.100
418.500	-26.122	0.100
418.600	-28.455	0.100
418.700	-26.748	0.100
418.800	-30.340	0.100
418.900	-24.587	0.100
419.000	-26.877	0.100
419.100	-24.678	0.100
419.200	-28.148	0.100
419.300	-30.478	0.100
419.400	-24.475	0.100
419.500	-23.184	0.100
419.600	-37.074	0.100
419.700	-21.726	0.100
419.800	-34.383	0.100
419.900	-29.908	0.100
420.000	-31.321	0.100
420.100	-23.389	0.100
420.200	-17.634	0.100
420.300	-29.152	0.100
420.400	-35.996	0.100
420.500	-24.036	0.100
420.600	-20.098	0.100
420.700	-30.632	0.100
420.800	-14.778	0.100
420.900	-30.646	0.100
421.000	-23.733	0.100
421.100	-34.421	0.100
421.200	-23.088	0.100
421.300	-36.729	0.100
421.400	-26.482	0.100
421.500	-38.758	0.100
421.600	-31.205	0.100
421.700	-22.623	0.100
421.800	-30.638	0.100
421.900	-25.137	0.100
422.000	-32.718	0.100
422.100	-23.202	0.100
422.200	-33.463	0.100
422.300	-28.366	0.100
422.400	-33.540	0.100
422.500	-21.904	0.100
422.600	-32.502	0.100
422.700	-30.408	0.100
422.800	-17.483	0.100
422.900	-28.747	0.100
423.000	-28.110	0.100
423.100	-27.495	0.100
423.200	-27.146	0.100
423.300	-24.421	0.100
423.400	-24.171	0.100
423.500	-38.354	0.100
423.600	-29.739	0.100
423.700	-34.678	0.100
423.800	-32.324	0.100
423.900	-20.576	0.100
424.000	-18.383	0.100
424.100	-31.423	0.100
424.200	-38.428	0.100
424.300	-30.975	0.100
424.400	-18.537	0.100
424.500	-30.626	0.100
424.600	-29.699	0.100
424.700	-20.370	0.100
424.800	-23.529	0.100
424.900	-25.217	0.100
425.000	-32.783	0.100
425.100	-27.035	0.100
425.200	-27.305	0.100
425.300	-24.062	0.100
425.400	-37.857	0.100
425.500	-42.349	0.100
425.600	-29.274	0.100
425.700	-24.069	0.100
425.800	-24.073	0.100
425.900	-35.532	0.100
426.000	-26.326	0.100
426.100	-34.461	0.100
426.200	-24.448	0.100
426.300	-17.727	0.100
426.400	-24.132	0.100
426.500	-34.533	0.100
426.600	-34.699	0.100
426.700	-24.221	0.100
426.800	-25.733	0.100
426.900	-43.469	0.100
427.000	-30.309	0.100
427.100	-29.762	0.100
427.200	-36.634	0.100
427.300	-29.252	0.100
427.400	-35.993	0.100
427.500	-23.875	0.100
427.600	-26.096	0.100
427.700	-23.762	0.100
427.800	-33.558	0.100
427.900	-40.158	0.100
428.000	-28.251	0.100
428.100	-25.729	0.100
428.200	-16.561	0.100
428.300	-29.476	0.100
428.400	-35.114	0.100
428.500	-33.018	0.100
428.600	-28.513	0.100
428.700	-27.559	0.100
428.800	-31.304	0.100
428.900	-22.993	0.100
429.000	-19.802	0.100
429.100	-25.878	0.100
429.200	-22.670	0.100
429.300	-34.108	0.100
429.400	-29.651	0.100
429.500	-32.811	0.100
429.600	-26.431	0.100
429.700	-36.928	0.100
429.800	-28.774	0.100
429.900	-27.769	0.100
430.000	-19.623	0.100
430.100	-29.225	0.100
430.200	-29.378	0.100
430.300	-33.349	0.100
430.400	-29.623	0.100
430.500	-26.037	0.100
430.600	-27.484	0.100
430.700	-31.525	0.100
430.800	-43.606	0.100
430.900	-24.467	0.100
431.000	-26.002	0.100
431.100	-28.145	0.100
431.200	-30.757	0.100
431.300	-38.491	0.100
431.400	-25.363	0.100
431.500	-36.038	0.100
431.600	-30.275	0.100
431.700	-27.887	0.100
431.800	-19.844	0.100
431.900	-25.640	0.100
432.000	-23.425	0.100
432.100	-26.687	0.100
432.200	-33.106	0.100
432.300	-25.847	0.100
432.400	-29.201	0.100
432.500	-33.620	0.100
432.600	-33.337	0.100
432.700	-23.753	0.100
432.800	-33.645	0.100
432.900	-30.489	0.100
433.000	-28.545	0.100
433.100	-27.251	0.100
433.200	-26.263	0.100
433.300	-31.837	0.100
433.400	-24.201	0.100
433.500	-35.625	0.100
433.600	-38.680	0.100
433.700	-41.355	0.100
433.800	-29.942	0.100
433.900	-26.458	0.100
434.000	-22.585	0.100
434.100	-16.703	0.100
434.200	-30.720	0.100
434.300	-33.411	0.100
434.400	-32.940	0.100
434.500	-27.464	0.100
434.600	-34.113	0.100
434.700	-42.566	0.100
434.800	-30.337	0.100
434.900	-28.969	0.100
435.000	-23.110	0.100
435.100	-22.602	0.100
435.200	-23.833	0.100
435.300	-28.670	0.100
435.400	-35.273	0.100
435.500	-25.790	0.100
435.600	-27.521	0.100
435.700	-28.805	0.100
435.800	-24.427	0.100
435.900	-40.075	0.100
436.000	-31.845	0.100
436.100	-30.163	0.100
436.200	-31.736	0.100
436.300	-28.903	0.100
436.400	-34.144	0.100
436.500	-21.879	0.100
436.600	-32.757	0.100
436.700	-37.577	0.100
436.800	-34.001	0.100
436.900	-38.614	0.100
437.000	-34.923	0.100
437.100	-17.055	0.100
437.200	-15.167	0.100
437.300	-25.306	0.100
437.400	-33.491	0.100
437.500	-40.777	0.100
437.600	-45.713	0.100
437.700	-30.714	0.100
437.800	-34.822	0.100
437.900	-18.796	0.100
438.000	-25.178	0.100
438.100	-21.855	0.100
438.200	-30.390	0.100
438.300	-33.585	0.100
438.400	-29.720	0.100
438.500	-24.898	0.100
438.600	-36.074	0.100
438.700	-24.826	0.100
438.800	-25.562	0.100
438.900	-21.082	0.100
439.000	-26.853	0.100
439.100	-27.513	0.100
439.200	-35.336	0.100
439.300	-29.587	0.100
439.400	-21.438	0.100
439.500	-30.649	0.100
439.600	-31.820	0.100
439.700	-37.903	0.100
439.800	-26.318	0.100
439.900	-30.358	0.100
440.000	-32.456	0.100
440.100	-29.015	0.100
440.200	-22.809	0.100
440.300	-24.579	0.100
440.400	-25.465	0.100
440.500	-27.791	0.100
440.600	-23.941	0.100
440.700	-29.284	0.100
440.800	-29.807	0.100
440.900	-33.569	0.100
441.000	-32.203	0.100
441.100	-42.588	0.100
441.200	-40.098	0.100
441.300	-31.110	0.100
441.400	-27.383	0.100
441.500	-27.314	0.100
441.600	-28.329	0.100
441.700	-27.449	0.100
441.800	-28.577	0.100
441.900	-24.900	0.100
442.000	-31.177	0.100
442.100	-29.955	0.100
442.200	-32.479	0.100
442.300	-25.776	0.100
442.400	-42.811	0.100
442.500	-34.839	0.100
442.600	-21.546	0.100
442.700	-21.643	0.100
442.800	-32.580	0.100
442.900	-30.425	0.100
443.000	-30.192	0.100
443.100	-25.223	0.100
443.200	-28.199	0.100
443.300	-33.321	0.100
443.400	-32.260	0.100
443.500	-31.841	0.100
443.600	-30.999	0.100
443.700	-36.673	0.100
443.800	-26.092	0.100
443.900	-30.840	0.100
444.000	-34.712	0.100
444.100	-36.219	0.100
444.200	-29.694	0.100
444.300	-36.218	0.100
444.400	-39.886	0.100
444.500	-31.438	0.100
444.600	-27.732	0.100
444.700	-21.605	0.100
444.800	-24.827	0.100
444.900	-30.668	0.100
445.000	-28.612	0.100
445.100	-34.361	0.100
445.200	-27.113	0.100
445.300	-27.508	0.100
445.400	-30.205	0.100
445.500	-27.572	0.100
445.600	-45.202	0.100
445.700	-22.699	0.100
445.800	-22.260	0.100
445.900	-24.148	0.100
446.000	-22.069	0.100
446.100	-24.711	0.100
446.200	-20.734	0.100
446.300	-35.446	0.100
446.400	-26.670	0.100
446.500	-39.600	0.100
446.600	-31.669	0.100
446.700	-25.132	0.100
446.800	-22.280	0.100
446.900	-33.714	0.100
447.000	-23.503	0.100
447.100	-34.021	0.100
447.200	-28.911	0.100
447.300	-26.312	0.100
447.400	-27.334	0.100
447.500	-37.965	0.100
447.600	-29.179	0.100
447.700	-33.313	0.100
447.800	-30.051	0.100
447.900	-36.087	0.100
448.000	-34.427	0.100
448.100	-24.786	0.100
448.200	-30.116	0.100
448.300	-26.528	0.100
448.400	-28.977	0.100
448.500	-34.816	0.100
448.600	-20.198	0.100
448.700	-33.760	0.100
448.800	-26.435	0.100
448.900	-24.400	0.100
449.000	-19.802	0.100
449.100	-29.033	0.100
449.200	-36.888	0.100
449.300	-30.777	0.100
449.400	-22.227	0.100
449.500	-26.096	0.100
449.600	-34.227	0.100
449.700	-35.365	0.100
449.800	-26.981	0.100
449.900	-25.968	0.100
450.000	-27.455	0.100
450.100	-29.846	0.100
450.200	-27.678	0.100
450.300	-31.261	0.100
450.400	-30.497	0.100
450.500	-34.061	0.100
450.600	-30.938	0.100
450.700	-27.577	0.100
450.800	-35.783	0.100
450.900	-30.069	0.100
451.000	-24.853	0.100
451.100	-18.408	0.100
451.200	-27.292	0.100
451.300	-24.809	0.100
451.400	-37.783	0.100
451.500	-22.589	0.100
451.600	-28.126	0.100
451.700	-32.686	0.100
451.800	-28.639	0.100
451.900	-22.244	0.100
452.000	-23.207	0.100
452.100	-24.314	0.100
452.200	-25.064	0.100
452.300	-39.965	0.100
452.400	-39.981	0.100
452.500	-26.067	0.100
452.600	-24.808	0.100
452.700	-28.162	0.100
452.800	-23.624	0.100
452.900	-31.198	0.100
453.000	-29.827	0.100
453.100	-28.384	0.100
453.200	-27.839	0.100
453.300	-29.539	0.100
453.400	-20.899	0.100
453.500	-35.443	0.100
453.600	-25.119	0.100
453.700	-31.351	0.100
453.800	-31.724	0.100
453.900	-29.524	0.100
454.000	-30.708	0.100
454.100	-36.353	0.100
454.200	-29.452	0.100
454.300	-38.223	0.100
454.400	-30.301	0.100
454.500	-36.229	0.100
454.600	-22.056	0.100
454.700	-22.178	0.100
454.800	-33.562	0.100
454.900	-29.847	0.100
455.000	-26.463	0.100
455.100	-21.518	0.100
455.200	-29.818	0.100
455.300	-36.027	0.100
455.400	-34.506	0.100
455.500	-27.383	0.100
455.600	-25.441	0.100
455.700	-30.414	0.100
455.800	-18.298	0.100
455.900	-27.021	0.100
456.000	-25.266	0.100
456.100	-23.901	0.100
456.200	-26.216	0.100
456.300	-25.125	0.100
456.400	-31.603	0.100
456.500	-27.854	0.100
456.600	-31.403	0.100
456.700	-28.616	0.100
456.800	-33.437	0.100
456.900	-21.525	0.100
457.000	-26.417	0.100
457.100	-25.300	0.100
457.200	-32.530	0.100
457.300	-38.673	0.100
457.400	-28.249	0.100
457.500	-34.853	0.100
457.600	-28.518	0.100
457.700	-24.905	0.100
457.800	-36.633	0.100
457.900	-27.229	0.100
458.000	-27.773	0.100
458.100	-33.053	0.100
458.200	-25.699	0.100
458.300	-27.890	0.100
458.400	-30.694	0.100
458.500	-28.217	0.100
458.600	-36.990	0.100
458.700	-24.549	0.100
458.800	-17.857	0.100
458.900	-29.564	0.100
459.000	-24.590	0.100
459.100	-30.726	0.100
459.200	-26.272	0.100
459.300	-30.152	0.100
459.400	-27.222	0.100
459.500	-25.967	0.100
459.600	-29.688	0.100
459.700	-41.862	0.100
459.800	-30.020	0.100
459.900	-18.288	0.100
460.000	-30.561	0.100
460.100	-21.205	0.100
460.200	-34.380	0.100
460.300	-32.685	0.100
460.400	-31.876	0.100
460.500	-28.543	0.100
460.600	-23.690	0.100
460.700	-20.791	0.100
460.800	-36.782	0.100
460.900	-24.203	0.100
461.000	-26.898	0.100
461.100	-18.824	0.100
461.200	-28.794	0.100
461.300	-23.543	0.100
461.400	-20.966	0.100
461.500	-31.253	0.100
461.600	-24.228	0.100
461.700	-32.502	0.100
461.800	-26.911	0.100
461.900	-29.761	0.100
462.000	-31.212	0.100
462.100	-29.479	0.100
462.200	-33.897	0.100
462.300	-30.820	0.100
462.400	-28.701	0.100
462.500	-16.303	0.100
462.600	-33.686	0.100
462.700	-31.918	0.100
462.800	-20.570	0.100
462.900	-17.015	0.100
463.000	-28.232	0.100
463.100	-28.621	0.100
463.200	-39.987	0.100
463.300	-25.966	0.100
463.400	-26.842	0.100
463.500	-32.193	0.100
463.600	-31.631	0.100
463.700	-30.994	0.100
463.800	-32.507	0.100
463.900	-17.665	0.100
464.000	-20.475	0.100
464.100	-26.361	0.100
464.200	-25.504	0.100
464.300	-36.209	0.100
464.400	-32.106	0.100
464.500	-24.891	0.100
464.600	-24.849	0.100
464.700	-15.746	0.100
464.800	-20.325	0.100
464.900	-19.183	0.100
465.000	-27.185	0.100
465.100	-26.805	0.100
465.200	-24.334	0.100
465.300	-35.889	0.100
465.400	-32.946	0.100
465.500	-23.025	0.100
465.600	-23.330	0.100
465.700	-22.025	0.100
465.800	-27.136	0.100
465.900	-25.734	0.100
466.000	-26.414	0.100
466.100	-24.163	0.100
466.200	-26.750	0.100
466.300	-19.655	0.100
466.400	-30.291	0.100
466.500	-30.252	0.100
466.600	-30.989	0.100
466.700	-24.822	0.100
466.800	-21.551	0.100
466.900	-26.140	0.100
467.000	-29.790	0.100
467.100	-34.381	0.100
467.200	-16.798	0.100
467.300	-37.329	0.100
467.400	-22.153	0.100
467.500	-19.256	0.100
467.600	-32.704	0.100
467.700	-17.559	0.100
467.800	-32.371	0.100
467.900	-24.841	0.100
468.000	-14.421	0.100
468.100	-26.447	0.100
468.200	-27.578	0.100
468.300	-35.951	0.100
468.400	-26.963	0.100
468.500	-27.124	0.100
468.600	-29.281	0.100
468.700	-27.228	0.100
468.800	-28.431	0.100
468.900	-32.652	0.100
469.000	-20.498	0.100
469.100	-19.787	0.100
469.200	-31.932	0.100
469.300	-31.383	0.100
469.400	-31.125	0.100
469.500	-22.132	0.100
469.600	-17.452	0.100
469.700	-22.444	0.100
469.800	-26.437	0.100
469.900	-34.453	0.100
470.000	-26.139	0.100
470.100	-22.991	0.100
470.200	-18.370	0.100
470.300	-30.503	0.100
470.400	-32.930	0.100
470.500	-31.952	0.100
470.600	-23.439	0.100
470.700	-22.152	0.100
470.800	-30.279	0.100
470.900	-32.437	0.100
471.000	-28.702	0.100
471.100	-26.969	0.100
471.200	-31.227	0.100
471.300	-37.623	0.100
471.400	-25.025	0.100
471.500	-24.488	0.100
471.600	-23.017	0.100
471.700	-21.698	0.100
471.800	-24.503	0.100
471.900	-17.352	0.100
472.000	-20.750	0.100
472.100	-34.800	0.100
472.200	-30.123	0.100
472.300	-26.220	0.100
472.400	-34.263	0.100
472.500	-37.628	0.100
472.600	-33.385	0.100
472.700	-26.700	0.100
472.800	-21.214	0.100
472.900	-30.623	0.100
473.000	-29.897	0.100
473.100	-27.738	0.100
473.200	-33.943	0.100
473.300	-29.558	0.100
473.400	-14.971	0.100
473.500	-18.967	0.100
473.600	-18.228	0.100
473.700	-28.388	0.100
473.800	-29.116	0.100
473.900	-25.566	0.100
474.000	-33.848	0.100
474.100	-25.819	0.100
474.200	-36.831	0.100
474.300	-20.495	0.100
474.400	-28.483	0.100
474.500	-31.880	0.100
474.600	-32.911	0.100
474.700	-22.245	0.100
474.800	-21.996	0.100
474.900	-30.704	0.100
475.000	-28.765	0.100
475.100	-29.254	0.100
475.200	-24.530	0.100
475.300	-19.927	0.100
475.400	-28.342	0.100
475.500	-26.976	0.100
475.600	-23.828	0.100
475.700	-24.143	0.100
475.800	-26.496	0.100
475.900	-23.155	0.100
476.000	-29.849	0.100
476.100	-37.181	0.100
476.200	-34.874	0.100
476.300	-20.800	0.100
476.400	-6.919	0.100
476.500	-23.943	0.100
476.600	-24.102	0.100
476.700	-27.067	0.100
476.800	-21.425	0.100
476.900	-27.641	0.100
477.000	-32.065	0.100
477.100	-37.757	0.100
477.200	-21.298	0.100
477.300	-30.395	0.100
477.400	-29.303	0.100
477.500	-14.354	0.100
477.600	-24.456	0.100
477.700	-35.277	0.100
477.800	-24.162	0.100
477.900	-27.524	0.100
478.000	-25.066	0.100
478.100	-23.989	0.100
478.200	-25.068	0.100
478.300	-19.604	0.100
478.400	-24.807	0.100
478.500	-24.992	0.100
478.600	-29.379	0.100
478.700	-31.292	0.100
478.800	-30.455	0.100
478.900	-16.030	0.100
479.000	-15.776	0.100
479.100	-32.327	0.100
479.200	-32.420	0.100
479.300	-23.855	0.100
479.400	-29.023	0.100
479.500	-30.372	0.100
479.600	-21.226	0.100
479.700	-23.291	0.100
479.800	-21.353	0.100
479.900	-21.284	0.100
480.000	-19.515	0.100
480.100	-28.706	0.100
480.200	-26.953	0.100
480.300	-13.337	0.100
480.400	-11.034	0.100
480.500	-14.558	0.100
480.600	-13.431	0.100
480.700	-13.227	0.100
480.800	-9.778	0.100
480.900	-8.259	0.100
481.000	-8.889	0.100
481.100	-4.225	0.100
481.200	-12.272	0.100
481.300	-1.928	0.100
481.400	-6.447	0.100
481.500	2.386	0.100
481.600	-5.295	0.100
481.700	6.735	0.100
481.800	1.813	0.100
481.900	-3.984	0.100
482.000	-8.984	0.100
482.100	2.466	0.100
482.200	6.997	0.100
482.300	6.365	0.100
482.400	8.062	0.100
482.500	1.297	0.100
482.600	-3.406	0.100
482.700	3.205	0.100
482.800	2.123	0.100
482.900	16.132	0.100
483.000	9.545	0.100
483.100	3.756	0.100
483.200	-1.592	0.100
483.300	-0.673	0.100
483.400	4.134	0.100
483.500	12.968	0.100
483.600	5.273	0.100
483.700	-3.135	0.100
483.800	1.761	0.100
483.900	-5.625	0.100
484.000	12.293	0.100
484.100	4.326	0.100
484.200	10.153	0.100
484.300	-3.043	0.100
484.400	7.521	0.100
484.500	-4.161	0.100
484.600	0.753	0.100
484.700	4.093	0.100
484.800	3.685	0.100
484.900	-1.300	0.100
485.000	-5.404	0.100
485.100	-0.784	0.100
485.200	-2.486	0.100
485.300	-0.805	0.100
485.400	0.971	0.100
485.500	4.464	0.100
485.600	2.411	0.100
485.700	-5.323	0.100
485.800	-4.026	0.100
485.900	7.641	0.100
486.000	-2.164	0.100
486.100	-0.338	0.100
486.200	6.796	0.100
486.300	-0.734	0.100
486.400	-3.594	0.100
486.500	1.793	0.100
486.600	10.109	0.100
486.700	0.729	0.100
486.800	1.605	0.100
486.900	-0.537	0.100
487.000	-6.379	0.100
487.100	4.442	0.100
487.200	-6.018	0.100
487.300	-11.322	0.100
487.400	-2.077	0.100
487.500	2.831	0.100
487.600	-3.791	0.100
487.700	-0.753	0.100
487.800	-7.030	0.100
487.900	-5.502	0.100
488.000	4.842	0.100
488.100	8.366	0.100
488.200	2.507	0.100
488.300	-6.152	0.100
488.400	3.536	0.100
488.500	13.110	0.100
488.600	8.733	0.100
488.700	-4.190	0.100
488.800	0.988	0.100
488.900	-2.199	0.100
489.000	11.109	0.100
489.100	0.483	0.100
489.200	1.685	0.100
489.300	3.006	0.100
489.400	3.984	0.100
489.500	9.685	0.100
489.600	0.815	0.100
489.700	3.439	0.100
489.800	11.692	0.100
489.900	6.301	0.100
490.000	1.292	0.100
490.100	-2.668	0.100
490.200	-0.286	0.100
490.300	7.742	0.100
490.400	2.535	0.100
490.500	-0.597	0.100
490.600	17.641	0.100
490.700	8.943	0.100
490.800	18.957	0.100
490.900	1.294	0.100
491.000	7.065	0.100
491.100	8.028	0.100
491.200	3.840	0.100
491.300	2.265	0.100
491.400	11.237	0.100
491.500	4.554	0.100
491.600	13.944	0.100
491.700	7.239	0.100
491.800	13.368	0.100
491.900	7.778	0.100
492.000	7.253	0.100
492.100	21.161	0.100
492.200	13.382	0.100
492.300	11.394	0.100
492.400	11.911	0.100
492.500	11.196	0.100
492.600	14.289	0.100
492.700	6.006	0.100
492.800	18.121	0.100
492.900	11.524	0.100
493.000	1.888	0.100
493.100	12.103	0.100
493.200	7.614	0.100
493.300	10.324	0.100
493.400	15.785	0.100
493.500	12.711	0.100
493.600	13.660	0.100
493.700	27.469	0.100
493.800	15.122	0.100
493.900	14.825	0.100
494.000	16.419	0.100
494.100	12.880	0.100
494.200	12.300	0.100
494.300	12.780	0.100
494.400	14.447	0.100
494.500	14.062	0.100
494.600	21.763	0.100
494.700	11.961	0.100
494.800	21.851	0.100
494.900	19.806	0.100
495.000	24.562	0.100
495.100	27.353	0.100
495.200	9.573	0.100
495.300	15.785	0.100
495.400	22.014	0.100
495.500	28.804	0.100
495.600	20.906	0.100
495.700	23.988	0.100
495.800	26.921	0.100
495.900	20.444	0.100
496.000	17.922	0.100
496.100	30.994	0.100
496.200	22.265	0.100
496.300	24.138	0.100
496.400	27.083	0.100
496.500	28.962	0.100
496.600	31.365	0.100
496.700	25.515	0.100
496.800	25.480	0.100
496.900	32.497	0.100
497.000	22.718	0.100
497.100	27.930	0.100
497.200	28.622	0.100
497.300	26.389	0.100
497.400	33.490	0.100
497.500	23.750	0.100
497.600	26.730	0.100
497.700	29.523	0.100
497.800	24.501	0.100
497.900	28.347	0.100
498.000	28.723	0.100
498.100	29.853	0.100
498.200	29.150	0.100
498.300	25.088	0.100
498.400	38.494	0.100
498.500	35.828	0.100
498.600	29.093	0.100
498.700	27.363	0.100
498.800	29.140	0.100
498.900	33.374	0.100
499.000	26.159	0.100
499.100	35.968	0.100
499.200	26.346	0.100
499.300	29.588	0.100
499.400	37.031	0.100
499.500	37.019	0.100
499.600	31.153	0.100
499.700	31.243	0.100
499.800	28.379	0.100
499.900	28.841	0.100
500.000	40.116	0.100
500.100	32.161	0.100
500.200	35.323	0.100
500.300	24.235	0.100
500.400	31.295	0.100
500.500	34.155	0.100
500.600	28.143	0.100
500.700	34.433	0.100
500.800	40.769	0.100
500.900	37.717	0.100
501.000	40.818	0.100
501.100	37.235	0.100
501.200	38.139	0.100
501.300	35.630	0.100
501.400	23.987	0.100
501.500	35.839	0.100
501.600	33.753	0.100
501.700	32.589	0.100
501.800	39.980	0.100
501.900	38.296	0.100
502.000	41.711	0.100
502.100	37.835	0.100
502.200	37.102	0.100
502.300	26.551	0.100
502.400	26.605	0.100
502.500	41.210	0.100
502.600	33.213	0.100
502.700	39.983	0.100
502.800	25.297	0.100
502.900	41.905	0.100
503.000	48.385	0.100
503.100	36.498	0.100
503.200	36.335	0.100
503.300	29.082	0.100
503.400	33.716	0.100
503.500	39.597	0.100
503.600	43.989	0.100
503.700	30.839	0.100
503.800	35.854	0.100
503.900	40.927	0.100
504.000	40.709	0.100
504.100	30.817	0.100
504.200	36.024	0.100
504.300	24.140	0.100
504.400	31.298	0.100
504.500	47.060	0.100
504.600	45.225	0.100
504.700	27.697	0.100
504.800	34.979	0.100
504.900	44.529	0.100
505.000	29.814	0.100
505.100	41.157	0.100
505.200	37.377	0.100
505.300	36.641	0.100
505.400	30.579	0.100
505.500	42.095	0.100
505.600	42.359	0.100
505.700	35.234	0.100
505.800	24.641	0.100
505.900	31.471	0.100
506.000	29.961	0.100
506.100	32.942	0.100
506.200	47.547	0.100
506.300	55.059	0.100
506.400	34.041	0.100
506.500	33.527	0.100
506.600	45.982	0.100
506.700	35.423	0.100
506.800	31.952	0.100
506.900	38.584	0.100
507.000	38.782	0.100
507.100	39.513	0.100
507.200	35.772	0.100
507.300	37.979	0.100
507.400	31.577	0.100
507.500	39.761	0.100
507.600	33.512	0.100
507.700	25.293	0.100
507.800	45.761	0.100
507.900	38.997	0.100
508.000	40.894	0.100
508.100	33.518	0.100
508.200	33.397	0.100
508.300	35.185	0.100
508.400	37.043	0.100
508.500	30.309	0.100
508.600	35.984	0.100
508.700	36.997	0.100
508.800	41.589	0.100
508.900	41.211	0.100
509.000	38.607	0.100
509.100	26.904	0.100
509.200	37.379	0.100
509.300	39.737	0.100
509.400	27.585	0.100
509.500	43.659	0.100
509.600	30.711	0.100
509.700	46.210	0.100
509.800	30.769	0.100
509.900	30.443	0.100
510.000	36.854	0.100
510.100	33.085	0.100
510.200	31.855	0.100
510.300	35.864	0.100
510.400	27.955	0.100
510.500	25.934	0.100
510.600	39.483	0.100
510.700	41.844	0.100
510.800	35.362	0.100
510.900	33.800	0.100
511.000	41.653	0.100
511.100	38.137	0.100
511.200	38.197	0.100
511.300	38.850	0.100
511.400	40.417	0.100
511.500	40.370	0.100
511.600	39.104	0.100
511.700	36.196	0.100
511.800	19.146	0.100
511.900	39.759	0.100
512.000	32.241	0.100
512.100	38.970	0.100
512.200	34.319	0.100
512.300	32.221	0.100
512.400	35.250	0.100
512.500	36.136	0.100
512.600	41.298	0.100
512.700	33.461	0.100
512.800	34.261	0.100
512.900	31.760	0.100
513.000	33.761	0.100
513.100	43.256	0.100
513.200	44.787	0.100
513.300	36.702	0.100
513.400	31.064	0.100
513.500	34.951	0.100
513.600	35.671	0.100
513.700	35.067	0.100
513.800	26.021	0.100
513.900	33.604	0.100
514.000	37.220	0.100
514.100	32.623	0.100
514.200	34.921	0.100
514.300	25.883	0.100
514.400	43.945	0.100
514.500	41.651	0.100
514.600	28.657	0.100
514.700	31.966	0.100
514.800	38.904	0.100
514.900	37.994	0.100
515.000	35.658	0.100
515.100	41.664	0.100
515.200	35.639	0.100
515.300	44.487	0.100
515.400	31.948	0.100
515.500	33.328	0.100
515.600	32.382	0.100
515.700	30.838	0.100
515.800	34.085	0.100
515.900	38.878	0.100
516.000	44.999	0.100
516.100	32.786	0.100
516.200	38.363	0.100
516.300	38.805	0.100
516.400	35.312	0.100
516.500	34.191	0.100
516.600	38.174	0.100
516.700	34.866	0.100
516.800	32.824	0.100
516.900	22.546	0.100
517.000	35.368	0.100
517.100	38.259	0.100
517.200	37.306	0.100
517.300	41.384	0.100
517.400	42.594	0.100
517.500	29.444	0.100
517.600	38.241	0.100
517.700	29.594	0.100
517.800	35.794	0.100
517.900	28.143	0.100
518.000	32.568	0.100
518.100	35.943	0.100
518.200	40.812	0.100
518.300	43.095	0.100
518.400	42.643	0.100
518.500	28.462	0.100
518.600	32.921	0.100
518.700	35.141	0.100
518.800	36.258	0.100
518.900	33.127	0.100
519.000	36.678	0.100
519.100	31.594	0.100
519.200	36.700	0.100
519.300	35.978	0.100
519.400	38.374	0.100
519.500	40.231	0.100
519.600	39.571	0.100
519.700	48.610	0.100
519.800	35.697	0.100
519.900	31.636	0.100
520.000	27.021	0.100
520.100	39.685	0.100
520.200	34.348	0.100
520.300	27.246	0.100
520.400	26.774	0.100
520.500	31.651	0.100
520.600	31.891	0.100
520.700	35.814	0.100
520.800	39.873	0.100
520.900	32.915	0.100
521.000	35.426	0.100
521.100	41.254	0.100
521.200	44.777	0.100
521.300	33.943	0.100
521.400	37.308	0.100
521.500	43.009	0.100
521.600	37.230	0.100
521.700	24.104	0.100
521.800	38.117	0.100
521.900	44.303	0.100
522.000	34.810	0.100
522.100	35.401	0.100
522.200	31.969	0.100
522.300	35.426	0.100
522.400	24.370	0.100
522.500	25.387	0.100
522.600	27.962	0.100
522.700	32.074	0.100
522.800	36.905	0.100
522.900	39.022	0.100
523.000	36.972	0.100
523.100	29.964	0.100
523.200	42.296	0.100
523.300	36.704	0.100
523.400	42.761	0.100
523.500	33.757	0.100
523.600	38.218	0.100
523.700	32.640	0.100
523.800	27.254	0.100
523.900	24.700	0.100
524.000	41.834	0.100
524.100	27.573	0.100
524.200	35.761	0.100
524.300	44.906	0.100
524.400	38.170	0.100
524.500	41.922	0.100
524.600	30.725	0.100
524.700	37.632	0.100
524.800	37.346	0.100
524.900	40.176	0.100
525.000	34.411	0.100
525.100	33.735	0.100
525.200	36.607	0.100
525.300	20.104	0.100
525.400	31.824	0.100
525.500	25.683	0.100
525.600	27.859	0.100
525.700	41.501	0.100
525.800	34.913	0.100
525.900	36.513	0.100
526.000	49.524	0.100
526.100	35.399	0.100
526.200	40.775	0.100
526.300	26.829	0.100
526.400	35.530	0.100
526.500	33.287	0.100
526.600	35.255	0.100
526.700	37.014	0.100
526.800	41.452	0.100
526.900	37.737	0.100
527.000	34.065	0.100
527.100	29.364	0.100
527.200	27.110	0.100
527.300	25.291	0.100
527.400	31.554	0.100
527.500	41.352	0.100
527.600	30.863	0.100
527.700	42.998	0.100
527.800	35.822	0.100
527.900	24.431	0.100
528.000	20.644	0.100
528.100	40.150	0.100
528.200	37.465	0.100
528.300	36.491	0.100
528.400	37.579	0.100
528.500	39.210	0.100
528.600	34.025	0.100
528.700	32.400	0.100
528.800	24.334	0.100
528.900	50.025	0.100
529.000	29.657	0.100
529.100	37.144	0.100
529.200	29.607	0.100
529.300	46.258	0.100
529.400	38.597	0.100
529.500	33.544	0.100
529.600	26.249	0.100
529.700	31.773	0.100
529.800	32.285	0.100
529.900	45.568	0.100
530.000	42.681	0.100
530.100	38.366	0.100
530.200	32.358	0.100
530.300	38.194	0.100
530.400	42.390	0.100
530.500	30.887	0.100
530.600	35.064	0.100
530.700	27.854	0.100
530.800	30.437	0.100
530.900	42.001	0.100
531.000	29.410	0.100
531.100	29.971	0.100
531.200	33.544	0.100
531.300	41.724	0.100
531.400	38.036	0.100
531.500	34.839	0.100
531.600	34.752	0.100
531.700	39.176	0.100
531.800	20.718	0.100
531.900	33.834	0.100
532.000	39.710	0.100
532.100	35.428	0.100
532.200	30.485	0.100
532.300	25.421	0.100
532.400	26.275	0.100
532.500	30.340	0.100
532.600	33.477	0.100
532.700	44.855	0.100
532.800	33.877	0.100
532.900	34.937	0.100
533.000	41.076	0.100
533.100	38.382	0.100
533.200	23.227	0.100
533.300	30.627	0.100
533.400	42.667	0.100
533.500	29.175	0.100
533.600	37.379	0.100
533.700	33.711	0.100
533.800	24.899	0.100
533.900	34.667	0.100
534.000	35.494	0.100
534.100	31.011	0.100
534.200	29.987	0.100
534.300	36.485	0.100
534.400	31.851	0.100
534.500	49.618	0.100
534.600	35.458	0.100
534.700	37.868	0.100
534.800	29.098	0.100
534.900	29.966	0.100
535.000	31.963	0.100
535.100	28.073	0.100
535.200	40.567	0.100
535.300	29.910	0.100
535.400	37.637	0.100
535.500	24.186	0.100
535.600	35.290	0.100
535.700	28.055	0.100
535.800	39.215	0.100
535.900	45.431	0.100
536.000	29.098	0.100
536.100	28.992	0.100
536.200	37.491	0.100
536.300	33.412	0.100
536.400	36.595	0.100
536.500	37.491	0.100
536.600	37.552	0.100
536.700	27.365	0.100
536.800	23.638	0.100
536.900	31.156	0.100
537.000	41.277	0.100
537.100	32.356	0.100
537.200	25.203	0.100
537.300	24.806	0.100
537.400	29.803	0.100
537.500	41.924	0.100
537.600	39.531	0.100
537.700	32.017	0.100
537.800	42.900	0.100
537.900	35.908	0.100
538.000	32.406	0.100
538.100	23.806	0.100
538.200	33.893	0.100
538.300	30.916	0.100
538.400	35.002	0.100
538.500	36.708	0.100
538.600	27.483	0.100
538.700	27.185	0.100
538.800	35.856	0.100
538.900	36.276	0.100
539.000	37.131	0.100
539.100	33.204	0.100
539.200	30.207	0.100
539.300	37.801	0.100
539.400	36.363	0.100
539.500	36.844	0.100
539.600	28.485	0.100
539.700	36.177	0.100
539.800	37.477	0.100
539.900	30.942	0.100
540.000	34.756	0.100
540.100	30.682	0.100
540.200	28.687	0.100
540.300	28.670	0.100
540.400	24.049	0.100
540.500	18.558	0.100
540.600	24.313	0.100
540.700	20.299	0.100
540.800	19.930	0.100
540.900	12.154	0.100
541.000	3.516	0.100
541.100	22.889	0.100
541.200	14.346	0.100
541.300	11.310	0.100
541.400	9.214	0.100
541.500	8.746	0.100
541.600	10.076	0.100
541.700	-9.734	0.100
541.800	4.893	0.100
541.900	-7.671	0.100
542.000	-4.437	0.100
542.100	4.254	0.100
542.200	1.837	0.100
542.300	-4.248	0.100
542.400	-15.450	0.100
542.500	-8.041	0.100
542.600	-7.115	0.100
542.700	-5.160	0.100
542.800	-13.791	0.100
542.900	-4.372	0.100
543.000	-10.772	0.100
543.100	-11.460	0.100
543.200	7.971	0.100
543.300	-8.411	0.100
543.400	-6.966	0.100
543.500	-7.135	0.100
543.600	-17.466	0.100
543.700	-6.030	0.100
543.800	-14.541	0.100
543.900	-20.186	0.100
544.000	-26.322	0.100
544.100	-10.341	0.100
544.200	-3.213	0.100
544.300	-4.783	0.100
544.400	-17.072	0.100
544.500	-26.237	0.100
544.600	-22.415	0.100
544.700	-15.231	0.100
544.800	-14.102	0.100
544.900	-18.632	0.100
545.000	-19.694	0.100
545.100	-9.977	0.100
545.200	-5.004	0.100
545.300	-11.029	0.100
545.400	-9.397	0.100
545.500	-24.327	0.100
545.600	-13.338	0.100
545.700	-13.238	0.100
545.800	-13.311	0.100
545.900	-18.195	0.100
546.000	-19.950	0.100
546.100	-14.417	0.100
546.200	-14.535	0.100
546.300	-10.772	0.100
546.400	-10.796	0.100
546.500	-9.903	0.100
546.600	-27.022	0.100
546.700	-13.135	0.100
546.800	-8.448	0.100
546.900	-18.923	0.100
547.000	-9.840	0.100
547.100	-19.298	0.100
547.200	-16.081	0.100
547.300	-21.417	0.100
547.400	-26.471	0.100
547.500	-4.583	0.100
547.600	-7.319	0.100
547.700	-7.522	0.100
547.800	-14.451	0.100
547.900	-18.551	0.100
548.000	-11.748	0.100
548.100	-8.196	0.100
548.200	-15.026	0.100
548.300	-18.940	0.100
548.400	-12.574	0.100
548.500	-18.875	0.100
548.600	-9.981	0.100
548.700	-29.530	0.100
548.800	-20.158	0.100
548.900	-17.767	0.100
549.000	-18.276	0.100
549.100	-18.046	0.100
549.200	-14.666	0.100
549.300	-16.376	0.100
549.400	-15.204	0.100
549.500	-29.491	0.100
549.600	-19.686	0.100
549.700	-6.012	0.100
549.800	-15.248	0.100
549.900	-19.312	0.100
550.000	-16.018	0.100
550.100	-16.114	0.100
550.200	-24.964	0.100
550.300	-14.627	0.100
550.400	-13.902	0.100
550.500	-15.529	0.100
550.600	-20.226	0.100
550.700	-12.635	0.100
550.800	-14.787	0.100
550.900	-21.637	0.100
551.000	-17.821	0.100
551.100	-19.452	0.100
551.200	-20.317	0.100
551.300	-16.098	0.100
551.400	-18.659	0.100
551.500	-22.871	0.100
551.600	-16.095	0.100
551.700	-29.546	0.100
551.800	-24.782	0.100
551.900	-15.667	0.100
552.000	-7.568	0.100
552.100	-13.160	0.100
552.200	-12.845	0.100
552.300	-24.778	0.100
552.400	-24.868	0.100
552.500	-16.060	0.100
552.600	-29.985	0.100
552.700	-25.018	0.100
552.800	-21.987	0.100
552.900	-27.113	0.100
553.000	-18.927	0.100
553.100	-19.209	0.100
553.200	-30.893	0.100
553.300	-19.298	0.100
553.400	-18.724	0.100
553.500	-23.851	0.100
553.600	-12.477	0.100
553.700	-25.428	0.100
553.800	-29.878	0.100
553.900	-19.792	0.100
554.000	-17.419	0.100
554.100	-10.511	0.100
554.200	-22.122	0.100
554.300	-15.380	0.100
554.400	-10.962	0.100
554.500	-7.711	0.100
554.600	-14.362	0.100
554.700	-22.386	0.100
554.800	-19.733	0.100
554.900	-28.774	0.100
555.000	-25.550	0.100
555.100	-24.858	0.100
555.200	-19.652	0.100
555.300	-30.448	0.100
555.400	-23.707	0.100
555.500	-4.724	0.100
555.600	-15.653	0.100
555.700	-14.971	0.100
555.800	-29.977	0.100
555.900	-26.682	0.100
556.000	-17.325	0.100
556.100	-11.460	0.100
556.200	-30.082	0.100
556.300	-24.597	0.100
556.400	-28.881	0.100
556.500	-19.978	0.100
556.600	-17.560	0.100
556.700	-18.926	0.100
556.800	-22.803	0.100
556.900	-25.868	0.100
557.000	-17.598	0.100
557.100	-21.492	0.100
557.200	-22.401	0.100
557.300	-30.455	0.100
557.400	-30.196	0.100
557.500	-16.231	0.100
557.600	-22.731	0.100
557.700	-23.555	0.100
557.800	-20.537	0.100
557.900	-23.233	0.100
558.000	-24.324	0.100
558.100	-25.081	0.100
558.200	-24.598	0.100
558.300	-26.807	0.100
558.400	-19.212	0.100
558.500	-21.671	0.100
558.600	-23.444	0.100
558.700	-23.288	0.100
558.800	-17.376	0.100
558.900	-19.778	0.100
559.000	-18.655	0.100
559.100	-24.464	0.100
559.200	-26.327	0.100
559.300	-20.674	0.100
559.400	-25.855	0.100
559.500	-29.156	0.100
559.600	-31.596	0.100
559.700	-23.756	0.100
559.800	-38.540	0.100
559.900	-35.662	0.100
560.000	-22.381	0.100
560.100	-11.682	0.100
560.200	-11.735	0.100
560.300	-25.186	0.100
560.400	-29.251	0.100
560.500	-22.975	0.100
560.600	-30.762	0.100
560.700	-31.629	0.100
560.800	-15.033	0.100
560.900	-21.062	0.100
561.000	-23.221	0.100
561.100	-25.519	0.100
561.200	-20.919	0.100
561.300	-38.283	0.100
561.400	-23.336	0.100
561.500	-19.474	0.100
561.600	-22.133	0.100
561.700	-27.676	0.100
561.800	-24.947	0.100
561.900	-25.538	0.100
562.000	-21.581	0.100
562.100	-27.139	0.100
562.200	-30.349	0.100
562.300	-17.223	0.100
562.400	-25.362	0.100
562.500	-23.906	0.100
562.600	-27.839	0.100
562.700	-32.903	0.100
562.800	-27.146	0.100
562.900	-15.190	0.100
563.000	-16.156	0.100
563.100	-26.122	0.100
563.200	-24.423	0.100
563.300	-39.591	0.100
563.400	-13.812	0.100
563.500	-23.441	0.100
563.600	-30.237	0.100
563.700	-22.194	0.100
563.800	-16.659	0.100
563.900	-17.849	0.100
564.000	-27.181	0.100
564.100	-30.297	0.100
564.200	-29.384	0.100
564.300	-33.064	0.100
564.400	-24.858	0.100
564.500	-21.731	0.100
564.600	-30.164	0.100
564.700	-35.782	0.100
564.800	-32.640	0.100
564.900	-23.355	0.100
565.000	-20.179	0.100
565.100	-29.563	0.100
565.200	-32.839	0.100
565.300	-19.718	0.100
565.400	-29.162	0.100
565.500	-21.768	0.100
565.600	-23.692	0.100
565.700	-46.252	0.100
565.800	-26.386	0.100
565.900	-28.361	0.100
566.000	-31.050	0.100
566.100	-19.897	0.100
566.200	-26.821	0.100
566.300	-18.630	0.100
566.400	-21.698	0.100
566.500	-25.886	0.100
566.600	-23.601	0.100
566.700	-40.696	0.100
566.800	-37.749	0.100
566.900	-41.748	0.100
567.000	-33.377	0.100
567.100	-32.697	0.100
567.200	-24.866	0.100
567.300	-24.847	0.100
567.400	-24.561	0.100
567.500	-29.988	0.100
567.600	-26.858	0.100
567.700	-27.188	0.100
567.800	-30.742	0.100
567.900	-27.825	0.100
568.000	-23.297	0.100
568.100	-29.554	0.100
568.200	-28.877	0.100
568.300	-26.827	0.100
568.400	-38.879	0.100
568.500	-34.954	0.100
568.600	-25.291	0.100
568.700	-26.645	0.100
568.800	-24.962	0.100
568.900	-24.014	0.100
569.000	-31.484	0.100
569.100	-32.926	0.100
569.200	-27.045	0.100
569.300	-28.477	0.100
569.400	-38.272	0.100
569.500	-25.038	0.100
569.600	-26.139	0.100
569.700	-31.386	0.100
569.800	-28.944	0.100
569.900	-33.511	0.100
570.000	-31.688	0.100
570.100	-25.195	0.100
570.200	-26.984	0.100
570.300	-29.904	0.100
570.400	-26.616	0.100
570.500	-30.850	0.100
570.600	-31.472	0.100
570.700	-24.318	0.100
570.800	-24.662	0.100
570.900	-29.044	0.100
571.000	-34.561	0.100
571.100	-22.090	0.100
571.200	-29.306	0.100
571.300	-28.497	0.100
571.400	-28.493	0.100
571.500	-32.952	0.100
571.600	-41.267	0.100
571.700	-38.741	0.100
571.800	-33.300	0.100
571.900	-36.416	0.100
572.000	-28.914	0.100
572.100	-32.982	0.100
572.200	-19.463	0.100
572.300	-42.684	0.100
572.400	-22.896	0.100
572.500	-26.666	0.100
572.600	-35.850	0.100
572.700	-34.411	0.100
572.800	-25.523	0.100
572.900	-22.326	0.100
573.000	-25.520	0.100
573.100	-27.919	0.100
573.200	-33.021	0.100
573.300	-28.716	0.100
573.400	-34.629	0.100
573.500	-25.231	0.100
573.600	-25.004	0.100
573.700	-28.443	0.100
573.800	-26.653	0.100
573.900	-31.944	0.100
574.000	-38.418	0.100
574.100	-43.579	0.100
574.200	-24.131	0.100
574.300	-26.050	0.100
574.400	-18.349	0.100
574.500	-34.397	0.100
574.600	-28.551	0.100
574.700	-29.035	0.100
574.800	-34.663	0.100
574.900	-33.396	0.100
575.000	-28.321	0.100
575.100	-26.642	0.100
575.200	-31.251	0.100
575.300	-32.574	0.100
575.400	-38.824	0.100
575.500	-27.092	0.100
575.600	-20.033	0.100
575.700	-23.009	0.100
575.800	-31.677	0.100
575.900	-22.314	0.100
576.000	-29.028	0.100
576.100	-31.448	0.100
576.200	-26.134	0.100
576.300	-29.097	0.100
576.400	-28.241	0.100
576.500	-29.557	0.100
576.600	-37.411	0.100
576.700	-38.640	0.100
576.800	-30.650	0.100
576.900	-33.590	0.100
577.000	-25.634	0.100
577.100	-39.266	0.100
577.200	-27.267	0.100
577.300	-31.834	0.100
577.400	-36.734	0.100
577.500	-28.068	0.100
577.600	-38.948	0.100
577.700	-30.834	0.100
577.800	-38.464	0.100
577.900	-41.425	0.100
578.000	-28.485	0.100
578.100	-36.400	0.100
578.200	-34.090	0.100
578.300	-31.547	0.100
578.400	-22.067	0.100
578.500	-32.757	0.100
578.600	-25.472	0.100
578.700	-31.425	0.100
578.800	-32.333	0.100
578.900	-34.617	0.100
579.000	-36.641	0.100
579.100	-27.747	0.100
579.200	-42.447	0.100
579.300	-39.983	0.100
579.400	-30.097	0.100
579.500	-37.355	0.100
579.600	-30.790	0.100
579.700	-28.782	0.100
579.800	-27.095	0.100
579.900	-21.068	0.100
580.000	-27.779	0.100
580.100	-37.919	0.100
580.200	-32.359	0.100
580.300	-34.994	0.100
580.400	-38.474	0.100
580.500	-36.425	0.100
580.600	-37.751	0.100
580.700	-14.245	0.100
580.800	-33.362	0.100
580.900	-24.709	0.100
581.000	-28.528	0.100
581.100	-29.542	0.100
581.200	-25.093	0.100
581.300	-24.805	0.100
581.400	-26.070	0.100
581.500	-35.110	0.100
581.600	-34.777	0.100
581.700	-27.651	0.100
581.800	-30.963	0.100
581.900	-30.218	0.100
582.000	-19.751	0.100
582.100	-31.003	0.100
582.200	-43.315	0.100
582.300	-28.462	0.100
582.400	-30.419	0.100
582.500	-23.552	0.100
582.600	-32.721	0.100
582.700	-29.069	0.100
582.800	-42.957	0.100
582.900	-33.473	0.100
583.000	-27.539	0.100
583.100	-24.343	0.100
583.200	-25.406	0.100
583.300	-26.640	0.100
583.400	-33.026	0.100
583.500	-30.775	0.100
583.600	-32.135	0.100
583.700	-34.639	0.100
583.800	-41.419	0.100
583.900	-21.826	0.100
584.000	-32.416	0.100
584.100	-38.615	0.100
584.200	-40.932	0.100
584.300	-39.398	0.100
584.400	-35.741	0.100
584.500	-34.827	0.100
584.600	-26.678	0.100
584.700	-19.126	0.100
584.800	-21.861	0.100
584.900	-34.570	0.100
585.000	-37.321	0.100
585.100	-35.134	0.100
585.200	-30.827	0.100
585.300	-25.820	0.100
585.400	-32.758	0.100
585.500	-29.061	0.100
585.600	-33.035	0.100
585.700	-39.492	0.100
585.800	-20.516	0.100
585.900	-40.058	0.100
586.000	-43.743	0.100
586.100	-35.749	0.100
586.200	-28.563	0.100
586.300	-31.148	0.100
586.400	-34.038	0.100
586.500	-31.099	0.100
586.600	-22.070	0.100
586.700	-26.587	0.100
586.800	-28.968	0.100
586.900	-33.887	0.100
587.000	-41.687	0.100
587.100	-23.277	0.100
587.200	-31.304	0.100
587.300	-37.199	0.100
587.400	-24.477	0.100
587.500	-33.261	0.100
587.600	-28.911	0.100
587.700	-29.830	0.100
587.800	-39.052	0.100
587.900	-29.838	0.100
588.000	-27.683	0.100
588.100	-39.862	0.100
588.200	-40.651	0.100
588.300	-42.309	0.100
588.400	-34.606	0.100
588.500	-36.445	0.100
588.600	-35.486	0.100
588.700	-30.677	0.100
588.800	-29.412	0.100
588.900	-26.778	0.100
589.000	-37.547	0.100
589.100	-30.002	0.100
589.200	-30.459	0.100
589.300	-31.041	0.100
589.400	-35.016	0.100
589.500	-46.255	0.100
589.600	-33.998	0.100
589.700	-32.224	0.100
589.800	-26.244	0.100
589.900	-33.684	0.100
590.000	-31.273	0.100
590.100	-31.218	0.100
590.200	-42.163	0.100
590.300	-31.724	0.100
590.400	-30.748	0.100
590.500	-31.480	0.100
590.600	-23.293	0.100
590.700	-28.970	0.100
590.800	-24.867	0.100
590.900	-35.209	0.100
591.000	-32.087	0.100
591.100	-29.780	0.100
591.200	-34.169	0.100
591.300	-35.669	0.100
591.400	-31.364	0.100
591.500	-28.915	0.100
591.600	-31.533	0.100
591.700	-24.627	0.100
591.800	-26.906	0.100
591.900	-34.359	0.100
592.000	-45.187	0.100
592.100	-33.038	0.100
592.200	-22.519	0.100
592.300	-25.038	0.100
592.400	-38.803	0.100
592.500	-21.691	0.100
592.600	-19.048	0.100
592.700	-26.604	0.100
592.800	-27.773	0.100
592.900	-34.114	0.100
593.000	-35.878	0.100
593.100	-36.137	0.100
593.200	-26.898	0.100
593.300	-33.026	0.100
593.400	-36.355	0.100
593.500	-28.664	0.100
593.600	-42.691	0.100
593.700	-35.965	0.100
593.800	-30.698	0.100
593.900	-24.027	0.100
594.000	-32.603	0.100
594.100	-26.633	0.100
594.200	-30.341	0.100
594.300	-36.913	0.100
594.400	-41.292	0.100
594.500	-31.042	0.100
594.600	-30.039	0.100
594.700	-33.628	0.100
594.800	-37.536	0.100
594.900	-31.896	0.100
595.000	-28.357	0.100
595.100	-33.885	0.100
595.200	-33.020	0.100
595.300	-28.419	0.100
595.400	-27.666	0.100
595.500	-20.902	0.100
595.600	-37.544	0.100
595.700	-16.646	0.100
595.800	-38.207	0.100
595.900	-26.255	0.100
596.000	-25.150	0.100
596.100	-23.774	0.100
596.200	-34.718	0.100
596.300	-39.603	0.100
596.400	-35.389	0.100
596.500	-25.610	0.100
596.600	-26.666	0.100
596.700	-22.620	0.100
596.800	-26.343	0.100
596.900	-35.823	0.100
597.000	-35.725	0.100
597.100	-31.041	0.100
597.200	-21.869	0.100
597.300	-35.248	0.100
597.400	-29.777	0.100
597.500	-25.307	0.100
597.600	-20.041	0.100
597.700	-37.699	0.100
597.800	-27.720	0.100
597.900	-37.206	0.100
598.000	-31.019	0.100
598.100	-24.057	0.100
598.200	-28.542	0.100
598.300	-30.377	0.100
598.400	-27.526	0.100
598.500	-34.598	0.100
598.600	-30.657	0.100
598.700	-30.932	0.100
598.800	-32.755	0.100
598.900	-26.547	0.100
599.000	-29.011	0.100
599.100	-29.365	0.100
599.200	-26.748	0.100
599.300	-32.608	0.100
599.400	-22.989	0.100
599.500	-33.039	0.100
599.600	-33.184	0.100
599.700	-35.176	0.100
599.800	-27.696	0.100
599.900	-35.757	0.100
600.000	-27.458	0.100
600.100	-32.511	0.100
600.200	-44.581	0.100
600.300	-32.977	0.100
600.400	-22.160	0.100
600.500	-36.099	0.100
600.600	-35.170	0.100
600.700	-32.835	0.100
600.800	-33.256	0.100
600.900	-38.245	0.100
601.000	-30.907	0.100
601.100	-20.228	0.100
601.200	-31.518	0.100
601.300	-29.369	0.100
601.400	-30.636	0.100
601.500	-23.960	0.100
601.600	-27.478	0.100
601.700	-27.019	0.100
601.800	-32.409	0.100
601.900	-34.956	0.100
602.000	-28.407	0.100
602.100	-29.855	0.100
602.200	-31.811	0.100
602.300	-33.195	0.100
602.400	-47.424	0.100
602.500	-33.607	0.100
602.600	-24.941	0.100
602.700	-30.947	0.100
602.800	-30.047	0.100
602.900	-29.241	0.100
603.000	-26.280	0.100
603.100	-26.306	0.100
603.200	-24.530	0.100
603.300	-20.468	0.100
603.400	-26.005	0.100
603.500	-25.142	0.100
603.600	-24.138	0.100
603.700	-32.403	0.100
603.800	-33.168	0.100
603.900	-38.349	0.100
604.000	-32.186	0.100
604.100	-32.166	0.100
604.200	-35.326	0.100
604.300	-22.703	0.100
604.400	-39.676	0.100
604.500	-32.455	0.100
604.600	-21.581	0.100
604.700	-27.182	0.100
604.800	-28.018	0.100
604.900	-16.776	0.100
605.000	-31.700	0.100
605.100	-25.392	0.100
605.200	-30.874	0.100
605.300	-21.800	0.100
605.400	-28.305	0.100
605.500	-28.880	0.100
605.600	-27.683	0.100
605.700	-20.954	0.100
605.800	-21.583	0.100
605.900	-33.542	0.100
606.000	-38.251	0.100
606.100	-29.234	0.100
606.200	-25.022	0.100
606.300	-33.332	0.100
606.400	-33.113	0.100
606.500	-31.830	0.100
606.600	-34.183	0.100
606.700	-24.456	0.100
606.800	-27.825	0.100
606.900	-24.558	0.100
607.000	-29.742	0.100
607.100	-28.888	0.100
607.200	-25.420	0.100
607.300	-22.934	0.100
607.400	-34.595	0.100
607.500	-27.851	0.100
607.600	-27.622	0.100
607.700	-21.919	0.100
607.800	-17.767	0.100
607.900	-35.434	0.100
608.000	-38.127	0.100
608.100	-33.631	0.100
608.200	-30.945	0.100
608.300	-33.905	0.100
608.400	-31.621	0.100
608.500	-28.184	0.100
608.600	-27.527	0.100
608.700	-37.837	0.100
608.800	-32.373	0.100
608.900	-36.357	0.100
609.000	-33.678	0.100
609.100	-25.782	0.100
609.200	-33.804	0.100
609.300	-22.220	0.100
609.400	-28.067	0.100
609.500	-23.671	0.100
609.600	-20.721	0.100
609.700	-31.212	0.100
609.800	-33.024	0.100
609.900	-23.489	0.100
610.000	-20.922	0.100
610.100	-34.423	0.100
610.200	-30.047	0.100
610.300	-25.756	0.100
610.400	-30.290	0.100
610.500	-28.102	0.100
610.600	-41.289	0.100
610.700	-37.588	0.100
610.800	-33.621	0.100
610.900	-30.103	0.100
611.000	-16.309	0.100
611.100	-28.276	0.100
611.200	-31.412	0.100
611.300	-40.916	0.100
611.400	-20.751	0.100
611.500	-26.644	0.100
611.600	-21.116	0.100
611.700	-20.695	0.100
611.800	-28.848	0.100
611.900	-30.021	0.100
612.000	-26.651	0.100
612.100	-35.684	0.100
612.200	-42.156	0.100
612.300	-35.252	0.100
612.400	-25.872	0.100
612.500	-32.618	0.100
612.600	-31.826	0.100
612.700	-37.102	0.100
612.800	-18.260	0.100
612.900	-19.423	0.100
613.000	-27.723	0.100
613.100	-29.344	0.100
613.200	-28.065	0.100
613.300	-29.778	0.100
613.400	-20.320	0.100
613.500	-19.326	0.100
613.600	-38.561	0.100
613.700	-24.543	0.100
613.800	-26.715	0.100
613.900	-27.565	0.100
614.000	-36.156	0.100
614.100	-38.674	0.100
614.200	-27.700	0.100
614.300	-33.075	0.100
614.400	-22.506	0.100
614.500	-26.256	0.100
614.600	-34.004	0.100
614.700	-29.083	0.100
614.800	-32.567	0.100
614.900	-24.950	0.100
615.000	-32.895	0.100
615.100	-32.002	0.100
615.200	-18.418	0.100
615.300	-33.596	0.100
615.400	-36.751	0.100
615.500	-36.499	0.100
615.600	-25.605	0.100
615.700	-35.493	0.100
615.800	-34.359	0.100
615.900	-26.256	0.100
616.000	-25.952	0.100
616.100	-32.008	0.100
616.200	-28.715	0.100
616.300	-27.828	0.100
616.400	-19.378	0.100
616.500	-23.932	0.100
616.600	-26.828	0.100
616.700	-22.877	0.100
616.800	-29.815	0.100
616.900	-34.147	0.100
617.000	-27.356	0.100
617.100	-27.692	0.100
617.200	-26.368	0.100
617.300	-29.553	0.100
617.400	-21.036	0.100
617.500	-33.727	0.100
617.600	-32.491	0.100
617.700	-30.564	0.100
617.800	-26.186	0.100
617.900	-26.808	0.100
618.000	-33.006	0.100
618.100	-28.128	0.100
618.200	-22.256	0.100
618.300	-32.323	0.100
618.400	-21.654	0.100
618.500	-31.425	0.100
618.600	-29.273	0.100
618.700	-27.263	0.100
618.800	-25.821	0.100
618.900	-27.819	0.100
619.000	-33.043	0.100
619.100	-32.801	0.100
619.200	-21.287	0.100
619.300	-22.899	0.100
619.400	-28.557	0.100
619.500	-28.036	0.100
619.600	-30.875	0.100
619.700	-23.401	0.100
619.800	-27.744	0.100
619.900	-33.461	0.100
620.000	-24.287	0.100
620.100	-26.374	0.100
620.200	-32.066	0.100
620.300	-25.726	0.100
620.400	-35.145	0.100
620.500	-21.906	0.100
620.600	-19.956	0.100
620.700	-32.010	0.100
620.800	-24.927	0.100
620.900	-30.247	0.100
621.000	-26.163	0.100
621.100	-27.510	0.100
621.200	-31.283	0.100
621.300	-34.460	0.100
621.400	-34.150	0.100
621.500	-22.099	0.100
621.600	-22.104	0.100
621.700	-17.669	0.100
621.800	-28.764	0.100
621.900	-34.225	0.100
622.000	-27.662	0.100
622.100	-28.733	0.100
622.200	-26.685	0.100
622.300	-34.071	0.100
622.400	-31.397	0.100
622.500	-39.435	0.100
622.600	-27.815	0.100
622.700	-17.540	0.100
622.800	-22.576	0.100
622.900	-24.341	0.100
623.000	-25.121	0.100
623.100	-22.268	0.100
623.200	-23.451	0.100
623.300	-28.567	0.100
623.400	-40.491	0.100
623.500	-33.630	0.100
623.600	-26.709	0.100
623.700	-31.049	0.100
623.800	-23.290	0.100
623.900	-27.558	0.100
624.000	-31.278	0.100
624.100	-31.063	0.100
624.200	-26.996	0.100
624.300	-23.047	0.100
624.400	-24.324	0.100
624.500	-17.772	0.100
624.600	-14.560	0.100
624.700	-18.731	0.100
624.800	-29.257	0.100
624.900	-35.558	0.100
625.000	-26.484	0.100
625.100	-25.685	0.100
625.200	-28.576	0.100
625.300	-22.005	0.100
625.400	-24.802	0.100
625.500	-28.901	0.100
625.600	-29.116	0.100
625.700	-29.800	0.100
625.800	-34.072	0.100
625.900	-26.496	0.100
626.000	-25.743	0.100
626.100	-21.594	0.100
626.200	-29.181	0.100
626.300	-28.784	0.100
626.400	-28.180	0.100
626.500	-27.581	0.100
626.600	-20.183	0.100
626.700	-23.837	0.100
626.800	-30.595	0.100
626.900	-26.029	0.100
627.000	-30.530	0.100
627.100	-27.248	0.100
627.200	-26.435	0.100
627.300	-18.322	0.100
627.400	-32.501	0.100
627.500	-31.521	0.100
627.600	-27.185	0.100
627.700	-16.689	0.100
627.800	-25.842	0.100
627.900	-22.417	0.100
628.000	-27.612	0.100
628.100	-15.844	0.100
628.200	-26.195	0.100
628.300	-27.121	0.100
628.400	-33.762	0.100
628.500	-31.719	0.100
628.600	-30.339	0.100
628.700	-35.184	0.100
628.800	-33.231	0.100
628.900	-38.947	0.100
629.000	-27.557	0.100
629.100	-25.848	0.100
629.200	-25.665	0.100
629.300	-23.049	0.100
629.400	-24.470	0.100
629.500	-27.153	0.100
629.600	-32.772	0.100
629.700	-29.306	0.100
629.800	-23.632	0.100
629.900	-23.173	0.100
630.000	-24.878	0.100
630.100	-22.999	0.100
630.200	-16.782	0.100
630.300	-20.932	0.100
630.400	-14.680	0.100
630.500	-16.407	0.100
630.600	-11.234	0.100
630.700	-16.690	0.100
630.800	-3.967	0.100
630.900	-3.872	0.100
631.000	-6.214	0.100
631.100	-9.854	0.100
631.200	-9.096	0.100
631.300	-8.239	0.100
631.400	3.318	0.100
631.500	0.159	0.100
631.600	2.232	0.100
631.700	6.671	0.100
631.800	-5.019	0.100
631.900	-3.616	0.100
632.000	2.258	0.100
632.100	-1.229	0.100
632.200	6.525	0.100
632.300	4.105	0.100
632.400	6.291	0.100
632.500	1.829	0.100
632.600	-0.914	0.100
632.700	2.774	0.100
632.800	-0.729	0.100
632.900	3.022	0.100
633.000	0.478	0.100
633.100	0.611	0.100
633.200	3.556	0.100
633.300	1.871	0.100
633.400	13.197	0.100
633.500	10.773	0.100
633.600	3.770	0.100
633.700	-5.369	0.100
633.800	12.820	0.100
633.900	8.564	0.100
634.000	0.649	0.100
634.100	3.068	0.100
634.200	-3.203	0.100
634.300	-12.075	0.100
634.400	10.606	0.100
634.500	4.288	0.100
634.600	6.173	0.100
634.700	-11.453	0.100
634.800	-0.025	0.100
634.900	5.140	0.100
635.000	6.239	0.100
635.100	6.067	0.100
635.200	3.686	0.100
635.300	0.856	0.100
635.400	-6.367	0.100
635.500	1.748	0.100
635.600	1.753	0.100
635.700	-5.620	0.100
635.800	11.116	0.100
635.900	-2.218	0.100
636.000	5.071	0.100
636.100	-3.682	0.100
636.200	0.270	0.100
636.300	2.627	0.100
636.400	5.122	0.100
636.500	7.136	0.100
636.600	-1.442	0.100
636.700	1.396	0.100
636.800	2.155	0.100
636.900	9.810	0.100
637.000	2.304	0.100
637.100	7.602	0.100
637.200	9.450	0.100
637.300	2.094	0.100
637.400	-2.876	0.100
637.500	-3.344	0.100
637.600	0.854	0.100
637.700	9.563	0.100
637.800	0.490	0.100
637.900	3.621	0.100
638.000	-2.720	0.100
638.100	3.896	0.100
638.200	-4.845	0.100
638.300	9.385	0.100
638.400	4.831	0.100
638.500	1.457	0.100
638.600	1.549	0.100
638.700	0.253	0.100
638.800	0.114	0.100
638.900	3.645	0.100
639.000	11.851	0.100
639.100	9.958	0.100
639.200	1.155	0.100
639.300	6.020	0.100
639.400	7.312	0.100
639.500	4.172	0.100
639.600	10.127	0.100
639.700	1.342	0.100
639.800	11.017	0.100
639.900	11.378	0.100
640.000	-5.102	0.100
640.100	11.127	0.100
640.200	8.617	0.100
640.300	-0.892	0.100
640.400	11.441	0.100
640.500	6.258	0.100
640.600	3.023	0.100
640.700	17.236	0.100
640.800	0.068	0.100
640.900	2.279	0.100
641.000	-0.763	0.100
641.100	-0.545	0.100
641.200	-1.526	0.100
641.300	11.008	0.100
641.400	9.262	0.100
641.500	7.055	0.100
641.600	7.022	0.100
641.700	4.535	0.100
641.800	1.081	0.100
641.900	11.823	0.100
642.000	4.574	0.100
642.100	1.533	0.100
642.200	-6.118	0.100
642.300	-6.417	0.100
642.400	17.518	0.100
642.500	15.935	0.100
642.600	18.287	0.100
642.700	11.912	0.100
642.800	14.851	0.100
642.900	12.792	0.100
643.000	18.780	0.100
643.100	12.932	0.100
643.200	19.939	0.100
643.300	19.122	0.100
643.400	13.923	0.100
643.500	16.795	0.100
643.600	19.949	0.100
643.700	8.008	0.100
643.800	-6.478	0.100
643.900	11.772	0.100
644.000	23.415	0.100
644.100	17.296	0.100
644.200	20.968	0.100
644.300	12.803	0.100
644.400	17.253	0.100
644.500	10.588	0.100
644.600	14.065	0.100
644.700	13.912	0.100
644.800	13.997	0.100
644.900	19.049	0.100
645.000	16.108	0.100
645.100	14.599	0.100
645.200	15.521	0.100
645.300	12.163	0.100
645.400	9.093	0.100
645.500	23.632	0.100
645.600	14.157	0.100
645.700	8.329	0.100
645.800	21.465	0.100
645.900	24.187	0.100
646.000	22.247	0.100
646.100	20.170	0.100
646.200	21.864	0.100
646.300	14.561	0.100
646.400	18.523	0.100
646.500	23.749	0.100
646.600	22.531	0.100
646.700	30.881	0.100
646.800	28.163	0.100
646.900	25.247	0.100
647.000	30.094	0.100
647.100	19.584	0.100
647.200	20.017	0.100
647.300	18.387	0.100
647.400	18.899	0.100
647.500	27.541	0.100
647.600	27.861	0.100
647.700	30.804	0.100
647.800	25.261	0.100
647.900	26.362	0.100
648.000	18.831	0.100
648.100	25.061	0.100
648.200	30.057	0.100
648.300	29.719	0.100
648.400	31.158	0.100
648.500	25.308	0.100
648.600	28.957	0.100
648.700	29.836	0.100
648.800	33.639	0.100
648.900	33.494	0.100
649.000	33.165	0.100
649.100	24.276	0.100
649.200	26.369	0.100
649.300	30.415	0.100
649.400	29.769	0.100
649.500	43.263	0.100
649.600	31.074	0.100
649.700	26.799	0.100
649.800	31.191	0.100
649.900	36.953	0.100
650.000	31.352	0.100
650.100	42.008	0.100
650.200	26.968	0.100
650.300	30.159	0.100
650.400	30.724	0.100
650.500	31.985	0.100
650.600	40.755	0.100
650.700	26.074	0.100
650.800	33.031	0.100
650.900	39.907	0.100
651.000	42.811	0.100
651.100	33.217	0.100
651.200	35.258	0.100
651.300	28.756	0.100
651.400	40.048	0.100
651.500	33.077	0.100
651.600	37.577	0.100
651.700	45.006	0.100
651.800	35.163	0.100
651.900	39.079	0.100
652.000	34.781	0.100
652.100	34.483	0.100
652.200	32.800	0.100
652.300	31.373	0.100
652.400	32.921	0.100
652.500	37.166	0.100
652.600	34.743	0.100
652.700	41.010	0.100
652.800	44.129	0.100
652.900	19.243	0.100
653.000	35.735	0.100
653.100	37.154	0.100
653.200	40.953	0.100
653.300	25.804	0.100
653.400	30.868	0.100
653.500	28.098	0.100
653.600	37.270	0.100
653.700	39.475	0.100
653.800	30.030	0.100
653.900	35.867	0.100
654.000	48.378	0.100
654.100	39.165	0.100
654.200	42.105	0.100
654.300	34.564	0.100
654.400	41.043	0.100
654.500	37.557	0.100
654.600	37.254	0.100
654.700	37.521	0.100
654.800	36.894	0.100
654.900	26.160	0.100
655.000	42.991	0.100
655.100	38.483	0.100
655.200	38.276	0.100
655.300	39.873	0.100
655.400	23.817	0.100
655.500	32.415	0.100
655.600	33.538	0.100
655.700	39.986	0.100
655.800	41.817	0.100
655.900	29.193	0.100
656.000	40.830	0.100
656.100	40.257	0.100
656.200	34.539	0.100
656.300	39.781	0.100
656.400	41.677	0.100
656.500	29.778	0.100
656.600	34.267	0.100
656.700	35.538	0.100
656.800	44.304	0.100
656.900	30.983	0.100
657.000	30.169	0.100
657.100	35.040	0.100
657.200	46.499	0.100
657.300	49.931	0.100
657.400	43.815	0.100
657.500	31.683	0.100
657.600	44.298	0.100
657.700	31.485	0.100
657.800	40.214	0.100
657.900	33.956	0.100
658.000	35.965	0.100
658.100	37.966	0.100
658.200	36.478	0.100
658.300	38.047	0.100
658.400	34.941	0.100
658.500	28.121	0.100
658.600	37.287	0.100
658.700	24.704	0.100
658.800	37.909	0.100
658.900	46.076	0.100
659.000	43.110	0.100
659.100	37.269	0.100
659.200	29.437	0.100
659.300	29.086	0.100
659.400	34.479	0.100
659.500	28.588	0.100
659.600	46.927	0.100
659.700	44.539	0.100
659.800	35.830	0.100
659.900	26.903	0.100
660.000	39.145	0.100
660.100	39.995	0.100
660.200	31.942	0.100
660.300	33.090	0.100
660.400	35.859	0.100
660.500	36.764	0.100
660.600	32.607	0.100
660.700	43.550	0.100
660.800	38.908	0.100
660.900	33.458	0.100
661.000	42.395	0.100
661.100	30.987	0.100
661.200	29.101	0.100
661.300	48.505	0.100
661.400	39.065	0.100
661.500	28.004	0.100
661.600	43.232	0.100
661.700	41.260	0.100
661.800	37.900	0.100
661.900	36.248	0.100
662.000	39.850	0.100
662.100	37.396	0.100
662.200	36.217	0.100
662.300	24.193	0.100
662.400	42.391	0.100
662.500	33.377	0.100
662.600	30.510	0.100
662.700	45.708	0.100
662.800	34.876	0.100
662.900	29.690	0.100
663.000	33.359	0.100
663.100	32.056	0.100
663.200	37.955	0.100
663.300	37.726	0.100
663.400	42.523	0.100
663.500	41.153	0.100
663.600	24.284	0.100
663.700	31.285	0.100
663.800	41.222	0.100
663.900	45.107	0.100
664.000	37.692	0.100
664.100	31.580	0.100
664.200	32.016	0.100
664.300	30.344	0.100
664.400	35.019	0.100
664.500	39.260	0.100
664.600	31.325	0.100
664.700	29.671	0.100
664.800	40.277	0.100
664.900	29.758	0.100
665.000	33.555	0.100
665.100	28.076	0.100
665.200	44.201	0.100
665.300	36.138	0.100
665.400	44.329	0.100
665.500	41.062	0.100
665.600	26.358	0.100
665.700	37.214	0.100
665.800	37.783	0.100
665.900	40.462	0.100
666.000	33.282	0.100
666.100	38.136	0.100
666.200	17.360	0.100
666.300	32.591	0.100
666.400	43.020	0.100
666.500	37.423	0.100
666.600	36.459	0.100
666.700	43.514	0.100
666.800	34.853	0.100
666.900	43.443	0.100
667.000	47.251	0.100
667.100	41.026	0.100
667.200	26.328	0.100
667.300	26.151	0.100
667.400	36.158	0.100
667.500	38.707	0.100
667.600	42.943	0.100
667.700	25.898	0.100
667.800	24.918	0.100
667.900	30.646	0.100
668.000	41.618	0.100
668.100	45.309	0.100
668.200	28.654	0.100
668.300	42.333	0.100
668.400	36.415	0.100
668.500	37.874	0.100
668.600	34.547	0.100
668.700	32.687	0.100
668.800	39.345	0.100
668.900	47.964	0.100
669.000	35.353	0.100
669.100	35.984	0.100
669.200	30.890	0.100
669.300	32.539	0.100
669.400	30.760	0.100
669.500	32.593	0.100
669.600	42.680	0.100
669.700	39.898	0.100
669.800	29.288	0.100
669.900	37.485	0.100
670.000	41.987	0.100
670.100	36.163	0.100
670.200	33.388	0.100
670.300	34.373	0.100
670.400	33.652	0.100
670.500	32.517	0.100
670.600	34.766	0.100
670.700	29.596	0.100
670.800	26.543	0.100
670.900	29.548	0.100
671.000	34.080	0.100
671.100	37.291	0.100
671.200	34.606	0.100
671.300	34.913	0.100
671.400	36.527	0.100
671.500	31.262	0.100
671.600	37.333	0.100
671.700	33.666	0.100
671.800	36.260	0.100
671.900	37.205	0.100
672.000	29.301	0.100
672.100	37.398	0.100
672.200	29.436	0.100
672.300	38.760	0.100
672.400	32.151	0.100
672.500	42.529	0.100
672.600	42.763	0.100
672.700	34.782	0.100
672.800	29.408	0.100
672.900	35.043	0.100
673.000	22.616	0.100
673.100	32.043	0.100
673.200	36.600	0.100
673.300	28.559	0.100
673.400	36.509	0.100
673.500	31.057	0.100
673.600	33.787	0.100
673.700	32.732	0.100
673.800	29.163	0.100
673.900	31.372	0.100
674.000	39.020	0.100
674.100	50.295	0.100
674.200	33.144	0.100
674.300	27.833	0.100
674.400	26.621	0.100
674.500	36.464	0.100
674.600	52.339	0.100
674.700	38.186	0.100
674.800	35.751	0.100
674.900	42.916	0.100
675.000	40.555	0.100
675.100	38.202	0.100
675.200	33.784	0.100
675.300	24.655	0.100
675.400	28.081	0.100
675.500	37.939	0.100
675.600	40.122	0.100
675.700	30.754	0.100
675.800	36.374	0.100
675.900	37.755	0.100
676.000	33.214	0.100
676.100	31.363	0.100
676.200	30.760	0.100
676.300	35.997	0.100
676.400	36.942	0.100
676.500	39.892	0.100
676.600	47.703	0.100
676.700	22.806	0.100
676.800	24.060	0.100
676.900	39.711	0.100
677.000	33.707	0.100
677.100	30.134	0.100
677.200	35.748	0.100
677.300	39.907	0.100
677.400	33.702	0.100
677.500	42.678	0.100
677.600	40.214	0.100
677.700	36.688	0.100
677.800	34.099	0.100
677.900	38.037	0.100
678.000	45.139	0.100
678.100	23.911	0.100
678.200	34.398	0.100
678.300	36.025	0.100
678.400	32.461	0.100
678.500	34.758	0.100
678.600	31.531	0.100
678.700	35.640	0.100
678.800	35.243	0.100
678.900	33.999	0.100
679.000	25.340	0.100
679.100	24.658	0.100
679.200	29.279	0.100
679.300	44.629	0.100
679.400	45.431	0.100
679.500	35.711	0.100
679.600	36.489	0.100
679.700	42.983	0.100
679.800	37.785	0.100
679.900	31.668	0.100
680.000	33.801	0.100
680.100	28.826	0.100
680.200	29.756	0.100
680.300	30.720	0.100
680.400	31.829	0.100
680.500	26.583	0.100
680.600	39.493	0.100
680.700	35.794	0.100
680.800	35.688	0.100
680.900	46.274	0.100
681.000	42.159	0.100
681.100	31.893	0.100
681.200	38.287	0.100
681.300	32.769	0.100
681.400	38.538	0.100
681.500	29.011	0.100
681.600	36.429	0.100
681.700	30.906	0.100
681.800	26.342	0.100
681.900	21.977	0.100
682.000	30.557	0.100
682.100	30.614	0.100
682.200	37.985	0.100
682.300	33.777	0.100
682.400	35.002	0.100
682.500	40.571	0.100
682.600	40.257	0.100
682.700	41.031	0.100
682.800	40.123	0.100
682.900	33.763	0.100
683.000	34.443	0.100
683.100	31.615	0.100
683.200	40.661	0.100
683.300	38.554	0.100
683.400	35.101	0.100
683.500	24.087	0.100
683.600	34.256	0.100
683.700	32.382	0.100
683.800	31.495	0.100
683.900	36.364	0.100
684.000	32.727	0.100
684.100	34.621	0.100
684.200	35.778	0.100
684.300	41.281	0.100
684.400	48.825	0.100
684.500	37.959	0.100
684.600	33.740	0.100
684.700	28.742	0.100
684.800	21.506	0.100
684.900	30.870	0.100
685.000	47.319	0.100
685.100	37.375	0.100
685.200	35.140	0.100
685.300	28.516	0.100
685.400	43.645	0.100
685.500	31.895	0.100
685.600	34.350	0.100
685.700	37.942	0.100
685.800	41.432	0.100
685.900	40.834	0.100
686.000	30.581	0.100
686.100	36.427	0.100
686.200	43.320	0.100
686.300	48.619	0.100
686.400	36.919	0.100
686.500	29.169	0.100
686.600	21.133	0.100
686.700	38.180	0.100
686.800	33.658	0.100
686.900	42.901	0.100
687.000	23.459	0.100
687.100	34.402	0.100
687.200	38.666	0.100
687.300	33.857	0.100
687.400	34.290	0.100
687.500	32.040	0.100
687.600	31.059	0.100
687.700	29.837	0.100
687.800	35.178	0.100
687.900	33.702	0.100
688.000	37.681	0.100
688.100	31.502	0.100
688.200	40.717	0.100
688.300	25.354	0.100
688.400	30.245	0.100
688.500	38.323	0.100
688.600	33.096	0.100
688.700	23.889	0.100
688.800	36.666	0.100
688.900	35.203	0.100
689.000	34.250	0.100
689.100	35.474	0.100
689.200	39.068	0.100
689.300	33.126	0.100
689.400	32.793	0.100
689.500	29.194	0.100
689.600	34.434	0.100
689.700	40.238	0.100
689.800	31.614	0.100
689.900	28.864	0.100
690.000	30.609	0.100
690.100	31.142	0.100
690.200	34.469	0.100
690.300	26.011	0.100
690.400	23.717	0.100
690.500	19.405	0.100
690.600	31.149	0.100
690.700	21.280	0.100
690.800	13.391	0.100
690.900	11.619	0.100
691.000	15.554	0.100
691.100	24.975	0.100
691.200	15.988	0.100
691.300	13.336	0.100
691.400	13.643	0.100
691.500	5.539	0.100
691.600	3.444	0.100
691.700	8.034	0.100
691.800	2.185	0.100
691.900	2.786	0.100
692.000	-3.321	0.100
692.100	2.215	0.100
692.200	-5.339	0.100
692.300	-5.742	0.100
692.400	-4.930	0.100
692.500	-8.198	0.100
692.600	2.606	0.100
692.700	-12.762	0.100
692.800	-2.041	0.100
692.900	-14.407	0.100
693.000	-18.216	0.100
693.100	-1.698	0.100
693.200	-9.347	0.100
693.300	-13.169	0.100
693.400	-6.739	0.100
693.500	-8.480	0.100
693.600	-17.808	0.100
693.700	-10.855	0.100
693.800	-9.378	0.100
693.900	-8.721	0.100
694.000	-13.743	0.100
694.100	-9.655	0.100
694.200	-10.004	0.100
694.300	-18.033	0.100
694.400	-27.419	0.100
694.500	-10.958	0.100
694.600	-9.860	0.100
694.700	-13.421	0.100
694.800	-8.166	0.100
694.900	-16.261	0.100
695.000	-13.891	0.100
695.100	-8.165	0.100
695.200	-3.866	0.100
695.300	-6.785	0.100
695.400	-15.335	0.100
695.500	-20.403	0.100
695.600	-12.298	0.100
695.700	-15.273	0.100
695.800	-11.655	0.100
695.900	-17.413	0.100
696.000	-19.997	0.100
696.100	-12.134	0.100
696.200	-24.282	0.100
696.300	-22.121	0.100
696.400	-17.720	0.100
696.500	-22.807	0.100
696.600	-10.742	0.100
696.700	-15.393	0.100
696.800	-18.606	0.100
696.900	-11.699	0.100
697.000	-10.542	0.100
697.100	-13.166	0.100
697.200	-16.257	0.100
697.300	-12.139	0.100
697.400	-13.065	0.100
697.500	-15.724	0.100
697.600	-21.068	0.100
697.700	-12.865	0.100
697.800	-12.352	0.100
697.900	-14.072	0.100
698.000	-13.090	0.100
698.100	-18.230	0.100
698.200	-17.713	0.100
698.300	-19.773	0.100
698.400	-14.169	0.100
698.500	-19.155	0.100
698.600	-15.418	0.100
698.700	-13.252	0.100
698.800	-19.195	0.100
698.900	-15.594	0.100
699.000	-21.442	0.100
699.100	-11.450	0.100
699.200	-13.884	0.100
699.300	-13.735	0.100
699.400	-21.241	0.100
699.500	-25.111	0.100
699.600	-11.161	0.100
699.700	-19.758	0.100
699.800	-16.362	0.100
699.900	-15.290	0.100
700.000	-23.733	0.100
700.100	-14.634	0.100
700.200	-15.037	0.100
700.300	-22.091	0.100
700.400	-10.452	0.100
700.500	-12.735	0.100
700.600	-16.744	0.100
700.700	-14.538	0.100
700.800	-27.083	0.100
700.900	-15.951	0.100
701.000	-26.324	0.100
701.100	-16.553	0.100
701.200	-3.827	0.100
701.300	-18.795	0.100
701.400	-15.937	0.100
701.500	-12.723	0.100
701.600	-21.004	0.100
701.700	-18.178	0.100
701.800	-22.198	0.100
701.900	-15.014	0.100
702.000	-25.030	0.100
702.100	-15.756	0.100
702.200	-24.657	0.100
702.300	-27.512	0.100
702.400	-23.584	0.100
702.500	-9.110	0.100
702.600	-7.066	0.100
702.700	-14.730	0.100
702.800	-19.834	0.100
702.900	-13.570	0.100
703.000	-13.130	0.100
703.100	-22.138	0.100
703.200	-16.637	0.100
703.300	-12.811	0.100
703.400	-29.276	0.100
703.500	-17.357	0.100
703.600	-16.858	0.100
703.700	-24.700	0.100
703.800	-22.671	0.100
703.900	-13.533	0.100
704.000	-20.015	0.100
704.100	-19.856	0.100
704.200	-25.235	0.100
704.300	-15.445	0.100
704.400	-15.114	0.100
704.500	-13.824	0.100
704.600	-22.034	0.100
704.700	-15.603	0.100
704.800	-23.821	0.100
704.900	-27.717	0.100
705.000	-28.354	0.100
705.100	-27.919	0.100
705.200	-21.336	0.100
705.300	-25.234	0.100
705.400	-20.420	0.100
705.500	-20.092	0.100
705.600	-25.437	0.100
705.700	-22.795	0.100
705.800	-11.143	0.100
705.900	-28.139	0.100
706.000	-23.070	0.100
706.100	-14.310	0.100
706.200	-24.056	0.100
706.300	-17.356	0.100
706.400	-12.959	0.100
706.500	-18.939	0.100
706.600	-20.606	0.100
706.700	-17.670	0.100
706.800	-30.491	0.100
706.900	-32.885	0.100
707.000	-20.499	0.100
707.100	-18.056	0.099
707.200	-23.663	0.099
707.300	-25.539	0.099
707.400	-23.249	0.100
707.500	-31.012	0.099
707.600	-22.970	0.099
707.700	-25.595	0.099
707.800	-19.914	0.099
707.900	-17.230	0.099
708.000	-29.232	0.099
708.100	-29.546	0.099
708.200	-27.572	0.099
708.300	-25.376	0.099
708.400	-16.100	0.099
708.500	-14.221	0.099
708.600	-20.462	0.099
708.700	-27.534	0.099
708.800	-25.929	0.099
708.900	-26.716	0.099
709.000	-23.832	0.099
709.100	-25.416	0.099
709.200	-24.525	0.099
709.300	-33.434	0.099
709.400	-23.264	0.099
709.500	-28.665	0.099
709.600	-24.464	0.099
709.700	-15.365	0.099
709.800	-20.622	0.099
709.900	-21.829	0.099
710.000	-20.008	0.099
710.100	-22.913	0.099
710.200	-25.654	0.099
710.300	-21.882	0.099
710.400	-26.750	0.099
710.500	-27.048	0.099
710.600	-30.184	0.099
710.700	-25.795	0.099
710.800	-26.730	0.099
710.900	-31.428	0.100
711.000	-20.837	0.100
711.100	-19.065	0.099
711.200	-15.881	0.100
711.300	-24.831	0.099
711.400	-29.901	0.099
711.500	-33.525	0.099
711.600	-22.552	0.099
711.700	-26.485	0.100
711.800	-23.281	0.099
711.900	-14.175	0.099
712.000	-21.002	0.099
712.100	-33.199	0.099
712.200	-29.295	0.099
712.300	-27.265	0.099
712.400	-19.776	0.099
712.500	-30.272	0.099
712.600	-38.557	0.099
712.700	-34.543	0.099
712.800	-35.898	0.099
712.900	-30.980	0.099
713.000	-30.035	0.099
713.100	-10.580	0.099
713.200	-20.512	0.099
713.300	-14.622	0.099
713.400	-20.637	0.099
713.500	-21.022	0.099
713.600	-27.459	0.099
713.700	-28.901	0.099
713.800	-24.981	0.099
713.900	-27.688	0.099
714.000	-25.708	0.099
714.100	-25.632	0.099
714.200	-31.625	0.099
714.300	-31.039	0.099
714.400	-31.481	0.099
714.500	-24.146	0.099
714.600	-23.502	0.099
714.700	-17.293	0.099
714.800	-19.879	0.099
714.900	-32.477	0.099
715.000	-25.866	0.099
715.100	-33.456	0.099
715.200	-25.746	0.099
715.300	-23.424	0.099
715.400	-27.164	0.099
715.500	-17.194	0.099
715.600	-17.876	0.099
715.700	-31.460	0.099
715.800	-39.448	0.099
715.900	-33.854	0.099
716.000	-18.508	0.099
716.100	-28.267	0.099
716.200	-23.719	0.099
716.300	-28.292	0.099
716.400	-32.703	0.099
716.500	-39.959	0.099
716.600	-22.010	0.099
716.700	-20.070	0.099
716.800	-32.811	0.099
716.900	-32.121	0.099
717.000	-35.548	0.099
717.100	-36.049	0.099
717.200	-34.215	0.099
717.300	-27.944	0.099
717.400	-34.471	0.099
717.500	-24.989	0.099
717.600	-23.649	0.099
717.700	-28.661	0.099
717.800	-25.263	0.099
717.900	-22.855	0.099
718.000	-27.448	0.099
718.100	-34.551	0.099
718.200	-27.569	0.099
718.300	-31.150	0.099
718.400	-27.252	0.099
718.500	-34.248	0.099
718.600	-36.373	0.099
718.700	-24.354	0.099
718.800	-22.119	0.099
718.900	-27.208	0.099
719.000	-33.523	0.099
719.100	-20.953	0.099
719.200	-31.430	0.099
719.300	-22.989	0.099
719.400	-24.548	0.099
719.500	-35.518	0.099
719.600	-28.297	0.099
719.700	-18.739	0.099
719.800	-31.824	0.099
719.900	-27.660	0.099
720.000	-29.181	0.099
720.100	-25.159	0.099
720.200	-26.591	0.099
720.300	-29.293	0.099
720.400	-33.971	0.099
720.500	-21.866	0.099
720.600	-31.117	0.099
720.700	-35.666	0.099
720.800	-34.153	0.099
720.900	-29.607	0.099
721.000	-28.766	0.099
721.100	-33.106	0.099
721.200	-23.502	0.099
721.300	-28.774	0.099
721.400	-30.772	0.099
721.500	-24.049	0.099
721.600	-28.646	0.099
721.700	-23.501	0.099
721.800	-39.932	0.099
721.900	-34.656	0.099
722.000	-29.599	0.099
722.100	-29.049	0.099
722.200	-38.850	0.099
722.300	-36.249	0.099
722.400	-29.949	0.099
722.500	-27.328	0.099
722.600	-29.910	0.099
722.700	-24.477	0.099
722.800	-34.034	0.099
722.900	-29.773	0.099
723.000	-26.828	0.099
723.100	-39.407	0.099
723.200	-37.888	0.099
723.300	-14.959	0.099
723.400	-25.003	0.099
723.500	-29.719	0.099
723.600	-37.232	0.100
723.700	-38.800	0.100
723.800	-21.074	0.100
723.900	-33.663	0.100
724.000	-33.445	0.100
724.100	-30.305	0.100
724.200	-24.930	0.100
724.300	-27.203	0.100
724.400	-24.585	0.100
724.500	-24.837	0.100
724.600	-36.467	0.100
724.700	-19.144	0.100
724.800	-22.525	0.100
724.900	-31.949	0.100
725.000	-37.473	0.100
725.100	-33.706	0.100
725.200	-31.728	0.100
725.300	-34.882	0.100
725.400	-26.475	0.100
725.500	-25.836	0.100
725.600	-26.620	0.100
725.700	-39.367	0.100
725.800	-31.074	0.100
725.900	-21.775	0.100
726.000	-28.856	0.100
726.100	-24.465	0.100
726.200	-37.863	0.100
726.300	-24.546	0.100
726.400	-31.687	0.100
726.500	-30.638	0.100
726.600	-35.731	0.100
726.700	-31.152	0.100
726.800	-34.596	0.100
726.900	-35.375	0.100
727.000	-42.091	0.100
727.100	-21.093	0.100
727.200	-22.171	0.100
727.300	-40.247	0.100
727.400	-28.122	0.100
727.500	-35.726	0.100
727.600	-28.639	0.100
727.700	-38.688	0.100
727.800	-30.993	0.100
727.900	-34.730	0.100
728.000	-33.361	0.100
728.100	-25.506	0.100
728.200	-46.073	0.100
728.300	-23.671	0.100
728.400	-24.039	0.100
728.500	-40.027	0.100
728.600	-34.555	0.100
728.700	-24.930	0.100
728.800	-22.794	0.100
728.900	-36.373	0.100
729.000	-31.870	0.100
729.100	-20.612	0.100
729.200	-31.232	0.100
729.300	-34.315	0.100
729.400	-34.660	0.100
729.500	-38.686	0.100
729.600	-26.771	0.100
729.700	-34.512	0.100
729.800	-38.607	0.100
729.900	-35.995	0.100
730.000	-28.006	0.100
730.100	-40.654	0.100
730.200	-36.288	0.100
730.300	-30.781	0.100
730.400	-34.382	0.100
730.500	-31.371	0.100
730.600	-33.075	0.100
730.700	-38.841	0.100
730.800	-30.191	0.100
730.900	-39.013	0.100
731.000	-22.250	0.100
731.100	-30.521	0.100
731.200	-25.542	0.100
731.300	-37.790	0.100
731.400	-26.312	0.100
731.500	-21.262	0.100
731.600	-25.472	0.100
731.700	-31.196	0.100
731.800	-37.582	0.100
731.900	-40.344	0.100
732.000	-36.373	0.100
732.100	-40.401	0.100
732.200	-27.019	0.100
732.300	-23.280	0.100
732.400	-41.250	0.100
732.500	-33.639	0.100
732.600	-26.314	0.100
732.700	-27.306	0.100
732.800	-27.939	0.100
732.900	-31.740	0.100
733.000	-42.463	0.100
733.100	-37.046	0.100
733.200	-16.209	0.100
733.300	-34.936	0.100
733.400	-25.307	0.100
733.500	-42.375	0.100
733.600	-28.365	0.100
733.700	-35.639	0.100
733.800	-27.923	0.100
733.900	-30.707	0.100
734.000	-26.565	0.100
734.100	-42.176	0.100
734.200	-28.384	0.100
734.300	-28.409	0.100
734.400	-42.086	0.100
734.500	-29.325	0.100
734.600	-25.966	0.100
734.700	-20.189	0.100
734.800	-28.355	0.100
734.900	-38.153	0.100
735.000	-34.246	0.100
735.100	-24.253	0.100
735.200	-22.811	0.100
735.300	-34.198	0.100
735.400	-32.104	0.100
735.500	-29.679	0.100
735.600	-29.118	0.100
735.700	-31.239	0.100
735.800	-37.261	0.100
735.900	-33.184	0.100
736.000	-32.018	0.100
736.100	-28.448	0.100
736.200	-46.242	0.100
736.300	-35.117	0.100
736.400	-41.985	0.100
736.500	-40.796	0.100
736.600	-33.926	0.100
736.700	-22.706	0.100
736.800	-16.669	0.100
736.900	-32.007	0.100
737.000	-44.093	0.100
737.100	-26.692	0.100
737.200	-26.974	0.100
737.300	-31.423	0.100
737.400	-30.039	0.100
737.500	-31.195	0.100
737.600	-31.582	0.100
737.700	-31.066	0.100
737.800	-23.944	0.100
737.900	-26.260	0.100
738.000	-30.883	0.100
738.100	-31.605	0.100
738.200	-42.009	0.100
738.300	-36.001	0.100
738.400	-29.851	0.100
738.500	-34.203	0.100
738.600	-31.811	0.100
738.700	-32.415	0.100
738.800	-30.938	0.100
738.900	-28.861	0.100
739.000	-32.002	0.100
739.100	-27.464	0.100
739.200	-25.321	0.100
739.300	-31.760	0.100
739.400	-40.640	0.100
739.500	-23.548	0.100
739.600	-46.293	0.100
739.700	-31.569	0.100
739.800	-29.963	0.100
739.900	-22.979	0.100
740.000	-22.414	0.100
740.100	-29.504	0.100
740.200	-33.183	0.100
740.300	-27.461	0.100
740.400	-30.022	0.100
740.500	-34.974	0.100
740.600	-39.097	0.100
740.700	-40.166	0.100
740.800	-30.806	0.100
740.900	-29.280	0.100
741.000	-23.616	0.100
741.100	-23.513	0.100
741.200	-30.955	0.100
741.300	-22.703	0.100
741.400	-29.422	0.100
741.500	-41.569	0.100
741.600	-28.401	0.100
741.700	-35.373	0.100
741.800	-33.056	0.100
741.900	-34.335	0.100
742.000	-35.202	0.100
742.100	-34.596	0.100
742.200	-25.225	0.100
742.300	-29.021	0.100
742.400	-32.158	0.100
742.500	-29.819	0.100
742.600	-32.691	0.100
742.700	-28.295	0.100
742.800	-33.364	0.100
742.900	-23.361	0.100
743.000	-37.368	0.100
743.100	-27.548	0.100
743.200	-45.514	0.100
743.300	-32.388	0.100
743.400	-31.687	0.100
743.500	-28.847	0.100
743.600	-30.119	0.100
743.700	-34.132	0.100
743.800	-34.994	0.100
743.900	-33.166	0.100
744.000	-24.878	0.100
744.100	-27.959	0.100
744.200	-36.065	0.100
744.300	-28.666	0.100
744.400	-30.886	0.100
744.500	-28.299	0.100
744.600	-33.458	0.100
744.700	-32.792	0.100
744.800	-28.015	0.100
744.900	-30.904	0.100
745.000	-23.726	0.100
745.100	-30.960	0.100
745.200	-28.362	0.100
745.300	-34.748	0.100
745.400	-30.016	0.100
745.500	-27.011	0.100
745.600	-26.997	0.100
745.700	-34.115	0.100
745.800	-19.435	0.100
745.900	-37.239	0.100
746.000	-32.575	0.100
746.100	-30.423	0.100
746.200	-38.769	0.100
746.300	-22.589	0.100
746.400	-33.919	0.100
746.500	-33.034	0.100
746.600	-32.320	0.100
746.700	-25.223	0.100
746.800	-30.045	0.100
746.900	-31.150	0.100
747.000	-35.438	0.100
747.100	-21.422	0.100
747.200	-17.498	0.100
747.300	-38.878	0.100
747.400	-25.452	0.100
747.500	-28.396	0.100
747.600	-31.559	0.100
747.700	-40.670	0.100
747.800	-40.287	0.100
747.900	-30.761	0.100
748.000	-22.839	0.100
748.100	-30.555	0.100
748.200	-32.404	0.100
748.300	-27.218	0.100
748.400	-30.059	0.100
748.500	-35.561	0.100
748.600	-40.016	0.100
748.700	-36.700	0.100
748.800	-23.974	0.100
748.900	-25.175	0.100
749.000	-35.062	0.100
749.100	-32.091	0.100
749.200	-30.562	0.100
749.300	-23.812	0.100
749.400	-28.815	0.100
749.500	-37.479	0.100
749.600	-29.514	0.100
749.700	-39.523	0.100
749.800	-34.621	0.100
749.900	-26.333	0.100
750.000	-28.278	0.100
750.100	-34.034	0.100
750.200	-28.101	0.100
750.300	-30.016	0.100
750.400	-30.048	0.100
750.500	-31.188	0.100
750.600	-21.035	0.100
750.700	-21.167	0.100
750.800	-30.866	0.100
750.900	-39.714	0.100
751.000	-23.532	0.100
751.100	-26.272	0.100
751.200	-30.089	0.100
751.300	-39.383	0.100
751.400	-37.901	0.100
751.500	-26.944	0.100
751.600	-32.033	0.100
751.700	-34.402	0.100
751.800	-28.587	0.100
751.900	-29.211	0.100
752.000	-25.988	0.100
752.100	-34.548	0.100
752.200	-22.942	0.100
752.300	-25.912	0.100
752.400	-34.474	0.100
752.500	-31.522	0.100
752.600	-29.909	0.100
752.700	-26.636	0.100
752.800	-31.757	0.100
752.900	-31.069	0.100
753.000	-38.843	0.100
753.100	-28.100	0.100
753.200	-20.161	0.100
753.300	-17.328	0.100
753.400	-35.105	0.100
753.500	-30.534	0.100
753.600	-44.694	0.100
753.700	-21.135	0.100
753.800	-19.116	0.100
753.900	-33.084	0.100
754.000	-36.356	0.100
754.100	-34.594	0.100
754.200	-31.395	0.100
754.300	-19.472	0.100
754.400	-34.457	0.100
754.500	-33.245	0.100
754.600	-31.843	0.100
754.700	-32.760	0.100
754.800	-24.942	0.100
754.900	-24.601	0.100
755.000	-37.759	0.100
755.100	-22.085	0.100
755.200	-28.799	0.100
755.300	-19.469	0.100
755.400	-39.918	0.100
755.500	-44.596	0.100
755.600	-34.829	0.100
755.700	-37.175	0.100
755.800	-28.523	0.100
755.900	-23.463	0.100
756.000	-27.160	0.100
756.100	-23.985	0.100
756.200	-35.572	0.100
756.300	-38.925	0.100
756.400	-32.181	0.100
756.500	-24.523	0.100
756.600	-15.649	0.100
756.700	-30.594	0.100
756.800	-33.004	0.100
756.900	-32.088	0.100
757.000	-30.908	0.100
757.100	-32.860	0.100
757.200	-26.517	0.100
757.300	-25.751	0.100
757.400	-23.075	0.100
757.500	-28.999	0.100
757.600	-29.904	0.100
757.700	-31.809	0.100
757.800	-30.706	0.100
757.900	-25.169	0.100
758.000	-28.971	0.100
758.100	-27.748	0.100
758.200	-25.769	0.100
758.300	-26.298	0.100
758.400	-27.119	0.100
758.500	-39.701	0.100
758.600	-40.171	0.100
758.700	-32.582	0.100
758.800	-20.005	0.100
758.900	-21.700	0.100
759.000	-19.483	0.100
759.100	-32.398	0.100
759.200	-26.017	0.100
759.300	-33.116	0.100
759.400	-28.840	0.100
759.500	-45.737	0.100
759.600	-21.277	0.100
759.700	-39.311	0.100
759.800	-20.475	0.100
759.900	-26.214	0.100
760.000	-24.671	0.100
760.100	-27.465	0.100
760.200	-26.076	0.100
760.300	-28.042	0.100
760.400	-39.740	0.100
760.500	-37.772	0.100
760.600	-21.551	0.100
760.700	-26.155	0.100
760.800	-36.084	0.100
760.900	-20.891	0.100
761.000	-26.104	0.100
761.100	-35.445	0.100
761.200	-26.837	0.100
761.300	-37.228	0.100
761.400	-28.961	0.100
761.500	-25.073	0.100
761.600	-34.347	0.100
761.700	-23.325	0.100
761.800	-28.459	0.100
761.900	-32.927	0.100
762.000	-32.739	0.100
762.100	-31.608	0.100
762.200	-35.301	0.100
762.300	-41.684	0.100
762.400	-28.203	0.100
762.500	-16.469	0.100
762.600	-25.027	0.100
762.700	-20.286	0.100
762.800	-17.545	0.100
762.900	-28.551	0.100
763.000	-28.625	0.100
763.100	-40.449	0.100
763.200	-33.460	0.100
763.300	-23.230	0.100
763.400	-28.471	0.100
763.500	-28.819	0.100
763.600	-31.224	0.100
763.700	-21.373	0.100
763.800	-39.259	0.100
763.900	-35.723	0.100
764.000	-20.973	0.100
764.100	-21.987	0.100
764.200	-27.290	0.100
764.300	-33.329	0.100
764.400	-28.127	0.100
764.500	-24.418	0.100
764.600	-25.579	0.100
764.700	-27.094	0.100
764.800	-22.362	0.100
764.900	-27.709	0.100
765.000	-26.494	0.100
765.100	-27.160	0.100
765.200	-26.724	0.100
765.300	-29.194	0.100
765.400	-26.228	0.100
765.500	-30.402	0.100
765.600	-23.013	0.100
765.700	-28.171	0.100
765.800	-29.708	0.100
765.900	-35.826	0.100
766.000	-36.345	0.100
766.100	-29.016	0.100
766.200	-24.328	0.100
766.300	-22.525	0.100
766.400	-26.593	0.100
766.500	-31.965	0.100
766.600	-26.556	0.100
766.700	-29.733	0.100
766.800	-28.282	0.100
766.900	-27.761	0.100
767.000	-34.608	0.100
767.100	-21.018	0.100
767.200	-20.794	0.100
767.300	-23.471	0.100
767.400	-24.410	0.100
767.500	-18.220	0.100
767.600	-30.366	0.100
767.700	-27.375	0.100
767.800	-25.182	0.100
767.900	-22.090	0.100
768.000	-17.504	0.100
768.100	-23.741	0.100
768.200	-29.014	0.100
768.300	-29.828	0.100
768.400	-20.925	0.100
768.500	-27.549	0.100
768.600	-35.917	0.100
768.700	-18.224	0.100
768.800	-14.739	0.100
768.900	-32.547	0.100
769.000	-37.803	0.100
769.100	-34.276	0.100
769.200	-29.018	0.100
769.300	-26.713	0.100
769.400	-28.174	0.100
769.500	-30.107	0.100
769.600	-26.976	0.100
769.700	-23.045	0.100
769.800	-32.209	0.100
769.900	-29.322	0.100
770.000	-26.489	0.100
770.100	-19.619	0.100
770.200	-33.881	0.100
770.300	-33.748	0.100
770.400	-30.368	0.100
770.500	-16.440	0.100
770.600	-26.834	0.100
770.700	-18.602	0.100
770.800	-29.518	0.100
770.900	-23.368	0.100
771.000	-35.112	0.100
771.100	-33.969	0.100
771.200	-18.918	0.100
771.300	-22.441	0.100
771.400	-31.731	0.100
771.500	-36.999	0.100
771.600	-39.750	0.100
771.700	-34.119	0.100
771.800	-28.796	0.100
771.900	-25.045	0.100
772.000	-16.820	0.100
772.100	-27.736	0.100
772.200	-26.103	0.100
772.300	-22.598	0.100
772.400	-31.441	0.100
772.500	-29.706	0.100
772.600	-28.795	0.100
772.700	-31.952	0.100
772.800	-24.371	0.100
772.900	-21.861	0.100
773.000	-32.259	0.100
773.100	-35.729	0.100
773.200	-16.091	0.100
773.300	-35.149	0.100
773.400	-33.704	0.100
773.500	-32.899	0.100
773.600	-19.350	0.099
773.700	-20.215	0.100
773.800	-25.935	0.100
773.900	-23.788	0.099
774.000	-22.804	0.099
774.100	-35.375	0.099
774.200	-23.045	0.099
774.300	-35.003	0.099
774.400	-33.982	0.099
774.500	-32.829	0.099
774.600	-24.441	0.099
774.700	-21.488	0.099
774.800	-27.786	0.099
774.900	-30.439	0.099
775.000	-15.890	0.099
775.100	-28.777	0.099
775.200	-29.150	0.099
775.300	-27.145	0.099
775.400	-29.230	0.099
775.500	-32.848	0.099
775.600	-34.520	0.099
775.700	-27.375	0.099
775.800	-33.546	0.099
775.900	-26.774	0.099
776.000	-35.084	0.099
776.100	-29.100	0.099
776.200	-29.388	0.099
776.300	-25.246	0.099
776.400	-29.292	0.099
776.500	-27.527	0.099
776.600	-33.020	0.099
776.700	-26.722	0.099
776.800	-25.394	0.099
776.900	-20.580	0.099
777.000	-28.547	0.099
777.100	-20.248	0.099
777.200	-18.252	0.099
777.300	-18.643	0.099
777.400	-25.012	0.099
777.500	-25.119	0.099
777.600	-26.873	0.099
777.700	-33.736	0.099
777.800	-27.328	0.099
777.900	-33.070	0.099
778.000	-34.222	0.099
778.100	-29.432	0.099
778.200	-29.562	0.099
778.300	-28.426	0.099
778.400	-24.982	0.099
778.500	-33.804	0.099
778.600	-25.827	0.099
778.700	-30.207	0.099
778.800	-24.269	0.099
778.900	-30.185	0.099
779.000	-27.940	0.099
779.100	-29.549	0.099
779.200	-12.476	0.099
779.300	-26.085	0.099
779.400	-25.711	0.099
779.500	-36.475	0.099
779.600	-32.296	0.099
779.700	-18.755	0.099
779.800	-36.218	0.099
779.900	-28.080	0.099
780.000	-20.244	0.099
780.100	-18.234	0.099
780.200	-29.515	0.099
780.300	-19.140	0.099
780.400	-19.987	0.099
780.500	-12.999	0.099
780.600	-16.406	0.099
780.700	-21.041	0.099
780.800	-18.583	0.099
780.900	-10.739	0.099
781.000	-11.540	0.099
781.100	8.738	0.099
781.200	4.895	0.099
781.300	-12.049	0.099
781.400	-10.243	0.099
781.500	-3.563	0.099
781.600	-2.739	0.099
781.700	0.801	0.099
781.800	-3.261	0.099
781.900	3.480	0.099
782.000	2.455	0.099
782.100	7.141	0.099
782.200	-0.026	0.099
782.300	-1.978	0.099
782.400	1.753	0.099
782.500	9.246	0.099
782.600	8.388	0.099
782.700	-9.876	0.099
782.800	0.855	0.099
782.900	-0.119	0.099
783.000	8.246	0.099
783.100	5.831	0.099
783.200	6.859	0.099
783.300	3.948	0.099
783.400	-4.729	0.099
783.500	6.620	0.099
783.600	11.289	0.099
783.700	3.134	0.099
783.800	6.932	0.099
783.900	-4.815	0.099
784.000	3.895	0.099
784.100	12.192	0.099
784.200	2.666	0.099
784.300	6.772	0.099
784.400	4.587	0.099
784.500	4.693	0.099
784.600	1.068	0.099
784.700	6.455	0.099
784.800	3.643	0.099
784.900	-0.213	0.099
785.000	2.730	0.099
785.100	-5.035	0.100
785.200	5.719	0.100
785.300	-6.098	0.100
785.400	0.498	0.100
785.500	5.126	0.100
785.600	0.146	0.100
785.700	1.001	0.100
785.800	-1.424	0.100
785.900	4.662	0.100
786.000	-2.213	0.100
786.100	10.653	0.100
786.200	5.166	0.100
786.300	1.453	0.100
786.400	2.845	0.100
786.500	-2.621	0.100
786.600	-0.955	0.100
786.700	2.034	0.100
786.800	1.912	0.100
786.900	10.336	0.100
787.000	7.117	0.100
787.100	-2.101	0.100
787.200	2.412	0.100
787.300	-0.450	0.100
787.400	1.765	0.100
787.500	0.261	0.100
787.600	-0.837	0.100
787.700	1.892	0.100
787.800	8.515	0.100
787.900	3.875	0.100
788.000	9.375	0.100
788.100	4.469	0.100
788.200	4.209	0.100
788.300	10.012	0.100
788.400	-1.191	0.100
788.500	-1.384	0.100
788.600	-1.124	0.100
788.700	-0.517	0.100
788.800	9.979	0.100
788.900	2.240	0.100
789.000	5.530	0.100
789.100	-2.279	0.100
789.200	12.134	0.100
789.300	12.861	0.100
789.400	8.034	0.100
789.500	3.811	0.100
789.600	0.768	0.100
789.700	13.138	0.100
789.800	5.327	0.100
789.900	0.088	0.100
790.000	9.878	0.100
790.100	-0.435	0.100
790.200	8.250	0.100
790.300	9.450	0.100
790.400	6.420	0.100
790.500	1.584	0.100
790.600	9.933	0.100
790.700	11.756	0.100
790.800	12.814	0.100
790.900	11.417	0.100
791.000	0.241	0.100
791.100	15.021	0.100
791.200	6.583	0.100
791.300	1.705	0.100
791.400	7.726	0.100
791.500	11.849	0.100
791.600	16.040	0.100
791.700	1.430	0.100
791.800	13.476	0.100
791.900	6.980	0.100
792.000	7.434	0.100
792.100	8.801	0.100
792.200	3.787	0.100
792.300	12.987	0.100
792.400	6.283	0.100
792.500	18.014	0.100
792.600	13.764	0.100
792.700	10.688	0.100
792.800	18.267	0.100
792.900	12.478	0.100
793.000	9.919	0.100
793.100	13.748	0.100
793.200	5.795	0.100
793.300	-1.022	0.100
793.400	1.410	0.100
793.500	11.226	0.100
793.600	13.815	0.100
793.700	16.595	0.100
793.800	21.014	0.100
793.900	16.803	0.100
794.000	17.793	0.100
794.100	11.139	0.100
794.200	22.345	0.100
794.300	13.894	0.100
794.400	9.378	0.100
794.500	16.338	0.100
794.600	21.187	0.100
794.700	19.200	0.100
794.800	17.994	0.100
794.900	9.960	0.100
795.000	24.464	0.100
795.100	26.484	0.100
795.200	21.801	0.100
795.300	16.745	0.100
795.400	22.205	0.100
795.500	20.806	0.100
795.600	18.094	0.100
795.700	26.669	0.100
795.800	21.509	0.100
795.900	18.677	0.100
796.000	7.431	0.100
796.100	26.390	0.100
796.200	11.238	0.100
796.300	27.769	0.100
796.400	15.916	0.100
796.500	18.466	0.100
796.600	25.987	0.100
796.700	19.982	0.100
796.800	14.829	0.100
796.900	35.033	0.100
797.000	24.495	0.100
797.100	34.630	0.100
797.200	29.620	0.100
797.300	23.625	0.100
797.400	16.667	0.100
797.500	24.944	0.100
797.600	34.979	0.100
797.700	25.427	0.100
797.800	22.100	0.100
797.900	34.175	0.100
798.000	26.431	0.100
798.100	34.064	0.100
798.200	31.239	0.100
798.300	32.291	0.100
798.400	28.283	0.100
798.500	18.053	0.100
798.600	30.540	0.100
798.700	32.641	0.100
798.800	35.977	0.100
798.900	29.391	0.100
799.000	29.953	0.100
799.100	25.473	0.100
799.200	40.795	0.100
799.300	29.422	0.100
799.400	38.886	0.100
799.500	25.660	0.100
799.600	30.455	0.100
799.700	33.896	0.100
799.800	40.751	0.099
799.900	33.128	0.100
800.000	36.848	0.100
