time /s	I /nA	E /V
0.100	-27.368	0.099
0.200	-27.236	0.099
0.300	-33.250	0.099
0.400	-19.637	0.099
0.500	-19.752	0.099
0.600	-17.134	0.099
0.700	-29.931	0.099
0.800	-31.343	0.099
0.900	-24.475	0.099
1.000	-12.810	0.099
1.100	-19.765	0.099
1.200	-33.289	0.099
1.300	-26.477	0.099
1.400	-17.463	0.099
1.500	-37.065	0.099
1.600	-26.745	0.099
1.700	-23.108	0.099
1.800	-24.193	0.099
1.900	-23.650	0.099
2.000	-28.691	0.099
2.100	-20.023	0.099
2.200	-28.430	0.099
2.300	-25.998	0.099
2.400	-19.256	0.099
2.500	-31.062	0.099
2.600	-26.563	0.099
2.700	-29.212	0.099
2.800	-34.312	0.099
2.900	-20.538	0.099
3.000	-21.539	0.099
3.100	-19.742	0.099
3.200	-20.009	0.099
3.300	-30.332	0.099
3.400	-29.706	0.099
3.500	-17.835	0.099
3.600	-27.816	0.099
3.700	-29.951	0.099
3.800	-15.645	0.099
3.900	-21.716	0.099
4.000	-25.328	0.099
4.100	-23.209	0.099
4.200	-25.411	0.099
4.300	-29.208	0.099
4.400	-27.330	0.099
4.500	-31.182	0.099
4.600	-20.893	0.099
4.700	-24.267	0.099
4.800	-23.464	0.099
4.900	-28.535	0.099
5.000	-20.766	0.099
5.100	-18.332	0.099
5.200	-36.208	0.099
5.300	-40.524	0.099
5.400	-25.674	0.099
5.500	-18.567	0.099
5.600	-23.554	0.099
5.700	-29.580	0.099
5.800	-31.945	0.099
5.900	-31.513	0.099
6.000	-26.550	0.099
6.100	-18.375	0.099
6.200	-23.730	0.099
6.300	-18.731	0.099
6.400	-25.416	0.099
6.500	-20.942	0.099
6.600	-33.265	0.099
6.700	-32.244	0.099
6.800	-12.287	0.099
6.900	-13.922	0.099
7.000	-19.683	0.099
7.100	-33.339	0.099
7.200	-27.024	0.099
7.300	-28.378	0.099
7.400	-30.193	0.099
7.500	-21.837	0.099
7.600	-25.376	0.099
7.700	-24.480	0.099
7.800	-27.333	0.099
7.900	-24.821	0.099
8.000	-18.630	0.099
8.100	-18.994	0.099
8.200	-24.072	0.099
8.300	-26.902	0.099
8.400	-28.692	0.099
8.500	-26.423	0.099
8.600	-12.836	0.099
8.700	-16.623	0.099
8.800	-22.180	0.099
8.900	-23.551	0.099
9.000	-24.413	0.099
9.100	-27.600	0.099
9.200	-21.065	0.099
9.300	-24.679	0.099
9.400	-27.405	0.099
9.500	-21.250	0.099
9.600	-13.960	0.099
9.700	-24.862	0.099
9.800	-25.848	0.099
9.900	-28.328	0.099
10.000	-29.880	0.099
10.100	-23.840	0.099
10.200	-30.063	0.099
10.300	-35.166	0.099
10.400	-31.594	0.099
10.500	-26.057	0.099
10.600	-16.232	0.099
10.700	-13.917	0.099
10.800	-25.560	0.099
10.900	-27.691	0.099
11.000	-19.152	0.099
11.100	-29.021	0.099
11.200	-19.137	0.099
11.300	-21.690	0.099
11.400	-20.269	0.099
11.500	-22.697	0.099
11.600	-29.607	0.099
11.700	-16.936	0.099
11.800	-25.061	0.099
11.900	-18.732	0.099
12.000	-29.118	0.099
12.100	-25.761	0.099
12.200	-21.363	0.099
12.300	-23.025	0.099
12.400	-19.405	0.099
12.500	-18.860	0.099
12.600	-29.387	0.099
12.700	-22.524	0.099
12.800	-27.405	0.099
12.900	-17.037	0.099
13.000	-22.952	0.099
13.100	-19.814	0.099
13.200	-17.547	0.099
13.300	-31.090	0.099
13.400	-22.480	0.099
13.500	-26.545	0.099
13.600	-21.463	0.099
13.700	-24.442	0.099
13.800	-28.217	0.099
13.900	-26.256	0.099
14.000	-27.006	0.099
14.100	-21.396	0.099
14.200	-26.697	0.099
14.300	-20.625	0.099
14.400	-25.960	0.099
14.500	-21.939	0.099
14.600	-28.418	0.099
14.700	-25.375	0.099
14.800	-25.982	0.099
14.900	-17.266	0.099
15.000	-8.660	0.099
15.100	-18.781	0.099
15.200	-21.738	0.099
15.300	-27.595	0.099
15.400	-28.830	0.099
15.500	-24.958	0.099
15.600	-29.332	0.099
15.700	-24.620	0.099
15.800	-14.951	0.099
15.900	-25.589	0.099
16.000	-31.530	0.099
16.100	-23.125	0.099
16.200	-17.807	0.099
16.300	-21.018	0.099
16.400	-20.229	0.099
16.500	-32.679	0.099
16.600	-43.027	0.099
16.700	-19.447	0.099
16.800	-16.423	0.099
16.900	-19.250	0.099
17.000	-18.264	0.099
17.100	-25.773	0.099
17.200	-24.173	0.099
17.300	-21.796	0.099
17.400	-30.927	0.099
17.500	-25.807	0.099
17.600	-23.418	0.099
17.700	-21.092	0.099
17.800	-31.804	0.099
17.900	-32.159	0.099
18.000	-20.221	0.099
18.100	-18.119	0.099
18.200	-22.231	0.099
18.300	-28.630	0.099
18.400	-29.935	0.099
18.500	-26.436	0.099
18.600	-20.510	0.099
18.700	-13.390	0.099
18.800	-16.404	0.099
18.900	-12.822	0.099
19.000	-25.718	0.099
19.100	-24.336	0.099
19.200	-26.191	0.099
19.300	-23.791	0.099
19.400	-17.114	0.099
19.500	-15.479	0.099
19.600	-30.864	0.099
19.700	-27.884	0.099
19.800	-11.968	0.099
19.900	-21.529	0.099
20.000	-23.195	0.099
20.100	-17.484	0.099
20.200	-23.822	0.099
20.300	-37.157	0.099
20.400	-32.578	0.099
20.500	-25.567	0.099
20.600	-16.875	0.099
20.700	-19.387	0.099
20.800	-21.537	0.099
20.900	-25.661	0.099
21.000	-19.881	0.100
21.100	-30.543	0.100
21.200	-29.551	0.100
21.300	-21.508	0.100
21.400	-15.062	0.100
21.500	-19.683	0.100
21.600	-19.245	0.100
21.700	-18.613	0.100
21.800	-29.095	0.100
21.900	-15.244	0.100
22.000	-25.220	0.100
22.100	-21.336	0.100
22.200	-20.936	0.100
22.300	-18.787	0.100
22.400	-19.050	0.100
22.500	-27.679	0.100
22.600	-15.849	0.100
22.700	-17.804	0.100
22.800	-23.223	0.100
22.900	-20.967	0.100
23.000	-20.853	0.100
23.100	-27.401	0.100
23.200	-23.054	0.100
23.300	-16.311	0.100
23.400	-24.669	0.100
23.500	-31.362	0.100
23.600	-25.776	0.100
23.700	-33.605	0.100
23.800	-23.018	0.100
23.900	-20.746	0.100
24.000	-21.404	0.100
24.100	-19.035	0.100
24.200	-24.465	0.100
24.300	-29.535	0.100
24.400	-16.489	0.100
24.500	-25.635	0.100
24.600	-26.064	0.100
24.700	-20.430	0.100
24.800	-24.637	0.100
24.900	-18.839	0.100
25.000	-20.708	0.100
25.100	-22.680	0.100
25.200	-27.636	0.100
25.300	-15.559	0.100
25.400	-31.790	0.100
25.500	-29.237	0.100
25.600	-19.662	0.100
25.700	-18.060	0.100
25.800	-27.713	0.100
25.900	-29.924	0.100
26.000	-24.838	0.100
26.100	-18.849	0.100
26.200	-10.966	0.100
26.300	-16.628	0.100
26.400	-16.124	0.100
26.500	-19.074	0.100
26.600	-26.728	0.100
26.700	-33.943	0.100
26.800	-24.115	0.100
26.900	-13.932	0.100
27.000	-18.048	0.100
27.100	-13.241	0.100
27.200	-19.050	0.100
27.300	-13.642	0.100
27.400	-24.411	0.100
27.500	-24.286	0.100
27.600	-21.830	0.100
27.700	-32.709	0.100
27.800	-22.809	0.100
27.900	-16.495	0.100
28.000	-29.372	0.100
28.100	-18.979	0.100
28.200	-20.201	0.100
28.300	-10.991	0.100
28.400	-21.448	0.100
28.500	-22.762	0.100
28.600	-28.131	0.100
28.700	-21.244	0.100
28.800	-22.888	0.100
28.900	-14.009	0.100
29.000	-18.735	0.100
29.100	-17.045	0.100
29.200	-21.760	0.100
29.300	-18.462	0.100
29.400	-21.070	0.100
29.500	-29.324	0.100
29.600	-31.725	0.100
29.700	-13.579	0.100
29.800	-24.427	0.100
29.900	-14.108	0.100
30.000	-21.572	0.100
30.100	-22.247	0.100
30.200	-14.570	0.100
30.300	-21.823	0.100
30.400	-22.377	0.100
30.500	-17.460	0.100
30.600	-12.892	0.100
30.700	-13.809	0.100
30.800	-17.107	0.100
30.900	-15.954	0.100
31.000	-23.491	0.100
31.100	-14.299	0.100
31.200	-12.579	0.100
31.300	-0.617	0.100
31.400	-8.619	0.100
31.500	-14.329	0.100
31.600	-3.998	0.100
31.700	-9.294	0.100
31.800	-11.973	0.100
31.900	-5.897	0.100
32.000	-0.406	0.100
32.100	-3.922	0.100
32.200	-1.588	0.100
32.300	-4.972	0.100
32.400	0.162	0.100
32.500	-2.214	0.100
32.600	-2.097	0.100
32.700	4.842	0.100
32.800	-0.275	0.100
32.900	-1.600	0.100
33.000	10.477	0.100
33.100	0.333	0.100
33.200	4.810	0.100
33.300	7.168	0.100
33.400	4.390	0.100
33.500	-3.300	0.100
33.600	4.293	0.100
33.700	0.954	0.100
33.800	-0.721	0.100
33.900	17.422	0.100
34.000	8.438	0.100
34.100	1.419	0.100
34.200	4.323	0.100
34.300	2.228	0.100
34.400	2.598	0.100
34.500	-1.907	0.100
34.600	5.106	0.100
34.700	14.068	0.100
34.800	14.667	0.100
34.900	7.123	0.100
35.000	0.568	0.100
35.100	1.979	0.100
35.200	-3.907	0.100
35.300	5.622	0.100
35.400	3.150	0.100
35.500	2.947	0.100
35.600	-6.671	0.100
35.700	1.945	0.100
35.800	8.587	0.100
35.900	7.716	0.100
36.000	11.429	0.100
36.100	6.381	0.100
36.200	11.143	0.100
36.300	-8.515	0.100
36.400	-0.469	0.100
36.500	5.522	0.100
36.600	-0.471	0.100
36.700	-3.682	0.100
36.800	-0.582	0.100
36.900	5.272	0.100
37.000	0.300	0.100
37.100	1.254	0.100
37.200	10.276	0.100
37.300	3.690	0.100
37.400	4.713	0.100
37.500	2.161	0.100
37.600	0.007	0.100
37.700	-6.137	0.100
37.800	-1.253	0.100
37.900	-0.463	0.100
38.000	-1.477	0.100
38.100	-6.226	0.100
38.200	4.886	0.100
38.300	3.505	0.100
38.400	-13.650	0.100
38.500	12.330	0.100
38.600	6.247	0.100
38.700	-1.026	0.100
38.800	9.141	0.100
38.900	3.339	0.100
39.000	0.427	0.100
39.100	4.475	0.100
39.200	4.703	0.100
39.300	6.515	0.100
39.400	5.313	0.100
39.500	-3.170	0.100
39.600	-2.772	0.100
39.700	3.311	0.100
39.800	2.792	0.100
39.900	17.341	0.100
40.000	4.608	0.100
40.100	7.575	0.100
40.200	6.495	0.100
40.300	1.567	0.100
40.400	4.829	0.100
40.500	-0.873	0.100
40.600	3.116	0.100
40.700	7.255	0.100
40.800	-3.751	0.100
40.900	-0.032	0.100
41.000	-0.394	0.100
41.100	0.333	0.100
41.200	6.623	0.100
41.300	-0.725	0.100
41.400	5.463	0.100
41.500	9.978	0.100
41.600	10.761	0.100
41.700	1.487	0.100
41.800	-0.898	0.100
41.900	-5.005	0.100
42.000	-7.722	0.100
42.100	1.704	0.100
42.200	1.721	0.100
42.300	5.243	0.100
42.400	11.118	0.100
42.500	7.493	0.100
42.600	-5.236	0.100
42.700	0.936	0.100
42.800	13.360	0.100
42.900	17.065	0.100
43.000	12.323	0.100
43.100	14.752	0.100
43.200	0.395	0.100
43.300	1.671	0.100
43.400	-2.495	0.100
43.500	5.794	0.100
43.600	1.271	0.100
43.700	14.949	0.100
43.800	1.560	0.100
43.900	12.105	0.100
44.000	11.806	0.100
44.100	0.775	0.100
44.200	-4.864	0.100
44.300	-1.783	0.100
44.400	9.784	0.100
44.500	10.426	0.100
44.600	18.782	0.100
44.700	18.431	0.100
44.800	18.629	0.100
44.900	8.487	0.100
45.000	-1.736	0.100
45.100	9.573	0.100
45.200	18.762	0.100
45.300	12.029	0.100
45.400	10.464	0.100
45.500	13.289	0.100
45.600	4.383	0.100
45.700	13.100	0.100
45.800	15.083	0.100
45.900	4.089	0.100
46.000	12.732	0.100
46.100	15.370	0.100
46.200	7.554	0.100
46.300	11.366	0.100
46.400	9.183	0.100
46.500	12.513	0.100
46.600	11.365	0.100
46.700	19.202	0.100
46.800	8.382	0.100
46.900	11.653	0.100
47.000	18.769	0.100
47.100	4.807	0.100
47.200	9.387	0.100
47.300	13.520	0.100
47.400	11.693	0.100
47.500	9.143	0.100
47.600	14.018	0.100
47.700	4.331	0.100
47.800	7.920	0.100
47.900	14.119	0.100
48.000	15.424	0.100
48.100	11.875	0.100
48.200	20.060	0.100
48.300	13.577	0.100
48.400	12.239	0.100
48.500	15.568	0.100
48.600	9.749	0.100
48.700	13.615	0.100
48.800	12.984	0.100
48.900	11.311	0.100
49.000	18.990	0.100
49.100	3.811	0.100
49.200	13.493	0.100
49.300	17.693	0.100
49.400	5.432	0.100
49.500	9.691	0.100
49.600	6.809	0.100
49.700	7.748	0.100
49.800	16.703	0.100
49.900	19.688	0.100
50.000	30.023	0.100
50.100	22.930	0.100
50.200	26.811	0.100
50.300	21.794	0.100
50.400	20.187	0.100
50.500	12.838	0.100
50.600	14.535	0.100
50.700	12.758	0.100
50.800	10.325	0.100
50.900	12.973	0.100
51.000	14.575	0.100
51.100	18.015	0.100
51.200	17.941	0.100
51.300	15.622	0.100
51.400	23.496	0.100
51.500	16.912	0.100
51.600	28.529	0.100
51.700	12.605	0.100
51.800	3.244	0.100
51.900	17.037	0.100
52.000	9.025	0.100
52.100	14.184	0.100
52.200	20.585	0.100
52.300	20.123	0.100
52.400	11.760	0.100
52.500	16.805	0.100
52.600	8.676	0.100
52.700	7.925	0.100
52.800	17.293	0.100
52.900	10.266	0.100
53.000	18.654	0.100
53.100	18.422	0.100
53.200	13.625	0.100
53.300	22.886	0.100
53.400	23.262	0.100
53.500	17.444	0.100
53.600	12.699	0.100
53.700	19.152	0.100
53.800	17.608	0.100
53.900	21.401	0.100
54.000	18.340	0.100
54.100	24.597	0.100
54.200	16.337	0.100
54.300	16.060	0.100
54.400	9.940	0.100
54.500	16.437	0.100
54.600	16.612	0.100
54.700	21.740	0.100
54.800	16.121	0.100
54.900	13.108	0.100
55.000	9.815	0.100
55.100	19.755	0.100
55.200	25.440	0.100
55.300	20.229	0.100
55.400	14.465	0.100
55.500	20.537	0.100
55.600	29.588	0.100
55.700	22.023	0.100
55.800	21.948	0.100
55.900	18.304	0.100
56.000	15.642	0.100
56.100	21.969	0.100
56.200	21.443	0.100
56.300	14.421	0.100
56.400	20.873	0.100
56.500	21.107	0.100
56.600	18.602	0.100
56.700	13.581	0.100
56.800	8.583	0.100
56.900	15.276	0.100
57.000	23.962	0.100
57.100	25.275	0.100
57.200	21.577	0.100
57.300	20.391	0.100
57.400	13.889	0.100
57.500	14.656	0.100
57.600	18.776	0.100
57.700	19.305	0.100
57.800	26.251	0.100
57.900	21.425	0.100
58.000	23.330	0.100
58.100	9.315	0.100
58.200	21.436	0.100
58.300	23.163	0.100
58.400	17.505	0.100
58.500	20.869	0.100
58.600	22.400	0.100
58.700	10.985	0.100
58.800	7.420	0.100
58.900	20.395	0.100
59.000	18.810	0.100
59.100	24.101	0.100
59.200	23.888	0.100
59.300	25.186	0.100
59.400	26.811	0.100
59.500	24.378	0.100
59.600	16.680	0.100
59.700	12.695	0.100
59.800	13.574	0.100
59.900	19.285	0.100
60.000	16.828	0.100
60.100	9.104	0.100
60.200	17.762	0.100
60.300	13.497	0.100
60.400	24.870	0.100
60.500	22.066	0.100
60.600	22.190	0.100
60.700	21.934	0.100
60.800	13.661	0.100
60.900	27.162	0.100
61.000	29.924	0.100
61.100	21.186	0.100
61.200	27.412	0.100
61.300	19.280	0.100
61.400	10.729	0.100
61.500	21.796	0.100
61.600	12.341	0.100
61.700	23.784	0.100
61.800	17.485	0.100
61.900	20.896	0.100
62.000	23.938	0.100
62.100	17.914	0.100
62.200	18.919	0.100
62.300	24.585	0.100
62.400	24.033	0.100
62.500	23.449	0.100
62.600	23.937	0.100
62.700	29.956	0.100
62.800	4.900	0.100
62.900	16.121	0.100
63.000	24.441	0.100
63.100	16.195	0.100
63.200	14.850	0.100
63.300	23.503	0.100
63.400	18.437	0.100
63.500	30.557	0.100
63.600	22.722	0.100
63.700	27.353	0.100
63.800	25.689	0.100
63.900	21.573	0.100
64.000	15.302	0.100
64.100	19.400	0.100
64.200	21.424	0.100
64.300	24.416	0.100
64.400	13.672	0.100
64.500	8.536	0.100
64.600	18.799	0.100
64.700	23.242	0.100
64.800	23.995	0.100
64.900	24.180	0.100
65.000	20.861	0.100
65.100	28.178	0.100
65.200	29.575	0.100
65.300	21.376	0.100
65.400	27.498	0.100
65.500	31.516	0.100
65.600	26.299	0.100
65.700	15.049	0.100
65.800	27.124	0.100
65.900	23.190	0.100
66.000	26.408	0.100
66.100	23.155	0.100
66.200	30.638	0.100
66.300	22.319	0.100
66.400	16.543	0.100
66.500	19.809	0.100
66.600	31.439	0.100
66.700	23.299	0.100
66.800	22.490	0.100
66.900	19.899	0.100
67.000	10.697	0.100
67.100	27.324	0.100
67.200	26.213	0.100
67.300	26.515	0.100
67.400	22.657	0.100
67.500	26.132	0.100
67.600	30.443	0.100
67.700	31.632	0.100
67.800	21.091	0.100
67.900	27.461	0.100
68.000	18.350	0.100
68.100	20.252	0.100
68.200	31.789	0.100
68.300	31.376	0.100
68.400	21.774	0.100
68.500	23.257	0.100
68.600	34.305	0.100
68.700	23.207	0.100
68.800	26.320	0.100
68.900	22.719	0.100
69.000	23.861	0.100
69.100	26.366	0.100
69.200	31.092	0.100
69.300	18.586	0.100
69.400	25.174	0.100
69.500	28.942	0.100
69.600	19.001	0.100
69.700	38.539	0.100
69.800	27.294	0.100
69.900	30.655	0.100
70.000	29.352	0.100
70.100	31.953	0.100
70.200	27.347	0.100
70.300	23.548	0.100
70.400	22.964	0.100
70.500	24.042	0.100
70.600	17.791	0.100
70.700	29.923	0.100
70.800	18.682	0.100
70.900	14.490	0.100
71.000	30.955	0.100
71.100	32.887	0.100
71.200	31.211	0.100
71.300	39.705	0.100
71.400	31.380	0.100
71.500	31.762	0.100
71.600	31.879	0.100
71.700	16.189	0.100
71.800	23.173	0.100
71.900	16.665	0.100
72.000	19.775	0.100
72.100	22.140	0.100
72.200	21.257	0.100
72.300	30.427	0.100
72.400	40.548	0.100
72.500	32.763	0.100
72.600	23.147	0.100
72.700	24.833	0.100
72.800	27.415	0.100
72.900	22.863	0.100
73.000	29.004	0.100
73.100	31.610	0.100
73.200	32.645	0.100
73.300	21.613	0.100
73.400	29.204	0.100
73.500	24.516	0.100
73.600	33.174	0.100
73.700	27.752	0.100
73.800	31.286	0.100
73.900	31.557	0.100
74.000	33.631	0.100
74.100	27.867	0.100
74.200	27.755	0.100
74.300	28.390	0.100
74.400	21.962	0.100
74.500	22.930	0.100
74.600	26.200	0.100
74.700	34.573	0.100
74.800	22.299	0.100
74.900	25.962	0.100
75.000	27.804	0.100
75.100	30.711	0.100
75.200	21.340	0.100
75.300	23.660	0.100
75.400	38.162	0.100
75.500	31.395	0.100
75.600	31.300	0.100
75.700	22.244	0.100
75.800	32.712	0.100
75.900	29.032	0.100
76.000	22.773	0.100
76.100	31.022	0.100
76.200	30.731	0.100
76.300	23.111	0.100
76.400	25.939	0.100
76.500	29.972	0.100
76.600	27.591	0.100
76.700	30.103	0.100
76.800	22.647	0.100
76.900	28.111	0.100
77.000	31.864	0.100
77.100	19.582	0.100
77.200	20.945	0.100
77.300	23.411	0.100
77.400	28.849	0.100
77.500	21.412	0.100
77.600	18.121	0.100
77.700	28.047	0.100
77.800	29.807	0.100
77.900	38.559	0.100
78.000	27.693	0.100
78.100	32.429	0.100
78.200	26.587	0.100
78.300	32.490	0.100
78.400	23.702	0.100
78.500	24.168	0.100
78.600	21.825	0.100
78.700	29.149	0.100
78.800	33.293	0.100
78.900	33.228	0.100
79.000	30.725	0.100
79.100	29.928	0.100
79.200	30.129	0.100
79.300	28.249	0.100
79.400	28.392	0.100
79.500	32.017	0.100
79.600	27.898	0.100
79.700	28.579	0.100
79.800	20.966	0.100
79.900	30.167	0.100
80.000	26.592	0.100
80.100	28.315	0.100
80.200	19.372	0.100
80.300	35.314	0.100
80.400	29.441	0.100
80.500	20.457	0.100
80.600	26.381	0.100
80.700	32.785	0.100
80.800	40.847	0.100
80.900	26.977	0.100
81.000	33.533	0.100
81.100	28.415	0.100
81.200	28.595	0.100
81.300	26.963	0.100
81.400	35.831	0.100
81.500	26.143	0.100
81.600	25.358	0.100
81.700	28.554	0.100
81.800	28.105	0.100
81.900	43.533	0.100
82.000	30.798	0.100
82.100	32.643	0.100
82.200	30.439	0.100
82.300	32.265	0.100
82.400	28.618	0.100
82.500	26.083	0.100
82.600	31.688	0.100
82.700	37.053	0.100
82.800	32.528	0.100
82.900	33.087	0.100
83.000	17.813	0.100
83.100	21.852	0.100
83.200	28.514	0.100
83.300	25.126	0.100
83.400	34.178	0.100
83.500	32.081	0.100
83.600	27.773	0.100
83.700	33.553	0.100
83.800	26.100	0.100
83.900	34.066	0.100
84.000	20.566	0.100
84.100	27.732	0.100
84.200	27.463	0.100
84.300	32.756	0.100
84.400	40.601	0.100
84.500	35.068	0.100
84.600	22.144	0.100
84.700	24.716	0.100
84.800	29.436	0.100
84.900	28.088	0.100
85.000	34.663	0.100
85.100	35.706	0.100
85.200	28.210	0.100
85.300	33.522	0.100
85.400	28.497	0.100
85.500	31.318	0.100
85.600	29.911	0.100
85.700	24.583	0.100
85.800	33.258	0.100
85.900	29.597	0.100
86.000	24.726	0.100
86.100	37.368	0.100
86.200	27.754	0.100
86.300	29.708	0.100
86.400	23.949	0.100
86.500	24.827	0.100
86.600	38.282	0.100
86.700	37.206	0.100
86.800	17.372	0.100
86.900	35.761	0.100
87.000	43.567	0.100
87.100	39.597	0.100
87.200	28.360	0.100
87.300	32.364	0.100
87.400	27.134	0.100
87.500	32.164	0.100
87.600	35.494	0.100
87.700	42.300	0.100
87.800	31.347	0.100
87.900	29.880	0.100
88.000	45.248	0.100
88.100	24.965	0.100
88.200	31.141	0.100
88.300	27.259	0.100
88.400	19.631	0.100
88.500	39.333	0.100
88.600	29.769	0.100
88.700	35.321	0.100
88.800	36.657	0.100
88.900	31.687	0.100
89.000	41.765	0.100
89.100	30.020	0.100
89.200	28.936	0.100
89.300	24.002	0.100
89.400	21.588	0.100
89.500	24.053	0.100
89.600	27.545	0.100
89.700	35.042	0.100
89.800	39.299	0.100
89.900	26.148	0.100
90.000	28.317	0.100
90.100	39.784	0.100
90.200	32.628	0.100
90.300	29.806	0.100
90.400	33.757	0.100
90.500	29.299	0.100
90.600	28.512	0.100
90.700	30.815	0.100
90.800	25.716	0.100
90.900	16.321	0.100
91.000	24.884	0.100
91.100	35.202	0.100
91.200	31.362	0.100
91.300	26.021	0.100
91.400	31.530	0.100
91.500	21.986	0.100
91.600	22.083	0.100
91.700	19.728	0.100
91.800	14.418	0.100
91.900	18.270	0.100
92.000	9.686	0.100
92.100	20.054	0.100
92.200	16.026	0.100
92.300	10.578	0.100
92.400	12.580	0.100
92.500	7.175	0.100
92.600	11.567	0.100
92.700	6.328	0.100
92.800	9.608	0.100
92.900	10.347	0.100
93.000	10.525	0.100
93.100	4.073	0.100
93.200	9.997	0.100
93.300	6.207	0.100
93.400	6.691	0.100
93.500	7.747	0.100
93.600	5.676	0.100
93.700	1.571	0.100
93.800	6.016	0.100
93.900	13.912	0.100
94.000	-8.789	0.100
94.100	-4.764	0.100
94.200	-3.802	0.100
94.300	-0.599	0.100
94.400	16.391	0.100
94.500	5.994	0.100
94.600	1.263	0.100
94.700	2.703	0.100
94.800	5.294	0.100
94.900	-4.440	0.100
95.000	-1.558	0.100
95.100	3.116	0.100
95.200	10.116	0.100
95.300	-0.766	0.100
95.400	-1.538	0.100
95.500	7.326	0.100
95.600	2.532	0.100
95.700	0.201	0.100
95.800	-1.640	0.100
95.900	-3.676	0.100
96.000	6.220	0.100
96.100	8.317	0.100
96.200	-5.618	0.100
96.300	-7.321	0.100
96.400	2.024	0.100
96.500	3.550	0.100
96.600	-13.953	0.100
96.700	0.907	0.100
96.800	-0.891	0.100
96.900	-0.087	0.100
97.000	-1.167	0.100
97.100	-0.950	0.100
97.200	-7.952	0.100
97.300	2.912	0.100
97.400	-0.384	0.100
97.500	7.813	0.100
97.600	-9.499	0.100
97.700	-5.388	0.100
97.800	1.381	0.100
97.900	3.751	0.100
98.000	4.392	0.100
98.100	-12.131	0.100
98.200	-4.386	0.100
98.300	7.466	0.100
98.400	9.552	0.100
98.500	-4.197	0.100
98.600	-2.059	0.100
98.700	-14.522	0.100
98.800	-3.256	0.100
98.900	-10.580	0.100
99.000	7.179	0.100
99.100	6.908	0.100
99.200	-10.195	0.100
99.300	1.765	0.100
99.400	10.895	0.100
99.500	-3.115	0.100
99.600	8.485	0.100
99.700	-2.864	0.100
99.800	-4.722	0.100
99.900	-2.964	0.100
100.000	-3.029	0.100
100.100	2.876	0.100
100.200	-2.683	0.100
100.300	1.492	0.100
100.400	4.273	0.100
100.500	5.761	0.100
100.600	3.087	0.100
100.700	11.433	0.100
100.800	-3.364	0.100
100.900	-4.716	0.100
101.000	8.850	0.100
101.100	1.427	0.100
101.200	-9.924	0.100
101.300	-4.774	0.100
101.400	0.065	0.100
101.500	0.489	0.100
101.600	3.439	0.100
101.700	-2.465	0.100
101.800	-8.891	0.100
101.900	-4.752	0.100
102.000	-4.247	0.100
102.100	1.928	0.100
102.200	0.188	0.100
102.300	-4.824	0.100
102.400	1.133	0.100
102.500	10.110	0.100
102.600	-13.069	0.100
102.700	1.918	0.100
102.800	-1.849	0.100
102.900	-7.191	0.100
103.000	0.846	0.100
103.100	-15.189	0.100
103.200	-10.934	0.100
103.300	7.403	0.100
103.400	1.116	0.100
103.500	-3.309	0.100
103.600	0.545	0.100
103.700	3.275	0.100
103.800	-1.934	0.100
103.900	-4.835	0.100
104.000	-4.186	0.100
104.100	-8.392	0.100
104.200	-1.696	0.100
104.300	-0.311	0.100
104.400	2.259	0.100
104.500	-0.085	0.100
104.600	-8.209	0.100
104.700	-0.056	0.100
104.800	-6.867	0.100
104.900	-15.437	0.100
105.000	3.098	0.100
105.100	7.990	0.100
105.200	-3.986	0.100
105.300	-4.294	0.100
105.400	-8.960	0.100
105.500	-8.082	0.100
105.600	0.329	0.100
105.700	-3.435	0.100
105.800	-1.654	0.100
105.900	-12.324	0.100
106.000	9.912	0.100
106.100	2.435	0.100
106.200	2.698	0.100
106.300	0.558	0.100
106.400	-3.447	0.100
106.500	-4.509	0.100
106.600	-4.571	0.100
106.700	-1.955	0.100
106.800	-4.228	0.100
106.900	-10.757	0.100
107.000	6.349	0.100
107.100	2.372	0.100
107.200	-1.367	0.100
107.300	-1.845	0.100
107.400	0.979	0.100
107.500	-11.824	0.100
107.600	-11.081	0.100
107.700	-6.585	0.100
107.800	0.079	0.100
107.900	-5.173	0.100
108.000	-8.273	0.100
108.100	-4.638	0.100
108.200	1.043	0.100
108.300	0.087	0.100
108.400	-18.858	0.100
108.500	-14.324	0.100
108.600	-2.955	0.100
108.700	-0.665	0.100
108.800	-0.336	0.100
108.900	-9.894	0.100
109.000	-15.096	0.100
109.100	-6.257	0.100
109.200	-8.760	0.100
109.300	-7.543	0.100
109.400	-3.771	0.100
109.500	-15.273	0.100
109.600	3.534	0.100
109.700	4.843	0.100
109.800	-4.715	0.100
109.900	-4.445	0.100
110.000	-5.275	0.100
110.100	-6.793	0.100
110.200	2.082	0.100
110.300	-6.880	0.100
110.400	-8.268	0.100
110.500	-7.033	0.100
110.600	-5.785	0.100
110.700	-2.489	0.100
110.800	-6.128	0.100
110.900	-7.926	0.100
111.000	-2.188	0.100
111.100	-10.752	0.100
111.200	-9.091	0.100
111.300	-10.164	0.100
111.400	-0.313	0.100
111.500	-3.445	0.100
111.600	-6.724	0.100
111.700	-10.476	0.100
111.800	-0.918	0.100
111.900	-12.682	0.100
112.000	-13.938	0.100
112.100	-2.771	0.100
112.200	-8.851	0.100
112.300	-11.738	0.100
112.400	-17.551	0.100
112.500	-7.966	0.100
112.600	-8.952	0.100
112.700	-3.368	0.100
112.800	-14.563	0.100
112.900	-12.459	0.100
113.000	-5.175	0.100
113.100	-10.576	0.100
113.200	-9.526	0.100
113.300	-17.135	0.100
113.400	-0.074	0.100
113.500	-9.820	0.100
113.600	-0.686	0.100
113.700	-7.156	0.100
113.800	-19.291	0.100
113.900	-7.776	0.100
114.000	-13.311	0.100
114.100	-4.788	0.100
114.200	-7.756	0.100
114.300	-12.718	0.100
114.400	-5.710	0.100
114.500	-11.358	0.100
114.600	-7.098	0.100
114.700	-11.652	0.100
114.800	-6.683	0.100
114.900	-6.558	0.100
115.000	-8.173	0.100
115.100	-7.656	0.100
115.200	-4.339	0.100
115.300	-9.523	0.100
115.400	-6.697	0.100
115.500	-6.871	0.100
115.600	-11.241	0.100
115.700	-15.227	0.100
115.800	-2.195	0.100
115.900	-10.573	0.100
116.000	-7.831	0.100
116.100	-16.396	0.100
116.200	-2.935	0.100
116.300	-8.946	0.100
116.400	-7.581	0.100
116.500	-6.412	0.100
116.600	-3.805	0.100
116.700	-5.553	0.100
116.800	-14.932	0.100
116.900	-14.564	0.100
117.000	-16.985	0.100
117.100	-6.118	0.100
117.200	-4.667	0.100
117.300	-7.597	0.100
117.400	-15.720	0.100
117.500	-17.041	0.100
117.600	-5.633	0.100
117.700	-23.153	0.100
117.800	-18.188	0.100
117.900	-12.263	0.100
118.000	-14.075	0.100
118.100	-17.289	0.100
118.200	-3.909	0.100
118.300	-16.624	0.100
118.400	-0.777	0.100
118.500	-21.593	0.100
118.600	-5.656	0.100
118.700	1.064	0.100
118.800	-11.442	0.100
118.900	-7.048	0.100
119.000	-15.466	0.100
119.100	-11.860	0.100
119.200	-13.874	0.100
119.300	-11.493	0.100
119.400	-12.784	0.100
119.500	-14.246	0.100
119.600	-12.182	0.100
119.700	-8.235	0.100
119.800	-16.111	0.100
119.900	-17.473	0.100
120.000	-14.716	0.100
120.100	-5.767	0.100
120.200	-8.972	0.100
120.300	-20.482	0.100
120.400	-13.450	0.100
120.500	-18.203	0.100
120.600	-19.882	0.100
120.700	-9.549	0.100
120.800	-9.420	0.100
120.900	-9.814	0.100
121.000	-2.113	0.100
121.100	-13.649	0.100
121.200	-16.667	0.100
121.300	-17.104	0.100
121.400	-12.138	0.100
121.500	-12.920	0.100
121.600	-15.572	0.100
121.700	-19.618	0.100
121.800	-7.268	0.100
121.900	-14.069	0.100
122.000	-22.502	0.100
122.100	-10.567	0.100
122.200	-12.590	0.100
122.300	-11.394	0.100
122.400	-13.180	0.100
122.500	-13.628	0.100
122.600	-23.151	0.100
122.700	-10.802	0.100
122.800	-13.988	0.100
122.900	-4.960	0.100
123.000	-5.013	0.100
123.100	-10.996	0.100
123.200	-12.616	0.100
123.300	-22.988	0.100
123.400	-19.436	0.100
123.500	-11.622	0.100
123.600	-17.937	0.100
123.700	-9.704	0.100
123.800	-13.611	0.100
123.900	-14.972	0.100
124.000	-15.880	0.100
124.100	-11.959	0.100
124.200	-5.712	0.100
124.300	-12.764	0.100
124.400	-13.362	0.100
124.500	-18.364	0.100
124.600	-19.716	0.100
124.700	-13.481	0.100
124.800	-23.893	0.100
124.900	-20.870	0.100
125.000	-8.601	0.100
125.100	-5.050	0.100
125.200	-9.496	0.100
125.300	-12.279	0.100
125.400	-8.802	0.100
125.500	-15.369	0.100
125.600	-10.304	0.100
125.700	-15.551	0.100
125.800	-17.202	0.100
125.900	-20.039	0.100
126.000	-25.678	0.100
126.100	-20.636	0.100
126.200	-15.775	0.100
126.300	-19.520	0.100
126.400	-12.897	0.100
126.500	-15.092	0.100
126.600	-16.712	0.100
126.700	-20.660	0.100
126.800	-12.773	0.100
126.900	-11.517	0.100
127.000	-16.162	0.100
127.100	-14.291	0.100
127.200	-18.778	0.100
127.300	-15.859	0.100
127.400	-10.925	0.100
127.500	-20.633	0.100
127.600	-12.570	0.100
127.700	-4.392	0.100
127.800	-24.389	0.100
127.900	-19.719	0.100
128.000	-18.514	0.100
128.100	-15.904	0.100
128.200	-22.241	0.100
128.300	-9.804	0.100
128.400	-14.743	0.100
128.500	-11.505	0.100
128.600	-11.570	0.100
128.700	-6.525	0.100
128.800	-17.792	0.100
128.900	-12.704	0.100
129.000	-13.161	0.100
129.100	-16.021	0.100
129.200	-20.735	0.100
129.300	-25.182	0.100
129.400	-14.482	0.100
129.500	-22.690	0.100
129.600	-15.819	0.100
129.700	-14.068	0.100
129.800	-13.364	0.100
129.900	-8.948	0.100
130.000	-15.690	0.100
130.100	-23.032	0.100
130.200	-17.379	0.100
130.300	-17.976	0.100
130.400	-18.809	0.100
130.500	-12.947	0.100
130.600	-16.232	0.100
130.700	-21.090	0.100
130.800	-18.558	0.100
130.900	-19.463	0.100
131.000	-16.651	0.100
131.100	-13.741	0.100
131.200	-11.242	0.100
131.300	-16.331	0.100
131.400	-22.049	0.100
131.500	-26.583	0.100
131.600	-15.387	0.100
131.700	-18.320	0.100
131.800	-16.676	0.100
131.900	-13.508	0.100
132.000	-7.847	0.100
132.100	-15.603	0.100
132.200	-12.487	0.100
132.300	-16.155	0.100
132.400	-21.326	0.100
132.500	-24.074	0.100
132.600	-18.075	0.100
132.700	-20.507	0.100
132.800	-30.612	0.100
132.900	-21.139	0.100
133.000	-19.054	0.100
133.100	-17.025	0.100
133.200	-16.633	0.100
133.300	-16.543	0.100
133.400	-16.680	0.100
133.500	-23.852	0.100
133.600	-11.905	0.100
133.700	-15.116	0.100
133.800	-17.682	0.100
133.900	-26.666	0.100
134.000	-24.616	0.100
134.100	-9.100	0.100
134.200	-22.170	0.100
134.300	-21.610	0.100
134.400	-19.974	0.100
134.500	-18.058	0.100
134.600	-17.402	0.100
134.700	-25.267	0.100
134.800	-33.103	0.100
134.900	-19.372	0.100
135.000	-20.811	0.100
135.100	-14.270	0.100
135.200	-18.410	0.100
135.300	-14.818	0.100
135.400	-17.413	0.100
135.500	-19.551	0.100
135.600	-27.576	0.100
135.700	-19.601	0.100
135.800	-20.022	0.100
135.900	-14.327	0.100
136.000	-14.321	0.100
136.100	-24.547	0.100
136.200	-16.871	0.100
136.300	-21.073	0.100
136.400	-11.755	0.100
136.500	-14.948	0.100
136.600	-27.949	0.100
136.700	-28.541	0.100
136.800	-16.079	0.100
136.900	-19.109	0.100
137.000	-8.634	0.100
137.100	-25.423	0.100
137.200	-21.755	0.100
137.300	-20.202	0.100
137.400	-17.894	0.100
137.500	-24.840	0.100
137.600	-19.865	0.100
137.700	-14.433	0.100
137.800	-21.238	0.100
137.900	-18.317	0.100
138.000	-20.197	0.100
138.100	-25.494	0.100
138.200	-20.375	0.100
138.300	-20.157	0.100
138.400	-17.450	0.100
138.500	-20.418	0.100
138.600	-18.723	0.100
138.700	-18.661	0.100
138.800	-17.015	0.100
138.900	-20.435	0.100
139.000	-19.891	0.100
139.100	-21.995	0.100
139.200	-23.518	0.100
139.300	-22.586	0.100
139.400	-32.757	0.100
139.500	-17.626	0.100
139.600	-22.569	0.100
139.700	-12.939	0.100
139.800	-31.589	0.100
139.900	-20.081	0.100
140.000	-13.140	0.100
140.100	-12.337	0.100
140.200	-15.036	0.100
140.300	-21.884	0.100
140.400	-15.150	0.100
140.500	-24.629	0.100
140.600	-23.132	0.100
140.700	-20.735	0.100
140.800	-17.155	0.100
140.900	-21.241	0.100
141.000	-19.420	0.100
141.100	-27.773	0.100
141.200	-18.960	0.100
141.300	-19.034	0.100
141.400	-16.969	0.100
141.500	-20.497	0.100
141.600	-26.071	0.100
141.700	-13.317	0.100
141.800	-23.227	0.100
141.900	-20.686	0.100
142.000	-26.280	0.100
142.100	-17.637	0.100
142.200	-18.229	0.100
142.300	-9.064	0.100
142.400	-17.177	0.100
142.500	-23.999	0.100
142.600	-25.433	0.100
142.700	-23.475	0.100
142.800	-21.752	0.100
142.900	-19.937	0.100
143.000	-16.194	0.100
143.100	-20.169	0.100
143.200	-16.046	0.100
143.300	-12.948	0.100
143.400	-17.212	0.100
143.500	-18.930	0.100
143.600	-18.954	0.100
143.700	-21.860	0.100
143.800	-15.860	0.100
143.900	-25.094	0.100
144.000	-27.964	0.100
144.100	-16.982	0.100
144.200	-16.889	0.100
144.300	-26.451	0.100
144.400	-20.478	0.100
144.500	-17.403	0.100
144.600	-24.463	0.100
144.700	-16.583	0.100
144.800	-17.301	0.100
144.900	-16.578	0.100
145.000	-20.440	0.100
145.100	-23.696	0.100
145.200	-9.961	0.100
145.300	-17.606	0.100
145.400	-16.005	0.100
145.500	-20.813	0.100
145.600	-20.137	0.100
145.700	-19.067	0.100
145.800	-28.314	0.100
145.900	-26.551	0.100
146.000	-20.813	0.100
146.100	-14.277	0.100
146.200	-12.888	0.100
146.300	-16.930	0.100
146.400	-14.383	0.100
146.500	-22.159	0.100
146.600	-25.873	0.100
146.700	-27.104	0.100
146.800	-9.707	0.100
146.900	-26.074	0.100
147.000	-22.242	0.100
147.100	-20.473	0.100
147.200	-21.497	0.100
147.300	-14.474	0.100
147.400	-12.328	0.100
147.500	-14.069	0.100
147.600	-26.083	0.100
147.700	-16.786	0.100
147.800	-14.950	0.100
147.900	-29.865	0.100
148.000	-20.106	0.100
148.100	-16.464	0.100
148.200	-22.005	0.100
148.300	-17.288	0.100
148.400	-20.203	0.100
148.500	-21.432	0.100
148.600	-19.798	0.100
148.700	-14.947	0.100
148.800	-29.880	0.100
148.900	-19.053	0.100
149.000	-13.968	0.100
149.100	-27.719	0.100
149.200	-26.938	0.100
149.300	-20.853	0.100
149.400	-20.196	0.100
149.500	-18.749	0.100
149.600	-16.094	0.100
149.700	-14.476	0.100
149.800	-16.081	0.100
149.900	-24.840	0.100
150.000	-22.136	0.100
150.100	-19.273	0.100
150.200	-25.361	0.100
150.300	-27.353	0.100
150.400	-14.320	0.100
150.500	-18.038	0.100
150.600	-15.160	0.100
150.700	-17.390	0.100
150.800	-21.240	0.100
150.900	-25.898	0.100
151.000	-27.430	0.100
151.100	-18.864	0.100
151.200	-27.324	0.100
151.300	-25.070	0.100
151.400	-14.627	0.100
151.500	-19.436	0.100
151.600	-26.400	0.100
151.700	-17.743	0.100
151.800	-28.997	0.100
151.900	-14.368	0.100
152.000	-18.776	0.100
152.100	-24.464	0.100
152.200	-25.244	0.100
152.300	-14.310	0.100
152.400	-25.086	0.100
152.500	-28.962	0.100
152.600	-21.392	0.100
152.700	-18.878	0.100
152.800	-12.349	0.100
152.900	-14.424	0.100
153.000	-14.340	0.100
153.100	-28.300	0.100
153.200	-24.683	0.100
153.300	-16.116	0.100
153.400	-13.777	0.100
153.500	-4.511	0.100
153.600	-22.907	0.100
153.700	-24.024	0.100
153.800	-26.413	0.100
153.900	-24.015	0.100
154.000	-21.353	0.100
154.100	-23.245	0.100
154.200	-21.181	0.100
154.300	-12.921	0.100
154.400	-23.944	0.100
154.500	-31.812	0.100
154.600	-14.183	0.100
154.700	-14.041	0.100
154.800	-22.075	0.100
154.900	-32.723	0.100
155.000	-31.640	0.100
155.100	-18.050	0.100
155.200	-19.569	0.100
155.300	-16.438	0.100
155.400	-25.670	0.100
155.500	-22.193	0.100
155.600	-11.647	0.100
155.700	-11.490	0.100
155.800	-19.743	0.100
155.900	-26.179	0.100
156.000	-27.682	0.100
156.100	-20.243	0.100
156.200	-22.989	0.100
156.300	-23.465	0.100
156.400	-27.066	0.100
156.500	-15.711	0.100
156.600	-16.431	0.100
156.700	-13.034	0.100
156.800	-19.121	0.100
156.900	-14.455	0.100
157.000	-17.982	0.100
157.100	-32.314	0.100
157.200	-30.480	0.100
157.300	-16.636	0.100
157.400	-18.170	0.100
157.500	-18.013	0.100
157.600	-17.732	0.100
157.700	-17.477	0.100
157.800	-23.970	0.100
157.900	-12.585	0.100
158.000	-11.408	0.100
158.100	-20.186	0.100
158.200	-20.316	0.100
158.300	-10.158	0.100
158.400	-10.972	0.100
158.500	-13.076	0.100
158.600	-10.543	0.100
158.700	-17.408	0.100
158.800	-27.506	0.100
158.900	-26.967	0.100
159.000	-19.614	0.100
159.100	-12.065	0.100
159.200	-14.496	0.100
159.300	-14.280	0.100
159.400	-16.437	0.100
159.500	-14.161	0.100
159.600	-16.956	0.100
159.700	-15.911	0.100
159.800	-21.755	0.100
159.900	-17.224	0.100
160.000	-22.057	0.100
160.100	-14.985	0.100
160.200	-13.195	0.100
160.300	-23.508	0.100
160.400	-21.662	0.100
160.500	-34.003	0.100
160.600	-20.232	0.100
160.700	-17.958	0.100
160.800	-18.593	0.100
160.900	-21.757	0.100
161.000	-21.908	0.100
161.100	-16.654	0.100
161.200	-13.697	0.100
161.300	-18.523	0.100
161.400	-20.918	0.100
161.500	-24.054	0.100
161.600	-18.537	0.100
161.700	-24.791	0.100
161.800	-28.314	0.100
161.900	-23.129	0.100
162.000	-27.171	0.100
162.100	-20.720	0.100
162.200	-17.456	0.100
162.300	-11.755	0.100
162.400	-14.631	0.100
162.500	-13.780	0.100
162.600	-6.599	0.100
162.700	-13.859	0.100
162.800	-20.695	0.100
162.900	-17.259	0.100
163.000	-14.782	0.100
163.100	-24.663	0.100
163.200	-19.257	0.100
163.300	-23.016	0.100
163.400	-23.466	0.100
163.500	-18.749	0.100
163.600	-20.480	0.100
163.700	-22.717	0.100
163.800	-21.097	0.100
163.900	-14.657	0.100
164.000	-21.716	0.100
164.100	-21.084	0.100
164.200	-13.783	0.100
164.300	-13.645	0.100
164.400	-27.709	0.100
164.500	-24.063	0.100
164.600	-19.268	0.100
164.700	-16.719	0.100
164.800	-17.414	0.100
164.900	-17.509	0.100
165.000	-23.364	0.100
165.100	-12.549	0.100
165.200	-15.151	0.100
165.300	-22.818	0.100
165.400	-23.819	0.100
165.500	-18.338	0.100
165.600	-20.773	0.100
165.700	-24.506	0.100
165.800	-14.914	0.100
165.900	-12.349	0.100
166.000	-23.180	0.100
166.100	-10.490	0.100
166.200	-20.741	0.100
166.300	-25.942	0.100
166.400	-19.394	0.100
166.500	-17.058	0.100
166.600	-11.737	0.100
166.700	-15.015	0.100
166.800	-13.022	0.100
166.900	-13.958	0.100
167.000	-20.419	0.100
167.100	-26.785	0.100
167.200	-21.123	0.100
167.300	-13.533	0.100
167.400	-19.691	0.100
167.500	-6.933	0.100
167.600	-18.264	0.100
167.700	-10.868	0.100
167.800	-19.693	0.100
167.900	-23.183	0.100
168.000	-21.736	0.100
168.100	-20.760	0.100
168.200	-20.923	0.100
168.300	-19.624	0.100
168.400	-21.737	0.100
168.500	-14.879	0.100
168.600	-20.598	0.100
168.700	-12.875	0.100
168.800	-13.396	0.100
168.900	-26.388	0.100
169.000	-16.692	0.100
169.100	-22.743	0.100
169.200	-16.363	0.100
169.300	-17.891	0.100
169.400	-14.419	0.100
169.500	-24.672	0.100
169.600	-18.563	0.100
169.700	-20.905	0.100
169.800	-14.695	0.100
169.900	-16.654	0.100
170.000	-9.678	0.100
170.100	-20.800	0.100
170.200	-19.145	0.100
170.300	-18.672	0.100
170.400	-17.715	0.100
170.500	-18.159	0.100
170.600	-19.008	0.100
170.700	-18.935	0.100
170.800	-16.631	0.100
170.900	-20.560	0.100
171.000	-25.437	0.100
171.100	-15.628	0.100
171.200	-31.108	0.100
171.300	-13.381	0.100
171.400	-17.315	0.100
171.500	-16.441	0.100
171.600	-13.885	0.100
171.700	-14.249	0.100
171.800	-18.244	0.100
171.900	-14.469	0.100
172.000	-23.757	0.100
172.100	-19.701	0.100
172.200	-12.461	0.100
172.300	-7.823	0.100
172.400	-13.837	0.100
172.500	-32.753	0.100
172.600	-35.045	0.100
172.700	-16.688	0.100
172.800	-14.652	0.100
172.900	-23.167	0.100
173.000	-21.107	0.100
173.100	-20.710	0.100
173.200	-24.601	0.100
173.300	-27.709	0.100
173.400	-19.656	0.100
173.500	-21.199	0.100
173.600	-17.490	0.100
173.700	-18.610	0.100
173.800	-22.689	0.100
173.900	-16.437	0.100
174.000	-16.991	0.100
174.100	-23.477	0.100
174.200	-15.534	0.100
174.300	-15.100	0.100
174.400	-16.875	0.100
174.500	-17.844	0.100
174.600	-21.967	0.100
174.700	-18.481	0.100
174.800	-18.036	0.100
174.900	-14.583	0.100
175.000	-19.441	0.100
175.100	-22.764	0.100
175.200	-20.375	0.100
175.300	-17.055	0.100
175.400	-11.205	0.100
175.500	-12.623	0.100
175.600	-8.623	0.100
175.700	-20.325	0.100
175.800	-17.774	0.100
175.900	-33.428	0.100
176.000	-28.865	0.100
176.100	-14.640	0.100
176.200	-15.073	0.100
176.300	-13.969	0.100
176.400	-14.913	0.100
176.500	-12.923	0.100
176.600	-13.571	0.100
176.700	-11.215	0.100
176.800	-19.245	0.100
176.900	-21.490	0.100
177.000	-15.735	0.100
177.100	-22.790	0.100
177.200	-15.157	0.100
177.300	-24.394	0.100
177.400	-19.521	0.100
177.500	-11.179	0.100
177.600	-17.416	0.100
177.700	-13.514	0.100
177.800	-21.772	0.100
177.900	-22.672	0.100
178.000	-19.948	0.100
178.100	-14.292	0.100
178.200	-11.149	0.100
178.300	-19.532	0.100
178.400	-20.100	0.100
178.500	-21.688	0.100
178.600	-13.530	0.100
178.700	-22.896	0.100
178.800	-26.541	0.100
178.900	-29.157	0.100
179.000	-20.628	0.100
179.100	-18.803	0.100
179.200	-14.494	0.100
179.300	-8.036	0.100
179.400	-15.405	0.100
179.500	-20.307	0.100
179.600	-18.210	0.100
179.700	-18.140	0.100
179.800	-21.567	0.100
179.900	-14.520	0.100
180.000	-9.676	0.100
180.100	-13.977	0.100
180.200	-18.529	0.100
180.300	-18.377	0.100
180.400	-19.909	0.100
180.500	-17.157	0.100
180.600	-15.222	0.100
180.700	-3.966	0.100
180.800	-6.425	0.100
180.900	-8.568	0.100
181.000	-11.619	0.100
181.100	-13.789	0.100
181.200	-9.589	0.100
181.300	-5.200	0.100
181.400	-13.156	0.100
181.500	-0.455	0.100
181.600	-5.979	0.100
181.700	-6.794	0.100
181.800	-4.225	0.100
181.900	-11.228	0.100
182.000	-8.926	0.100
182.100	4.744	0.100
182.200	3.478	0.100
182.300	1.593	0.100
182.400	6.376	0.100
182.500	3.028	0.100
182.600	-0.472	0.100
182.700	6.242	0.100
182.800	-7.784	0.100
182.900	6.976	0.100
183.000	8.710	0.100
183.100	2.664	0.100
183.200	-1.461	0.100
183.300	12.871	0.100
183.400	12.453	0.100
183.500	3.435	0.100
183.600	8.328	0.100
183.700	8.232	0.100
183.800	7.001	0.100
183.900	7.646	0.100
184.000	11.091	0.100
184.100	8.626	0.100
184.200	10.298	0.100
184.300	12.773	0.100
184.400	2.018	0.100
184.500	11.274	0.100
184.600	20.832	0.100
184.700	13.034	0.100
184.800	6.165	0.100
184.900	10.123	0.100
185.000	13.798	0.100
185.100	18.121	0.100
185.200	14.881	0.100
185.300	24.626	0.100
185.400	22.726	0.100
185.500	15.949	0.100
185.600	22.269	0.100
185.700	5.615	0.100
185.800	10.701	0.100
185.900	14.114	0.100
186.000	14.594	0.100
186.100	1.973	0.100
186.200	-0.911	0.100
186.300	12.804	0.100
186.400	17.037	0.100
186.500	27.137	0.100
186.600	10.923	0.100
186.700	2.442	0.100
186.800	7.124	0.100
186.900	22.031	0.100
187.000	16.266	0.100
187.100	9.731	0.100
187.200	18.542	0.100
187.300	13.574	0.100
187.400	16.804	0.100
187.500	10.110	0.100
187.600	8.793	0.100
187.700	17.647	0.100
187.800	11.027	0.100
187.900	12.809	0.100
188.000	3.378	0.100
188.100	9.804	0.100
188.200	7.743	0.100
188.300	11.869	0.100
188.400	6.280	0.100
188.500	14.133	0.100
188.600	14.449	0.100
188.700	2.131	0.100
188.800	11.098	0.100
188.900	10.462	0.100
189.000	15.376	0.100
189.100	-0.953	0.100
189.200	3.675	0.100
189.300	18.664	0.100
189.400	1.323	0.100
189.500	-1.545	0.100
189.600	16.959	0.100
189.700	1.458	0.100
189.800	12.415	0.100
189.900	13.789	0.100
190.000	12.201	0.100
190.100	15.631	0.100
190.200	20.970	0.100
190.300	14.131	0.100
190.400	16.279	0.100
190.500	22.852	0.100
190.600	22.481	0.100
190.700	3.757	0.100
190.800	11.394	0.100
190.900	17.893	0.100
191.000	22.945	0.100
191.100	18.549	0.100
191.200	18.589	0.100
191.300	14.826	0.100
191.400	7.822	0.100
191.500	13.504	0.100
191.600	10.914	0.100
191.700	17.856	0.100
191.800	12.253	0.100
191.900	5.681	0.100
192.000	12.831	0.100
192.100	12.405	0.100
192.200	9.517	0.100
192.300	16.547	0.100
192.400	9.014	0.100
192.500	14.693	0.100
192.600	8.537	0.100
192.700	14.962	0.100
192.800	8.855	0.100
192.900	9.987	0.100
193.000	3.144	0.100
193.100	10.017	0.100
193.200	23.469	0.100
193.300	19.986	0.100
193.400	11.579	0.100
193.500	18.970	0.100
193.600	7.855	0.100
193.700	9.382	0.100
193.800	13.202	0.100
193.900	14.610	0.100
194.000	11.193	0.100
194.100	13.719	0.100
194.200	21.656	0.100
194.300	7.496	0.100
194.400	12.309	0.100
194.500	15.477	0.100
194.600	13.320	0.100
194.700	16.484	0.100
194.800	17.835	0.100
194.900	17.905	0.100
195.000	15.429	0.100
195.100	15.428	0.100
195.200	6.830	0.100
195.300	20.733	0.100
195.400	8.873	0.100
195.500	15.902	0.100
195.600	14.924	0.100
195.700	19.332	0.100
195.800	19.273	0.100
195.900	10.174	0.100
196.000	20.695	0.100
196.100	8.798	0.100
196.200	15.200	0.100
196.300	15.773	0.100
196.400	13.092	0.100
196.500	16.037	0.100
196.600	24.848	0.100
196.700	24.613	0.100
196.800	11.464	0.100
196.900	13.044	0.100
197.000	13.399	0.100
197.100	17.928	0.100
197.200	17.017	0.100
197.300	18.022	0.100
197.400	20.809	0.100
197.500	19.182	0.100
197.600	19.575	0.100
197.700	28.563	0.100
197.800	21.962	0.100
197.900	14.471	0.100
198.000	17.985	0.100
198.100	22.657	0.100
198.200	16.024	0.100
198.300	13.498	0.100
198.400	22.372	0.100
198.500	14.764	0.100
198.600	25.565	0.100
198.700	20.185	0.100
198.800	26.017	0.100
198.900	18.329	0.100
199.000	18.557	0.100
199.100	13.039	0.100
199.200	16.483	0.100
199.300	25.140	0.100
199.400	25.066	0.100
199.500	18.069	0.100
199.600	27.624	0.100
199.700	26.758	0.100
199.800	21.380	0.100
199.900	17.451	0.100
200.000	32.089	0.100
200.100	13.850	0.100
200.200	13.916	0.100
200.300	31.704	0.100
200.400	22.175	0.100
200.500	15.274	0.100
200.600	20.776	0.100
200.700	23.144	0.100
200.800	8.406	0.100
200.900	21.647	0.100
201.000	14.886	0.100
201.100	21.923	0.100
201.200	19.891	0.100
201.300	24.947	0.100
201.400	30.241	0.100
201.500	17.874	0.100
201.600	26.343	0.100
201.700	25.865	0.100
201.800	25.381	0.100
201.900	24.431	0.100
202.000	23.396	0.100
202.100	31.667	0.100
202.200	33.109	0.100
202.300	24.503	0.100
202.400	25.761	0.100
202.500	32.262	0.100
202.600	22.461	0.100
202.700	14.579	0.100
202.800	21.847	0.100
202.900	24.028	0.100
203.000	22.586	0.100
203.100	33.657	0.100
203.200	23.183	0.100
203.300	27.695	0.100
203.400	30.494	0.100
203.500	25.145	0.100
203.600	31.652	0.100
203.700	32.001	0.100
203.800	30.721	0.100
203.900	27.078	0.100
204.000	23.559	0.100
204.100	23.139	0.100
204.200	24.030	0.100
204.300	32.412	0.100
204.400	27.948	0.100
204.500	24.295	0.100
204.600	33.854	0.100
204.700	19.667	0.100
204.800	24.927	0.100
204.900	32.430	0.100
205.000	30.179	0.100
205.100	33.791	0.100
205.200	26.306	0.100
205.300	30.945	0.100
205.400	32.841	0.100
205.500	25.507	0.100
205.600	20.827	0.100
205.700	35.445	0.100
205.800	27.052	0.100
205.900	31.548	0.100
206.000	25.282	0.100
206.100	31.936	0.100
206.200	25.031	0.100
206.300	25.867	0.100
206.400	38.000	0.100
206.500	35.407	0.100
206.600	36.186	0.100
206.700	31.587	0.100
206.800	29.053	0.100
206.900	34.922	0.100
207.000	31.769	0.100
207.100	30.370	0.100
207.200	27.025	0.100
207.300	28.096	0.100
207.400	39.137	0.100
207.500	31.344	0.100
207.600	22.503	0.100
207.700	32.661	0.100
207.800	39.099	0.100
207.900	34.236	0.100
208.000	31.554	0.100
208.100	36.136	0.100
208.200	34.040	0.100
208.300	30.442	0.100
208.400	33.550	0.100
208.500	36.155	0.100
208.600	24.034	0.100
208.700	30.513	0.100
208.800	37.260	0.100
208.900	33.591	0.100
209.000	27.931	0.100
209.100	42.709	0.100
209.200	37.786	0.100
209.300	30.202	0.100
209.400	28.778	0.100
209.500	36.443	0.100
209.600	29.586	0.100
209.700	22.979	0.100
209.800	32.423	0.100
209.900	35.586	0.100
210.000	41.496	0.100
210.100	32.746	0.100
210.200	42.480	0.100
210.300	26.368	0.100
210.400	40.329	0.100
210.500	20.924	0.100
210.600	36.644	0.100
210.700	39.827	0.100
210.800	28.652	0.100
210.900	28.611	0.100
211.000	38.351	0.100
211.100	35.097	0.100
211.200	31.213	0.100
211.300	40.109	0.100
211.400	41.801	0.100
211.500	45.949	0.100
211.600	32.934	0.100
211.700	23.553	0.100
211.800	30.927	0.100
211.900	32.109	0.100
212.000	40.560	0.100
212.100	35.309	0.100
212.200	34.738	0.100
212.300	37.132	0.100
212.400	43.008	0.100
212.500	31.908	0.100
212.600	38.332	0.100
212.700	38.807	0.100
212.800	40.260	0.100
212.900	27.443	0.100
213.000	31.546	0.100
213.100	37.205	0.100
213.200	38.911	0.100
213.300	40.545	0.100
213.400	36.934	0.100
213.500	22.252	0.100
213.600	36.878	0.100
213.700	29.255	0.100
213.800	37.596	0.100
213.900	33.729	0.100
214.000	42.153	0.100
214.100	25.323	0.100
214.200	50.954	0.100
214.300	45.640	0.100
214.400	36.995	0.100
214.500	33.785	0.100
214.600	48.356	0.100
214.700	27.114	0.100
214.800	33.288	0.100
214.900	35.712	0.100
215.000	38.465	0.100
215.100	46.780	0.100
215.200	36.229	0.100
215.300	33.528	0.100
215.400	37.928	0.100
215.500	38.739	0.100
215.600	45.371	0.100
215.700	32.954	0.100
215.800	32.818	0.100
215.900	41.920	0.100
216.000	33.558	0.100
216.100	34.962	0.100
216.200	39.934	0.100
216.300	29.004	0.100
216.400	35.001	0.100
216.500	46.033	0.100
216.600	37.572	0.100
216.700	27.348	0.100
216.800	38.645	0.100
216.900	48.428	0.100
217.000	43.066	0.100
217.100	33.493	0.100
217.200	35.044	0.100
217.300	41.951	0.100
217.400	36.390	0.100
217.500	32.010	0.100
217.600	40.569	0.100
217.700	30.201	0.100
217.800	39.972	0.100
217.900	37.213	0.100
218.000	49.808	0.100
218.100	36.912	0.100
218.200	41.599	0.100
218.300	41.173	0.100
218.400	22.590	0.100
218.500	42.642	0.100
218.600	45.991	0.100
218.700	37.582	0.100
218.800	33.411	0.100
218.900	27.848	0.100
219.000	35.929	0.100
219.100	39.242	0.100
219.200	49.784	0.100
219.300	39.545	0.100
219.400	40.430	0.100
219.500	47.192	0.100
219.600	43.674	0.100
219.700	37.265	0.100
219.800	37.172	0.100
219.900	37.702	0.100
220.000	36.372	0.100
220.100	42.121	0.100
220.200	40.652	0.100
220.300	37.080	0.100
220.400	31.537	0.100
220.500	43.179	0.100
220.600	43.069	0.100
220.700	36.680	0.100
220.800	28.653	0.100
220.900	39.960	0.100
221.000	41.596	0.100
221.100	35.755	0.100
221.200	46.180	0.100
221.300	43.441	0.100
221.400	41.517	0.100
221.500	36.184	0.100
221.600	32.494	0.100
221.700	38.500	0.100
221.800	46.534	0.100
221.900	43.868	0.100
222.000	42.836	0.100
222.100	42.131	0.100
222.200	47.184	0.100
222.300	44.806	0.100
222.400	38.448	0.100
222.500	39.248	0.100
222.600	25.654	0.100
222.700	39.737	0.100
222.800	42.350	0.100
222.900	26.812	0.100
223.000	37.910	0.100
223.100	44.119	0.100
223.200	36.677	0.100
223.300	43.144	0.100
223.400	35.175	0.100
223.500	39.751	0.100
223.600	41.898	0.100
223.700	47.787	0.100
223.800	31.453	0.100
223.900	35.513	0.100
224.000	43.944	0.100
224.100	29.127	0.100
224.200	43.544	0.100
224.300	42.882	0.100
224.400	38.966	0.100
224.500	41.164	0.100
224.600	45.979	0.100
224.700	37.502	0.100
224.800	47.905	0.100
224.900	41.073	0.100
225.000	38.610	0.100
225.100	43.901	0.100
225.200	37.220	0.100
225.300	44.445	0.100
225.400	49.534	0.100
225.500	40.908	0.100
225.600	41.073	0.100
225.700	42.205	0.100
225.800	32.916	0.100
225.900	41.308	0.100
226.000	40.410	0.100
226.100	44.799	0.100
226.200	43.865	0.100
226.300	40.639	0.100
226.400	45.399	0.100
226.500	26.909	0.100
226.600	37.985	0.100
226.700	39.057	0.100
226.800	43.807	0.100
226.900	42.551	0.100
227.000	44.041	0.100
227.100	42.847	0.100
227.200	41.191	0.100
227.300	33.761	0.100
227.400	33.943	0.100
227.500	46.539	0.100
227.600	49.383	0.100
227.700	33.295	0.100
227.800	30.893	0.100
227.900	34.979	0.100
228.000	32.377	0.100
228.100	34.130	0.100
228.200	44.044	0.100
228.300	34.862	0.100
228.400	41.488	0.100
228.500	37.176	0.100
228.600	33.145	0.100
228.700	43.406	0.100
228.800	38.705	0.100
228.900	44.548	0.100
229.000	46.500	0.100
229.100	45.745	0.100
229.200	47.673	0.100
229.300	36.471	0.100
229.400	42.892	0.100
229.500	49.073	0.100
229.600	37.412	0.100
229.700	35.578	0.100
229.800	38.161	0.100
229.900	39.032	0.100
230.000	45.540	0.100
230.100	33.014	0.100
230.200	38.822	0.100
230.300	49.699	0.100
230.400	37.012	0.100
230.500	40.621	0.100
230.600	42.078	0.100
230.700	23.727	0.100
230.800	34.619	0.100
230.900	51.604	0.100
231.000	39.597	0.100
231.100	48.186	0.100
231.200	36.755	0.100
231.300	41.657	0.100
231.400	36.408	0.100
231.500	39.264	0.100
231.600	41.645	0.100
231.700	41.616	0.100
231.800	40.291	0.100
231.900	46.744	0.100
232.000	39.440	0.100
232.100	34.524	0.100
232.200	31.065	0.100
232.300	37.002	0.100
232.400	45.072	0.100
232.500	49.714	0.100
232.600	44.357	0.100
232.700	43.662	0.100
232.800	42.907	0.100
232.900	39.064	0.100
233.000	33.361	0.100
233.100	40.734	0.100
233.200	43.990	0.100
233.300	41.149	0.100
233.400	39.063	0.100
233.500	31.199	0.100
233.600	34.179	0.100
233.700	37.149	0.100
233.800	48.275	0.100
233.900	46.771	0.100
234.000	46.851	0.100
234.100	30.426	0.100
234.200	40.161	0.100
234.300	39.879	0.100
234.400	41.000	0.100
234.500	32.097	0.100
234.600	40.356	0.100
234.700	30.772	0.100
234.800	45.403	0.100
234.900	42.575	0.100
235.000	38.014	0.100
235.100	39.529	0.100
235.200	38.057	0.100
235.300	25.988	0.100
235.400	52.161	0.100
235.500	46.226	0.100
235.600	46.811	0.100
235.700	39.708	0.100
235.800	43.177	0.100
235.900	42.620	0.100
236.000	44.044	0.100
236.100	49.064	0.100
236.200	35.390	0.100
236.300	36.358	0.100
236.400	35.501	0.100
236.500	38.964	0.100
236.600	40.201	0.100
236.700	44.145	0.100
236.800	44.234	0.100
236.900	30.315	0.100
237.000	32.077	0.100
237.100	41.075	0.100
237.200	41.261	0.100
237.300	40.660	0.100
237.400	48.377	0.100
237.500	35.951	0.100
237.600	33.503	0.100
237.700	49.038	0.100
237.800	45.344	0.100
237.900	42.522	0.100
238.000	43.991	0.100
238.100	34.535	0.100
238.200	38.803	0.100
238.300	40.197	0.100
238.400	35.275	0.100
238.500	26.673	0.100
238.600	39.142	0.100
238.700	47.608	0.100
238.800	43.633	0.100
238.900	43.894	0.100
239.000	37.710	0.100
239.100	47.260	0.100
239.200	45.083	0.100
239.300	42.705	0.100
239.400	33.874	0.100
239.500	27.198	0.100
239.600	46.693	0.100
239.700	47.091	0.100
239.800	37.855	0.100
239.900	33.216	0.100
240.000	29.382	0.100
240.100	51.660	0.100
240.200	40.801	0.100
240.300	33.032	0.100
240.400	53.384	0.100
240.500	41.185	0.100
240.600	37.854	0.100
240.700	42.469	0.100
240.800	38.791	0.100
240.900	36.917	0.100
241.000	22.770	0.100
241.100	37.889	0.100
241.200	26.742	0.100
241.300	30.688	0.100
241.400	36.949	0.100
241.500	34.634	0.100
241.600	14.968	0.100
241.700	24.071	0.100
241.800	20.470	0.100
241.900	18.293	0.100
242.000	17.729	0.100
242.100	12.781	0.100
242.200	22.776	0.100
242.300	23.110	0.100
242.400	17.366	0.100
242.500	11.035	0.100
242.600	28.214	0.100
242.700	15.142	0.100
242.800	17.634	0.100
242.900	18.695	0.100
243.000	17.791	0.100
243.100	5.239	0.100
243.200	3.637	0.100
243.300	11.301	0.100
243.400	5.749	0.100
243.500	17.220	0.100
243.600	13.283	0.100
243.700	-2.910	0.100
243.800	11.978	0.100
243.900	10.687	0.100
244.000	7.574	0.100
244.100	3.282	0.100
244.200	5.225	0.100
244.300	11.659	0.100
244.400	5.965	0.100
244.500	1.717	0.100
244.600	7.703	0.100
244.700	13.972	0.100
244.800	-0.951	0.100
244.900	0.466	0.100
245.000	9.416	0.100
245.100	10.024	0.100
245.200	4.859	0.100
245.300	0.049	0.100
245.400	3.190	0.100
245.500	3.083	0.100
245.600	1.633	0.100
245.700	-1.143	0.100
245.800	5.282	0.100
245.900	-4.758	0.100
246.000	5.193	0.100
246.100	15.253	0.100
246.200	-3.246	0.100
246.300	-3.443	0.100
246.400	7.777	0.100
246.500	4.629	0.100
246.600	-0.539	0.100
246.700	-3.802	0.100
246.800	10.624	0.100
246.900	8.089	0.100
247.000	7.721	0.100
247.100	-2.618	0.100
247.200	6.131	0.100
247.300	0.994	0.100
247.400	2.055	0.100
247.500	-4.189	0.100
247.600	-2.481	0.100
247.700	-4.912	0.100
247.800	-5.249	0.100
247.900	2.354	0.100
248.000	6.442	0.100
248.100	18.379	0.100
248.200	3.195	0.100
248.300	3.603	0.100
248.400	13.866	0.100
248.500	-8.584	0.100
248.600	0.719	0.100
248.700	9.583	0.100
248.800	-2.196	0.100
248.900	-3.504	0.100
249.000	-3.718	0.100
249.100	-3.504	0.100
249.200	-5.247	0.100
249.300	19.157	0.100
249.400	12.454	0.100
249.500	-1.906	0.100
249.600	-2.345	0.100
249.700	5.065	0.100
249.800	1.590	0.100
249.900	4.189	0.100
250.000	4.401	0.100
250.100	-2.950	0.100
250.200	-11.626	0.100
250.300	-6.893	0.100
250.400	4.156	0.100
250.500	-3.024	0.100
250.600	2.102	0.100
250.700	0.874	0.100
250.800	12.948	0.100
250.900	-5.967	0.100
251.000	-0.606	0.100
251.100	-0.126	0.100
251.200	-3.784	0.100
251.300	-0.758	0.100
251.400	-8.736	0.100
251.500	6.079	0.100
251.600	-2.724	0.100
251.700	1.570	0.100
251.800	8.561	0.100
251.900	-1.078	0.100
252.000	-3.827	0.100
252.100	-4.105	0.100
252.200	-0.303	0.100
252.300	1.002	0.100
252.400	15.462	0.100
252.500	5.507	0.100
252.600	-0.543	0.100
252.700	4.091	0.100
252.800	-0.972	0.100
252.900	5.170	0.100
253.000	5.949	0.100
253.100	2.688	0.100
253.200	-2.706	0.100
253.300	-5.075	0.100
253.400	-9.264	0.100
253.500	-3.699	0.100
253.600	-2.306	0.100
253.700	-11.770	0.100
253.800	-5.791	0.100
253.900	-4.937	0.100
254.000	-12.584	0.100
254.100	4.869	0.100
254.200	7.409	0.100
254.300	-5.225	0.100
254.400	-2.721	0.100
254.500	-0.550	0.100
254.600	2.120	0.100
254.700	-4.271	0.100
254.800	-1.421	0.100
254.900	-6.771	0.100
255.000	-9.565	0.100
255.100	1.126	0.100
255.200	-2.269	0.100
255.300	2.593	0.100
255.400	-5.332	0.100
255.500	1.192	0.100
255.600	0.763	0.100
255.700	-1.292	0.100
255.800	-5.831	0.100
255.900	5.620	0.100
256.000	-5.033	0.100
256.100	-1.739	0.100
256.200	-2.111	0.100
256.300	-6.867	0.100
256.400	-9.991	0.100
256.500	-15.125	0.100
256.600	-5.095	0.100
256.700	-3.395	0.100
256.800	-2.493	0.100
256.900	-4.703	0.100
257.000	-7.750	0.100
257.100	-0.599	0.100
257.200	-6.528	0.100
257.300	-10.751	0.100
257.400	-8.872	0.100
257.500	-1.834	0.100
257.600	-0.619	0.100
257.700	-3.769	0.100
257.800	2.693	0.100
257.900	-7.068	0.100
258.000	-6.189	0.100
258.100	-4.180	0.100
258.200	-1.019	0.100
258.300	-7.599	0.100
258.400	1.097	0.100
258.500	-14.042	0.100
258.600	-8.141	0.100
258.700	-4.048	0.100
258.800	-13.772	0.100
258.900	-3.176	0.100
259.000	-8.132	0.100
259.100	-2.317	0.100
259.200	-3.260	0.100
259.300	-10.026	0.100
259.400	-3.935	0.100
259.500	-5.962	0.100
259.600	-7.665	0.100
259.700	-12.578	0.100
259.800	-2.563	0.100
259.900	-5.826	0.100
260.000	-8.007	0.100
260.100	-3.899	0.100
260.200	-3.870	0.100
260.300	-14.038	0.100
260.400	-15.005	0.100
260.500	-11.592	0.100
260.600	-17.803	0.100
260.700	-3.368	0.100
260.800	-14.375	0.100
260.900	-8.537	0.100
261.000	-7.606	0.100
261.100	-10.478	0.100
261.200	-4.240	0.100
261.300	-9.777	0.100
261.400	-5.579	0.100
261.500	-4.398	0.100
261.600	-13.958	0.100
261.700	-6.108	0.100
261.800	-8.314	0.100
261.900	-4.833	0.100
262.000	-14.799	0.100
262.100	-15.981	0.100
262.200	-2.175	0.100
262.300	-12.682	0.100
262.400	-18.327	0.100
262.500	0.701	0.100
262.600	-4.258	0.100
262.700	-6.076	0.100
262.800	-8.874	0.100
262.900	-4.499	0.100
263.000	-12.046	0.100
263.100	-11.565	0.100
263.200	-11.922	0.100
263.300	-20.466	0.100
263.400	-4.828	0.100
263.500	-7.839	0.100
263.600	-9.090	0.100
263.700	0.165	0.100
263.800	-9.476	0.100
263.900	-12.938	0.100
264.000	-12.770	0.100
264.100	-8.364	0.100
264.200	-7.660	0.100
264.300	-6.662	0.100
264.400	-15.731	0.100
264.500	-13.252	0.100
264.600	-11.927	0.100
264.700	-16.046	0.100
264.800	-6.662	0.100
264.900	-7.199	0.100
265.000	-25.588	0.100
265.100	-12.150	0.100
265.200	-12.999	0.100
265.300	-12.997	0.100
265.400	-13.351	0.100
265.500	-4.981	0.100
265.600	-6.699	0.100
265.700	-12.879	0.100
265.800	-18.512	0.100
265.900	-22.169	0.100
266.000	-8.238	0.100
266.100	-5.568	0.100
266.200	-1.075	0.100
266.300	-2.238	0.100
266.400	-7.125	0.100
266.500	-25.412	0.100
266.600	-8.296	0.100
266.700	-3.912	0.100
266.800	-11.168	0.100
266.900	-21.863	0.100
267.000	-20.116	0.100
267.100	-6.927	0.100
267.200	-15.941	0.100
267.300	-12.392	0.100
267.400	-10.423	0.100
267.500	-17.845	0.100
267.600	-11.726	0.100
267.700	-9.415	0.100
267.800	-3.379	0.100
267.900	-4.807	0.100
268.000	-12.780	0.100
268.100	-11.125	0.100
268.200	-17.240	0.100
268.300	-17.634	0.100
268.400	-15.749	0.100
268.500	-14.351	0.100
268.600	-10.258	0.100
268.700	-9.317	0.100
268.800	-9.164	0.100
268.900	-22.558	0.100
269.000	-19.363	0.100
269.100	-9.624	0.100
269.200	-11.847	0.100
269.300	-18.018	0.100
269.400	-9.628	0.100
269.500	-10.554	0.100
269.600	-14.508	0.100
269.700	-15.673	0.100
269.800	-10.626	0.100
269.900	-18.333	0.100
270.000	-18.619	0.100
270.100	-28.511	0.100
270.200	-18.699	0.100
270.300	-18.334	0.100
270.400	-12.504	0.100
270.500	-13.786	0.100
270.600	-21.437	0.100
270.700	-21.866	0.100
270.800	-12.124	0.100
270.900	-10.611	0.100
271.000	-7.630	0.100
271.100	-5.723	0.100
271.200	-20.580	0.100
271.300	-17.784	0.100
271.400	-8.152	0.100
271.500	-23.453	0.100
271.600	-13.304	0.100
271.700	-13.769	0.100
271.800	-14.187	0.100
271.900	-9.678	0.100
272.000	-10.494	0.100
272.100	-16.888	0.100
272.200	-15.156	0.100
272.300	-21.535	0.100
272.400	-14.836	0.100
272.500	-7.981	0.100
272.600	-13.677	0.100
272.700	-16.143	0.100
272.800	-17.251	0.100
272.900	-18.068	0.100
273.000	-17.607	0.100
273.100	-14.037	0.100
273.200	-16.898	0.100
273.300	-18.646	0.100
273.400	-14.262	0.100
273.500	-18.281	0.100
273.600	-15.681	0.100
273.700	-20.340	0.100
273.800	-30.825	0.100
273.900	-19.704	0.100
274.000	-8.150	0.100
274.100	-10.736	0.100
274.200	-15.009	0.100
274.300	-19.026	0.100
274.400	-16.255	0.100
274.500	-12.410	0.100
274.600	-26.556	0.100
274.700	-24.119	0.100
274.800	-10.893	0.100
274.900	-6.476	0.100
275.000	-10.139	0.100
275.100	-16.487	0.100
275.200	-22.623	0.100
275.300	-14.959	0.100
275.400	-10.306	0.100
275.500	-25.077	0.100
275.600	-18.487	0.100
275.700	-24.531	0.100
275.800	-17.634	0.100
275.900	-19.890	0.100
276.000	-15.228	0.100
276.100	-28.061	0.100
276.200	-18.497	0.100
276.300	-13.397	0.100
276.400	-5.773	0.100
276.500	-12.927	0.100
276.600	-12.608	0.100
276.700	-19.753	0.100
276.800	-23.717	0.100
276.900	-19.327	0.100
277.000	-17.776	0.100
277.100	-20.027	0.100
277.200	-17.582	0.100
277.300	-16.074	0.100
277.400	-16.178	0.100
277.500	-17.492	0.100
277.600	-24.810	0.100
277.700	-19.299	0.100
277.800	-16.020	0.100
277.900	-21.305	0.100
278.000	-23.110	0.100
278.100	-31.115	0.100
278.200	-20.442	0.100
278.300	-14.576	0.100
278.400	-21.022	0.100
278.500	-19.709	0.100
278.600	-13.394	0.100
278.700	-24.374	0.100
278.800	-15.979	0.100
278.900	-11.701	0.100
279.000	-5.272	0.100
279.100	-7.670	0.100
279.200	-17.862	0.100
279.300	-31.906	0.100
279.400	-19.215	0.100
279.500	-22.685	0.100
279.600	-17.944	0.100
279.700	-11.640	0.100
279.800	-19.326	0.100
279.900	-15.370	0.100
280.000	-13.681	0.100
280.100	-22.294	0.100
280.200	-23.819	0.100
280.300	-23.600	0.100
280.400	-5.086	0.100
280.500	-20.706	0.100
280.600	-26.421	0.100
280.700	-25.456	0.100
280.800	-23.307	0.100
280.900	-33.402	0.100
281.000	-23.125	0.100
281.100	-14.245	0.100
281.200	-23.044	0.100
281.300	-18.642	0.100
281.400	-22.708	0.100
281.500	-11.190	0.100
281.600	-12.590	0.100
281.700	-20.240	0.100
281.800	-16.876	0.100
281.900	-18.582	0.100
282.000	-12.959	0.100
282.100	-20.479	0.100
282.200	-17.660	0.100
282.300	-18.434	0.100
282.400	-20.213	0.100
282.500	-20.544	0.100
282.600	-16.330	0.100
282.700	-22.626	0.100
282.800	-30.883	0.100
282.900	-19.524	0.100
283.000	-11.538	0.100
283.100	-23.694	0.100
283.200	-24.175	0.100
283.300	-24.315	0.100
283.400	-17.533	0.100
283.500	-16.305	0.100
283.600	-16.376	0.100
283.700	-16.694	0.100
283.800	-24.924	0.100
283.900	-15.363	0.100
284.000	-18.224	0.100
284.100	-20.553	0.100
284.200	-12.758	0.100
284.300	-24.643	0.100
284.400	-11.877	0.100
284.500	-16.582	0.100
284.600	-19.064	0.100
284.700	-19.568	0.100
284.800	-32.607	0.100
284.900	-18.546	0.100
285.000	-15.659	0.100
285.100	-18.409	0.100
285.200	-21.161	0.100
285.300	-19.019	0.100
285.400	-9.415	0.100
285.500	-22.835	0.100
285.600	-18.354	0.100
285.700	-15.516	0.100
285.800	-20.230	0.100
285.900	-28.473	0.100
286.000	-23.488	0.100
286.100	-16.418	0.100
286.200	-20.679	0.100
286.300	-23.495	0.100
286.400	-20.485	0.100
286.500	-14.161	0.100
286.600	-21.175	0.100
286.700	-12.900	0.100
286.800	-16.068	0.100
286.900	-25.184	0.100
287.000	-18.042	0.100
287.100	-22.792	0.100
287.200	-19.124	0.100
287.300	-16.457	0.100
287.400	-25.800	0.100
287.500	-17.065	0.100
287.600	-21.185	0.100
287.700	-21.415	0.100
287.800	-23.746	0.100
287.900	-8.735	0.100
288.000	-13.993	0.100
288.100	-18.859	0.100
288.200	-15.679	0.100
288.300	-23.061	0.100
288.400	-28.549	0.100
288.500	-20.870	0.100
288.600	-21.143	0.100
288.700	-26.705	0.100
288.800	-11.762	0.100
288.900	-15.809	0.100
289.000	-15.658	0.100
289.100	-27.176	0.100
289.200	-29.737	0.100
289.300	-20.978	0.100
289.400	-25.968	0.100
289.500	-20.930	0.100
289.600	-7.307	0.100
289.700	-13.570	0.100
289.800	-18.850	0.100
289.900	-21.613	0.100
290.000	-18.314	0.100
290.100	-21.329	0.100
290.200	-33.583	0.100
290.300	-21.968	0.100
290.400	-13.020	0.100
290.500	-20.663	0.100
290.600	-20.520	0.100
290.700	-16.741	0.100
290.800	-17.082	0.100
290.900	-35.044	0.100
291.000	-16.286	0.100
291.100	-18.008	0.100
291.200	-12.245	0.100
291.300	-20.504	0.100
291.400	-20.353	0.100
291.500	-30.797	0.100
291.600	-18.680	0.100
291.700	-25.192	0.100
291.800	-23.532	0.100
291.900	-24.695	0.100
292.000	-29.443	0.100
292.100	-16.662	0.100
292.200	-23.282	0.100
292.300	-25.091	0.100
292.400	-12.878	0.100
292.500	-14.507	0.100
292.600	-25.062	0.100
292.700	-28.130	0.100
292.800	-15.526	0.100
292.900	-19.377	0.100
293.000	-29.639	0.100
293.100	-21.472	0.100
293.200	-22.951	0.100
293.300	-18.990	0.100
293.400	-16.089	0.100
293.500	-28.876	0.100
293.600	-19.620	0.100
293.700	-27.544	0.100
293.800	-15.755	0.100
293.900	-20.254	0.100
294.000	-28.653	0.100
294.100	-18.309	0.100
294.200	-11.506	0.100
294.300	-14.584	0.100
294.400	-34.908	0.100
294.500	-28.071	0.100
294.600	-18.918	0.100
294.700	-24.146	0.100
294.800	-22.903	0.100
294.900	-17.848	0.100
295.000	-14.171	0.100
295.100	-18.282	0.100
295.200	-16.498	0.100
295.300	-20.021	0.100
295.400	-16.421	0.100
295.500	-23.898	0.100
295.600	-23.716	0.100
295.700	-13.213	0.100
295.800	-23.910	0.100
295.900	-16.385	0.100
296.000	-20.650	0.100
296.100	-26.622	0.100
296.200	-22.491	0.100
296.300	-19.623	0.100
296.400	-20.903	0.100
296.500	-21.831	0.100
296.600	-20.864	0.100
296.700	-18.550	0.100
296.800	-17.329	0.100
296.900	-20.780	0.100
297.000	-18.644	0.100
297.100	-18.524	0.100
297.200	-15.354	0.100
297.300	-26.132	0.100
297.400	-21.967	0.100
297.500	-6.083	0.100
297.600	-14.133	0.100
297.700	-28.525	0.100
297.800	-27.832	0.100
297.900	-28.968	0.100
298.000	-27.883	0.100
298.100	-20.576	0.100
298.200	-23.295	0.100
298.300	-22.747	0.100
298.400	-11.812	0.100
298.500	-10.213	0.100
298.600	-17.930	0.100
298.700	-11.880	0.100
298.800	-14.211	0.100
298.900	-20.104	0.100
299.000	-32.538	0.100
299.100	-25.878	0.100
299.200	-15.201	0.100
299.300	-26.583	0.100
299.400	-32.174	0.100
299.500	-23.646	0.100
299.600	0.513	0.100
299.700	-26.626	0.100
299.800	-13.661	0.100
299.900	-10.585	0.100
300.000	-18.890	0.100
300.100	-21.813	0.100
300.200	-12.788	0.100
300.300	-14.699	0.100
300.400	-20.655	0.100
300.500	-19.229	0.100
300.600	-26.696	0.100
300.700	-31.461	0.100
300.800	-20.932	0.100
300.900	-21.309	0.100
301.000	-20.271	0.100
301.100	-18.424	0.100
301.200	-15.744	0.100
301.300	-28.667	0.100
301.400	-24.288	0.100
301.500	-31.800	0.100
301.600	-11.541	0.100
301.700	-10.982	0.100
301.800	-20.156	0.100
301.900	-18.477	0.100
302.000	-21.961	0.100
302.100	-19.942	0.100
302.200	-15.207	0.100
302.300	-14.657	0.100
302.400	-19.803	0.100
302.500	-9.468	0.100
302.600	-13.011	0.100
302.700	-23.518	0.100
302.800	-26.108	0.100
302.900	-23.573	0.100
303.000	-26.483	0.100
303.100	-10.370	0.100
303.200	-26.078	0.100
303.300	-14.198	0.100
303.400	-19.125	0.100
303.500	-11.091	0.100
303.600	-22.766	0.100
303.700	-21.819	0.100
303.800	-24.120	0.100
303.900	-25.135	0.100
304.000	-7.718	0.100
304.100	-13.276	0.100
304.200	-22.273	0.100
304.300	-25.881	0.100
304.400	-12.738	0.100
304.500	-11.681	0.100
304.600	-11.408	0.100
304.700	-24.285	0.100
304.800	-24.137	0.100
304.900	-14.527	0.100
305.000	-31.533	0.100
305.100	-23.673	0.100
305.200	-16.147	0.100
305.300	-9.457	0.100
305.400	-14.363	0.100
305.500	-9.995	0.100
305.600	-23.847	0.100
305.700	-21.283	0.100
305.800	-30.004	0.100
305.900	-27.453	0.100
306.000	-19.951	0.100
306.100	-18.520	0.100
306.200	-19.943	0.100
306.300	-27.608	0.100
306.400	-11.213	0.100
306.500	-13.171	0.100
306.600	-24.580	0.100
306.700	-24.621	0.100
306.800	-21.320	0.100
306.900	-24.834	0.100
307.000	-18.980	0.100
307.100	-15.769	0.100
307.200	-20.339	0.100
307.300	-26.908	0.100
307.400	-16.995	0.100
307.500	-6.906	0.100
307.600	-20.776	0.100
307.700	-22.116	0.100
307.800	-25.922	0.100
307.900	-14.768	0.100
308.000	-19.495	0.100
308.100	-19.507	0.100
308.200	-28.963	0.100
308.300	-12.178	0.100
308.400	-26.216	0.100
308.500	-27.782	0.100
308.600	-17.856	0.100
308.700	-17.460	0.100
308.800	-25.504	0.100
308.900	-12.630	0.100
309.000	-18.006	0.100
309.100	-20.959	0.100
309.200	-17.607	0.100
309.300	-24.742	0.100
309.400	-33.841	0.100
309.500	-9.352	0.100
309.600	-20.208	0.100
309.700	-7.916	0.100
309.800	-24.991	0.100
309.900	-10.524	0.100
310.000	-20.929	0.100
310.100	-17.257	0.100
310.200	-22.755	0.100
310.300	-20.562	0.100
310.400	-13.199	0.100
310.500	-17.803	0.100
310.600	-21.672	0.100
310.700	-11.733	0.100
310.800	-12.321	0.100
310.900	-19.245	0.100
311.000	-20.413	0.100
311.100	-21.881	0.100
311.200	-19.927	0.100
311.300	-15.784	0.100
311.400	-19.336	0.100
311.500	-16.860	0.100
311.600	-21.287	0.100
311.700	-17.799	0.100
311.800	-21.645	0.100
311.900	-20.925	0.100
312.000	-23.700	0.100
312.100	-14.775	0.100
312.200	-21.747	0.100
312.300	-21.698	0.100
312.400	-24.671	0.100
312.500	-21.459	0.100
312.600	-18.501	0.100
312.700	-14.828	0.100
312.800	-24.641	0.100
312.900	-16.160	0.100
313.000	-18.730	0.100
313.100	-9.708	0.100
313.200	-18.845	0.100
313.300	-16.381	0.100
313.400	-22.902	0.100
313.500	-15.125	0.100
313.600	-12.264	0.100
313.700	-16.545	0.100
313.800	-23.002	0.100
313.900	-28.673	0.100
314.000	-9.497	0.100
314.100	-8.745	0.100
314.200	-10.806	0.100
314.300	-20.750	0.100
314.400	-21.765	0.100
314.500	-20.247	0.100
314.600	-12.615	0.100
314.700	-19.042	0.100
314.800	-26.797	0.100
314.900	-20.021	0.100
315.000	-22.912	0.100
315.100	-12.462	0.100
315.200	-18.417	0.100
315.300	-14.548	0.100
315.400	-16.335	0.100
315.500	-6.088	0.100
315.600	-14.239	0.100
315.700	-14.859	0.100
315.800	-21.974	0.100
315.900	-22.124	0.100
316.000	-22.025	0.100
316.100	-17.769	0.100
316.200	-14.721	0.100
316.300	-15.156	0.100
316.400	-18.109	0.100
316.500	-27.581	0.100
316.600	-15.050	0.100
316.700	-2.819	0.100
316.800	-19.347	0.100
316.900	-16.338	0.100
317.000	-24.102	0.100
317.100	-18.230	0.100
317.200	-27.305	0.100
317.300	-19.137	0.100
317.400	-14.443	0.100
317.500	-14.975	0.100
317.600	-15.206	0.100
317.700	-19.357	0.100
317.800	-21.249	0.100
317.900	-33.177	0.100
318.000	-24.337	0.100
318.100	-30.141	0.100
318.200	-22.382	0.100
318.300	-15.853	0.100
318.400	-20.128	0.100
318.500	-15.058	0.100
318.600	-18.326	0.100
318.700	-23.709	0.100
318.800	-18.871	0.100
318.900	-9.557	0.100
319.000	-16.473	0.100
319.100	-23.412	0.100
319.200	-18.197	0.100
319.300	-17.679	0.100
319.400	-22.258	0.100
319.500	-25.887	0.100
319.600	-28.407	0.100
319.700	-12.887	0.100
319.800	-11.875	0.100
319.900	-9.956	0.100
320.000	-12.926	0.100
320.100	-19.982	0.100
320.200	-15.795	0.100
320.300	-26.729	0.100
320.400	-28.791	0.100
320.500	-19.666	0.100
320.600	-23.621	0.100
320.700	-11.224	0.100
320.800	-12.171	0.100
320.900	-23.777	0.100
321.000	-11.587	0.100
321.100	-12.928	0.100
321.200	-10.003	0.100
321.300	-14.845	0.100
321.400	-21.842	0.100
321.500	-23.234	0.100
321.600	-20.955	0.100
321.700	-16.923	0.100
321.800	-20.805	0.100
321.900	-21.636	0.100
322.000	-11.451	0.100
322.100	-5.797	0.100
322.200	-19.120	0.100
322.300	-23.076	0.100
322.400	-15.085	0.100
322.500	-14.542	0.100
322.600	-13.878	0.100
322.700	-21.794	0.100
322.800	-14.152	0.100
322.900	-15.885	0.100
323.000	-19.043	0.100
323.100	-14.112	0.100
323.200	-3.630	0.100
323.300	-15.616	0.100
323.400	-32.676	0.100
323.500	-12.549	0.100
323.600	-19.896	0.100
323.700	-13.794	0.100
323.800	-17.053	0.100
323.900	-12.343	0.100
324.000	-17.704	0.100
324.100	-19.905	0.100
324.200	-17.625	0.100
324.300	-28.040	0.100
324.400	-29.704	0.100
324.500	-15.619	0.100
324.600	-14.054	0.100
324.700	-5.527	0.100
324.800	-14.315	0.100
324.900	-8.084	0.100
325.000	-20.764	0.100
325.100	-13.024	0.100
325.200	-22.124	0.100
325.300	-15.007	0.100
325.400	-17.032	0.100
325.500	-15.912	0.100
325.600	-20.486	0.100
325.700	-18.800	0.100
325.800	-17.772	0.100
325.900	-20.691	0.100
326.000	-22.471	0.100
326.100	-12.313	0.100
326.200	-15.488	0.100
326.300	0.384	0.100
326.400	-4.439	0.100
326.500	-12.574	0.100
326.600	-31.702	0.100
326.700	-22.271	0.100
326.800	-12.609	0.100
326.900	-19.687	0.100
327.000	-29.627	0.100
327.100	-18.360	0.100
327.200	-20.258	0.100
327.300	-19.587	0.100
327.400	-9.337	0.100
327.500	-17.042	0.100
327.600	-18.977	0.100
327.700	-11.135	0.100
327.800	-18.216	0.100
327.900	-15.133	0.100
328.000	-8.517	0.100
328.100	-25.677	0.100
328.200	-15.445	0.100
328.300	-21.209	0.100
328.400	-7.265	0.100
328.500	-13.397	0.100
328.600	-16.078	0.100
328.700	-12.882	0.100
328.800	-17.399	0.100
328.900	-26.363	0.100
329.000	-14.350	0.100
329.100	-16.227	0.100
329.200	-16.351	0.100
329.300	-19.014	0.100
329.400	-25.517	0.100
329.500	-23.435	0.100
329.600	-19.771	0.100
329.700	-6.801	0.100
329.800	-9.627	0.100
329.900	-16.770	0.100
330.000	-21.681	0.100
330.100	-13.670	0.100
330.200	-4.769	0.100
330.300	-16.520	0.100
330.400	-24.098	0.100
330.500	-11.798	0.100
330.600	-11.090	0.100
330.700	-14.794	0.100
330.800	-10.234	0.100
330.900	-6.911	0.100
331.000	-9.616	0.100
331.100	-13.961	0.100
331.200	-4.330	0.100
331.300	-0.210	0.100
331.400	-8.877	0.100
331.500	-2.651	0.100
331.600	-4.872	0.100
331.700	4.541	0.100
331.800	-4.292	0.100
331.900	4.036	0.100
332.000	14.230	0.100
332.100	6.469	0.100
332.200	11.892	0.100
332.300	15.512	0.100
332.400	7.391	0.100
332.500	8.873	0.100
332.600	11.428	0.100
332.700	-1.034	0.100
332.800	7.488	0.100
332.900	1.989	0.100
333.000	9.641	0.100
333.100	4.145	0.100
333.200	8.979	0.100
333.300	4.042	0.100
333.400	12.201	0.100
333.500	15.697	0.100
333.600	19.638	0.100
333.700	22.889	0.100
333.800	14.260	0.100
333.900	10.376	0.100
334.000	4.441	0.100
334.100	5.651	0.100
334.200	6.799	0.100
334.300	9.169	0.100
334.400	18.214	0.100
334.500	5.155	0.100
334.600	13.412	0.100
334.700	20.695	0.100
334.800	16.841	0.100
334.900	11.957	0.100
335.000	19.436	0.100
335.100	13.919	0.100
335.200	13.232	0.100
335.300	24.794	0.100
335.400	16.123	0.100
335.500	13.009	0.100
335.600	12.572	0.100
335.700	12.842	0.100
335.800	20.650	0.100
335.900	13.427	0.100
336.000	6.936	0.100
336.100	20.254	0.100
336.200	17.556	0.100
336.300	15.289	0.100
336.400	11.583	0.100
336.500	23.384	0.100
336.600	14.114	0.100
336.700	17.585	0.100
336.800	16.503	0.100
336.900	13.949	0.100
337.000	11.613	0.100
337.100	10.812	0.100
337.200	8.006	0.100
337.300	2.112	0.100
337.400	19.181	0.100
337.500	19.597	0.100
337.600	19.838	0.100
337.700	8.898	0.100
337.800	12.352	0.100
337.900	11.425	0.100
338.000	3.396	0.100
338.100	18.002	0.100
338.200	12.282	0.100
338.300	11.493	0.100
338.400	18.430	0.100
338.500	6.829	0.100
338.600	18.174	0.100
338.700	8.777	0.100
338.800	21.938	0.100
338.900	17.327	0.100
339.000	16.840	0.100
339.100	4.890	0.100
339.200	-0.323	0.100
339.300	6.531	0.100
339.400	21.916	0.100
339.500	20.518	0.100
339.600	19.153	0.100
339.700	19.636	0.100
339.800	11.537	0.100
339.900	7.428	0.100
340.000	3.150	0.100
340.100	14.256	0.100
340.200	11.271	0.100
340.300	17.757	0.100
340.400	20.641	0.100
340.500	17.131	0.100
340.600	17.361	0.100
340.700	12.840	0.100
340.800	13.223	0.100
340.900	9.419	0.100
341.000	8.104	0.100
341.100	18.266	0.100
341.200	16.898	0.100
341.300	23.840	0.100
341.400	12.670	0.100
341.500	8.990	0.100
341.600	23.167	0.100
341.700	24.652	0.100
341.800	14.387	0.100
341.900	13.476	0.100
342.000	12.429	0.100
342.100	8.425	0.100
342.200	22.839	0.100
342.300	20.033	0.100
342.400	13.961	0.100
342.500	17.308	0.100
342.600	19.996	0.100
342.700	8.464	0.100
342.800	18.478	0.100
342.900	7.728	0.100
343.000	9.266	0.100
343.100	24.169	0.100
343.200	16.144	0.100
343.300	16.694	0.100
343.400	23.087	0.100
343.500	18.528	0.100
343.600	16.820	0.100
343.700	15.252	0.100
343.800	14.408	0.100
343.900	12.720	0.100
344.000	17.780	0.100
344.100	18.002	0.100
344.200	21.269	0.100
344.300	21.208	0.100
344.400	17.711	0.100
344.500	9.544	0.100
344.600	17.322	0.100
344.700	16.329	0.100
344.800	16.957	0.100
344.900	15.053	0.100
345.000	20.361	0.100
345.100	15.350	0.100
345.200	12.465	0.100
345.300	14.595	0.100
345.400	17.897	0.100
345.500	15.256	0.100
345.600	19.798	0.100
345.700	18.889	0.100
345.800	16.414	0.100
345.900	14.848	0.100
346.000	15.475	0.100
346.100	17.986	0.100
346.200	23.120	0.100
346.300	16.463	0.100
346.400	21.778	0.100
346.500	19.522	0.100
346.600	26.560	0.100
346.700	24.625	0.100
346.800	20.461	0.100
346.900	8.187	0.100
347.000	20.959	0.100
347.100	10.046	0.100
347.200	19.892	0.100
347.300	26.212	0.100
347.400	21.419	0.100
347.500	18.752	0.100
347.600	28.601	0.100
347.700	27.760	0.100
347.800	15.238	0.100
347.900	10.320	0.100
348.000	25.028	0.100
348.100	26.225	0.100
348.200	30.174	0.100
348.300	19.727	0.100
348.400	25.934	0.100
348.500	28.305	0.100
348.600	19.714	0.100
348.700	22.427	0.100
348.800	24.192	0.100
348.900	26.125	0.100
349.000	15.236	0.100
349.100	22.085	0.100
349.200	17.726	0.100
349.300	30.453	0.100
349.400	34.448	0.100
349.500	10.661	0.100
349.600	16.240	0.100
349.700	15.511	0.100
349.800	30.889	0.100
349.900	12.038	0.100
350.000	20.806	0.100
350.100	29.265	0.100
350.200	21.409	0.100
350.300	19.642	0.100
350.400	31.388	0.100
350.500	27.036	0.100
350.600	21.000	0.100
350.700	36.630	0.100
350.800	27.641	0.100
350.900	30.123	0.100
351.000	31.337	0.100
351.100	22.224	0.100
351.200	23.103	0.100
351.300	27.057	0.100
351.400	24.612	0.100
351.500	18.661	0.100
351.600	27.916	0.100
351.700	34.546	0.100
351.800	25.641	0.100
351.900	28.210	0.100
352.000	22.478	0.100
352.100	27.179	0.100
352.200	33.261	0.100
352.300	15.547	0.100
352.400	35.136	0.100
352.500	26.982	0.100
352.600	15.052	0.100
352.700	20.099	0.100
352.800	35.779	0.100
352.900	30.914	0.100
353.000	27.411	0.100
353.100	31.185	0.100
353.200	24.445	0.100
353.300	32.075	0.100
353.400	30.869	0.100
353.500	19.162	0.100
353.600	31.663	0.100
353.700	30.878	0.100
353.800	26.802	0.100
353.900	33.929	0.100
354.000	19.601	0.100
354.100	26.845	0.100
354.200	35.680	0.100
354.300	35.819	0.100
354.400	34.507	0.100
354.500	31.782	0.100
354.600	42.484	0.100
354.700	28.122	0.100
354.800	20.678	0.100
354.900	39.272	0.100
355.000	39.316	0.100
355.100	34.573	0.100
355.200	24.512	0.100
355.300	29.946	0.100
355.400	38.061	0.100
355.500	34.050	0.100
355.600	40.214	0.100
355.700	29.444	0.100
355.800	25.404	0.100
355.900	42.359	0.100
356.000	33.179	0.100
356.100	24.728	0.100
356.200	28.312	0.100
356.300	34.019	0.100
356.400	39.933	0.100
356.500	36.155	0.100
356.600	38.438	0.100
356.700	34.991	0.100
356.800	27.765	0.100
356.900	27.564	0.100
357.000	35.271	0.100
357.100	25.555	0.100
357.200	40.111	0.100
357.300	33.005	0.100
357.400	49.631	0.100
357.500	41.442	0.100
357.600	30.169	0.100
357.700	40.637	0.100
357.800	32.939	0.100
357.900	40.059	0.100
358.000	34.267	0.100
358.100	46.003	0.100
358.200	35.643	0.100
358.300	35.263	0.100
358.400	40.986	0.100
358.500	41.902	0.100
358.600	36.305	0.100
358.700	32.015	0.100
358.800	33.941	0.100
358.900	45.241	0.100
359.000	40.065	0.100
359.100	42.470	0.100
359.200	38.722	0.100
359.300	42.711	0.100
359.400	44.888	0.100
359.500	38.816	0.100
359.600	41.034	0.100
359.700	45.378	0.100
359.800	39.741	0.100
359.900	41.837	0.100
360.000	38.406	0.100
360.100	44.081	0.100
360.200	47.614	0.100
360.300	37.796	0.100
360.400	42.457	0.100
360.500	38.678	0.100
360.600	40.598	0.100
360.700	43.072	0.100
360.800	36.162	0.100
360.900	43.809	0.100
361.000	36.033	0.100
361.100	37.706	0.100
361.200	42.353	0.100
361.300	42.478	0.100
361.400	32.540	0.100
361.500	42.852	0.100
361.600	38.643	0.100
361.700	47.722	0.100
361.800	47.107	0.100
361.900	43.020	0.100
362.000	32.936	0.100
362.100	37.378	0.100
362.200	47.850	0.100
362.300	43.627	0.100
362.400	52.099	0.100
362.500	43.186	0.100
362.600	41.181	0.100
362.700	49.901	0.100
362.800	33.640	0.100
362.900	43.861	0.100
363.000	42.849	0.100
363.100	46.954	0.100
363.200	35.422	0.100
363.300	48.539	0.100
363.400	49.037	0.100
363.500	43.991	0.100
363.600	42.222	0.100
363.700	35.976	0.100
363.800	46.823	0.100
363.900	49.798	0.100
364.000	37.693	0.100
364.100	44.136	0.100
364.200	38.525	0.100
364.300	43.964	0.100
364.400	49.043	0.100
364.500	44.219	0.100
364.600	47.387	0.100
364.700	47.922	0.100
364.800	32.633	0.100
364.900	40.822	0.100
365.000	48.745	0.100
365.100	39.710	0.100
365.200	41.155	0.100
365.300	41.589	0.100
365.400	52.252	0.100
365.500	58.241	0.100
365.600	51.217	0.100
365.700	48.503	0.100
365.800	51.501	0.100
365.900	37.438	0.100
366.000	41.953	0.100
366.100	37.728	0.100
366.200	38.901	0.100
366.300	40.192	0.100
366.400	42.591	0.100
366.500	45.155	0.100
366.600	46.169	0.100
366.700	27.930	0.100
366.800	49.723	0.100
366.900	46.251	0.100
367.000	40.236	0.100
367.100	50.028	0.100
367.200	44.184	0.100
367.300	40.950	0.100
367.400	41.630	0.100
367.500	34.973	0.100
367.600	32.614	0.100
367.700	45.651	0.100
367.800	45.491	0.100
367.900	50.085	0.100
368.000	39.207	0.100
368.100	47.498	0.100
368.200	37.661	0.100
368.300	48.088	0.100
368.400	39.577	0.100
368.500	47.558	0.100
368.600	42.946	0.100
368.700	30.658	0.100
368.800	40.521	0.100
368.900	47.835	0.100
369.000	44.568	0.100
369.100	50.720	0.100
369.200	43.496	0.100
369.300	53.513	0.100
369.400	51.863	0.100
369.500	40.357	0.100
369.600	33.408	0.100
369.700	44.365	0.100
369.800	55.168	0.100
369.900	43.264	0.100
370.000	47.780	0.100
370.100	47.656	0.100
370.200	46.654	0.100
370.300	40.978	0.100
370.400	32.009	0.100
370.500	43.177	0.100
370.600	42.065	0.100
370.700	50.235	0.100
370.800	45.359	0.100
370.900	48.892	0.100
371.000	51.669	0.100
371.100	50.996	0.100
371.200	51.291	0.100
371.300	46.695	0.100
371.400	32.904	0.100
371.500	50.826	0.100
371.600	46.759	0.100
371.700	47.934	0.100
371.800	39.649	0.100
371.900	42.357	0.100
372.000	33.456	0.100
372.100	37.413	0.100
372.200	38.269	0.100
372.300	39.600	0.100
372.400	50.850	0.100
372.500	40.749	0.100
372.600	40.298	0.100
372.700	34.167	0.100
372.800	44.130	0.100
372.900	48.774	0.100
373.000	33.348	0.100
373.100	52.960	0.100
373.200	46.008	0.100
373.300	43.589	0.100
373.400	42.189	0.100
373.500	44.316	0.100
373.600	37.657	0.100
373.700	33.624	0.100
373.800	36.763	0.100
373.900	35.227	0.100
374.000	45.188	0.100
374.100	42.907	0.100
374.200	46.550	0.100
374.300	34.311	0.100
374.400	37.205	0.100
374.500	43.347	0.100
374.600	45.897	0.100
374.700	40.203	0.100
374.800	43.771	0.100
374.900	43.375	0.100
375.000	39.309	0.100
375.100	41.631	0.100
375.200	38.714	0.100
375.300	44.861	0.100
375.400	40.672	0.100
375.500	37.087	0.100
375.600	50.549	0.100
375.700	54.255	0.100
375.800	48.282	0.100
375.900	41.150	0.100
376.000	51.870	0.100
376.100	36.070	0.100
376.200	33.658	0.100
376.300	49.371	0.100
376.400	42.261	0.100
376.500	38.308	0.100
376.600	51.037	0.100
376.700	56.283	0.100
376.800	46.304	0.100
376.900	46.330	0.100
377.000	47.318	0.100
377.100	43.356	0.100
377.200	45.336	0.100
377.300	47.101	0.100
377.400	57.409	0.100
377.500	47.704	0.100
377.600	39.443	0.100
377.700	35.713	0.100
377.800	42.240	0.100
377.900	45.896	0.100
378.000	43.146	0.100
378.100	31.108	0.100
378.200	36.140	0.100
378.300	49.399	0.100
378.400	48.936	0.100
378.500	41.057	0.100
378.600	40.390	0.100
378.700	37.446	0.100
378.800	49.011	0.100
378.900	47.188	0.100
379.000	44.972	0.100
379.100	35.206	0.100
379.200	43.093	0.100
379.300	49.833	0.100
379.400	41.900	0.100
379.500	41.565	0.100
379.600	50.380	0.100
379.700	53.747	0.100
379.800	38.909	0.100
379.900	40.720	0.100
380.000	42.871	0.100
380.100	38.346	0.100
380.200	39.711	0.100
380.300	46.985	0.100
380.400	43.759	0.100
380.500	39.729	0.100
380.600	44.684	0.100
380.700	47.858	0.100
380.800	46.006	0.100
380.900	42.220	0.100
381.000	41.007	0.100
381.100	44.810	0.100
381.200	49.303	0.100
381.300	54.467	0.100
381.400	43.172	0.100
381.500	41.185	0.100
381.600	37.820	0.100
381.700	36.100	0.100
381.800	43.831	0.100
381.900	43.498	0.100
382.000	50.518	0.100
382.100	42.573	0.100
382.200	41.606	0.100
382.300	46.264	0.100
382.400	45.627	0.100
382.500	47.444	0.100
382.600	42.854	0.100
382.700	45.408	0.100
382.800	38.652	0.100
382.900	43.141	0.100
383.000	33.386	0.100
383.100	48.314	0.100
383.200	48.982	0.100
383.300	34.458	0.100
383.400	42.700	0.100
383.500	47.882	0.100
383.600	37.647	0.100
383.700	39.151	0.100
383.800	33.820	0.100
383.900	42.425	0.100
384.000	47.693	0.100
384.100	44.783	0.100
384.200	52.851	0.100
384.300	46.504	0.100
384.400	36.564	0.100
384.500	37.126	0.100
384.600	38.538	0.100
384.700	44.440	0.100
384.800	41.599	0.100
384.900	52.169	0.100
385.000	49.097	0.100
385.100	42.983	0.100
385.200	42.249	0.100
385.300	43.401	0.100
385.400	37.242	0.100
385.500	44.704	0.100
385.600	37.225	0.100
385.700	49.606	0.100
385.800	47.958	0.100
385.900	46.752	0.100
386.000	49.394	0.100
386.100	49.535	0.100
386.200	37.876	0.100
386.300	35.904	0.100
386.400	40.385	0.100
386.500	38.633	0.100
386.600	37.207	0.100
386.700	43.086	0.100
386.800	45.830	0.100
386.900	50.359	0.100
387.000	44.761	0.100
387.100	41.222	0.100
387.200	42.468	0.100
387.300	44.002	0.100
387.400	41.499	0.100
387.500	48.616	0.100
387.600	45.377	0.100
387.700	42.091	0.100
387.800	49.099	0.100
387.900	38.669	0.100
388.000	43.266	0.100
388.100	39.841	0.100
388.200	50.710	0.100
388.300	45.465	0.100
388.400	41.624	0.100
388.500	34.563	0.100
388.600	33.589	0.100
388.700	38.712	0.100
388.800	36.628	0.100
388.900	49.569	0.100
389.000	53.415	0.100
389.100	44.901	0.100
389.200	45.175	0.100
389.300	44.667	0.100
389.400	40.042	0.100
389.500	41.296	0.100
389.600	41.329	0.100
389.700	43.419	0.100
389.800	38.407	0.100
389.900	45.127	0.100
390.000	44.016	0.100
390.100	49.545	0.100
390.200	46.305	0.100
390.300	45.784	0.100
390.400	48.287	0.100
390.500	35.334	0.100
390.600	45.770	0.100
390.700	44.389	0.100
390.800	42.302	0.100
390.900	38.577	0.100
391.000	41.316	0.100
391.100	29.786	0.100
391.200	26.384	0.100
391.300	24.270	0.100
391.400	32.986	0.100
391.500	37.144	0.100
391.600	24.962	0.100
391.700	24.787	0.100
391.800	23.693	0.100
391.900	15.227	0.100
392.000	20.725	0.100
392.100	17.844	0.100
392.200	26.454	0.100
392.300	14.575	0.100
392.400	21.627	0.100
392.500	18.732	0.100
392.600	7.714	0.100
392.700	1.720	0.100
392.800	15.155	0.100
392.900	13.414	0.100
393.000	20.122	0.100
393.100	12.711	0.100
393.200	3.784	0.100
393.300	7.344	0.100
393.400	16.621	0.100
393.500	20.116	0.100
393.600	12.688	0.100
393.700	2.734	0.100
393.800	17.935	0.100
393.900	14.966	0.100
394.000	14.683	0.100
394.100	3.111	0.100
394.200	8.726	0.100
394.300	7.990	0.100
394.400	4.455	0.100
394.500	8.410	0.100
394.600	5.142	0.100
394.700	1.194	0.100
394.800	-2.394	0.100
394.900	-6.931	0.100
395.000	8.198	0.100
395.100	3.732	0.100
395.200	0.205	0.100
395.300	2.657	0.100
395.400	0.359	0.100
395.500	1.212	0.100
395.600	11.635	0.100
395.700	1.061	0.100
395.800	4.493	0.100
395.900	-3.568	0.100
396.000	-5.195	0.100
396.100	3.786	0.100
396.200	-8.578	0.100
396.300	5.818	0.100
396.400	2.112	0.100
396.500	5.072	0.100
396.600	8.855	0.100
396.700	5.329	0.100
396.800	-2.328	0.100
396.900	-7.750	0.100
397.000	4.157	0.100
397.100	-4.980	0.100
397.200	5.881	0.100
397.300	6.065	0.100
397.400	14.417	0.100
397.500	-2.037	0.100
397.600	3.949	0.100
397.700	7.893	0.100
397.800	1.590	0.100
397.900	-2.002	0.100
398.000	7.657	0.100
398.100	4.703	0.100
398.200	-3.191	0.100
398.300	3.630	0.100
398.400	0.060	0.100
398.500	-3.742	0.100
398.600	-5.306	0.100
398.700	3.609	0.100
398.800	-0.149	0.100
398.900	5.090	0.100
399.000	-2.419	0.100
399.100	-1.254	0.100
399.200	7.787	0.100
399.300	-12.539	0.100
399.400	9.192	0.100
399.500	7.049	0.100
399.600	7.524	0.100
399.700	-0.890	0.100
399.800	0.369	0.100
399.900	-1.554	0.100
400.000	0.249	0.100
400.100	-4.368	0.100
400.200	2.344	0.100
400.300	3.327	0.100
400.400	4.837	0.100
400.500	6.016	0.100
400.600	-1.366	0.100
400.700	1.288	0.100
400.800	7.735	0.100
400.900	-1.029	0.100
401.000	0.928	0.100
401.100	7.083	0.100
401.200	-4.414	0.100
401.300	9.835	0.100
401.400	3.519	0.100
401.500	0.079	0.100
401.600	-0.288	0.100
401.700	-7.387	0.100
401.800	3.425	0.100
401.900	3.139	0.100
402.000	-1.524	0.100
402.100	-2.249	0.100
402.200	9.147	0.100
402.300	4.374	0.100
402.400	1.394	0.100
402.500	-6.488	0.100
402.600	-5.376	0.100
402.700	-10.039	0.100
402.800	0.128	0.100
402.900	-1.398	0.100
403.000	1.193	0.100
403.100	3.349	0.100
403.200	11.152	0.100
403.300	-2.021	0.100
403.400	-2.880	0.100
403.500	-4.840	0.100
403.600	-4.775	0.100
403.700	2.831	0.100
403.800	-5.863	0.100
403.900	1.460	0.100
404.000	-6.900	0.100
404.100	-5.141	0.100
404.200	-7.528	0.100
404.300	-7.847	0.100
404.400	-1.487	0.100
404.500	0.784	0.100
404.600	-8.203	0.100
404.700	0.351	0.100
404.800	-1.726	0.100
404.900	-5.785	0.100
405.000	0.820	0.100
405.100	-4.251	0.100
405.200	-2.103	0.100
405.300	-3.969	0.100
405.400	-9.671	0.100
405.500	-11.703	0.100
405.600	6.075	0.100
405.700	3.230	0.100
405.800	4.328	0.100
405.900	-4.571	0.100
406.000	-11.624	0.100
406.100	-0.747	0.100
406.200	-4.566	0.100
406.300	4.850	0.100
406.400	-4.013	0.100
406.500	-2.016	0.100
406.600	-8.966	0.100
406.700	-0.781	0.100
406.800	-13.963	0.100
406.900	-5.201	0.100
407.000	3.626	0.100
407.100	-4.418	0.100
407.200	-3.889	0.100
407.300	-1.710	0.100
407.400	-15.197	0.100
407.500	-7.112	0.100
407.600	-2.237	0.100
407.700	-4.377	0.100
407.800	-13.483	0.100
407.900	-4.747	0.100
408.000	-5.606	0.100
408.100	-1.509	0.100
408.200	0.254	0.100
408.300	9.076	0.100
408.400	-4.236	0.100
408.500	-9.561	0.100
408.600	2.182	0.100
408.700	-8.183	0.100
408.800	-28.497	0.100
408.900	-17.990	0.100
409.000	-6.034	0.100
409.100	4.319	0.100
409.200	-7.501	0.100
409.300	-2.411	0.100
409.400	-8.437	0.100
409.500	-9.625	0.100
409.600	-10.299	0.100
409.700	-6.214	0.100
409.800	-9.382	0.100
409.900	-12.243	0.100
410.000	-4.324	0.100
410.100	-2.117	0.100
410.200	-8.834	0.100
410.300	-1.919	0.100
410.400	-1.734	0.100
410.500	-14.156	0.100
410.600	-7.879	0.100
410.700	-14.343	0.100
410.800	-2.281	0.100
410.900	-9.789	0.100
411.000	-14.877	0.100
411.100	-8.107	0.100
411.200	-11.754	0.100
411.300	-5.838	0.100
411.400	-14.099	0.100
411.500	-15.691	0.100
411.600	-3.113	0.100
411.700	-7.104	0.100
411.800	-7.733	0.100
411.900	-5.822	0.100
412.000	-18.719	0.100
412.100	-1.621	0.100
412.200	-14.677	0.100
412.300	-3.561	0.100
412.400	-8.993	0.100
412.500	-19.274	0.100
412.600	-2.591	0.100
412.700	3.083	0.100
412.800	-0.402	0.100
412.900	-10.776	0.100
413.000	-17.839	0.100
413.100	-9.865	0.100
413.200	-7.567	0.100
413.300	-16.721	0.100
413.400	-10.249	0.100
413.500	-10.347	0.100
413.600	-10.425	0.100
413.700	-16.718	0.100
413.800	-16.147	0.100
413.900	0.681	0.100
414.000	-13.151	0.100
414.100	-10.725	0.100
414.200	-13.777	0.100
414.300	-9.774	0.100
414.400	-6.894	0.100
414.500	-9.910	0.100
414.600	-14.400	0.100
414.700	-17.223	0.100
414.800	-8.798	0.100
414.900	-4.255	0.100
415.000	-13.828	0.100
415.100	-1.551	0.100
415.200	-5.048	0.100
415.300	-13.761	0.100
415.400	-3.650	0.100
415.500	-7.678	0.100
415.600	-10.625	0.100
415.700	-15.265	0.100
415.800	-7.022	0.100
415.900	-12.377	0.100
416.000	-14.578	0.100
416.100	-8.416	0.100
416.200	-20.928	0.100
416.300	-20.462	0.100
416.400	-7.368	0.100
416.500	-11.555	0.100
416.600	-14.019	0.100
416.700	-18.811	0.100
416.800	-10.822	0.100
416.900	-16.639	0.100
417.000	-13.173	0.100
417.100	-13.257	0.100
417.200	-5.919	0.100
417.300	-12.504	0.100
417.400	-19.844	0.100
417.500	-15.464	0.100
417.600	-16.086	0.100
417.700	-18.727	0.100
417.800	-19.162	0.100
417.900	-13.093	0.100
418.000	-10.402	0.100
418.100	-4.787	0.100
418.200	-12.376	0.100
418.300	-15.792	0.100
418.400	-17.644	0.100
418.500	-20.507	0.100
418.600	-27.888	0.100
418.700	-9.064	0.100
418.800	-9.453	0.100
418.900	-15.979	0.100
419.000	-14.224	0.100
419.100	-3.737	0.100
419.200	-18.655	0.100
419.300	-8.859	0.100
419.400	-9.251	0.100
419.500	-11.103	0.100
419.600	-9.317	0.100
419.700	-13.871	0.100
419.800	-17.927	0.100
419.900	-19.049	0.100
420.000	-17.634	0.100
420.100	-21.494	0.100
420.200	-22.899	0.100
420.300	-11.357	0.100
420.400	-11.709	0.100
420.500	-6.350	0.100
420.600	-19.578	0.100
420.700	-16.732	0.100
420.800	-4.822	0.100
420.900	-14.871	0.100
421.000	-16.291	0.100
421.100	-20.231	0.100
421.200	-17.775	0.100
421.300	-22.652	0.100
421.400	-9.036	0.100
421.500	-2.596	0.100
421.600	-18.385	0.100
421.700	-22.688	0.100
421.800	-13.496	0.100
421.900	-19.459	0.100
422.000	-15.091	0.100
422.100	-10.716	0.100
422.200	-16.956	0.100
422.300	-16.535	0.100
422.400	-20.499	0.100
422.500	-20.860	0.100
422.600	-13.456	0.100
422.700	-16.419	0.100
422.800	-17.152	0.100
422.900	-14.141	0.100
423.000	-14.875	0.100
423.100	-16.949	0.100
423.200	-20.690	0.100
423.300	-19.461	0.100
423.400	-20.997	0.100
423.500	-23.875	0.100
423.600	-20.080	0.100
423.700	-14.767	0.100
423.800	-21.609	0.100
423.900	-22.221	0.100
424.000	-10.732	0.100
424.100	-11.898	0.100
424.200	-13.386	0.100
424.300	-16.907	0.100
424.400	-13.999	0.100
424.500	-14.011	0.100
424.600	-16.417	0.100
424.700	-23.875	0.100
424.800	-15.797	0.100
424.900	-19.764	0.100
425.000	-5.445	0.100
425.100	-17.618	0.100
425.200	-22.199	0.100
425.300	-17.367	0.100
425.400	-18.636	0.100
425.500	-14.363	0.100
425.600	-17.770	0.100
425.700	-19.455	0.100
425.800	-17.448	0.100
425.900	-29.835	0.100
426.000	-13.585	0.100
426.100	-13.979	0.100
426.200	-20.665	0.100
426.300	-13.714	0.100
426.400	-23.810	0.100
426.500	-16.469	0.100
426.600	-19.614	0.100
426.700	-20.719	0.100
426.800	-14.085	0.100
426.900	-19.232	0.100
427.000	-16.137	0.100
427.100	-10.069	0.100
427.200	-2.797	0.100
427.300	-17.339	0.100
427.400	-20.711	0.100
427.500	-23.453	0.100
427.600	-9.561	0.100
427.700	-28.630	0.100
427.800	-30.385	0.100
427.900	-8.780	0.100
428.000	-18.815	0.100
428.100	-16.532	0.100
428.200	-22.370	0.100
428.300	-18.567	0.100
428.400	-15.026	0.100
428.500	-35.796	0.100
428.600	-15.035	0.100
428.700	-16.983	0.100
428.800	-21.225	0.100
428.900	-12.539	0.100
429.000	-15.077	0.100
429.100	-12.129	0.100
429.200	-19.865	0.100
429.300	-26.329	0.100
429.400	-22.223	0.100
429.500	-31.844	0.100
429.600	-21.101	0.100
429.700	-17.713	0.100
429.800	-14.911	0.100
429.900	-14.778	0.100
430.000	-14.139	0.100
430.100	-19.342	0.100
430.200	-19.021	0.100
430.300	-17.390	0.100
430.400	-27.211	0.100
430.500	-27.613	0.100
430.600	-29.007	0.100
430.700	-17.629	0.100
430.800	-21.372	0.100
430.900	-7.849	0.100
431.000	-18.259	0.100
431.100	-17.577	0.100
431.200	-25.512	0.100
431.300	-22.076	0.100
431.400	-20.554	0.100
431.500	-23.484	0.100
431.600	-24.812	0.100
431.700	-13.888	0.100
431.800	-18.779	0.100
431.900	-13.389	0.100
432.000	-21.205	0.100
432.100	-22.204	0.100
432.200	-19.899	0.100
432.300	-15.753	0.100
432.400	-14.493	0.100
432.500	-20.105	0.100
432.600	-19.215	0.100
432.700	-23.748	0.100
432.800	-23.659	0.100
432.900	-19.875	0.100
433.000	-25.972	0.100
433.100	-22.532	0.100
433.200	-23.299	0.100
433.300	-33.048	0.100
433.400	-25.037	0.100
433.500	-23.054	0.100
433.600	-21.486	0.100
433.700	-20.524	0.100
433.800	-24.855	0.100
433.900	-25.266	0.100
434.000	-30.606	0.100
434.100	-16.705	0.100
434.200	-5.871	0.100
434.300	-17.802	0.100
434.400	-17.579	0.100
434.500	-16.887	0.100
434.600	-14.511	0.100
434.700	-30.605	0.100
434.800	-26.800	0.100
434.900	-26.938	0.100
435.000	-22.566	0.100
435.100	-23.407	0.100
435.200	-26.764	0.100
435.300	-17.615	0.100
435.400	-4.526	0.100
435.500	-20.458	0.100
435.600	-14.794	0.100
435.700	-27.224	0.100
435.800	-10.207	0.100
435.900	-19.569	0.100
436.000	-21.384	0.100
436.100	-24.223	0.100
436.200	-30.674	0.100
436.300	-26.695	0.100
436.400	-11.223	0.100
436.500	-19.597	0.100
436.600	-22.087	0.100
436.700	-15.410	0.100
436.800	-15.286	0.100
436.900	-24.413	0.100
437.000	-28.059	0.100
437.100	-18.555	0.100
437.200	-15.784	0.100
437.300	-13.655	0.100
437.400	-16.237	0.100
437.500	-17.249	0.100
437.600	-18.338	0.100
437.700	-23.449	0.100
437.800	-21.795	0.100
437.900	-23.094	0.100
438.000	-23.291	0.100
438.100	-17.047	0.100
438.200	-20.659	0.100
438.300	-26.753	0.100
438.400	-22.870	0.100
438.500	-8.781	0.100
438.600	-18.446	0.100
438.700	-21.643	0.100
438.800	-17.142	0.100
438.900	-19.076	0.100
439.000	-21.335	0.100
439.100	-41.364	0.100
439.200	-23.762	0.100
439.300	-25.813	0.100
439.400	-18.218	0.100
439.500	-22.650	0.100
439.600	-13.655	0.100
439.700	-16.728	0.100
439.800	-25.232	0.100
439.900	-22.583	0.100
440.000	-21.915	0.100
440.100	-16.896	0.100
440.200	-22.434	0.100
440.300	-23.683	0.100
440.400	-17.121	0.100
440.500	-14.745	0.100
440.600	-21.898	0.100
440.700	-25.904	0.100
440.800	-32.968	0.100
440.900	-14.342	0.100
441.000	-16.172	0.100
441.100	-11.204	0.100
441.200	-18.716	0.100
441.300	-31.154	0.100
441.400	-22.233	0.100
441.500	-22.237	0.100
441.600	-29.798	0.100
441.700	-26.224	0.100
441.800	-26.140	0.100
441.900	-25.201	0.100
442.000	-11.076	0.100
442.100	-22.482	0.100
442.200	-26.978	0.100
442.300	-19.133	0.100
442.400	-16.816	0.100
442.500	-26.175	0.100
442.600	-25.879	0.100
442.700	-18.536	0.100
442.800	-22.136	0.100
442.900	-22.320	0.100
443.000	-21.002	0.100
443.100	-23.908	0.100
443.200	-24.172	0.100
443.300	-17.520	0.100
443.400	-19.445	0.100
443.500	-20.091	0.100
443.600	-17.431	0.100
443.700	-20.389	0.100
443.800	-20.764	0.100
443.900	-17.215	0.100
444.000	-22.113	0.100
444.100	-12.326	0.100
444.200	-22.711	0.100
444.300	-17.915	0.100
444.400	-16.281	0.100
444.500	-23.972	0.100
444.600	-23.964	0.100
444.700	-37.979	0.100
444.800	-12.750	0.100
444.900	-29.862	0.100
445.000	-12.591	0.100
445.100	-17.521	0.100
445.200	-25.037	0.100
445.300	-19.738	0.100
445.400	-25.459	0.100
445.500	-17.008	0.100
445.600	-14.472	0.100
445.700	-22.850	0.100
445.800	-23.942	0.100
445.900	-17.042	0.100
446.000	-23.206	0.100
446.100	-17.357	0.100
446.200	-16.479	0.100
446.300	-22.767	0.100
446.400	-19.678	0.100
446.500	-24.024	0.100
446.600	-28.090	0.100
446.700	-16.596	0.100
446.800	-23.935	0.100
446.900	-28.005	0.100
447.000	-14.673	0.100
447.100	-32.863	0.100
447.200	-21.635	0.100
447.300	-17.498	0.100
447.400	-20.532	0.100
447.500	-15.154	0.100
447.600	-21.251	0.100
447.700	-21.466	0.100
447.800	-28.169	0.100
447.900	-22.693	0.100
448.000	-13.369	0.100
448.100	-21.477	0.100
448.200	-23.207	0.100
448.300	-11.214	0.100
448.400	-17.675	0.100
448.500	-19.260	0.100
448.600	-18.585	0.100
448.700	-21.952	0.100
448.800	-29.355	0.100
448.900	-13.682	0.100
449.000	-26.631	0.100
449.100	-17.589	0.100
449.200	-19.601	0.100
449.300	-15.593	0.100
449.400	-21.787	0.100
449.500	-18.662	0.100
449.600	-27.193	0.100
449.700	-23.934	0.100
449.800	-19.596	0.100
449.900	-17.115	0.100
450.000	-9.523	0.100
450.100	-18.842	0.100
450.200	-20.009	0.100
450.300	-31.125	0.100
450.400	-21.467	0.100
450.500	-14.560	0.100
450.600	-20.878	0.100
450.700	-23.188	0.100
450.800	-18.640	0.100
450.900	-15.318	0.100
451.000	-20.323	0.100
451.100	-24.617	0.100
451.200	-27.878	0.100
451.300	-10.291	0.100
451.400	-22.796	0.100
451.500	-14.844	0.100
451.600	-19.401	0.100
451.700	-33.427	0.100
451.800	-30.371	0.100
451.900	-15.632	0.100
452.000	-6.368	0.100
452.100	-8.662	0.100
452.200	-16.592	0.100
452.300	-20.331	0.100
452.400	-26.804	0.100
452.500	-19.534	0.100
452.600	-15.943	0.100
452.700	-21.278	0.100
452.800	-25.931	0.100
452.900	-16.615	0.100
453.000	-19.470	0.100
453.100	-26.612	0.100
453.200	-22.475	0.100
453.300	-19.361	0.100
453.400	-24.129	0.100
453.500	-11.640	0.100
453.600	-15.195	0.100
453.700	-12.356	0.100
453.800	-15.207	0.100
453.900	-22.256	0.100
454.000	-18.841	0.100
454.100	-25.747	0.100
454.200	-11.977	0.100
454.300	-12.152	0.100
454.400	-18.186	0.100
454.500	-18.496	0.100
454.600	-37.857	0.100
454.700	-35.911	0.100
454.800	-27.871	0.100
454.900	-18.172	0.100
455.000	-25.758	0.100
455.100	-14.525	0.100
455.200	-25.071	0.100
455.300	-15.045	0.100
455.400	-2.165	0.100
455.500	-13.439	0.100
455.600	-15.720	0.100
455.700	-16.633	0.100
455.800	-26.492	0.100
455.900	-22.065	0.100
456.000	-19.283	0.100
456.100	-18.881	0.100
456.200	-23.491	0.100
456.300	-14.870	0.100
456.400	-25.166	0.100
456.500	-23.512	0.100
456.600	-25.219	0.100
456.700	-25.119	0.100
456.800	-10.750	0.100
456.900	-15.840	0.100
457.000	-19.526	0.100
457.100	-19.182	0.100
457.200	-23.253	0.100
457.300	-22.035	0.100
457.400	-29.004	0.100
457.500	-7.251	0.100
457.600	-18.100	0.100
457.700	-14.887	0.100
457.800	-17.540	0.100
457.900	-25.866	0.100
458.000	-14.502	0.100
458.100	-17.622	0.100
458.200	-12.026	0.100
458.300	-27.081	0.100
458.400	-23.708	0.100
458.500	-23.816	0.100
458.600	-17.331	0.100
458.700	-21.023	0.100
458.800	-12.917	0.100
458.900	-14.449	0.100
459.000	-17.555	0.100
459.100	-23.242	0.100
459.200	-12.333	0.100
459.300	-7.806	0.100
459.400	-20.378	0.100
459.500	-27.967	0.100
459.600	-8.967	0.100
459.700	-20.403	0.100
459.800	-15.169	0.100
459.900	-18.509	0.100
460.000	-9.360	0.100
460.100	-15.581	0.100
460.200	-19.415	0.100
460.300	-22.500	0.100
460.400	-27.615	0.100
460.500	-19.100	0.100
460.600	-16.625	0.100
460.700	-17.084	0.100
460.800	-19.509	0.100
460.900	-22.145	0.100
461.000	-1.286	0.100
461.100	-10.319	0.100
461.200	-20.411	0.100
461.300	-11.887	0.100
461.400	-16.869	0.100
461.500	-24.199	0.100
461.600	-15.053	0.100
461.700	-14.066	0.100
461.800	-22.586	0.100
461.900	-8.863	0.100
462.000	-21.290	0.100
462.100	-18.287	0.100
462.200	-17.626	0.100
462.300	-21.251	0.100
462.400	-17.391	0.100
462.500	-12.562	0.100
462.600	-15.216	0.100
462.700	-22.771	0.100
462.800	-24.856	0.100
462.900	-11.067	0.100
463.000	-15.515	0.100
463.100	-20.089	0.100
463.200	-26.751	0.100
463.300	-24.039	0.100
463.400	-7.963	0.100
463.500	-14.861	0.100
463.600	-15.102	0.100
463.700	-15.628	0.100
463.800	-18.731	0.100
463.900	-13.237	0.100
464.000	-12.517	0.100
464.100	-17.906	0.100
464.200	-19.781	0.100
464.300	-22.426	0.100
464.400	-33.295	0.100
464.500	-25.164	0.100
464.600	-22.275	0.100
464.700	-16.715	0.100
464.800	-30.312	0.100
464.900	-23.432	0.100
465.000	-20.050	0.100
465.100	-6.977	0.100
465.200	-25.124	0.100
465.300	-8.297	0.100
465.400	-22.426	0.100
465.500	-21.007	0.100
465.600	-9.234	0.100
465.700	-20.903	0.100
465.800	-17.543	0.100
465.900	-22.367	0.100
466.000	-23.360	0.100
466.100	-16.329	0.100
466.200	-4.402	0.100
466.300	-15.028	0.100
466.400	-5.595	0.100
466.500	-16.043	0.100
466.600	-25.549	0.100
466.700	-14.361	0.100
466.800	-13.509	0.100
466.900	-15.023	0.100
467.000	-13.678	0.100
467.100	-10.398	0.100
467.200	-10.605	0.100
467.300	-13.459	0.100
467.400	-27.372	0.100
467.500	-15.264	0.100
467.600	-18.566	0.100
467.700	-21.215	0.100
467.800	-22.236	0.100
467.900	-11.839	0.100
468.000	-17.688	0.100
468.100	-12.501	0.100
468.200	-13.056	0.100
468.300	-16.574	0.100
468.400	-20.930	0.100
468.500	-12.163	0.100
468.600	-12.952	0.100
468.700	-14.391	0.100
468.800	-19.736	0.100
468.900	-21.956	0.100
469.000	-26.837	0.100
469.100	-25.390	0.100
469.200	-17.466	0.100
469.300	-17.581	0.100
469.400	-22.713	0.100
469.500	-17.799	0.100
469.600	-19.809	0.100
469.700	-20.000	0.100
469.800	-25.862	0.100
469.900	-11.599	0.100
470.000	-17.482	0.100
470.100	-20.874	0.100
470.200	-23.571	0.100
470.300	-19.305	0.100
470.400	-19.342	0.100
470.500	-17.004	0.100
470.600	-20.127	0.100
470.700	-17.673	0.100
470.800	-19.581	0.100
470.900	-15.879	0.100
471.000	-10.307	0.100
471.100	-14.588	0.100
471.200	-16.135	0.100
471.300	-23.595	0.100
471.400	-23.967	0.100
471.500	-21.055	0.100
471.600	-16.196	0.100
471.700	-22.401	0.100
471.800	-12.063	0.100
471.900	-16.408	0.100
472.000	-10.085	0.100
472.100	-10.625	0.100
472.200	-23.154	0.100
472.300	-18.084	0.100
472.400	-5.634	0.100
472.500	-19.684	0.100
472.600	-21.289	0.100
472.700	-28.398	0.100
472.800	-14.841	0.100
472.900	-16.275	0.100
473.000	-21.350	0.100
473.100	-17.398	0.100
473.200	-20.687	0.100
473.300	-9.689	0.100
473.400	-22.518	0.100
473.500	-23.090	0.100
473.600	-20.028	0.100
473.700	-14.956	0.100
473.800	-22.108	0.100
473.900	-12.917	0.100
474.000	-18.382	0.100
474.100	-24.391	0.100
474.200	-18.414	0.100
474.300	-5.710	0.100
474.400	-23.480	0.100
474.500	-7.289	0.100
474.600	-14.811	0.100
474.700	-22.045	0.100
474.800	-17.027	0.100
474.900	-14.195	0.100
475.000	-14.264	0.100
475.100	-22.405	0.100
475.200	-12.626	0.100
475.300	-15.726	0.100
475.400	-19.561	0.100
475.500	-16.007	0.100
475.600	-16.614	0.100
475.700	-20.162	0.100
475.800	-18.807	0.100
475.900	-13.004	0.100
476.000	-21.904	0.100
476.100	-16.082	0.100
476.200	-11.739	0.100
476.300	-22.203	0.100
476.400	-11.998	0.100
476.500	-19.469	0.100
476.600	-10.987	0.100
476.700	-18.543	0.100
476.800	-30.591	0.100
476.900	-19.166	0.100
477.000	-20.747	0.100
477.100	-19.223	0.100
477.200	-11.047	0.100
477.300	-17.290	0.100
477.400	-23.119	0.100
477.500	-21.217	0.100
477.600	-13.829	0.100
477.700	-15.701	0.100
477.800	-13.203	0.100
477.900	-25.109	0.100
478.000	-18.581	0.100
478.100	-21.184	0.100
478.200	-16.198	0.100
478.300	-11.073	0.100
478.400	-14.072	0.100
478.500	-10.369	0.100
478.600	-13.320	0.100
478.700	-17.233	0.100
478.800	-25.887	0.100
478.900	-20.780	0.100
479.000	-19.469	0.100
479.100	-21.256	0.100
479.200	-22.722	0.100
479.300	-18.145	0.100
479.400	-19.611	0.100
479.500	-22.527	0.100
479.600	-13.704	0.100
479.700	-12.708	0.100
479.800	-20.007	0.100
479.900	-9.818	0.100
480.000	-15.497	0.100
480.100	-20.748	0.100
480.200	-24.636	0.100
480.300	-15.525	0.100
480.400	-8.449	0.100
480.500	-14.237	0.100
480.600	-14.718	0.100
480.700	-19.658	0.100
480.800	-12.056	0.100
480.900	-17.846	0.100
481.000	-6.177	0.100
481.100	-8.233	0.100
481.200	-1.085	0.100
481.300	-3.883	0.100
481.400	6.125	0.100
481.500	0.630	0.100
481.600	6.260	0.100
481.700	7.740	0.100
481.800	-1.041	0.100
481.900	-2.119	0.100
482.000	-8.019	0.100
482.100	0.726	0.100
482.200	10.498	0.100
482.300	3.139	0.100
482.400	6.144	0.100
482.500	4.651	0.100
482.600	4.708	0.100
482.700	7.633	0.100
482.800	5.982	0.100
482.900	13.950	0.100
483.000	15.427	0.100
483.100	4.998	0.100
483.200	9.440	0.100
483.300	13.178	0.100
483.400	14.814	0.100
483.500	18.750	0.100
483.600	4.755	0.100
483.700	8.640	0.100
483.800	8.526	0.100
483.900	13.699	0.100
484.000	23.978	0.100
484.100	15.680	0.100
484.200	14.604	0.100
484.300	10.768	0.100
484.400	14.435	0.100
484.500	24.938	0.100
484.600	10.092	0.100
484.700	28.220	0.100
484.800	17.573	0.100
484.900	21.808	0.100
485.000	10.038	0.100
485.100	12.269	0.100
485.200	16.886	0.100
485.300	16.042	0.100
485.400	8.243	0.100
485.500	13.374	0.100
485.600	8.089	0.100
485.700	19.286	0.100
485.800	20.057	0.100
485.900	16.668	0.100
486.000	15.805	0.100
486.100	7.695	0.100
486.200	21.101	0.100
486.300	17.899	0.100
486.400	8.273	0.100
486.500	19.747	0.100
486.600	16.196	0.100
486.700	0.591	0.100
486.800	17.544	0.100
486.900	20.041	0.100
487.000	20.270	0.100
487.100	17.447	0.100
487.200	15.902	0.100
487.300	13.291	0.100
487.400	11.370	0.100
487.500	19.107	0.100
487.600	7.254	0.100
487.700	12.975	0.100
487.800	12.345	0.100
487.900	22.934	0.100
488.000	11.911	0.100
488.100	18.641	0.100
488.200	13.673	0.100
488.300	11.941	0.100
488.400	14.299	0.100
488.500	12.965	0.100
488.600	15.140	0.100
488.700	11.122	0.100
488.800	-1.017	0.100
488.900	17.650	0.100
489.000	19.564	0.100
489.100	16.638	0.100
489.200	11.356	0.100
489.300	11.828	0.100
489.400	12.790	0.100
489.500	13.163	0.100
489.600	19.805	0.100
489.700	9.910	0.100
489.800	14.228	0.100
489.900	22.649	0.100
490.000	22.161	0.100
490.100	15.161	0.100
490.200	1.867	0.100
490.300	14.431	0.100
490.400	13.095	0.100
490.500	10.802	0.100
490.600	11.138	0.100
490.700	10.528	0.100
490.800	14.667	0.100
490.900	17.765	0.100
491.000	18.574	0.100
491.100	18.235	0.100
491.200	4.613	0.100
491.300	14.588	0.100
491.400	9.118	0.100
491.500	18.248	0.100
491.600	18.228	0.100
491.700	20.080	0.100
491.800	16.585	0.100
491.900	13.633	0.100
492.000	13.878	0.100
492.100	20.729	0.100
492.200	24.534	0.100
492.300	28.261	0.100
492.400	17.961	0.100
492.500	13.308	0.100
492.600	9.869	0.100
492.700	18.169	0.100
492.800	16.492	0.100
492.900	21.237	0.100
493.000	9.273	0.100
493.100	24.331	0.100
493.200	25.717	0.100
493.300	19.447	0.100
493.400	15.271	0.100
493.500	16.449	0.100
493.600	15.653	0.100
493.700	5.145	0.100
493.800	10.677	0.100
493.900	14.648	0.100
494.000	30.030	0.100
494.100	26.549	0.100
494.200	13.741	0.100
494.300	8.245	0.100
494.400	16.397	0.100
494.500	25.459	0.100
494.600	20.200	0.100
494.700	24.094	0.100
494.800	19.938	0.100
494.900	19.617	0.100
495.000	17.225	0.100
495.100	26.698	0.100
495.200	21.074	0.100
495.300	13.658	0.100
495.400	25.333	0.100
495.500	26.230	0.100
495.600	13.270	0.100
495.700	14.051	0.100
495.800	21.875	0.100
495.900	21.814	0.100
496.000	13.284	0.100
496.100	20.106	0.100
496.200	16.378	0.100
496.300	14.373	0.100
496.400	22.536	0.100
496.500	18.181	0.100
496.600	24.391	0.100
496.700	31.493	0.100
496.800	26.256	0.100
496.900	19.348	0.100
497.000	15.363	0.100
497.100	18.383	0.100
497.200	22.985	0.100
497.300	14.575	0.100
497.400	20.506	0.100
497.500	11.771	0.100
497.600	21.853	0.100
497.700	14.626	0.100
497.800	21.694	0.100
497.900	20.161	0.100
498.000	19.783	0.100
498.100	17.940	0.100
498.200	24.076	0.100
498.300	20.732	0.100
498.400	26.162	0.100
498.500	17.135	0.100
498.600	18.851	0.100
498.700	29.431	0.100
498.800	24.357	0.100
498.900	17.355	0.100
499.000	24.354	0.100
499.100	9.210	0.100
499.200	20.046	0.100
499.300	18.674	0.100
499.400	25.267	0.100
499.500	17.368	0.100
499.600	30.671	0.100
499.700	21.261	0.100
499.800	27.874	0.100
499.900	34.845	0.100
500.000	30.333	0.100
500.100	34.778	0.100
500.200	13.026	0.100
500.300	35.677	0.100
500.400	22.551	0.100
500.500	20.480	0.100
500.600	26.551	0.100
500.700	29.830	0.100
500.800	10.905	0.100
500.900	27.991	0.100
501.000	28.246	0.100
501.100	16.592	0.100
501.200	27.487	0.100
501.300	34.810	0.100
501.400	27.899	0.100
501.500	12.370	0.100
501.600	31.996	0.100
501.700	24.003	0.100
501.800	23.984	0.100
501.900	23.783	0.100
502.000	28.820	0.100
502.100	36.047	0.100
502.200	24.922	0.100
502.300	35.508	0.100
502.400	25.574	0.100
502.500	24.090	0.100
502.600	26.319	0.100
502.700	30.139	0.100
502.800	34.058	0.100
502.900	38.240	0.100
503.000	31.978	0.100
503.100	21.815	0.100
503.200	24.162	0.100
503.300	28.860	0.100
503.400	35.964	0.100
503.500	31.697	0.100
503.600	29.828	0.100
503.700	26.362	0.100
503.800	36.526	0.100
503.900	39.310	0.100
504.000	24.714	0.100
504.100	33.113	0.100
504.200	34.004	0.100
504.300	31.136	0.100
504.400	28.520	0.100
504.500	32.733	0.100
504.600	34.843	0.100
504.700	21.528	0.100
504.800	37.997	0.100
504.900	29.964	0.100
505.000	38.386	0.100
505.100	34.044	0.100
505.200	39.803	0.100
505.300	42.930	0.100
505.400	36.038	0.100
505.500	26.655	0.100
505.600	35.030	0.100
505.700	38.159	0.100
505.800	39.928	0.100
505.900	37.854	0.100
506.000	44.355	0.100
506.100	44.378	0.100
506.200	32.239	0.100
506.300	32.304	0.100
506.400	28.254	0.100
506.500	27.112	0.100
506.600	33.369	0.100
506.700	36.442	0.100
506.800	35.036	0.100
506.900	39.412	0.100
507.000	33.510	0.100
507.100	36.529	0.100
507.200	34.043	0.100
507.300	44.713	0.100
507.400	35.864	0.100
507.500	50.292	0.100
507.600	32.841	0.100
507.700	38.151	0.100
507.800	36.387	0.100
507.900	42.627	0.100
508.000	31.877	0.100
508.100	44.835	0.100
508.200	40.324	0.100
508.300	36.078	0.100
508.400	34.428	0.100
508.500	39.227	0.100
508.600	40.727	0.100
508.700	45.283	0.100
508.800	34.335	0.100
508.900	43.057	0.100
509.000	43.424	0.100
509.100	43.554	0.100
509.200	42.721	0.100
509.300	39.878	0.100
509.400	37.445	0.100
509.500	43.610	0.100
509.600	42.105	0.100
509.700	33.633	0.100
509.800	42.484	0.100
509.900	42.079	0.100
510.000	45.913	0.100
510.100	47.462	0.100
510.200	47.666	0.100
510.300	44.546	0.100
510.400	35.282	0.100
510.500	35.606	0.100
510.600	41.976	0.100
510.700	44.667	0.100
510.800	43.762	0.100
510.900	45.727	0.100
511.000	43.931	0.100
511.100	43.620	0.100
511.200	36.947	0.100
511.300	45.974	0.100
511.400	50.412	0.100
511.500	55.018	0.100
511.600	41.826	0.100
511.700	50.402	0.100
511.800	37.726	0.100
511.900	40.866	0.100
512.000	45.977	0.100
512.100	50.381	0.100
512.200	45.888	0.100
512.300	40.856	0.100
512.400	42.221	0.100
512.500	41.827	0.100
512.600	38.276	0.100
512.700	43.423	0.100
512.800	57.860	0.100
512.900	45.465	0.100
513.000	49.359	0.100
513.100	48.982	0.100
513.200	44.769	0.100
513.300	38.516	0.100
513.400	39.948	0.100
513.500	53.225	0.100
513.600	49.734	0.100
513.700	39.101	0.100
513.800	38.375	0.100
513.900	40.578	0.100
514.000	44.790	0.100
514.100	41.285	0.100
514.200	33.798	0.100
514.300	30.237	0.100
514.400	47.998	0.100
514.500	57.474	0.100
514.600	40.337	0.100
514.700	42.635	0.100
514.800	45.438	0.100
514.900	29.248	0.100
515.000	44.040	0.100
515.100	39.133	0.100
515.200	42.036	0.100
515.300	50.731	0.100
515.400	52.511	0.100
515.500	41.195	0.100
515.600	41.377	0.100
515.700	50.683	0.100
515.800	46.010	0.100
515.900	51.884	0.100
516.000	37.517	0.100
516.100	45.838	0.100
516.200	27.141	0.100
516.300	48.668	0.100
516.400	42.749	0.100
516.500	42.861	0.100
516.600	50.582	0.100
516.700	46.433	0.100
516.800	42.317	0.100
516.900	43.973	0.100
517.000	43.974	0.100
517.100	41.478	0.100
517.200	42.685	0.100
517.300	52.715	0.100
517.400	48.257	0.100
517.500	46.593	0.100
517.600	50.855	0.100
517.700	41.663	0.100
517.800	46.945	0.100
517.900	56.765	0.100
518.000	47.707	0.100
518.100	45.422	0.100
518.200	43.996	0.100
518.300	48.570	0.100
518.400	47.173	0.100
518.500	51.594	0.100
518.600	43.727	0.100
518.700	41.553	0.100
518.800	41.609	0.100
518.900	45.295	0.100
519.000	37.650	0.100
519.100	51.740	0.100
519.200	45.215	0.100
519.300	46.189	0.100
519.400	35.001	0.100
519.500	47.812	0.100
519.600	46.366	0.100
519.700	47.748	0.100
519.800	51.997	0.100
519.900	45.413	0.100
520.000	49.930	0.100
520.100	47.969	0.100
520.200	42.851	0.100
520.300	42.280	0.100
520.400	40.668	0.100
520.500	44.387	0.100
520.600	46.141	0.100
520.700	50.326	0.100
520.800	45.816	0.100
520.900	36.611	0.100
521.000	36.073	0.100
521.100	47.304	0.100
521.200	42.796	0.100
521.300	47.549	0.100
521.400	46.438	0.100
521.500	40.667	0.100
521.600	43.102	0.100
521.700	37.167	0.100
521.800	45.624	0.100
521.900	49.726	0.100
522.000	43.282	0.100
522.100	43.884	0.100
522.200	47.373	0.100
522.300	32.312	0.100
522.400	50.582	0.100
522.500	46.042	0.100
522.600	42.089	0.100
522.700	46.255	0.100
522.800	46.274	0.100
522.900	49.269	0.100
523.000	43.377	0.100
523.100	38.383	0.100
523.200	54.889	0.100
523.300	45.935	0.100
523.400	34.551	0.100
523.500	40.110	0.100
523.600	52.156	0.100
523.700	45.065	0.100
523.800	45.520	0.100
523.900	50.904	0.100
524.000	31.408	0.100
524.100	52.561	0.100
524.200	38.790	0.100
524.300	45.790	0.100
524.400	44.184	0.100
524.500	32.999	0.100
524.600	35.464	0.100
524.700	55.424	0.100
524.800	50.652	0.100
524.900	41.044	0.100
525.000	27.325	0.100
525.100	37.580	0.100
525.200	43.593	0.100
525.300	49.652	0.100
525.400	42.253	0.100
525.500	32.643	0.100
525.600	37.241	0.100
525.700	44.509	0.100
525.800	47.210	0.100
525.900	46.623	0.100
526.000	41.910	0.100
526.100	44.692	0.100
526.200	35.838	0.100
526.300	37.435	0.100
526.400	45.575	0.100
526.500	43.748	0.100
526.600	37.814	0.100
526.700	36.994	0.100
526.800	55.350	0.100
526.900	54.018	0.100
527.000	46.670	0.100
527.100	36.667	0.100
527.200	37.834	0.100
527.300	45.770	0.100
527.400	42.511	0.100
527.500	42.411	0.100
527.600	45.515	0.100
527.700	39.864	0.100
527.800	46.106	0.100
527.900	40.692	0.100
528.000	39.119	0.100
528.100	43.107	0.100
528.200	37.800	0.100
528.300	54.097	0.100
528.400	46.577	0.100
528.500	49.547	0.100
528.600	41.084	0.100
528.700	44.175	0.100
528.800	41.802	0.100
528.900	35.174	0.100
529.000	41.753	0.100
529.100	51.086	0.100
529.200	40.204	0.100
529.300	47.545	0.100
529.400	48.670	0.100
529.500	48.415	0.100
529.600	58.492	0.100
529.700	37.627	0.100
529.800	33.432	0.100
529.900	51.689	0.100
530.000	48.750	0.100
530.100	50.631	0.100
530.200	45.008	0.100
530.300	35.477	0.100
530.400	43.160	0.100
530.500	41.524	0.100
530.600	44.416	0.100
530.700	45.283	0.100
530.800	47.859	0.100
530.900	53.047	0.100
531.000	35.937	0.100
531.100	49.033	0.100
531.200	41.069	0.100
531.300	37.560	0.100
531.400	50.457	0.100
531.500	31.435	0.100
531.600	44.449	0.100
531.700	49.145	0.100
531.800	46.729	0.100
531.900	44.468	0.100
532.000	46.408	0.100
532.100	45.702	0.100
532.200	39.967	0.100
532.300	45.854	0.100
532.400	42.699	0.100
532.500	41.097	0.100
532.600	40.831	0.100
532.700	35.406	0.100
532.800	42.300	0.100
532.900	49.503	0.100
533.000	39.484	0.100
533.100	40.671	0.100
533.200	44.771	0.100
533.300	34.164	0.100
533.400	34.214	0.100
533.500	50.417	0.100
533.600	46.648	0.100
533.700	46.726	0.100
533.800	48.603	0.100
533.900	41.014	0.100
534.000	42.240	0.100
534.100	50.894	0.100
534.200	48.643	0.100
534.300	44.364	0.100
534.400	36.063	0.100
534.500	33.419	0.100
534.600	37.278	0.100
534.700	48.245	0.100
534.800	36.052	0.100
534.900	40.246	0.100
535.000	40.772	0.100
535.100	38.471	0.100
535.200	53.210	0.100
535.300	50.311	0.100
535.400	39.291	0.100
535.500	45.134	0.100
535.600	46.701	0.100
535.700	47.507	0.100
535.800	44.906	0.100
535.900	45.480	0.100
536.000	43.977	0.100
536.100	49.609	0.100
536.200	44.907	0.100
536.300	44.372	0.100
536.400	44.366	0.100
536.500	40.088	0.100
536.600	34.732	0.100
536.700	46.136	0.100
536.800	47.147	0.100
536.900	41.383	0.100
537.000	40.370	0.100
537.100	43.998	0.100
537.200	40.539	0.100
537.300	43.425	0.100
537.400	47.235	0.100
537.500	39.325	0.100
537.600	42.558	0.100
537.700	50.776	0.100
537.800	39.906	0.100
537.900	54.140	0.100
538.000	51.744	0.100
538.100	35.040	0.100
538.200	41.095	0.100
538.300	48.735	0.100
538.400	41.281	0.100
538.500	43.375	0.100
538.600	41.935	0.100
538.700	45.600	0.100
538.800	43.362	0.100
538.900	39.362	0.100
539.000	43.039	0.100
539.100	47.379	0.100
539.200	50.082	0.100
539.300	45.718	0.100
539.400	38.351	0.100
539.500	49.621	0.100
539.600	39.882	0.100
539.700	36.558	0.100
539.800	48.369	0.100
539.900	46.901	0.100
540.000	46.813	0.100
540.100	44.641	0.100
540.200	39.494	0.100
540.300	46.655	0.100
540.400	40.367	0.100
540.500	38.065	0.100
540.600	48.827	0.100
540.700	40.223	0.100
540.800	47.392	0.100
540.900	48.210	0.100
541.000	27.736	0.100
541.100	33.658	0.100
541.200	35.354	0.100
541.300	20.036	0.100
541.400	25.329	0.100
541.500	24.644	0.100
541.600	23.571	0.100
541.700	20.442	0.100
541.800	26.005	0.100
541.900	29.508	0.100
542.000	24.764	0.100
542.100	22.959	0.100
542.200	21.211	0.100
542.300	11.951	0.100
542.400	17.737	0.100
542.500	20.814	0.100
542.600	7.847	0.100
542.700	13.141	0.100
542.800	17.552	0.100
542.900	13.750	0.100
543.000	2.755	0.100
543.100	13.633	0.100
543.200	13.586	0.100
543.300	10.632	0.100
543.400	10.119	0.100
543.500	15.706	0.100
543.600	10.879	0.100
543.700	-2.372	0.100
543.800	13.552	0.100
543.900	23.688	0.100
544.000	6.495	0.100
544.100	0.250	0.100
544.200	3.879	0.100
544.300	0.781	0.100
544.400	7.621	0.100
544.500	8.248	0.100
544.600	7.932	0.100
544.700	0.931	0.100
544.800	6.799	0.100
544.900	6.442	0.100
545.000	4.307	0.100
545.100	2.812	0.100
545.200	10.763	0.100
545.300	8.675	0.100
545.400	-5.577	0.100
545.500	1.637	0.100
545.600	2.822	0.100
545.700	4.939	0.100
545.800	-0.316	0.100
545.900	-0.818	0.100
546.000	-2.891	0.100
546.100	-5.807	0.100
546.200	10.730	0.100
546.300	5.519	0.100
546.400	5.915	0.100
546.500	7.439	0.100
546.600	0.990	0.100
546.700	3.556	0.100
546.800	-13.844	0.100
546.900	0.825	0.100
547.000	-1.579	0.100
547.100	-0.687	0.100
547.200	7.483	0.100
547.300	-0.159	0.100
547.400	-3.033	0.100
547.500	5.874	0.100
547.600	0.344	0.100
547.700	-6.475	0.100
547.800	3.799	0.100
547.900	4.155	0.100
548.000	-6.055	0.100
548.100	6.298	0.100
548.200	2.260	0.100
548.300	-0.816	0.100
548.400	-3.922	0.100
548.500	-0.138	0.100
548.600	-2.248	0.100
548.700	1.108	0.100
548.800	1.415	0.100
548.900	-2.154	0.100
549.000	-6.550	0.100
549.100	8.834	0.100
549.200	1.627	0.100
549.300	-11.623	0.100
549.400	-8.440	0.100
549.500	2.568	0.100
549.600	2.912	0.100
549.700	6.173	0.100
549.800	0.608	0.100
549.900	8.069	0.100
550.000	-0.234	0.100
550.100	-7.715	0.100
550.200	-3.422	0.100
550.300	-1.068	0.100
550.400	-3.128	0.100
550.500	0.032	0.100
550.600	6.962	0.100
550.700	1.531	0.100
550.800	-1.012	0.100
550.900	7.190	0.100
551.000	-2.493	0.100
551.100	-7.802	0.100
551.200	-5.236	0.100
551.300	-3.462	0.100
551.400	10.481	0.100
551.500	-0.657	0.100
551.600	4.713	0.100
551.700	-14.065	0.100
551.800	-5.215	0.100
551.900	3.028	0.100
552.000	8.836	0.100
552.100	4.787	0.100
552.200	-0.288	0.100
552.300	-2.948	0.100
552.400	-1.119	0.100
552.500	-0.467	0.100
552.600	-4.791	0.100
552.700	-2.968	0.100
552.800	1.446	0.100
552.900	0.784	0.100
553.000	1.067	0.100
553.100	-5.012	0.100
553.200	-9.148	0.100
553.300	-0.158	0.100
553.400	1.259	0.100
553.500	-7.581	0.100
553.600	-4.062	0.100
553.700	-0.396	0.100
553.800	3.353	0.100
553.900	0.222	0.100
554.000	-7.424	0.100
554.100	-10.643	0.100
554.200	-18.440	0.100
554.300	-7.081	0.100
554.400	1.845	0.100
554.500	11.701	0.100
554.600	2.283	0.100
554.700	0.263	0.100
554.800	-3.800	0.100
554.900	-12.346	0.100
555.000	1.265	0.100
555.100	0.631	0.100
555.200	-22.382	0.100
555.300	-8.321	0.100
555.400	-8.899	0.100
555.500	-13.845	0.100
555.600	-3.904	0.100
555.700	0.946	0.100
555.800	-8.934	0.100
555.900	-7.968	0.100
556.000	-6.282	0.100
556.100	-4.758	0.100
556.200	3.056	0.100
556.300	6.401	0.100
556.400	-7.575	0.100
556.500	-6.569	0.100
556.600	-2.825	0.100
556.700	-2.361	0.100
556.800	-1.097	0.100
556.900	-9.781	0.100
557.000	-5.060	0.100
557.100	-10.722	0.100
557.200	-2.479	0.100
557.300	-2.605	0.100
557.400	-5.277	0.100
557.500	-10.873	0.100
557.600	-2.332	0.100
557.700	-7.779	0.100
557.800	-12.206	0.100
557.900	-0.975	0.100
558.000	-2.787	0.100
558.100	-11.717	0.100
558.200	-0.453	0.100
558.300	-1.988	0.100
558.400	-11.543	0.100
558.500	0.065	0.100
558.600	-1.210	0.100
558.700	-8.315	0.100
558.800	-3.486	0.100
558.900	-9.966	0.100
559.000	-21.407	0.100
559.100	-3.492	0.100
559.200	-3.184	0.100
559.300	-6.677	0.100
559.400	2.006	0.100
559.500	-16.868	0.100
559.600	-9.701	0.100
559.700	-9.796	0.100
559.800	-5.244	0.100
559.900	-13.125	0.100
560.000	-16.747	0.100
560.100	-5.883	0.100
560.200	-4.798	0.100
560.300	-2.284	0.100
560.400	0.861	0.100
560.500	-6.018	0.100
560.600	-14.315	0.100
560.700	-6.535	0.100
560.800	-11.601	0.100
560.900	-8.100	0.100
561.000	-14.354	0.100
561.100	-11.938	0.100
561.200	-0.416	0.100
561.300	-15.780	0.100
561.400	-2.647	0.100
561.500	-2.075	0.100
561.600	-3.521	0.100
561.700	-10.247	0.100
561.800	-1.344	0.100
561.900	-10.906	0.100
562.000	-11.757	0.100
562.100	-17.074	0.100
562.200	-3.633	0.100
562.300	-5.602	0.100
562.400	-10.156	0.100
562.500	3.679	0.100
562.600	-0.553	0.100
562.700	-3.276	0.100
562.800	-2.844	0.100
562.900	-3.467	0.100
563.000	-14.337	0.100
563.100	-5.759	0.100
563.200	-15.553	0.100
563.300	-16.756	0.100
563.400	-15.608	0.100
563.500	-11.088	0.100
563.600	-24.421	0.100
563.700	-4.915	0.100
563.800	-17.014	0.100
563.900	-10.922	0.100
564.000	0.038	0.100
564.100	-7.331	0.100
564.200	-2.154	0.100
564.300	-10.868	0.100
564.400	-12.649	0.100
564.500	-21.831	0.100
564.600	-16.661	0.100
564.700	-13.477	0.100
564.800	-15.691	0.100
564.900	-18.623	0.100
565.000	-9.743	0.100
565.100	-7.529	0.100
565.200	-9.309	0.100
565.300	-13.319	0.100
565.400	-17.115	0.100
565.500	-15.380	0.100
565.600	-12.751	0.100
565.700	-14.800	0.100
565.800	-14.258	0.100
565.900	-10.094	0.100
566.000	1.392	0.100
566.100	-10.634	0.100
566.200	-13.504	0.100
566.300	-18.440	0.100
566.400	-5.599	0.100
566.500	-9.895	0.100
566.600	-16.285	0.100
566.700	-14.774	0.100
566.800	-15.114	0.100
566.900	-11.626	0.100
567.000	-12.505	0.100
567.100	-6.422	0.100
567.200	-18.117	0.100
567.300	-5.705	0.100
567.400	-22.136	0.100
567.500	-11.942	0.100
567.600	-12.163	0.100
567.700	-21.767	0.100
567.800	-7.382	0.100
567.900	-10.936	0.100
568.000	-12.228	0.100
568.100	-12.355	0.100
568.200	-3.864	0.100
568.300	-16.379	0.100
568.400	-18.806	0.100
568.500	-12.374	0.100
568.600	-20.559	0.100
568.700	-19.843	0.100
568.800	-9.572	0.100
568.900	-14.752	0.100
569.000	-17.933	0.100
569.100	-12.152	0.100
569.200	-12.560	0.100
569.300	-6.388	0.100
569.400	-18.120	0.100
569.500	-9.486	0.100
569.600	-17.413	0.100
569.700	-12.729	0.100
569.800	-18.610	0.100
569.900	-16.240	0.100
570.000	-21.863	0.100
570.100	-14.828	0.100
570.200	-26.002	0.100
570.300	-25.528	0.100
570.400	-17.834	0.100
570.500	-3.465	0.100
570.600	-18.609	0.100
570.700	-15.953	0.100
570.800	-17.676	0.100
570.900	-28.405	0.100
571.000	-16.336	0.100
571.100	-7.699	0.100
571.200	-19.923	0.100
571.300	-21.243	0.100
571.400	-5.724	0.100
571.500	-11.402	0.100
571.600	-23.360	0.100
571.700	-24.650	0.100
571.800	-19.532	0.100
571.900	-9.375	0.100
572.000	-19.912	0.100
572.100	-13.985	0.100
572.200	-16.079	0.100
572.300	-22.161	0.100
572.400	-12.886	0.100
572.500	-12.463	0.100
572.600	-14.326	0.100
572.700	-16.721	0.100
572.800	-21.907	0.100
572.900	-22.560	0.100
573.000	-26.854	0.100
573.100	-15.625	0.100
573.200	-16.293	0.100
573.300	-14.984	0.100
573.400	-10.831	0.100
573.500	-11.277	0.100
573.600	-19.550	0.100
573.700	-22.030	0.100
573.800	-21.062	0.100
573.900	-22.168	0.100
574.000	-25.362	0.100
574.100	-13.141	0.100
574.200	-21.063	0.100
574.300	-11.476	0.100
574.400	-15.414	0.100
574.500	-10.889	0.100
574.600	-20.012	0.100
574.700	-24.431	0.100
574.800	-21.486	0.100
574.900	-25.804	0.100
575.000	-13.721	0.100
575.100	-11.905	0.100
575.200	-23.899	0.100
575.300	-8.255	0.100
575.400	-23.063	0.100
575.500	-14.771	0.100
575.600	-25.512	0.100
575.700	-19.784	0.100
575.800	-29.333	0.100
575.900	-24.773	0.100
576.000	-10.432	0.100
576.100	-11.463	0.100
576.200	-15.076	0.100
576.300	-16.549	0.100
576.400	-15.384	0.100
576.500	-29.949	0.100
576.600	-16.047	0.100
576.700	-19.694	0.100
576.800	-14.773	0.100
576.900	-17.667	0.100
577.000	-23.437	0.100
577.100	-22.389	0.100
577.200	-14.956	0.100
577.300	-22.330	0.100
577.400	-18.637	0.100
577.500	-17.345	0.100
577.600	-24.213	0.100
577.700	-30.888	0.100
577.800	-16.648	0.100
577.900	-13.847	0.100
578.000	-14.275	0.100
578.100	-19.999	0.100
578.200	-36.039	0.100
578.300	-13.761	0.100
578.400	-13.337	0.100
578.500	-10.437	0.100
578.600	-14.527	0.100
578.700	-11.972	0.100
578.800	-16.669	0.100
578.900	-20.774	0.100
579.000	-10.987	0.100
579.100	-19.204	0.100
579.200	-23.241	0.100
579.300	-15.540	0.100
579.400	-23.608	0.100
579.500	-24.676	0.100
579.600	-15.422	0.100
579.700	-26.743	0.100
579.800	-20.205	0.100
579.900	-18.362	0.100
580.000	-17.926	0.100
580.100	-16.793	0.100
580.200	-21.810	0.100
580.300	-22.981	0.100
580.400	-22.789	0.100
580.500	-20.001	0.100
580.600	-20.422	0.100
580.700	-20.422	0.100
580.800	-31.109	0.100
580.900	-20.731	0.100
581.000	-24.473	0.100
581.100	-9.284	0.100
581.200	-22.508	0.100
581.300	-18.217	0.100
581.400	-13.999	0.100
581.500	-17.001	0.100
581.600	-30.280	0.100
581.700	-18.939	0.100
581.800	-25.090	0.100
581.900	-17.206	0.100
582.000	-17.779	0.100
582.100	-26.383	0.100
582.200	-27.499	0.100
582.300	-20.473	0.100
582.400	-25.693	0.100
582.500	-28.321	0.100
582.600	-24.632	0.100
582.700	-25.074	0.100
582.800	-27.361	0.100
582.900	-18.456	0.100
583.000	-22.252	0.100
583.100	-19.122	0.100
583.200	-21.392	0.100
583.300	-17.845	0.100
583.400	-27.671	0.100
583.500	-28.026	0.100
583.600	-16.686	0.100
583.700	-15.577	0.100
583.800	-21.263	0.100
583.900	-19.679	0.100
584.000	-20.162	0.100
584.100	-26.624	0.100
584.200	-28.023	0.100
584.300	-10.388	0.100
584.400	-28.535	0.100
584.500	-16.446	0.100
584.600	-16.370	0.100
584.700	-28.293	0.100
584.800	-17.477	0.100
584.900	-12.031	0.100
585.000	-16.671	0.100
585.100	-18.312	0.100
585.200	-33.726	0.100
585.300	-10.451	0.100
585.400	-26.641	0.100
585.500	-21.445	0.100
585.600	-32.033	0.100
585.700	-19.140	0.100
585.800	-17.053	0.100
585.900	-19.547	0.100
586.000	-20.247	0.100
586.100	-25.253	0.100
586.200	-16.557	0.100
586.300	-28.799	0.100
586.400	-26.302	0.100
586.500	-22.517	0.100
586.600	-20.307	0.100
586.700	-21.915	0.100
586.800	-15.981	0.100
586.900	-21.694	0.100
587.000	-26.183	0.100
587.100	-25.177	0.100
587.200	-15.371	0.100
587.300	-16.576	0.100
587.400	-22.033	0.100
587.500	-26.468	0.100
587.600	-10.249	0.100
587.700	-16.933	0.100
587.800	-20.562	0.100
587.900	-22.973	0.100
588.000	-24.672	0.100
588.100	-22.815	0.100
588.200	-13.892	0.100
588.300	-17.197	0.100
588.400	-16.155	0.100
588.500	-15.832	0.100
588.600	-18.993	0.100
588.700	-28.580	0.100
588.800	-18.679	0.100
588.900	-19.185	0.100
589.000	-26.083	0.100
589.100	-21.011	0.100
589.200	-17.913	0.100
589.300	-36.608	0.100
589.400	-34.258	0.100
589.500	-28.413	0.100
589.600	-28.527	0.100
589.700	-22.807	0.100
589.800	-16.550	0.100
589.900	-23.512	0.100
590.000	-20.782	0.100
590.100	-19.669	0.100
590.200	-21.186	0.100
590.300	-18.406	0.100
590.400	-22.015	0.100
590.500	-25.203	0.100
590.600	-21.797	0.100
590.700	-12.026	0.100
590.800	-25.431	0.100
590.900	-14.214	0.100
591.000	-23.940	0.100
591.100	-26.538	0.100
591.200	-21.739	0.100
591.300	-20.190	0.100
591.400	-18.721	0.100
591.500	-20.697	0.100
591.600	-24.315	0.100
591.700	-28.766	0.100
591.800	-28.648	0.100
591.900	-11.883	0.100
592.000	-10.255	0.100
592.100	-18.999	0.100
592.200	-27.754	0.100
592.300	-19.990	0.100
592.400	-18.478	0.100
592.500	-17.398	0.100
592.600	-33.853	0.100
592.700	-30.975	0.100
592.800	-28.875	0.100
592.900	-18.767	0.100
593.000	-21.365	0.100
593.100	-29.207	0.100
593.200	-19.790	0.100
593.300	-18.331	0.100
593.400	-18.246	0.100
593.500	-11.791	0.100
593.600	-19.456	0.100
593.700	-15.806	0.100
593.800	-19.272	0.100
593.900	-21.385	0.100
594.000	-25.012	0.100
594.100	-24.918	0.100
594.200	-24.245	0.100
594.300	-22.813	0.100
594.400	-19.785	0.100
594.500	-18.857	0.100
594.600	-19.868	0.100
594.700	-20.474	0.100
594.800	-18.369	0.100
594.900	-24.878	0.100
595.000	-27.499	0.100
595.100	-18.477	0.100
595.200	-17.566	0.100
595.300	-18.242	0.100
595.400	-23.380	0.100
595.500	-14.016	0.100
595.600	-21.625	0.100
595.700	-12.088	0.100
595.800	-23.478	0.100
595.900	-17.928	0.100
596.000	-14.279	0.100
596.100	-16.886	0.100
596.200	-20.853	0.100
596.300	-13.183	0.100
596.400	-19.536	0.100
596.500	-24.234	0.100
596.600	-21.593	0.100
596.700	-11.064	0.100
596.800	-23.797	0.100
596.900	-29.397	0.100
597.000	-23.015	0.100
597.100	-17.670	0.100
597.200	-22.731	0.100
597.300	-23.703	0.100
597.400	-17.514	0.100
597.500	-22.620	0.100
597.600	-11.083	0.100
597.700	-15.844	0.100
597.800	-18.436	0.100
597.900	-14.714	0.100
598.000	-23.516	0.100
598.100	-25.465	0.100
598.200	-29.287	0.100
598.300	-27.429	0.100
598.400	-17.975	0.100
598.500	-22.687	0.100
598.600	-13.732	0.100
598.700	-13.800	0.100
598.800	-29.605	0.100
598.900	-19.406	0.100
599.000	-22.771	0.100
599.100	-23.025	0.100
599.200	-17.569	0.100
599.300	-19.753	0.100
599.400	-19.152	0.100
599.500	-20.363	0.100
599.600	-18.015	0.100
599.700	-13.147	0.100
599.800	-19.465	0.100
599.900	-26.159	0.100
600.000	-38.929	0.100
600.100	-26.197	0.100
600.200	-21.107	0.100
600.300	-6.483	0.100
600.400	-16.455	0.100
600.500	-18.800	0.100
600.600	-13.765	0.100
600.700	-13.998	0.100
600.800	-15.387	0.100
600.900	-24.500	0.100
601.000	-21.594	0.100
601.100	-20.486	0.100
601.200	-23.707	0.100
601.300	-25.386	0.100
601.400	-23.474	0.100
601.500	-24.199	0.100
601.600	-17.531	0.100
601.700	-13.309	0.100
601.800	-12.212	0.100
601.900	-14.465	0.100
602.000	-14.997	0.100
602.100	-16.049	0.100
602.200	-34.636	0.100
602.300	-28.806	0.100
602.400	-16.277	0.100
602.500	-11.126	0.100
602.600	-25.673	0.100
602.700	-37.455	0.100
602.800	-16.451	0.100
602.900	-18.385	0.100
603.000	-23.225	0.100
603.100	-23.899	0.100
603.200	-14.271	0.100
603.300	-24.125	0.100
603.400	-21.838	0.100
603.500	-15.614	0.100
603.600	-20.872	0.100
603.700	-24.170	0.100
603.800	-21.017	0.100
603.900	-22.632	0.100
604.000	-24.606	0.100
604.100	-17.270	0.100
604.200	-14.793	0.100
604.300	-18.670	0.100
604.400	-24.344	0.100
604.500	-17.852	0.100
604.600	-15.322	0.100
604.700	-11.441	0.100
604.800	-16.938	0.100
604.900	-16.741	0.100
605.000	-16.559	0.100
605.100	-26.837	0.100
605.200	-21.579	0.100
605.300	-13.403	0.100
605.400	-14.957	0.100
605.500	-22.752	0.100
605.600	-16.320	0.100
605.700	-24.966	0.100
605.800	-21.116	0.100
605.900	-16.237	0.100
606.000	-14.109	0.100
606.100	-27.996	0.100
606.200	-21.804	0.100
606.300	-13.838	0.100
606.400	-14.220	0.100
606.500	-19.384	0.100
606.600	-28.968	0.100
606.700	-26.860	0.100
606.800	-19.582	0.100
606.900	-26.266	0.100
607.000	-26.198	0.100
607.100	-19.606	0.100
607.200	-17.772	0.100
607.300	-15.291	0.100
607.400	-14.532	0.100
607.500	-19.309	0.100
607.600	-15.088	0.100
607.700	-16.068	0.100
607.800	-13.584	0.100
607.900	-8.205	0.100
608.000	-21.033	0.100
608.100	-27.442	0.100
608.200	-25.334	0.100
608.300	-14.880	0.100
608.400	-19.449	0.100
608.500	-17.135	0.100
608.600	-21.693	0.100
608.700	-18.035	0.100
608.800	-18.995	0.100
608.900	-19.169	0.100
609.000	-20.040	0.100
609.100	-20.984	0.100
609.200	-13.324	0.100
609.300	-29.300	0.100
609.400	-28.359	0.100
609.500	-22.088	0.100
609.600	-9.022	0.100
609.700	-8.924	0.100
609.800	-19.329	0.100
609.900	-11.597	0.100
610.000	-19.815	0.100
610.100	-23.051	0.100
610.200	-21.138	0.100
610.300	-20.709	0.100
610.400	-28.503	0.100
610.500	-30.060	0.100
610.600	-28.111	0.100
610.700	-17.025	0.100
610.800	-18.654	0.100
610.900	-14.367	0.100
611.000	-14.388	0.100
611.100	-12.955	0.100
611.200	-11.175	0.100
611.300	-17.650	0.100
611.400	-13.346	0.100
611.500	-20.578	0.100
611.600	-18.526	0.100
611.700	-17.572	0.100
611.800	-19.750	0.100
611.900	-19.772	0.100
612.000	-29.580	0.100
612.100	-14.993	0.100
612.200	-16.924	0.100
612.300	-17.771	0.100
612.400	-16.887	0.100
612.500	-17.090	0.100
612.600	-23.754	0.100
612.700	-18.730	0.100
612.800	-17.364	0.100
612.900	-19.462	0.100
613.000	-17.899	0.100
613.100	-22.724	0.100
613.200	-21.031	0.100
613.300	-23.363	0.100
613.400	-12.186	0.100
613.500	-13.216	0.100
613.600	-9.249	0.100
613.700	-14.833	0.100
613.800	-19.515	0.100
613.900	-28.619	0.100
614.000	-22.455	0.100
614.100	-8.506	0.100
614.200	-16.229	0.100
614.300	-29.560	0.100
614.400	-15.643	0.100
614.500	-21.543	0.100
614.600	-15.763	0.100
614.700	-11.412	0.100
614.800	-20.610	0.100
614.900	-17.850	0.100
615.000	-25.956	0.100
615.100	-13.210	0.100
615.200	-24.645	0.100
615.300	-27.007	0.100
615.400	-28.014	0.100
615.500	-18.489	0.100
615.600	-9.259	0.100
615.700	-16.655	0.100
615.800	-19.873	0.100
615.900	-9.421	0.100
616.000	-14.949	0.100
616.100	-18.512	0.100
616.200	-23.555	0.100
616.300	-26.310	0.100
616.400	-22.491	0.100
616.500	-10.029	0.100
616.600	-10.723	0.100
616.700	-17.178	0.100
616.800	-18.446	0.100
616.900	-16.795	0.100
617.000	-17.422	0.100
617.100	-12.527	0.100
617.200	-20.620	0.100
617.300	-19.772	0.100
617.400	-20.500	0.100
617.500	-15.277	0.100
617.600	-16.659	0.100
617.700	-23.933	0.100
617.800	-24.117	0.100
617.900	-9.740	0.100
618.000	-19.448	0.100
618.100	-21.154	0.100
618.200	-21.529	0.100
618.300	-25.131	0.100
618.400	-13.723	0.100
618.500	-12.303	0.100
618.600	-11.779	0.100
618.700	-23.964	0.100
618.800	-16.915	0.100
618.900	-15.278	0.100
619.000	-24.865	0.100
619.100	-8.505	0.100
619.200	-15.770	0.100
619.300	-15.185	0.100
619.400	-19.351	0.100
619.500	-13.191	0.100
619.600	-10.236	0.100
619.700	-16.313	0.100
619.800	-16.295	0.100
619.900	-14.520	0.100
620.000	-20.545	0.100
620.100	-19.410	0.100
620.200	-16.217	0.100
620.300	-21.819	0.100
620.400	-15.753	0.100
620.500	-20.046	0.100
620.600	-14.267	0.100
620.700	-22.077	0.100
620.800	-14.909	0.100
620.900	-12.259	0.100
621.000	-28.829	0.100
621.100	-18.842	0.100
621.200	-20.160	0.100
621.300	-16.978	0.100
621.400	-21.819	0.100
621.500	-14.697	0.100
621.600	-25.557	0.100
621.700	-14.277	0.100
621.800	-32.440	0.100
621.900	-17.262	0.100
622.000	-21.265	0.100
622.100	-14.490	0.100
622.200	-14.329	0.100
622.300	-23.869	0.100
622.400	-10.869	0.100
622.500	-22.162	0.100
622.600	-23.702	0.100
622.700	-22.702	0.100
622.800	-16.713	0.100
622.900	-29.523	0.100
623.000	-19.325	0.100
623.100	-23.715	0.100
623.200	-17.472	0.100
623.300	-11.868	0.100
623.400	-11.707	0.100
623.500	-12.676	0.100
623.600	-18.494	0.100
623.700	-12.590	0.100
623.800	-9.164	0.100
623.900	-19.242	0.100
624.000	-25.936	0.100
624.100	-20.066	0.100
624.200	-10.909	0.100
624.300	-26.568	0.100
624.400	-18.655	0.100
624.500	-26.802	0.100
624.600	-14.312	0.100
624.700	-19.585	0.100
624.800	-20.999	0.100
624.900	-11.388	0.100
625.000	-13.798	0.100
625.100	-16.167	0.100
625.200	-18.204	0.100
625.300	-9.840	0.100
625.400	-20.191	0.100
625.500	-19.277	0.100
625.600	-21.545	0.100
625.700	-18.705	0.100
625.800	-19.524	0.100
625.900	-14.637	0.100
626.000	-22.464	0.100
626.100	-22.032	0.100
626.200	-13.361	0.100
626.300	-15.187	0.100
626.400	-16.594	0.100
626.500	-21.923	0.100
626.600	-14.780	0.100
626.700	-17.746	0.100
626.800	-25.544	0.100
626.900	-26.096	0.100
627.000	-24.973	0.100
627.100	-15.735	0.100
627.200	-18.867	0.100
627.300	-11.351	0.100
627.400	-12.215	0.100
627.500	-15.641	0.100
627.600	-15.865	0.100
627.700	-15.481	0.100
627.800	-13.086	0.100
627.900	-18.437	0.100
628.000	-18.476	0.100
628.100	-26.384	0.100
628.200	-15.457	0.100
628.300	-15.346	0.100
628.400	-3.829	0.100
628.500	-16.947	0.100
628.600	-17.088	0.100
628.700	-10.840	0.100
628.800	-14.662	0.100
628.900	-25.072	0.100
629.000	-18.757	0.100
629.100	-12.057	0.100
629.200	-28.654	0.100
629.300	-17.966	0.100
629.400	-23.914	0.100
629.500	-19.400	0.100
629.600	-28.057	0.100
629.700	-12.359	0.100
629.800	-19.827	0.100
629.900	-11.173	0.100
630.000	-14.955	0.100
630.100	-20.036	0.100
630.200	-18.734	0.100
630.300	-22.654	0.100
630.400	-11.259	0.100
630.500	-29.866	0.100
630.600	-21.140	0.100
630.700	-5.830	0.100
630.800	-13.065	0.100
630.900	-11.346	0.100
631.000	-20.143	0.100
631.100	-9.426	0.100
631.200	-7.487	0.100
631.300	4.088	0.100
631.400	-0.718	0.100
631.500	-6.057	0.100
631.600	-2.163	0.100
631.700	11.597	0.100
631.800	1.680	0.100
631.900	-6.845	0.100
632.000	9.092	0.100
632.100	6.063	0.100
632.200	13.804	0.100
632.300	12.541	0.100
632.400	4.611	0.100
632.500	9.870	0.100
632.600	13.178	0.100
632.700	13.128	0.100
632.800	2.096	0.100
632.900	15.860	0.100
633.000	19.781	0.100
633.100	21.974	0.100
633.200	16.330	0.100
633.300	10.653	0.100
633.400	20.333	0.100
633.500	12.476	0.100
633.600	16.584	0.100
633.700	9.636	0.100
633.800	15.425	0.100
633.900	16.594	0.100
634.000	11.085	0.100
634.100	21.589	0.100
634.200	19.345	0.100
634.300	13.679	0.100
634.400	12.651	0.100
634.500	12.176	0.100
634.600	18.600	0.100
634.700	13.085	0.100
634.800	17.081	0.100
634.900	9.116	0.100
635.000	12.651	0.100
635.100	16.865	0.100
635.200	22.263	0.100
635.300	29.711	0.100
635.400	21.717	0.100
635.500	18.425	0.100
635.600	24.215	0.100
635.700	20.503	0.100
635.800	17.877	0.100
635.900	20.765	0.100
636.000	17.260	0.100
636.100	13.032	0.100
636.200	12.281	0.100
636.300	13.105	0.100
636.400	25.849	0.100
636.500	18.231	0.100
636.600	19.252	0.100
636.700	22.278	0.100
636.800	6.387	0.100
636.900	-0.660	0.100
637.000	23.767	0.100
637.100	23.088	0.100
637.200	8.528	0.100
637.300	10.963	0.100
637.400	10.378	0.100
637.500	14.843	0.100
637.600	15.139	0.100
637.700	7.161	0.100
637.800	16.099	0.100
637.900	13.354	0.100
638.000	20.888	0.100
638.100	17.582	0.100
638.200	5.804	0.100
638.300	19.249	0.100
638.400	27.144	0.100
638.500	19.862	0.100
638.600	16.965	0.100
638.700	16.615	0.100
638.800	21.962	0.100
638.900	25.161	0.100
639.000	23.902	0.100
639.100	15.816	0.100
639.200	13.868	0.100
639.300	11.517	0.100
639.400	17.396	0.100
639.500	19.055	0.100
639.600	20.631	0.100
639.700	12.610	0.100
639.800	18.455	0.100
639.900	23.838	0.100
640.000	21.949	0.100
640.100	16.412	0.100
640.200	8.791	0.100
640.300	5.787	0.100
640.400	16.004	0.100
640.500	19.365	0.100
640.600	10.252	0.100
640.700	15.737	0.100
640.800	13.590	0.100
640.900	20.783	0.100
641.000	-1.955	0.100
641.100	23.891	0.100
641.200	16.919	0.100
641.300	13.654	0.100
641.400	22.063	0.100
641.500	17.894	0.100
641.600	17.043	0.100
641.700	15.168	0.100
641.800	10.992	0.100
641.900	17.065	0.100
642.000	20.369	0.100
642.100	9.255	0.100
642.200	3.684	0.100
642.300	13.786	0.100
642.400	6.068	0.100
642.500	21.026	0.100
642.600	12.616	0.100
642.700	11.574	0.100
642.800	20.424	0.100
642.900	12.556	0.100
643.000	17.420	0.100
643.100	24.724	0.100
643.200	25.260	0.100
643.300	13.914	0.100
643.400	25.533	0.100
643.500	15.761	0.100
643.600	9.247	0.100
643.700	19.062	0.100
643.800	6.864	0.100
643.900	11.236	0.100
644.000	18.373	0.100
644.100	21.707	0.100
644.200	19.807	0.100
644.300	10.023	0.100
644.400	15.525	0.100
644.500	17.234	0.100
644.600	20.526	0.100
644.700	15.161	0.100
644.800	18.689	0.100
644.900	17.346	0.100
645.000	20.042	0.100
645.100	19.225	0.100
645.200	25.641	0.100
645.300	17.919	0.100
645.400	26.194	0.100
645.500	15.820	0.100
645.600	18.353	0.100
645.700	30.374	0.100
645.800	11.881	0.100
645.900	17.548	0.100
646.000	24.937	0.100
646.100	20.653	0.100
646.200	15.070	0.100
646.300	14.691	0.100
646.400	21.940	0.100
646.500	19.107	0.100
646.600	21.213	0.100
646.700	22.186	0.100
646.800	20.734	0.100
646.900	25.171	0.100
647.000	15.687	0.100
647.100	18.634	0.100
647.200	29.111	0.100
647.300	26.457	0.100
647.400	20.677	0.100
647.500	29.490	0.100
647.600	15.361	0.100
647.700	15.234	0.100
647.800	25.440	0.100
647.900	21.816	0.100
648.000	23.157	0.100
648.100	20.319	0.100
648.200	17.838	0.100
648.300	22.782	0.100
648.400	27.044	0.100
648.500	22.481	0.100
648.600	17.207	0.100
648.700	28.671	0.100
648.800	23.368	0.100
648.900	13.868	0.100
649.000	27.277	0.100
649.100	26.654	0.100
649.200	24.283	0.100
649.300	16.067	0.100
649.400	14.943	0.100
649.500	29.402	0.100
649.600	26.888	0.100
649.700	22.107	0.100
649.800	29.581	0.100
649.900	22.364	0.100
650.000	22.589	0.100
650.100	29.960	0.100
650.200	27.041	0.100
650.300	26.668	0.100
650.400	22.136	0.100
650.500	21.793	0.100
650.600	31.619	0.100
650.700	24.131	0.100
650.800	29.569	0.100
650.900	23.253	0.100
651.000	22.967	0.100
651.100	19.501	0.100
651.200	18.834	0.100
651.300	20.072	0.100
651.400	32.882	0.100
651.500	27.165	0.100
651.600	33.631	0.100
651.700	28.516	0.100
651.800	31.615	0.100
651.900	32.726	0.100
652.000	19.471	0.100
652.100	30.464	0.100
652.200	12.979	0.100
652.300	33.386	0.100
652.400	31.803	0.100
652.500	27.871	0.100
652.600	34.703	0.100
652.700	27.044	0.100
652.800	45.217	0.100
652.900	33.418	0.100
653.000	27.215	0.100
653.100	35.221	0.100
653.200	28.918	0.100
653.300	30.746	0.100
653.400	27.701	0.100
653.500	30.698	0.100
653.600	26.847	0.100
653.700	25.424	0.100
653.800	29.664	0.100
653.900	39.626	0.100
654.000	36.611	0.100
654.100	34.538	0.100
654.200	36.949	0.100
654.300	29.823	0.100
654.400	34.202	0.100
654.500	37.751	0.100
654.600	35.166	0.100
654.700	46.213	0.100
654.800	25.468	0.100
654.900	33.488	0.100
655.000	45.017	0.100
655.100	33.885	0.100
655.200	36.609	0.100
655.300	36.729	0.100
655.400	34.980	0.100
655.500	38.943	0.100
655.600	38.951	0.100
655.700	43.248	0.100
655.800	27.380	0.100
655.900	38.840	0.100
656.000	37.462	0.100
656.100	34.794	0.100
656.200	33.101	0.100
656.300	33.077	0.100
656.400	38.964	0.100
656.500	37.516	0.100
656.600	32.354	0.100
656.700	43.242	0.100
656.800	33.965	0.100
656.900	50.461	0.100
657.000	41.795	0.100
657.100	31.677	0.100
657.200	32.847	0.100
657.300	35.256	0.100
657.400	33.618	0.100
657.500	31.694	0.100
657.600	46.219	0.100
657.700	44.318	0.100
657.800	39.989	0.100
657.900	27.401	0.100
658.000	47.915	0.100
658.100	56.873	0.100
658.200	44.982	0.100
658.300	34.582	0.100
658.400	31.961	0.100
658.500	46.938	0.100
658.600	43.608	0.100
658.700	48.111	0.100
658.800	45.126	0.100
658.900	37.398	0.100
659.000	33.696	0.100
659.100	46.497	0.100
659.200	46.241	0.100
659.300	38.262	0.100
659.400	39.527	0.100
659.500	47.659	0.100
659.600	39.308	0.100
659.700	42.927	0.100
659.800	33.662	0.100
659.900	53.758	0.100
660.000	39.355	0.100
660.100	43.401	0.100
660.200	32.009	0.100
660.300	44.096	0.100
660.400	47.479	0.100
660.500	37.503	0.100
660.600	45.504	0.100
660.700	40.690	0.100
660.800	50.346	0.100
660.900	47.043	0.100
661.000	47.689	0.100
661.100	39.438	0.100
661.200	49.113	0.100
661.300	40.618	0.100
661.400	42.825	0.100
661.500	43.352	0.100
661.600	43.404	0.100
661.700	43.730	0.100
661.800	41.490	0.100
661.900	37.499	0.100
662.000	43.908	0.100
662.100	41.658	0.100
662.200	46.886	0.100
662.300	52.027	0.100
662.400	38.666	0.100
662.500	48.592	0.100
662.600	38.768	0.100
662.700	48.191	0.100
662.800	51.902	0.100
662.900	40.459	0.100
663.000	35.959	0.100
663.100	44.762	0.100
663.200	56.169	0.100
663.300	53.480	0.100
663.400	47.128	0.100
663.500	46.956	0.100
663.600	45.384	0.100
663.700	44.974	0.100
663.800	43.058	0.100
663.900	48.816	0.100
664.000	45.642	0.100
664.100	48.891	0.100
664.200	48.099	0.100
664.300	40.288	0.100
664.400	51.185	0.100
664.500	51.076	0.100
664.600	55.255	0.100
664.700	66.711	0.100
664.800	43.326	0.100
664.900	37.027	0.100
665.000	40.479	0.100
665.100	46.311	0.100
665.200	40.878	0.100
665.300	37.297	0.100
665.400	40.810	0.100
665.500	44.563	0.100
665.600	51.215	0.100
665.700	48.795	0.100
665.800	39.912	0.100
665.900	52.228	0.100
666.000	39.323	0.100
666.100	42.033	0.100
666.200	52.588	0.100
666.300	38.716	0.100
666.400	41.128	0.100
666.500	45.105	0.100
666.600	46.472	0.100
666.700	38.785	0.100
666.800	51.909	0.100
666.900	39.810	0.100
667.000	54.529	0.100
667.100	50.763	0.100
667.200	30.143	0.100
667.300	46.507	0.100
667.400	40.833	0.100
667.500	47.424	0.100
667.600	37.840	0.100
667.700	51.454	0.100
667.800	38.786	0.100
667.900	36.791	0.100
668.000	40.141	0.100
668.100	48.580	0.100
668.200	36.361	0.100
668.300	42.557	0.100
668.400	43.493	0.100
668.500	46.350	0.100
668.600	45.178	0.100
668.700	44.755	0.100
668.800	39.217	0.100
668.900	49.379	0.100
669.000	46.003	0.100
669.100	45.999	0.100
669.200	48.094	0.100
669.300	44.962	0.100
669.400	38.738	0.100
669.500	37.351	0.100
669.600	52.551	0.100
669.700	36.666	0.100
669.800	53.419	0.100
669.900	49.915	0.100
670.000	38.677	0.100
670.100	44.651	0.100
670.200	55.520	0.100
670.300	45.489	0.100
670.400	37.575	0.100
670.500	44.302	0.100
670.600	46.910	0.100
670.700	50.216	0.100
670.800	43.043	0.100
670.900	43.220	0.100
671.000	38.963	0.100
671.100	35.243	0.100
671.200	45.628	0.100
671.300	38.348	0.100
671.400	47.526	0.100
671.500	44.616	0.100
671.600	43.266	0.100
671.700	44.589	0.100
671.800	55.089	0.100
671.900	51.185	0.100
672.000	49.283	0.100
672.100	51.331	0.100
672.200	46.694	0.100
672.300	41.688	0.100
672.400	55.475	0.100
672.500	49.998	0.100
672.600	53.277	0.100
672.700	33.546	0.100
672.800	42.474	0.100
672.900	56.195	0.100
673.000	48.566	0.100
673.100	44.245	0.100
673.200	51.160	0.100
673.300	44.663	0.100
673.400	33.142	0.100
673.500	37.633	0.100
673.600	42.659	0.100
673.700	49.683	0.100
673.800	41.949	0.100
673.900	38.016	0.100
674.000	39.601	0.100
674.100	46.720	0.100
674.200	50.315	0.100
674.300	49.506	0.100
674.400	43.592	0.100
674.500	44.293	0.100
674.600	28.235	0.100
674.700	48.752	0.100
674.800	42.199	0.100
674.900	45.180	0.100
675.000	43.721	0.100
675.100	36.772	0.100
675.200	47.998	0.100
675.300	51.954	0.100
675.400	45.849	0.100
675.500	44.401	0.100
675.600	36.812	0.100
675.700	48.307	0.100
675.800	40.644	0.100
675.900	36.921	0.100
676.000	33.802	0.100
676.100	59.364	0.100
676.200	44.582	0.100
676.300	53.740	0.100
676.400	46.931	0.100
676.500	43.588	0.100
676.600	43.079	0.100
676.700	48.614	0.100
676.800	40.443	0.100
676.900	46.915	0.100
677.000	45.698	0.100
677.100	46.654	0.100
677.200	42.288	0.100
677.300	45.321	0.100
677.400	38.453	0.100
677.500	40.406	0.100
677.600	40.923	0.100
677.700	40.059	0.100
677.800	38.684	0.100
677.900	56.328	0.100
678.000	46.975	0.100
678.100	50.550	0.100
678.200	49.413	0.100
678.300	42.020	0.100
678.400	39.688	0.100
678.500	56.520	0.100
678.600	34.273	0.100
678.700	42.395	0.100
678.800	46.933	0.100
678.900	37.229	0.100
679.000	48.445	0.100
679.100	48.853	0.100
679.200	45.056	0.100
679.300	45.226	0.100
679.400	45.914	0.100
679.500	40.215	0.100
679.600	35.495	0.100
679.700	45.546	0.100
679.800	49.767	0.100
679.900	55.510	0.100
680.000	47.781	0.100
680.100	43.083	0.100
680.200	38.765	0.100
680.300	43.235	0.100
680.400	49.733	0.100
680.500	48.855	0.100
680.600	46.591	0.100
680.700	41.966	0.100
680.800	50.896	0.100
680.900	41.847	0.100
681.000	43.681	0.100
681.100	49.322	0.100
681.200	30.818	0.100
681.300	46.320	0.100
681.400	32.228	0.100
681.500	61.346	0.100
681.600	46.859	0.100
681.700	49.726	0.100
681.800	39.032	0.100
681.900	38.160	0.100
682.000	38.856	0.100
682.100	41.114	0.100
682.200	45.931	0.100
682.300	45.201	0.100
682.400	39.406	0.100
682.500	39.546	0.100
682.600	52.700	0.100
682.700	44.734	0.100
682.800	51.308	0.100
682.900	38.533	0.100
683.000	37.679	0.100
683.100	41.845	0.100
683.200	46.743	0.100
683.300	49.166	0.100
683.400	44.052	0.100
683.500	31.598	0.100
683.600	45.297	0.100
683.700	46.158	0.100
683.800	50.799	0.100
683.900	34.055	0.100
684.000	39.399	0.100
684.100	34.440	0.100
684.200	51.973	0.100
684.300	46.019	0.100
684.400	48.637	0.100
684.500	31.806	0.100
684.600	36.101	0.100
684.700	43.933	0.100
684.800	45.450	0.100
684.900	44.283	0.100
685.000	29.023	0.100
685.100	44.409	0.100
685.200	46.785	0.100
685.300	44.575	0.100
685.400	51.216	0.100
685.500	53.743	0.100
685.600	46.647	0.100
685.700	38.158	0.100
685.800	42.368	0.100
685.900	46.494	0.100
686.000	37.476	0.100
686.100	46.701	0.100
686.200	46.948	0.100
686.300	44.421	0.100
686.400	48.610	0.100
686.500	42.110	0.100
686.600	38.800	0.100
686.700	48.006	0.100
686.800	42.165	0.100
686.900	34.161	0.100
687.000	35.262	0.100
687.100	44.219	0.100
687.200	39.920	0.100
687.300	44.793	0.100
687.400	43.574	0.100
687.500	53.728	0.100
687.600	40.972	0.100
687.700	40.118	0.100
687.800	45.969	0.100
687.900	35.817	0.100
688.000	47.117	0.100
688.100	43.395	0.100
688.200	53.783	0.100
688.300	43.216	0.100
688.400	39.976	0.100
688.500	55.655	0.100
688.600	34.631	0.100
688.700	40.255	0.100
688.800	44.116	0.100
688.900	45.816	0.100
689.000	38.063	0.100
689.100	44.223	0.100
689.200	41.197	0.100
689.300	47.764	0.100
689.400	46.159	0.100
689.500	41.945	0.100
689.600	38.392	0.100
689.700	42.964	0.100
689.800	38.207	0.100
689.900	43.945	0.100
690.000	49.730	0.100
690.100	42.444	0.100
690.200	37.257	0.100
690.300	37.369	0.100
690.400	49.334	0.100
690.500	41.127	0.100
690.600	44.109	0.100
690.700	39.666	0.100
690.800	37.655	0.100
690.900	26.527	0.100
691.000	35.823	0.100
691.100	41.590	0.100
691.200	39.624	0.100
691.300	34.011	0.100
691.400	27.289	0.100
691.500	34.972	0.100
691.600	26.539	0.100
691.700	21.189	0.100
691.800	34.398	0.100
691.900	24.751	0.100
692.000	22.673	0.100
692.100	1.802	0.100
692.200	21.680	0.100
692.300	23.444	0.100
692.400	21.963	0.100
692.500	27.802	0.100
692.600	14.549	0.100
692.700	9.146	0.100
692.800	13.528	0.100
692.900	11.850	0.100
693.000	9.088	0.100
693.100	10.413	0.100
693.200	7.912	0.100
693.300	12.324	0.100
693.400	7.631	0.100
693.500	4.592	0.100
693.600	3.012	0.100
693.700	9.223	0.100
693.800	7.295	0.100
693.900	4.106	0.100
694.000	1.130	0.100
694.100	6.732	0.100
694.200	-12.507	0.100
694.300	-1.575	0.100
694.400	9.063	0.100
694.500	-3.130	0.100
694.600	0.642	0.100
694.700	1.052	0.100
694.800	3.444	0.100
694.900	-4.953	0.100
695.000	8.615	0.100
695.100	-8.062	0.100
695.200	1.151	0.100
695.300	11.989	0.100
695.400	6.491	0.100
695.500	-3.892	0.100
695.600	3.328	0.100
695.700	4.696	0.100
695.800	3.633	0.100
695.900	-1.732	0.100
696.000	2.414	0.100
696.100	8.041	0.100
696.200	3.852	0.100
696.300	0.429	0.100
696.400	-2.793	0.100
696.500	13.218	0.100
696.600	-0.636	0.100
696.700	-3.885	0.100
696.800	9.137	0.100
696.900	-0.525	0.100
697.000	7.240	0.100
697.100	-5.662	0.100
697.200	-7.355	0.100
697.300	-6.217	0.100
697.400	0.827	0.100
697.500	2.774	0.100
697.600	-6.868	0.100
697.700	-5.394	0.100
697.800	-4.064	0.100
697.900	7.062	0.100
698.000	-5.963	0.100
698.100	0.020	0.100
698.200	-0.409	0.100
698.300	6.498	0.100
698.400	1.208	0.100
698.500	-2.928	0.100
698.600	-2.501	0.100
698.700	3.237	0.100
698.800	-0.417	0.100
698.900	5.503	0.100
699.000	-1.788	0.100
699.100	-2.340	0.100
699.200	-1.850	0.100
699.300	-6.618	0.100
699.400	-9.565	0.100
699.500	5.695	0.100
699.600	4.412	0.100
699.700	-12.504	0.100
699.800	-3.524	0.100
699.900	3.902	0.100
700.000	-1.999	0.100
700.100	5.323	0.100
700.200	1.846	0.100
700.300	0.191	0.100
700.400	-2.904	0.100
700.500	-1.547	0.100
700.600	7.407	0.100
700.700	2.395	0.100
700.800	2.436	0.100
700.900	-4.838	0.100
701.000	-2.134	0.100
701.100	-7.079	0.100
701.200	-2.996	0.100
701.300	-5.875	0.100
701.400	0.914	0.100
701.500	-1.780	0.100
701.600	-7.749	0.100
701.700	-5.766	0.100
701.800	0.830	0.100
701.900	9.806	0.100
702.000	-2.301	0.100
702.100	-4.383	0.100
702.200	0.868	0.100
702.300	1.202	0.100
702.400	-0.118	0.100
702.500	10.226	0.100
702.600	1.674	0.100
702.700	-3.122	0.100
702.800	-2.853	0.100
702.900	-14.793	0.100
703.000	12.440	0.100
703.100	-1.982	0.100
703.200	-3.447	0.100
703.300	-0.055	0.100
703.400	2.743	0.100
703.500	-8.012	0.100
703.600	-7.437	0.100
703.700	-5.983	0.100
703.800	-6.732	0.100
703.900	-2.118	0.100
704.000	-10.933	0.100
704.100	-16.250	0.100
704.200	-2.913	0.100
704.300	6.022	0.100
704.400	-0.808	0.100
704.500	0.813	0.100
704.600	-4.639	0.100
704.700	-5.024	0.100
704.800	-10.107	0.100
704.900	1.812	0.100
705.000	-3.861	0.100
705.100	-16.549	0.100
705.200	-1.357	0.100
705.300	-6.725	0.100
705.400	-11.165	0.100
705.500	-15.949	0.100
705.600	-1.630	0.100
705.700	-3.187	0.100
705.800	-10.644	0.100
705.900	-0.121	0.100
706.000	-4.947	0.100
706.100	-9.369	0.100
706.200	6.326	0.100
706.300	-1.028	0.100
706.400	-3.177	0.100
706.500	-5.867	0.100
706.600	6.028	0.100
706.700	1.561	0.100
706.800	1.368	0.100
706.900	-1.911	0.100
707.000	6.300	0.100
707.100	1.025	0.100
707.200	-8.853	0.100
707.300	-4.303	0.100
707.400	-20.423	0.100
707.500	-6.721	0.100
707.600	-14.282	0.100
707.700	-5.785	0.100
707.800	-13.077	0.100
707.900	-9.366	0.100
708.000	-6.397	0.100
708.100	-12.086	0.100
708.200	-8.135	0.100
708.300	-5.658	0.100
708.400	-9.738	0.100
708.500	-9.185	0.100
708.600	-3.222	0.100
708.700	-12.985	0.100
708.800	-0.134	0.100
708.900	-15.431	0.100
709.000	-9.679	0.100
709.100	-9.031	0.100
709.200	-6.784	0.100
709.300	-9.911	0.100
709.400	-2.235	0.100
709.500	-11.114	0.100
709.600	-10.890	0.100
709.700	-8.573	0.100
709.800	-8.173	0.100
709.900	-6.517	0.100
710.000	-7.707	0.100
710.100	-17.212	0.100
710.200	-10.396	0.100
710.300	0.310	0.100
710.400	-3.170	0.100
710.500	-13.603	0.100
710.600	-11.572	0.100
710.700	-9.127	0.100
710.800	-13.957	0.100
710.900	-3.011	0.100
711.000	-11.257	0.100
711.100	-7.396	0.100
711.200	-4.290	0.100
711.300	-8.409	0.100
711.400	-11.312	0.100
711.500	-5.019	0.100
711.600	-21.522	0.100
711.700	-14.491	0.100
711.800	-7.109	0.100
711.900	-10.676	0.100
712.000	-19.000	0.100
712.100	-6.544	0.100
712.200	-1.372	0.100
712.300	-17.444	0.100
712.400	-8.656	0.100
712.500	-8.717	0.100
712.600	-20.707	0.100
712.700	-15.851	0.100
712.800	-7.327	0.100
712.900	-7.135	0.100
713.000	-17.343	0.100
713.100	-9.458	0.100
713.200	-12.541	0.100
713.300	-10.702	0.100
713.400	-14.720	0.100
713.500	-10.387	0.100
713.600	-10.190	0.100
713.700	-12.682	0.100
713.800	-12.107	0.100
713.900	-11.426	0.100
714.000	-13.710	0.100
714.100	-6.863	0.100
714.200	-1.895	0.100
714.300	-10.320	0.100
714.400	-11.819	0.100
714.500	-24.144	0.100
714.600	-7.670	0.100
714.700	-12.500	0.100
714.800	-8.879	0.100
714.900	-15.939	0.100
715.000	-15.478	0.100
715.100	-20.145	0.100
715.200	-15.821	0.100
715.300	-26.579	0.100
715.400	-18.223	0.100
715.500	-10.129	0.100
715.600	-14.101	0.100
715.700	-12.211	0.100
715.800	-14.969	0.100
715.900	-4.881	0.100
716.000	-6.736	0.100
716.100	-15.216	0.100
716.200	-10.232	0.100
716.300	-17.096	0.100
716.400	-11.447	0.100
716.500	-17.248	0.100
716.600	-11.334	0.100
716.700	-20.670	0.100
716.800	-8.150	0.100
716.900	-9.815	0.100
717.000	-18.398	0.100
717.100	-1.227	0.100
717.200	-11.829	0.100
717.300	-10.797	0.100
717.400	-19.922	0.100
717.500	-26.289	0.100
717.600	-10.399	0.100
717.700	-9.317	0.100
717.800	-13.018	0.100
717.900	-6.186	0.100
718.000	-17.756	0.100
718.100	-16.522	0.100
718.200	-15.522	0.100
718.300	-12.633	0.100
718.400	-28.154	0.100
718.500	-29.175	0.100
718.600	-13.866	0.100
718.700	-8.504	0.100
718.800	-12.705	0.100
718.900	-12.452	0.100
719.000	-15.990	0.100
719.100	-12.823	0.100
719.200	-13.642	0.100
719.300	-14.820	0.100
719.400	-9.694	0.100
719.500	-16.508	0.100
719.600	-14.926	0.100
719.700	-27.320	0.100
719.800	-9.801	0.100
719.900	-22.116	0.100
720.000	-19.334	0.100
720.100	-18.008	0.100
720.200	-27.741	0.100
720.300	-12.935	0.100
720.400	-12.470	0.100
720.500	-13.624	0.100
720.600	-14.929	0.100
720.700	-33.954	0.100
720.800	-27.214	0.100
720.900	-20.281	0.100
721.000	-7.362	0.100
721.100	-7.121	0.100
721.200	-15.118	0.100
721.300	-19.557	0.100
721.400	-24.025	0.100
721.500	-21.965	0.100
721.600	-16.520	0.100
721.700	-17.293	0.100
721.800	-23.153	0.100
721.900	-13.632	0.100
722.000	-16.831	0.100
722.100	-14.957	0.100
722.200	-13.760	0.100
722.300	-19.876	0.100
722.400	-18.559	0.100
722.500	-13.558	0.100
722.600	-9.674	0.100
722.700	-15.644	0.100
722.800	-12.978	0.100
722.900	-15.127	0.100
723.000	-18.901	0.100
723.100	-16.674	0.100
723.200	-16.977	0.100
723.300	-18.256	0.100
723.400	-18.200	0.100
723.500	-20.902	0.100
723.600	-15.499	0.100
723.700	-17.364	0.100
723.800	-20.607	0.100
723.900	-19.574	0.100
724.000	-27.451	0.100
724.100	-12.691	0.100
724.200	-9.592	0.100
724.300	-19.792	0.100
724.400	-16.331	0.100
724.500	-26.623	0.100
724.600	-31.399	0.100
724.700	-30.187	0.100
724.800	-20.506	0.100
724.900	-13.927	0.100
725.000	-19.054	0.100
725.100	-22.206	0.100
725.200	-15.772	0.100
725.300	-7.192	0.100
725.400	-17.097	0.100
725.500	-23.635	0.100
725.600	-25.205	0.100
725.700	-17.649	0.100
725.800	-19.364	0.100
725.900	-11.512	0.100
726.000	-21.168	0.100
726.100	-27.677	0.100
726.200	-29.063	0.100
726.300	-15.854	0.100
726.400	-23.673	0.100
726.500	-18.905	0.100
726.600	-23.215	0.100
726.700	-20.120	0.100
726.800	-25.260	0.100
726.900	-22.008	0.100
727.000	-27.665	0.100
727.100	-13.572	0.100
727.200	-15.371	0.100
727.300	-13.401	0.100
727.400	-18.611	0.100
727.500	-21.016	0.100
727.600	-14.486	0.100
727.700	-8.988	0.100
727.800	-30.147	0.100
727.900	-20.659	0.100
728.000	-17.136	0.100
728.100	-21.908	0.100
728.200	-15.346	0.100
728.300	-27.158	0.100
728.400	-22.611	0.100
728.500	-21.981	0.100
728.600	-24.048	0.100
728.700	-19.454	0.100
728.800	-22.284	0.100
728.900	-21.753	0.100
729.000	-33.308	0.100
729.100	-20.641	0.100
729.200	-16.391	0.100
729.300	-12.877	0.100
729.400	-28.500	0.100
729.500	-15.954	0.100
729.600	-18.260	0.100
729.700	-10.803	0.100
729.800	-18.767	0.100
729.900	-22.598	0.100
730.000	-27.151	0.100
730.100	-26.834	0.100
730.200	-23.118	0.100
730.300	-21.468	0.100
730.400	-18.453	0.100
730.500	-23.365	0.100
730.600	-28.561	0.100
730.700	-4.606	0.100
730.800	-15.573	0.100
730.900	-26.842	0.100
731.000	-27.056	0.100
731.100	-19.748	0.100
731.200	-16.291	0.100
731.300	-22.122	0.100
731.400	-22.683	0.100
731.500	-25.175	0.100
731.600	-20.330	0.100
731.700	-10.493	0.100
731.800	-21.161	0.100
731.900	-20.063	0.100
732.000	-14.499	0.100
732.100	-31.529	0.100
732.200	-14.998	0.100
732.300	-12.678	0.100
732.400	-29.606	0.100
732.500	-12.295	0.100
732.600	-27.881	0.100
732.700	-24.963	0.100
732.800	-18.006	0.100
732.900	-22.913	0.100
733.000	-12.778	0.100
733.100	-19.252	0.100
733.200	-15.895	0.100
733.300	-18.751	0.100
733.400	-15.262	0.100
733.500	-25.250	0.100
733.600	-28.806	0.100
733.700	-19.044	0.100
733.800	-11.541	0.100
733.900	-27.439	0.100
734.000	-23.756	0.100
734.100	-18.033	0.100
734.200	-26.618	0.100
734.300	-21.109	0.100
734.400	-23.614	0.100
734.500	-28.612	0.100
734.600	-13.660	0.100
734.700	-21.988	0.100
734.800	-22.725	0.100
734.900	-26.153	0.100
735.000	-36.943	0.100
735.100	-16.826	0.100
735.200	-26.207	0.100
735.300	-30.573	0.100
735.400	-24.992	0.100
735.500	-23.713	0.100
735.600	-28.311	0.100
735.700	-15.474	0.100
735.800	-16.411	0.100
735.900	-15.715	0.100
736.000	-16.118	0.100
736.100	-25.328	0.100
736.200	-27.924	0.100
736.300	-9.361	0.100
736.400	-15.492	0.100
736.500	-14.755	0.100
736.600	-16.760	0.100
736.700	-22.145	0.100
736.800	-23.042	0.100
736.900	-26.207	0.100
737.000	-16.408	0.100
737.100	-31.301	0.100
737.200	-20.544	0.100
737.300	-21.504	0.100
737.400	-22.541	0.100
737.500	-15.492	0.100
737.600	-15.189	0.100
737.700	-14.679	0.100
737.800	-25.284	0.100
737.900	-31.923	0.100
738.000	-18.763	0.100
738.100	-22.557	0.100
738.200	-13.171	0.100
738.300	-17.143	0.100
738.400	-33.610	0.100
738.500	-28.876	0.100
738.600	-33.555	0.100
738.700	-22.147	0.100
738.800	-17.442	0.100
738.900	-20.957	0.100
739.000	-23.834	0.100
739.100	-26.569	0.100
739.200	-23.494	0.100
739.300	-26.280	0.100
739.400	-26.373	0.100
739.500	-14.144	0.100
739.600	-30.901	0.100
739.700	-16.619	0.100
739.800	-20.063	0.100
739.900	-20.554	0.100
740.000	-17.362	0.100
740.100	-16.277	0.100
740.200	-20.551	0.100
740.300	-19.757	0.100
740.400	-17.098	0.100
740.500	-34.546	0.100
740.600	-25.652	0.100
740.700	-20.057	0.100
740.800	-19.956	0.100
740.900	-25.940	0.100
741.000	-20.071	0.100
741.100	-26.734	0.100
741.200	-11.400	0.100
741.300	-18.703	0.100
741.400	-19.138	0.100
741.500	-29.226	0.100
741.600	-25.588	0.100
741.700	-27.145	0.100
741.800	-12.166	0.100
741.900	-16.177	0.100
742.000	-25.632	0.100
742.100	-20.039	0.100
742.200	-14.918	0.100
742.300	-23.403	0.100
742.400	-20.658	0.100
742.500	-28.074	0.100
742.600	-20.176	0.100
742.700	-24.592	0.100
742.800	-19.581	0.100
742.900	-25.341	0.100
743.000	-18.257	0.100
743.100	-22.088	0.100
743.200	-31.499	0.100
743.300	-16.953	0.100
743.400	-13.386	0.100
743.500	-16.604	0.100
743.600	-21.082	0.100
743.700	-24.378	0.100
743.800	-16.963	0.100
743.900	-19.985	0.100
744.000	-22.603	0.100
744.100	-23.846	0.100
744.200	-21.463	0.100
744.300	-21.979	0.100
744.400	-24.538	0.100
744.500	-25.999	0.100
744.600	-25.081	0.100
744.700	-23.178	0.100
744.800	-14.486	0.100
744.900	-13.291	0.100
745.000	-20.707	0.100
745.100	-21.254	0.100
745.200	-20.185	0.100
745.300	-26.000	0.100
745.400	-23.705	0.100
745.500	-22.472	0.100
745.600	-20.405	0.100
745.700	-12.917	0.100
745.800	-15.945	0.100
745.900	-19.750	0.100
746.000	-24.489	0.100
746.100	-21.465	0.100
746.200	-23.549	0.100
746.300	-25.427	0.100
746.400	-18.796	0.100
746.500	-21.073	0.100
746.600	-18.386	0.100
746.700	-24.776	0.100
746.800	-20.497	0.100
746.900	-19.528	0.100
747.000	-15.456	0.100
747.100	-17.339	0.100
747.200	-20.416	0.100
747.300	-24.214	0.100
747.400	-32.573	0.100
747.500	-24.674	0.100
747.600	-11.542	0.100
747.700	-13.105	0.100
747.800	-21.231	0.100
747.900	-29.956	0.100
748.000	-19.284	0.100
748.100	-30.774	0.100
748.200	-34.846	0.100
748.300	-23.651	0.100
748.400	-14.940	0.100
748.500	-15.261	0.100
748.600	-22.706	0.100
748.700	-25.204	0.100
748.800	-28.993	0.100
748.900	-7.520	0.100
749.000	-20.761	0.100
749.100	-21.026	0.100
749.200	-17.041	0.100
749.300	-13.522	0.100
749.400	-23.937	0.100
749.500	-17.271	0.100
749.600	-13.459	0.100
749.700	-22.415	0.100
749.800	-16.568	0.100
749.900	-27.426	0.100
750.000	-23.760	0.100
750.100	-17.684	0.100
750.200	-28.202	0.100
750.300	-25.083	0.100
750.400	-20.644	0.100
750.500	-14.213	0.100
750.600	-10.718	0.100
750.700	-22.012	0.100
750.800	-18.858	0.100
750.900	-26.768	0.100
751.000	-18.342	0.100
751.100	-24.345	0.100
751.200	-19.420	0.100
751.300	-20.163	0.100
751.400	-20.030	0.100
751.500	-28.612	0.100
751.600	-26.978	0.100
751.700	-22.215	0.100
751.800	-14.309	0.100
751.900	-16.918	0.100
752.000	-5.918	0.100
752.100	-29.858	0.100
752.200	-25.344	0.100
752.300	-22.141	0.100
752.400	-22.334	0.100
752.500	-20.383	0.100
752.600	-24.321	0.100
752.700	-15.577	0.100
752.800	-10.992	0.100
752.900	-23.435	0.100
753.000	-22.286	0.100
753.100	-26.835	0.100
753.200	-28.324	0.100
753.300	-15.363	0.100
753.400	-15.573	0.100
753.500	-28.135	0.100
753.600	-26.928	0.100
753.700	-19.660	0.100
753.800	-26.241	0.100
753.900	-25.072	0.100
754.000	-11.160	0.100
754.100	-19.992	0.100
754.200	-18.969	0.100
754.300	-26.184	0.100
754.400	-32.052	0.100
754.500	-15.045	0.100
754.600	-21.108	0.100
754.700	-18.736	0.100
754.800	-20.925	0.100
754.900	-22.242	0.100
755.000	-15.859	0.100
755.100	-21.824	0.100
755.200	-26.512	0.100
755.300	-26.821	0.100
755.400	-12.058	0.100
755.500	-12.661	0.100
755.600	-27.887	0.100
755.700	-16.169	0.100
755.800	-25.482	0.100
755.900	-17.343	0.100
756.000	-20.285	0.100
756.100	-23.559	0.100
756.200	-22.274	0.100
756.300	-29.711	0.100
756.400	-17.883	0.100
756.500	-25.450	0.100
756.600	-9.767	0.100
756.700	-11.629	0.100
756.800	-14.498	0.100
756.900	-20.675	0.100
757.000	-17.686	0.100
757.100	-26.497	0.100
757.200	-24.819	0.100
757.300	-30.150	0.100
757.400	-23.875	0.100
757.500	-23.400	0.100
757.600	-17.298	0.100
757.700	-15.993	0.100
757.800	-27.159	0.100
757.900	-18.954	0.100
758.000	-17.002	0.100
758.100	-21.872	0.100
758.200	-24.238	0.100
758.300	-13.513	0.100
758.400	-23.394	0.100
758.500	-24.249	0.100
758.600	-28.272	0.100
758.700	-17.566	0.100
758.800	-22.207	0.100
758.900	-13.439	0.100
759.000	-12.479	0.100
759.100	-20.985	0.100
759.200	-18.146	0.100
759.300	-21.193	0.100
759.400	-21.257	0.100
759.500	-27.374	0.100
759.600	-23.046	0.100
759.700	-23.855	0.100
759.800	-18.891	0.100
759.900	-17.820	0.100
760.000	-22.860	0.100
760.100	-23.004	0.100
760.200	-18.800	0.100
760.300	-9.634	0.100
760.400	-9.244	0.100
760.500	-31.621	0.100
760.600	-22.855	0.100
760.700	-26.492	0.100
760.800	-13.780	0.100
760.900	-21.661	0.100
761.000	-24.237	0.100
761.100	-18.324	0.100
761.200	-22.955	0.100
761.300	-31.178	0.100
761.400	-30.677	0.100
761.500	-17.877	0.100
761.600	-13.385	0.100
761.700	-11.537	0.100
761.800	-18.035	0.100
761.900	-16.008	0.100
762.000	-16.188	0.100
762.100	-24.206	0.100
762.200	-21.604	0.100
762.300	-18.604	0.100
762.400	-13.511	0.100
762.500	-15.186	0.100
762.600	-18.242	0.100
762.700	-20.509	0.100
762.800	-16.291	0.100
762.900	-16.792	0.100
763.000	-22.782	0.100
763.100	-20.128	0.100
763.200	-24.294	0.100
763.300	-14.036	0.100
763.400	-11.006	0.100
763.500	-21.472	0.100
763.600	-13.787	0.100
763.700	-17.705	0.100
763.800	-11.009	0.100
763.900	-16.822	0.100
764.000	-24.366	0.100
764.100	-28.172	0.100
764.200	-26.701	0.100
764.300	-17.309	0.100
764.400	-15.822	0.100
764.500	-22.171	0.100
764.600	-23.813	0.100
764.700	-23.973	0.100
764.800	-12.854	0.100
764.900	-24.415	0.100
765.000	-31.033	0.100
765.100	-24.434	0.100
765.200	-20.290	0.100
765.300	-6.371	0.100
765.400	-28.688	0.100
765.500	-19.438	0.100
765.600	-21.663	0.100
765.700	-22.304	0.100
765.800	-17.944	0.100
765.900	-19.988	0.100
766.000	-24.575	0.100
766.100	-28.622	0.100
766.200	-10.800	0.100
766.300	-11.513	0.100
766.400	-13.694	0.100
766.500	-17.355	0.100
766.600	-23.918	0.100
766.700	-14.373	0.100
766.800	-10.260	0.100
766.900	-20.769	0.100
767.000	-18.472	0.100
767.100	-17.827	0.100
767.200	-27.711	0.100
767.300	-7.947	0.100
767.400	-19.231	0.100
767.500	-29.209	0.100
767.600	-13.128	0.100
767.700	-10.867	0.100
767.800	-19.907	0.100
767.900	-23.971	0.100
768.000	-25.165	0.100
768.100	-24.873	0.100
768.200	-15.419	0.100
768.300	-20.924	0.100
768.400	-23.051	0.100
768.500	-22.939	0.100
768.600	-20.476	0.100
768.700	-20.001	0.100
768.800	-16.419	0.100
768.900	-16.944	0.100
769.000	-8.879	0.100
769.100	-19.847	0.100
769.200	-22.637	0.100
769.300	-19.752	0.100
769.400	-17.525	0.100
769.500	-20.435	0.100
769.600	-15.018	0.100
769.700	-18.290	0.100
769.800	-20.581	0.100
769.900	-23.956	0.100
770.000	-16.612	0.100
770.100	-14.580	0.100
770.200	-10.664	0.100
770.300	-26.165	0.100
770.400	-25.900	0.100
770.500	-15.522	0.100
770.600	-5.402	0.100
770.700	-23.996	0.100
770.800	-18.334	0.100
770.900	-18.349	0.100
771.000	-17.667	0.100
771.100	-23.130	0.100
771.200	-17.645	0.100
771.300	-11.102	0.100
771.400	-17.387	0.100
771.500	-16.976	0.100
771.600	-11.782	0.100
771.700	-16.876	0.100
771.800	-31.972	0.100
771.900	-14.551	0.100
772.000	-11.211	0.100
772.100	-15.332	0.100
772.200	-29.134	0.100
772.300	-21.410	0.100
772.400	-21.486	0.100
772.500	-17.995	0.100
772.600	-18.586	0.100
772.700	-14.980	0.100
772.800	-17.904	0.100
772.900	-19.163	0.100
773.000	-12.711	0.100
773.100	-17.302	0.100
773.200	-17.315	0.100
773.300	-22.291	0.100
773.400	-29.759	0.100
773.500	-24.914	0.100
773.600	-13.768	0.100
773.700	-17.611	0.100
773.800	-19.897	0.100
773.900	-14.884	0.100
774.000	-20.600	0.100
774.100	-20.332	0.100
774.200	-18.936	0.100
774.300	-23.202	0.100
774.400	-13.775	0.100
774.500	-14.493	0.100
774.600	-23.634	0.100
774.700	-10.575	0.100
774.800	-18.883	0.100
774.900	-27.329	0.100
775.000	-29.394	0.100
775.100	-15.564	0.100
775.200	-17.739	0.100
775.300	-11.468	0.100
775.400	-7.471	0.100
775.500	-18.579	0.100
775.600	-22.537	0.100
775.700	-16.451	0.100
775.800	-19.075	0.100
775.900	-26.013	0.100
776.000	-17.466	0.100
776.100	-15.596	0.100
776.200	-15.566	0.100
776.300	-14.419	0.100
776.400	-22.080	0.100
776.500	-19.120	0.100
776.600	-18.888	0.100
776.700	-12.902	0.100
776.800	-18.480	0.100
776.900	-15.667	0.100
777.000	-11.476	0.100
777.100	-10.186	0.100
777.200	-8.860	0.100
777.300	-19.913	0.100
777.400	-19.050	0.100
777.500	-23.382	0.100
777.600	-36.602	0.100
777.700	-21.676	0.100
777.800	-17.446	0.100
777.900	-17.702	0.100
778.000	-19.781	0.100
778.100	-7.860	0.100
778.200	-13.598	0.100
778.300	-11.024	0.100
778.400	-16.437	0.100
778.500	-16.816	0.100
778.600	-13.683	0.100
778.700	-11.320	0.100
778.800	-19.264	0.100
778.900	-20.963	0.100
779.000	-24.475	0.100
779.100	-24.513	0.100
779.200	-24.865	0.100
779.300	-12.460	0.100
779.400	-9.971	0.100
779.500	-25.751	0.100
779.600	-18.896	0.100
779.700	-16.325	0.100
779.800	-22.886	0.100
779.900	-13.311	0.100
780.000	-12.911	0.100
780.100	-29.748	0.100
780.200	-24.152	0.100
780.300	-8.695	0.100
780.400	-17.649	0.100
780.500	-13.316	0.100
780.600	-11.253	0.100
780.700	-15.463	0.100
780.800	-15.391	0.100
780.900	-8.394	0.100
781.000	-16.019	0.100
781.100	2.184	0.100
781.200	-13.493	0.100
781.300	-10.049	0.100
781.400	-7.437	0.100
781.500	9.057	0.100
781.600	-13.820	0.100
781.700	-5.236	0.100
781.800	7.770	0.100
781.900	15.510	0.100
782.000	7.627	0.100
782.100	5.387	0.100
782.200	12.873	0.100
782.300	2.085	0.100
782.400	4.901	0.100
782.500	14.000	0.100
782.600	6.031	0.100
782.700	6.756	0.100
782.800	8.963	0.100
782.900	12.979	0.100
783.000	12.822	0.100
783.100	14.308	0.100
783.200	9.872	0.100
783.300	11.909	0.100
783.400	12.777	0.100
783.500	16.080	0.100
783.600	16.153	0.100
783.700	9.565	0.100
783.800	17.167	0.100
783.900	24.302	0.100
784.000	11.425	0.100
784.100	11.024	0.100
784.200	22.906	0.100
784.300	16.569	0.100
784.400	18.139	0.100
784.500	12.632	0.100
784.600	11.935	0.100
784.700	19.084	0.100
784.800	13.558	0.100
784.900	22.501	0.100
785.000	24.085	0.100
785.100	20.532	0.100
785.200	10.871	0.100
785.300	15.880	0.100
785.400	20.988	0.100
785.500	24.675	0.100
785.600	19.776	0.100
785.700	18.315	0.100
785.800	17.745	0.100
785.900	14.858	0.100
786.000	16.376	0.100
786.100	16.251	0.100
786.200	15.612	0.100
786.300	9.858	0.100
786.400	9.118	0.100
786.500	18.628	0.100
786.600	23.216	0.100
786.700	36.820	0.100
786.800	11.976	0.100
786.900	30.247	0.100
787.000	19.998	0.100
787.100	8.571	0.100
787.200	13.505	0.100
787.300	21.449	0.100
787.400	17.317	0.100
787.500	20.618	0.100
787.600	17.585	0.100
787.700	12.412	0.100
787.800	18.484	0.100
787.900	7.995	0.100
788.000	13.028	0.100
788.100	6.495	0.100
788.200	15.983	0.100
788.300	10.380	0.100
788.400	21.167	0.100
788.500	13.540	0.100
788.600	12.603	0.100
788.700	20.190	0.100
788.800	9.441	0.100
788.900	7.894	0.100
789.000	16.203	0.100
789.100	17.401	0.100
789.200	14.153	0.100
789.300	17.590	0.100
789.400	18.783	0.100
789.500	16.573	0.100
789.600	14.343	0.100
789.700	10.073	0.100
789.800	12.874	0.100
789.900	14.764	0.100
790.000	14.882	0.100
790.100	4.171	0.100
790.200	21.714	0.100
790.300	15.025	0.100
790.400	12.293	0.100
790.500	9.073	0.100
790.600	7.665	0.100
790.700	17.734	0.100
790.800	20.585	0.100
790.900	9.449	0.100
791.000	21.430	0.100
791.100	19.364	0.100
791.200	19.412	0.100
791.300	3.830	0.100
791.400	10.585	0.099
791.500	17.893	0.099
791.600	8.397	0.099
791.700	22.690	0.099
791.800	27.116	0.099
791.900	8.983	0.099
792.000	9.751	0.099
792.100	15.921	0.099
792.200	11.812	0.099
792.300	12.498	0.099
792.400	12.753	0.099
792.500	19.173	0.099
792.600	22.792	0.099
792.700	5.833	0.099
792.800	13.283	0.099
792.900	19.716	0.099
793.000	16.337	0.099
793.100	21.527	0.099
793.200	30.539	0.099
793.300	16.690	0.099
793.400	4.423	0.099
793.500	23.862	0.099
793.600	16.802	0.099
793.700	9.272	0.099
793.800	26.151	0.099
793.900	17.207	0.099
794.000	12.680	0.099
794.100	23.448	0.099
794.200	19.471	0.099
794.300	15.351	0.099
794.400	18.821	0.099
794.500	13.649	0.099
794.600	21.982	0.099
794.700	18.036	0.099
794.800	15.266	0.099
794.900	13.665	0.099
795.000	16.622	0.099
795.100	14.613	0.099
795.200	24.901	0.099
795.300	23.431	0.099
795.400	14.837	0.099
795.500	26.467	0.099
795.600	19.771	0.099
795.700	20.995	0.099
795.800	10.826	0.099
795.900	18.494	0.099
796.000	25.529	0.099
796.100	26.487	0.099
796.200	13.328	0.099
796.300	20.573	0.099
796.400	23.664	0.099
796.500	16.853	0.099
796.600	21.375	0.099
796.700	16.725	0.099
796.800	24.739	0.099
796.900	16.064	0.099
797.000	13.751	0.099
797.100	19.620	0.099
797.200	15.098	0.099
797.300	13.883	0.099
797.400	20.477	0.099
797.500	21.900	0.099
797.600	22.264	0.099
797.700	14.969	0.099
797.800	21.801	0.099
797.900	19.284	0.099
798.000	12.782	0.099
798.100	27.523	0.099
798.200	20.632	0.099
798.300	20.777	0.099
798.400	20.899	0.099
798.500	22.324	0.099
798.600	19.498	0.099
798.700	9.730	0.099
798.800	26.491	0.099
798.900	22.970	0.099
799.000	16.062	0.099
799.100	21.021	0.099
799.200	18.158	0.099
799.300	24.898	0.099
799.400	21.336	0.099
799.500	25.423	0.099
799.600	14.636	0.099
799.700	21.164	0.099
799.800	21.062	0.099
799.900	30.045	0.099
800.000	28.188	0.099
