time /s	I /nA	E /V
0.100	-23.946	0.100
0.200	-10.608	0.100
0.300	-8.797	0.100
0.400	-25.314	0.100
0.500	-4.107	0.100
0.600	-12.949	0.100
0.700	-11.477	0.100
0.800	-20.275	0.100
0.900	-24.011	0.100
1.000	-28.752	0.100
1.100	-20.212	0.100
1.200	-26.257	0.100
1.300	-14.182	0.100
1.400	-14.540	0.100
1.500	-9.861	0.100
1.600	-11.747	0.100
1.700	-15.016	0.100
1.800	-15.357	0.100
1.900	-21.546	0.100
2.000	-13.261	0.100
2.100	-26.025	0.100
2.200	-20.187	0.100
2.300	-18.520	0.100
2.400	-15.514	0.100
2.500	-22.134	0.100
2.600	-25.506	0.100
2.700	-28.448	0.100
2.800	-17.495	0.100
2.900	-14.349	0.100
3.000	-22.584	0.100
3.100	-21.355	0.100
3.200	-23.568	0.100
3.300	-15.000	0.100
3.400	-12.913	0.100
3.500	-19.199	0.100
3.600	-20.915	0.100
3.700	-22.530	0.100
3.800	-16.924	0.100
3.900	-14.300	0.100
4.000	-19.017	0.100
4.100	-15.916	0.100
4.200	-14.989	0.100
4.300	-21.649	0.100
4.400	-19.503	0.100
4.500	-13.485	0.100
4.600	-11.551	0.100
4.700	-15.893	0.100
4.800	-18.444	0.100
4.900	-11.765	0.100
5.000	-20.199	0.100
5.100	-19.946	0.100
5.200	-21.138	0.100
5.300	-14.488	0.100
5.400	-28.751	0.100
5.500	-17.314	0.100
5.600	-10.220	0.100
5.700	-16.064	0.100
5.800	-19.388	0.100
5.900	-15.054	0.100
6.000	-19.323	0.100
6.100	-9.963	0.100
6.200	-25.795	0.100
6.300	-28.706	0.100
6.400	-23.380	0.100
6.500	-19.696	0.100
6.600	-14.270	0.100
6.700	-19.970	0.100
6.800	-16.168	0.100
6.900	-14.910	0.100
7.000	-14.128	0.100
7.100	-17.274	0.100
7.200	-21.984	0.100
7.300	-16.611	0.100
7.400	-14.047	0.100
7.500	-16.651	0.100
7.600	-19.862	0.100
7.700	-16.280	0.100
7.800	-12.466	0.100
7.900	-13.562	0.100
8.000	-10.411	0.100
8.100	-25.897	0.100
8.200	-28.653	0.100
8.300	-18.385	0.100
8.400	-7.308	0.100
8.500	-12.149	0.100
8.600	-9.767	0.100
8.700	-16.889	0.100
8.800	-19.978	0.100
8.900	-18.077	0.100
9.000	-10.036	0.100
9.100	-9.011	0.100
9.200	-18.511	0.100
9.300	-12.541	0.100
9.400	-23.866	0.100
9.500	-30.751	0.100
9.600	-16.594	0.100
9.700	-20.785	0.100
9.800	-8.850	0.100
9.900	-7.893	0.100
10.000	-22.136	0.100
10.100	-21.184	0.100
10.200	-16.879	0.100
10.300	-19.524	0.100
10.400	-25.692	0.100
10.500	-24.146	0.100
10.600	-15.655	0.100
10.700	-9.354	0.100
10.800	-23.980	0.100
10.900	-20.494	0.100
11.000	-25.877	0.100
11.100	-7.388	0.100
11.200	-18.303	0.100
11.300	-14.995	0.100
11.400	-10.975	0.100
11.500	-16.189	0.100
11.600	-20.425	0.100
11.700	-23.026	0.100
11.800	-22.511	0.100
11.900	-16.917	0.100
12.000	-11.596	0.100
12.100	-12.043	0.100
12.200	-11.862	0.100
12.300	-23.907	0.100
12.400	-9.976	0.100
12.500	-11.761	0.100
12.600	-17.536	0.100
12.700	-17.483	0.100
12.800	-20.868	0.100
12.900	-14.497	0.100
13.000	-17.034	0.100
13.100	-11.903	0.100
13.200	-7.232	0.100
13.300	-16.491	0.100
13.400	-12.772	0.100
13.500	-23.585	0.100
13.600	-21.404	0.100
13.700	-22.576	0.100
13.800	-10.132	0.100
13.900	-8.754	0.100
14.000	-22.702	0.100
14.100	-24.550	0.100
14.200	-17.017	0.100
14.300	-15.186	0.100
14.400	-7.867	0.100
14.500	-20.354	0.100
14.600	-15.029	0.100
14.700	-13.887	0.100
14.800	-13.592	0.100
14.900	-15.896	0.100
15.000	-16.792	0.100
15.100	-18.770	0.100
15.200	-9.326	0.100
15.300	-8.900	0.100
15.400	-11.138	0.100
15.500	-13.138	0.100
15.600	-19.354	0.100
15.700	-14.463	0.100
15.800	-9.840	0.100
15.900	-11.956	0.100
16.000	-17.579	0.100
16.100	-23.841	0.100
16.200	-21.500	0.100
16.300	-18.167	0.100
16.400	-23.265	0.100
16.500	-9.883	0.100
16.600	-21.988	0.100
16.700	-13.445	0.100
16.800	-9.552	0.100
16.900	-13.867	0.100
17.000	-22.108	0.100
17.100	-20.021	0.100
17.200	-16.340	0.100
17.300	-15.519	0.100
17.400	-21.467	0.100
17.500	-19.652	0.100
17.600	-23.227	0.100
17.700	-16.055	0.100
17.800	-10.830	0.100
17.900	-9.376	0.100
18.000	-23.813	0.100
18.100	-20.089	0.100
18.200	-12.436	0.100
18.300	-20.367	0.100
18.400	-22.865	0.100
18.500	-12.385	0.100
18.600	-15.267	0.100
18.700	-21.053	0.100
18.800	-14.537	0.100
18.900	-29.761	0.100
19.000	-23.397	0.100
19.100	-9.827	0.100
19.200	-16.675	0.100
19.300	-12.065	0.100
19.400	-2.789	0.100
19.500	-15.457	0.100
19.600	-13.385	0.100
19.700	-14.940	0.100
19.800	-14.765	0.100
19.900	-15.831	0.100
20.000	-19.509	0.100
20.100	-14.040	0.100
20.200	-20.652	0.100
20.300	-13.741	0.100
20.400	-12.131	0.100
20.500	-17.245	0.100
20.600	-18.789	0.100
20.700	-14.918	0.100
20.800	-14.905	0.100
20.900	-17.081	0.100
21.000	-11.487	0.100
21.100	-11.072	0.100
21.200	-9.573	0.100
21.300	-15.417	0.100
21.400	-28.400	0.100
21.500	-11.914	0.100
21.600	-10.261	0.100
21.700	-8.531	0.100
21.800	-17.314	0.100
21.900	-9.452	0.100
22.000	-17.597	0.100
22.100	-8.320	0.100
22.200	-15.038	0.100
22.300	-7.447	0.100
22.400	-15.975	0.100
22.500	-21.306	0.100
22.600	-16.537	0.100
22.700	-14.521	0.100
22.800	-16.100	0.100
22.900	-0.426	0.100
23.000	-10.497	0.100
23.100	-18.233	0.100
23.200	-28.177	0.100
23.300	-18.480	0.100
23.400	-7.463	0.100
23.500	-12.639	0.100
23.600	-12.360	0.100
23.700	-15.323	0.100
23.800	-20.929	0.100
23.900	-15.413	0.100
24.000	-28.589	0.100
24.100	-6.102	0.100
24.200	-16.565	0.100
24.300	-19.203	0.100
24.400	-8.839	0.100
24.500	-12.501	0.100
24.600	-23.438	0.100
24.700	-10.815	0.100
24.800	-10.648	0.100
24.900	-15.276	0.100
25.000	-9.364	0.100
25.100	-25.945	0.100
25.200	-12.282	0.100
25.300	-16.342	0.100
25.400	-14.720	0.100
25.500	-18.741	0.100
25.600	-12.207	0.100
25.700	-13.807	0.100
25.800	-11.912	0.100
25.900	-12.214	0.100
26.000	-7.672	0.100
26.100	-18.022	0.100
26.200	-13.003	0.100
26.300	-12.659	0.100
26.400	-12.119	0.100
26.500	-18.789	0.100
26.600	-15.882	0.100
26.700	-24.663	0.100
26.800	-19.694	0.100
26.900	-13.399	0.100
27.000	-11.497	0.100
27.100	-9.945	0.100
27.200	-14.997	0.100
27.300	-11.394	0.100
27.400	-17.726	0.100
27.500	-9.260	0.100
27.600	-12.169	0.100
27.700	-16.183	0.100
27.800	-7.721	0.100
27.900	-4.412	0.100
28.000	-21.782	0.100
28.100	-17.849	0.100
28.200	-5.982	0.100
28.300	-6.388	0.100
28.400	-10.232	0.100
28.500	-15.444	0.100
28.600	-16.154	0.100
28.700	-14.384	0.100
28.800	-13.096	0.100
28.900	-12.757	0.100
29.000	-17.335	0.100
29.100	-17.488	0.100
29.200	-14.144	0.100
29.300	-10.265	0.100
29.400	-15.551	0.100
29.500	-17.259	0.100
29.600	-8.632	0.100
29.700	-9.967	0.100
29.800	-15.179	0.100
29.900	-22.831	0.100
30.000	-11.754	0.100
30.100	-21.145	0.100
30.200	-9.148	0.100
30.300	-14.259	0.100
30.400	-6.210	0.100
30.500	-14.008	0.100
30.600	-15.265	0.100
30.700	-11.657	0.100
30.800	-16.819	0.100
30.900	-12.317	0.100
31.000	-4.517	0.100
31.100	-7.152	0.100
31.200	1.760	0.100
31.300	-3.925	0.100
31.400	-8.358	0.100
31.500	-4.008	0.100
31.600	1.946	0.100
31.700	-7.315	0.100
31.800	-6.414	0.100
31.900	-1.572	0.100
32.000	12.606	0.100
32.100	7.751	0.100
32.200	2.736	0.100
32.300	0.692	0.100
32.400	2.098	0.100
32.500	0.712	0.100
32.600	4.055	0.100
32.700	-3.445	0.100
32.800	6.797	0.100
32.900	0.303	0.100
33.000	3.646	0.100
33.100	2.237	0.100
33.200	9.716	0.100
33.300	9.597	0.100
33.400	6.059	0.100
33.500	8.034	0.100
33.600	13.468	0.100
33.700	11.590	0.100
33.800	13.626	0.100
33.900	14.248	0.100
34.000	9.166	0.100
34.100	11.097	0.100
34.200	14.684	0.100
34.300	8.411	0.100
34.400	10.969	0.100
34.500	10.401	0.100
34.600	13.798	0.100
34.700	10.236	0.100
34.800	10.928	0.100
34.900	11.667	0.100
35.000	7.749	0.100
35.100	18.538	0.100
35.200	14.502	0.100
35.300	7.834	0.100
35.400	14.168	0.100
35.500	7.872	0.100
35.600	20.655	0.100
35.700	13.427	0.100
35.800	17.219	0.100
35.900	32.697	0.100
36.000	11.429	0.100
36.100	9.234	0.100
36.200	15.910	0.100
36.300	12.037	0.100
36.400	-0.618	0.100
36.500	4.487	0.100
36.600	8.503	0.100
36.700	7.106	0.100
36.800	7.069	0.100
36.900	9.327	0.100
37.000	11.475	0.100
37.100	15.114	0.100
37.200	8.090	0.100
37.300	16.700	0.100
37.400	13.493	0.100
37.500	12.587	0.100
37.600	11.962	0.100
37.700	8.071	0.100
37.800	11.836	0.100
37.900	16.928	0.100
38.000	5.817	0.100
38.100	-6.529	0.100
38.200	7.681	0.100
38.300	8.273	0.100
38.400	12.029	0.100
38.500	14.227	0.100
38.600	4.084	0.100
38.700	3.934	0.100
38.800	17.192	0.100
38.900	3.182	0.100
39.000	13.238	0.100
39.100	7.064	0.100
39.200	-4.957	0.100
39.300	13.687	0.100
39.400	11.545	0.100
39.500	14.521	0.100
39.600	8.618	0.100
39.700	13.597	0.100
39.800	13.755	0.100
39.900	8.569	0.100
40.000	10.925	0.100
40.100	12.743	0.100
40.200	10.210	0.100
40.300	15.590	0.100
40.400	21.011	0.100
40.500	-0.062	0.100
40.600	9.492	0.100
40.700	13.404	0.100
40.800	17.841	0.100
40.900	11.442	0.100
41.000	-3.855	0.100
41.100	19.746	0.100
41.200	21.941	0.100
41.300	5.346	0.100
41.400	16.095	0.100
41.500	16.228	0.100
41.600	15.741	0.100
41.700	16.963	0.100
41.800	9.492	0.100
41.900	10.768	0.100
42.000	14.928	0.100
42.100	15.623	0.100
42.200	13.506	0.100
42.300	5.713	0.100
42.400	14.800	0.100
42.500	15.399	0.100
42.600	9.434	0.100
42.700	8.294	0.100
42.800	4.258	0.100
42.900	4.091	0.100
43.000	21.763	0.100
43.100	10.295	0.100
43.200	10.061	0.100
43.300	20.795	0.100
43.400	15.083	0.100
43.500	18.565	0.100
43.600	17.999	0.100
43.700	13.379	0.100
43.800	17.057	0.100
43.900	19.593	0.100
44.000	12.312	0.100
44.100	14.518	0.100
44.200	24.631	0.100
44.300	24.454	0.100
44.400	1.355	0.100
44.500	11.227	0.100
44.600	9.198	0.100
44.700	10.752	0.100
44.800	23.662	0.100
44.900	29.650	0.100
45.000	11.911	0.100
45.100	13.098	0.100
45.200	21.143	0.100
45.300	19.600	0.100
45.400	16.592	0.100
45.500	19.545	0.100
45.600	23.672	0.100
45.700	28.146	0.100
45.800	24.057	0.100
45.900	13.153	0.100
46.000	3.657	0.100
46.100	23.484	0.100
46.200	12.895	0.100
46.300	15.836	0.100
46.400	21.543	0.100
46.500	21.636	0.100
46.600	19.335	0.100
46.700	17.997	0.100
46.800	17.343	0.100
46.900	17.766	0.100
47.000	17.789	0.100
47.100	29.154	0.100
47.200	20.046	0.100
47.300	27.582	0.100
47.400	10.629	0.100
47.500	23.770	0.100
47.600	26.920	0.100
47.700	14.897	0.100
47.800	28.899	0.100
47.900	20.674	0.100
48.000	22.911	0.100
48.100	8.462	0.100
48.200	24.138	0.100
48.300	20.485	0.100
48.400	17.022	0.100
48.500	19.157	0.100
48.600	16.896	0.100
48.700	21.031	0.100
48.800	29.400	0.100
48.900	32.792	0.100
49.000	22.632	0.100
49.100	34.399	0.100
49.200	24.097	0.100
49.300	15.701	0.100
49.400	22.593	0.100
49.500	20.992	0.100
49.600	28.295	0.100
49.700	17.094	0.100
49.800	14.840	0.100
49.900	27.145	0.100
50.000	27.011	0.100
50.100	26.534	0.100
50.200	24.689	0.100
50.300	21.865	0.100
50.400	25.618	0.100
50.500	17.160	0.100
50.600	24.531	0.100
50.700	14.614	0.100
50.800	32.795	0.100
50.900	23.864	0.100
51.000	23.718	0.100
51.100	16.910	0.100
51.200	19.402	0.100
51.300	18.028	0.100
51.400	20.116	0.100
51.500	26.988	0.100
51.600	31.836	0.100
51.700	29.926	0.100
51.800	27.268	0.100
51.900	40.369	0.100
52.000	25.086	0.100
52.100	23.468	0.100
52.200	28.829	0.100
52.300	23.149	0.100
52.400	21.112	0.100
52.500	21.394	0.100
52.600	28.514	0.100
52.700	25.016	0.100
52.800	30.554	0.100
52.900	25.400	0.100
53.000	27.313	0.100
53.100	34.649	0.100
53.200	24.651	0.100
53.300	21.881	0.100
53.400	23.529	0.100
53.500	33.053	0.100
53.600	37.022	0.100
53.700	28.171	0.100
53.800	23.558	0.100
53.900	18.010	0.100
54.000	16.775	0.100
54.100	33.302	0.100
54.200	30.288	0.100
54.300	32.816	0.100
54.400	25.281	0.100
54.500	32.146	0.100
54.600	27.020	0.100
54.700	26.489	0.100
54.800	27.350	0.100
54.900	37.340	0.100
55.000	29.908	0.100
55.100	32.385	0.100
55.200	32.555	0.100
55.300	31.669	0.100
55.400	26.557	0.100
55.500	29.851	0.100
55.600	24.559	0.100
55.700	26.066	0.100
55.800	36.288	0.100
55.900	32.470	0.100
56.000	23.355	0.100
56.100	45.981	0.100
56.200	27.506	0.100
56.300	37.970	0.100
56.400	35.282	0.100
56.500	29.055	0.100
56.600	32.471	0.100
56.700	29.174	0.100
56.800	28.027	0.100
56.900	25.401	0.100
57.000	24.273	0.100
57.100	40.443	0.100
57.200	31.818	0.100
57.300	27.870	0.100
57.400	39.785	0.100
57.500	29.132	0.100
57.600	23.929	0.100
57.700	25.650	0.100
57.800	19.727	0.100
57.900	37.618	0.100
58.000	31.362	0.100
58.100	27.333	0.100
58.200	34.774	0.100
58.300	36.961	0.100
58.400	29.857	0.100
58.500	25.604	0.100
58.600	28.348	0.100
58.700	29.030	0.100
58.800	41.171	0.100
58.900	32.142	0.100
59.000	33.890	0.100
59.100	33.421	0.100
59.200	30.090	0.100
59.300	30.527	0.100
59.400	30.309	0.100
59.500	29.921	0.100
59.600	30.906	0.100
59.700	27.452	0.100
59.800	34.527	0.100
59.900	31.257	0.100
60.000	21.072	0.100
60.100	41.234	0.100
60.200	44.088	0.100
60.300	29.303	0.100
60.400	35.755	0.100
60.500	21.984	0.100
60.600	25.478	0.100
60.700	32.778	0.100
60.800	28.580	0.100
60.900	38.857	0.100
61.000	35.005	0.100
61.100	37.130	0.100
61.200	35.986	0.100
61.300	33.105	0.100
61.400	42.253	0.100
61.500	40.435	0.100
61.600	30.262	0.100
61.700	28.483	0.100
61.800	34.146	0.100
61.900	33.078	0.100
62.000	33.010	0.100
62.100	37.674	0.100
62.200	32.111	0.100
62.300	35.097	0.100
62.400	33.967	0.100
62.500	31.621	0.100
62.600	28.472	0.100
62.700	26.331	0.100
62.800	30.511	0.100
62.900	38.727	0.100
63.000	33.389	0.100
63.100	36.560	0.100
63.200	37.248	0.100
63.300	28.114	0.100
63.400	43.229	0.100
63.500	48.561	0.100
63.600	32.932	0.100
63.700	38.220	0.100
63.800	40.876	0.100
63.900	35.627	0.100
64.000	38.328	0.100
64.100	39.511	0.100
64.200	37.649	0.100
64.300	32.733	0.100
64.400	32.630	0.100
64.500	30.801	0.100
64.600	46.003	0.100
64.700	34.881	0.100
64.800	29.666	0.100
64.900	35.867	0.100
65.000	29.251	0.100
65.100	35.139	0.100
65.200	35.833	0.100
65.300	39.298	0.100
65.400	42.570	0.100
65.500	32.094	0.100
65.600	39.714	0.100
65.700	38.586	0.100
65.800	34.387	0.100
65.900	36.538	0.100
66.000	41.944	0.100
66.100	27.131	0.100
66.200	36.004	0.100
66.300	36.224	0.100
66.400	37.954	0.100
66.500	35.161	0.100
66.600	37.608	0.100
66.700	29.353	0.100
66.800	25.825	0.100
66.900	31.996	0.100
67.000	37.822	0.100
67.100	33.885	0.100
67.200	32.206	0.100
67.300	37.863	0.100
67.400	36.472	0.100
67.500	49.263	0.100
67.600	30.648	0.100
67.700	40.293	0.100
67.800	28.788	0.100
67.900	43.186	0.100
68.000	36.704	0.100
68.100	34.833	0.100
68.200	33.470	0.100
68.300	38.691	0.100
68.400	42.460	0.100
68.500	36.855	0.100
68.600	30.128	0.100
68.700	23.154	0.100
68.800	41.749	0.100
68.900	46.097	0.100
69.000	50.441	0.100
69.100	35.311	0.100
69.200	31.832	0.100
69.300	38.495	0.100
69.400	35.085	0.100
69.500	38.777	0.100
69.600	45.812	0.100
69.700	36.770	0.100
69.800	36.172	0.100
69.900	40.041	0.100
70.000	37.155	0.100
70.100	33.326	0.100
70.200	44.757	0.100
70.300	35.397	0.100
70.400	38.984	0.100
70.500	40.394	0.100
70.600	36.256	0.100
70.700	32.927	0.100
70.800	29.733	0.100
70.900	33.869	0.100
71.000	41.713	0.100
71.100	43.569	0.100
71.200	40.802	0.100
71.300	49.013	0.100
71.400	30.841	0.100
71.500	34.750	0.100
71.600	39.284	0.100
71.700	24.250	0.100
71.800	41.036	0.100
71.900	34.290	0.100
72.000	38.161	0.100
72.100	45.745	0.100
72.200	35.818	0.100
72.300	27.525	0.100
72.400	47.200	0.100
72.500	33.863	0.100
72.600	44.699	0.100
72.700	50.383	0.100
72.800	42.789	0.100
72.900	30.449	0.100
73.000	23.766	0.100
73.100	30.351	0.100
73.200	38.684	0.100
73.300	44.971	0.100
73.400	47.335	0.100
73.500	35.272	0.100
73.600	32.829	0.100
73.700	31.280	0.100
73.800	43.958	0.100
73.900	36.016	0.100
74.000	35.408	0.100
74.100	33.859	0.100
74.200	40.271	0.100
74.300	20.918	0.100
74.400	28.820	0.100
74.500	37.753	0.100
74.600	48.804	0.100
74.700	35.819	0.100
74.800	37.178	0.100
74.900	52.170	0.100
75.000	31.056	0.100
75.100	40.838	0.100
75.200	46.467	0.100
75.300	27.963	0.100
75.400	34.038	0.100
75.500	40.527	0.100
75.600	47.507	0.100
75.700	38.495	0.100
75.800	32.494	0.100
75.900	41.022	0.100
76.000	45.628	0.100
76.100	50.961	0.100
76.200	44.177	0.100
76.300	28.086	0.100
76.400	31.455	0.100
76.500	42.398	0.100
76.600	37.648	0.100
76.700	43.058	0.100
76.800	46.277	0.100
76.900	37.717	0.100
77.000	36.652	0.100
77.100	37.351	0.100
77.200	33.632	0.100
77.300	33.033	0.100
77.400	44.675	0.100
77.500	38.162	0.100
77.600	42.037	0.100
77.700	47.594	0.100
77.800	36.358	0.100
77.900	33.969	0.100
78.000	36.903	0.100
78.100	26.635	0.100
78.200	46.908	0.100
78.300	46.541	0.100
78.400	43.576	0.100
78.500	41.931	0.100
78.600	38.769	0.100
78.700	39.208	0.100
78.800	30.784	0.100
78.900	44.580	0.100
79.000	44.984	0.100
79.100	42.691	0.100
79.200	33.439	0.100
79.300	43.456	0.100
79.400	31.824	0.100
79.500	42.602	0.100
79.600	36.672	0.100
79.700	33.360	0.100
79.800	32.834	0.100
79.900	35.578	0.100
80.000	36.373	0.100
80.100	45.833	0.100
80.200	52.500	0.100
80.300	43.437	0.100
80.400	44.154	0.100
80.500	37.793	0.100
80.600	31.908	0.100
80.700	42.069	0.100
80.800	44.098	0.100
80.900	34.311	0.100
81.000	28.514	0.100
81.100	35.482	0.100
81.200	47.761	0.100
81.300	43.605	0.100
81.400	35.765	0.100
81.500	39.126	0.100
81.600	36.015	0.100
81.700	37.622	0.100
81.800	40.101	0.100
81.900	42.425	0.100
82.000	42.665	0.100
82.100	36.836	0.100
82.200	37.213	0.100
82.300	44.570	0.100
82.400	34.956	0.100
82.500	49.025	0.100
82.600	42.171	0.100
82.700	37.639	0.100
82.800	44.096	0.100
82.900	41.043	0.100
83.000	38.398	0.100
83.100	41.012	0.100
83.200	43.478	0.100
83.300	35.849	0.100
83.400	32.801	0.100
83.500	30.691	0.100
83.600	46.835	0.100
83.700	46.628	0.100
83.800	34.378	0.100
83.900	41.921	0.100
84.000	35.591	0.100
84.100	32.174	0.100
84.200	42.762	0.100
84.300	35.957	0.100
84.400	39.597	0.100
84.500	38.496	0.100
84.600	32.400	0.100
84.700	42.072	0.100
84.800	39.253	0.100
84.900	44.528	0.100
85.000	46.287	0.100
85.100	36.582	0.100
85.200	39.666	0.100
85.300	38.589	0.100
85.400	35.621	0.100
85.500	43.822	0.100
85.600	39.764	0.100
85.700	39.389	0.100
85.800	37.771	0.100
85.900	43.137	0.100
86.000	43.309	0.100
86.100	37.054	0.100
86.200	42.208	0.100
86.300	36.325	0.100
86.400	39.553	0.100
86.500	23.226	0.100
86.600	32.193	0.100
86.700	45.799	0.100
86.800	35.546	0.100
86.900	31.246	0.100
87.000	51.714	0.100
87.100	43.590	0.100
87.200	43.725	0.100
87.300	27.454	0.100
87.400	36.173	0.100
87.500	42.679	0.100
87.600	39.395	0.100
87.700	35.985	0.100
87.800	44.597	0.100
87.900	31.922	0.100
88.000	44.342	0.100
88.100	31.601	0.100
88.200	40.810	0.100
88.300	39.111	0.100
88.400	41.285	0.100
88.500	53.594	0.100
88.600	42.148	0.100
88.700	31.411	0.100
88.800	37.874	0.100
88.900	37.519	0.100
89.000	39.282	0.100
89.100	43.730	0.100
89.200	31.257	0.100
89.300	46.651	0.100
89.400	37.767	0.100
89.500	45.009	0.100
89.600	40.739	0.100
89.700	36.824	0.100
89.800	42.775	0.100
89.900	44.298	0.100
90.000	45.862	0.100
90.100	36.745	0.100
90.200	35.877	0.100
90.300	39.790	0.100
90.400	42.289	0.100
90.500	44.033	0.100
90.600	47.733	0.100
90.700	38.280	0.100
90.800	38.977	0.100
90.900	40.913	0.100
91.000	29.379	0.100
91.100	32.941	0.100
91.200	38.393	0.100
91.300	34.517	0.100
91.400	29.173	0.100
91.500	24.272	0.100
91.600	19.762	0.100
91.700	21.259	0.100
91.800	38.735	0.100
91.900	30.436	0.100
92.000	25.593	0.100
92.100	10.727	0.100
92.200	30.870	0.100
92.300	24.683	0.100
92.400	9.452	0.100
92.500	13.905	0.100
92.600	22.712	0.100
92.700	22.138	0.100
92.800	21.382	0.100
92.900	22.338	0.100
93.000	17.332	0.100
93.100	12.661	0.100
93.200	12.984	0.100
93.300	11.148	0.100
93.400	12.681	0.100
93.500	5.824	0.100
93.600	12.505	0.100
93.700	17.512	0.100
93.800	6.062	0.100
93.900	17.617	0.100
94.000	14.969	0.100
94.100	5.135	0.100
94.200	1.581	0.100
94.300	10.770	0.100
94.400	15.250	0.100
94.500	8.104	0.100
94.600	-1.225	0.100
94.700	3.485	0.100
94.800	15.683	0.100
94.900	19.431	0.100
95.000	4.066	0.100
95.100	9.830	0.100
95.200	2.599	0.100
95.300	3.958	0.100
95.400	8.558	0.100
95.500	-1.202	0.100
95.600	2.444	0.100
95.700	7.349	0.100
95.800	6.717	0.100
95.900	6.019	0.100
96.000	4.827	0.100
96.100	9.698	0.100
96.200	13.453	0.100
96.300	5.655	0.100
96.400	1.818	0.100
96.500	9.068	0.100
96.600	8.620	0.100
96.700	17.073	0.100
96.800	7.198	0.100
96.900	1.504	0.100
97.000	11.477	0.100
97.100	7.110	0.100
97.200	0.809	0.100
97.300	9.236	0.100
97.400	2.940	0.100
97.500	7.603	0.100
97.600	5.138	0.100
97.700	6.133	0.100
97.800	-8.624	0.100
97.900	-3.790	0.100
98.000	10.189	0.100
98.100	11.071	0.100
98.200	2.041	0.100
98.300	9.873	0.100
98.400	14.204	0.100
98.500	8.215	0.100
98.600	8.142	0.100
98.700	6.405	0.100
98.800	14.055	0.100
98.900	9.663	0.100
99.000	-4.202	0.100
99.100	9.807	0.100
99.200	7.145	0.100
99.300	-4.862	0.100
99.400	1.883	0.100
99.500	3.117	0.100
99.600	11.382	0.100
99.700	7.114	0.100
99.800	8.386	0.100
99.900	0.367	0.100
100.000	2.228	0.100
100.100	1.085	0.100
100.200	0.507	0.100
100.300	4.697	0.100
100.400	4.522	0.100
100.500	2.860	0.100
100.600	5.558	0.100
100.700	6.399	0.100
100.800	8.153	0.100
100.900	4.641	0.100
101.000	5.889	0.100
101.100	7.294	0.100
101.200	-3.343	0.100
101.300	-7.760	0.100
101.400	5.184	0.100
101.500	5.149	0.100
101.600	3.367	0.100
101.700	-0.478	0.100
101.800	5.693	0.100
101.900	7.284	0.100
102.000	7.534	0.100
102.100	4.553	0.100
102.200	-1.916	0.100
102.300	-2.506	0.100
102.400	11.596	0.100
102.500	16.042	0.100
102.600	0.546	0.100
102.700	6.583	0.100
102.800	2.490	0.100
102.900	3.495	0.100
103.000	-6.421	0.100
103.100	8.936	0.100
103.200	8.218	0.100
103.300	-2.104	0.100
103.400	9.436	0.100
103.500	3.372	0.100
103.600	2.280	0.100
103.700	-0.692	0.100
103.800	3.548	0.100
103.900	-2.630	0.100
104.000	6.333	0.100
104.100	2.019	0.100
104.200	-0.332	0.100
104.300	-5.350	0.100
104.400	-6.331	0.100
104.500	6.581	0.100
104.600	1.769	0.100
104.700	10.593	0.100
104.800	10.401	0.100
104.900	8.548	0.100
105.000	-8.524	0.100
105.100	-6.638	0.100
105.200	9.891	0.100
105.300	2.149	0.100
105.400	-5.268	0.100
105.500	-1.528	0.100
105.600	-4.485	0.100
105.700	-3.438	0.100
105.800	-2.794	0.100
105.900	7.554	0.100
106.000	-2.628	0.100
106.100	8.103	0.100
106.200	21.316	0.100
106.300	2.327	0.100
106.400	-11.824	0.100
106.500	-4.303	0.100
106.600	-6.258	0.100
106.700	4.247	0.100
106.800	1.822	0.100
106.900	2.735	0.100
107.000	0.814	0.100
107.100	-2.075	0.100
107.200	-12.535	0.100
107.300	2.730	0.100
107.400	5.679	0.100
107.500	-4.086	0.100
107.600	1.120	0.100
107.700	3.528	0.100
107.800	-3.223	0.100
107.900	3.577	0.100
108.000	6.222	0.100
108.100	-11.839	0.100
108.200	-3.451	0.100
108.300	-4.512	0.100
108.400	-9.062	0.100
108.500	-5.561	0.100
108.600	-8.264	0.100
108.700	-6.426	0.100
108.800	0.418	0.100
108.900	-13.765	0.100
109.000	8.355	0.100
109.100	-1.524	0.100
109.200	2.653	0.100
109.300	-0.102	0.100
109.400	2.590	0.100
109.500	-3.747	0.100
109.600	-4.620	0.100
109.700	-2.948	0.100
109.800	-1.506	0.100
109.900	-9.256	0.100
110.000	-8.068	0.100
110.100	2.689	0.100
110.200	0.533	0.100
110.300	-10.307	0.100
110.400	-6.937	0.100
110.500	2.703	0.100
110.600	-13.310	0.100
110.700	-1.408	0.100
110.800	2.386	0.100
110.900	-8.980	0.100
111.000	-14.293	0.100
111.100	-4.200	0.100
111.200	10.097	0.100
111.300	-1.278	0.100
111.400	0.679	0.100
111.500	-8.134	0.100
111.600	1.884	0.100
111.700	4.964	0.100
111.800	-12.808	0.100
111.900	-10.511	0.100
112.000	-7.920	0.100
112.100	-10.310	0.100
112.200	-8.052	0.100
112.300	-0.974	0.100
112.400	2.416	0.100
112.500	0.407	0.100
112.600	-3.489	0.100
112.700	-2.760	0.100
112.800	-0.020	0.100
112.900	-8.958	0.100
113.000	1.874	0.100
113.100	2.485	0.100
113.200	-3.700	0.100
113.300	-10.481	0.100
113.400	1.018	0.100
113.500	-5.303	0.100
113.600	2.690	0.100
113.700	-11.247	0.100
113.800	-0.993	0.100
113.900	-9.061	0.100
114.000	-13.424	0.100
114.100	-3.786	0.100
114.200	-17.048	0.100
114.300	-6.486	0.100
114.400	5.194	0.100
114.500	-4.046	0.100
114.600	-1.410	0.100
114.700	-5.955	0.100
114.800	-10.410	0.100
114.900	-6.601	0.100
115.000	-3.092	0.100
115.100	-4.419	0.100
115.200	-1.907	0.100
115.300	-18.298	0.100
115.400	-1.816	0.100
115.500	2.074	0.100
115.600	-6.399	0.100
115.700	-6.839	0.100
115.800	-11.062	0.100
115.900	-2.524	0.100
116.000	-2.640	0.100
116.100	-2.540	0.100
116.200	-7.895	0.100
116.300	-4.909	0.100
116.400	-7.086	0.100
116.500	-6.391	0.100
116.600	-13.116	0.100
116.700	-12.400	0.100
116.800	-6.983	0.100
116.900	0.205	0.100
117.000	-4.163	0.100
117.100	-12.370	0.100
117.200	-13.117	0.100
117.300	5.393	0.100
117.400	-9.465	0.100
117.500	-11.085	0.100
117.600	-2.962	0.100
117.700	-7.471	0.100
117.800	-5.526	0.100
117.900	-12.843	0.100
118.000	-21.280	0.100
118.100	-6.805	0.100
118.200	-11.899	0.100
118.300	-6.034	0.100
118.400	-6.062	0.100
118.500	-8.219	0.100
118.600	2.285	0.100
118.700	-1.985	0.100
118.800	-10.895	0.100
118.900	-2.347	0.100
119.000	-2.488	0.100
119.100	-6.917	0.100
119.200	-10.825	0.100
119.300	-8.145	0.100
119.400	-10.163	0.100
119.500	-5.092	0.100
119.600	-6.166	0.100
119.700	-14.341	0.100
119.800	-5.329	0.100
119.900	-4.807	0.100
120.000	-13.339	0.100
120.100	-12.076	0.100
120.200	-10.662	0.100
120.300	-10.291	0.100
120.400	-9.343	0.100
120.500	-10.470	0.100
120.600	-3.784	0.100
120.700	-22.355	0.100
120.800	-17.649	0.100
120.900	-5.750	0.100
121.000	-7.827	0.100
121.100	-6.351	0.100
121.200	-5.521	0.100
121.300	-15.777	0.100
121.400	-7.972	0.100
121.500	-7.567	0.100
121.600	0.923	0.100
121.700	-6.518	0.100
121.800	-9.931	0.100
121.900	-18.509	0.100
122.000	-9.887	0.100
122.100	-7.332	0.100
122.200	-6.251	0.100
122.300	-10.014	0.100
122.400	-4.121	0.100
122.500	-17.916	0.100
122.600	-17.571	0.100
122.700	-10.149	0.100
122.800	-8.623	0.100
122.900	-7.295	0.100
123.000	-8.101	0.100
123.100	-6.729	0.100
123.200	-8.048	0.100
123.300	-4.440	0.100
123.400	-8.132	0.100
123.500	-19.082	0.100
123.600	-5.859	0.100
123.700	-23.259	0.100
123.800	-7.494	0.100
123.900	-16.839	0.100
124.000	-7.166	0.100
124.100	-12.123	0.100
124.200	-5.635	0.100
124.300	-13.825	0.100
124.400	-7.695	0.100
124.500	-20.310	0.100
124.600	-12.073	0.100
124.700	-4.745	0.100
124.800	-10.758	0.100
124.900	-7.055	0.100
125.000	-18.205	0.100
125.100	-9.964	0.100
125.200	-1.600	0.100
125.300	-2.900	0.100
125.400	-11.295	0.100
125.500	-11.306	0.100
125.600	-9.673	0.100
125.700	-7.996	0.100
125.800	-15.700	0.100
125.900	-9.955	0.100
126.000	-7.295	0.100
126.100	-18.550	0.100
126.200	-6.529	0.100
126.300	-23.213	0.100
126.400	-14.076	0.100
126.500	-12.198	0.100
126.600	-8.515	0.100
126.700	-12.798	0.100
126.800	-14.328	0.100
126.900	-11.186	0.100
127.000	-21.799	0.100
127.100	-7.716	0.100
127.200	-4.154	0.100
127.300	-11.742	0.100
127.400	-11.216	0.100
127.500	-12.394	0.100
127.600	-23.803	0.100
127.700	-8.443	0.100
127.800	-9.817	0.100
127.900	-24.201	0.100
128.000	-18.272	0.100
128.100	-19.961	0.100
128.200	-5.126	0.100
128.300	-14.935	0.100
128.400	-11.251	0.100
128.500	-19.094	0.100
128.600	-9.754	0.100
128.700	-6.314	0.100
128.800	-6.313	0.100
128.900	-17.034	0.100
129.000	-14.334	0.100
129.100	-1.835	0.100
129.200	-9.466	0.100
129.300	-3.234	0.100
129.400	-10.863	0.100
129.500	-17.921	0.100
129.600	-14.131	0.100
129.700	-7.905	0.100
129.800	-15.318	0.100
129.900	-32.753	0.100
130.000	-13.406	0.100
130.100	-7.933	0.100
130.200	-4.813	0.100
130.300	-14.016	0.100
130.400	-12.739	0.100
130.500	-14.591	0.100
130.600	-15.689	0.100
130.700	-12.421	0.100
130.800	-13.274	0.100
130.900	-17.244	0.100
131.000	-20.640	0.100
131.100	-16.477	0.100
131.200	-13.731	0.100
131.300	-11.550	0.100
131.400	-13.052	0.100
131.500	-19.572	0.100
131.600	-16.098	0.100
131.700	-7.851	0.100
131.800	-7.131	0.100
131.900	-23.829	0.100
132.000	-9.651	0.100
132.100	-12.544	0.100
132.200	-12.576	0.100
132.300	-16.744	0.100
132.400	-20.898	0.100
132.500	-5.307	0.100
132.600	-6.882	0.100
132.700	-17.061	0.100
132.800	-22.362	0.100
132.900	-15.412	0.100
133.000	-12.528	0.100
133.100	-9.822	0.100
133.200	-4.279	0.100
133.300	-0.983	0.100
133.400	-15.616	0.100
133.500	-20.366	0.100
133.600	-16.231	0.100
133.700	-13.231	0.100
133.800	-11.362	0.100
133.900	-20.491	0.100
134.000	-14.853	0.100
134.100	-11.464	0.100
134.200	-10.931	0.100
134.300	-28.157	0.100
134.400	-13.595	0.100
134.500	-8.817	0.100
134.600	-18.942	0.100
134.700	-20.408	0.100
134.800	-4.106	0.100
134.900	-13.413	0.100
135.000	-23.219	0.100
135.100	-18.906	0.100
135.200	-11.629	0.100
135.300	-15.024	0.100
135.400	-14.409	0.100
135.500	-15.552	0.100
135.600	-20.250	0.100
135.700	-15.439	0.100
135.800	-16.543	0.100
135.900	-10.964	0.100
136.000	-20.568	0.100
136.100	-7.092	0.100
136.200	-13.390	0.100
136.300	-22.962	0.100
136.400	-19.887	0.100
136.500	-15.209	0.100
136.600	-12.726	0.100
136.700	-10.050	0.100
136.800	-21.578	0.100
136.900	-14.546	0.100
137.000	-19.392	0.100
137.100	-21.329	0.100
137.200	-20.072	0.100
137.300	-15.768	0.100
137.400	-10.612	0.100
137.500	-5.999	0.100
137.600	-13.172	0.100
137.700	-17.891	0.100
137.800	-12.569	0.100
137.900	-12.569	0.100
138.000	-14.804	0.100
138.100	-18.919	0.100
138.200	-11.461	0.100
138.300	-15.920	0.100
138.400	-5.934	0.100
138.500	-5.525	0.100
138.600	-14.091	0.100
138.700	-22.285	0.100
138.800	-6.674	0.100
138.900	-19.757	0.100
139.000	-21.625	0.100
139.100	-11.672	0.100
139.200	-15.093	0.100
139.300	-15.657	0.100
139.400	-12.078	0.100
139.500	-9.828	0.100
139.600	-11.707	0.100
139.700	-16.077	0.100
139.800	-13.890	0.100
139.900	-22.585	0.100
140.000	-14.956	0.100
140.100	-4.527	0.100
140.200	-23.353	0.100
140.300	-18.778	0.100
140.400	-7.225	0.100
140.500	-13.111	0.100
140.600	-25.049	0.100
140.700	-22.969	0.100
140.800	-19.379	0.100
140.900	-8.047	0.100
141.000	-13.989	0.100
141.100	-7.321	0.100
141.200	-15.661	0.100
141.300	-16.671	0.100
141.400	-17.146	0.100
141.500	-23.998	0.100
141.600	-26.248	0.100
141.700	-24.494	0.100
141.800	-13.389	0.100
141.900	-14.946	0.100
142.000	-16.183	0.100
142.100	-16.540	0.100
142.200	-20.071	0.100
142.300	-13.043	0.100
142.400	-15.204	0.100
142.500	-7.874	0.100
142.600	-9.055	0.100
142.700	-9.887	0.100
142.800	-15.059	0.100
142.900	-15.463	0.100
143.000	-9.717	0.100
143.100	-9.029	0.100
143.200	-14.747	0.100
143.300	-17.563	0.100
143.400	-14.277	0.100
143.500	-13.614	0.100
143.600	-8.558	0.100
143.700	-18.176	0.100
143.800	-20.612	0.100
143.900	-19.518	0.100
144.000	-5.250	0.100
144.100	-13.142	0.100
144.200	-17.353	0.100
144.300	-15.345	0.100
144.400	-13.813	0.100
144.500	-17.553	0.100
144.600	-14.798	0.100
144.700	-6.565	0.100
144.800	-20.729	0.100
144.900	-25.408	0.100
145.000	-14.534	0.100
145.100	-9.102	0.100
145.200	-11.029	0.100
145.300	-13.912	0.100
145.400	-19.213	0.100
145.500	-15.670	0.100
145.600	-16.612	0.100
145.700	-17.739	0.100
145.800	-21.032	0.100
145.900	-7.533	0.100
146.000	-13.171	0.100
146.100	-15.067	0.100
146.200	-6.476	0.100
146.300	-25.045	0.100
146.400	-14.026	0.100
146.500	-21.086	0.100
146.600	-8.299	0.100
146.700	-13.392	0.100
146.800	-23.951	0.100
146.900	-9.621	0.100
147.000	-11.248	0.100
147.100	-21.691	0.100
147.200	-17.044	0.100
147.300	-13.665	0.100
147.400	-16.734	0.100
147.500	-13.886	0.100
147.600	-19.210	0.100
147.700	-13.218	0.100
147.800	-19.680	0.100
147.900	-10.669	0.100
148.000	-6.849	0.100
148.100	-7.630	0.100
148.200	-15.582	0.100
148.300	-13.024	0.100
148.400	-9.083	0.100
148.500	-21.123	0.100
148.600	-22.007	0.100
148.700	-16.190	0.100
148.800	-21.072	0.100
148.900	-23.865	0.100
149.000	-13.909	0.100
149.100	-12.521	0.100
149.200	-15.118	0.100
149.300	-18.967	0.100
149.400	-15.763	0.100
149.500	-9.046	0.100
149.600	-15.532	0.100
149.700	-24.296	0.100
149.800	-17.215	0.100
149.900	-12.639	0.100
150.000	-21.616	0.100
150.100	-13.909	0.100
150.200	-5.043	0.100
150.300	-11.210	0.100
150.400	-5.171	0.100
150.500	-12.060	0.100
150.600	-16.466	0.100
150.700	-20.889	0.100
150.800	-17.828	0.100
150.900	-25.109	0.100
151.000	-4.629	0.100
151.100	-14.248	0.100
151.200	-11.103	0.100
151.300	-4.530	0.100
151.400	-18.875	0.100
151.500	-8.686	0.100
151.600	-22.070	0.100
151.700	-11.065	0.100
151.800	-11.557	0.100
151.900	-23.784	0.100
152.000	-20.487	0.100
152.100	-14.817	0.100
152.200	-15.899	0.100
152.300	-23.420	0.100
152.400	-17.211	0.100
152.500	-28.652	0.100
152.600	-21.260	0.100
152.700	-8.233	0.100
152.800	-17.948	0.100
152.900	-12.879	0.100
153.000	-15.636	0.100
153.100	-13.416	0.100
153.200	-13.024	0.100
153.300	-22.349	0.100
153.400	-19.563	0.100
153.500	-22.868	0.100
153.600	-15.677	0.100
153.700	-8.536	0.100
153.800	-12.630	0.100
153.900	-17.001	0.100
154.000	-10.456	0.100
154.100	-15.468	0.100
154.200	-8.824	0.100
154.300	-16.004	0.100
154.400	-18.454	0.100
154.500	-17.975	0.100
154.600	-18.442	0.100
154.700	-14.913	0.100
154.800	-17.091	0.100
154.900	-18.165	0.100
155.000	-13.410	0.100
155.100	-2.351	0.100
155.200	-13.736	0.100
155.300	-13.083	0.100
155.400	-12.175	0.100
155.500	-22.749	0.100
155.600	-21.362	0.100
155.700	-8.759	0.100
155.800	-11.786	0.100
155.900	-14.640	0.100
156.000	-17.452	0.100
156.100	-20.661	0.100
156.200	-9.152	0.100
156.300	-9.353	0.100
156.400	-20.953	0.100
156.500	-10.984	0.100
156.600	-13.100	0.100
156.700	-9.696	0.100
156.800	-18.430	0.100
156.900	-24.636	0.100
157.000	-20.796	0.100
157.100	-13.318	0.100
157.200	-19.387	0.100
157.300	-17.448	0.100
157.400	-21.948	0.100
157.500	-13.385	0.100
157.600	-13.313	0.100
157.700	-19.887	0.100
157.800	-16.280	0.100
157.900	-17.312	0.100
158.000	-0.820	0.100
158.100	-16.714	0.100
158.200	-9.854	0.100
158.300	-6.782	0.100
158.400	-11.815	0.100
158.500	-20.769	0.100
158.600	-14.185	0.100
158.700	-18.765	0.100
158.800	-9.928	0.100
158.900	-9.521	0.100
159.000	-11.983	0.100
159.100	-18.719	0.100
159.200	-15.143	0.100
159.300	-15.436	0.100
159.400	-15.095	0.100
159.500	-18.453	0.100
159.600	-16.822	0.100
159.700	-8.872	0.100
159.800	-5.244	0.100
159.900	-16.164	0.100
160.000	-13.131	0.100
160.100	-22.233	0.100
160.200	-2.281	0.100
160.300	-11.609	0.100
160.400	-17.124	0.100
160.500	-18.572	0.100
160.600	-21.930	0.100
160.700	-2.578	0.100
160.800	-12.801	0.100
160.900	-6.281	0.100
161.000	-15.268	0.100
161.100	-12.770	0.100
161.200	-25.370	0.100
161.300	-4.961	0.100
161.400	-9.618	0.100
161.500	-15.055	0.100
161.600	-19.314	0.100
161.700	-18.033	0.100
161.800	-14.932	0.100
161.900	-16.291	0.100
162.000	-12.594	0.100
162.100	-14.949	0.100
162.200	-19.563	0.100
162.300	-7.635	0.100
162.400	-16.638	0.100
162.500	-15.106	0.100
162.600	-13.685	0.100
162.700	-11.760	0.100
162.800	-13.845	0.100
162.900	-18.085	0.100
163.000	-18.059	0.100
163.100	-12.904	0.100
163.200	-7.373	0.100
163.300	-15.515	0.100
163.400	-22.729	0.100
163.500	-13.722	0.100
163.600	-5.797	0.100
163.700	-13.391	0.100
163.800	-13.749	0.100
163.900	-15.027	0.100
164.000	-14.030	0.100
164.100	-3.507	0.100
164.200	-3.513	0.100
164.300	-21.676	0.100
164.400	-21.410	0.100
164.500	-20.421	0.100
164.600	-12.245	0.100
164.700	-18.197	0.100
164.800	-2.907	0.100
164.900	-14.116	0.100
165.000	-16.550	0.100
165.100	-17.939	0.100
165.200	-15.501	0.100
165.300	-13.361	0.100
165.400	-15.673	0.100
165.500	-6.345	0.100
165.600	-10.645	0.100
165.700	-9.353	0.100
165.800	-3.857	0.100
165.900	-19.757	0.100
166.000	-15.115	0.100
166.100	-22.718	0.100
166.200	-6.522	0.100
166.300	-11.585	0.100
166.400	-11.347	0.100
166.500	-15.042	0.100
166.600	-23.829	0.100
166.700	-15.387	0.100
166.800	-16.606	0.100
166.900	-11.985	0.100
167.000	-9.738	0.100
167.100	-7.880	0.100
167.200	-8.801	0.100
167.300	-10.338	0.100
167.400	-21.646	0.100
167.500	-19.576	0.100
167.600	-11.691	0.100
167.700	-17.598	0.100
167.800	-14.147	0.100
167.900	-15.735	0.100
168.000	-15.302	0.100
168.100	-22.028	0.100
168.200	-14.542	0.100
168.300	-4.769	0.100
168.400	-14.174	0.100
168.500	-8.990	0.100
168.600	-9.274	0.100
168.700	-16.385	0.100
168.800	-7.068	0.100
168.900	-20.075	0.100
169.000	-18.306	0.100
169.100	-4.633	0.100
169.200	-12.575	0.100
169.300	-16.068	0.100
169.400	-13.715	0.100
169.500	-3.873	0.100
169.600	-14.945	0.100
169.700	-15.198	0.100
169.800	-12.782	0.100
169.900	-6.784	0.100
170.000	-27.497	0.100
170.100	-18.635	0.100
170.200	-14.294	0.100
170.300	-22.020	0.100
170.400	-8.199	0.100
170.500	-10.794	0.100
170.600	-13.248	0.100
170.700	-18.517	0.100
170.800	-26.346	0.100
170.900	-1.174	0.100
171.000	-7.860	0.100
171.100	-14.470	0.100
171.200	-17.563	0.100
171.300	-14.009	0.100
171.400	-8.844	0.100
171.500	-22.494	0.100
171.600	-9.041	0.100
171.700	-17.106	0.100
171.800	-14.294	0.100
171.900	-12.473	0.100
172.000	-6.099	0.100
172.100	-22.391	0.100
172.200	-17.223	0.100
172.300	-11.559	0.100
172.400	-4.961	0.100
172.500	-11.291	0.100
172.600	-9.110	0.100
172.700	-14.110	0.100
172.800	-21.959	0.100
172.900	-12.735	0.100
173.000	-18.153	0.100
173.100	-15.031	0.100
173.200	-11.629	0.100
173.300	-9.192	0.100
173.400	-13.122	0.100
173.500	-12.670	0.100
173.600	-8.885	0.100
173.700	-14.806	0.100
173.800	-16.694	0.100
173.900	-11.943	0.100
174.000	-12.313	0.100
174.100	-13.231	0.100
174.200	-17.982	0.100
174.300	-17.189	0.100
174.400	-20.407	0.100
174.500	-18.484	0.100
174.600	-15.330	0.100
174.700	-11.308	0.100
174.800	-19.197	0.100
174.900	-19.294	0.100
175.000	-6.609	0.100
175.100	-14.270	0.100
175.200	-7.220	0.100
175.300	-7.473	0.100
175.400	-6.175	0.100
175.500	-9.951	0.100
175.600	-10.469	0.100
175.700	-15.615	0.100
175.800	-17.033	0.100
175.900	-18.056	0.100
176.000	-25.163	0.100
176.100	-14.759	0.100
176.200	-11.300	0.100
176.300	-17.580	0.100
176.400	-14.904	0.100
176.500	-11.861	0.100
176.600	-9.043	0.100
176.700	-12.246	0.100
176.800	-12.915	0.100
176.900	-23.261	0.100
177.000	-9.915	0.100
177.100	-20.499	0.100
177.200	-9.603	0.100
177.300	-12.492	0.100
177.400	-12.372	0.100
177.500	-5.327	0.100
177.600	-14.741	0.100
177.700	-9.030	0.100
177.800	-12.959	0.100
177.900	-31.361	0.100
178.000	-11.618	0.100
178.100	-2.798	0.100
178.200	-11.786	0.100
178.300	-11.305	0.100
178.400	-9.881	0.100
178.500	-22.850	0.100
178.600	-10.500	0.100
178.700	2.613	0.100
178.800	-4.469	0.100
178.900	-9.181	0.100
179.000	-14.194	0.100
179.100	-7.102	0.100
179.200	-13.383	0.100
179.300	-16.899	0.100
179.400	-12.841	0.100
179.500	-8.510	0.100
179.600	-11.921	0.100
179.700	-18.201	0.100
179.800	-21.042	0.100
179.900	-20.419	0.100
180.000	-10.012	0.100
180.100	-17.697	0.100
180.200	-8.092	0.100
180.300	-24.789	0.100
180.400	-9.749	0.100
180.500	-10.684	0.100
180.600	-4.126	0.100
180.700	-17.310	0.100
180.800	-21.668	0.100
180.900	-7.739	0.100
181.000	-9.648	0.100
181.100	-12.538	0.100
181.200	-9.854	0.100
181.300	-0.834	0.100
181.400	7.183	0.100
181.500	6.937	0.100
181.600	1.639	0.100
181.700	-8.155	0.100
181.800	-0.023	0.100
181.900	-4.202	0.100
182.000	2.327	0.100
182.100	-0.517	0.100
182.200	10.626	0.100
182.300	7.213	0.100
182.400	12.042	0.100
182.500	3.008	0.100
182.600	4.639	0.100
182.700	1.349	0.100
182.800	-0.916	0.100
182.900	2.585	0.100
183.000	0.851	0.100
183.100	8.806	0.100
183.200	19.271	0.100
183.300	1.126	0.100
183.400	14.223	0.100
183.500	17.152	0.100
183.600	21.704	0.100
183.700	7.102	0.100
183.800	10.940	0.100
183.900	18.452	0.100
184.000	21.508	0.100
184.100	19.424	0.100
184.200	11.925	0.100
184.300	6.656	0.100
184.400	10.425	0.100
184.500	5.821	0.100
184.600	17.455	0.100
184.700	12.047	0.100
184.800	26.636	0.100
184.900	19.612	0.100
185.000	16.217	0.100
185.100	22.878	0.100
185.200	11.915	0.100
185.300	14.713	0.100
185.400	15.810	0.100
185.500	20.894	0.100
185.600	16.032	0.100
185.700	10.490	0.100
185.800	11.117	0.100
185.900	22.143	0.100
186.000	14.199	0.100
186.100	16.425	0.100
186.200	14.216	0.100
186.300	18.818	0.100
186.400	22.818	0.100
186.500	16.245	0.100
186.600	14.902	0.100
186.700	19.723	0.100
186.800	10.103	0.100
186.900	15.245	0.100
187.000	8.212	0.100
187.100	22.843	0.100
187.200	12.323	0.100
187.300	8.747	0.100
187.400	9.055	0.100
187.500	13.728	0.100
187.600	8.355	0.100
187.700	16.067	0.100
187.800	19.296	0.100
187.900	21.553	0.100
188.000	20.062	0.100
188.100	10.685	0.100
188.200	13.302	0.100
188.300	6.103	0.100
188.400	4.633	0.100
188.500	17.609	0.100
188.600	20.928	0.100
188.700	16.245	0.100
188.800	20.280	0.100
188.900	13.327	0.100
189.000	16.325	0.100
189.100	22.825	0.100
189.200	11.552	0.100
189.300	18.540	0.100
189.400	14.016	0.100
189.500	12.957	0.100
189.600	10.575	0.100
189.700	19.329	0.100
189.800	19.111	0.100
189.900	15.816	0.100
190.000	12.755	0.100
190.100	23.212	0.100
190.200	21.330	0.100
190.300	16.733	0.100
190.400	24.382	0.100
190.500	21.432	0.100
190.600	19.538	0.100
190.700	22.384	0.100
190.800	9.822	0.100
190.900	6.838	0.100
191.000	12.770	0.100
191.100	3.776	0.100
191.200	10.139	0.100
191.300	7.569	0.100
191.400	19.289	0.100
191.500	20.433	0.100
191.600	20.020	0.100
191.700	14.080	0.100
191.800	25.840	0.100
191.900	21.746	0.100
192.000	6.566	0.100
192.100	8.166	0.100
192.200	15.584	0.100
192.300	10.179	0.100
192.400	23.676	0.100
192.500	12.058	0.100
192.600	28.224	0.100
192.700	31.300	0.100
192.800	13.923	0.100
192.900	14.225	0.100
193.000	11.383	0.100
193.100	26.061	0.100
193.200	19.721	0.100
193.300	25.687	0.100
193.400	17.496	0.100
193.500	20.764	0.100
193.600	12.702	0.100
193.700	24.733	0.100
193.800	21.187	0.100
193.900	14.330	0.100
194.000	12.409	0.100
194.100	18.283	0.100
194.200	12.878	0.100
194.300	17.036	0.100
194.400	28.152	0.100
194.500	15.443	0.100
194.600	25.798	0.100
194.700	22.116	0.100
194.800	14.156	0.100
194.900	22.223	0.100
195.000	34.136	0.100
195.100	26.221	0.100
195.200	12.243	0.100
195.300	19.233	0.100
195.400	13.026	0.100
195.500	13.311	0.100
195.600	18.854	0.100
195.700	14.812	0.100
195.800	27.368	0.100
195.900	21.444	0.100
196.000	23.856	0.100
196.100	26.138	0.100
196.200	16.056	0.100
196.300	23.936	0.100
196.400	22.931	0.100
196.500	22.917	0.100
196.600	23.190	0.100
196.700	21.447	0.100
196.800	31.197	0.100
196.900	26.002	0.100
197.000	24.648	0.100
197.100	20.766	0.100
197.200	21.742	0.100
197.300	20.867	0.100
197.400	23.274	0.100
197.500	19.919	0.100
197.600	15.636	0.100
197.700	11.888	0.100
197.800	26.062	0.100
197.900	34.694	0.100
198.000	19.400	0.100
198.100	8.738	0.100
198.200	22.821	0.100
198.300	23.199	0.100
198.400	23.450	0.100
198.500	25.321	0.100
198.600	28.052	0.100
198.700	30.190	0.100
198.800	29.717	0.100
198.900	30.798	0.100
199.000	22.111	0.100
199.100	16.756	0.100
199.200	29.127	0.100
199.300	30.038	0.100
199.400	27.813	0.100
199.500	24.943	0.100
199.600	31.456	0.100
199.700	30.401	0.100
199.800	27.761	0.100
199.900	31.359	0.100
200.000	32.513	0.100
200.100	10.028	0.100
200.200	34.002	0.100
200.300	26.410	0.100
200.400	29.418	0.100
200.500	31.891	0.100
200.600	22.430	0.100
200.700	35.853	0.100
200.800	32.071	0.100
200.900	30.210	0.100
201.000	18.051	0.100
201.100	29.186	0.100
201.200	39.423	0.100
201.300	38.767	0.100
201.400	23.126	0.100
201.500	25.830	0.100
201.600	27.886	0.100
201.700	32.750	0.100
201.800	19.609	0.100
201.900	35.673	0.100
202.000	23.686	0.100
202.100	26.479	0.100
202.200	27.744	0.100
202.300	24.183	0.100
202.400	27.794	0.100
202.500	36.842	0.100
202.600	38.864	0.100
202.700	26.814	0.100
202.800	39.487	0.100
202.900	31.896	0.100
203.000	28.433	0.100
203.100	16.764	0.100
203.200	29.789	0.100
203.300	31.336	0.100
203.400	45.404	0.100
203.500	34.937	0.100
203.600	37.707	0.100
203.700	34.309	0.100
203.800	28.286	0.100
203.900	34.584	0.100
204.000	25.719	0.100
204.100	44.238	0.100
204.200	26.540	0.100
204.300	32.687	0.100
204.400	40.033	0.100
204.500	39.458	0.100
204.600	40.917	0.100
204.700	20.926	0.100
204.800	29.815	0.100
204.900	26.966	0.100
205.000	20.532	0.100
205.100	32.995	0.100
205.200	41.194	0.100
205.300	43.947	0.100
205.400	31.031	0.100
205.500	37.049	0.100
205.600	28.227	0.100
205.700	34.130	0.100
205.800	35.288	0.100
205.900	25.099	0.100
206.000	30.037	0.100
206.100	44.573	0.100
206.200	32.274	0.100
206.300	39.006	0.100
206.400	37.923	0.100
206.500	33.478	0.100
206.600	35.895	0.100
206.700	43.194	0.100
206.800	42.364	0.100
206.900	40.566	0.100
207.000	32.738	0.100
207.100	36.916	0.100
207.200	38.178	0.100
207.300	37.884	0.100
207.400	37.417	0.100
207.500	44.346	0.100
207.600	40.067	0.100
207.700	36.505	0.100
207.800	22.870	0.100
207.900	43.260	0.100
208.000	42.654	0.100
208.100	46.869	0.100
208.200	35.646	0.100
208.300	36.310	0.100
208.400	36.784	0.100
208.500	39.096	0.100
208.600	34.994	0.100
208.700	36.365	0.100
208.800	30.736	0.100
208.900	30.612	0.100
209.000	44.440	0.100
209.100	47.806	0.100
209.200	48.707	0.100
209.300	45.256	0.100
209.400	37.966	0.100
209.500	26.942	0.100
209.600	32.823	0.100
209.700	46.624	0.100
209.800	25.907	0.100
209.900	35.595	0.100
210.000	47.423	0.100
210.100	47.544	0.100
210.200	45.396	0.100
210.300	38.393	0.100
210.400	47.407	0.100
210.500	39.165	0.100
210.600	45.031	0.100
210.700	42.535	0.100
210.800	43.027	0.100
210.900	47.587	0.100
211.000	45.320	0.100
211.100	43.592	0.100
211.200	43.680	0.100
211.300	36.770	0.100
211.400	38.753	0.100
211.500	44.264	0.100
211.600	38.453	0.100
211.700	40.841	0.100
211.800	38.811	0.100
211.900	42.313	0.100
212.000	42.391	0.100
212.100	43.442	0.100
212.200	41.347	0.100
212.300	44.445	0.100
212.400	42.205	0.100
212.500	31.904	0.100
212.600	42.398	0.100
212.700	44.237	0.100
212.800	40.360	0.100
212.900	39.161	0.100
213.000	41.182	0.100
213.100	46.683	0.100
213.200	43.019	0.100
213.300	44.428	0.100
213.400	47.820	0.100
213.500	47.482	0.100
213.600	45.997	0.100
213.700	40.304	0.100
213.800	37.682	0.100
213.900	37.977	0.100
214.000	45.329	0.100
214.100	43.496	0.100
214.200	41.069	0.100
214.300	43.648	0.100
214.400	45.257	0.100
214.500	30.607	0.100
214.600	34.795	0.100
214.700	30.810	0.100
214.800	53.048	0.100
214.900	44.052	0.100
215.000	39.494	0.100
215.100	34.884	0.100
215.200	37.010	0.100
215.300	29.104	0.100
215.400	44.005	0.100
215.500	50.878	0.100
215.600	50.346	0.100
215.700	44.655	0.100
215.800	46.296	0.100
215.900	54.654	0.100
216.000	37.083	0.100
216.100	48.330	0.100
216.200	46.387	0.100
216.300	32.829	0.100
216.400	44.067	0.100
216.500	43.640	0.100
216.600	44.051	0.100
216.700	49.843	0.100
216.800	39.185	0.100
216.900	43.560	0.100
217.000	38.696	0.100
217.100	41.678	0.100
217.200	44.438	0.100
217.300	41.850	0.100
217.400	42.170	0.100
217.500	35.271	0.100
217.600	36.924	0.100
217.700	46.692	0.100
217.800	53.161	0.100
217.900	42.340	0.100
218.000	49.127	0.100
218.100	46.649	0.100
218.200	38.098	0.100
218.300	36.000	0.100
218.400	32.559	0.100
218.500	26.732	0.100
218.600	37.330	0.100
218.700	48.288	0.100
218.800	42.788	0.100
218.900	47.086	0.100
219.000	47.493	0.100
219.100	46.533	0.100
219.200	43.028	0.100
219.300	49.675	0.100
219.400	52.531	0.100
219.500	41.461	0.100
219.600	42.828	0.100
219.700	46.022	0.100
219.800	46.394	0.100
219.900	38.736	0.100
220.000	45.812	0.100
220.100	43.198	0.100
220.200	43.279	0.100
220.300	46.042	0.100
220.400	36.268	0.100
220.500	40.205	0.100
220.600	36.291	0.100
220.700	34.200	0.100
220.800	43.147	0.100
220.900	49.301	0.100
221.000	49.632	0.100
221.100	47.050	0.100
221.200	44.541	0.100
221.300	41.294	0.100
221.400	50.046	0.100
221.500	45.001	0.100
221.600	40.192	0.100
221.700	39.184	0.100
221.800	41.717	0.100
221.900	42.817	0.100
222.000	43.946	0.100
222.100	41.308	0.100
222.200	31.632	0.100
222.300	50.477	0.100
222.400	38.668	0.100
222.500	47.359	0.100
222.600	41.407	0.100
222.700	56.192	0.100
222.800	50.887	0.100
222.900	42.434	0.100
223.000	32.870	0.100
223.100	35.727	0.100
223.200	38.396	0.100
223.300	45.066	0.100
223.400	48.185	0.100
223.500	44.237	0.100
223.600	43.018	0.100
223.700	44.136	0.100
223.800	46.795	0.100
223.900	48.628	0.100
224.000	47.283	0.100
224.100	49.724	0.100
224.200	50.944	0.100
224.300	43.334	0.100
224.400	45.404	0.100
224.500	40.796	0.100
224.600	42.435	0.100
224.700	42.847	0.100
224.800	37.427	0.100
224.900	46.013	0.100
225.000	51.479	0.100
225.100	46.882	0.100
225.200	42.294	0.100
225.300	42.061	0.100
225.400	51.883	0.100
225.500	48.818	0.100
225.600	37.353	0.100
225.700	47.541	0.100
225.800	58.032	0.100
225.900	46.783	0.100
226.000	38.408	0.100
226.100	40.419	0.100
226.200	31.705	0.100
226.300	48.704	0.100
226.400	48.670	0.100
226.500	53.128	0.100
226.600	47.976	0.100
226.700	44.728	0.100
226.800	42.244	0.100
226.900	46.966	0.100
227.000	33.314	0.100
227.100	40.841	0.100
227.200	52.647	0.100
227.300	48.259	0.100
227.400	38.637	0.100
227.500	45.065	0.100
227.600	50.686	0.100
227.700	41.947	0.100
227.800	43.890	0.100
227.900	45.165	0.100
228.000	37.651	0.100
228.100	43.076	0.100
228.200	40.223	0.100
228.300	43.508	0.100
228.400	39.671	0.100
228.500	49.688	0.100
228.600	42.570	0.100
228.700	44.425	0.100
228.800	34.068	0.100
228.900	51.438	0.100
229.000	45.169	0.100
229.100	46.175	0.100
229.200	48.791	0.100
229.300	48.094	0.100
229.400	41.323	0.100
229.500	35.635	0.100
229.600	52.136	0.100
229.700	42.062	0.100
229.800	43.802	0.100
229.900	50.671	0.100
230.000	40.359	0.100
230.100	35.750	0.100
230.200	37.414	0.100
230.300	45.550	0.100
230.400	45.425	0.100
230.500	53.271	0.100
230.600	39.829	0.100
230.700	49.652	0.100
230.800	53.517	0.100
230.900	49.700	0.100
231.000	46.532	0.100
231.100	43.422	0.100
231.200	33.589	0.100
231.300	35.930	0.100
231.400	51.232	0.100
231.500	40.967	0.100
231.600	38.760	0.100
231.700	45.487	0.100
231.800	45.812	0.100
231.900	41.104	0.100
232.000	45.831	0.100
232.100	37.958	0.100
232.200	39.984	0.100
232.300	38.521	0.100
232.400	42.106	0.100
232.500	53.453	0.100
232.600	45.267	0.100
232.700	41.890	0.100
232.800	48.170	0.100
232.900	41.979	0.100
233.000	42.219	0.100
233.100	36.522	0.100
233.200	30.611	0.100
233.300	36.346	0.100
233.400	45.821	0.100
233.500	43.193	0.100
233.600	45.934	0.100
233.700	41.482	0.100
233.800	50.628	0.100
233.900	49.163	0.100
234.000	50.497	0.100
234.100	42.054	0.100
234.200	49.963	0.100
234.300	50.380	0.100
234.400	43.621	0.100
234.500	46.399	0.100
234.600	52.992	0.100
234.700	47.514	0.100
234.800	48.047	0.100
234.900	42.453	0.100
235.000	36.045	0.100
235.100	41.855	0.100
235.200	42.874	0.100
235.300	45.502	0.100
235.400	38.455	0.100
235.500	40.404	0.100
235.600	49.237	0.100
235.700	36.558	0.100
235.800	44.932	0.100
235.900	46.443	0.100
236.000	44.087	0.100
236.100	47.276	0.100
236.200	50.435	0.100
236.300	31.777	0.100
236.400	39.228	0.100
236.500	40.705	0.100
236.600	47.008	0.100
236.700	50.462	0.100
236.800	56.029	0.100
236.900	49.490	0.100
237.000	45.792	0.100
237.100	36.158	0.100
237.200	47.778	0.100
237.300	49.840	0.100
237.400	39.666	0.100
237.500	34.373	0.100
237.600	47.190	0.100
237.700	38.186	0.100
237.800	47.555	0.100
237.900	51.634	0.100
238.000	45.092	0.100
238.100	34.228	0.100
238.200	41.858	0.100
238.300	34.896	0.100
238.400	41.572	0.100
238.500	48.834	0.100
238.600	45.017	0.100
238.700	43.155	0.100
238.800	47.566	0.100
238.900	42.903	0.100
239.000	43.875	0.100
239.100	52.241	0.100
239.200	40.666	0.100
239.300	36.753	0.100
239.400	44.767	0.100
239.500	37.046	0.100
239.600	52.173	0.100
239.700	49.059	0.100
239.800	43.095	0.100
239.900	35.563	0.100
240.000	41.790	0.100
240.100	38.882	0.100
240.200	41.193	0.100
240.300	48.112	0.100
240.400	45.677	0.100
240.500	45.496	0.100
240.600	45.097	0.100
240.700	36.288	0.100
240.800	29.480	0.100
240.900	27.491	0.100
241.000	43.377	0.100
241.100	40.951	0.100
241.200	38.334	0.100
241.300	31.684	0.100
241.400	26.886	0.100
241.500	30.360	0.100
241.600	28.536	0.100
241.700	29.069	0.100
241.800	32.969	0.100
241.900	24.895	0.100
242.000	18.561	0.100
242.100	13.502	0.100
242.200	36.579	0.100
242.300	37.562	0.100
242.400	32.900	0.100
242.500	24.014	0.100
242.600	20.438	0.100
242.700	9.969	0.100
242.800	24.797	0.100
242.900	19.298	0.100
243.000	17.856	0.100
243.100	9.060	0.100
243.200	14.673	0.100
243.300	11.223	0.100
243.400	4.098	0.100
243.500	12.466	0.100
243.600	20.192	0.100
243.700	14.712	0.100
243.800	16.067	0.100
243.900	-0.442	0.100
244.000	4.225	0.100
244.100	6.180	0.100
244.200	14.735	0.100
244.300	10.050	0.100
244.400	15.074	0.100
244.500	12.044	0.100
244.600	10.722	0.100
244.700	18.450	0.100
244.800	9.789	0.100
244.900	-2.350	0.100
245.000	-0.763	0.100
245.100	1.272	0.100
245.200	12.431	0.100
245.300	5.800	0.100
245.400	10.122	0.100
245.500	2.135	0.100
245.600	4.690	0.100
245.700	14.658	0.100
245.800	19.550	0.100
245.900	6.941	0.100
246.000	10.552	0.100
246.100	-1.269	0.100
246.200	2.553	0.100
246.300	1.061	0.100
246.400	0.853	0.100
246.500	11.141	0.100
246.600	17.498	0.100
246.700	7.982	0.100
246.800	10.931	0.100
246.900	6.131	0.100
247.000	1.857	0.100
247.100	11.984	0.100
247.200	8.023	0.100
247.300	7.905	0.100
247.400	8.574	0.100
247.500	1.859	0.100
247.600	4.604	0.100
247.700	13.815	0.100
247.800	13.153	0.100
247.900	3.735	0.100
248.000	-0.710	0.100
248.100	0.440	0.100
248.200	7.007	0.100
248.300	-3.196	0.100
248.400	8.259	0.100
248.500	6.145	0.100
248.600	-0.836	0.100
248.700	4.881	0.100
248.800	-0.145	0.100
248.900	0.894	0.100
249.000	12.988	0.100
249.100	0.362	0.100
249.200	13.376	0.100
249.300	4.552	0.100
249.400	9.021	0.100
249.500	1.752	0.100
249.600	9.059	0.100
249.700	-5.324	0.100
249.800	4.739	0.100
249.900	6.794	0.100
250.000	10.990	0.100
250.100	11.818	0.100
250.200	5.601	0.100
250.300	0.690	0.100
250.400	10.715	0.100
250.500	-5.412	0.100
250.600	17.857	0.100
250.700	5.046	0.100
250.800	7.434	0.100
250.900	0.558	0.100
251.000	4.612	0.100
251.100	14.415	0.100
251.200	-2.241	0.100
251.300	0.013	0.100
251.400	0.747	0.100
251.500	18.280	0.100
251.600	23.391	0.100
251.700	18.304	0.100
251.800	2.940	0.100
251.900	5.805	0.100
252.000	9.081	0.100
252.100	10.725	0.100
252.200	11.660	0.100
252.300	13.850	0.100
252.400	6.072	0.100
252.500	5.811	0.100
252.600	3.757	0.100
252.700	5.090	0.100
252.800	-0.233	0.100
252.900	14.611	0.100
253.000	10.013	0.100
253.100	13.148	0.100
253.200	8.324	0.100
253.300	13.095	0.100
253.400	13.041	0.100
253.500	12.555	0.100
253.600	14.926	0.100
253.700	8.599	0.100
253.800	-0.800	0.100
253.900	8.506	0.100
254.000	21.859	0.100
254.100	21.343	0.100
254.200	10.619	0.100
254.300	23.972	0.100
254.400	16.284	0.100
254.500	10.442	0.100
254.600	7.182	0.100
254.700	14.447	0.100
254.800	6.756	0.100
254.900	-1.364	0.100
255.000	5.436	0.100
255.100	1.910	0.100
255.200	-4.965	0.100
255.300	-5.785	0.100
255.400	-2.646	0.100
255.500	-4.204	0.100
255.600	-7.197	0.100
255.700	0.627	0.100
255.800	7.146	0.100
255.900	6.396	0.100
256.000	-16.490	0.100
256.100	2.014	0.100
256.200	-16.443	0.100
256.300	-7.314	0.100
256.400	-2.760	0.100
256.500	2.372	0.100
256.600	-3.273	0.100
256.700	-3.930	0.100
256.800	-4.867	0.100
256.900	-6.317	0.100
257.000	-2.533	0.100
257.100	2.269	0.100
257.200	-5.601	0.100
257.300	-2.868	0.100
257.400	-1.636	0.100
257.500	-16.372	0.100
257.600	-5.188	0.100
257.700	-6.170	0.100
257.800	2.206	0.100
257.900	1.424	0.100
258.000	-19.780	0.100
258.100	-14.232	0.100
258.200	0.772	0.100
258.300	-7.846	0.100
258.400	-4.345	0.100
258.500	-8.748	0.100
258.600	1.416	0.100
258.700	-13.240	0.100
258.800	-6.710	0.100
258.900	-6.336	0.100
259.000	-7.472	0.100
259.100	-9.434	0.100
259.200	7.585	0.100
259.300	-3.310	0.100
259.400	9.766	0.100
259.500	-0.524	0.100
259.600	-8.785	0.100
259.700	-10.579	0.100
259.800	-5.970	0.100
259.900	-5.509	0.100
260.000	-4.761	0.100
260.100	-11.047	0.100
260.200	-4.374	0.100
260.300	-6.588	0.100
260.400	-4.719	0.100
260.500	-8.615	0.100
260.600	4.205	0.100
260.700	-7.563	0.100
260.800	-5.942	0.100
260.900	-9.628	0.100
261.000	-9.261	0.100
261.100	-6.243	0.100
261.200	-16.872	0.100
261.300	-2.351	0.100
261.400	-0.527	0.100
261.500	-11.096	0.100
261.600	-9.506	0.100
261.700	-8.597	0.100
261.800	0.053	0.100
261.900	-5.103	0.100
262.000	-14.790	0.100
262.100	-20.969	0.100
262.200	-14.331	0.100
262.300	-10.966	0.100
262.400	-13.065	0.100
262.500	-5.710	0.100
262.600	-4.054	0.100
262.700	-9.423	0.100
262.800	-10.478	0.100
262.900	-0.200	0.100
263.000	-6.068	0.100
263.100	-1.363	0.100
263.200	-2.506	0.100
263.300	-4.239	0.100
263.400	-11.706	0.100
263.500	-15.527	0.100
263.600	-23.157	0.100
263.700	-6.043	0.100
263.800	-4.616	0.100
263.900	-7.629	0.100
264.000	-8.375	0.100
264.100	-15.807	0.100
264.200	-3.693	0.100
264.300	-14.855	0.100
264.400	-17.863	0.100
264.500	-7.124	0.100
264.600	-12.844	0.100
264.700	-2.622	0.100
264.800	0.692	0.100
264.900	-8.506	0.100
265.000	-22.860	0.100
265.100	-16.617	0.100
265.200	-11.388	0.100
265.300	-12.243	0.100
265.400	-7.573	0.100
265.500	-6.389	0.100
265.600	-14.488	0.100
265.700	-1.821	0.100
265.800	-4.508	0.100
265.900	-7.951	0.100
266.000	3.245	0.100
266.100	-10.083	0.100
266.200	-18.336	0.100
266.300	-12.156	0.100
266.400	-12.513	0.100
266.500	-8.668	0.100
266.600	-17.037	0.100
266.700	-13.683	0.100
266.800	-6.666	0.100
266.900	-3.756	0.100
267.000	-9.196	0.100
267.100	-14.664	0.100
267.200	-14.858	0.100
267.300	-17.868	0.100
267.400	-15.775	0.100
267.500	-19.287	0.100
267.600	-4.589	0.100
267.700	-8.480	0.100
267.800	-21.668	0.100
267.900	-14.990	0.100
268.000	-14.421	0.100
268.100	-3.786	0.100
268.200	-1.913	0.100
268.300	-9.949	0.100
268.400	-5.818	0.100
268.500	-9.178	0.100
268.600	-21.281	0.100
268.700	-18.395	0.100
268.800	-11.490	0.100
268.900	-12.841	0.100
269.000	-14.262	0.100
269.100	-23.040	0.100
269.200	-13.287	0.100
269.300	-22.800	0.100
269.400	-15.250	0.100
269.500	-11.975	0.100
269.600	-10.113	0.100
269.700	-7.913	0.100
269.800	-8.384	0.100
269.900	-1.942	0.100
270.000	-11.862	0.100
270.100	-4.184	0.100
270.200	-14.835	0.100
270.300	-24.366	0.100
270.400	-14.643	0.100
270.500	-10.377	0.100
270.600	-8.756	0.100
270.700	-3.972	0.100
270.800	-12.910	0.100
270.900	-17.028	0.100
271.000	-11.645	0.100
271.100	-8.733	0.100
271.200	-10.243	0.100
271.300	-11.810	0.100
271.400	-12.554	0.100
271.500	-19.034	0.100
271.600	-15.805	0.100
271.700	-8.059	0.100
271.800	-16.634	0.100
271.900	-10.537	0.100
272.000	-16.555	0.100
272.100	-8.461	0.100
272.200	-5.309	0.100
272.300	-7.241	0.100
272.400	-13.627	0.100
272.500	-14.514	0.100
272.600	-15.682	0.100
272.700	-24.160	0.100
272.800	-16.032	0.100
272.900	-16.081	0.100
273.000	-12.859	0.100
273.100	-7.747	0.100
273.200	-18.661	0.100
273.300	-23.345	0.100
273.400	-18.869	0.100
273.500	-14.227	0.100
273.600	-18.663	0.100
273.700	-26.662	0.100
273.800	-12.866	0.100
273.900	-8.346	0.100
274.000	-11.840	0.100
274.100	-21.117	0.100
274.200	-9.447	0.100
274.300	-4.203	0.100
274.400	-2.651	0.100
274.500	-16.512	0.100
274.600	-7.457	0.100
274.700	-18.303	0.100
274.800	-24.301	0.100
274.900	-14.056	0.100
275.000	-11.841	0.100
275.100	-16.241	0.100
275.200	-15.950	0.100
275.300	-9.065	0.100
275.400	-13.249	0.100
275.500	-25.743	0.100
275.600	-17.486	0.100
275.700	-20.097	0.100
275.800	-22.762	0.100
275.900	-15.266	0.100
276.000	-9.500	0.100
276.100	-3.896	0.100
276.200	-12.683	0.100
276.300	-23.964	0.100
276.400	-23.035	0.100
276.500	-9.838	0.100
276.600	-20.111	0.100
276.700	-23.526	0.100
276.800	-18.034	0.100
276.900	-14.307	0.100
277.000	-9.261	0.100
277.100	-9.796	0.100
277.200	-17.083	0.100
277.300	-12.752	0.100
277.400	-27.428	0.100
277.500	-8.172	0.100
277.600	-12.706	0.100
277.700	-8.127	0.100
277.800	-8.041	0.100
277.900	-25.157	0.100
278.000	-18.649	0.100
278.100	-13.060	0.100
278.200	-13.505	0.100
278.300	-13.987	0.100
278.400	-23.511	0.100
278.500	-14.436	0.100
278.600	-19.890	0.100
278.700	-18.533	0.100
278.800	-13.796	0.100
278.900	-24.031	0.100
279.000	-19.343	0.100
279.100	-26.852	0.100
279.200	-19.347	0.100
279.300	-18.596	0.100
279.400	-7.405	0.100
279.500	-21.587	0.100
279.600	-16.762	0.100
279.700	-25.898	0.100
279.800	-10.728	0.100
279.900	-13.611	0.100
280.000	-19.718	0.100
280.100	-24.435	0.100
280.200	-19.918	0.100
280.300	-22.702	0.100
280.400	-10.478	0.100
280.500	-12.087	0.100
280.600	-15.257	0.100
280.700	-25.295	0.100
280.800	-11.056	0.100
280.900	-15.399	0.100
281.000	-12.850	0.100
281.100	-21.437	0.100
281.200	-24.885	0.100
281.300	-13.742	0.100
281.400	-20.103	0.100
281.500	-14.553	0.100
281.600	-11.234	0.100
281.700	-17.298	0.100
281.800	-16.291	0.100
281.900	-8.714	0.100
282.000	-20.025	0.100
282.100	-24.188	0.100
282.200	-16.577	0.100
282.300	-18.442	0.100
282.400	-17.048	0.100
282.500	-18.058	0.100
282.600	-14.069	0.100
282.700	-8.566	0.100
282.800	-19.947	0.100
282.900	-12.908	0.100
283.000	-28.182	0.100
283.100	-16.685	0.100
283.200	-11.499	0.100
283.300	-15.644	0.100
283.400	-15.867	0.100
283.500	-16.626	0.100
283.600	-17.971	0.100
283.700	-20.877	0.100
283.800	-13.458	0.100
283.900	-18.971	0.100
284.000	-17.807	0.100
284.100	-18.389	0.100
284.200	-18.163	0.100
284.300	-29.124	0.100
284.400	-17.762	0.100
284.500	-19.238	0.100
284.600	-25.837	0.100
284.700	-26.634	0.100
284.800	-30.816	0.100
284.900	-13.497	0.100
285.000	-9.478	0.100
285.100	-24.748	0.100
285.200	-15.741	0.100
285.300	-7.830	0.100
285.400	-23.287	0.100
285.500	-11.471	0.100
285.600	-13.894	0.100
285.700	-16.975	0.100
285.800	-17.451	0.100
285.900	-15.532	0.100
286.000	-6.881	0.100
286.100	-23.801	0.100
286.200	-17.677	0.100
286.300	-27.603	0.100
286.400	-13.785	0.100
286.500	-13.733	0.100
286.600	-14.776	0.100
286.700	-20.781	0.100
286.800	-20.139	0.100
286.900	-11.452	0.100
287.000	-35.077	0.100
287.100	-16.394	0.100
287.200	-13.090	0.100
287.300	-19.542	0.100
287.400	-15.738	0.100
287.500	-13.749	0.100
287.600	-13.214	0.100
287.700	-23.686	0.100
287.800	-14.272	0.100
287.900	-22.011	0.100
288.000	-22.943	0.100
288.100	-11.821	0.100
288.200	-20.911	0.100
288.300	-23.553	0.100
288.400	-12.304	0.100
288.500	-10.365	0.100
288.600	-14.527	0.100
288.700	-19.882	0.100
288.800	-12.864	0.100
288.900	-15.935	0.100
289.000	-16.201	0.100
289.100	-15.986	0.100
289.200	-18.437	0.100
289.300	-16.019	0.100
289.400	-14.913	0.100
289.500	-18.508	0.100
289.600	-15.798	0.100
289.700	-15.832	0.100
289.800	-14.004	0.100
289.900	-27.572	0.100
290.000	-16.344	0.100
290.100	-17.300	0.100
290.200	-13.575	0.100
290.300	-31.553	0.100
290.400	-23.791	0.100
290.500	-20.505	0.100
290.600	-20.763	0.100
290.700	-19.977	0.100
290.800	-22.944	0.100
290.900	-17.198	0.100
291.000	-11.931	0.100
291.100	-16.254	0.100
291.200	-12.064	0.100
291.300	-10.768	0.100
291.400	-17.544	0.100
291.500	-22.184	0.100
291.600	-21.829	0.100
291.700	-16.692	0.100
291.800	-22.459	0.100
291.900	-17.501	0.100
292.000	-12.380	0.100
292.100	-18.387	0.100
292.200	-17.638	0.100
292.300	-18.705	0.100
292.400	-20.035	0.100
292.500	-25.153	0.100
292.600	-24.107	0.100
292.700	-17.630	0.100
292.800	-17.683	0.100
292.900	-24.918	0.100
293.000	-28.711	0.100
293.100	-8.916	0.100
293.200	-13.345	0.100
293.300	-6.887	0.100
293.400	-11.380	0.100
293.500	-11.955	0.100
293.600	-20.782	0.100
293.700	-21.495	0.100
293.800	-27.243	0.100
293.900	-13.607	0.100
294.000	-9.114	0.100
294.100	-20.538	0.100
294.200	-10.598	0.100
294.300	-14.109	0.100
294.400	-17.322	0.100
294.500	-22.013	0.100
294.600	-23.142	0.100
294.700	-20.861	0.100
294.800	-11.307	0.100
294.900	-14.088	0.100
295.000	-13.480	0.100
295.100	-18.402	0.100
295.200	-20.612	0.100
295.300	-21.974	0.100
295.400	-13.532	0.100
295.500	-20.999	0.100
295.600	-20.320	0.100
295.700	-23.673	0.100
295.800	-21.295	0.100
295.900	-18.333	0.100
296.000	-20.181	0.100
296.100	-18.019	0.100
296.200	-14.689	0.100
296.300	-14.646	0.100
296.400	-19.084	0.100
296.500	-28.497	0.100
296.600	-17.370	0.100
296.700	-20.014	0.100
296.800	-15.783	0.100
296.900	-12.801	0.100
297.000	-11.205	0.100
297.100	-21.418	0.100
297.200	-19.793	0.100
297.300	-23.271	0.100
297.400	-14.940	0.100
297.500	-24.397	0.100
297.600	-30.110	0.100
297.700	-13.652	0.100
297.800	-13.369	0.100
297.900	-15.691	0.100
298.000	-24.132	0.100
298.100	-10.765	0.100
298.200	-21.555	0.100
298.300	-34.717	0.100
298.400	-12.886	0.100
298.500	-17.209	0.100
298.600	-20.745	0.100
298.700	-18.421	0.100
298.800	-23.732	0.100
298.900	-15.566	0.100
299.000	-15.498	0.100
299.100	-14.070	0.100
299.200	-13.784	0.100
299.300	-16.466	0.100
299.400	-16.874	0.100
299.500	-13.969	0.100
299.600	-11.528	0.100
299.700	-16.141	0.100
299.800	-18.701	0.100
299.900	-21.633	0.100
300.000	-13.849	0.100
300.100	-14.252	0.100
300.200	-21.598	0.100
300.300	-21.249	0.100
300.400	-13.398	0.100
300.500	-25.291	0.100
300.600	-27.196	0.100
300.700	-13.137	0.100
300.800	-16.027	0.100
300.900	-10.293	0.100
301.000	-21.424	0.100
301.100	-22.312	0.100
301.200	-28.752	0.100
301.300	-24.686	0.100
301.400	-17.181	0.100
301.500	-26.910	0.100
301.600	-17.110	0.100
301.700	-19.429	0.100
301.800	-17.753	0.100
301.900	-0.687	0.100
302.000	-10.960	0.100
302.100	-13.819	0.100
302.200	-15.012	0.100
302.300	-30.200	0.100
302.400	-16.444	0.100
302.500	-9.835	0.100
302.600	-14.085	0.100
302.700	-30.369	0.100
302.800	-15.282	0.100
302.900	-11.382	0.100
303.000	-20.568	0.100
303.100	-21.353	0.100
303.200	-15.382	0.100
303.300	-19.059	0.100
303.400	-14.764	0.100
303.500	-17.661	0.100
303.600	-16.606	0.100
303.700	-18.227	0.100
303.800	-17.622	0.100
303.900	-17.927	0.100
304.000	-14.313	0.100
304.100	-13.927	0.100
304.200	-9.298	0.100
304.300	-8.710	0.100
304.400	-26.702	0.100
304.500	-22.176	0.100
304.600	-22.566	0.100
304.700	-4.649	0.100
304.800	-17.128	0.100
304.900	-17.014	0.100
305.000	-21.352	0.100
305.100	-18.832	0.100
305.200	-12.343	0.100
305.300	-28.914	0.100
305.400	-15.445	0.100
305.500	-23.187	0.100
305.600	-23.947	0.100
305.700	-24.630	0.100
305.800	-24.235	0.100
305.900	-15.478	0.100
306.000	-3.273	0.100
306.100	-11.915	0.100
306.200	-13.820	0.100
306.300	-24.851	0.100
306.400	-16.114	0.100
306.500	-21.559	0.100
306.600	-11.961	0.100
306.700	-15.657	0.100
306.800	-15.722	0.100
306.900	-12.915	0.100
307.000	-20.408	0.100
307.100	-22.706	0.100
307.200	-14.606	0.100
307.300	-28.263	0.100
307.400	-18.940	0.100
307.500	-18.440	0.100
307.600	-13.733	0.100
307.700	-14.405	0.100
307.800	-23.841	0.100
307.900	-18.785	0.100
308.000	-14.658	0.100
308.100	-18.136	0.100
308.200	-26.407	0.100
308.300	-20.284	0.100
308.400	-10.180	0.100
308.500	-16.005	0.100
308.600	-17.355	0.100
308.700	-20.704	0.100
308.800	-15.328	0.100
308.900	-8.154	0.100
309.000	-10.557	0.100
309.100	-21.139	0.100
309.200	-20.858	0.100
309.300	-17.114	0.100
309.400	-17.649	0.100
309.500	-11.271	0.100
309.600	-10.547	0.100
309.700	-15.854	0.100
309.800	-25.019	0.100
309.900	-15.851	0.100
310.000	-19.813	0.100
310.100	-11.348	0.100
310.200	-16.910	0.100
310.300	-13.933	0.100
310.400	-19.990	0.100
310.500	-18.638	0.100
310.600	-19.293	0.100
310.700	-15.267	0.100
310.800	-14.983	0.100
310.900	-19.445	0.100
311.000	-20.828	0.100
311.100	-14.775	0.100
311.200	-16.790	0.100
311.300	-15.334	0.100
311.400	-17.787	0.100
311.500	-28.930	0.100
311.600	-12.821	0.100
311.700	-12.757	0.100
311.800	-11.843	0.100
311.900	-8.012	0.100
312.000	-22.669	0.100
312.100	-15.117	0.100
312.200	-17.388	0.100
312.300	-10.561	0.100
312.400	-13.284	0.100
312.500	-15.478	0.100
312.600	-13.248	0.100
312.700	-22.281	0.100
312.800	-21.878	0.100
312.900	-22.564	0.100
313.000	-10.425	0.100
313.100	-12.148	0.100
313.200	-17.084	0.100
313.300	-23.467	0.100
313.400	-11.345	0.100
313.500	-11.169	0.100
313.600	-25.821	0.100
313.700	-17.837	0.100
313.800	-19.720	0.100
313.900	-13.770	0.100
314.000	-21.097	0.100
314.100	-21.780	0.100
314.200	-13.291	0.100
314.300	-28.781	0.100
314.400	-18.550	0.100
314.500	-13.947	0.100
314.600	-15.892	0.100
314.700	-11.933	0.100
314.800	-11.478	0.100
314.900	-13.975	0.100
315.000	-15.558	0.100
315.100	-15.193	0.100
315.200	-12.463	0.100
315.300	-15.994	0.100
315.400	-12.051	0.100
315.500	-24.891	0.100
315.600	-14.712	0.100
315.700	-9.277	0.100
315.800	-22.033	0.100
315.900	-17.944	0.100
316.000	-11.565	0.100
316.100	-19.398	0.100
316.200	-8.161	0.100
316.300	-12.087	0.100
316.400	-13.455	0.100
316.500	-18.261	0.100
316.600	-15.421	0.100
316.700	-20.448	0.100
316.800	-20.785	0.100
316.900	-19.730	0.100
317.000	-11.888	0.100
317.100	-12.054	0.100
317.200	-24.232	0.100
317.300	-20.211	0.100
317.400	-17.149	0.100
317.500	-13.322	0.100
317.600	-14.897	0.100
317.700	-20.903	0.100
317.800	-9.568	0.100
317.900	-23.764	0.100
318.000	-9.321	0.100
318.100	-12.536	0.100
318.200	-18.540	0.100
318.300	-22.719	0.100
318.400	-11.697	0.100
318.500	-20.172	0.100
318.600	-9.436	0.100
318.700	-13.567	0.100
318.800	-18.336	0.100
318.900	-10.026	0.100
319.000	-14.371	0.100
319.100	-17.936	0.100
319.200	-19.542	0.100
319.300	-21.550	0.100
319.400	-16.810	0.100
319.500	-19.375	0.100
319.600	-11.486	0.100
319.700	-11.769	0.100
319.800	-16.953	0.100
319.900	-18.501	0.100
320.000	-10.919	0.100
320.100	-17.465	0.100
320.200	-16.279	0.100
320.300	-14.953	0.100
320.400	-14.674	0.100
320.500	-21.337	0.100
320.600	-13.415	0.100
320.700	-11.803	0.100
320.800	-23.458	0.100
320.900	-15.960	0.100
321.000	-17.018	0.100
321.100	-17.929	0.100
321.200	-12.588	0.100
321.300	-15.386	0.100
321.400	-12.464	0.100
321.500	-24.925	0.100
321.600	-16.347	0.100
321.700	-18.406	0.100
321.800	-19.333	0.100
321.900	-16.267	0.100
322.000	0.125	0.100
322.100	-14.080	0.100
322.200	-15.851	0.100
322.300	-19.665	0.100
322.400	-22.036	0.100
322.500	-10.376	0.100
322.600	-10.825	0.100
322.700	-13.608	0.100
322.800	-19.817	0.100
322.900	-20.385	0.100
323.000	-23.306	0.100
323.100	-27.195	0.100
323.200	-17.874	0.100
323.300	-20.735	0.100
323.400	-12.660	0.100
323.500	-9.667	0.100
323.600	-15.324	0.100
323.700	-14.533	0.100
323.800	-22.828	0.100
323.900	-9.321	0.100
324.000	-17.737	0.100
324.100	-10.484	0.100
324.200	-8.911	0.100
324.300	-18.480	0.100
324.400	-29.471	0.100
324.500	-12.400	0.100
324.600	-12.845	0.100
324.700	-11.915	0.100
324.800	-17.347	0.100
324.900	-11.025	0.100
325.000	-10.915	0.100
325.100	-18.458	0.100
325.200	-23.845	0.100
325.300	-16.576	0.100
325.400	-14.094	0.100
325.500	-9.595	0.100
325.600	-13.002	0.100
325.700	-18.923	0.100
325.800	-23.551	0.100
325.900	-17.652	0.100
326.000	-15.797	0.100
326.100	-15.570	0.100
326.200	-16.741	0.100
326.300	-26.935	0.100
326.400	-14.894	0.100
326.500	-9.339	0.100
326.600	-14.034	0.100
326.700	-15.285	0.100
326.800	-17.830	0.100
326.900	-20.225	0.100
327.000	-18.382	0.100
327.100	-17.862	0.100
327.200	-12.340	0.100
327.300	-20.824	0.100
327.400	-10.745	0.100
327.500	-20.875	0.100
327.600	-19.913	0.100
327.700	-13.601	0.100
327.800	-27.139	0.100
327.900	-25.111	0.100
328.000	-9.349	0.100
328.100	-20.368	0.100
328.200	-24.781	0.100
328.300	-8.377	0.100
328.400	-9.008	0.100
328.500	-14.030	0.100
328.600	-16.943	0.100
328.700	-13.522	0.100
328.800	-6.455	0.100
328.900	-13.953	0.100
329.000	-15.185	0.100
329.100	-19.016	0.100
329.200	-11.114	0.100
329.300	-11.565	0.100
329.400	-10.598	0.100
329.500	-12.973	0.100
329.600	-15.313	0.100
329.700	-10.951	0.100
329.800	-11.542	0.100
329.900	-17.484	0.100
330.000	-7.543	0.100
330.100	-13.111	0.100
330.200	-20.400	0.100
330.300	-12.508	0.100
330.400	-15.850	0.100
330.500	-9.155	0.100
330.600	-17.788	0.100
330.700	-18.106	0.100
330.800	-8.472	0.100
330.900	-5.356	0.100
331.000	-16.073	0.100
331.100	-8.925	0.100
331.200	-6.889	0.100
331.300	-3.801	0.100
331.400	-1.689	0.100
331.500	1.443	0.100
331.600	0.013	0.100
331.700	15.027	0.100
331.800	8.281	0.100
331.900	0.253	0.100
332.000	4.335	0.100
332.100	-0.667	0.100
332.200	4.511	0.100
332.300	5.579	0.100
332.400	9.142	0.100
332.500	12.149	0.100
332.600	4.020	0.100
332.700	-0.478	0.100
332.800	12.192	0.100
332.900	15.750	0.100
333.000	4.143	0.100
333.100	4.018	0.100
333.200	19.572	0.100
333.300	7.589	0.100
333.400	12.285	0.100
333.500	8.959	0.100
333.600	4.019	0.100
333.700	10.642	0.100
333.800	10.915	0.100
333.900	16.841	0.100
334.000	15.554	0.100
334.100	13.143	0.100
334.200	12.675	0.100
334.300	11.929	0.100
334.400	14.295	0.100
334.500	10.843	0.100
334.600	15.546	0.100
334.700	22.889	0.100
334.800	13.487	0.100
334.900	9.888	0.100
335.000	4.145	0.100
335.100	17.697	0.100
335.200	18.675	0.100
335.300	12.668	0.100
335.400	14.903	0.100
335.500	29.141	0.100
335.600	8.686	0.100
335.700	13.148	0.100
335.800	28.445	0.100
335.900	27.500	0.100
336.000	22.893	0.100
336.100	13.314	0.100
336.200	12.838	0.100
336.300	8.009	0.100
336.400	17.560	0.100
336.500	27.481	0.100
336.600	17.862	0.100
336.700	7.645	0.100
336.800	7.466	0.100
336.900	14.620	0.100
337.000	16.170	0.100
337.100	8.721	0.100
337.200	7.467	0.100
337.300	14.502	0.100
337.400	16.985	0.100
337.500	15.052	0.100
337.600	18.735	0.100
337.700	15.581	0.100
337.800	18.556	0.100
337.900	10.131	0.100
338.000	22.285	0.100
338.100	20.389	0.100
338.200	8.168	0.100
338.300	15.526	0.100
338.400	9.098	0.100
338.500	6.939	0.100
338.600	25.952	0.100
338.700	13.619	0.100
338.800	19.005	0.100
338.900	10.445	0.100
339.000	18.536	0.100
339.100	19.246	0.100
339.200	15.677	0.100
339.300	17.321	0.100
339.400	13.480	0.100
339.500	19.457	0.100
339.600	15.740	0.100
339.700	9.316	0.100
339.800	15.076	0.100
339.900	24.019	0.100
340.000	11.803	0.100
340.100	11.090	0.100
340.200	9.544	0.100
340.300	11.482	0.100
340.400	15.927	0.100
340.500	10.015	0.100
340.600	7.657	0.100
340.700	21.621	0.100
340.800	29.046	0.100
340.900	13.272	0.100
341.000	19.189	0.100
341.100	26.560	0.100
341.200	14.825	0.100
341.300	7.308	0.100
341.400	14.179	0.100
341.500	2.581	0.100
341.600	8.995	0.100
341.700	17.490	0.100
341.800	20.942	0.100
341.900	1.986	0.100
342.000	7.502	0.100
342.100	17.270	0.100
342.200	23.432	0.100
342.300	22.310	0.100
342.400	25.659	0.100
342.500	20.300	0.100
342.600	15.718	0.100
342.700	15.012	0.100
342.800	16.404	0.100
342.900	4.798	0.100
343.000	17.195	0.100
343.100	12.506	0.100
343.200	16.169	0.100
343.300	24.000	0.100
343.400	27.404	0.100
343.500	15.490	0.100
343.600	15.857	0.100
343.700	22.539	0.100
343.800	8.228	0.100
343.900	17.977	0.100
344.000	14.641	0.100
344.100	19.329	0.100
344.200	20.776	0.100
344.300	24.180	0.100
344.400	20.533	0.100
344.500	18.068	0.100
344.600	24.778	0.100
344.700	18.654	0.100
344.800	15.538	0.100
344.900	17.837	0.100
345.000	22.519	0.100
345.100	18.492	0.100
345.200	12.005	0.100
345.300	21.915	0.100
345.400	15.344	0.100
345.500	27.141	0.100
345.600	24.299	0.100
345.700	17.198	0.100
345.800	17.696	0.100
345.900	16.738	0.100
346.000	21.356	0.100
346.100	32.133	0.100
346.200	27.055	0.100
346.300	27.455	0.100
346.400	12.704	0.100
346.500	20.254	0.100
346.600	16.004	0.100
346.700	12.918	0.100
346.800	18.517	0.100
346.900	17.654	0.100
347.000	23.228	0.100
347.100	30.796	0.100
347.200	13.131	0.100
347.300	21.279	0.100
347.400	27.271	0.100
347.500	11.883	0.100
347.600	25.188	0.100
347.700	25.314	0.100
347.800	23.404	0.100
347.900	22.329	0.100
348.000	23.258	0.100
348.100	29.213	0.100
348.200	19.334	0.100
348.300	14.424	0.100
348.400	21.511	0.100
348.500	19.847	0.100
348.600	28.628	0.100
348.700	20.663	0.100
348.800	35.145	0.100
348.900	22.551	0.100
349.000	15.723	0.100
349.100	22.875	0.100
349.200	25.974	0.100
349.300	19.032	0.100
349.400	29.912	0.100
349.500	29.580	0.100
349.600	21.148	0.100
349.700	10.076	0.100
349.800	35.236	0.100
349.900	22.079	0.100
350.000	19.228	0.100
350.100	24.858	0.100
350.200	26.634	0.100
350.300	35.509	0.100
350.400	15.691	0.100
350.500	38.268	0.100
350.600	24.641	0.100
350.700	32.890	0.100
350.800	30.562	0.100
350.900	23.318	0.100
351.000	28.678	0.100
351.100	20.846	0.100
351.200	35.362	0.100
351.300	21.201	0.100
351.400	38.107	0.100
351.500	38.841	0.100
351.600	23.137	0.100
351.700	25.810	0.100
351.800	23.980	0.100
351.900	29.337	0.100
352.000	29.159	0.100
352.100	27.769	0.100
352.200	40.610	0.100
352.300	35.443	0.100
352.400	26.551	0.100
352.500	25.739	0.100
352.600	30.042	0.100
352.700	26.090	0.100
352.800	33.745	0.100
352.900	35.195	0.100
353.000	20.193	0.100
353.100	31.893	0.100
353.200	30.909	0.100
353.300	30.154	0.100
353.400	35.890	0.100
353.500	37.791	0.100
353.600	29.267	0.100
353.700	35.680	0.100
353.800	30.768	0.100
353.900	39.211	0.100
354.000	27.701	0.100
354.100	24.582	0.100
354.200	48.033	0.100
354.300	38.675	0.100
354.400	28.981	0.100
354.500	36.788	0.100
354.600	35.766	0.100
354.700	31.167	0.100
354.800	32.796	0.100
354.900	32.632	0.100
355.000	29.613	0.100
355.100	32.449	0.100
355.200	39.920	0.100
355.300	37.756	0.100
355.400	38.699	0.100
355.500	40.112	0.100
355.600	48.537	0.100
355.700	36.249	0.100
355.800	33.225	0.100
355.900	40.321	0.100
356.000	32.293	0.100
356.100	44.703	0.100
356.200	34.800	0.100
356.300	34.289	0.100
356.400	34.752	0.100
356.500	40.344	0.100
356.600	33.430	0.100
356.700	34.709	0.100
356.800	33.578	0.100
356.900	22.352	0.100
357.000	34.366	0.100
357.100	43.160	0.100
357.200	42.037	0.100
357.300	42.142	0.100
357.400	30.046	0.100
357.500	33.860	0.100
357.600	28.694	0.100
357.700	41.836	0.100
357.800	45.827	0.100
357.900	39.105	0.100
358.000	42.068	0.100
358.100	47.929	0.100
358.200	46.690	0.100
358.300	34.684	0.100
358.400	42.404	0.100
358.500	48.081	0.100
358.600	47.824	0.100
358.700	36.061	0.100
358.800	37.883	0.100
358.900	40.479	0.100
359.000	35.809	0.100
359.100	43.612	0.100
359.200	43.180	0.100
359.300	30.145	0.100
359.400	37.442	0.100
359.500	37.310	0.100
359.600	41.712	0.100
359.700	44.173	0.100
359.800	38.218	0.100
359.900	41.921	0.100
360.000	35.791	0.100
360.100	40.237	0.100
360.200	46.678	0.100
360.300	37.690	0.100
360.400	47.619	0.100
360.500	37.806	0.100
360.600	45.794	0.100
360.700	34.913	0.100
360.800	33.242	0.100
360.900	43.335	0.100
361.000	44.480	0.100
361.100	39.551	0.100
361.200	34.668	0.100
361.300	46.788	0.100
361.400	47.834	0.100
361.500	51.936	0.100
361.600	54.510	0.100
361.700	34.731	0.100
361.800	43.952	0.100
361.900	36.517	0.100
362.000	47.079	0.100
362.100	37.726	0.100
362.200	41.193	0.100
362.300	35.655	0.100
362.400	33.963	0.100
362.500	47.241	0.100
362.600	51.974	0.100
362.700	44.823	0.100
362.800	34.352	0.100
362.900	45.565	0.100
363.000	44.396	0.100
363.100	43.825	0.100
363.200	48.593	0.100
363.300	38.771	0.100
363.400	50.174	0.100
363.500	47.352	0.100
363.600	40.697	0.100
363.700	39.274	0.100
363.800	41.742	0.100
363.900	44.658	0.100
364.000	41.822	0.100
364.100	55.886	0.100
364.200	46.033	0.100
364.300	40.531	0.100
364.400	34.775	0.100
364.500	44.975	0.100
364.600	48.114	0.100
364.700	40.233	0.100
364.800	39.490	0.100
364.900	44.119	0.100
365.000	47.166	0.100
365.100	51.935	0.100
365.200	43.577	0.100
365.300	30.219	0.100
365.400	44.452	0.100
365.500	39.451	0.100
365.600	45.962	0.100
365.700	43.824	0.100
365.800	38.238	0.100
365.900	34.223	0.100
366.000	46.585	0.100
366.100	33.717	0.100
366.200	32.106	0.100
366.300	44.460	0.100
366.400	50.985	0.100
366.500	41.935	0.100
366.600	43.651	0.100
366.700	52.234	0.100
366.800	49.530	0.100
366.900	44.657	0.100
367.000	53.289	0.100
367.100	41.159	0.100
367.200	44.242	0.100
367.300	41.967	0.100
367.400	42.549	0.100
367.500	40.404	0.100
367.600	32.301	0.100
367.700	50.461	0.100
367.800	34.708	0.100
367.900	37.653	0.100
368.000	53.577	0.100
368.100	53.131	0.100
368.200	40.213	0.100
368.300	44.100	0.100
368.400	40.590	0.100
368.500	45.070	0.100
368.600	39.665	0.100
368.700	47.495	0.100
368.800	53.976	0.100
368.900	46.856	0.100
369.000	41.457	0.100
369.100	44.983	0.100
369.200	41.165	0.100
369.300	35.228	0.100
369.400	35.081	0.100
369.500	44.468	0.100
369.600	51.291	0.100
369.700	46.270	0.100
369.800	39.366	0.100
369.900	45.841	0.100
370.000	43.173	0.100
370.100	38.480	0.100
370.200	45.572	0.100
370.300	52.795	0.100
370.400	47.992	0.100
370.500	44.263	0.100
370.600	33.524	0.100
370.700	40.988	0.100
370.800	43.370	0.100
370.900	51.313	0.100
371.000	42.323	0.100
371.100	48.850	0.100
371.200	37.184	0.100
371.300	52.796	0.100
371.400	46.413	0.100
371.500	48.222	0.100
371.600	46.710	0.100
371.700	44.651	0.100
371.800	43.192	0.100
371.900	43.529	0.100
372.000	38.094	0.100
372.100	34.326	0.100
372.200	36.886	0.100
372.300	42.362	0.100
372.400	38.771	0.100
372.500	40.679	0.100
372.600	40.985	0.100
372.700	42.303	0.100
372.800	50.411	0.100
372.900	41.732	0.100
373.000	43.407	0.100
373.100	42.994	0.100
373.200	43.660	0.100
373.300	53.735	0.100
373.400	41.211	0.100
373.500	42.192	0.100
373.600	39.646	0.100
373.700	45.850	0.100
373.800	41.622	0.100
373.900	42.147	0.100
374.000	45.415	0.100
374.100	52.940	0.100
374.200	46.994	0.100
374.300	39.773	0.100
374.400	45.495	0.100
374.500	49.732	0.100
374.600	46.842	0.100
374.700	43.823	0.100
374.800	41.911	0.100
374.900	46.722	0.100
375.000	43.719	0.100
375.100	41.472	0.100
375.200	39.795	0.100
375.300	40.262	0.100
375.400	43.912	0.100
375.500	37.003	0.100
375.600	39.330	0.100
375.700	42.378	0.100
375.800	53.142	0.100
375.900	46.976	0.100
376.000	41.780	0.100
376.100	44.255	0.100
376.200	44.461	0.100
376.300	48.326	0.100
376.400	47.323	0.100
376.500	43.931	0.100
376.600	46.236	0.100
376.700	41.004	0.100
376.800	46.010	0.100
376.900	51.949	0.100
377.000	40.811	0.100
377.100	45.189	0.100
377.200	37.091	0.100
377.300	34.015	0.100
377.400	45.932	0.100
377.500	47.073	0.100
377.600	44.971	0.100
377.700	49.734	0.100
377.800	44.341	0.100
377.900	49.170	0.100
378.000	44.387	0.100
378.100	35.296	0.100
378.200	39.012	0.100
378.300	49.733	0.100
378.400	50.312	0.100
378.500	41.812	0.100
378.600	38.317	0.100
378.700	54.026	0.100
378.800	38.475	0.100
378.900	44.107	0.100
379.000	43.507	0.100
379.100	43.722	0.100
379.200	46.439	0.100
379.300	44.474	0.100
379.400	47.189	0.100
379.500	47.123	0.100
379.600	43.218	0.100
379.700	47.323	0.100
379.800	39.408	0.100
379.900	42.630	0.100
380.000	40.287	0.100
380.100	46.376	0.100
380.200	43.941	0.100
380.300	43.820	0.100
380.400	43.898	0.100
380.500	31.776	0.100
380.600	42.242	0.100
380.700	39.736	0.100
380.800	48.250	0.100
380.900	42.264	0.100
381.000	43.460	0.100
381.100	42.539	0.100
381.200	39.106	0.100
381.300	36.461	0.100
381.400	36.818	0.100
381.500	52.532	0.100
381.600	41.282	0.100
381.700	50.199	0.100
381.800	47.054	0.100
381.900	40.510	0.100
382.000	41.821	0.100
382.100	45.703	0.100
382.200	53.523	0.100
382.300	39.789	0.100
382.400	43.627	0.100
382.500	43.461	0.100
382.600	40.831	0.100
382.700	41.018	0.100
382.800	43.232	0.100
382.900	45.499	0.100
383.000	40.259	0.100
383.100	44.096	0.100
383.200	36.363	0.100
383.300	39.961	0.100
383.400	46.987	0.100
383.500	46.176	0.100
383.600	47.916	0.100
383.700	43.258	0.100
383.800	47.949	0.100
383.900	53.437	0.100
384.000	42.964	0.100
384.100	48.305	0.100
384.200	45.305	0.100
384.300	50.483	0.100
384.400	44.950	0.100
384.500	44.784	0.100
384.600	39.683	0.100
384.700	38.793	0.100
384.800	53.326	0.100
384.900	59.347	0.100
385.000	47.418	0.100
385.100	43.160	0.100
385.200	46.085	0.100
385.300	46.461	0.100
385.400	37.731	0.100
385.500	45.239	0.100
385.600	39.244	0.100
385.700	43.345	0.100
385.800	47.820	0.100
385.900	40.944	0.100
386.000	48.701	0.100
386.100	43.546	0.100
386.200	44.378	0.100
386.300	32.504	0.100
386.400	52.857	0.100
386.500	50.142	0.100
386.600	33.387	0.100
386.700	45.250	0.100
386.800	47.384	0.100
386.900	39.275	0.100
387.000	39.880	0.100
387.100	46.375	0.100
387.200	44.817	0.100
387.300	46.263	0.100
387.400	39.182	0.100
387.500	47.657	0.100
387.600	46.773	0.100
387.700	40.673	0.100
387.800	45.804	0.100
387.900	41.177	0.100
388.000	41.615	0.100
388.100	47.756	0.100
388.200	41.281	0.100
388.300	46.519	0.100
388.400	44.962	0.100
388.500	40.548	0.100
388.600	33.809	0.100
388.700	37.161	0.100
388.800	46.571	0.100
388.900	33.526	0.100
389.000	43.470	0.100
389.100	58.230	0.100
389.200	47.077	0.100
389.300	45.509	0.100
389.400	46.713	0.100
389.500	45.861	0.100
389.600	41.240	0.100
389.700	45.586	0.100
389.800	50.286	0.100
389.900	39.964	0.100
390.000	45.570	0.100
390.100	43.253	0.100
390.200	48.093	0.100
390.300	36.105	0.100
390.400	47.057	0.100
390.500	50.794	0.100
390.600	48.170	0.100
390.700	38.611	0.100
390.800	44.108	0.100
390.900	35.544	0.100
391.000	38.150	0.100
391.100	35.591	0.100
391.200	34.795	0.100
391.300	39.506	0.100
391.400	34.698	0.100
391.500	36.688	0.100
391.600	30.073	0.100
391.700	34.495	0.100
391.800	25.777	0.100
391.900	23.772	0.100
392.000	30.828	0.100
392.100	28.152	0.100
392.200	15.417	0.100
392.300	25.480	0.100
392.400	25.872	0.100
392.500	16.847	0.100
392.600	23.096	0.100
392.700	10.254	0.100
392.800	4.894	0.100
392.900	9.281	0.100
393.000	10.222	0.100
393.100	3.235	0.100
393.200	15.069	0.100
393.300	12.786	0.100
393.400	16.648	0.100
393.500	19.414	0.100
393.600	11.870	0.100
393.700	14.045	0.100
393.800	11.786	0.100
393.900	12.364	0.100
394.000	-1.064	0.100
394.100	3.544	0.100
394.200	18.483	0.100
394.300	8.346	0.100
394.400	9.364	0.100
394.500	8.163	0.100
394.600	-2.315	0.100
394.700	0.018	0.100
394.800	13.379	0.100
394.900	8.361	0.100
395.000	4.360	0.100
395.100	5.408	0.100
395.200	7.182	0.100
395.300	7.400	0.100
395.400	1.236	0.100
395.500	5.380	0.100
395.600	3.226	0.100
395.700	4.522	0.100
395.800	-0.083	0.100
395.900	-4.841	0.100
396.000	2.421	0.100
396.100	3.369	0.100
396.200	4.654	0.100
396.300	2.486	0.100
396.400	-4.384	0.100
396.500	0.243	0.100
396.600	-1.173	0.100
396.700	9.282	0.100
396.800	-5.694	0.100
396.900	5.682	0.100
397.000	14.336	0.100
397.100	6.310	0.100
397.200	-0.449	0.100
397.300	6.830	0.100
397.400	-7.332	0.100
397.500	3.020	0.100
397.600	-12.507	0.100
397.700	-14.846	0.100
397.800	11.619	0.100
397.900	12.694	0.100
398.000	6.372	0.100
398.100	12.071	0.100
398.200	-0.412	0.100
398.300	-1.855	0.100
398.400	3.821	0.100
398.500	-4.037	0.100
398.600	0.652	0.100
398.700	-6.216	0.100
398.800	-2.067	0.100
398.900	-0.652	0.100
399.000	4.869	0.100
399.100	9.894	0.100
399.200	6.589	0.100
399.300	9.218	0.100
399.400	5.643	0.100
399.500	2.996	0.100
399.600	-7.183	0.100
399.700	-2.139	0.100
399.800	1.526	0.100
399.900	7.858	0.100
400.000	9.694	0.100
400.100	6.028	0.100
400.200	0.025	0.100
400.300	3.347	0.100
400.400	5.726	0.100
400.500	6.398	0.100
400.600	-5.478	0.100
400.700	-2.533	0.100
400.800	0.620	0.100
400.900	-10.850	0.100
401.000	4.956	0.100
401.100	5.938	0.100
401.200	4.853	0.100
401.300	9.962	0.100
401.400	-3.590	0.100
401.500	-8.531	0.100
401.600	-3.619	0.100
401.700	2.391	0.100
401.800	6.338	0.100
401.900	-2.460	0.100
402.000	-1.715	0.100
402.100	0.464	0.100
402.200	-13.205	0.100
402.300	-2.899	0.100
402.400	-3.636	0.100
402.500	-6.645	0.100
402.600	-6.970	0.100
402.700	1.550	0.100
402.800	2.310	0.100
402.900	0.351	0.100
403.000	-2.773	0.100
403.100	-9.495	0.100
403.200	-10.461	0.100
403.300	1.058	0.100
403.400	-13.053	0.100
403.500	0.395	0.100
403.600	-1.177	0.100
403.700	-10.375	0.100
403.800	-5.907	0.100
403.900	13.262	0.100
404.000	5.799	0.100
404.100	-0.312	0.100
404.200	-2.743	0.100
404.300	-3.013	0.100
404.400	4.295	0.100
404.500	0.467	0.100
404.600	-5.958	0.100
404.700	1.808	0.100
404.800	1.697	0.100
404.900	2.153	0.100
405.000	-2.700	0.100
405.100	-3.767	0.100
405.200	-7.647	0.100
405.300	-8.233	0.100
405.400	-11.156	0.100
405.500	-5.301	0.100
405.600	3.349	0.100
405.700	-8.820	0.100
405.800	-6.011	0.100
405.900	-19.155	0.100
406.000	-10.225	0.100
406.100	-6.564	0.100
406.200	-5.151	0.100
406.300	-6.308	0.100
406.400	-2.619	0.100
406.500	-6.734	0.100
406.600	-3.088	0.100
406.700	4.173	0.100
406.800	8.064	0.100
406.900	0.988	0.100
407.000	-8.680	0.100
407.100	-11.863	0.100
407.200	-9.173	0.100
407.300	-12.501	0.100
407.400	-9.138	0.100
407.500	2.222	0.100
407.600	-13.370	0.100
407.700	-2.961	0.100
407.800	-4.585	0.100
407.900	0.084	0.100
408.000	-3.961	0.100
408.100	-4.548	0.100
408.200	-10.533	0.100
408.300	-15.555	0.100
408.400	-5.304	0.100
408.500	-18.198	0.100
408.600	-4.995	0.100
408.700	-10.260	0.100
408.800	-6.418	0.100
408.900	-12.970	0.100
409.000	-0.717	0.100
409.100	-8.873	0.100
409.200	-5.129	0.100
409.300	-12.497	0.100
409.400	-8.210	0.100
409.500	-6.436	0.100
409.600	-12.864	0.100
409.700	-12.482	0.100
409.800	-13.457	0.100
409.900	1.383	0.100
410.000	-4.230	0.100
410.100	-6.779	0.100
410.200	-12.831	0.100
410.300	-12.881	0.100
410.400	-12.270	0.100
410.500	-6.413	0.100
410.600	-10.337	0.100
410.700	-14.659	0.100
410.800	-12.032	0.100
410.900	-17.898	0.100
411.000	-1.115	0.100
411.100	-9.751	0.100
411.200	-17.428	0.100
411.300	-8.726	0.100
411.400	-2.653	0.100
411.500	-4.707	0.100
411.600	-0.952	0.100
411.700	-1.321	0.100
411.800	-10.860	0.100
411.900	1.213	0.100
412.000	-9.489	0.100
412.100	-11.680	0.100
412.200	-9.332	0.100
412.300	-3.220	0.100
412.400	-9.847	0.100
412.500	-22.096	0.100
412.600	-13.140	0.100
412.700	-3.009	0.100
412.800	-16.162	0.100
412.900	-9.214	0.100
413.000	-7.082	0.100
413.100	0.092	0.100
413.200	-4.424	0.100
413.300	-21.014	0.100
413.400	-10.812	0.100
413.500	-9.781	0.100
413.600	-17.872	0.100
413.700	-9.458	0.100
413.800	-4.676	0.100
413.900	-15.049	0.100
414.000	-15.722	0.100
414.100	-16.537	0.100
414.200	-16.441	0.100
414.300	-9.104	0.100
414.400	-7.997	0.100
414.500	-15.803	0.100
414.600	-8.486	0.100
414.700	-13.722	0.100
414.800	-7.024	0.100
414.900	-4.735	0.100
415.000	-13.136	0.100
415.100	-8.873	0.100
415.200	-22.144	0.100
415.300	-18.723	0.100
415.400	-15.522	0.100
415.500	-11.826	0.100
415.600	-11.331	0.100
415.700	-7.857	0.100
415.800	-9.427	0.100
415.900	-14.593	0.100
416.000	-29.461	0.100
416.100	-21.115	0.100
416.200	-2.644	0.100
416.300	-6.408	0.100
416.400	-4.569	0.100
416.500	-9.027	0.100
416.600	-0.822	0.100
416.700	-13.688	0.100
416.800	-15.028	0.100
416.900	-17.011	0.100
417.000	-5.676	0.100
417.100	-9.762	0.100
417.200	-12.071	0.100
417.300	-7.045	0.100
417.400	-15.233	0.100
417.500	-21.042	0.100
417.600	-17.084	0.100
417.700	-17.939	0.100
417.800	-11.298	0.100
417.900	-12.439	0.100
418.000	-4.781	0.100
418.100	-15.488	0.100
418.200	-16.803	0.100
418.300	-12.412	0.100
418.400	-23.608	0.100
418.500	-17.889	0.100
418.600	-12.412	0.100
418.700	-10.961	0.100
418.800	-13.387	0.100
418.900	-20.457	0.100
419.000	-6.590	0.100
419.100	-22.783	0.100
419.200	-9.198	0.100
419.300	-5.638	0.100
419.400	-20.243	0.100
419.500	-23.656	0.100
419.600	-10.674	0.100
419.700	-12.669	0.100
419.800	-19.864	0.100
419.900	-13.034	0.100
420.000	-13.847	0.100
420.100	-15.790	0.100
420.200	-20.271	0.100
420.300	-14.089	0.100
420.400	-3.071	0.100
420.500	-23.010	0.100
420.600	-20.909	0.100
420.700	-14.204	0.100
420.800	-5.253	0.100
420.900	-5.750	0.100
421.000	-16.062	0.100
421.100	-11.160	0.100
421.200	-10.830	0.100
421.300	-20.186	0.100
421.400	-18.356	0.100
421.500	-16.079	0.100
421.600	-27.023	0.100
421.700	-6.472	0.100
421.800	-12.493	0.100
421.900	-13.093	0.100
422.000	-15.788	0.100
422.100	-7.399	0.100
422.200	-16.546	0.100
422.300	-19.774	0.100
422.400	-10.853	0.100
422.500	-15.494	0.100
422.600	-6.045	0.100
422.700	-9.933	0.100
422.800	-7.444	0.100
422.900	-29.721	0.100
423.000	-14.701	0.100
423.100	-13.281	0.100
423.200	-30.784	0.100
423.300	-16.091	0.100
423.400	-10.172	0.100
423.500	-18.441	0.100
423.600	-26.831	0.100
423.700	-25.878	0.100
423.800	-6.819	0.100
423.900	-15.750	0.100
424.000	-17.136	0.100
424.100	-21.734	0.100
424.200	-12.600	0.100
424.300	-9.985	0.100
424.400	-22.553	0.100
424.500	-12.600	0.100
424.600	-19.811	0.100
424.700	-20.465	0.100
424.800	-8.941	0.100
424.900	-10.432	0.100
425.000	-22.269	0.100
425.100	-29.240	0.100
425.200	-13.814	0.100
425.300	-10.052	0.100
425.400	-7.480	0.100
425.500	-18.568	0.100
425.600	-31.069	0.100
425.700	-10.993	0.100
425.800	-24.892	0.100
425.900	-22.145	0.100
426.000	-19.533	0.100
426.100	-16.157	0.100
426.200	-31.820	0.100
426.300	-18.473	0.100
426.400	6.824	0.100
426.500	-18.266	0.100
426.600	-25.994	0.100
426.700	-29.141	0.100
426.800	-29.742	0.100
426.900	-24.901	0.100
427.000	-18.364	0.100
427.100	-16.833	0.100
427.200	-14.691	0.100
427.300	-16.082	0.100
427.400	-13.583	0.100
427.500	-12.150	0.100
427.600	-17.175	0.100
427.700	-27.611	0.100
427.800	-14.820	0.100
427.900	-19.096	0.100
428.000	-12.408	0.100
428.100	-16.858	0.100
428.200	-12.464	0.100
428.300	-8.934	0.100
428.400	-16.477	0.100
428.500	-20.910	0.100
428.600	-30.661	0.100
428.700	-23.142	0.100
428.800	-23.052	0.100
428.900	-31.444	0.100
429.000	-16.704	0.100
429.100	-19.416	0.100
429.200	-9.844	0.100
429.300	-16.215	0.100
429.400	-16.437	0.100
429.500	-9.963	0.100
429.600	-21.696	0.100
429.700	-14.698	0.100
429.800	-24.189	0.100
429.900	-21.407	0.100
430.000	-18.130	0.099
430.100	-25.616	0.100
430.200	-19.850	0.100
430.300	-30.363	0.100
430.400	-16.038	0.100
430.500	-9.027	0.100
430.600	-22.041	0.099
430.700	-19.528	0.100
430.800	-20.344	0.100
430.900	-19.937	0.100
431.000	-23.979	0.099
431.100	-22.474	0.099
431.200	-13.505	0.100
431.300	-20.278	0.100
431.400	-17.681	0.100
431.500	-15.044	0.100
431.600	-16.703	0.100
431.700	-21.502	0.100
431.800	-20.182	0.100
431.900	-26.770	0.100
432.000	-19.301	0.099
432.100	-12.495	0.100
432.200	-17.416	0.100
432.300	-21.961	0.100
432.400	-15.642	0.100
432.500	-14.688	0.100
432.600	-22.341	0.100
432.700	-9.903	0.100
432.800	-18.932	0.100
432.900	-23.581	0.100
433.000	-24.773	0.100
433.100	-27.075	0.100
433.200	-20.162	0.100
433.300	-27.768	0.100
433.400	-17.801	0.100
433.500	-17.278	0.100
433.600	-22.887	0.100
433.700	-24.839	0.100
433.800	-15.339	0.100
433.900	-18.170	0.099
434.000	-23.880	0.100
434.100	-12.622	0.100
434.200	-20.622	0.100
434.300	-16.989	0.100
434.400	-20.591	0.100
434.500	-16.514	0.099
434.600	-18.665	0.099
434.700	-21.262	0.099
434.800	-12.400	0.100
434.900	-23.253	0.099
435.000	-23.156	0.099
435.100	-19.813	0.099
435.200	-18.260	0.099
435.300	-21.742	0.100
435.400	-19.290	0.100
435.500	-24.126	0.100
435.600	-19.779	0.099
435.700	-27.541	0.099
435.800	-15.727	0.099
435.900	-20.985	0.099
436.000	-16.016	0.099
436.100	-22.729	0.100
436.200	-18.106	0.100
436.300	-20.874	0.100
436.400	-10.656	0.099
436.500	-20.226	0.099
436.600	-23.586	0.099
436.700	-26.633	0.099
436.800	-24.721	0.099
436.900	-24.789	0.099
437.000	-17.937	0.099
437.100	-13.503	0.100
437.200	-12.896	0.099
437.300	-16.642	0.099
437.400	-9.480	0.099
437.500	-23.128	0.099
437.600	-12.043	0.099
437.700	-33.258	0.099
437.800	-18.245	0.099
437.900	-17.943	0.099
438.000	-23.279	0.099
438.100	-22.910	0.099
438.200	-25.613	0.099
438.300	-18.837	0.099
438.400	-21.807	0.099
438.500	-25.287	0.099
438.600	-15.326	0.099
438.700	-23.655	0.099
438.800	-18.165	0.099
438.900	-14.407	0.099
439.000	-26.112	0.099
439.100	-22.353	0.099
439.200	-12.822	0.099
439.300	-17.529	0.099
439.400	-26.102	0.099
439.500	-16.168	0.099
439.600	-14.755	0.099
439.700	-22.055	0.099
439.800	-15.874	0.099
439.900	-16.829	0.099
440.000	-22.883	0.099
440.100	-17.876	0.099
440.200	-22.631	0.099
440.300	-19.779	0.099
440.400	-11.250	0.099
440.500	-21.830	0.099
440.600	-19.726	0.099
440.700	-22.209	0.099
440.800	-22.802	0.099
440.900	-22.428	0.099
441.000	-13.549	0.099
441.100	-28.167	0.099
441.200	-29.656	0.099
441.300	-24.983	0.099
441.400	-12.232	0.099
441.500	-14.672	0.099
441.600	-19.292	0.099
441.700	-9.049	0.099
441.800	-16.943	0.099
441.900	-29.631	0.099
442.000	-24.069	0.099
442.100	-39.074	0.099
442.200	-19.090	0.099
442.300	-21.181	0.099
442.400	-24.269	0.099
442.500	-21.177	0.099
442.600	-21.975	0.099
442.700	-18.348	0.099
442.800	-26.506	0.099
442.900	-18.433	0.099
443.000	-9.295	0.099
443.100	-12.293	0.099
443.200	-14.914	0.099
443.300	-19.692	0.099
443.400	-21.551	0.099
443.500	-16.100	0.099
443.600	-17.835	0.099
443.700	-19.020	0.099
443.800	-20.703	0.099
443.900	-23.056	0.099
444.000	-24.678	0.099
444.100	-16.170	0.099
444.200	-24.497	0.099
444.300	-27.687	0.099
444.400	-25.639	0.099
444.500	-13.901	0.099
444.600	-17.148	0.099
444.700	-17.996	0.099
444.800	-18.567	0.099
444.900	-25.417	0.099
445.000	-15.227	0.099
445.100	-17.227	0.099
445.200	-11.770	0.099
445.300	-21.247	0.099
445.400	-13.620	0.099
445.500	-25.577	0.099
445.600	-14.881	0.099
445.700	-21.647	0.099
445.800	-20.794	0.099
445.900	-28.728	0.099
446.000	-26.819	0.099
446.100	-22.635	0.099
446.200	-20.923	0.099
446.300	-20.405	0.099
446.400	-22.342	0.099
446.500	-23.498	0.099
446.600	-17.627	0.099
446.700	-19.396	0.099
446.800	-18.028	0.099
446.900	-26.660	0.099
447.000	-25.886	0.099
447.100	-18.162	0.099
447.200	-7.285	0.099
447.300	-16.228	0.099
447.400	-23.484	0.099
447.500	-26.221	0.099
447.600	-20.198	0.099
447.700	-25.249	0.099
447.800	-16.183	0.099
447.900	-17.139	0.099
448.000	-18.207	0.099
448.100	-24.797	0.099
448.200	-21.435	0.099
448.300	-18.707	0.099
448.400	-22.395	0.099
448.500	-22.694	0.099
448.600	-21.675	0.099
448.700	-16.376	0.099
448.800	-23.818	0.099
448.900	-24.772	0.099
449.000	-23.168	0.099
449.100	-21.430	0.099
449.200	-21.016	0.099
449.300	-18.750	0.099
449.400	-23.589	0.099
449.500	-24.817	0.099
449.600	-7.314	0.099
449.700	-9.428	0.099
449.800	-15.169	0.099
449.900	-14.990	0.099
450.000	-26.262	0.099
450.100	-24.421	0.099
450.200	-28.752	0.099
450.300	-12.409	0.099
450.400	-16.230	0.099
450.500	-12.681	0.099
450.600	-18.017	0.099
450.700	-25.748	0.099
450.800	-16.586	0.099
450.900	-13.750	0.099
451.000	-17.794	0.099
451.100	-22.251	0.099
451.200	-18.788	0.099
451.300	-16.475	0.099
451.400	-20.850	0.099
451.500	-20.978	0.099
451.600	-15.032	0.099
451.700	-18.166	0.099
451.800	-21.520	0.099
451.900	-18.729	0.099
452.000	-11.286	0.099
452.100	-19.072	0.099
452.200	-26.546	0.099
452.300	-18.393	0.099
452.400	-18.569	0.099
452.500	-25.999	0.099
452.600	-19.995	0.099
452.700	-20.803	0.099
452.800	-16.771	0.099
452.900	-24.420	0.099
453.000	-28.659	0.099
453.100	-15.180	0.099
453.200	-14.423	0.099
453.300	-18.717	0.099
453.400	-22.871	0.099
453.500	-25.109	0.099
453.600	-17.299	0.099
453.700	-15.321	0.099
453.800	-10.023	0.099
453.900	-22.166	0.099
454.000	-22.313	0.099
454.100	-17.671	0.099
454.200	-21.914	0.099
454.300	-20.027	0.099
454.400	-15.350	0.099
454.500	-14.034	0.099
454.600	-15.063	0.099
454.700	-19.143	0.099
454.800	-10.260	0.099
454.900	-22.402	0.099
455.000	-19.032	0.099
455.100	-22.059	0.099
455.200	-13.119	0.099
455.300	-17.130	0.099
455.400	-16.835	0.099
455.500	-18.570	0.099
455.600	-17.515	0.099
455.700	-25.666	0.099
455.800	-14.548	0.099
455.900	-11.808	0.099
456.000	-16.420	0.099
456.100	-19.915	0.099
456.200	-18.103	0.099
456.300	-28.242	0.099
456.400	-22.899	0.099
456.500	-21.152	0.099
456.600	-13.235	0.099
456.700	-17.983	0.099
456.800	-11.308	0.099
456.900	-22.041	0.099
457.000	-30.065	0.099
457.100	-7.632	0.099
457.200	-22.952	0.099
457.300	-16.425	0.099
457.400	-19.006	0.099
457.500	-13.526	0.099
457.600	-23.014	0.099
457.700	-15.641	0.099
457.800	-19.911	0.099
457.900	-27.902	0.099
458.000	-17.788	0.099
458.100	-23.168	0.099
458.200	-18.849	0.099
458.300	-17.474	0.099
458.400	-19.175	0.099
458.500	-26.330	0.099
458.600	-18.103	0.099
458.700	-17.420	0.099
458.800	-14.398	0.099
458.900	-20.830	0.099
459.000	-15.965	0.099
459.100	-11.885	0.099
459.200	-21.830	0.099
459.300	-14.443	0.099
459.400	-28.196	0.099
459.500	-27.547	0.099
459.600	-20.206	0.099
459.700	-25.623	0.099
459.800	-14.999	0.099
459.900	-22.578	0.099
460.000	-27.256	0.099
460.100	-15.404	0.099
460.200	-13.665	0.099
460.300	-12.375	0.099
460.400	-8.750	0.099
460.500	-21.762	0.099
460.600	-17.104	0.099
460.700	-12.186	0.099
460.800	-25.638	0.099
460.900	-27.086	0.099
461.000	-22.611	0.099
461.100	-8.610	0.099
461.200	-15.530	0.099
461.300	-15.361	0.099
461.400	-25.290	0.099
461.500	-13.372	0.099
461.600	-26.152	0.099
461.700	-24.267	0.099
461.800	-12.437	0.099
461.900	-17.851	0.099
462.000	-12.832	0.099
462.100	-12.913	0.099
462.200	-18.601	0.099
462.300	-22.660	0.099
462.400	-15.504	0.099
462.500	-17.020	0.099
462.600	-17.679	0.099
462.700	-13.250	0.099
462.800	-21.566	0.099
462.900	-22.766	0.099
463.000	-18.411	0.099
463.100	-11.702	0.099
463.200	-30.089	0.099
463.300	-20.272	0.099
463.400	-14.833	0.099
463.500	-3.921	0.099
463.600	-17.258	0.099
463.700	-22.147	0.099
463.800	-15.767	0.099
463.900	-29.996	0.099
464.000	-17.709	0.099
464.100	-14.528	0.099
464.200	-22.373	0.099
464.300	-19.997	0.099
464.400	-20.138	0.099
464.500	-13.414	0.099
464.600	-22.449	0.099
464.700	-18.979	0.099
464.800	-20.040	0.099
464.900	-27.271	0.099
465.000	-31.267	0.099
465.100	-8.148	0.099
465.200	-16.705	0.099
465.300	-14.296	0.099
465.400	-29.658	0.099
465.500	-25.396	0.099
465.600	-18.676	0.099
465.700	-16.249	0.099
465.800	-14.676	0.099
465.900	-15.276	0.099
466.000	-7.524	0.099
466.100	-14.299	0.099
466.200	-20.546	0.099
466.300	-13.751	0.099
466.400	-21.642	0.099
466.500	-21.408	0.099
466.600	-18.711	0.099
466.700	-16.287	0.099
466.800	-23.916	0.099
466.900	-25.573	0.099
467.000	-28.747	0.099
467.100	-14.000	0.099
467.200	-10.219	0.099
467.300	-21.261	0.099
467.400	-17.506	0.099
467.500	-31.490	0.099
467.600	-22.338	0.099
467.700	-9.529	0.099
467.800	-21.399	0.099
467.900	-10.322	0.099
468.000	-6.883	0.099
468.100	-15.573	0.099
468.200	-10.171	0.099
468.300	-13.413	0.099
468.400	-8.466	0.099
468.500	-21.463	0.099
468.600	-22.192	0.099
468.700	-25.987	0.099
468.800	-14.172	0.099
468.900	-14.755	0.099
469.000	-12.304	0.099
469.100	-21.526	0.099
469.200	-19.704	0.099
469.300	-20.390	0.099
469.400	-17.025	0.099
469.500	-7.560	0.099
469.600	-9.596	0.099
469.700	-3.795	0.099
469.800	-18.849	0.099
469.900	-19.640	0.099
470.000	-24.312	0.099
470.100	-14.737	0.099
470.200	-13.378	0.099
470.300	-25.786	0.099
470.400	-9.331	0.099
470.500	-18.600	0.099
470.600	-16.318	0.099
470.700	-13.495	0.099
470.800	-17.546	0.099
470.900	-17.255	0.099
471.000	-11.376	0.099
471.100	-15.923	0.099
471.200	-14.534	0.099
471.300	-18.378	0.099
471.400	-22.776	0.099
471.500	-25.449	0.099
471.600	-23.157	0.099
471.700	-19.369	0.099
471.800	-16.717	0.099
471.900	-10.497	0.099
472.000	-11.152	0.099
472.100	-19.619	0.099
472.200	-17.546	0.099
472.300	-12.464	0.099
472.400	-13.472	0.099
472.500	-8.623	0.099
472.600	-22.904	0.099
472.700	-23.593	0.099
472.800	-29.667	0.099
472.900	-28.355	0.099
473.000	-19.660	0.099
473.100	-20.984	0.099
473.200	-9.559	0.099
473.300	-11.474	0.099
473.400	-18.409	0.099
473.500	-19.630	0.099
473.600	-16.494	0.099
473.700	-11.863	0.099
473.800	-18.935	0.099
473.900	-20.921	0.099
474.000	-15.595	0.099
474.100	-11.685	0.099
474.200	-13.209	0.099
474.300	-5.073	0.099
474.400	-15.017	0.099
474.500	-14.576	0.099
474.600	-24.036	0.099
474.700	-19.017	0.099
474.800	-25.002	0.099
474.900	-8.215	0.099
475.000	-16.966	0.099
475.100	-18.350	0.099
475.200	-8.175	0.099
475.300	-14.355	0.099
475.400	-11.320	0.099
475.500	-12.987	0.099
475.600	-16.664	0.099
475.700	-23.139	0.099
475.800	-23.797	0.099
475.900	-18.881	0.099
476.000	-13.366	0.099
476.100	-15.394	0.099
476.200	-22.030	0.099
476.300	-11.873	0.099
476.400	-20.197	0.099
476.500	-25.688	0.099
476.600	-7.796	0.099
476.700	-20.713	0.099
476.800	-16.574	0.099
476.900	-20.797	0.099
477.000	-20.319	0.099
477.100	-13.104	0.099
477.200	-16.866	0.099
477.300	-16.861	0.099
477.400	-10.264	0.099
477.500	-17.207	0.099
477.600	-16.103	0.099
477.700	-20.967	0.099
477.800	-15.843	0.099
477.900	-8.795	0.099
478.000	-13.341	0.099
478.100	-10.613	0.099
478.200	-16.303	0.099
478.300	-16.038	0.099
478.400	-13.897	0.099
478.500	-13.053	0.099
478.600	-12.751	0.099
478.700	-19.882	0.099
478.800	-18.694	0.099
478.900	-31.784	0.099
479.000	-12.771	0.099
479.100	-11.288	0.099
479.200	-8.078	0.099
479.300	-13.521	0.099
479.400	-27.729	0.099
479.500	-17.836	0.099
479.600	-13.658	0.099
479.700	-17.208	0.099
479.800	-25.168	0.099
479.900	-8.447	0.099
480.000	-24.253	0.099
480.100	-24.383	0.099
480.200	-11.187	0.099
480.300	-16.962	0.099
480.400	-15.851	0.099
480.500	-16.878	0.099
480.600	-22.312	0.099
480.700	-7.680	0.099
480.800	-17.005	0.099
480.900	-10.631	0.099
481.000	-2.972	0.099
481.100	-8.313	0.099
481.200	-8.034	0.099
481.300	-14.186	0.099
481.400	-16.280	0.099
481.500	2.171	0.099
481.600	-1.866	0.099
481.700	-4.518	0.099
481.800	-0.323	0.099
481.900	-2.948	0.099
482.000	-9.702	0.099
482.100	12.080	0.099
482.200	2.131	0.099
482.300	13.349	0.099
482.400	1.545	0.099
482.500	0.615	0.099
482.600	3.113	0.099
482.700	5.572	0.099
482.800	-3.235	0.099
482.900	5.996	0.099
483.000	9.827	0.099
483.100	12.434	0.099
483.200	0.858	0.099
483.300	18.679	0.099
483.400	-3.191	0.099
483.500	7.008	0.099
483.600	10.709	0.099
483.700	11.818	0.099
483.800	7.483	0.099
483.900	8.257	0.099
484.000	17.902	0.099
484.100	14.163	0.099
484.200	20.422	0.099
484.300	10.205	0.099
484.400	15.975	0.099
484.500	12.928	0.099
484.600	20.383	0.099
484.700	18.393	0.099
484.800	15.971	0.099
484.900	19.926	0.099
485.000	17.906	0.099
485.100	23.933	0.099
485.200	11.180	0.099
485.300	15.416	0.099
485.400	19.323	0.099
485.500	17.056	0.099
485.600	21.425	0.099
485.700	15.533	0.099
485.800	19.489	0.099
485.900	17.317	0.099
486.000	11.466	0.099
486.100	8.140	0.099
486.200	19.288	0.099
486.300	4.572	0.099
486.400	13.969	0.099
486.500	31.497	0.099
486.600	14.018	0.099
486.700	16.215	0.099
486.800	14.877	0.099
486.900	8.695	0.099
487.000	12.522	0.099
487.100	18.288	0.099
487.200	10.149	0.099
487.300	15.092	0.099
487.400	16.996	0.099
487.500	14.415	0.099
487.600	24.563	0.099
487.700	14.482	0.099
487.800	5.285	0.099
487.900	14.985	0.099
488.000	17.421	0.099
488.100	11.440	0.099
488.200	14.056	0.099
488.300	-6.287	0.099
488.400	0.795	0.099
488.500	15.597	0.099
488.600	27.369	0.099
488.700	12.740	0.099
488.800	17.369	0.099
488.900	13.218	0.099
489.000	11.984	0.099
489.100	8.151	0.099
489.200	13.980	0.099
489.300	12.965	0.099
489.400	11.376	0.099
489.500	17.589	0.099
489.600	11.668	0.099
489.700	11.470	0.099
489.800	15.745	0.099
489.900	18.788	0.099
490.000	11.744	0.099
490.100	7.814	0.099
490.200	18.566	0.099
490.300	15.087	0.099
490.400	14.395	0.099
490.500	15.823	0.099
490.600	-0.423	0.099
490.700	17.793	0.099
490.800	21.548	0.099
490.900	17.829	0.099
491.000	12.689	0.099
491.100	7.553	0.099
491.200	4.795	0.099
491.300	12.612	0.099
491.400	23.903	0.099
491.500	12.823	0.099
491.600	20.643	0.099
491.700	10.380	0.099
491.800	18.714	0.099
491.900	12.981	0.099
492.000	12.480	0.099
492.100	17.886	0.099
492.200	17.887	0.099
492.300	22.362	0.099
492.400	22.190	0.099
492.500	7.443	0.099
492.600	20.817	0.099
492.700	21.930	0.099
492.800	11.849	0.099
492.900	15.338	0.099
493.000	0.925	0.100
493.100	12.598	0.100
493.200	24.603	0.100
493.300	21.053	0.100
493.400	25.176	0.100
493.500	19.519	0.100
493.600	15.592	0.100
493.700	9.549	0.100
493.800	18.400	0.100
493.900	10.322	0.100
494.000	20.218	0.100
494.100	34.042	0.100
494.200	24.172	0.100
494.300	16.145	0.100
494.400	19.819	0.100
494.500	21.921	0.100
494.600	10.485	0.100
494.700	16.890	0.100
494.800	18.819	0.100
494.900	25.347	0.100
495.000	21.672	0.100
495.100	8.107	0.100
495.200	20.771	0.100
495.300	25.098	0.100
495.400	11.105	0.100
495.500	20.398	0.100
495.600	21.866	0.100
495.700	17.597	0.100
495.800	26.800	0.100
495.900	27.522	0.100
496.000	22.399	0.100
496.100	14.068	0.100
496.200	28.997	0.100
496.300	18.578	0.100
496.400	15.182	0.100
496.500	11.823	0.100
496.600	22.401	0.100
496.700	21.745	0.100
496.800	25.515	0.100
496.900	23.748	0.100
497.000	23.989	0.100
497.100	19.905	0.100
497.200	22.432	0.100
497.300	13.651	0.100
497.400	20.797	0.100
497.500	29.520	0.100
497.600	17.207	0.100
497.700	10.400	0.100
497.800	24.565	0.100
497.900	36.210	0.100
498.000	18.377	0.100
498.100	25.930	0.100
498.200	26.168	0.100
498.300	23.227	0.100
498.400	28.799	0.100
498.500	23.170	0.100
498.600	27.607	0.100
498.700	17.208	0.100
498.800	28.010	0.100
498.900	23.908	0.100
499.000	20.219	0.100
499.100	23.140	0.100
499.200	18.704	0.100
499.300	26.113	0.100
499.400	17.737	0.100
499.500	26.677	0.100
499.600	24.284	0.100
499.700	26.521	0.100
499.800	35.000	0.100
499.900	30.018	0.100
500.000	22.769	0.100
500.100	22.525	0.100
500.200	22.964	0.100
500.300	20.825	0.100
500.400	21.565	0.100
500.500	19.771	0.100
500.600	22.518	0.100
500.700	23.999	0.100
500.800	33.438	0.100
500.900	14.909	0.100
501.000	25.895	0.100
501.100	27.801	0.100
501.200	31.045	0.100
501.300	36.595	0.100
501.400	36.856	0.100
501.500	29.573	0.100
501.600	33.367	0.100
501.700	26.816	0.100
501.800	24.687	0.100
501.900	31.334	0.100
502.000	30.055	0.100
502.100	23.923	0.100
502.200	30.043	0.100
502.300	33.235	0.100
502.400	33.883	0.100
502.500	36.650	0.100
502.600	25.879	0.100
502.700	30.214	0.100
502.800	20.698	0.100
502.900	37.020	0.100
503.000	35.464	0.100
503.100	30.149	0.100
503.200	34.935	0.100
503.300	31.953	0.100
503.400	31.369	0.100
503.500	21.430	0.100
503.600	41.036	0.100
503.700	28.904	0.100
503.800	39.383	0.100
503.900	42.650	0.100
504.000	34.695	0.100
504.100	43.058	0.100
504.200	32.790	0.100
504.300	46.262	0.100
504.400	33.910	0.100
504.500	34.397	0.100
504.600	31.539	0.100
504.700	30.335	0.100
504.800	26.317	0.100
504.900	31.936	0.100
505.000	38.002	0.100
505.100	29.442	0.100
505.200	30.424	0.100
505.300	27.629	0.100
505.400	37.143	0.100
505.500	35.296	0.100
505.600	45.113	0.100
505.700	37.394	0.100
505.800	34.017	0.100
505.900	40.733	0.100
506.000	31.754	0.100
506.100	30.658	0.100
506.200	32.527	0.100
506.300	37.959	0.100
506.400	40.571	0.100
506.500	51.373	0.100
506.600	49.070	0.100
506.700	42.305	0.100
506.800	21.584	0.100
506.900	27.022	0.100
507.000	37.589	0.100
507.100	44.711	0.100
507.200	29.681	0.100
507.300	40.345	0.100
507.400	41.670	0.100
507.500	42.384	0.100
507.600	44.056	0.100
507.700	37.412	0.100
507.800	37.804	0.100
507.900	36.861	0.100
508.000	38.791	0.100
508.100	44.264	0.100
508.200	39.921	0.100
508.300	36.197	0.100
508.400	32.819	0.100
508.500	39.550	0.100
508.600	37.194	0.100
508.700	45.373	0.100
508.800	41.786	0.100
508.900	48.231	0.100
509.000	45.907	0.100
509.100	41.964	0.100
509.200	28.842	0.100
509.300	46.967	0.100
509.400	37.715	0.100
509.500	42.779	0.100
509.600	46.367	0.100
509.700	34.602	0.100
509.800	40.576	0.100
509.900	43.054	0.100
510.000	40.327	0.100
510.100	48.905	0.100
510.200	43.671	0.100
510.300	42.013	0.100
510.400	43.243	0.100
510.500	48.067	0.100
510.600	36.989	0.100
510.700	50.692	0.100
510.800	23.526	0.100
510.900	52.180	0.100
511.000	50.604	0.100
511.100	41.117	0.100
511.200	44.957	0.100
511.300	39.814	0.100
511.400	33.982	0.100
511.500	40.659	0.100
511.600	41.799	0.100
511.700	57.207	0.100
511.800	47.468	0.100
511.900	36.883	0.100
512.000	53.780	0.100
512.100	46.147	0.100
512.200	49.234	0.100
512.300	39.008	0.100
512.400	38.849	0.100
512.500	51.109	0.100
512.600	38.285	0.100
512.700	40.193	0.100
512.800	42.780	0.100
512.900	38.884	0.100
513.000	49.977	0.100
513.100	54.124	0.100
513.200	49.269	0.100
513.300	39.214	0.100
513.400	45.845	0.100
513.500	44.035	0.100
513.600	43.768	0.100
513.700	42.308	0.100
513.800	36.164	0.100
513.900	45.662	0.100
514.000	46.124	0.100
514.100	49.322	0.100
514.200	42.151	0.100
514.300	33.665	0.100
514.400	51.506	0.100
514.500	53.218	0.100
514.600	35.886	0.100
514.700	39.550	0.100
514.800	46.714	0.100
514.900	49.368	0.100
515.000	39.992	0.100
515.100	38.649	0.100
515.200	41.931	0.100
515.300	38.012	0.100
515.400	42.684	0.100
515.500	42.601	0.100
515.600	45.359	0.100
515.700	43.114	0.100
515.800	43.193	0.100
515.900	43.741	0.100
516.000	38.586	0.100
516.100	50.255	0.100
516.200	36.037	0.100
516.300	42.316	0.100
516.400	37.128	0.100
516.500	37.104	0.100
516.600	57.521	0.100
516.700	43.758	0.100
516.800	48.791	0.100
516.900	51.170	0.100
517.000	39.646	0.100
517.100	40.522	0.100
517.200	40.554	0.100
517.300	31.592	0.100
517.400	39.624	0.100
517.500	43.418	0.100
517.600	48.886	0.100
517.700	39.025	0.100
517.800	35.505	0.100
517.900	44.882	0.100
518.000	43.114	0.100
518.100	58.895	0.100
518.200	48.850	0.100
518.300	51.714	0.100
518.400	43.413	0.100
518.500	29.010	0.100
518.600	43.206	0.100
518.700	56.552	0.100
518.800	35.984	0.100
518.900	41.286	0.100
519.000	36.377	0.100
519.100	37.638	0.100
519.200	32.212	0.100
519.300	43.075	0.100
519.400	44.921	0.100
519.500	58.136	0.100
519.600	51.095	0.100
519.700	42.116	0.100
519.800	44.317	0.100
519.900	50.416	0.100
520.000	41.177	0.100
520.100	40.704	0.100
520.200	36.143	0.100
520.300	37.011	0.100
520.400	45.249	0.100
520.500	43.091	0.100
520.600	44.931	0.100
520.700	48.954	0.100
520.800	51.616	0.100
520.900	45.004	0.100
521.000	50.535	0.100
521.100	40.119	0.100
521.200	45.088	0.100
521.300	42.782	0.100
521.400	36.878	0.100
521.500	49.074	0.100
521.600	38.350	0.100
521.700	48.942	0.100
521.800	52.312	0.100
521.900	31.263	0.100
522.000	36.852	0.100
522.100	36.518	0.100
522.200	35.244	0.100
522.300	44.956	0.100
522.400	51.707	0.100
522.500	44.417	0.100
522.600	46.458	0.100
522.700	31.795	0.100
522.800	36.657	0.100
522.900	39.497	0.100
523.000	44.308	0.100
523.100	40.719	0.100
523.200	48.960	0.100
523.300	49.321	0.100
523.400	40.386	0.100
523.500	48.993	0.100
523.600	40.169	0.100
523.700	47.509	0.100
523.800	37.365	0.100
523.900	52.436	0.100
524.000	42.166	0.100
524.100	42.045	0.100
524.200	39.546	0.100
524.300	45.897	0.100
524.400	43.276	0.100
524.500	41.114	0.100
524.600	45.789	0.100
524.700	55.413	0.100
524.800	37.665	0.100
524.900	43.004	0.100
525.000	39.455	0.100
525.100	42.719	0.100
525.200	44.335	0.100
525.300	42.333	0.100
525.400	46.625	0.100
525.500	27.658	0.100
525.600	45.423	0.100
525.700	44.024	0.100
525.800	38.423	0.100
525.900	38.577	0.100
526.000	44.511	0.100
526.100	44.371	0.100
526.200	46.738	0.100
526.300	53.911	0.100
526.400	43.507	0.100
526.500	35.429	0.100
526.600	30.875	0.100
526.700	32.633	0.100
526.800	45.117	0.100
526.900	51.452	0.100
527.000	53.852	0.100
527.100	48.820	0.100
527.200	45.742	0.100
527.300	43.840	0.100
527.400	51.965	0.100
527.500	28.551	0.100
527.600	43.776	0.100
527.700	51.797	0.100
527.800	53.731	0.100
527.900	44.220	0.100
528.000	44.527	0.100
528.100	48.308	0.100
528.200	46.754	0.100
528.300	41.115	0.100
528.400	40.680	0.100
528.500	41.313	0.100
528.600	43.722	0.100
528.700	42.305	0.100
528.800	37.056	0.100
528.900	40.337	0.100
529.000	51.592	0.100
529.100	42.969	0.100
529.200	45.075	0.100
529.300	28.750	0.100
529.400	40.998	0.100
529.500	28.729	0.100
529.600	46.330	0.100
529.700	45.034	0.100
529.800	49.753	0.100
529.900	47.266	0.100
530.000	39.877	0.100
530.100	36.935	0.100
530.200	49.717	0.100
530.300	33.738	0.100
530.400	52.941	0.100
530.500	47.483	0.100
530.600	55.170	0.100
530.700	49.290	0.100
530.800	38.950	0.100
530.900	45.397	0.100
531.000	43.206	0.100
531.100	52.989	0.100
531.200	43.679	0.100
531.300	40.205	0.100
531.400	47.889	0.100
531.500	46.089	0.100
531.600	53.229	0.100
531.700	51.836	0.100
531.800	47.442	0.100
531.900	44.737	0.100
532.000	40.216	0.100
532.100	43.419	0.100
532.200	40.354	0.100
532.300	44.688	0.100
532.400	41.475	0.100
532.500	51.920	0.100
532.600	35.711	0.100
532.700	30.485	0.100
532.800	34.077	0.100
532.900	49.920	0.100
533.000	48.467	0.100
533.100	42.291	0.100
533.200	53.147	0.100
533.300	42.632	0.100
533.400	42.152	0.100
533.500	43.489	0.100
533.600	38.325	0.100
533.700	45.955	0.100
533.800	35.522	0.100
533.900	47.083	0.100
534.000	45.799	0.100
534.100	52.062	0.100
534.200	43.025	0.100
534.300	32.905	0.100
534.400	41.337	0.100
534.500	50.074	0.100
534.600	57.955	0.100
534.700	51.582	0.100
534.800	48.549	0.100
534.900	34.419	0.100
535.000	41.380	0.100
535.100	52.039	0.100
535.200	39.848	0.100
535.300	37.419	0.100
535.400	47.277	0.100
535.500	44.837	0.100
535.600	39.769	0.100
535.700	39.847	0.100
535.800	48.965	0.100
535.900	48.237	0.100
536.000	37.678	0.100
536.100	43.576	0.100
536.200	42.498	0.100
536.300	44.390	0.100
536.400	40.339	0.100
536.500	43.927	0.100
536.600	36.417	0.100
536.700	49.850	0.100
536.800	49.405	0.100
536.900	43.790	0.100
537.000	31.469	0.100
537.100	32.886	0.100
537.200	48.774	0.100
537.300	51.250	0.100
537.400	51.807	0.100
537.500	40.361	0.100
537.600	44.543	0.100
537.700	36.326	0.100
537.800	45.760	0.100
537.900	49.830	0.100
538.000	52.451	0.100
538.100	53.108	0.100
538.200	44.212	0.100
538.300	34.189	0.100
538.400	34.901	0.100
538.500	45.502	0.100
538.600	44.247	0.100
538.700	50.945	0.100
538.800	45.636	0.100
538.900	46.382	0.100
539.000	48.830	0.100
539.100	37.481	0.100
539.200	42.858	0.100
539.300	50.405	0.100
539.400	37.685	0.100
539.500	44.127	0.100
539.600	34.737	0.100
539.700	46.079	0.100
539.800	37.444	0.100
539.900	41.731	0.100
540.000	44.740	0.100
540.100	44.991	0.100
540.200	47.924	0.100
540.300	45.801	0.100
540.400	36.853	0.100
540.500	44.334	0.100
540.600	42.246	0.100
540.700	34.726	0.100
540.800	31.067	0.100
540.900	37.834	0.100
541.000	33.592	0.100
541.100	43.412	0.100
541.200	44.768	0.100
541.300	40.659	0.100
541.400	35.403	0.100
541.500	28.447	0.100
541.600	24.066	0.100
541.700	23.063	0.100
541.800	25.467	0.100
541.900	20.025	0.100
542.000	22.626	0.100
542.100	15.163	0.100
542.200	27.404	0.100
542.300	9.461	0.100
542.400	24.675	0.100
542.500	24.122	0.100
542.600	17.960	0.100
542.700	14.575	0.100
542.800	20.791	0.100
542.900	11.898	0.100
543.000	5.549	0.100
543.100	8.912	0.100
543.200	3.488	0.100
543.300	1.911	0.100
543.400	15.476	0.100
543.500	-2.025	0.100
543.600	17.909	0.100
543.700	8.762	0.100
543.800	8.592	0.100
543.900	4.027	0.100
544.000	-2.986	0.100
544.100	8.101	0.100
544.200	13.479	0.100
544.300	9.732	0.100
544.400	11.081	0.100
544.500	1.278	0.100
544.600	-7.849	0.100
544.700	13.778	0.100
544.800	6.575	0.100
544.900	1.874	0.100
545.000	5.630	0.100
545.100	2.989	0.100
545.200	0.538	0.100
545.300	-7.355	0.100
545.400	4.295	0.100
545.500	-2.125	0.100
545.600	8.918	0.100
545.700	10.037	0.100
545.800	2.248	0.100
545.900	5.998	0.100
546.000	-4.188	0.100
546.100	2.838	0.100
546.200	10.744	0.100
546.300	-1.503	0.100
546.400	-4.208	0.100
546.500	7.444	0.100
546.600	0.661	0.100
546.700	-5.681	0.100
546.800	-0.624	0.100
546.900	-8.486	0.100
547.000	10.471	0.100
547.100	2.710	0.100
547.200	6.978	0.100
547.300	-7.624	0.100
547.400	-5.706	0.100
547.500	-1.843	0.100
547.600	2.083	0.100
547.700	-4.089	0.100
547.800	1.850	0.100
547.900	19.900	0.100
548.000	4.283	0.100
548.100	12.273	0.100
548.200	-0.558	0.100
548.300	0.032	0.100
548.400	-0.233	0.100
548.500	6.740	0.100
548.600	11.313	0.100
548.700	5.347	0.100
548.800	1.343	0.100
548.900	-12.114	0.100
549.000	-8.239	0.100
549.100	11.568	0.100
549.200	-2.158	0.100
549.300	3.638	0.100
549.400	-10.851	0.100
549.500	6.241	0.100
549.600	2.915	0.100
549.700	-2.535	0.100
549.800	0.857	0.100
549.900	0.627	0.100
550.000	-2.667	0.100
550.100	-6.471	0.100
550.200	-0.742	0.100
550.300	-3.988	0.100
550.400	-2.440	0.100
550.500	-1.259	0.100
550.600	-10.463	0.100
550.700	-3.962	0.100
550.800	-1.100	0.100
550.900	-0.848	0.100
551.000	-6.967	0.100
551.100	-2.042	0.100
551.200	2.330	0.100
551.300	2.995	0.100
551.400	-1.345	0.100
551.500	7.035	0.100
551.600	1.834	0.100
551.700	3.199	0.100
551.800	0.058	0.100
551.900	-5.411	0.100
552.000	-11.481	0.100
552.100	2.689	0.100
552.200	4.215	0.100
552.300	-0.459	0.100
552.400	2.360	0.100
552.500	-12.687	0.100
552.600	-6.688	0.100
552.700	2.022	0.100
552.800	-6.918	0.100
552.900	-12.885	0.100
553.000	-10.505	0.100
553.100	0.832	0.100
553.200	-0.548	0.100
553.300	-4.719	0.100
553.400	-3.273	0.100
553.500	0.366	0.100
553.600	-8.816	0.100
553.700	-5.050	0.100
553.800	3.987	0.100
553.900	-7.754	0.100
554.000	-4.441	0.100
554.100	-2.449	0.100
554.200	-5.503	0.100
554.300	-8.689	0.100
554.400	-4.234	0.100
554.500	-0.994	0.100
554.600	-2.782	0.100
554.700	-2.910	0.100
554.800	-4.979	0.100
554.900	-6.025	0.100
555.000	-8.103	0.100
555.100	-7.814	0.100
555.200	-11.628	0.100
555.300	-14.507	0.100
555.400	-0.636	0.100
555.500	5.542	0.100
555.600	-11.393	0.100
555.700	-8.085	0.100
555.800	-0.253	0.100
555.900	0.995	0.100
556.000	-5.176	0.100
556.100	-16.459	0.100
556.200	-13.259	0.100
556.300	-15.220	0.100
556.400	-15.434	0.100
556.500	-20.053	0.100
556.600	-18.249	0.100
556.700	0.543	0.100
556.800	4.630	0.100
556.900	2.151	0.100
557.000	-9.105	0.100
557.100	-9.058	0.100
557.200	-11.484	0.100
557.300	-15.988	0.100
557.400	-10.521	0.100
557.500	-13.280	0.100
557.600	-14.523	0.100
557.700	-3.115	0.100
557.800	-2.378	0.100
557.900	-3.516	0.100
558.000	-6.714	0.100
558.100	-7.766	0.100
558.200	-6.243	0.100
558.300	-7.792	0.100
558.400	-12.574	0.100
558.500	-21.380	0.100
558.600	-4.489	0.100
558.700	-3.173	0.100
558.800	-10.149	0.100
558.900	-8.438	0.100
559.000	-12.777	0.100
559.100	-5.314	0.100
559.200	-5.460	0.100
559.300	-5.233	0.100
559.400	-10.280	0.100
559.500	-16.841	0.100
559.600	-12.853	0.100
559.700	1.115	0.100
559.800	-10.472	0.100
559.900	-12.777	0.100
560.000	-15.300	0.100
560.100	-8.790	0.100
560.200	-4.538	0.100
560.300	-6.830	0.100
560.400	-14.963	0.100
560.500	-8.587	0.100
560.600	-10.385	0.100
560.700	-3.548	0.100
560.800	-19.410	0.100
560.900	-1.898	0.100
561.000	-11.467	0.100
561.100	2.426	0.100
561.200	-0.889	0.100
561.300	-14.865	0.100
561.400	-9.675	0.100
561.500	-0.322	0.100
561.600	-9.779	0.100
561.700	-11.739	0.100
561.800	-17.039	0.100
561.900	-15.657	0.100
562.000	-12.853	0.100
562.100	-17.740	0.100
562.200	-13.271	0.100
562.300	-13.144	0.100
562.400	-15.499	0.100
562.500	1.087	0.100
562.600	-9.099	0.100
562.700	-10.094	0.100
562.800	-11.614	0.100
562.900	-18.904	0.100
563.000	-13.747	0.100
563.100	-12.526	0.100
563.200	-14.127	0.100
563.300	-13.523	0.100
563.400	-14.159	0.100
563.500	-9.137	0.100
563.600	-18.099	0.100
563.700	-15.125	0.100
563.800	-11.095	0.100
563.900	-14.476	0.100
564.000	-11.818	0.100
564.100	-11.473	0.100
564.200	-11.095	0.100
564.300	-11.279	0.100
564.400	-5.231	0.100
564.500	-8.347	0.100
564.600	-22.209	0.100
564.700	-12.539	0.100
564.800	-14.869	0.100
564.900	-11.291	0.100
565.000	-13.322	0.100
565.100	-11.984	0.100
565.200	-14.631	0.100
565.300	-9.837	0.100
565.400	-14.503	0.100
565.500	-12.411	0.100
565.600	0.894	0.100
565.700	-9.528	0.100
565.800	-16.289	0.100
565.900	-11.855	0.100
566.000	-16.887	0.100
566.100	-10.750	0.100
566.200	-15.494	0.100
566.300	-7.034	0.100
566.400	-13.590	0.100
566.500	-13.597	0.100
566.600	-15.703	0.100
566.700	-9.087	0.100
566.800	-18.767	0.100
566.900	-23.437	0.100
567.000	-14.107	0.100
567.100	-20.210	0.100
567.200	-15.114	0.100
567.300	-19.546	0.100
567.400	-8.909	0.100
567.500	-23.130	0.100
567.600	-21.105	0.100
567.700	-8.814	0.100
567.800	-12.535	0.100
567.900	-2.110	0.100
568.000	-17.078	0.100
568.100	-20.157	0.100
568.200	-7.947	0.100
568.300	-10.763	0.100
568.400	-16.295	0.100
568.500	-11.303	0.100
568.600	-19.521	0.100
568.700	-12.545	0.100
568.800	-20.134	0.100
568.900	-10.734	0.100
569.000	-13.598	0.100
569.100	-15.204	0.100
569.200	-14.131	0.100
569.300	-11.663	0.100
569.400	-18.652	0.100
569.500	-15.039	0.100
569.600	-13.007	0.100
569.700	-21.605	0.100
569.800	-19.472	0.100
569.900	-20.141	0.100
570.000	-16.770	0.100
570.100	-22.720	0.100
570.200	-23.452	0.100
570.300	-17.871	0.100
570.400	-7.569	0.100
570.500	-9.932	0.100
570.600	-19.208	0.100
570.700	-12.590	0.100
570.800	-20.547	0.100
570.900	-21.315	0.100
571.000	-16.245	0.100
571.100	-29.159	0.100
571.200	-11.405	0.100
571.300	-16.895	0.100
571.400	-15.714	0.100
571.500	-7.094	0.100
571.600	-14.692	0.100
571.700	-17.789	0.100
571.800	-20.577	0.100
571.900	-15.632	0.100
572.000	-20.857	0.100
572.100	-16.008	0.100
572.200	-9.325	0.100
572.300	-13.588	0.100
572.400	-13.825	0.100
572.500	-20.318	0.100
572.600	-11.966	0.100
572.700	-20.459	0.100
572.800	-10.703	0.100
572.900	-19.339	0.100
573.000	-27.923	0.100
573.100	-10.647	0.100
573.200	-10.826	0.100
573.300	-14.961	0.100
573.400	-7.689	0.100
573.500	-19.317	0.100
573.600	-17.165	0.100
573.700	-27.711	0.100
573.800	-30.290	0.100
573.900	-14.653	0.100
574.000	-24.012	0.100
574.100	-14.087	0.100
574.200	-12.153	0.100
574.300	-18.202	0.100
574.400	-26.911	0.100
574.500	-10.149	0.100
574.600	-24.158	0.100
574.700	-13.383	0.100
574.800	-19.463	0.100
574.900	-18.652	0.100
575.000	-21.358	0.100
575.100	-14.180	0.100
575.200	-17.558	0.100
575.300	-20.265	0.100
575.400	-28.310	0.100
575.500	-32.572	0.100
575.600	-18.695	0.100
575.700	-19.055	0.100
575.800	-14.866	0.100
575.900	-8.451	0.100
576.000	-16.297	0.100
576.100	-26.809	0.100
576.200	-27.042	0.100
576.300	-17.201	0.100
576.400	-19.521	0.100
576.500	-18.034	0.100
576.600	-22.272	0.100
576.700	-20.500	0.100
576.800	-9.017	0.100
576.900	-12.161	0.100
577.000	-20.898	0.100
577.100	-21.571	0.100
577.200	-22.696	0.100
577.300	-11.862	0.100
577.400	-27.036	0.100
577.500	-12.452	0.100
577.600	-18.833	0.100
577.700	-22.839	0.100
577.800	-33.467	0.100
577.900	-12.560	0.100
578.000	-19.613	0.100
578.100	-12.771	0.100
578.200	-19.737	0.100
578.300	-29.275	0.100
578.400	-17.015	0.100
578.500	-24.505	0.100
578.600	-26.896	0.100
578.700	-13.467	0.100
578.800	-13.849	0.100
578.900	-16.943	0.100
579.000	-19.255	0.100
579.100	-13.103	0.100
579.200	-21.571	0.100
579.300	-31.159	0.100
579.400	-9.268	0.100
579.500	-19.675	0.100
579.600	-28.115	0.100
579.700	-21.713	0.100
579.800	-23.132	0.100
579.900	-14.330	0.100
580.000	-21.059	0.100
580.100	-21.745	0.100
580.200	-22.971	0.100
580.300	-27.995	0.100
580.400	-15.773	0.100
580.500	-28.770	0.100
580.600	-18.597	0.100
580.700	-19.745	0.100
580.800	-21.056	0.100
580.900	-18.537	0.100
581.000	-23.722	0.100
581.100	-10.154	0.100
581.200	-17.682	0.100
581.300	-21.861	0.100
581.400	-21.797	0.100
581.500	-22.997	0.100
581.600	-16.590	0.100
581.700	-20.684	0.100
581.800	-28.553	0.100
581.900	-21.033	0.100
582.000	-12.879	0.100
582.100	-24.132	0.100
582.200	-30.358	0.100
582.300	-24.563	0.100
582.400	-8.888	0.100
582.500	-14.030	0.100
582.600	-14.236	0.100
582.700	-16.251	0.100
582.800	-17.761	0.100
582.900	-24.531	0.100
583.000	-22.161	0.100
583.100	-23.644	0.100
583.200	-18.144	0.100
583.300	-23.095	0.100
583.400	-24.486	0.100
583.500	-25.771	0.100
583.600	-17.871	0.100
583.700	-27.912	0.100
583.800	-34.994	0.100
583.900	-18.141	0.100
584.000	-19.424	0.100
584.100	-14.056	0.100
584.200	-22.131	0.100
584.300	-22.300	0.100
584.400	-20.675	0.100
584.500	-18.101	0.100
584.600	-26.191	0.100
584.700	-17.489	0.100
584.800	-11.320	0.100
584.900	-14.914	0.100
585.000	-17.815	0.100
585.100	-18.888	0.100
585.200	-28.623	0.100
585.300	-25.911	0.100
585.400	-14.350	0.100
585.500	-16.517	0.100
585.600	-20.809	0.100
585.700	-26.067	0.100
585.800	-12.986	0.100
585.900	-25.188	0.100
586.000	-17.121	0.100
586.100	-15.316	0.100
586.200	-16.719	0.100
586.300	-26.212	0.100
586.400	-15.186	0.100
586.500	-24.734	0.100
586.600	-22.910	0.100
586.700	-15.830	0.100
586.800	-24.224	0.100
586.900	-23.014	0.100
587.000	-21.103	0.100
587.100	-24.403	0.100
587.200	-20.477	0.100
587.300	-15.297	0.100
587.400	-18.307	0.100
587.500	-24.767	0.100
587.600	-23.109	0.100
587.700	-33.368	0.100
587.800	-22.844	0.100
587.900	-17.186	0.100
588.000	-16.338	0.100
588.100	-26.943	0.100
588.200	-18.240	0.100
588.300	-16.821	0.100
588.400	-21.654	0.100
588.500	-15.521	0.100
588.600	-17.972	0.100
588.700	-36.399	0.100
588.800	-34.437	0.100
588.900	-17.065	0.100
589.000	-20.469	0.100
589.100	-17.076	0.100
589.200	-20.846	0.100
589.300	-13.150	0.100
589.400	-19.466	0.100
589.500	-6.257	0.100
589.600	-22.323	0.100
589.700	-25.890	0.100
589.800	-23.540	0.100
589.900	-20.622	0.100
590.000	-26.361	0.100
590.100	-22.559	0.100
590.200	-14.031	0.100
590.300	-22.738	0.100
590.400	-24.783	0.100
590.500	-11.752	0.100
590.600	-22.866	0.100
590.700	-31.108	0.100
590.800	-29.831	0.100
590.900	-21.978	0.100
591.000	-21.823	0.100
591.100	-10.100	0.100
591.200	-21.923	0.100
591.300	-25.768	0.100
591.400	-28.500	0.100
591.500	-27.992	0.100
591.600	-16.544	0.100
591.700	-19.238	0.100
591.800	-27.453	0.100
591.900	-18.078	0.100
592.000	-18.538	0.100
592.100	-14.854	0.100
592.200	-23.701	0.100
592.300	-25.554	0.100
592.400	-16.466	0.100
592.500	-19.248	0.100
592.600	-24.825	0.100
592.700	-24.697	0.100
592.800	-14.309	0.100
592.900	-28.002	0.100
593.000	-24.936	0.100
593.100	-12.282	0.100
593.200	-12.003	0.100
593.300	-15.924	0.100
593.400	-10.670	0.100
593.500	-32.873	0.100
593.600	-19.352	0.100
593.700	-31.975	0.100
593.800	-18.594	0.100
593.900	-21.227	0.100
594.000	-12.038	0.100
594.100	-24.660	0.100
594.200	-16.424	0.100
594.300	-22.290	0.100
594.400	-23.759	0.100
594.500	-15.849	0.100
594.600	-12.647	0.100
594.700	-23.782	0.100
594.800	-15.365	0.100
594.900	-12.739	0.100
595.000	-18.763	0.100
595.100	-19.892	0.100
595.200	-16.222	0.100
595.300	-20.314	0.100
595.400	-25.776	0.100
595.500	-30.835	0.100
595.600	-26.102	0.100
595.700	-17.913	0.100
595.800	-17.909	0.100
595.900	-31.634	0.100
596.000	-14.651	0.100
596.100	-19.889	0.100
596.200	-26.905	0.100
596.300	-17.997	0.100
596.400	-26.122	0.100
596.500	-32.565	0.100
596.600	-16.447	0.100
596.700	-12.097	0.100
596.800	-21.579	0.100
596.900	-13.504	0.100
597.000	-16.541	0.100
597.100	-21.774	0.100
597.200	-19.716	0.100
597.300	-21.677	0.100
597.400	-26.796	0.100
597.500	-27.010	0.100
597.600	-21.768	0.100
597.700	-21.054	0.100
597.800	-11.440	0.100
597.900	-28.676	0.100
598.000	-32.138	0.100
598.100	-24.966	0.100
598.200	-10.403	0.100
598.300	-17.225	0.100
598.400	-16.575	0.100
598.500	-16.010	0.100
598.600	-25.236	0.100
598.700	-16.579	0.100
598.800	-24.451	0.100
598.900	-22.775	0.100
599.000	-19.938	0.100
599.100	-29.266	0.100
599.200	-23.663	0.100
599.300	-16.482	0.100
599.400	-22.410	0.100
599.500	-20.191	0.100
599.600	-16.418	0.100
599.700	-18.304	0.100
599.800	-26.491	0.100
599.900	-16.115	0.100
600.000	-23.264	0.100
600.100	-20.043	0.100
600.200	-18.026	0.100
600.300	-21.261	0.100
600.400	-15.041	0.100
600.500	-13.956	0.100
600.600	-22.937	0.100
600.700	-22.569	0.100
600.800	-22.054	0.100
600.900	-22.300	0.100
601.000	-15.773	0.100
601.100	-12.117	0.100
601.200	-23.370	0.100
601.300	-22.929	0.100
601.400	-23.215	0.100
601.500	-21.225	0.100
601.600	-14.925	0.100
601.700	-14.539	0.100
601.800	-13.822	0.100
601.900	-25.167	0.100
602.000	-18.881	0.100
602.100	-13.008	0.100
602.200	-10.346	0.100
602.300	-24.496	0.100
602.400	-26.886	0.100
602.500	-21.941	0.100
602.600	-11.795	0.100
602.700	-19.918	0.100
602.800	-15.631	0.100
602.900	-30.153	0.100
603.000	-22.410	0.100
603.100	-21.383	0.100
603.200	-24.631	0.100
603.300	-25.803	0.100
603.400	-17.614	0.100
603.500	-7.746	0.100
603.600	-20.924	0.100
603.700	-19.629	0.100
603.800	-24.196	0.100
603.900	-23.706	0.100
604.000	-21.557	0.100
604.100	-29.267	0.100
604.200	-18.408	0.100
604.300	-24.424	0.100
604.400	-13.559	0.100
604.500	-12.923	0.100
604.600	-19.462	0.100
604.700	-25.734	0.100
604.800	-21.449	0.100
604.900	-27.128	0.100
605.000	-23.695	0.100
605.100	-22.158	0.100
605.200	-17.456	0.100
605.300	-16.677	0.100
605.400	-21.405	0.100
605.500	-18.760	0.100
605.600	-10.449	0.100
605.700	-22.287	0.100
605.800	-24.950	0.100
605.900	-23.002	0.100
606.000	-14.648	0.100
606.100	-32.436	0.100
606.200	-19.688	0.100
606.300	-22.411	0.100
606.400	-9.914	0.100
606.500	-26.316	0.100
606.600	-13.737	0.100
606.700	-18.790	0.100
606.800	-16.956	0.100
606.900	-22.996	0.100
607.000	-18.243	0.100
607.100	-14.984	0.100
607.200	-23.768	0.100
607.300	-21.728	0.100
607.400	-26.958	0.100
607.500	-18.861	0.100
607.600	-18.846	0.100
607.700	-8.593	0.100
607.800	-16.872	0.100
607.900	-7.096	0.100
608.000	-9.607	0.100
608.100	-14.841	0.100
608.200	-19.119	0.100
608.300	-18.229	0.100
608.400	-28.577	0.100
608.500	-20.055	0.100
608.600	-15.872	0.100
608.700	-26.350	0.100
608.800	-33.206	0.100
608.900	-20.854	0.100
609.000	-18.508	0.100
609.100	-22.731	0.100
609.200	-16.083	0.100
609.300	-19.504	0.100
609.400	-24.243	0.100
609.500	-18.976	0.100
609.600	-16.677	0.100
609.700	-12.873	0.100
609.800	-20.227	0.100
609.900	-13.979	0.100
610.000	-28.066	0.100
610.100	-22.542	0.100
610.200	-15.141	0.100
610.300	-26.540	0.100
610.400	-35.848	0.100
610.500	-28.760	0.100
610.600	-8.410	0.100
610.700	-17.965	0.100
610.800	-15.765	0.100
610.900	-29.837	0.100
611.000	-22.344	0.100
611.100	-20.145	0.100
611.200	-16.919	0.100
611.300	-17.470	0.100
611.400	-15.355	0.100
611.500	-20.280	0.100
611.600	-26.751	0.100
611.700	-13.787	0.100
611.800	-21.668	0.100
611.900	-17.127	0.100
612.000	-26.356	0.100
612.100	-20.631	0.100
612.200	-15.974	0.100
612.300	-11.400	0.100
612.400	-17.676	0.100
612.500	-30.277	0.100
612.600	-24.529	0.100
612.700	-20.016	0.100
612.800	-10.511	0.100
612.900	-14.758	0.100
613.000	-12.901	0.100
613.100	-15.947	0.100
613.200	-16.060	0.100
613.300	-15.517	0.100
613.400	-18.326	0.100
613.500	-23.903	0.100
613.600	-19.339	0.100
613.700	-23.664	0.100
613.800	-15.200	0.100
613.900	-17.151	0.100
614.000	-21.117	0.100
614.100	-16.465	0.100
614.200	-26.809	0.100
614.300	-20.986	0.100
614.400	-12.616	0.100
614.500	-17.532	0.100
614.600	-26.395	0.100
614.700	-17.218	0.100
614.800	-11.566	0.100
614.900	-13.913	0.100
615.000	-21.224	0.100
615.100	-23.063	0.100
615.200	-21.716	0.100
615.300	-29.624	0.100
615.400	-28.807	0.100
615.500	-17.618	0.100
615.600	-24.288	0.100
615.700	-8.260	0.100
615.800	-22.093	0.100
615.900	-24.199	0.100
616.000	-26.421	0.100
616.100	-24.323	0.100
616.200	-14.809	0.100
616.300	-16.753	0.100
616.400	-15.340	0.100
616.500	-20.142	0.100
616.600	-3.890	0.100
616.700	-3.316	0.100
616.800	-9.238	0.100
616.900	-12.922	0.100
617.000	-17.413	0.100
617.100	-16.432	0.100
617.200	-19.860	0.100
617.300	-18.770	0.100
617.400	-10.795	0.100
617.500	-20.444	0.100
617.600	-18.905	0.100
617.700	-27.217	0.100
617.800	-20.112	0.100
617.900	-18.326	0.100
618.000	-14.638	0.100
618.100	-23.832	0.100
618.200	-29.538	0.100
618.300	-14.923	0.100
618.400	-8.984	0.100
618.500	-16.707	0.100
618.600	-12.970	0.100
618.700	-19.169	0.100
618.800	-18.077	0.100
618.900	-17.810	0.100
619.000	-33.542	0.100
619.100	-20.196	0.100
619.200	-23.364	0.100
619.300	-4.950	0.100
619.400	-18.777	0.100
619.500	-30.035	0.100
619.600	-16.581	0.100
619.700	-14.675	0.100
619.800	-23.386	0.100
619.900	-23.112	0.100
620.000	-16.631	0.100
620.100	-17.351	0.100
620.200	-21.664	0.100
620.300	-23.578	0.100
620.400	-25.222	0.100
620.500	-20.437	0.100
620.600	-16.372	0.100
620.700	-9.628	0.100
620.800	-12.488	0.100
620.900	-15.007	0.100
621.000	-24.347	0.100
621.100	-7.184	0.100
621.200	-13.932	0.100
621.300	-14.387	0.100
621.400	-15.901	0.100
621.500	-20.596	0.100
621.600	-31.937	0.100
621.700	-15.718	0.100
621.800	-9.613	0.100
621.900	-15.223	0.100
622.000	-20.664	0.100
622.100	-17.022	0.100
622.200	-18.078	0.100
622.300	-14.116	0.100
622.400	-13.598	0.100
622.500	-19.579	0.100
622.600	-12.007	0.100
622.700	-15.945	0.100
622.800	-18.688	0.100
622.900	-26.999	0.100
623.000	-18.002	0.100
623.100	-18.913	0.100
623.200	-15.068	0.100
623.300	-15.684	0.100
623.400	-13.592	0.100
623.500	-26.859	0.100
623.600	-25.263	0.100
623.700	-18.890	0.100
623.800	-19.672	0.100
623.900	-16.388	0.100
624.000	-27.365	0.100
624.100	-23.196	0.100
624.200	-10.077	0.100
624.300	-11.097	0.100
624.400	-23.271	0.100
624.500	-18.410	0.100
624.600	-16.551	0.100
624.700	-22.764	0.100
624.800	-16.475	0.100
624.900	-10.107	0.100
625.000	-19.356	0.100
625.100	-7.853	0.100
625.200	-8.106	0.100
625.300	-11.380	0.100
625.400	-15.604	0.100
625.500	-16.679	0.100
625.600	-19.564	0.100
625.700	-25.439	0.100
625.800	-12.919	0.100
625.900	-11.802	0.100
626.000	-22.100	0.100
626.100	-15.077	0.100
626.200	-9.625	0.100
626.300	-13.994	0.100
626.400	-15.846	0.100
626.500	-18.922	0.100
626.600	-17.639	0.100
626.700	-17.558	0.100
626.800	-19.904	0.100
626.900	-13.353	0.100
627.000	-22.609	0.100
627.100	-14.858	0.100
627.200	-21.860	0.100
627.300	-19.806	0.100
627.400	-13.837	0.100
627.500	-17.395	0.100
627.600	-9.424	0.100
627.700	-10.275	0.100
627.800	-11.887	0.100
627.900	-11.419	0.100
628.000	-16.904	0.100
628.100	-26.284	0.100
628.200	-21.038	0.100
628.300	-21.000	0.100
628.400	-19.569	0.100
628.500	-19.422	0.100
628.600	-16.855	0.100
628.700	-10.500	0.100
628.800	-10.958	0.100
628.900	-20.922	0.100
629.000	-28.799	0.100
629.100	-15.152	0.100
629.200	-17.915	0.100
629.300	-29.832	0.100
629.400	-23.084	0.100
629.500	-26.121	0.100
629.600	-12.084	0.100
629.700	-12.059	0.100
629.800	-5.284	0.100
629.900	-17.738	0.100
630.000	-13.951	0.100
630.100	-21.979	0.100
630.200	-14.681	0.100
630.300	-19.240	0.100
630.400	-25.659	0.100
630.500	-16.085	0.100
630.600	-18.069	0.100
630.700	-20.430	0.100
630.800	-15.959	0.100
630.900	-7.378	0.100
631.000	-15.478	0.100
631.100	-20.411	0.100
631.200	-5.223	0.100
631.300	-0.571	0.100
631.400	1.538	0.100
631.500	-3.815	0.100
631.600	-4.155	0.100
631.700	6.119	0.100
631.800	-3.851	0.100
631.900	15.443	0.100
632.000	-2.795	0.100
632.100	-3.761	0.100
632.200	-0.026	0.100
632.300	-1.545	0.100
632.400	-9.560	0.100
632.500	11.149	0.100
632.600	2.644	0.100
632.700	7.917	0.100
632.800	3.885	0.100
632.900	0.951	0.100
633.000	12.256	0.100
633.100	20.834	0.100
633.200	12.021	0.100
633.300	9.345	0.100
633.400	-0.968	0.100
633.500	8.973	0.100
633.600	8.795	0.100
633.700	2.222	0.100
633.800	11.992	0.100
633.900	14.562	0.100
634.000	20.215	0.100
634.100	16.737	0.100
634.200	15.496	0.100
634.300	11.529	0.100
634.400	14.016	0.100
634.500	8.198	0.100
634.600	14.049	0.100
634.700	21.351	0.100
634.800	17.474	0.100
634.900	11.054	0.100
635.000	14.324	0.100
635.100	17.374	0.100
635.200	24.798	0.100
635.300	19.444	0.100
635.400	16.415	0.100
635.500	12.752	0.100
635.600	11.037	0.100
635.700	13.476	0.100
635.800	13.619	0.100
635.900	8.517	0.100
636.000	18.224	0.100
636.100	19.235	0.100
636.200	18.125	0.100
636.300	17.044	0.100
636.400	7.891	0.100
636.500	14.380	0.100
636.600	23.407	0.100
636.700	17.043	0.100
636.800	21.656	0.100
636.900	17.618	0.100
637.000	21.217	0.100
637.100	16.891	0.100
637.200	12.398	0.100
637.300	23.308	0.100
637.400	20.188	0.100
637.500	14.744	0.100
637.600	15.725	0.100
637.700	5.944	0.100
637.800	5.538	0.100
637.900	11.417	0.100
638.000	14.335	0.100
638.100	2.663	0.100
638.200	19.279	0.100
638.300	14.128	0.100
638.400	12.781	0.100
638.500	7.958	0.100
638.600	14.002	0.100
638.700	11.483	0.100
638.800	14.763	0.100
638.900	14.035	0.100
639.000	22.641	0.100
639.100	12.634	0.100
639.200	13.280	0.100
639.300	12.859	0.100
639.400	19.271	0.100
639.500	14.885	0.100
639.600	15.458	0.100
639.700	16.522	0.100
639.800	17.755	0.100
639.900	9.978	0.100
640.000	4.823	0.100
640.100	22.916	0.100
640.200	11.570	0.100
640.300	17.095	0.100
640.400	5.769	0.100
640.500	14.399	0.100
640.600	15.848	0.100
640.700	14.598	0.100
640.800	16.075	0.100
640.900	8.600	0.100
641.000	13.690	0.100
641.100	17.037	0.100
641.200	15.315	0.100
641.300	14.702	0.100
641.400	17.266	0.100
641.500	11.528	0.100
641.600	17.356	0.100
641.700	21.961	0.100
641.800	19.233	0.100
641.900	15.410	0.100
642.000	13.591	0.100
642.100	17.135	0.100
642.200	5.338	0.100
642.300	9.218	0.100
642.400	25.053	0.100
642.500	1.326	0.100
642.600	6.996	0.100
642.700	13.949	0.100
642.800	32.534	0.100
642.900	19.376	0.100
643.000	25.259	0.100
643.100	25.319	0.100
643.200	21.128	0.100
643.300	17.819	0.100
643.400	13.245	0.100
643.500	6.070	0.100
643.600	14.916	0.100
643.700	18.667	0.100
643.800	27.582	0.100
643.900	14.506	0.100
644.000	14.981	0.100
644.100	19.208	0.100
644.200	20.142	0.100
644.300	20.170	0.100
644.400	22.153	0.100
644.500	20.316	0.100
644.600	19.583	0.100
644.700	14.010	0.100
644.800	18.753	0.100
644.900	23.563	0.100
645.000	11.179	0.100
645.100	11.387	0.100
645.200	18.879	0.100
645.300	15.744	0.100
645.400	10.504	0.100
645.500	25.179	0.100
645.600	21.374	0.100
645.700	28.397	0.100
645.800	19.821	0.100
645.900	17.438	0.100
646.000	19.667	0.100
646.100	33.304	0.100
646.200	15.383	0.100
646.300	17.613	0.100
646.400	21.338	0.100
646.500	7.288	0.100
646.600	25.032	0.100
646.700	27.663	0.100
646.800	14.359	0.100
646.900	15.125	0.100
647.000	18.133	0.100
647.100	13.316	0.100
647.200	22.580	0.100
647.300	18.771	0.100
647.400	13.433	0.100
647.500	27.871	0.100
647.600	27.600	0.100
647.700	14.508	0.100
647.800	17.725	0.100
647.900	26.229	0.100
648.000	22.293	0.100
648.100	26.222	0.100
648.200	22.641	0.100
648.300	27.432	0.100
648.400	26.085	0.100
648.500	18.417	0.100
648.600	28.064	0.100
648.700	29.912	0.100
648.800	11.439	0.100
648.900	29.371	0.100
649.000	19.610	0.100
649.100	22.343	0.100
649.200	28.971	0.100
649.300	28.772	0.100
649.400	26.326	0.100
649.500	23.574	0.100
649.600	21.979	0.100
649.700	28.950	0.100
649.800	29.011	0.100
649.900	22.872	0.100
650.000	20.437	0.100
650.100	24.476	0.100
650.200	31.468	0.100
650.300	16.471	0.100
650.400	18.796	0.100
650.500	29.711	0.100
650.600	27.996	0.100
650.700	30.653	0.100
650.800	37.954	0.100
650.900	30.643	0.100
651.000	25.610	0.100
651.100	29.681	0.100
651.200	33.041	0.100
651.300	19.233	0.100
651.400	26.346	0.100
651.500	23.887	0.100
651.600	33.018	0.100
651.700	36.179	0.100
651.800	26.543	0.100
651.900	29.341	0.100
652.000	24.387	0.100
652.100	31.314	0.100
652.200	26.254	0.100
652.300	27.574	0.100
652.400	33.638	0.100
652.500	26.074	0.100
652.600	29.736	0.100
652.700	33.485	0.100
652.800	28.610	0.100
652.900	35.768	0.100
653.000	37.803	0.100
653.100	35.945	0.100
653.200	33.104	0.100
653.300	30.723	0.100
653.400	38.577	0.100
653.500	35.129	0.100
653.600	33.463	0.100
653.700	29.943	0.100
653.800	26.774	0.100
653.900	36.966	0.100
654.000	27.052	0.100
654.100	24.728	0.100
654.200	34.815	0.100
654.300	26.180	0.100
654.400	22.988	0.100
654.500	46.082	0.100
654.600	42.006	0.100
654.700	40.777	0.100
654.800	37.932	0.100
654.900	39.163	0.100
655.000	22.597	0.100
655.100	39.370	0.100
655.200	32.923	0.100
655.300	39.523	0.100
655.400	34.988	0.100
655.500	37.070	0.100
655.600	36.975	0.100
655.700	33.761	0.100
655.800	48.410	0.100
655.900	37.095	0.100
656.000	33.230	0.100
656.100	27.253	0.100
656.200	34.801	0.100
656.300	32.973	0.100
656.400	40.242	0.100
656.500	47.189	0.100
656.600	28.243	0.100
656.700	35.430	0.100
656.800	40.585	0.100
656.900	40.231	0.100
657.000	42.640	0.100
657.100	32.403	0.100
657.200	31.087	0.100
657.300	36.060	0.100
657.400	31.115	0.100
657.500	50.006	0.100
657.600	40.817	0.100
657.700	40.635	0.100
657.800	49.885	0.100
657.900	36.982	0.100
658.000	44.805	0.100
658.100	46.052	0.100
658.200	42.110	0.100
658.300	37.772	0.100
658.400	36.600	0.100
658.500	44.636	0.100
658.600	40.691	0.100
658.700	43.713	0.100
658.800	41.742	0.100
658.900	40.624	0.100
659.000	43.191	0.100
659.100	30.553	0.100
659.200	37.221	0.100
659.300	49.992	0.100
659.400	37.515	0.100
659.500	33.836	0.100
659.600	40.765	0.100
659.700	26.404	0.100
659.800	45.248	0.100
659.900	41.176	0.100
660.000	44.341	0.100
660.100	44.052	0.100
660.200	48.823	0.100
660.300	46.858	0.100
660.400	46.209	0.100
660.500	43.164	0.100
660.600	40.850	0.100
660.700	41.924	0.100
660.800	30.808	0.100
660.900	42.615	0.100
661.000	46.388	0.100
661.100	48.670	0.100
661.200	42.342	0.100
661.300	46.342	0.100
661.400	38.060	0.100
661.500	38.228	0.100
661.600	37.836	0.100
661.700	43.501	0.100
661.800	49.758	0.100
661.900	40.079	0.100
662.000	51.180	0.100
662.100	49.580	0.100
662.200	37.295	0.100
662.300	50.763	0.100
662.400	36.146	0.100
662.500	38.008	0.100
662.600	56.382	0.100
662.700	39.143	0.100
662.800	42.790	0.100
662.900	37.521	0.100
663.000	31.063	0.100
663.100	46.513	0.100
663.200	43.089	0.100
663.300	43.524	0.100
663.400	41.945	0.100
663.500	43.697	0.100
663.600	36.760	0.100
663.700	37.663	0.100
663.800	41.843	0.100
663.900	43.132	0.100
664.000	37.290	0.100
664.100	45.496	0.100
664.200	41.006	0.100
664.300	33.421	0.100
664.400	45.073	0.100
664.500	46.204	0.100
664.600	42.115	0.100
664.700	52.237	0.100
664.800	43.969	0.100
664.900	49.697	0.100
665.000	42.762	0.100
665.100	34.890	0.100
665.200	35.520	0.100
665.300	51.410	0.100
665.400	55.285	0.100
665.500	36.810	0.100
665.600	44.393	0.100
665.700	53.565	0.100
665.800	47.410	0.100
665.900	41.408	0.100
666.000	48.422	0.100
666.100	35.366	0.100
666.200	32.025	0.100
666.300	46.123	0.100
666.400	46.662	0.100
666.500	42.379	0.100
666.600	45.456	0.100
666.700	42.274	0.100
666.800	39.100	0.100
666.900	32.068	0.100
667.000	39.448	0.100
667.100	51.399	0.100
667.200	35.139	0.100
667.300	37.741	0.100
667.400	43.751	0.100
667.500	44.811	0.100
667.600	53.508	0.100
667.700	42.261	0.100
667.800	39.676	0.100
667.900	47.764	0.100
668.000	50.138	0.100
668.100	46.601	0.100
668.200	43.042	0.100
668.300	42.245	0.100
668.400	35.963	0.100
668.500	48.798	0.100
668.600	41.869	0.100
668.700	50.129	0.100
668.800	48.701	0.100
668.900	38.101	0.100
669.000	36.513	0.100
669.100	49.884	0.100
669.200	40.774	0.100
669.300	52.875	0.100
669.400	50.614	0.100
669.500	43.346	0.100
669.600	37.152	0.100
669.700	49.711	0.100
669.800	38.557	0.100
669.900	34.985	0.100
670.000	51.010	0.100
670.100	49.166	0.100
670.200	45.429	0.100
670.300	35.396	0.100
670.400	41.703	0.100
670.500	47.573	0.100
670.600	39.897	0.100
670.700	47.125	0.100
670.800	54.971	0.100
670.900	39.670	0.100
671.000	37.887	0.100
671.100	39.625	0.100
671.200	38.009	0.100
671.300	54.448	0.100
671.400	37.288	0.100
671.500	47.394	0.100
671.600	43.969	0.100
671.700	47.403	0.100
671.800	51.363	0.100
671.900	51.561	0.100
672.000	35.039	0.100
672.100	35.898	0.100
672.200	42.532	0.100
672.300	45.875	0.100
672.400	41.680	0.100
672.500	32.582	0.100
672.600	42.254	0.100
672.700	42.734	0.100
672.800	44.458	0.100
672.900	34.550	0.100
673.000	49.722	0.100
673.100	52.358	0.100
673.200	52.507	0.100
673.300	42.368	0.100
673.400	39.322	0.100
673.500	43.613	0.100
673.600	40.963	0.100
673.700	38.741	0.100
673.800	44.471	0.100
673.900	25.091	0.100
674.000	46.164	0.100
674.100	48.244	0.100
674.200	43.567	0.100
674.300	50.789	0.100
674.400	38.177	0.100
674.500	44.171	0.100
674.600	37.707	0.100
674.700	47.728	0.100
674.800	50.717	0.100
674.900	40.266	0.100
675.000	49.394	0.100
675.100	45.436	0.100
675.200	45.697	0.100
675.300	55.358	0.100
675.400	44.678	0.100
675.500	45.911	0.100
675.600	39.707	0.100
675.700	46.371	0.100
675.800	41.456	0.100
675.900	46.019	0.100
676.000	42.985	0.100
676.100	25.034	0.100
676.200	35.331	0.100
676.300	42.173	0.100
676.400	54.440	0.100
676.500	39.036	0.100
676.600	54.059	0.100
676.700	41.260	0.100
676.800	45.153	0.100
676.900	48.679	0.100
677.000	32.285	0.100
677.100	54.393	0.100
677.200	52.471	0.100
677.300	52.891	0.100
677.400	43.825	0.100
677.500	36.014	0.100
677.600	49.187	0.100
677.700	44.500	0.100
677.800	34.765	0.100
677.900	34.793	0.100
678.000	42.185	0.100
678.100	47.541	0.100
678.200	43.755	0.100
678.300	50.047	0.100
678.400	36.719	0.100
678.500	46.110	0.100
678.600	43.576	0.100
678.700	45.280	0.100
678.800	47.441	0.100
678.900	36.075	0.100
679.000	46.860	0.100
679.100	34.212	0.100
679.200	44.435	0.100
679.300	46.685	0.100
679.400	39.527	0.100
679.500	39.740	0.100
679.600	35.184	0.100
679.700	36.147	0.100
679.800	43.428	0.100
679.900	59.289	0.100
680.000	42.878	0.100
680.100	46.481	0.100
680.200	54.656	0.100
680.300	52.913	0.100
680.400	42.104	0.100
680.500	40.014	0.100
680.600	36.447	0.100
680.700	35.101	0.100
680.800	37.251	0.100
680.900	45.325	0.100
681.000	49.810	0.100
681.100	43.713	0.100
681.200	41.207	0.100
681.300	40.287	0.100
681.400	41.992	0.100
681.500	42.777	0.100
681.600	49.159	0.100
681.700	33.483	0.100
681.800	49.608	0.100
681.900	50.943	0.100
682.000	41.089	0.100
682.100	50.061	0.100
682.200	47.233	0.100
682.300	40.886	0.100
682.400	41.527	0.100
682.500	46.799	0.100
682.600	44.525	0.100
682.700	50.926	0.100
682.800	30.738	0.100
682.900	53.350	0.100
683.000	44.094	0.100
683.100	43.065	0.100
683.200	39.432	0.100
683.300	45.507	0.100
683.400	42.367	0.100
683.500	51.903	0.100
683.600	41.642	0.100
683.700	39.025	0.100
683.800	43.614	0.100
683.900	44.938	0.100
684.000	42.891	0.100
684.100	45.994	0.100
684.200	40.067	0.100
684.300	31.859	0.100
684.400	37.732	0.100
684.500	52.558	0.100
684.600	36.401	0.100
684.700	33.067	0.100
684.800	56.948	0.100
684.900	52.850	0.100
685.000	44.833	0.100
685.100	50.857	0.100
685.200	45.086	0.100
685.300	35.945	0.100
685.400	46.272	0.100
685.500	46.382	0.100
685.600	47.484	0.100
685.700	40.749	0.100
685.800	44.004	0.100
685.900	46.452	0.100
686.000	45.863	0.100
686.100	43.646	0.100
686.200	41.921	0.100
686.300	52.807	0.100
686.400	44.727	0.100
686.500	35.168	0.100
686.600	37.019	0.100
686.700	41.722	0.100
686.800	44.827	0.100
686.900	46.708	0.100
687.000	43.990	0.100
687.100	44.347	0.100
687.200	44.247	0.100
687.300	44.583	0.100
687.400	35.730	0.100
687.500	42.028	0.100
687.600	36.583	0.100
687.700	42.586	0.100
687.800	53.558	0.100
687.900	49.440	0.100
688.000	51.659	0.100
688.100	39.595	0.100
688.200	51.534	0.100
688.300	43.332	0.100
688.400	48.598	0.100
688.500	42.510	0.100
688.600	26.956	0.100
688.700	44.221	0.100
688.800	36.014	0.100
688.900	35.827	0.100
689.000	53.407	0.100
689.100	47.222	0.100
689.200	45.392	0.100
689.300	42.107	0.100
689.400	37.070	0.100
689.500	43.276	0.100
689.600	40.552	0.100
689.700	50.101	0.100
689.800	34.901	0.100
689.900	45.236	0.100
690.000	30.463	0.100
690.100	42.777	0.100
690.200	40.698	0.100
690.300	51.818	0.100
690.400	44.939	0.100
690.500	47.069	0.100
690.600	46.519	0.100
690.700	49.802	0.100
690.800	45.919	0.100
690.900	40.304	0.100
691.000	41.911	0.100
691.100	29.849	0.100
691.200	33.739	0.100
691.300	31.636	0.100
691.400	28.342	0.100
691.500	28.373	0.100
691.600	26.884	0.100
691.700	35.390	0.100
691.800	32.458	0.100
691.900	26.679	0.100
692.000	20.993	0.100
692.100	21.780	0.100
692.200	25.158	0.100
692.300	15.102	0.100
692.400	17.766	0.100
692.500	6.016	0.100
692.600	10.184	0.100
692.700	22.819	0.100
692.800	11.222	0.100
692.900	8.632	0.100
693.000	6.731	0.100
693.100	13.535	0.100
693.200	10.234	0.100
693.300	6.446	0.100
693.400	11.753	0.100
693.500	11.080	0.100
693.600	4.502	0.100
693.700	6.515	0.100
693.800	7.469	0.100
693.900	5.779	0.100
694.000	9.857	0.100
694.100	5.856	0.100
694.200	6.762	0.100
694.300	0.789	0.100
694.400	2.780	0.100
694.500	3.697	0.100
694.600	0.590	0.100
694.700	4.450	0.100
694.800	7.807	0.100
694.900	0.215	0.100
695.000	-3.261	0.100
695.100	-1.038	0.100
695.200	3.596	0.100
695.300	-2.887	0.100
695.400	7.757	0.100
695.500	-0.968	0.100
695.600	0.751	0.100
695.700	5.560	0.100
695.800	5.327	0.100
695.900	2.359	0.100
696.000	0.832	0.100
696.100	4.743	0.100
696.200	6.302	0.100
696.300	1.289	0.100
696.400	3.106	0.100
696.500	7.179	0.100
696.600	-0.703	0.100
696.700	-2.801	0.100
696.800	1.127	0.100
696.900	-6.873	0.100
697.000	-5.692	0.100
697.100	-3.646	0.100
697.200	-3.448	0.100
697.300	-0.486	0.100
697.400	-1.776	0.100
697.500	-1.443	0.100
697.600	8.092	0.100
697.700	2.213	0.100
697.800	-4.322	0.100
697.900	-11.645	0.100
698.000	-2.107	0.100
698.100	-3.359	0.100
698.200	-5.541	0.100
698.300	0.359	0.100
698.400	-0.442	0.100
698.500	6.413	0.100
698.600	-2.968	0.100
698.700	1.475	0.100
698.800	-2.641	0.100
698.900	9.456	0.100
699.000	8.763	0.100
699.100	-2.445	0.100
699.200	-10.181	0.100
699.300	-1.211	0.100
699.400	2.976	0.100
699.500	-9.577	0.100
699.600	1.344	0.100
699.700	-15.703	0.100
699.800	-8.051	0.100
699.900	-8.292	0.100
700.000	6.191	0.100
700.100	-3.613	0.100
700.200	-2.321	0.100
700.300	-2.931	0.100
700.400	1.705	0.100
700.500	-1.538	0.100
700.600	2.112	0.100
700.700	-5.144	0.100
700.800	-6.111	0.100
700.900	6.996	0.100
701.000	-0.903	0.100
701.100	-7.034	0.100
701.200	-5.115	0.100
701.300	-2.731	0.100
701.400	-12.043	0.100
701.500	-9.139	0.100
701.600	-11.260	0.100
701.700	0.552	0.100
701.800	1.810	0.100
701.900	-3.018	0.100
702.000	-1.566	0.100
702.100	-2.039	0.100
702.200	-4.435	0.100
702.300	-5.977	0.100
702.400	-0.707	0.100
702.500	-5.496	0.100
702.600	1.378	0.100
702.700	-6.353	0.100
702.800	-14.019	0.100
702.900	0.965	0.100
703.000	2.152	0.100
703.100	-5.040	0.100
703.200	-10.304	0.100
703.300	-1.421	0.100
703.400	-7.346	0.100
703.500	-8.972	0.100
703.600	-4.441	0.100
703.700	-1.823	0.100
703.800	-1.269	0.100
703.900	1.328	0.100
704.000	-14.121	0.100
704.100	-9.838	0.100
704.200	-13.483	0.100
704.300	-8.083	0.100
704.400	-13.566	0.100
704.500	-6.078	0.100
704.600	-4.071	0.100
704.700	-7.946	0.100
704.800	-11.027	0.100
704.900	-13.868	0.100
705.000	10.191	0.100
705.100	-0.692	0.100
705.200	-0.133	0.100
705.300	-17.561	0.100
705.400	-13.197	0.100
705.500	-11.198	0.100
705.600	-3.097	0.100
705.700	-0.238	0.100
705.800	-4.089	0.100
705.900	-7.919	0.100
706.000	0.399	0.100
706.100	-19.374	0.100
706.200	-15.684	0.100
706.300	-4.629	0.100
706.400	-2.325	0.100
706.500	-6.314	0.100
706.600	-5.405	0.100
706.700	-16.143	0.100
706.800	-16.300	0.100
706.900	1.785	0.100
707.000	-3.030	0.100
707.100	3.312	0.100
707.200	-12.195	0.100
707.300	-19.723	0.100
707.400	-9.398	0.100
707.500	-18.289	0.100
707.600	-6.478	0.100
707.700	-11.638	0.100
707.800	-0.894	0.100
707.900	-7.519	0.100
708.000	-15.042	0.100
708.100	-5.824	0.100
708.200	-15.638	0.100
708.300	-7.728	0.100
708.400	1.033	0.100
708.500	-8.707	0.100
708.600	-7.432	0.100
708.700	-4.897	0.100
708.800	-1.637	0.100
708.900	-0.362	0.100
709.000	-15.583	0.100
709.100	-9.978	0.100
709.200	-11.927	0.100
709.300	-11.036	0.100
709.400	-6.080	0.100
709.500	-15.959	0.100
709.600	-13.094	0.100
709.700	-18.227	0.100
709.800	-8.819	0.100
709.900	-9.511	0.100
710.000	-4.968	0.100
710.100	-14.836	0.100
710.200	-8.197	0.100
710.300	-14.565	0.100
710.400	-7.731	0.100
710.500	-8.123	0.100
710.600	-17.465	0.100
710.700	-17.838	0.100
710.800	-8.263	0.100
710.900	-11.626	0.100
711.000	-18.997	0.100
711.100	-9.460	0.100
711.200	-6.237	0.100
711.300	1.102	0.100
711.400	-4.871	0.100
711.500	-14.789	0.100
711.600	-13.388	0.100
711.700	-8.070	0.100
711.800	-15.390	0.100
711.900	-15.429	0.100
712.000	-18.071	0.100
712.100	-12.928	0.100
712.200	-15.918	0.100
712.300	-7.620	0.100
712.400	-25.070	0.100
712.500	2.044	0.100
712.600	-14.871	0.100
712.700	-9.860	0.100
712.800	-12.779	0.100
712.900	-12.247	0.100
713.000	-11.890	0.100
713.100	-7.190	0.100
713.200	-20.202	0.100
713.300	-13.129	0.100
713.400	-10.637	0.100
713.500	-15.979	0.100
713.600	-11.216	0.100
713.700	-7.791	0.100
713.800	-14.633	0.100
713.900	-16.586	0.100
714.000	-11.222	0.100
714.100	-11.159	0.100
714.200	-12.057	0.100
714.300	-10.228	0.100
714.400	-6.115	0.100
714.500	-10.708	0.100
714.600	-20.933	0.100
714.700	-16.961	0.100
714.800	-18.502	0.100
714.900	-14.436	0.100
715.000	-10.870	0.100
715.100	-6.868	0.100
715.200	-12.235	0.100
715.300	-14.299	0.100
715.400	-5.645	0.100
715.500	-14.364	0.100
715.600	-21.397	0.100
715.700	-22.011	0.100
715.800	-22.122	0.100
715.900	-10.571	0.100
716.000	-14.200	0.100
716.100	-18.976	0.100
716.200	-17.350	0.100
716.300	-17.253	0.100
716.400	-7.397	0.100
716.500	-14.618	0.100
716.600	-17.893	0.100
716.700	-19.431	0.100
716.800	-12.963	0.100
716.900	-12.990	0.100
717.000	-18.747	0.100
717.100	-11.908	0.100
717.200	-28.478	0.100
717.300	-21.900	0.100
717.400	-7.788	0.100
717.500	-11.491	0.100
717.600	-13.723	0.100
717.700	-10.075	0.100
717.800	-12.851	0.100
717.900	-7.928	0.100
718.000	-18.717	0.100
718.100	-16.248	0.100
718.200	-16.576	0.100
718.300	-19.769	0.100
718.400	-18.879	0.100
718.500	-15.361	0.100
718.600	-13.907	0.100
718.700	-12.605	0.100
718.800	-13.834	0.100
718.900	-16.036	0.100
719.000	-22.857	0.100
719.100	-18.195	0.100
719.200	-16.301	0.100
719.300	-13.547	0.100
719.400	-16.433	0.100
719.500	-12.147	0.100
719.600	-10.378	0.100
719.700	-28.830	0.100
719.800	-12.295	0.100
719.900	-10.309	0.100
720.000	-19.620	0.100
720.100	-12.452	0.100
720.200	-17.571	0.100
720.300	-8.360	0.100
720.400	-18.935	0.100
720.500	-23.116	0.100
720.600	-24.697	0.100
720.700	-17.948	0.100
720.800	-21.210	0.100
720.900	-18.921	0.100
721.000	-13.814	0.100
721.100	-21.791	0.100
721.200	-13.812	0.100
721.300	-16.084	0.100
721.400	-23.631	0.100
721.500	-18.001	0.100
721.600	-9.847	0.100
721.700	-18.470	0.100
721.800	-21.769	0.100
721.900	-14.954	0.100
722.000	-5.694	0.100
722.100	-18.735	0.100
722.200	-23.598	0.100
722.300	-16.564	0.100
722.400	-7.558	0.100
722.500	-20.446	0.100
722.600	-19.744	0.100
722.700	-29.948	0.100
722.800	-26.968	0.100
722.900	-20.823	0.100
723.000	-21.051	0.100
723.100	-11.564	0.100
723.200	-27.354	0.100
723.300	-12.663	0.100
723.400	-9.514	0.100
723.500	-21.850	0.100
723.600	-20.584	0.100
723.700	-10.389	0.100
723.800	-18.958	0.100
723.900	-24.209	0.100
724.000	-35.651	0.100
724.100	-21.705	0.100
724.200	-22.893	0.100
724.300	-24.837	0.100
724.400	-17.534	0.100
724.500	-14.980	0.100
724.600	-18.695	0.100
724.700	-17.259	0.100
724.800	-17.858	0.100
724.900	-18.416	0.100
725.000	-20.506	0.100
725.100	-15.450	0.100
725.200	-28.631	0.100
725.300	-19.068	0.100
725.400	-21.822	0.100
725.500	-18.572	0.100
725.600	-17.147	0.100
725.700	-23.560	0.100
725.800	-30.106	0.100
725.900	-25.441	0.100
726.000	-3.376	0.100
726.100	-20.563	0.100
726.200	-11.866	0.100
726.300	-17.635	0.100
726.400	-19.383	0.100
726.500	-18.700	0.100
726.600	-26.864	0.100
726.700	-25.155	0.100
726.800	-17.472	0.100
726.900	-20.670	0.100
727.000	-15.736	0.100
727.100	-9.005	0.100
727.200	-16.580	0.100
727.300	-26.726	0.100
727.400	-14.514	0.100
727.500	-22.871	0.100
727.600	-21.087	0.100
727.700	-25.173	0.100
727.800	-22.382	0.100
727.900	-15.030	0.100
728.000	-8.553	0.100
728.100	-26.805	0.100
728.200	-22.510	0.100
728.300	-23.929	0.100
728.400	-20.081	0.100
728.500	-17.285	0.100
728.600	-20.984	0.100
728.700	-18.142	0.100
728.800	-31.850	0.100
728.900	-26.137	0.100
729.000	-26.281	0.100
729.100	-22.444	0.100
729.200	-16.887	0.100
729.300	-17.468	0.100
729.400	-22.400	0.100
729.500	-19.553	0.100
729.600	-19.065	0.100
729.700	-10.106	0.100
729.800	-22.885	0.100
729.900	-21.175	0.100
730.000	-14.059	0.100
730.100	-20.263	0.100
730.200	-11.934	0.100
730.300	-17.590	0.100
730.400	-23.077	0.100
730.500	-23.133	0.100
730.600	-22.234	0.100
730.700	-26.152	0.100
730.800	-19.996	0.100
730.900	-24.072	0.100
731.000	-20.292	0.100
731.100	-9.778	0.100
731.200	-10.534	0.100
731.300	-19.282	0.100
731.400	-15.993	0.100
731.500	-20.810	0.100
731.600	-32.304	0.100
731.700	-32.461	0.100
731.800	-19.361	0.100
731.900	-25.720	0.100
732.000	-24.345	0.100
732.100	-31.932	0.100
732.200	-23.448	0.100
732.300	-15.649	0.100
732.400	-17.271	0.100
732.500	-17.336	0.100
732.600	-18.129	0.100
732.700	-28.537	0.100
732.800	-14.652	0.100
732.900	-28.210	0.100
733.000	-24.002	0.100
733.100	-29.096	0.100
733.200	-26.822	0.100
733.300	-19.094	0.100
733.400	-24.571	0.100
733.500	-21.139	0.100
733.600	-21.403	0.100
733.700	-26.041	0.100
733.800	-20.427	0.100
733.900	-23.197	0.100
734.000	-17.213	0.100
734.100	-27.467	0.100
734.200	-21.159	0.100
734.300	-15.012	0.100
734.400	-25.540	0.100
734.500	-22.972	0.100
734.600	-32.493	0.100
734.700	-28.366	0.100
734.800	-20.606	0.100
734.900	-22.434	0.100
735.000	-28.110	0.100
735.100	-35.291	0.100
735.200	-15.810	0.100
735.300	-21.983	0.100
735.400	-21.120	0.100
735.500	-9.627	0.100
735.600	-20.687	0.100
735.700	-19.306	0.100
735.800	-15.978	0.100
735.900	-20.650	0.100
736.000	-15.219	0.100
736.100	-25.402	0.100
736.200	-10.833	0.100
736.300	-24.522	0.100
736.400	-18.197	0.100
736.500	-23.711	0.100
736.600	-26.415	0.100
736.700	-12.585	0.100
736.800	-21.030	0.100
736.900	-24.439	0.100
737.000	-21.375	0.100
737.100	-16.205	0.100
737.200	-27.274	0.100
737.300	-22.058	0.100
737.400	-9.789	0.100
737.500	-7.505	0.100
737.600	-23.922	0.100
737.700	-18.854	0.100
737.800	-21.505	0.100
737.900	-26.856	0.100
738.000	-18.015	0.100
738.100	-20.700	0.100
738.200	-18.121	0.100
738.300	-28.370	0.100
738.400	-21.055	0.100
738.500	-17.614	0.100
738.600	-28.610	0.100
738.700	-11.083	0.100
738.800	-19.881	0.100
738.900	-25.004	0.100
739.000	-18.401	0.100
739.100	-30.161	0.100
739.200	-27.170	0.100
739.300	-24.234	0.100
739.400	-24.599	0.100
739.500	-23.807	0.100
739.600	-20.578	0.100
739.700	-24.382	0.100
739.800	-25.031	0.100
739.900	-25.794	0.100
740.000	-25.573	0.100
740.100	-30.783	0.100
740.200	-14.001	0.100
740.300	-14.636	0.100
740.400	-19.743	0.100
740.500	-20.822	0.100
740.600	-20.310	0.100
740.700	-31.893	0.100
740.800	-23.252	0.100
740.900	-14.939	0.100
741.000	-25.029	0.100
741.100	-29.558	0.100
741.200	-24.534	0.100
741.300	-23.876	0.100
741.400	-20.367	0.100
741.500	-24.790	0.100
741.600	-21.736	0.100
741.700	-24.784	0.100
741.800	-24.915	0.100
741.900	-23.554	0.100
742.000	-16.809	0.100
742.100	-23.319	0.100
742.200	-19.514	0.100
742.300	-18.981	0.100
742.400	-7.766	0.100
742.500	-27.196	0.100
742.600	-11.245	0.100
742.700	-25.541	0.100
742.800	-19.430	0.100
742.900	-26.787	0.100
743.000	-14.739	0.100
743.100	-30.735	0.100
743.200	-27.479	0.100
743.300	-17.864	0.100
743.400	-18.368	0.100
743.500	-19.406	0.100
743.600	-25.513	0.100
743.700	-13.626	0.100
743.800	-17.750	0.100
743.900	-28.151	0.100
744.000	-22.390	0.100
744.100	-29.154	0.100
744.200	-27.125	0.100
744.300	-24.256	0.100
744.400	-16.153	0.100
744.500	-23.500	0.100
744.600	-20.224	0.100
744.700	-22.925	0.100
744.800	-17.495	0.100
744.900	-18.592	0.100
745.000	-19.050	0.100
745.100	-27.432	0.100
745.200	-25.423	0.100
745.300	-19.388	0.100
745.400	-20.417	0.100
745.500	-28.519	0.100
745.600	-30.905	0.100
745.700	-23.183	0.100
745.800	-21.031	0.100
745.900	-22.162	0.100
746.000	-23.828	0.100
746.100	-28.024	0.100
746.200	-22.999	0.100
746.300	-14.413	0.100
746.400	-20.463	0.100
746.500	-13.317	0.100
746.600	-19.418	0.100
746.700	-19.783	0.100
746.800	-23.032	0.100
746.900	-24.448	0.100
747.000	-22.523	0.100
747.100	-28.536	0.100
747.200	-5.402	0.100
747.300	-12.212	0.100
747.400	-30.750	0.100
747.500	-32.754	0.100
747.600	-16.360	0.100
747.700	-23.202	0.100
747.800	-18.261	0.100
747.900	-13.230	0.100
748.000	-10.309	0.100
748.100	-25.574	0.100
748.200	-24.626	0.100
748.300	-24.897	0.100
748.400	-25.836	0.100
748.500	-19.937	0.100
748.600	-16.077	0.100
748.700	-22.224	0.100
748.800	-31.610	0.100
748.900	-31.203	0.100
749.000	-10.342	0.100
749.100	-20.940	0.100
749.200	-25.976	0.100
749.300	-12.683	0.100
749.400	-19.464	0.100
749.500	-25.055	0.100
749.600	-20.106	0.100
749.700	-7.226	0.100
749.800	-17.942	0.100
749.900	-16.092	0.100
750.000	-23.307	0.100
750.100	-26.723	0.100
750.200	-21.749	0.100
750.300	-18.098	0.100
750.400	-12.721	0.100
750.500	-19.326	0.100
750.600	-20.428	0.100
750.700	-17.136	0.100
750.800	-16.455	0.100
750.900	-17.967	0.100
751.000	-19.652	0.100
751.100	-30.409	0.100
751.200	-21.824	0.100
751.300	-22.615	0.100
751.400	-20.834	0.100
751.500	-20.501	0.100
751.600	-18.953	0.100
751.700	-11.927	0.100
751.800	-22.821	0.100
751.900	-17.897	0.100
752.000	-23.038	0.100
752.100	-15.943	0.100
752.200	-15.470	0.100
752.300	-20.158	0.100
752.400	-20.384	0.100
752.500	-21.231	0.100
752.600	-23.199	0.100
752.700	-24.248	0.100
752.800	-25.631	0.100
752.900	-19.473	0.100
753.000	-20.887	0.100
753.100	-13.841	0.100
753.200	-15.174	0.100
753.300	-31.942	0.100
753.400	-13.820	0.100
753.500	-20.343	0.100
753.600	-11.544	0.100
753.700	-17.193	0.100
753.800	-25.915	0.100
753.900	-24.849	0.100
754.000	-24.571	0.100
754.100	-20.435	0.100
754.200	-13.409	0.100
754.300	-16.563	0.100
754.400	-18.410	0.100
754.500	-30.590	0.100
754.600	-17.780	0.100
754.700	-22.207	0.100
754.800	-16.763	0.100
754.900	-19.413	0.100
755.000	-30.522	0.100
755.100	-17.058	0.100
755.200	-19.015	0.100
755.300	-19.866	0.100
755.400	-17.786	0.100
755.500	-16.878	0.100
755.600	-22.329	0.100
755.700	-23.321	0.100
755.800	-21.669	0.100
755.900	-35.639	0.100
756.000	-23.915	0.100
756.100	-22.095	0.100
756.200	-16.185	0.100
756.300	-17.449	0.100
756.400	-16.888	0.100
756.500	-29.134	0.100
756.600	-14.613	0.100
756.700	-19.162	0.100
756.800	-22.707	0.100
756.900	-20.440	0.100
757.000	-16.857	0.100
757.100	-21.370	0.100
757.200	-17.294	0.100
757.300	-23.833	0.100
757.400	-15.017	0.100
757.500	-19.371	0.100
757.600	-21.952	0.100
757.700	-17.860	0.100
757.800	-36.886	0.100
757.900	-19.802	0.100
758.000	-20.347	0.100
758.100	-22.155	0.100
758.200	-19.189	0.100
758.300	-15.381	0.100
758.400	-13.232	0.100
758.500	-16.266	0.100
758.600	-23.351	0.100
758.700	-25.095	0.100
758.800	-25.633	0.100
758.900	-14.362	0.100
759.000	-17.466	0.100
759.100	-24.073	0.100
759.200	-18.847	0.100
759.300	-16.459	0.100
759.400	-21.377	0.100
759.500	-17.739	0.100
759.600	-16.906	0.100
759.700	-29.487	0.100
759.800	-22.235	0.100
759.900	-5.474	0.100
760.000	-30.935	0.100
760.100	-32.292	0.100
760.200	-12.691	0.100
760.300	-22.552	0.100
760.400	-21.488	0.100
760.500	-14.811	0.100
760.600	-20.009	0.100
760.700	-24.751	0.100
760.800	-15.384	0.100
760.900	-6.364	0.100
761.000	-20.376	0.100
761.100	-13.028	0.100
761.200	-21.800	0.100
761.300	-30.495	0.100
761.400	-19.196	0.100
761.500	-14.485	0.100
761.600	-14.806	0.100
761.700	-16.830	0.100
761.800	-15.677	0.100
761.900	-22.236	0.100
762.000	-20.699	0.100
762.100	-17.611	0.100
762.200	-18.306	0.100
762.300	-18.439	0.100
762.400	-20.393	0.100
762.500	-24.399	0.100
762.600	-24.025	0.100
762.700	-22.645	0.100
762.800	-21.894	0.100
762.900	-21.482	0.100
763.000	-19.882	0.100
763.100	-7.077	0.100
763.200	-16.989	0.100
763.300	-26.134	0.100
763.400	-21.114	0.100
763.500	-9.103	0.100
763.600	-6.478	0.100
763.700	-13.984	0.100
763.800	-9.404	0.100
763.900	-14.931	0.100
764.000	-25.490	0.100
764.100	-18.901	0.100
764.200	-18.120	0.100
764.300	-15.250	0.100
764.400	-23.061	0.100
764.500	-18.602	0.100
764.600	-23.655	0.100
764.700	-22.078	0.100
764.800	-28.255	0.100
764.900	-21.207	0.100
765.000	-17.942	0.100
765.100	-24.781	0.100
765.200	-9.613	0.100
765.300	-21.298	0.100
765.400	-25.335	0.100
765.500	-20.022	0.100
765.600	-18.196	0.100
765.700	-14.041	0.100
765.800	-19.054	0.100
765.900	-20.173	0.100
766.000	-15.953	0.100
766.100	-17.079	0.100
766.200	-22.127	0.100
766.300	-31.437	0.100
766.400	-20.175	0.100
766.500	-22.843	0.100
766.600	-17.029	0.100
766.700	-15.835	0.100
766.800	-27.456	0.100
766.900	-25.081	0.100
767.000	-9.193	0.100
767.100	-13.887	0.100
767.200	-8.613	0.100
767.300	-15.499	0.100
767.400	-24.671	0.100
767.500	-17.997	0.100
767.600	-27.025	0.100
767.700	-25.287	0.100
767.800	-12.050	0.100
767.900	-24.550	0.100
768.000	-13.250	0.100
768.100	-15.189	0.100
768.200	-19.075	0.100
768.300	-22.545	0.100
768.400	-20.497	0.100
768.500	-17.935	0.100
768.600	-16.059	0.100
768.700	-20.965	0.100
768.800	-22.155	0.100
768.900	-20.917	0.100
769.000	-15.153	0.100
769.100	-23.276	0.100
769.200	-20.918	0.100
769.300	-7.705	0.100
769.400	-28.652	0.100
769.500	-11.140	0.100
769.600	-15.588	0.100
769.700	-11.635	0.100
769.800	-7.851	0.100
769.900	-25.597	0.100
770.000	-23.017	0.100
770.100	-18.155	0.100
770.200	-12.360	0.100
770.300	-18.556	0.100
770.400	-24.184	0.100
770.500	-25.259	0.100
770.600	-8.056	0.100
770.700	-26.233	0.100
770.800	-14.115	0.100
770.900	-18.282	0.100
771.000	-18.267	0.100
771.100	-8.883	0.100
771.200	-22.892	0.100
771.300	-32.413	0.100
771.400	-12.294	0.100
771.500	-11.496	0.100
771.600	-20.136	0.100
771.700	-16.821	0.100
771.800	-29.366	0.100
771.900	-19.381	0.100
772.000	-17.210	0.100
772.100	-24.087	0.100
772.200	-15.178	0.100
772.300	-10.552	0.100
772.400	-16.903	0.100
772.500	-17.335	0.100
772.600	-18.448	0.100
772.700	-17.554	0.100
772.800	-25.031	0.100
772.900	-11.979	0.100
773.000	-20.607	0.100
773.100	-17.855	0.100
773.200	-10.638	0.100
773.300	-32.571	0.100
773.400	-28.083	0.100
773.500	-18.223	0.100
773.600	-11.833	0.100
773.700	-20.653	0.100
773.800	-12.884	0.100
773.900	-16.824	0.100
774.000	-19.952	0.100
774.100	-19.567	0.100
774.200	-16.660	0.100
774.300	-22.231	0.100
774.400	-14.482	0.100
774.500	-12.473	0.100
774.600	-20.146	0.100
774.700	-10.661	0.100
774.800	-17.154	0.100
774.900	-2.417	0.100
775.000	-7.198	0.100
775.100	-16.890	0.100
775.200	-19.513	0.100
775.300	-17.413	0.100
775.400	-17.971	0.100
775.500	-24.111	0.100
775.600	-21.092	0.100
775.700	-18.289	0.100
775.800	-17.200	0.100
775.900	-9.467	0.100
776.000	-14.911	0.100
776.100	-15.157	0.100
776.200	-21.775	0.100
776.300	-23.678	0.100
776.400	-24.536	0.100
776.500	-21.068	0.100
776.600	-24.003	0.100
776.700	-12.760	0.100
776.800	-18.523	0.100
776.900	-16.289	0.100
777.000	-16.905	0.100
777.100	-17.543	0.100
777.200	-11.947	0.100
777.300	-15.242	0.100
777.400	-20.967	0.100
777.500	-27.697	0.100
777.600	-25.768	0.100
777.700	-16.545	0.100
777.800	-18.988	0.100
777.900	-9.520	0.100
778.000	-8.412	0.100
778.100	-12.607	0.100
778.200	-29.200	0.100
778.300	-20.869	0.100
778.400	-13.571	0.100
778.500	-9.554	0.100
778.600	-16.877	0.100
778.700	-22.902	0.100
778.800	-17.414	0.100
778.900	-19.412	0.100
779.000	-19.062	0.100
779.100	-13.227	0.100
779.200	-24.745	0.100
779.300	-21.416	0.100
779.400	-18.870	0.100
779.500	-16.082	0.100
779.600	-9.148	0.100
779.700	-15.040	0.100
779.800	-11.966	0.100
779.900	-28.773	0.100
780.000	-27.249	0.100
780.100	-18.592	0.100
780.200	-20.692	0.100
780.300	-10.738	0.100
780.400	-11.832	0.100
780.500	-14.748	0.100
780.600	-15.192	0.100
780.700	-20.272	0.100
780.800	-17.246	0.100
780.900	-11.172	0.100
781.000	-14.532	0.100
781.100	-0.994	0.100
781.200	-17.852	0.100
781.300	-13.150	0.100
781.400	-10.225	0.100
781.500	-10.546	0.100
781.600	3.812	0.100
781.700	-1.772	0.100
781.800	0.220	0.100
781.900	3.638	0.100
782.000	-0.755	0.100
782.100	7.492	0.100
782.200	-4.779	0.100
782.300	8.967	0.100
782.400	7.221	0.100
782.500	16.952	0.100
782.600	13.474	0.100
782.700	1.336	0.100
782.800	11.610	0.100
782.900	12.845	0.100
783.000	11.354	0.100
783.100	9.188	0.100
783.200	14.146	0.100
783.300	15.099	0.100
783.400	15.569	0.100
783.500	20.351	0.100
783.600	17.469	0.100
783.700	14.713	0.100
783.800	13.056	0.100
783.900	10.496	0.100
784.000	2.243	0.100
784.100	15.437	0.100
784.200	12.854	0.100
784.300	12.579	0.100
784.400	19.439	0.100
784.500	9.980	0.100
784.600	22.557	0.100
784.700	19.725	0.100
784.800	15.038	0.100
784.900	17.202	0.100
785.000	13.873	0.100
785.100	11.435	0.100
785.200	22.960	0.100
785.300	23.297	0.100
785.400	14.594	0.100
785.500	17.488	0.100
785.600	18.856	0.100
785.700	17.642	0.100
785.800	18.925	0.100
785.900	16.251	0.100
786.000	12.334	0.100
786.100	15.063	0.100
786.200	20.685	0.100
786.300	20.751	0.100
786.400	21.180	0.100
786.500	13.262	0.100
786.600	6.263	0.100
786.700	19.079	0.100
786.800	16.744	0.100
786.900	20.600	0.100
787.000	17.873	0.100
787.100	16.946	0.100
787.200	6.450	0.100
787.300	8.231	0.100
787.400	20.980	0.100
787.500	17.402	0.100
787.600	16.165	0.100
787.700	23.804	0.100
787.800	21.656	0.100
787.900	11.526	0.100
788.000	12.725	0.100
788.100	22.155	0.100
788.200	14.957	0.100
788.300	6.823	0.100
788.400	12.881	0.100
788.500	15.701	0.100
788.600	18.001	0.100
788.700	12.586	0.100
788.800	7.419	0.100
788.900	12.598	0.100
789.000	19.832	0.100
789.100	17.174	0.100
789.200	17.568	0.100
789.300	14.771	0.100
789.400	17.250	0.100
789.500	16.399	0.100
789.600	18.212	0.100
789.700	11.174	0.100
789.800	17.605	0.100
789.900	14.032	0.100
790.000	21.418	0.100
790.100	15.376	0.100
790.200	15.895	0.100
790.300	4.109	0.100
790.400	12.244	0.100
790.500	16.023	0.100
790.600	18.018	0.100
790.700	20.623	0.100
790.800	14.603	0.100
790.900	17.430	0.100
791.000	13.134	0.100
791.100	15.256	0.100
791.200	17.119	0.100
791.300	6.528	0.100
791.400	13.221	0.100
791.500	12.518	0.100
791.600	13.498	0.100
791.700	20.901	0.100
791.800	14.105	0.100
791.900	9.955	0.100
792.000	18.180	0.100
792.100	14.938	0.100
792.200	19.890	0.100
792.300	17.337	0.100
792.400	15.374	0.100
792.500	11.295	0.100
792.600	18.466	0.100
792.700	14.417	0.100
792.800	10.804	0.100
792.900	10.968	0.100
793.000	14.685	0.100
793.100	17.253	0.100
793.200	19.064	0.100
793.300	16.540	0.100
793.400	22.608	0.100
793.500	13.737	0.100
793.600	14.998	0.100
793.700	17.885	0.100
793.800	18.004	0.100
793.900	15.030	0.100
794.000	18.763	0.100
794.100	13.096	0.100
794.200	15.714	0.100
794.300	17.139	0.100
794.400	32.896	0.100
794.500	26.716	0.100
794.600	13.063	0.100
794.700	28.764	0.100
794.800	18.696	0.100
794.900	22.801	0.100
795.000	17.878	0.100
795.100	23.674	0.100
795.200	17.983	0.100
795.300	21.263	0.100
795.400	32.950	0.100
795.500	21.008	0.100
795.600	13.032	0.100
795.700	10.243	0.100
795.800	16.958	0.100
795.900	14.344	0.100
796.000	25.269	0.100
796.100	24.358	0.100
796.200	19.126	0.100
796.300	18.284	0.100
796.400	18.786	0.100
796.500	22.298	0.100
796.600	28.466	0.100
796.700	16.570	0.100
796.800	15.065	0.100
796.900	18.947	0.100
797.000	13.723	0.100
797.100	25.614	0.100
797.200	21.415	0.100
797.300	20.468	0.100
797.400	32.075	0.100
797.500	26.836	0.100
797.600	30.845	0.100
797.700	21.182	0.100
797.800	24.248	0.100
797.900	29.047	0.100
798.000	15.398	0.100
798.100	28.605	0.100
798.200	20.926	0.100
798.300	21.248	0.100
798.400	23.851	0.100
798.500	22.248	0.100
798.600	27.613	0.100
798.700	27.110	0.100
798.800	28.682	0.100
798.900	28.419	0.100
799.000	23.897	0.100
799.100	21.900	0.100
799.200	15.466	0.100
799.300	16.694	0.100
799.400	31.655	0.100
799.500	24.116	0.100
799.600	37.726	0.100
799.700	26.980	0.100
799.800	18.870	0.100
799.900	13.090	0.100
800.000	23.045	0.100
