time /s	I /nA	E /V
0.100	-19.571	0.100
0.200	-18.004	0.100
0.300	-18.418	0.100
0.400	-14.099	0.100
0.500	-8.254	0.100
0.600	-12.909	0.100
0.700	-19.603	0.100
0.800	-23.097	0.100
0.900	-16.173	0.100
1.000	-25.474	0.100
1.100	-19.131	0.100
1.200	-18.092	0.100
1.300	-16.335	0.100
1.400	-8.470	0.100
1.500	-13.005	0.100
1.600	-24.861	0.100
1.700	-12.071	0.100
1.800	-11.421	0.100
1.900	-20.583	0.100
2.000	-13.710	0.100
2.100	-12.097	0.100
2.200	-14.667	0.100
2.300	-14.444	0.100
2.400	-14.153	0.100
2.500	-15.128	0.100
2.600	-20.102	0.100
2.700	-21.333	0.100
2.800	-21.156	0.100
2.900	-12.172	0.100
3.000	-9.397	0.100
3.100	-14.459	0.100
3.200	-13.881	0.100
3.300	-17.688	0.100
3.400	-17.084	0.100
3.500	-9.785	0.100
3.600	-10.048	0.100
3.700	-13.823	0.100
3.800	-19.335	0.100
3.900	-27.630	0.100
4.000	-26.011	0.100
4.100	-21.715	0.100
4.200	-10.327	0.100
4.300	-14.843	0.100
4.400	-14.470	0.100
4.500	-11.972	0.100
4.600	-22.764	0.100
4.700	-14.935	0.100
4.800	-15.373	0.100
4.900	-13.515	0.100
5.000	-19.195	0.100
5.100	-19.667	0.100
5.200	-8.938	0.100
5.300	-9.668	0.100
5.400	-4.618	0.100
5.500	-18.337	0.100
5.600	-19.004	0.100
5.700	-19.962	0.100
5.800	-26.011	0.100
5.900	-23.264	0.100
6.000	-13.050	0.100
6.100	-13.538	0.100
6.200	-11.952	0.100
6.300	-20.343	0.100
6.400	-26.467	0.100
6.500	-18.747	0.100
6.600	-12.110	0.100
6.700	-2.219	0.100
6.800	-8.293	0.100
6.900	-13.442	0.100
7.000	-23.769	0.100
7.100	-16.950	0.100
7.200	-17.825	0.100
7.300	-16.299	0.100
7.400	-15.440	0.100
7.500	-10.952	0.100
7.600	-14.207	0.100
7.700	-16.190	0.100
7.800	-16.141	0.100
7.900	-21.061	0.100
8.000	-20.685	0.100
8.100	-27.084	0.100
8.200	-16.923	0.100
8.300	-15.258	0.100
8.400	-13.173	0.100
8.500	-14.617	0.100
8.600	-16.708	0.100
8.700	-13.286	0.100
8.800	-8.386	0.100
8.900	-18.075	0.100
9.000	-16.244	0.100
9.100	-13.077	0.100
9.200	-12.524	0.100
9.300	-10.572	0.100
9.400	-18.911	0.100
9.500	-8.111	0.100
9.600	-9.867	0.100
9.700	-6.455	0.100
9.800	-14.690	0.100
9.900	-15.918	0.100
10.000	-11.122	0.100
10.100	-20.086	0.100
10.200	-16.627	0.100
10.300	-9.276	0.100
10.400	-26.779	0.100
10.500	-16.897	0.100
10.600	-14.821	0.100
10.700	-15.561	0.100
10.800	-12.154	0.100
10.900	-13.834	0.100
11.000	-6.701	0.100
11.100	-13.563	0.100
11.200	-12.723	0.100
11.300	-9.329	0.100
11.400	-19.648	0.100
11.500	-19.535	0.100
11.600	-14.067	0.100
11.700	-12.604	0.100
11.800	-23.177	0.100
11.900	-19.253	0.100
12.000	-13.900	0.100
12.100	-16.818	0.100
12.200	-7.605	0.100
12.300	-12.127	0.100
12.400	-14.504	0.100
12.500	-18.057	0.100
12.600	-14.623	0.100
12.700	-13.904	0.100
12.800	-31.996	0.100
12.900	-22.920	0.100
13.000	-9.755	0.100
13.100	-8.830	0.100
13.200	-14.624	0.100
13.300	-15.395	0.100
13.400	-15.366	0.100
13.500	-13.605	0.100
13.600	-16.727	0.100
13.700	-11.056	0.100
13.800	-21.168	0.100
13.900	-19.018	0.100
14.000	-13.827	0.100
14.100	-12.766	0.100
14.200	-23.832	0.100
14.300	-14.085	0.100
14.400	-4.538	0.100
14.500	-8.906	0.100
14.600	-12.259	0.100
14.700	-25.262	0.100
14.800	-18.211	0.100
14.900	-23.380	0.100
15.000	-12.928	0.100
15.100	-9.144	0.100
15.200	-16.303	0.100
15.300	-14.278	0.100
15.400	-10.912	0.100
15.500	-16.597	0.100
15.600	-15.558	0.100
15.700	-15.079	0.100
15.800	-10.909	0.100
15.900	-12.599	0.100
16.000	-20.806	0.100
16.100	-17.212	0.100
16.200	-23.968	0.100
16.300	-7.123	0.100
16.400	-18.634	0.100
16.500	-19.016	0.100
16.600	-16.436	0.100
16.700	-12.739	0.100
16.800	-21.069	0.100
16.900	-16.093	0.100
17.000	-17.516	0.100
17.100	-17.290	0.100
17.200	-16.665	0.100
17.300	-13.160	0.100
17.400	-19.208	0.100
17.500	-23.367	0.100
17.600	-22.284	0.100
17.700	-10.879	0.100
17.800	-17.700	0.100
17.900	-16.042	0.100
18.000	-14.845	0.100
18.100	-23.800	0.100
18.200	-25.460	0.100
18.300	-5.505	0.100
18.400	-5.916	0.100
18.500	-15.300	0.100
18.600	-12.301	0.100
18.700	-7.656	0.100
18.800	-19.609	0.100
18.900	-6.634	0.100
19.000	-17.393	0.100
19.100	-12.169	0.100
19.200	-12.942	0.100
19.300	-14.009	0.100
19.400	-25.260	0.100
19.500	-21.069	0.100
19.600	-14.274	0.100
19.700	-18.074	0.100
19.800	-10.508	0.100
19.900	-13.579	0.100
20.000	-12.593	0.100
20.100	-12.386	0.100
20.200	-14.034	0.100
20.300	-30.317	0.100
20.400	-20.519	0.100
20.500	-17.588	0.100
20.600	-14.394	0.100
20.700	-19.579	0.100
20.800	-18.332	0.100
20.900	-7.178	0.100
21.000	-14.222	0.100
21.100	-12.156	0.100
21.200	-16.090	0.100
21.300	-18.064	0.100
21.400	-15.634	0.100
21.500	-15.225	0.100
21.600	-12.239	0.100
21.700	-19.917	0.100
21.800	-11.069	0.100
21.900	-16.951	0.100
22.000	-5.363	0.100
22.100	-16.855	0.100
22.200	-9.201	0.100
22.300	-19.622	0.100
22.400	-15.999	0.100
22.500	-20.763	0.100
22.600	-11.614	0.100
22.700	-5.767	0.100
22.800	-15.981	0.100
22.900	-2.917	0.100
23.000	-11.764	0.100
23.100	-19.899	0.100
23.200	-14.339	0.100
23.300	-20.214	0.100
23.400	-9.300	0.100
23.500	-11.082	0.100
23.600	-17.274	0.100
23.700	-13.266	0.100
23.800	-20.211	0.100
23.900	-16.978	0.100
24.000	-18.840	0.100
24.100	-21.780	0.100
24.200	-16.216	0.100
24.300	-2.937	0.100
24.400	-23.698	0.100
24.500	-7.670	0.100
24.600	-6.886	0.100
24.700	-11.967	0.100
24.800	-9.225	0.100
24.900	-16.414	0.100
25.000	-21.765	0.100
25.100	-30.299	0.100
25.200	-15.911	0.100
25.300	-7.720	0.100
25.400	-11.681	0.100
25.500	-12.580	0.100
25.600	-11.581	0.100
25.700	-6.802	0.100
25.800	-11.826	0.100
25.900	-14.442	0.100
26.000	-14.577	0.100
26.100	-17.391	0.100
26.200	-20.416	0.100
26.300	-9.410	0.100
26.400	-9.961	0.100
26.500	-17.561	0.100
26.600	-21.930	0.100
26.700	-15.491	0.100
26.800	-14.532	0.100
26.900	-10.333	0.100
27.000	-18.967	0.100
27.100	-17.798	0.100
27.200	-17.456	0.100
27.300	-11.167	0.100
27.400	-18.048	0.100
27.500	-15.873	0.100
27.600	-11.479	0.100
27.700	-9.840	0.100
27.800	-12.160	0.100
27.900	-20.201	0.100
28.000	-22.194	0.100
28.100	-18.444	0.100
28.200	-14.595	0.100
28.300	-10.376	0.100
28.400	-9.135	0.100
28.500	-21.182	0.100
28.600	-18.378	0.100
28.700	-19.679	0.100
28.800	-16.537	0.100
28.900	-13.532	0.100
29.000	-10.558	0.100
29.100	-22.476	0.100
29.200	-16.912	0.100
29.300	-14.159	0.100
29.400	-12.629	0.100
29.500	-4.494	0.100
29.600	-14.126	0.100
29.700	-14.500	0.100
29.800	-8.818	0.100
29.900	-10.112	0.100
30.000	-9.359	0.100
30.100	-12.640	0.100
30.200	-1.535	0.100
30.300	-7.728	0.100
30.400	4.566	0.100
30.500	-3.650	0.100
30.600	0.866	0.100
30.700	-2.198	0.100
30.800	-5.733	0.100
30.900	-3.224	0.100
31.000	-4.617	0.100
31.100	8.893	0.100
31.200	10.309	0.100
31.300	-4.413	0.100
31.400	6.284	0.100
31.500	5.551	0.100
31.600	15.857	0.100
31.700	7.734	0.100
31.800	5.072	0.100
31.900	0.129	0.100
32.000	7.759	0.100
32.100	9.750	0.100
32.200	4.807	0.100
32.300	-0.736	0.100
32.400	1.744	0.100
32.500	9.229	0.100
32.600	18.900	0.100
32.700	5.519	0.100
32.800	12.758	0.100
32.900	2.730	0.100
33.000	3.739	0.100
33.100	6.656	0.100
33.200	4.301	0.100
33.300	13.703	0.100
33.400	-1.257	0.100
33.500	-2.147	0.100
33.600	7.562	0.100
33.700	6.234	0.100
33.800	20.668	0.100
33.900	0.317	0.100
34.000	8.414	0.100
34.100	8.705	0.100
34.200	14.946	0.100
34.300	13.563	0.100
34.400	9.050	0.100
34.500	12.417	0.100
34.600	5.873	0.100
34.700	3.586	0.100
34.800	7.459	0.100
34.900	3.112	0.100
35.000	8.693	0.100
35.100	-3.821	0.100
35.200	3.170	0.100
35.300	17.259	0.100
35.400	19.337	0.100
35.500	5.603	0.100
35.600	-3.132	0.100
35.700	3.271	0.100
35.800	1.675	0.100
35.900	-2.407	0.100
36.000	11.332	0.100
36.100	11.257	0.100
36.200	10.907	0.100
36.300	9.569	0.100
36.400	13.699	0.100
36.500	2.033	0.100
36.600	11.399	0.100
36.700	6.490	0.100
36.800	3.175	0.100
36.900	15.020	0.100
37.000	10.313	0.100
37.100	8.570	0.100
37.200	6.775	0.100
37.300	3.999	0.100
37.400	19.275	0.100
37.500	8.674	0.100
37.600	10.027	0.100
37.700	3.238	0.100
37.800	-2.644	0.100
37.900	3.631	0.100
38.000	5.831	0.100
38.100	10.197	0.100
38.200	8.932	0.100
38.300	9.754	0.100
38.400	12.090	0.100
38.500	1.128	0.100
38.600	10.341	0.100
38.700	17.571	0.100
38.800	16.843	0.100
38.900	15.078	0.100
39.000	11.664	0.100
39.100	4.646	0.100
39.200	17.767	0.100
39.300	8.250	0.100
39.400	7.404	0.100
39.500	19.555	0.100
39.600	12.079	0.100
39.700	13.256	0.100
39.800	2.826	0.100
39.900	12.054	0.100
40.000	18.734	0.100
40.100	20.652	0.100
40.200	17.025	0.100
40.300	7.094	0.100
40.400	27.780	0.100
40.500	16.792	0.100
40.600	21.190	0.100
40.700	16.878	0.100
40.800	13.962	0.100
40.900	19.326	0.100
41.000	11.259	0.100
41.100	3.836	0.100
41.200	4.209	0.100
41.300	11.983	0.100
41.400	24.748	0.100
41.500	18.333	0.100
41.600	17.697	0.100
41.700	20.827	0.100
41.800	10.958	0.100
41.900	15.246	0.100
42.000	15.980	0.100
42.100	14.956	0.100
42.200	13.295	0.100
42.300	21.076	0.100
42.400	19.051	0.100
42.500	15.680	0.100
42.600	10.394	0.100
42.700	22.907	0.100
42.800	21.794	0.100
42.900	14.780	0.100
43.000	16.204	0.100
43.100	18.821	0.100
43.200	19.111	0.100
43.300	26.304	0.100
43.400	24.300	0.100
43.500	19.300	0.100
43.600	22.726	0.100
43.700	25.011	0.100
43.800	17.891	0.100
43.900	21.789	0.100
44.000	18.768	0.100
44.100	23.361	0.100
44.200	26.737	0.100
44.300	16.099	0.100
44.400	28.824	0.100
44.500	29.405	0.100
44.600	19.624	0.100
44.700	26.786	0.100
44.800	21.953	0.100
44.900	20.298	0.100
45.000	19.791	0.100
45.100	16.561	0.100
45.200	17.110	0.100
45.300	22.202	0.100
45.400	20.522	0.100
45.500	18.472	0.100
45.600	24.067	0.100
45.700	18.247	0.100
45.800	17.000	0.100
45.900	22.305	0.100
46.000	21.710	0.100
46.100	26.014	0.100
46.200	27.157	0.100
46.300	21.867	0.100
46.400	29.323	0.100
46.500	31.914	0.100
46.600	31.396	0.100
46.700	24.845	0.100
46.800	32.163	0.100
46.900	19.052	0.100
47.000	24.599	0.100
47.100	26.197	0.100
47.200	20.323	0.100
47.300	17.562	0.100
47.400	18.718	0.100
47.500	18.503	0.100
47.600	30.453	0.100
47.700	17.417	0.100
47.800	16.148	0.100
47.900	22.291	0.100
48.000	36.783	0.100
48.100	30.198	0.100
48.200	23.298	0.100
48.300	21.654	0.100
48.400	14.593	0.100
48.500	28.823	0.100
48.600	25.201	0.100
48.700	37.851	0.100
48.800	49.667	0.100
48.900	28.931	0.100
49.000	29.860	0.100
49.100	28.204	0.100
49.200	27.818	0.100
49.300	35.397	0.100
49.400	31.385	0.100
49.500	22.975	0.100
49.600	30.345	0.100
49.700	18.766	0.100
49.800	26.084	0.100
49.900	22.565	0.100
50.000	28.075	0.100
50.100	19.073	0.100
50.200	24.757	0.100
50.300	27.580	0.100
50.400	34.860	0.100
50.500	31.510	0.100
50.600	33.784	0.100
50.700	17.220	0.100
50.800	26.523	0.100
50.900	25.176	0.100
51.000	31.582	0.100
51.100	35.356	0.100
51.200	39.826	0.100
51.300	31.619	0.100
51.400	28.120	0.100
51.500	26.529	0.100
51.600	28.461	0.100
51.700	27.119	0.100
51.800	36.397	0.100
51.900	33.310	0.100
52.000	29.611	0.100
52.100	38.802	0.100
52.200	28.745	0.100
52.300	30.993	0.100
52.400	32.068	0.100
52.500	13.223	0.100
52.600	17.000	0.100
52.700	26.574	0.100
52.800	36.846	0.100
52.900	37.180	0.100
53.000	37.245	0.100
53.100	27.976	0.100
53.200	26.843	0.100
53.300	30.499	0.100
53.400	22.779	0.100
53.500	35.677	0.100
53.600	45.250	0.100
53.700	30.925	0.100
53.800	35.499	0.100
53.900	31.847	0.100
54.000	36.533	0.100
54.100	19.217	0.100
54.200	26.812	0.100
54.300	27.474	0.100
54.400	26.528	0.100
54.500	37.037	0.100
54.600	30.162	0.100
54.700	28.936	0.100
54.800	32.733	0.100
54.900	43.505	0.100
55.000	34.617	0.100
55.100	32.151	0.100
55.200	27.001	0.100
55.300	32.799	0.100
55.400	42.450	0.100
55.500	36.733	0.100
55.600	35.202	0.100
55.700	34.855	0.100
55.800	32.838	0.100
55.900	28.842	0.100
56.000	28.937	0.100
56.100	29.423	0.100
56.200	25.311	0.100
56.300	43.579	0.100
56.400	20.291	0.100
56.500	32.162	0.100
56.600	41.998	0.100
56.700	38.510	0.100
56.800	38.224	0.100
56.900	29.182	0.100
57.000	27.503	0.100
57.100	32.940	0.100
57.200	35.408	0.100
57.300	38.462	0.100
57.400	35.680	0.100
57.500	35.587	0.100
57.600	37.450	0.100
57.700	33.245	0.100
57.800	49.138	0.100
57.900	38.555	0.100
58.000	32.040	0.100
58.100	29.561	0.100
58.200	43.518	0.100
58.300	39.530	0.100
58.400	39.974	0.100
58.500	35.491	0.100
58.600	31.663	0.100
58.700	47.959	0.100
58.800	36.754	0.100
58.900	37.807	0.100
59.000	38.290	0.100
59.100	39.985	0.100
59.200	35.031	0.100
59.300	26.917	0.100
59.400	32.364	0.100
59.500	35.856	0.100
59.600	38.355	0.100
59.700	31.166	0.100
59.800	31.065	0.100
59.900	29.246	0.100
60.000	36.969	0.100
60.100	34.964	0.100
60.200	37.353	0.100
60.300	32.736	0.100
60.400	26.578	0.100
60.500	41.156	0.100
60.600	42.316	0.100
60.700	34.864	0.100
60.800	39.629	0.100
60.900	29.223	0.100
61.000	36.294	0.100
61.100	43.011	0.100
61.200	29.560	0.100
61.300	49.044	0.100
61.400	42.587	0.100
61.500	36.512	0.100
61.600	38.255	0.100
61.700	37.011	0.100
61.800	33.566	0.100
61.900	33.634	0.100
62.000	39.313	0.100
62.100	34.299	0.100
62.200	37.165	0.100
62.300	35.117	0.100
62.400	29.585	0.100
62.500	35.313	0.100
62.600	46.605	0.100
62.700	40.541	0.100
62.800	34.809	0.100
62.900	24.518	0.100
63.000	35.504	0.100
63.100	35.023	0.100
63.200	33.504	0.100
63.300	32.684	0.100
63.400	44.350	0.100
63.500	32.323	0.100
63.600	40.774	0.100
63.700	26.614	0.100
63.800	36.779	0.100
63.900	38.454	0.100
64.000	40.022	0.100
64.100	31.907	0.100
64.200	37.319	0.100
64.300	40.754	0.100
64.400	40.449	0.100
64.500	33.571	0.100
64.600	29.079	0.100
64.700	25.930	0.100
64.800	23.411	0.100
64.900	31.774	0.100
65.000	39.494	0.100
65.100	40.314	0.100
65.200	37.115	0.100
65.300	38.538	0.100
65.400	36.351	0.100
65.500	38.083	0.100
65.600	40.715	0.100
65.700	29.013	0.100
65.800	37.324	0.100
65.900	36.668	0.100
66.000	26.783	0.100
66.100	36.942	0.100
66.200	32.660	0.100
66.300	41.704	0.100
66.400	47.413	0.100
66.500	37.563	0.100
66.600	43.898	0.100
66.700	30.313	0.100
66.800	22.797	0.100
66.900	41.128	0.100
67.000	43.014	0.100
67.100	35.860	0.100
67.200	49.120	0.100
67.300	29.776	0.100
67.400	22.250	0.100
67.500	37.661	0.100
67.600	40.172	0.100
67.700	38.435	0.100
67.800	22.713	0.100
67.900	30.944	0.100
68.000	25.751	0.100
68.100	43.303	0.100
68.200	45.238	0.100
68.300	36.727	0.100
68.400	46.611	0.100
68.500	36.872	0.100
68.600	41.795	0.100
68.700	29.555	0.100
68.800	33.807	0.100
68.900	34.280	0.100
69.000	32.272	0.100
69.100	34.288	0.100
69.200	38.870	0.100
69.300	31.095	0.100
69.400	36.755	0.100
69.500	37.036	0.100
69.600	32.780	0.100
69.700	39.907	0.100
69.800	35.094	0.100
69.900	32.247	0.100
70.000	40.558	0.100
70.100	24.435	0.100
70.200	42.007	0.100
70.300	40.099	0.100
70.400	42.487	0.100
70.500	35.598	0.100
70.600	41.602	0.100
70.700	34.930	0.100
70.800	22.118	0.100
70.900	33.678	0.100
71.000	27.001	0.100
71.100	36.121	0.100
71.200	41.686	0.100
71.300	31.584	0.100
71.400	32.522	0.100
71.500	35.451	0.100
71.600	23.710	0.100
71.700	27.412	0.100
71.800	27.501	0.100
71.900	33.081	0.100
72.000	39.392	0.100
72.100	47.212	0.100
72.200	53.386	0.100
72.300	44.293	0.100
72.400	34.007	0.100
72.500	38.970	0.100
72.600	34.561	0.100
72.700	38.603	0.100
72.800	33.613	0.100
72.900	32.534	0.100
73.000	32.104	0.100
73.100	37.570	0.100
73.200	41.501	0.100
73.300	45.901	0.100
73.400	28.525	0.100
73.500	40.404	0.100
73.600	45.405	0.100
73.700	38.798	0.100
73.800	40.244	0.100
73.900	38.821	0.100
74.000	40.201	0.100
74.100	31.534	0.100
74.200	41.086	0.100
74.300	37.595	0.100
74.400	35.765	0.100
74.500	27.896	0.100
74.600	28.988	0.100
74.700	35.480	0.100
74.800	36.995	0.100
74.900	36.791	0.100
75.000	32.732	0.100
75.100	44.992	0.100
75.200	41.275	0.100
75.300	32.768	0.100
75.400	34.973	0.100
75.500	35.821	0.100
75.600	29.580	0.100
75.700	41.459	0.100
75.800	35.256	0.100
75.900	32.768	0.100
76.000	42.513	0.100
76.100	38.773	0.100
76.200	30.741	0.100
76.300	35.029	0.100
76.400	37.520	0.100
76.500	46.704	0.100
76.600	26.857	0.100
76.700	28.097	0.100
76.800	30.611	0.100
76.900	34.973	0.100
77.000	39.995	0.100
77.100	30.378	0.100
77.200	35.127	0.100
77.300	42.410	0.100
77.400	41.366	0.100
77.500	30.085	0.100
77.600	42.596	0.100
77.700	37.774	0.100
77.800	35.766	0.100
77.900	36.545	0.100
78.000	34.645	0.100
78.100	32.979	0.100
78.200	29.300	0.100
78.300	37.434	0.100
78.400	45.345	0.100
78.500	43.843	0.100
78.600	28.283	0.100
78.700	40.442	0.100
78.800	36.951	0.100
78.900	32.897	0.100
79.000	28.857	0.100
79.100	35.136	0.100
79.200	33.905	0.100
79.300	39.102	0.100
79.400	35.986	0.100
79.500	36.574	0.100
79.600	36.060	0.100
79.700	30.021	0.100
79.800	35.220	0.100
79.900	32.703	0.100
80.000	37.678	0.100
80.100	30.817	0.100
80.200	38.026	0.100
80.300	35.034	0.100
80.400	33.138	0.100
80.500	35.603	0.100
80.600	31.983	0.100
80.700	31.364	0.100
80.800	46.929	0.100
80.900	47.248	0.100
81.000	35.991	0.100
81.100	36.505	0.100
81.200	31.614	0.100
81.300	36.228	0.100
81.400	40.618	0.100
81.500	40.934	0.100
81.600	43.026	0.100
81.700	42.666	0.100
81.800	33.907	0.100
81.900	27.537	0.100
82.000	32.994	0.100
82.100	25.566	0.100
82.200	32.878	0.100
82.300	42.961	0.100
82.400	38.536	0.100
82.500	38.414	0.100
82.600	40.494	0.100
82.700	39.448	0.100
82.800	24.354	0.100
82.900	40.524	0.100
83.000	33.379	0.100
83.100	32.422	0.100
83.200	43.075	0.100
83.300	32.402	0.100
83.400	32.090	0.100
83.500	46.858	0.100
83.600	46.780	0.100
83.700	36.272	0.100
83.800	34.571	0.100
83.900	29.340	0.100
84.000	36.860	0.100
84.100	40.819	0.100
84.200	37.569	0.100
84.300	27.382	0.100
84.400	22.912	0.100
84.500	30.333	0.100
84.600	46.529	0.100
84.700	45.146	0.100
84.800	42.131	0.100
84.900	34.951	0.100
85.000	29.721	0.100
85.100	43.766	0.100
85.200	32.272	0.100
85.300	26.244	0.100
85.400	40.432	0.100
85.500	33.251	0.100
85.600	34.496	0.100
85.700	37.325	0.100
85.800	41.729	0.100
85.900	34.177	0.100
86.000	36.227	0.100
86.100	32.705	0.100
86.200	39.517	0.100
86.300	36.281	0.100
86.400	38.481	0.100
86.500	43.538	0.100
86.600	32.818	0.100
86.700	37.862	0.100
86.800	37.501	0.100
86.900	36.014	0.100
87.000	37.192	0.100
87.100	45.187	0.100
87.200	41.504	0.100
87.300	39.540	0.100
87.400	30.607	0.100
87.500	28.235	0.100
87.600	33.404	0.100
87.700	31.609	0.100
87.800	33.958	0.100
87.900	40.097	0.100
88.000	42.271	0.100
88.100	52.144	0.100
88.200	47.380	0.100
88.300	30.403	0.100
88.400	42.196	0.100
88.500	31.687	0.100
88.600	35.383	0.100
88.700	37.898	0.100
88.800	37.106	0.100
88.900	35.084	0.100
89.000	46.105	0.100
89.100	40.665	0.100
89.200	39.313	0.100
89.300	29.136	0.100
89.400	33.083	0.100
89.500	30.982	0.100
89.600	29.182	0.100
89.700	30.046	0.100
89.800	34.737	0.100
89.900	34.990	0.100
90.000	31.862	0.100
90.100	26.959	0.100
90.200	26.793	0.100
90.300	30.777	0.100
90.400	27.061	0.100
90.500	26.069	0.100
90.600	30.918	0.100
90.700	12.000	0.100
90.800	18.019	0.100
90.900	22.387	0.100
91.000	27.434	0.100
91.100	15.062	0.100
91.200	10.856	0.100
91.300	17.061	0.100
91.400	19.507	0.100
91.500	7.806	0.100
91.600	11.764	0.100
91.700	10.113	0.100
91.800	10.105	0.100
91.900	11.082	0.100
92.000	7.597	0.100
92.100	8.144	0.100
92.200	-4.054	0.100
92.300	3.750	0.100
92.400	14.084	0.100
92.500	-8.962	0.100
92.600	9.145	0.100
92.700	4.992	0.100
92.800	-1.794	0.100
92.900	3.240	0.100
93.000	-1.372	0.100
93.100	-1.683	0.100
93.200	8.167	0.100
93.300	8.103	0.100
93.400	4.117	0.100
93.500	-3.883	0.100
93.600	-6.603	0.100
93.700	4.711	0.100
93.800	-1.609	0.100
93.900	2.468	0.100
94.000	2.255	0.100
94.100	8.336	0.100
94.200	-0.789	0.100
94.300	-2.114	0.100
94.400	-2.644	0.100
94.500	2.501	0.100
94.600	-7.168	0.100
94.700	1.491	0.100
94.800	-0.126	0.100
94.900	-3.245	0.100
95.000	-4.578	0.100
95.100	-6.939	0.100
95.200	-11.480	0.100
95.300	-3.451	0.100
95.400	0.724	0.100
95.500	0.364	0.100
95.600	1.029	0.100
95.700	-6.199	0.100
95.800	-5.686	0.100
95.900	-13.156	0.100
96.000	-16.984	0.100
96.100	-4.364	0.100
96.200	9.249	0.100
96.300	4.872	0.100
96.400	0.092	0.100
96.500	-6.471	0.100
96.600	-2.790	0.100
96.700	-4.109	0.100
96.800	8.521	0.100
96.900	-2.756	0.100
97.000	4.090	0.100
97.100	-0.941	0.100
97.200	-14.481	0.100
97.300	-14.901	0.100
97.400	-3.557	0.100
97.500	-2.393	0.100
97.600	-18.561	0.100
97.700	3.400	0.100
97.800	2.285	0.100
97.900	-3.609	0.100
98.000	-5.725	0.100
98.100	-2.502	0.100
98.200	-6.313	0.100
98.300	-4.017	0.100
98.400	-9.076	0.100
98.500	-5.319	0.100
98.600	-9.920	0.100
98.700	2.929	0.100
98.800	-7.213	0.100
98.900	-4.718	0.100
99.000	-5.525	0.100
99.100	-9.790	0.100
99.200	-3.542	0.100
99.300	0.988	0.100
99.400	-10.887	0.100
99.500	3.805	0.100
99.600	-2.468	0.100
99.700	-0.316	0.100
99.800	5.515	0.100
99.900	-6.925	0.100
100.000	-17.539	0.100
100.100	-9.118	0.100
100.200	1.487	0.100
100.300	-0.540	0.100
100.400	-1.595	0.100
100.500	0.700	0.100
100.600	-11.194	0.100
100.700	0.935	0.100
100.800	-6.693	0.100
100.900	-10.031	0.100
101.000	-3.044	0.100
101.100	2.487	0.100
101.200	-1.495	0.100
101.300	-1.363	0.100
101.400	-13.291	0.100
101.500	-12.686	0.100
101.600	2.719	0.100
101.700	-3.970	0.100
101.800	0.223	0.100
101.900	-16.211	0.100
102.000	-11.303	0.100
102.100	-0.818	0.100
102.200	-7.079	0.100
102.300	-4.185	0.100
102.400	-5.294	0.100
102.500	-4.888	0.100
102.600	-9.235	0.100
102.700	-9.663	0.100
102.800	-11.324	0.100
102.900	1.116	0.100
103.000	-4.373	0.100
103.100	-3.292	0.100
103.200	-11.239	0.100
103.300	-13.203	0.100
103.400	-10.080	0.100
103.500	2.795	0.100
103.600	-0.877	0.100
103.700	-10.646	0.100
103.800	-11.884	0.100
103.900	-3.638	0.100
104.000	-11.231	0.100
104.100	-8.960	0.100
104.200	-4.684	0.100
104.300	-4.693	0.100
104.400	-7.502	0.100
104.500	-2.723	0.100
104.600	-17.621	0.100
104.700	-10.189	0.100
104.800	-5.362	0.100
104.900	-9.678	0.100
105.000	-8.221	0.100
105.100	-1.751	0.100
105.200	2.427	0.100
105.300	1.145	0.100
105.400	-12.286	0.100
105.500	-14.742	0.100
105.600	-2.029	0.100
105.700	-9.244	0.100
105.800	-14.242	0.100
105.900	-3.631	0.100
106.000	-14.461	0.100
106.100	-6.733	0.100
106.200	-6.331	0.100
106.300	-6.369	0.100
106.400	-4.848	0.100
106.500	-13.702	0.100
106.600	-21.469	0.100
106.700	1.529	0.100
106.800	-0.410	0.100
106.900	0.250	0.100
107.000	-9.025	0.100
107.100	-4.852	0.100
107.200	-7.419	0.100
107.300	-3.971	0.100
107.400	-24.244	0.100
107.500	-11.760	0.100
107.600	-5.085	0.100
107.700	-0.710	0.100
107.800	-17.263	0.100
107.900	-17.795	0.100
108.000	1.904	0.100
108.100	-8.327	0.100
108.200	-2.010	0.100
108.300	-15.735	0.100
108.400	-23.478	0.100
108.500	-12.538	0.100
108.600	-2.947	0.100
108.700	-10.324	0.100
108.800	-7.083	0.100
108.900	-5.088	0.100
109.000	-17.862	0.100
109.100	-15.726	0.100
109.200	-12.330	0.100
109.300	-9.527	0.100
109.400	-0.440	0.100
109.500	-7.213	0.100
109.600	-14.344	0.100
109.700	-3.575	0.100
109.800	-17.765	0.100
109.900	-1.877	0.100
110.000	-19.471	0.100
110.100	-11.286	0.100
110.200	-7.679	0.100
110.300	1.952	0.100
110.400	1.373	0.100
110.500	-0.633	0.100
110.600	-6.176	0.100
110.700	-10.245	0.100
110.800	-19.818	0.100
110.900	-15.367	0.100
111.000	-10.985	0.100
111.100	-12.354	0.100
111.200	-13.325	0.100
111.300	-7.066	0.100
111.400	-6.880	0.100
111.500	-8.761	0.100
111.600	-14.606	0.100
111.700	-8.523	0.100
111.800	-13.636	0.100
111.900	-9.729	0.100
112.000	-14.597	0.100
112.100	-9.228	0.100
112.200	-12.900	0.100
112.300	-1.415	0.100
112.400	-6.075	0.100
112.500	-11.933	0.100
112.600	-15.084	0.100
112.700	-16.749	0.100
112.800	-15.090	0.100
112.900	-11.904	0.100
113.000	-15.289	0.100
113.100	-23.559	0.100
113.200	-9.856	0.100
113.300	-9.617	0.100
113.400	-12.636	0.100
113.500	-11.800	0.100
113.600	-8.890	0.100
113.700	-12.152	0.100
113.800	-17.480	0.100
113.900	-15.631	0.100
114.000	-14.483	0.100
114.100	-14.417	0.100
114.200	-1.023	0.100
114.300	-5.511	0.100
114.400	-13.288	0.100
114.500	-9.928	0.100
114.600	-8.220	0.100
114.700	-15.523	0.099
114.800	-8.160	0.100
114.900	-16.386	0.100
115.000	-21.754	0.100
115.100	-16.537	0.100
115.200	-13.820	0.100
115.300	-10.483	0.099
115.400	-6.481	0.100
115.500	-14.132	0.100
115.600	-9.964	0.100
115.700	-6.725	0.100
115.800	-21.672	0.099
115.900	-8.708	0.100
116.000	-12.859	0.100
116.100	-14.400	0.100
116.200	-20.192	0.099
116.300	0.265	0.100
116.400	-12.265	0.100
116.500	-13.350	0.099
116.600	-14.854	0.099
116.700	-17.117	0.099
116.800	-6.057	0.099
116.900	-13.082	0.099
117.000	-4.351	0.100
117.100	-8.202	0.099
117.200	-6.942	0.100
117.300	-16.350	0.099
117.400	-19.346	0.099
117.500	-13.017	0.099
117.600	-6.999	0.099
117.700	-15.475	0.099
117.800	-16.679	0.099
117.900	-26.549	0.100
118.000	-5.687	0.099
118.100	-13.148	0.100
118.200	-16.221	0.099
118.300	-22.764	0.099
118.400	-13.698	0.099
118.500	-8.300	0.099
118.600	-11.093	0.099
118.700	-12.362	0.099
118.800	-17.397	0.099
118.900	-17.550	0.099
119.000	-17.651	0.099
119.100	-7.049	0.099
119.200	-9.486	0.099
119.300	-21.352	0.099
119.400	-22.938	0.099
119.500	-28.656	0.099
119.600	-23.752	0.099
119.700	-10.642	0.099
119.800	-5.284	0.099
119.900	-18.385	0.099
120.000	-16.637	0.099
120.100	-16.994	0.099
120.200	-18.769	0.099
120.300	-21.038	0.099
120.400	-27.137	0.099
120.500	-28.394	0.099
120.600	-9.803	0.099
120.700	-17.135	0.099
120.800	-16.152	0.099
120.900	-13.205	0.099
121.000	-10.205	0.099
121.100	-25.146	0.099
121.200	-24.261	0.099
121.300	-12.695	0.099
121.400	-16.619	0.099
121.500	-29.018	0.099
121.600	-17.743	0.099
121.700	-9.374	0.099
121.800	-13.713	0.099
121.900	-11.919	0.099
122.000	-22.361	0.099
122.100	-25.513	0.099
122.200	-18.898	0.099
122.300	-13.719	0.099
122.400	-15.549	0.099
122.500	-6.069	0.099
122.600	-9.532	0.099
122.700	-12.906	0.099
122.800	-10.151	0.099
122.900	-29.294	0.099
123.000	-14.859	0.099
123.100	-17.256	0.099
123.200	-21.009	0.099
123.300	-8.689	0.099
123.400	-22.599	0.099
123.500	-23.629	0.099
123.600	-2.704	0.099
123.700	-21.646	0.099
123.800	-15.792	0.099
123.900	-18.938	0.099
124.000	-23.006	0.099
124.100	-27.746	0.099
124.200	-25.498	0.099
124.300	-4.761	0.099
124.400	-19.023	0.099
124.500	-13.234	0.099
124.600	-13.970	0.099
124.700	-19.139	0.099
124.800	-14.066	0.099
124.900	-15.347	0.099
125.000	-19.897	0.099
125.100	-19.738	0.099
125.200	-16.057	0.099
125.300	-23.092	0.099
125.400	-8.556	0.099
125.500	-13.640	0.099
125.600	-22.246	0.099
125.700	-22.937	0.099
125.800	-18.971	0.099
125.900	-20.642	0.099
126.000	-21.735	0.099
126.100	-21.075	0.099
126.200	-23.098	0.099
126.300	-20.407	0.099
126.400	-33.473	0.099
126.500	-13.483	0.099
126.600	-16.431	0.099
126.700	-14.961	0.099
126.800	-10.635	0.099
126.900	-19.411	0.099
127.000	-22.081	0.099
127.100	-15.878	0.099
127.200	-17.939	0.099
127.300	-12.736	0.099
127.400	-25.686	0.099
127.500	-17.945	0.099
127.600	-17.847	0.099
127.700	-22.899	0.099
127.800	-15.424	0.099
127.900	-10.977	0.099
128.000	-28.428	0.099
128.100	-6.441	0.099
128.200	-18.416	0.099
128.300	-29.181	0.099
128.400	-23.535	0.099
128.500	-12.879	0.099
128.600	-11.278	0.099
128.700	-16.828	0.099
128.800	-18.138	0.099
128.900	-18.008	0.099
129.000	-16.213	0.099
129.100	-16.359	0.099
129.200	-17.530	0.099
129.300	-34.869	0.099
129.400	-26.714	0.099
129.500	-37.062	0.099
129.600	-22.106	0.099
129.700	-14.200	0.099
129.800	-27.154	0.099
129.900	-12.606	0.099
130.000	-19.853	0.099
130.100	-10.324	0.099
130.200	-13.013	0.099
130.300	-19.164	0.099
130.400	-17.019	0.099
130.500	-18.764	0.099
130.600	-21.340	0.099
130.700	-21.659	0.099
130.800	-28.565	0.099
130.900	-19.240	0.099
131.000	-23.004	0.099
131.100	-23.257	0.099
131.200	-32.539	0.099
131.300	-23.094	0.099
131.400	-14.040	0.099
131.500	-23.671	0.099
131.600	-15.920	0.099
131.700	-13.347	0.099
131.800	-14.281	0.099
131.900	-23.956	0.099
132.000	-18.678	0.099
132.100	-14.203	0.099
132.200	-13.706	0.099
132.300	-17.542	0.099
132.400	-23.679	0.099
132.500	-35.401	0.099
132.600	-17.267	0.099
132.700	-16.124	0.099
132.800	-22.707	0.099
132.900	-23.138	0.099
133.000	-29.255	0.099
133.100	-18.129	0.099
133.200	-13.072	0.099
133.300	-19.506	0.099
133.400	-20.285	0.099
133.500	-14.026	0.099
133.600	-22.196	0.099
133.700	-21.872	0.099
133.800	-24.609	0.099
133.900	-17.384	0.099
134.000	-27.662	0.099
134.100	-27.944	0.099
134.200	-19.591	0.099
134.300	-16.686	0.099
134.400	-19.283	0.099
134.500	-33.600	0.099
134.600	-17.101	0.099
134.700	-15.551	0.099
134.800	-20.549	0.099
134.900	-16.188	0.099
135.000	-22.625	0.099
135.100	-26.472	0.099
135.200	-9.887	0.099
135.300	-20.432	0.099
135.400	-18.068	0.099
135.500	-19.884	0.099
135.600	-19.377	0.099
135.700	-24.960	0.099
135.800	-17.323	0.099
135.900	-21.917	0.099
136.000	-20.970	0.099
136.100	-19.663	0.099
136.200	-20.283	0.099
136.300	-22.662	0.099
136.400	-15.077	0.099
136.500	-20.483	0.099
136.600	-23.006	0.099
136.700	-20.092	0.099
136.800	-15.305	0.099
136.900	-26.715	0.099
137.000	-29.935	0.099
137.100	-17.020	0.099
137.200	-20.730	0.099
137.300	-30.147	0.099
137.400	-24.027	0.099
137.500	-21.919	0.099
137.600	-19.871	0.099
137.700	-18.329	0.099
137.800	-10.034	0.099
137.900	-22.451	0.099
138.000	-21.589	0.099
138.100	-28.875	0.099
138.200	-22.669	0.099
138.300	-26.958	0.099
138.400	-25.809	0.099
138.500	-18.886	0.099
138.600	-12.554	0.099
138.700	-25.600	0.099
138.800	-29.879	0.099
138.900	-24.567	0.099
139.000	-19.910	0.099
139.100	-12.182	0.099
139.200	-14.956	0.099
139.300	-20.813	0.099
139.400	-19.726	0.099
139.500	-21.971	0.099
139.600	-26.690	0.099
139.700	-28.121	0.099
139.800	-20.485	0.099
139.900	-20.174	0.099
140.000	-22.883	0.099
140.100	-24.748	0.099
140.200	-18.471	0.099
140.300	-13.867	0.099
140.400	-16.035	0.099
140.500	-20.985	0.099
140.600	-20.429	0.099
140.700	-13.195	0.099
140.800	-25.527	0.099
140.900	-25.328	0.099
141.000	-26.592	0.099
141.100	-20.889	0.099
141.200	-20.425	0.099
141.300	-29.188	0.099
141.400	-20.296	0.099
141.500	-17.152	0.099
141.600	-22.632	0.099
141.700	-24.489	0.099
141.800	-26.253	0.099
141.900	-14.725	0.099
142.000	-23.286	0.099
142.100	-20.715	0.099
142.200	-12.270	0.099
142.300	-20.887	0.099
142.400	-23.792	0.099
142.500	-25.573	0.099
142.600	-28.626	0.099
142.700	-23.499	0.099
142.800	-24.547	0.099
142.900	-13.845	0.099
143.000	-21.777	0.099
143.100	-22.479	0.099
143.200	-28.373	0.099
143.300	-16.891	0.099
143.400	-23.938	0.099
143.500	-24.068	0.099
143.600	-21.859	0.099
143.700	-22.269	0.099
143.800	-18.720	0.099
143.900	-22.981	0.099
144.000	-17.117	0.099
144.100	-18.068	0.099
144.200	-15.182	0.099
144.300	-25.093	0.099
144.400	-29.455	0.099
144.500	-22.430	0.099
144.600	-20.548	0.099
144.700	-13.316	0.099
144.800	-11.292	0.099
144.900	-18.428	0.099
145.000	-12.459	0.099
145.100	-25.059	0.099
145.200	-25.568	0.099
145.300	-33.057	0.099
145.400	-10.946	0.099
145.500	-20.898	0.099
145.600	-25.856	0.099
145.700	-27.826	0.099
145.800	-21.908	0.099
145.900	-25.513	0.099
146.000	-23.031	0.099
146.100	-40.718	0.099
146.200	-27.691	0.099
146.300	-30.619	0.099
146.400	-14.417	0.099
146.500	-19.929	0.099
146.600	-16.908	0.099
146.700	-12.309	0.099
146.800	-18.902	0.099
146.900	-22.840	0.099
147.000	-32.229	0.099
147.100	-23.046	0.099
147.200	-20.463	0.099
147.300	-19.756	0.099
147.400	-11.606	0.099
147.500	-17.253	0.099
147.600	-31.324	0.099
147.700	-19.738	0.099
147.800	-22.170	0.099
147.900	-6.601	0.099
148.000	-20.311	0.099
148.100	-11.059	0.099
148.200	-16.336	0.099
148.300	-31.344	0.099
148.400	-10.752	0.099
148.500	-24.032	0.099
148.600	-32.512	0.099
148.700	-27.036	0.099
148.800	-26.735	0.099
148.900	-20.350	0.099
149.000	-27.138	0.099
149.100	-20.727	0.099
149.200	-22.337	0.099
149.300	-32.694	0.099
149.400	-21.526	0.099
149.500	-15.053	0.099
149.600	-16.875	0.099
149.700	-8.922	0.099
149.800	-32.714	0.099
149.900	-24.675	0.099
150.000	-23.035	0.099
150.100	-18.131	0.099
150.200	-9.007	0.099
150.300	-20.220	0.099
150.400	-15.134	0.099
150.500	-21.195	0.099
150.600	-23.489	0.099
150.700	-23.263	0.099
150.800	-25.147	0.099
150.900	-25.043	0.099
151.000	-12.828	0.099
151.100	-18.400	0.099
151.200	-23.416	0.099
151.300	-16.586	0.099
151.400	-14.472	0.099
151.500	-15.490	0.099
151.600	-25.955	0.099
151.700	-22.628	0.099
151.800	-27.206	0.099
151.900	-18.021	0.099
152.000	-20.801	0.099
152.100	-22.111	0.099
152.200	-14.772	0.099
152.300	-17.509	0.099
152.400	-21.261	0.099
152.500	-21.668	0.099
152.600	-27.073	0.099
152.700	-23.374	0.099
152.800	-18.147	0.099
152.900	-26.031	0.099
153.000	-21.739	0.099
153.100	-31.325	0.099
153.200	-30.960	0.099
153.300	-17.701	0.099
153.400	-17.186	0.099
153.500	-14.348	0.099
153.600	-21.123	0.099
153.700	-23.071	0.099
153.800	-10.064	0.099
153.900	-18.673	0.099
154.000	-22.063	0.099
154.100	-11.063	0.099
154.200	-21.378	0.099
154.300	-27.745	0.099
154.400	-16.360	0.099
154.500	-19.778	0.099
154.600	-15.554	0.099
154.700	-15.420	0.099
154.800	-16.212	0.099
154.900	-26.560	0.099
155.000	-25.957	0.099
155.100	-36.431	0.099
155.200	-21.821	0.099
155.300	-13.341	0.099
155.400	-19.663	0.099
155.500	-16.849	0.099
155.600	-23.210	0.099
155.700	-15.581	0.099
155.800	-22.427	0.099
155.900	-21.611	0.099
156.000	-17.400	0.099
156.100	-16.154	0.099
156.200	-28.318	0.099
156.300	-28.910	0.099
156.400	-26.497	0.099
156.500	-17.389	0.100
156.600	-23.190	0.099
156.700	-38.740	0.100
156.800	-15.990	0.099
156.900	-22.898	0.100
157.000	-20.824	0.099
157.100	-19.434	0.099
157.200	-19.779	0.099
157.300	-27.767	0.099
157.400	-11.060	0.099
157.500	-14.298	0.100
157.600	-17.261	0.100
157.700	-20.587	0.100
157.800	-13.234	0.099
157.900	-21.954	0.099
158.000	-20.928	0.100
158.100	-21.999	0.100
158.200	-32.438	0.099
158.300	-27.877	0.099
158.400	-19.065	0.099
158.500	-20.780	0.100
158.600	-30.796	0.100
158.700	-22.374	0.100
158.800	-15.223	0.099
158.900	-23.639	0.099
159.000	-20.141	0.100
159.100	-18.270	0.100
159.200	-14.552	0.100
159.300	-23.342	0.100
159.400	-16.298	0.100
159.500	-21.996	0.100
159.600	-20.686	0.100
159.700	-25.048	0.100
159.800	-22.562	0.100
159.900	-32.089	0.100
160.000	-23.772	0.100
160.100	-22.866	0.100
160.200	-16.875	0.100
160.300	-19.879	0.100
160.400	-21.324	0.100
160.500	-23.689	0.100
160.600	-19.978	0.100
160.700	-19.193	0.100
160.800	-10.093	0.100
160.900	-20.886	0.100
161.000	-26.396	0.100
161.100	-15.556	0.100
161.200	-16.427	0.100
161.300	-21.837	0.100
161.400	-21.767	0.100
161.500	-22.708	0.100
161.600	-24.052	0.100
161.700	-16.797	0.100
161.800	-18.456	0.100
161.900	-15.316	0.100
162.000	-11.333	0.100
162.100	-22.668	0.100
162.200	-21.444	0.100
162.300	-23.150	0.100
162.400	-19.161	0.100
162.500	-21.713	0.100
162.600	-17.447	0.100
162.700	-18.458	0.100
162.800	-16.823	0.100
162.900	-19.270	0.100
163.000	-12.888	0.100
163.100	-19.416	0.100
163.200	-25.838	0.100
163.300	-16.308	0.100
163.400	-18.856	0.100
163.500	-18.554	0.100
163.600	-21.977	0.100
163.700	-16.974	0.100
163.800	-18.644	0.100
163.900	-17.566	0.100
164.000	-14.778	0.100
164.100	-10.103	0.100
164.200	-18.089	0.100
164.300	-25.860	0.100
164.400	-15.536	0.100
164.500	-27.658	0.100
164.600	-31.521	0.100
164.700	-14.425	0.100
164.800	-24.187	0.100
164.900	-21.633	0.100
165.000	-11.140	0.100
165.100	-14.254	0.100
165.200	-18.009	0.100
165.300	-17.936	0.100
165.400	-15.328	0.100
165.500	-19.773	0.100
165.600	-21.831	0.100
165.700	-18.575	0.100
165.800	-20.090	0.100
165.900	-27.655	0.100
166.000	-13.954	0.100
166.100	-22.993	0.100
166.200	-18.471	0.100
166.300	-21.720	0.100
166.400	-19.090	0.100
166.500	-22.152	0.100
166.600	-13.302	0.100
166.700	-16.256	0.100
166.800	-10.459	0.100
166.900	-24.345	0.100
167.000	-20.499	0.100
167.100	-22.705	0.100
167.200	-25.119	0.100
167.300	-27.450	0.100
167.400	-21.020	0.100
167.500	-7.137	0.100
167.600	-8.302	0.100
167.700	-20.815	0.100
167.800	-17.013	0.100
167.900	-19.051	0.100
168.000	-23.667	0.100
168.100	-19.734	0.100
168.200	-17.171	0.100
168.300	-26.946	0.100
168.400	-24.165	0.100
168.500	-14.044	0.100
168.600	-24.067	0.100
168.700	-12.398	0.100
168.800	-22.880	0.100
168.900	-21.768	0.100
169.000	-14.929	0.100
169.100	-13.894	0.100
169.200	-25.532	0.100
169.300	-16.143	0.100
169.400	-14.300	0.100
169.500	-9.877	0.100
169.600	-17.802	0.100
169.700	-34.449	0.100
169.800	-25.571	0.100
169.900	-13.921	0.100
170.000	-13.153	0.100
170.100	-22.233	0.100
170.200	-16.561	0.100
170.300	-22.370	0.100
170.400	-27.213	0.100
170.500	-25.842	0.100
170.600	-18.991	0.100
170.700	-21.612	0.100
170.800	-18.187	0.100
170.900	-24.522	0.100
171.000	-12.127	0.100
171.100	-16.429	0.100
171.200	-24.004	0.100
171.300	-13.648	0.100
171.400	-5.890	0.100
171.500	-15.640	0.100
171.600	-13.116	0.100
171.700	-21.250	0.100
171.800	-19.266	0.100
171.900	-18.914	0.100
172.000	-12.779	0.100
172.100	-20.236	0.100
172.200	-20.965	0.100
172.300	-17.082	0.100
172.400	-29.059	0.100
172.500	-27.175	0.100
172.600	-13.765	0.100
172.700	-23.144	0.100
172.800	-19.450	0.100
172.900	-14.802	0.100
173.000	-20.166	0.100
173.100	-14.609	0.100
173.200	-6.251	0.100
173.300	-27.061	0.100
173.400	-24.464	0.100
173.500	-16.755	0.100
173.600	-19.492	0.100
173.700	-24.032	0.100
173.800	-19.415	0.100
173.900	-12.967	0.100
174.000	-12.226	0.100
174.100	-6.318	0.100
174.200	-16.237	0.100
174.300	-25.794	0.100
174.400	-15.685	0.100
174.500	-13.299	0.100
174.600	-19.837	0.100
174.700	-15.527	0.100
174.800	-16.704	0.100
174.900	-15.908	0.100
175.000	-14.546	0.100
175.100	-17.805	0.100
175.200	-19.256	0.100
175.300	-22.553	0.100
175.400	-22.661	0.100
175.500	-9.385	0.100
175.600	-17.156	0.100
175.700	-16.256	0.100
175.800	-23.181	0.100
175.900	-16.490	0.100
176.000	-15.219	0.100
176.100	-19.097	0.100
176.200	-21.962	0.100
176.300	-23.512	0.100
176.400	-23.684	0.100
176.500	-18.677	0.100
176.600	-22.220	0.100
176.700	-17.967	0.100
176.800	-18.308	0.100
176.900	-10.019	0.100
177.000	-31.000	0.100
177.100	-21.095	0.100
177.200	-13.517	0.100
177.300	-13.148	0.100
177.400	-20.390	0.100
177.500	-14.154	0.100
177.600	-20.155	0.100
177.700	-14.965	0.100
177.800	-17.823	0.100
177.900	-30.720	0.100
178.000	-20.718	0.100
178.100	-19.161	0.100
178.200	-12.564	0.100
178.300	-11.006	0.100
178.400	-19.124	0.100
178.500	-13.769	0.100
178.600	-18.898	0.100
178.700	-25.798	0.100
178.800	-19.655	0.100
178.900	-10.656	0.100
179.000	-15.997	0.100
179.100	-25.955	0.100
179.200	-23.529	0.100
179.300	-25.517	0.100
179.400	-22.697	0.100
179.500	-4.990	0.100
179.600	-14.465	0.100
179.700	-12.498	0.100
179.800	-16.525	0.100
179.900	-9.127	0.100
180.000	-9.179	0.100
180.100	-13.103	0.100
180.200	-13.147	0.100
180.300	-11.101	0.100
180.400	-9.191	0.100
180.500	-7.562	0.100
180.600	1.706	0.100
180.700	-3.741	0.100
180.800	-7.030	0.100
180.900	4.064	0.100
181.000	8.210	0.100
181.100	-2.781	0.100
181.200	-1.808	0.100
181.300	-0.267	0.100
181.400	-0.682	0.100
181.500	7.377	0.100
181.600	6.335	0.100
181.700	0.062	0.100
181.800	0.612	0.100
181.900	4.340	0.100
182.000	5.121	0.100
182.100	7.719	0.100
182.200	4.753	0.100
182.300	5.666	0.100
182.400	11.378	0.100
182.500	4.656	0.100
182.600	10.460	0.100
182.700	2.455	0.100
182.800	4.885	0.100
182.900	9.302	0.100
183.000	4.669	0.100
183.100	0.733	0.100
183.200	4.133	0.100
183.300	12.404	0.100
183.400	6.694	0.100
183.500	14.012	0.100
183.600	13.027	0.100
183.700	5.584	0.100
183.800	14.581	0.100
183.900	7.873	0.100
184.000	11.240	0.100
184.100	9.136	0.100
184.200	10.824	0.100
184.300	8.315	0.100
184.400	8.112	0.100
184.500	15.454	0.100
184.600	15.995	0.100
184.700	15.879	0.100
184.800	18.609	0.100
184.900	9.171	0.100
185.000	5.815	0.100
185.100	14.963	0.100
185.200	6.846	0.100
185.300	7.448	0.100
185.400	7.542	0.100
185.500	12.786	0.100
185.600	11.701	0.100
185.700	12.605	0.100
185.800	4.589	0.100
185.900	3.775	0.100
186.000	2.527	0.100
186.100	4.113	0.100
186.200	7.448	0.100
186.300	25.385	0.100
186.400	20.051	0.100
186.500	5.536	0.100
186.600	2.112	0.100
186.700	11.958	0.100
186.800	15.165	0.100
186.900	9.179	0.100
187.000	7.112	0.100
187.100	4.542	0.100
187.200	12.199	0.100
187.300	-7.748	0.100
187.400	17.824	0.100
187.500	5.259	0.100
187.600	17.128	0.100
187.700	6.188	0.100
187.800	12.393	0.100
187.900	16.939	0.100
188.000	17.078	0.100
188.100	16.787	0.100
188.200	8.986	0.100
188.300	10.948	0.100
188.400	10.243	0.100
188.500	7.425	0.100
188.600	17.847	0.100
188.700	1.736	0.100
188.800	6.353	0.100
188.900	13.977	0.100
189.000	14.291	0.100
189.100	16.193	0.100
189.200	13.020	0.100
189.300	7.080	0.100
189.400	13.569	0.100
189.500	4.393	0.100
189.600	9.632	0.100
189.700	18.724	0.100
189.800	14.140	0.100
189.900	15.451	0.100
190.000	12.114	0.100
190.100	12.938	0.100
190.200	3.979	0.100
190.300	19.676	0.100
190.400	6.000	0.100
190.500	6.612	0.100
190.600	9.214	0.100
190.700	18.338	0.100
190.800	9.851	0.100
190.900	18.661	0.100
191.000	3.797	0.100
191.100	20.095	0.100
191.200	13.375	0.100
191.300	13.332	0.100
191.400	13.828	0.100
191.500	11.908	0.100
191.600	9.860	0.100
191.700	23.570	0.100
191.800	18.787	0.100
191.900	11.283	0.100
192.000	6.091	0.100
192.100	10.162	0.100
192.200	22.462	0.100
192.300	21.917	0.100
192.400	21.744	0.100
192.500	21.522	0.100
192.600	11.075	0.100
192.700	13.758	0.100
192.800	13.031	0.100
192.900	-4.505	0.100
193.000	17.303	0.100
193.100	21.801	0.100
193.200	20.477	0.100
193.300	23.844	0.100
193.400	17.668	0.100
193.500	21.905	0.100
193.600	14.292	0.100
193.700	18.684	0.100
193.800	18.932	0.100
193.900	17.116	0.100
194.000	23.932	0.100
194.100	14.650	0.100
194.200	16.534	0.100
194.300	18.293	0.100
194.400	17.434	0.100
194.500	23.408	0.100
194.600	27.655	0.100
194.700	11.515	0.100
194.800	19.841	0.100
194.900	12.156	0.100
195.000	9.679	0.100
195.100	22.181	0.100
195.200	33.544	0.100
195.300	29.655	0.100
195.400	26.138	0.100
195.500	22.292	0.100
195.600	19.456	0.100
195.700	21.507	0.100
195.800	20.911	0.100
195.900	22.613	0.100
196.000	20.870	0.100
196.100	20.976	0.100
196.200	19.490	0.100
196.300	29.268	0.100
196.400	30.165	0.100
196.500	23.070	0.100
196.600	28.853	0.100
196.700	29.645	0.100
196.800	26.560	0.100
196.900	26.682	0.100
197.000	26.212	0.100
197.100	21.042	0.100
197.200	18.665	0.100
197.300	21.962	0.100
197.400	30.691	0.100
197.500	40.518	0.100
197.600	31.529	0.100
197.700	19.644	0.100
197.800	19.906	0.100
197.900	31.277	0.100
198.000	30.210	0.100
198.100	13.494	0.100
198.200	32.842	0.100
198.300	33.688	0.100
198.400	33.223	0.100
198.500	34.325	0.100
198.600	33.695	0.100
198.700	34.772	0.100
198.800	29.258	0.100
198.900	34.862	0.100
199.000	27.803	0.100
199.100	26.191	0.100
199.200	27.882	0.100
199.300	22.247	0.100
199.400	42.122	0.100
199.500	35.682	0.100
199.600	34.684	0.100
199.700	28.491	0.100
199.800	30.880	0.100
199.900	24.959	0.100
200.000	37.130	0.100
200.100	29.804	0.100
200.200	32.339	0.100
200.300	27.351	0.100
200.400	28.998	0.100
200.500	31.170	0.100
200.600	33.894	0.100
200.700	33.126	0.100
200.800	38.643	0.100
200.900	34.851	0.100
201.000	38.538	0.100
201.100	39.136	0.100
201.200	34.787	0.100
201.300	23.120	0.100
201.400	27.533	0.100
201.500	31.196	0.100
201.600	39.346	0.100
201.700	31.489	0.100
201.800	38.385	0.100
201.900	38.171	0.100
202.000	27.155	0.100
202.100	37.713	0.100
202.200	22.656	0.100
202.300	32.683	0.100
202.400	36.650	0.100
202.500	36.590	0.100
202.600	26.408	0.100
202.700	36.935	0.100
202.800	29.089	0.100
202.900	36.738	0.100
203.000	38.034	0.100
203.100	45.786	0.100
203.200	37.487	0.100
203.300	32.865	0.100
203.400	26.580	0.100
203.500	41.950	0.100
203.600	42.573	0.100
203.700	42.644	0.100
203.800	38.882	0.100
203.900	41.018	0.100
204.000	32.302	0.100
204.100	19.484	0.100
204.200	40.741	0.100
204.300	45.091	0.100
204.400	36.926	0.100
204.500	35.927	0.100
204.600	44.926	0.100
204.700	40.357	0.100
204.800	34.614	0.100
204.900	35.491	0.100
205.000	25.754	0.100
205.100	40.754	0.100
205.200	39.225	0.100
205.300	43.856	0.100
205.400	45.975	0.100
205.500	41.439	0.100
205.600	38.435	0.100
205.700	40.614	0.100
205.800	34.369	0.100
205.900	33.778	0.100
206.000	43.613	0.100
206.100	30.110	0.100
206.200	44.007	0.100
206.300	41.447	0.100
206.400	38.506	0.100
206.500	40.521	0.100
206.600	39.402	0.100
206.700	38.619	0.100
206.800	39.434	0.100
206.900	36.772	0.100
207.000	30.924	0.100
207.100	27.190	0.100
207.200	38.687	0.100
207.300	48.791	0.100
207.400	45.724	0.100
207.500	42.394	0.100
207.600	27.601	0.100
207.700	34.878	0.100
207.800	37.800	0.100
207.900	37.868	0.100
208.000	44.916	0.100
208.100	42.422	0.100
208.200	37.431	0.100
208.300	35.291	0.100
208.400	34.367	0.100
208.500	44.354	0.100
208.600	45.967	0.100
208.700	42.069	0.100
208.800	40.994	0.100
208.900	34.587	0.100
209.000	34.699	0.100
209.100	33.586	0.100
209.200	42.587	0.100
209.300	38.031	0.100
209.400	45.671	0.100
209.500	34.857	0.100
209.600	41.834	0.100
209.700	41.846	0.100
209.800	42.347	0.100
209.900	43.656	0.100
210.000	46.016	0.100
210.100	32.664	0.100
210.200	36.979	0.100
210.300	42.379	0.100
210.400	37.148	0.100
210.500	37.263	0.100
210.600	45.908	0.100
210.700	37.284	0.100
210.800	43.427	0.100
210.900	38.077	0.100
211.000	35.666	0.100
211.100	39.640	0.100
211.200	38.980	0.100
211.300	38.855	0.100
211.400	48.265	0.100
211.500	48.385	0.100
211.600	36.909	0.100
211.700	40.103	0.100
211.800	43.682	0.100
211.900	44.224	0.100
212.000	35.944	0.100
212.100	50.019	0.100
212.200	43.149	0.100
212.300	36.855	0.100
212.400	39.462	0.100
212.500	39.902	0.100
212.600	28.525	0.100
212.700	43.384	0.100
212.800	35.103	0.100
212.900	38.693	0.100
213.000	45.392	0.100
213.100	44.873	0.100
213.200	41.013	0.100
213.300	45.729	0.100
213.400	35.499	0.100
213.500	40.544	0.100
213.600	43.309	0.100
213.700	49.394	0.100
213.800	28.393	0.100
213.900	51.713	0.100
214.000	42.813	0.100
214.100	41.212	0.100
214.200	34.882	0.100
214.300	39.513	0.100
214.400	25.760	0.100
214.500	39.268	0.100
214.600	34.258	0.100
214.700	45.860	0.100
214.800	42.769	0.100
214.900	45.646	0.100
215.000	38.371	0.100
215.100	38.012	0.100
215.200	41.617	0.100
215.300	48.385	0.100
215.400	28.767	0.100
215.500	37.599	0.100
215.600	39.986	0.100
215.700	35.468	0.100
215.800	28.987	0.100
215.900	43.633	0.100
216.000	45.198	0.100
216.100	32.731	0.100
216.200	39.829	0.100
216.300	49.764	0.100
216.400	33.882	0.100
216.500	37.697	0.100
216.600	43.188	0.100
216.700	42.727	0.100
216.800	37.452	0.100
216.900	41.921	0.100
217.000	48.514	0.100
217.100	38.099	0.100
217.200	42.891	0.100
217.300	49.944	0.100
217.400	42.377	0.100
217.500	49.635	0.100
217.600	40.084	0.100
217.700	35.445	0.100
217.800	40.847	0.100
217.900	34.927	0.100
218.000	36.555	0.100
218.100	34.610	0.100
218.200	39.424	0.100
218.300	35.805	0.100
218.400	32.120	0.100
218.500	44.018	0.100
218.600	50.357	0.100
218.700	47.270	0.100
218.800	40.365	0.100
218.900	33.485	0.100
219.000	36.940	0.100
219.100	34.020	0.100
219.200	40.331	0.100
219.300	43.207	0.100
219.400	30.900	0.100
219.500	26.332	0.100
219.600	43.122	0.100
219.700	45.889	0.100
219.800	39.467	0.100
219.900	33.436	0.100
220.000	38.552	0.100
220.100	43.828	0.100
220.200	43.374	0.100
220.300	44.503	0.100
220.400	44.695	0.100
220.500	32.726	0.100
220.600	42.346	0.100
220.700	42.602	0.100
220.800	38.689	0.100
220.900	29.991	0.100
221.000	29.367	0.100
221.100	40.570	0.100
221.200	43.653	0.100
221.300	48.668	0.100
221.400	42.734	0.100
221.500	34.677	0.100
221.600	48.126	0.100
221.700	43.823	0.100
221.800	33.275	0.100
221.900	32.002	0.100
222.000	49.117	0.100
222.100	42.808	0.100
222.200	38.051	0.100
222.300	34.140	0.100
222.400	38.221	0.100
222.500	38.106	0.100
222.600	33.918	0.100
222.700	48.761	0.100
222.800	31.173	0.100
222.900	34.795	0.100
223.000	29.784	0.100
223.100	46.501	0.100
223.200	52.881	0.100
223.300	42.640	0.100
223.400	26.508	0.100
223.500	44.378	0.100
223.600	32.511	0.100
223.700	44.526	0.100
223.800	33.583	0.100
223.900	36.263	0.100
224.000	41.636	0.100
224.100	43.037	0.100
224.200	42.721	0.100
224.300	42.394	0.100
224.400	36.512	0.100
224.500	45.564	0.100
224.600	37.127	0.100
224.700	39.868	0.100
224.800	39.016	0.100
224.900	33.394	0.100
225.000	37.911	0.100
225.100	27.405	0.100
225.200	38.589	0.100
225.300	38.283	0.100
225.400	36.952	0.100
225.500	40.204	0.100
225.600	42.539	0.100
225.700	28.740	0.100
225.800	38.768	0.100
225.900	38.768	0.100
226.000	45.412	0.100
226.100	20.860	0.100
226.200	39.896	0.100
226.300	41.945	0.100
226.400	30.048	0.100
226.500	18.018	0.100
226.600	43.876	0.100
226.700	44.479	0.100
226.800	36.696	0.100
226.900	41.970	0.100
227.000	45.296	0.100
227.100	34.585	0.100
227.200	44.745	0.100
227.300	42.372	0.100
227.400	43.877	0.100
227.500	30.153	0.100
227.600	43.031	0.100
227.700	41.185	0.100
227.800	44.605	0.100
227.900	39.986	0.100
228.000	42.155	0.100
228.100	43.185	0.100
228.200	37.822	0.100
228.300	38.747	0.100
228.400	36.538	0.100
228.500	44.563	0.100
228.600	32.861	0.100
228.700	39.904	0.100
228.800	41.517	0.100
228.900	39.582	0.100
229.000	37.902	0.100
229.100	48.575	0.100
229.200	35.846	0.100
229.300	37.280	0.100
229.400	39.519	0.100
229.500	43.458	0.100
229.600	44.046	0.100
229.700	34.509	0.100
229.800	35.631	0.100
229.900	34.787	0.100
230.000	39.074	0.100
230.100	38.449	0.100
230.200	31.171	0.100
230.300	42.440	0.100
230.400	39.720	0.100
230.500	41.046	0.100
230.600	41.903	0.100
230.700	33.089	0.100
230.800	39.722	0.100
230.900	40.486	0.100
231.000	39.756	0.100
231.100	38.496	0.100
231.200	33.448	0.100
231.300	36.016	0.100
231.400	38.377	0.100
231.500	41.938	0.100
231.600	37.657	0.100
231.700	41.780	0.100
231.800	36.543	0.100
231.900	34.950	0.100
232.000	36.421	0.100
232.100	40.050	0.100
232.200	41.408	0.100
232.300	20.806	0.100
232.400	41.671	0.100
232.500	43.770	0.100
232.600	43.666	0.100
232.700	46.917	0.100
232.800	42.505	0.100
232.900	41.451	0.100
233.000	38.195	0.100
233.100	34.960	0.100
233.200	37.543	0.100
233.300	32.300	0.100
233.400	34.246	0.100
233.500	37.958	0.100
233.600	43.643	0.100
233.700	37.711	0.100
233.800	34.584	0.100
233.900	34.723	0.100
234.000	35.086	0.100
234.100	39.479	0.100
234.200	39.189	0.100
234.300	40.739	0.100
234.400	46.841	0.100
234.500	24.789	0.100
234.600	44.552	0.100
234.700	33.869	0.100
234.800	40.098	0.100
234.900	49.642	0.100
235.000	37.044	0.100
235.100	45.321	0.100
235.200	36.876	0.100
235.300	39.118	0.100
235.400	36.795	0.100
235.500	41.520	0.100
235.600	46.234	0.100
235.700	36.381	0.100
235.800	39.305	0.100
235.900	36.120	0.100
236.000	35.327	0.100
236.100	48.193	0.100
236.200	31.378	0.100
236.300	34.762	0.100
236.400	33.141	0.100
236.500	41.795	0.100
236.600	37.267	0.100
236.700	41.443	0.100
236.800	44.498	0.100
236.900	41.098	0.100
237.000	38.243	0.100
237.100	27.064	0.100
237.200	28.786	0.100
237.300	37.975	0.100
237.400	18.352	0.100
237.500	36.173	0.100
237.600	41.302	0.100
237.700	38.679	0.100
237.800	47.344	0.100
237.900	36.961	0.100
238.000	37.712	0.100
238.100	51.867	0.100
238.200	46.867	0.100
238.300	33.659	0.100
238.400	37.251	0.100
238.500	27.243	0.100
238.600	38.668	0.100
238.700	33.053	0.100
238.800	35.000	0.100
238.900	47.642	0.100
239.000	43.745	0.100
239.100	47.059	0.100
239.200	23.279	0.100
239.300	40.550	0.100
239.400	46.989	0.100
239.500	43.983	0.100
239.600	36.830	0.100
239.700	38.503	0.100
239.800	42.010	0.100
239.900	34.535	0.100
240.000	27.056	0.100
240.100	38.963	0.100
240.200	35.126	0.100
240.300	33.243	0.100
240.400	20.462	0.100
240.500	18.545	0.100
240.600	22.190	0.100
240.700	19.976	0.100
240.800	28.382	0.100
240.900	22.263	0.100
241.000	23.955	0.100
241.100	19.616	0.100
241.200	13.066	0.100
241.300	3.386	0.100
241.400	16.199	0.100
241.500	14.983	0.100
241.600	14.400	0.100
241.700	11.245	0.100
241.800	9.809	0.100
241.900	8.365	0.100
242.000	1.245	0.100
242.100	0.180	0.100
242.200	8.436	0.100
242.300	12.098	0.100
242.400	10.781	0.100
242.500	6.203	0.100
242.600	15.697	0.100
242.700	-2.033	0.100
242.800	-0.059	0.100
242.900	-1.798	0.100
243.000	13.655	0.100
243.100	-2.806	0.100
243.200	-3.197	0.100
243.300	1.300	0.100
243.400	10.048	0.100
243.500	-3.190	0.100
243.600	-1.026	0.100
243.700	-0.726	0.100
243.800	0.387	0.100
243.900	-2.220	0.100
244.000	-1.823	0.100
244.100	4.867	0.100
244.200	-3.205	0.100
244.300	-3.416	0.100
244.400	-0.714	0.100
244.500	0.019	0.100
244.600	-3.950	0.100
244.700	-8.051	0.100
244.800	-3.716	0.100
244.900	-0.159	0.100
245.000	-9.023	0.100
245.100	-4.304	0.100
245.200	-3.239	0.100
245.300	-3.895	0.100
245.400	-2.652	0.100
245.500	-6.805	0.100
245.600	-3.439	0.100
245.700	-7.952	0.100
245.800	-2.953	0.100
245.900	1.395	0.100
246.000	-15.098	0.100
246.100	-2.366	0.100
246.200	-1.079	0.100
246.300	1.763	0.100
246.400	-0.976	0.100
246.500	-6.602	0.100
246.600	1.541	0.100
246.700	-13.257	0.100
246.800	-6.169	0.100
246.900	6.259	0.100
247.000	-12.253	0.100
247.100	-4.598	0.100
247.200	-9.140	0.100
247.300	-8.614	0.100
247.400	-9.183	0.100
247.500	2.094	0.100
247.600	-14.006	0.100
247.700	-8.861	0.100
247.800	-3.942	0.100
247.900	-3.598	0.100
248.000	-1.911	0.100
248.100	-14.552	0.100
248.200	0.731	0.100
248.300	-0.823	0.100
248.400	-4.614	0.100
248.500	-3.173	0.100
248.600	-1.589	0.100
248.700	-9.110	0.100
248.800	-1.656	0.100
248.900	4.558	0.100
249.000	-7.194	0.100
249.100	-12.080	0.100
249.200	-8.204	0.100
249.300	-11.956	0.100
249.400	-7.682	0.100
249.500	-10.301	0.100
249.600	-8.614	0.100
249.700	-8.319	0.100
249.800	-9.442	0.100
249.900	-4.484	0.100
250.000	-14.184	0.100
250.100	-6.955	0.100
250.200	1.450	0.100
250.300	-3.000	0.100
250.400	2.067	0.100
250.500	-16.157	0.100
250.600	-10.116	0.100
250.700	-3.972	0.100
250.800	-4.544	0.100
250.900	1.281	0.100
251.000	-8.424	0.100
251.100	-12.615	0.100
251.200	-17.929	0.100
251.300	-13.779	0.100
251.400	-11.243	0.100
251.500	-13.146	0.100
251.600	-0.709	0.100
251.700	-0.549	0.100
251.800	-3.592	0.100
251.900	-15.749	0.100
252.000	-8.593	0.100
252.100	-2.207	0.100
252.200	0.197	0.100
252.300	-15.884	0.100
252.400	-13.207	0.100
252.500	-6.674	0.100
252.600	-18.788	0.100
252.700	-11.955	0.100
252.800	3.516	0.100
252.900	-1.464	0.100
253.000	-11.417	0.100
253.100	-5.697	0.100
253.200	-9.454	0.100
253.300	-8.559	0.100
253.400	-8.999	0.100
253.500	-12.781	0.100
253.600	-7.875	0.100
253.700	-12.494	0.100
253.800	-8.372	0.100
253.900	-4.974	0.100
254.000	-2.162	0.100
254.100	0.321	0.100
254.200	-10.585	0.100
254.300	-15.217	0.100
254.400	-25.314	0.100
254.500	-16.456	0.100
254.600	-4.424	0.100
254.700	-11.081	0.100
254.800	-6.648	0.100
254.900	-14.189	0.100
255.000	-14.265	0.100
255.100	-14.461	0.100
255.200	0.214	0.100
255.300	-5.264	0.100
255.400	-12.963	0.100
255.500	-11.785	0.100
255.600	-14.365	0.100
255.700	-18.469	0.100
255.800	-11.062	0.100
255.900	-22.787	0.100
256.000	-15.388	0.100
256.100	-5.562	0.100
256.200	-4.230	0.100
256.300	-11.979	0.100
256.400	-18.116	0.100
256.500	-9.332	0.100
256.600	-11.528	0.100
256.700	-4.976	0.100
256.800	-6.165	0.100
256.900	-8.185	0.100
257.000	-5.890	0.100
257.100	-10.191	0.100
257.200	-15.812	0.100
257.300	-13.292	0.100
257.400	-9.384	0.100
257.500	-12.525	0.100
257.600	-5.619	0.100
257.700	-8.374	0.100
257.800	-12.741	0.100
257.900	-21.551	0.100
258.000	-15.427	0.100
258.100	-13.288	0.100
258.200	-4.634	0.100
258.300	-23.794	0.100
258.400	-13.055	0.100
258.500	-17.507	0.100
258.600	-12.456	0.100
258.700	-27.592	0.100
258.800	-14.551	0.100
258.900	-13.065	0.100
259.000	-8.466	0.100
259.100	-15.564	0.100
259.200	-18.827	0.100
259.300	-12.449	0.100
259.400	-21.245	0.100
259.500	-9.102	0.100
259.600	-6.208	0.100
259.700	-16.830	0.100
259.800	-13.415	0.100
259.900	-15.432	0.100
260.000	-17.163	0.100
260.100	-17.931	0.100
260.200	-6.521	0.100
260.300	-22.591	0.100
260.400	-13.944	0.100
260.500	-10.275	0.100
260.600	-8.058	0.100
260.700	-12.768	0.100
260.800	-4.209	0.100
260.900	-15.730	0.100
261.000	-16.084	0.100
261.100	-14.504	0.100
261.200	-13.655	0.100
261.300	-13.322	0.100
261.400	-13.932	0.100
261.500	-18.813	0.100
261.600	-21.937	0.100
261.700	-16.265	0.100
261.800	-14.558	0.100
261.900	-21.459	0.100
262.000	-17.631	0.100
262.100	-14.727	0.100
262.200	-13.982	0.100
262.300	-14.791	0.100
262.400	-13.196	0.100
262.500	-15.999	0.100
262.600	-15.119	0.100
262.700	-10.008	0.100
262.800	-18.666	0.100
262.900	-14.260	0.100
263.000	-28.704	0.100
263.100	-24.441	0.100
263.200	-16.953	0.100
263.300	-2.766	0.100
263.400	-6.154	0.100
263.500	-10.274	0.100
263.600	-13.672	0.100
263.700	-22.509	0.100
263.800	-14.314	0.100
263.900	-13.823	0.100
264.000	-6.946	0.100
264.100	-17.864	0.100
264.200	-21.880	0.100
264.300	-16.311	0.100
264.400	-12.800	0.100
264.500	-15.153	0.100
264.600	-14.211	0.100
264.700	-9.213	0.100
264.800	-0.048	0.100
264.900	-21.592	0.100
265.000	-21.405	0.100
265.100	-15.615	0.100
265.200	-15.219	0.100
265.300	-20.908	0.100
265.400	-10.201	0.100
265.500	-19.065	0.100
265.600	-17.612	0.100
265.700	-17.192	0.100
265.800	-17.655	0.100
265.900	-17.078	0.100
266.000	-7.502	0.100
266.100	-17.720	0.100
266.200	-26.362	0.100
266.300	-13.049	0.100
266.400	-13.457	0.100
266.500	-13.234	0.100
266.600	-20.283	0.100
266.700	-25.446	0.100
266.800	-29.466	0.100
266.900	-21.201	0.100
267.000	-16.212	0.100
267.100	-11.520	0.100
267.200	-15.567	0.100
267.300	-17.727	0.100
267.400	-32.308	0.100
267.500	-14.588	0.100
267.600	-13.061	0.100
267.700	-15.451	0.100
267.800	-18.354	0.100
267.900	-12.163	0.100
268.000	-17.253	0.100
268.100	-11.651	0.100
268.200	-25.647	0.100
268.300	-20.849	0.100
268.400	-18.800	0.100
268.500	-18.782	0.100
268.600	-11.783	0.100
268.700	-15.466	0.100
268.800	-22.324	0.100
268.900	-12.933	0.100
269.000	-8.530	0.100
269.100	-24.016	0.100
269.200	-29.021	0.100
269.300	-25.437	0.100
269.400	-12.661	0.100
269.500	-16.031	0.100
269.600	-17.214	0.100
269.700	-12.758	0.100
269.800	-19.552	0.100
269.900	-25.960	0.100
270.000	-29.088	0.100
270.100	-24.434	0.100
270.200	-30.122	0.100
270.300	-18.920	0.100
270.400	-12.232	0.100
270.500	-18.506	0.100
270.600	-24.158	0.100
270.700	-14.804	0.100
270.800	-20.706	0.100
270.900	-37.416	0.100
271.000	-37.279	0.100
271.100	-21.112	0.100
271.200	-23.852	0.100
271.300	-17.343	0.100
271.400	-9.209	0.100
271.500	-9.608	0.100
271.600	-16.284	0.100
271.700	-18.470	0.100
271.800	-23.138	0.100
271.900	-21.953	0.100
272.000	-23.706	0.100
272.100	-14.538	0.100
272.200	-8.051	0.100
272.300	-18.081	0.100
272.400	-12.300	0.100
272.500	-18.075	0.100
272.600	-19.002	0.100
272.700	-24.016	0.100
272.800	-20.093	0.100
272.900	-25.379	0.100
273.000	-18.663	0.100
273.100	-15.608	0.100
273.200	-21.285	0.100
273.300	-21.595	0.100
273.400	-11.683	0.100
273.500	-19.966	0.100
273.600	-15.512	0.100
273.700	-19.220	0.100
273.800	-19.469	0.100
273.900	-19.791	0.100
274.000	-31.027	0.100
274.100	-20.328	0.100
274.200	-30.618	0.100
274.300	-19.325	0.100
274.400	-21.761	0.100
274.500	-13.479	0.100
274.600	-22.725	0.100
274.700	-18.612	0.100
274.800	-24.086	0.100
274.900	-14.771	0.100
275.000	-19.911	0.100
275.100	-23.899	0.100
275.200	-14.410	0.100
275.300	-17.213	0.100
275.400	-27.108	0.100
275.500	-30.785	0.100
275.600	-30.490	0.100
275.700	-21.521	0.100
275.800	-20.270	0.100
275.900	-16.549	0.100
276.000	-20.167	0.100
276.100	-23.279	0.100
276.200	-19.593	0.100
276.300	-24.926	0.100
276.400	-18.088	0.100
276.500	-11.636	0.100
276.600	-14.407	0.100
276.700	-20.316	0.100
276.800	-22.302	0.100
276.900	-25.999	0.100
277.000	-25.002	0.100
277.100	-25.819	0.100
277.200	-19.611	0.100
277.300	-27.236	0.100
277.400	-24.754	0.100
277.500	-13.618	0.100
277.600	-17.330	0.100
277.700	-16.215	0.100
277.800	-17.545	0.100
277.900	-21.357	0.100
278.000	-20.717	0.100
278.100	-23.445	0.100
278.200	-17.057	0.100
278.300	-19.577	0.100
278.400	-25.335	0.100
278.500	-22.230	0.100
278.600	-30.376	0.100
278.700	-22.880	0.100
278.800	-22.741	0.100
278.900	-25.132	0.100
279.000	-23.732	0.100
279.100	-16.729	0.100
279.200	-30.834	0.100
279.300	-20.423	0.100
279.400	-16.829	0.100
279.500	-17.841	0.100
279.600	-24.387	0.100
279.700	-28.994	0.100
279.800	-26.994	0.100
279.900	-24.715	0.100
280.000	-19.476	0.100
280.100	-19.475	0.100
280.200	-17.424	0.100
280.300	-14.155	0.100
280.400	-21.615	0.100
280.500	-20.341	0.100
280.600	-19.582	0.100
280.700	-30.406	0.100
280.800	-27.070	0.100
280.900	-28.936	0.100
281.000	-26.050	0.100
281.100	-26.625	0.100
281.200	-25.587	0.100
281.300	-23.384	0.100
281.400	-25.054	0.100
281.500	-31.532	0.100
281.600	-22.628	0.100
281.700	-17.566	0.100
281.800	-21.338	0.100
281.900	-16.876	0.100
282.000	-21.178	0.100
282.100	-14.060	0.100
282.200	-29.726	0.100
282.300	-29.226	0.100
282.400	-22.991	0.100
282.500	-15.090	0.100
282.600	-21.903	0.100
282.700	-23.422	0.100
282.800	-22.093	0.100
282.900	-33.334	0.100
283.000	-28.846	0.100
283.100	-15.817	0.100
283.200	-24.356	0.100
283.300	-28.430	0.100
283.400	-25.579	0.100
283.500	-26.470	0.100
283.600	-23.461	0.100
283.700	-33.405	0.100
283.800	-17.439	0.100
283.900	-19.881	0.100
284.000	-22.206	0.100
284.100	-21.455	0.100
284.200	-24.029	0.100
284.300	-18.081	0.100
284.400	-23.956	0.100
284.500	-16.934	0.100
284.600	-22.157	0.100
284.700	-27.797	0.100
284.800	-24.025	0.100
284.900	-22.496	0.100
285.000	-14.699	0.100
285.100	-21.915	0.100
285.200	-17.496	0.100
285.300	-23.129	0.100
285.400	-18.032	0.100
285.500	-26.178	0.100
285.600	-28.306	0.100
285.700	-28.771	0.100
285.800	-20.105	0.100
285.900	-19.995	0.100
286.000	-28.066	0.100
286.100	-25.058	0.100
286.200	-30.481	0.100
286.300	-20.586	0.100
286.400	-16.512	0.100
286.500	-28.369	0.100
286.600	-26.461	0.100
286.700	-24.822	0.100
286.800	-23.043	0.100
286.900	-32.093	0.100
287.000	-26.302	0.100
287.100	-23.085	0.100
287.200	-22.524	0.100
287.300	-26.736	0.100
287.400	-22.832	0.100
287.500	-23.484	0.100
287.600	-22.222	0.100
287.700	-17.179	0.100
287.800	-23.014	0.100
287.900	-22.243	0.100
288.000	-32.343	0.100
288.100	-34.904	0.100
288.200	-18.390	0.100
288.300	-32.297	0.100
288.400	-26.931	0.100
288.500	-23.048	0.100
288.600	-26.004	0.100
288.700	-22.700	0.100
288.800	-31.269	0.100
288.900	-16.075	0.100
289.000	-14.134	0.100
289.100	-22.607	0.100
289.200	-27.750	0.100
289.300	-26.259	0.100
289.400	-26.105	0.100
289.500	-26.838	0.100
289.600	-27.522	0.100
289.700	-26.688	0.100
289.800	-22.371	0.100
289.900	-22.438	0.100
290.000	-18.104	0.100
290.100	-27.461	0.100
290.200	-16.895	0.100
290.300	-15.872	0.100
290.400	-29.128	0.100
290.500	-22.669	0.100
290.600	-28.715	0.100
290.700	-23.403	0.100
290.800	-17.977	0.100
290.900	-26.603	0.100
291.000	-29.689	0.100
291.100	-23.399	0.100
291.200	-17.785	0.100
291.300	-11.017	0.100
291.400	-18.444	0.100
291.500	-16.433	0.100
291.600	-27.904	0.100
291.700	-25.264	0.100
291.800	-32.263	0.100
291.900	-26.323	0.100
292.000	-14.378	0.100
292.100	-28.267	0.100
292.200	-26.598	0.100
292.300	-22.732	0.100
292.400	-19.044	0.100
292.500	-21.834	0.100
292.600	-27.246	0.100
292.700	-26.701	0.100
292.800	-19.074	0.100
292.900	-18.796	0.100
293.000	-21.830	0.100
293.100	-26.423	0.100
293.200	-28.637	0.100
293.300	-22.567	0.100
293.400	-30.072	0.100
293.500	-11.663	0.100
293.600	-21.228	0.100
293.700	-28.067	0.100
293.800	-29.861	0.100
293.900	-25.382	0.100
294.000	-24.934	0.100
294.100	-30.524	0.100
294.200	-25.080	0.100
294.300	-20.160	0.100
294.400	-25.637	0.100
294.500	-20.417	0.100
294.600	-37.577	0.100
294.700	-22.733	0.100
294.800	-23.751	0.100
294.900	-9.557	0.100
295.000	-19.368	0.100
295.100	-20.034	0.100
295.200	-19.914	0.100
295.300	-33.639	0.100
295.400	-17.811	0.100
295.500	-16.815	0.100
295.600	-17.072	0.100
295.700	-26.498	0.100
295.800	-29.177	0.100
295.900	-14.168	0.100
296.000	-24.031	0.100
296.100	-27.812	0.100
296.200	-36.097	0.100
296.300	-33.752	0.100
296.400	-19.967	0.100
296.500	-21.924	0.100
296.600	-11.988	0.100
296.700	-18.939	0.100
296.800	-21.127	0.100
296.900	-17.535	0.100
297.000	-25.288	0.100
297.100	-33.509	0.100
297.200	-27.557	0.100
297.300	-12.223	0.100
297.400	-23.639	0.100
297.500	-26.433	0.100
297.600	-27.290	0.100
297.700	-24.916	0.100
297.800	-22.565	0.100
297.900	-33.287	0.100
298.000	-26.385	0.100
298.100	-25.083	0.100
298.200	-25.184	0.100
298.300	-21.904	0.100
298.400	-24.449	0.100
298.500	-17.484	0.100
298.600	-26.003	0.100
298.700	-19.122	0.100
298.800	-20.125	0.100
298.900	-25.823	0.100
299.000	-26.941	0.100
299.100	-31.177	0.100
299.200	-28.304	0.100
299.300	-15.744	0.100
299.400	-20.890	0.100
299.500	-20.970	0.100
299.600	-19.013	0.100
299.700	-27.245	0.100
299.800	-33.722	0.100
299.900	-32.685	0.100
300.000	-24.004	0.100
300.100	-18.081	0.100
300.200	-15.238	0.100
300.300	-20.355	0.100
300.400	-20.546	0.100
300.500	-25.915	0.100
300.600	-17.269	0.100
300.700	-19.077	0.100
300.800	-25.508	0.100
300.900	-27.784	0.100
301.000	-20.233	0.100
301.100	-15.617	0.100
301.200	-19.870	0.100
301.300	-23.713	0.100
301.400	-33.213	0.100
301.500	-12.405	0.100
301.600	-21.719	0.100
301.700	-27.657	0.100
301.800	-22.310	0.100
301.900	-24.605	0.100
302.000	-22.194	0.100
302.100	-19.690	0.100
302.200	-25.737	0.100
302.300	-18.805	0.100
302.400	-21.752	0.100
302.500	-16.741	0.100
302.600	-30.215	0.100
302.700	-21.763	0.100
302.800	-28.284	0.100
302.900	-18.470	0.100
303.000	-23.751	0.100
303.100	-15.732	0.100
303.200	-25.588	0.100
303.300	-19.283	0.100
303.400	-19.752	0.100
303.500	-22.095	0.100
303.600	-26.023	0.100
303.700	-24.367	0.100
303.800	-32.485	0.100
303.900	-33.398	0.100
304.000	-23.572	0.100
304.100	-24.324	0.100
304.200	-18.522	0.100
304.300	-26.473	0.100
304.400	-26.760	0.100
304.500	-33.024	0.100
304.600	-13.925	0.100
304.700	-21.779	0.100
304.800	-25.842	0.100
304.900	-22.157	0.100
305.000	-17.615	0.100
305.100	-19.793	0.100
305.200	-24.121	0.100
305.300	-20.809	0.100
305.400	-16.442	0.100
305.500	-18.535	0.100
305.600	-28.990	0.100
305.700	-26.531	0.100
305.800	-11.792	0.100
305.900	-15.959	0.100
306.000	-33.233	0.100
306.100	-26.654	0.100
306.200	-22.899	0.100
306.300	-23.183	0.100
306.400	-24.080	0.100
306.500	-20.677	0.100
306.600	-20.116	0.100
306.700	-22.755	0.100
306.800	-25.996	0.100
306.900	-16.531	0.100
307.000	-19.116	0.100
307.100	-18.566	0.100
307.200	-28.585	0.100
307.300	-18.955	0.100
307.400	-24.581	0.100
307.500	-20.354	0.100
307.600	-20.635	0.100
307.700	-23.810	0.100
307.800	-18.572	0.100
307.900	-35.423	0.100
308.000	-19.730	0.100
308.100	-18.910	0.100
308.200	-30.301	0.100
308.300	-27.763	0.100
308.400	-17.758	0.100
308.500	-19.911	0.100
308.600	-16.972	0.100
308.700	-20.290	0.100
308.800	-15.725	0.100
308.900	-22.423	0.100
309.000	-33.028	0.100
309.100	-21.888	0.100
309.200	-20.075	0.100
309.300	-24.192	0.100
309.400	-22.608	0.100
309.500	-15.233	0.100
309.600	-25.630	0.100
309.700	-18.806	0.100
309.800	-19.133	0.100
309.900	-21.146	0.100
310.000	-23.355	0.100
310.100	-18.816	0.100
310.200	-14.983	0.100
310.300	-35.357	0.100
310.400	-46.215	0.100
310.500	-30.583	0.100
310.600	-13.728	0.100
310.700	-13.147	0.100
310.800	-22.784	0.100
310.900	-14.044	0.100
311.000	-14.874	0.100
311.100	-24.960	0.100
311.200	-21.805	0.100
311.300	-26.773	0.100
311.400	-18.969	0.100
311.500	-23.877	0.100
311.600	-24.097	0.100
311.700	-21.101	0.100
311.800	-23.917	0.100
311.900	-20.257	0.100
312.000	-17.988	0.100
312.100	-25.658	0.100
312.200	-20.367	0.100
312.300	-31.396	0.100
312.400	-21.527	0.100
312.500	-16.850	0.100
312.600	-22.859	0.100
312.700	-22.834	0.100
312.800	-24.432	0.100
312.900	-21.125	0.100
313.000	-25.846	0.100
313.100	-19.497	0.100
313.200	-14.250	0.100
313.300	-23.547	0.100
313.400	-18.138	0.100
313.500	-17.979	0.100
313.600	-13.455	0.100
313.700	-9.978	0.100
313.800	-19.438	0.100
313.900	-24.171	0.100
314.000	-27.203	0.100
314.100	-22.261	0.100
314.200	-21.497	0.100
314.300	-22.491	0.100
314.400	-33.118	0.100
314.500	-24.566	0.100
314.600	-30.836	0.100
314.700	-22.552	0.100
314.800	-18.927	0.100
314.900	-16.248	0.100
315.000	-21.548	0.100
315.100	-18.692	0.100
315.200	-29.767	0.100
315.300	-15.409	0.100
315.400	-18.077	0.100
315.500	-16.568	0.100
315.600	-25.294	0.100
315.700	-26.797	0.100
315.800	-26.708	0.100
315.900	-23.242	0.100
316.000	-13.931	0.100
316.100	-23.607	0.100
316.200	-21.130	0.100
316.300	-23.753	0.100
316.400	-20.989	0.100
316.500	-18.541	0.100
316.600	-29.962	0.100
316.700	-22.521	0.100
316.800	-21.066	0.100
316.900	-21.544	0.100
317.000	-24.131	0.100
317.100	-8.032	0.100
317.200	-18.449	0.100
317.300	-18.986	0.100
317.400	-24.635	0.100
317.500	-14.619	0.100
317.600	-23.855	0.100
317.700	-17.145	0.100
317.800	-16.424	0.100
317.900	-22.183	0.100
318.000	-21.713	0.100
318.100	-16.320	0.100
318.200	-27.079	0.100
318.300	-19.196	0.100
318.400	-19.465	0.100
318.500	-17.565	0.100
318.600	-12.695	0.100
318.700	-19.780	0.100
318.800	-26.007	0.100
318.900	-29.379	0.100
319.000	-29.170	0.100
319.100	-23.944	0.100
319.200	-20.777	0.100
319.300	-19.567	0.100
319.400	-27.338	0.100
319.500	-26.386	0.100
319.600	-26.036	0.100
319.700	-28.334	0.100
319.800	-18.486	0.100
319.900	-23.284	0.100
320.000	-22.180	0.100
320.100	-22.690	0.100
320.200	-17.704	0.100
320.300	-22.077	0.100
320.400	-31.824	0.100
320.500	-17.198	0.100
320.600	-20.119	0.100
320.700	-22.159	0.100
320.800	-21.466	0.100
320.900	-16.442	0.100
321.000	-18.606	0.100
321.100	-22.110	0.100
321.200	-16.476	0.100
321.300	-22.534	0.100
321.400	-26.635	0.100
321.500	-21.030	0.100
321.600	-19.875	0.100
321.700	-28.225	0.100
321.800	-24.877	0.100
321.900	-12.228	0.100
322.000	-13.206	0.100
322.100	-18.956	0.100
322.200	-23.386	0.100
322.300	-21.398	0.100
322.400	-19.039	0.100
322.500	-17.836	0.100
322.600	-21.923	0.100
322.700	-22.681	0.100
322.800	-17.507	0.100
322.900	-9.897	0.100
323.000	-26.537	0.100
323.100	-15.215	0.100
323.200	-23.327	0.100
323.300	-22.888	0.100
323.400	-21.758	0.100
323.500	-25.928	0.100
323.600	-19.714	0.100
323.700	-24.548	0.100
323.800	-24.573	0.100
323.900	-13.050	0.100
324.000	-23.382	0.100
324.100	-17.313	0.100
324.200	-15.928	0.100
324.300	-14.454	0.100
324.400	-19.326	0.100
324.500	-32.733	0.100
324.600	-19.455	0.100
324.700	-22.920	0.100
324.800	-13.298	0.100
324.900	-17.496	0.100
325.000	-22.286	0.100
325.100	-20.427	0.100
325.200	-24.757	0.100
325.300	-21.271	0.100
325.400	-12.351	0.100
325.500	-18.202	0.100
325.600	-20.597	0.100
325.700	-15.778	0.100
325.800	-20.081	0.100
325.900	-30.658	0.100
326.000	-15.061	0.100
326.100	-18.414	0.100
326.200	-26.229	0.100
326.300	-20.567	0.100
326.400	-34.304	0.100
326.500	-17.084	0.100
326.600	-20.180	0.100
326.700	-20.735	0.100
326.800	-39.362	0.100
326.900	-12.658	0.100
327.000	-20.245	0.100
327.100	-25.120	0.100
327.200	-7.192	0.100
327.300	-16.889	0.100
327.400	-17.921	0.100
327.500	-5.251	0.100
327.600	-17.705	0.100
327.700	-18.757	0.100
327.800	-27.488	0.100
327.900	-23.195	0.100
328.000	-21.937	0.100
328.100	-23.158	0.100
328.200	-25.005	0.100
328.300	-15.721	0.100
328.400	-16.031	0.100
328.500	-24.800	0.100
328.600	-20.450	0.100
328.700	-19.442	0.100
328.800	-13.520	0.100
328.900	-14.273	0.100
329.000	-26.162	0.100
329.100	-30.822	0.100
329.200	-16.775	0.100
329.300	-18.353	0.100
329.400	-15.602	0.100
329.500	-23.916	0.100
329.600	-25.466	0.100
329.700	-23.189	0.100
329.800	-10.132	0.100
329.900	-11.923	0.100
330.000	-13.374	0.100
330.100	-8.634	0.100
330.200	-10.346	0.100
330.300	-19.585	0.100
330.400	-20.696	0.100
330.500	-1.627	0.100
330.600	-13.655	0.100
330.700	-5.543	0.100
330.800	-0.911	0.100
330.900	-4.609	0.100
331.000	-3.378	0.100
331.100	5.842	0.100
331.200	1.901	0.100
331.300	1.257	0.100
331.400	-1.256	0.100
331.500	4.705	0.100
331.600	2.288	0.100
331.700	5.656	0.100
331.800	17.337	0.100
331.900	5.073	0.100
332.000	-5.515	0.100
332.100	1.122	0.100
332.200	7.801	0.100
332.300	11.195	0.100
332.400	18.570	0.100
332.500	7.118	0.100
332.600	0.892	0.100
332.700	7.851	0.100
332.800	1.300	0.100
332.900	6.798	0.100
333.000	-3.616	0.100
333.100	19.863	0.100
333.200	6.454	0.100
333.300	17.940	0.100
333.400	16.392	0.100
333.500	11.121	0.100
333.600	10.535	0.100
333.700	15.707	0.100
333.800	10.098	0.100
333.900	13.123	0.100
334.000	14.316	0.100
334.100	22.036	0.100
334.200	14.141	0.100
334.300	6.164	0.100
334.400	1.810	0.100
334.500	10.658	0.100
334.600	13.675	0.100
334.700	13.132	0.100
334.800	4.938	0.100
334.900	9.277	0.100
335.000	14.237	0.100
335.100	8.170	0.100
335.200	18.932	0.100
335.300	20.355	0.100
335.400	8.966	0.100
335.500	10.111	0.100
335.600	7.823	0.100
335.700	18.094	0.100
335.800	5.551	0.100
335.900	5.363	0.100
336.000	2.912	0.100
336.100	5.252	0.100
336.200	11.956	0.100
336.300	7.767	0.100
336.400	10.239	0.100
336.500	13.608	0.100
336.600	10.584	0.100
336.700	2.211	0.100
336.800	4.836	0.100
336.900	-0.704	0.100
337.000	4.611	0.100
337.100	12.500	0.100
337.200	6.032	0.100
337.300	7.068	0.100
337.400	15.971	0.100
337.500	8.474	0.100
337.600	12.959	0.100
337.700	0.652	0.100
337.800	13.062	0.100
337.900	18.149	0.100
338.000	8.270	0.100
338.100	-3.020	0.100
338.200	15.498	0.100
338.300	0.750	0.100
338.400	7.992	0.100
338.500	12.265	0.100
338.600	6.189	0.100
338.700	-2.404	0.100
338.800	14.117	0.100
338.900	7.846	0.100
339.000	21.823	0.100
339.100	22.809	0.100
339.200	11.865	0.100
339.300	17.336	0.100
339.400	11.123	0.100
339.500	15.850	0.100
339.600	5.234	0.100
339.700	9.883	0.100
339.800	9.177	0.100
339.900	9.799	0.100
340.000	5.469	0.100
340.100	14.776	0.100
340.200	12.761	0.100
340.300	16.959	0.100
340.400	13.313	0.100
340.500	16.070	0.100
340.600	4.582	0.100
340.700	8.970	0.100
340.800	6.570	0.100
340.900	22.051	0.100
341.000	12.914	0.100
341.100	16.343	0.100
341.200	8.669	0.100
341.300	8.007	0.100
341.400	12.154	0.100
341.500	9.776	0.100
341.600	5.026	0.100
341.700	9.791	0.100
341.800	12.501	0.100
341.900	24.102	0.100
342.000	15.922	0.100
342.100	19.366	0.100
342.200	7.629	0.100
342.300	-0.766	0.100
342.400	24.557	0.100
342.500	33.501	0.100
342.600	7.087	0.100
342.700	6.627	0.100
342.800	16.501	0.100
342.900	16.793	0.100
343.000	16.897	0.100
343.100	12.705	0.100
343.200	14.873	0.100
343.300	14.424	0.100
343.400	24.328	0.100
343.500	20.153	0.100
343.600	27.719	0.100
343.700	19.180	0.100
343.800	17.085	0.100
343.900	9.069	0.100
344.000	9.352	0.100
344.100	18.460	0.100
344.200	18.966	0.100
344.300	14.121	0.100
344.400	19.873	0.100
344.500	20.266	0.100
344.600	11.396	0.100
344.700	19.825	0.100
344.800	13.204	0.100
344.900	21.107	0.100
345.000	20.611	0.100
345.100	27.096	0.100
345.200	15.328	0.100
345.300	10.947	0.100
345.400	22.809	0.100
345.500	20.930	0.100
345.600	20.262	0.100
345.700	25.057	0.100
345.800	21.374	0.100
345.900	13.614	0.100
346.000	17.241	0.100
346.100	28.024	0.100
346.200	21.070	0.100
346.300	16.086	0.100
346.400	19.497	0.100
346.500	24.438	0.100
346.600	23.818	0.100
346.700	26.104	0.100
346.800	26.303	0.100
346.900	24.697	0.100
347.000	18.683	0.100
347.100	31.533	0.100
347.200	20.095	0.100
347.300	23.638	0.100
347.400	29.628	0.100
347.500	26.825	0.100
347.600	35.076	0.100
347.700	24.609	0.100
347.800	16.664	0.100
347.900	30.671	0.100
348.000	28.100	0.100
348.100	27.409	0.100
348.200	35.836	0.100
348.300	18.921	0.100
348.400	37.860	0.100
348.500	25.904	0.100
348.600	33.665	0.100
348.700	31.902	0.100
348.800	28.641	0.100
348.900	17.966	0.100
349.000	23.290	0.100
349.100	19.460	0.100
349.200	28.895	0.100
349.300	37.330	0.100
349.400	27.028	0.100
349.500	18.279	0.100
349.600	31.685	0.100
349.700	29.329	0.100
349.800	13.059	0.100
349.900	25.430	0.100
350.000	32.995	0.100
350.100	37.828	0.100
350.200	27.141	0.100
350.300	23.906	0.100
350.400	26.649	0.100
350.500	25.618	0.100
350.600	33.380	0.100
350.700	31.751	0.100
350.800	33.564	0.100
350.900	34.933	0.100
351.000	35.057	0.100
351.100	30.378	0.100
351.200	37.235	0.100
351.300	36.179	0.100
351.400	22.372	0.100
351.500	34.272	0.100
351.600	34.272	0.100
351.700	34.681	0.100
351.800	37.362	0.100
351.900	33.442	0.100
352.000	34.574	0.100
352.100	43.288	0.100
352.200	40.010	0.100
352.300	35.734	0.100
352.400	36.563	0.100
352.500	24.558	0.100
352.600	21.859	0.100
352.700	31.042	0.100
352.800	40.845	0.100
352.900	48.251	0.100
353.000	34.209	0.100
353.100	35.378	0.100
353.200	40.221	0.100
353.300	47.790	0.100
353.400	30.884	0.100
353.500	27.724	0.100
353.600	30.797	0.100
353.700	40.758	0.100
353.800	33.850	0.100
353.900	39.341	0.100
354.000	36.823	0.100
354.100	41.104	0.100
354.200	42.130	0.100
354.300	37.296	0.100
354.400	44.399	0.100
354.500	42.603	0.100
354.600	43.179	0.100
354.700	39.987	0.100
354.800	41.901	0.100
354.900	35.767	0.100
355.000	43.206	0.100
355.100	29.054	0.100
355.200	27.444	0.100
355.300	44.831	0.100
355.400	37.501	0.100
355.500	38.200	0.100
355.600	41.428	0.100
355.700	37.565	0.100
355.800	40.960	0.100
355.900	37.696	0.100
356.000	36.154	0.100
356.100	35.707	0.100
356.200	33.757	0.100
356.300	37.816	0.100
356.400	45.533	0.100
356.500	39.677	0.100
356.600	32.181	0.100
356.700	42.514	0.100
356.800	39.166	0.100
356.900	34.804	0.100
357.000	40.011	0.100
357.100	43.272	0.100
357.200	47.302	0.100
357.300	40.584	0.100
357.400	35.399	0.100
357.500	37.186	0.100
357.600	40.848	0.100
357.700	44.782	0.100
357.800	37.094	0.100
357.900	38.255	0.100
358.000	38.185	0.100
358.100	36.801	0.100
358.200	54.457	0.100
358.300	42.116	0.100
358.400	39.459	0.100
358.500	40.422	0.100
358.600	38.279	0.100
358.700	39.421	0.100
358.800	48.742	0.100
358.900	41.916	0.100
359.000	44.627	0.100
359.100	32.033	0.100
359.200	34.981	0.100
359.300	28.490	0.100
359.400	31.079	0.100
359.500	36.580	0.100
359.600	50.765	0.100
359.700	42.277	0.100
359.800	44.168	0.100
359.900	39.635	0.100
360.000	37.286	0.100
360.100	28.747	0.100
360.200	41.039	0.100
360.300	46.843	0.100
360.400	44.215	0.100
360.500	46.942	0.100
360.600	37.930	0.100
360.700	42.577	0.100
360.800	30.334	0.100
360.900	44.837	0.100
361.000	45.247	0.100
361.100	41.389	0.100
361.200	41.532	0.100
361.300	39.109	0.100
361.400	42.025	0.100
361.500	40.602	0.100
361.600	36.354	0.100
361.700	39.601	0.100
361.800	37.771	0.100
361.900	23.839	0.100
362.000	44.555	0.100
362.100	34.226	0.100
362.200	54.568	0.100
362.300	45.175	0.100
362.400	35.629	0.100
362.500	37.064	0.100
362.600	40.769	0.100
362.700	46.625	0.100
362.800	46.908	0.100
362.900	40.108	0.100
363.000	46.725	0.100
363.100	45.440	0.100
363.200	38.714	0.100
363.300	40.979	0.100
363.400	37.538	0.100
363.500	38.896	0.100
363.600	36.332	0.100
363.700	30.735	0.100
363.800	34.232	0.100
363.900	43.206	0.100
364.000	46.592	0.100
364.100	40.373	0.100
364.200	40.755	0.100
364.300	41.715	0.100
364.400	42.313	0.100
364.500	44.962	0.100
364.600	43.217	0.100
364.700	44.301	0.100
364.800	36.451	0.100
364.900	32.379	0.100
365.000	34.926	0.100
365.100	41.349	0.100
365.200	43.720	0.100
365.300	41.654	0.100
365.400	40.408	0.100
365.500	37.363	0.100
365.600	29.056	0.100
365.700	42.886	0.100
365.800	35.652	0.100
365.900	42.233	0.100
366.000	39.704	0.100
366.100	26.396	0.100
366.200	35.514	0.100
366.300	43.029	0.100
366.400	37.888	0.100
366.500	27.323	0.100
366.600	38.016	0.100
366.700	47.102	0.100
366.800	50.254	0.100
366.900	39.697	0.100
367.000	45.016	0.100
367.100	45.246	0.100
367.200	34.354	0.100
367.300	43.276	0.100
367.400	28.787	0.100
367.500	32.000	0.100
367.600	34.636	0.100
367.700	43.206	0.100
367.800	45.696	0.100
367.900	43.577	0.100
368.000	50.206	0.100
368.100	63.015	0.100
368.200	49.749	0.100
368.300	51.482	0.100
368.400	44.548	0.100
368.500	27.198	0.100
368.600	50.224	0.100
368.700	35.273	0.100
368.800	40.311	0.100
368.900	32.191	0.100
369.000	34.850	0.100
369.100	36.783	0.100
369.200	46.975	0.100
369.300	47.973	0.100
369.400	38.046	0.100
369.500	43.499	0.100
369.600	38.757	0.100
369.700	37.902	0.100
369.800	49.647	0.100
369.900	39.299	0.100
370.000	40.735	0.100
370.100	40.323	0.100
370.200	30.436	0.100
370.300	42.363	0.100
370.400	42.251	0.100
370.500	47.010	0.100
370.600	44.722	0.100
370.700	47.069	0.100
370.800	43.959	0.100
370.900	36.940	0.100
371.000	36.497	0.100
371.100	33.938	0.100
371.200	34.921	0.100
371.300	37.893	0.100
371.400	35.173	0.100
371.500	41.908	0.100
371.600	43.240	0.100
371.700	54.832	0.100
371.800	42.528	0.100
371.900	39.863	0.100
372.000	36.370	0.100
372.100	38.169	0.100
372.200	38.949	0.100
372.300	31.069	0.100
372.400	24.050	0.100
372.500	44.555	0.100
372.600	42.070	0.100
372.700	32.770	0.100
372.800	34.820	0.100
372.900	41.976	0.100
373.000	39.918	0.100
373.100	35.814	0.100
373.200	43.620	0.100
373.300	46.186	0.100
373.400	40.757	0.100
373.500	38.364	0.100
373.600	38.140	0.100
373.700	45.422	0.100
373.800	35.150	0.100
373.900	32.341	0.100
374.000	41.377	0.100
374.100	32.990	0.100
374.200	50.663	0.100
374.300	42.231	0.100
374.400	43.330	0.100
374.500	38.971	0.100
374.600	27.526	0.100
374.700	32.433	0.100
374.800	40.441	0.100
374.900	41.441	0.100
375.000	46.371	0.100
375.100	36.902	0.100
375.200	36.766	0.100
375.300	36.505	0.100
375.400	40.297	0.100
375.500	45.764	0.100
375.600	44.002	0.100
375.700	37.841	0.100
375.800	44.270	0.100
375.900	38.611	0.100
376.000	44.698	0.100
376.100	49.352	0.100
376.200	49.184	0.100
376.300	41.260	0.100
376.400	42.470	0.100
376.500	37.332	0.100
376.600	34.695	0.100
376.700	42.851	0.100
376.800	49.069	0.100
376.900	42.232	0.100
377.000	29.642	0.100
377.100	36.154	0.100
377.200	38.514	0.100
377.300	37.901	0.100
377.400	33.459	0.100
377.500	43.179	0.100
377.600	43.799	0.100
377.700	28.027	0.100
377.800	29.442	0.100
377.900	44.067	0.100
378.000	42.872	0.100
378.100	34.467	0.100
378.200	43.003	0.100
378.300	34.139	0.100
378.400	37.710	0.100
378.500	45.594	0.100
378.600	31.528	0.100
378.700	42.705	0.100
378.800	49.204	0.100
378.900	34.194	0.100
379.000	36.003	0.100
379.100	43.024	0.100
379.200	38.199	0.100
379.300	41.307	0.100
379.400	39.389	0.100
379.500	34.513	0.100
379.600	31.705	0.100
379.700	44.547	0.100
379.800	46.768	0.100
379.900	35.093	0.100
380.000	37.607	0.100
380.100	45.645	0.100
380.200	32.764	0.100
380.300	38.724	0.100
380.400	35.294	0.100
380.500	35.379	0.100
380.600	36.171	0.100
380.700	46.393	0.100
380.800	40.649	0.100
380.900	38.263	0.100
381.000	38.548	0.100
381.100	44.664	0.100
381.200	34.809	0.100
381.300	31.895	0.100
381.400	34.131	0.100
381.500	41.043	0.100
381.600	41.135	0.100
381.700	34.531	0.100
381.800	30.555	0.100
381.900	34.318	0.100
382.000	49.145	0.100
382.100	50.872	0.100
382.200	45.299	0.100
382.300	41.766	0.100
382.400	41.711	0.100
382.500	44.294	0.100
382.600	44.669	0.100
382.700	42.330	0.100
382.800	39.977	0.100
382.900	32.747	0.100
383.000	30.301	0.100
383.100	30.193	0.100
383.200	31.994	0.100
383.300	42.319	0.100
383.400	36.679	0.100
383.500	34.528	0.100
383.600	43.314	0.100
383.700	37.767	0.100
383.800	42.503	0.100
383.900	35.851	0.100
384.000	29.752	0.100
384.100	42.576	0.100
384.200	50.186	0.100
384.300	44.237	0.100
384.400	47.249	0.100
384.500	36.141	0.100
384.600	36.893	0.100
384.700	39.730	0.100
384.800	39.725	0.100
384.900	49.837	0.100
385.000	35.608	0.100
385.100	45.443	0.100
385.200	32.890	0.100
385.300	33.863	0.100
385.400	39.414	0.100
385.500	43.366	0.100
385.600	35.943	0.100
385.700	33.013	0.100
385.800	32.534	0.100
385.900	28.020	0.100
386.000	41.662	0.100
386.100	29.567	0.100
386.200	40.482	0.100
386.300	43.730	0.100
386.400	47.919	0.100
386.500	44.811	0.100
386.600	36.200	0.100
386.700	34.225	0.100
386.800	40.156	0.100
386.900	46.052	0.100
387.000	47.151	0.100
387.100	34.021	0.100
387.200	45.590	0.100
387.300	47.663	0.100
387.400	39.634	0.100
387.500	41.171	0.100
387.600	34.348	0.100
387.700	34.346	0.100
387.800	34.534	0.100
387.900	47.947	0.100
388.000	49.808	0.100
388.100	31.792	0.100
388.200	30.772	0.100
388.300	38.299	0.100
388.400	51.602	0.100
388.500	31.541	0.100
388.600	50.471	0.100
388.700	28.080	0.100
388.800	48.356	0.100
388.900	39.888	0.100
389.000	42.269	0.100
389.100	39.102	0.100
389.200	34.385	0.100
389.300	31.216	0.100
389.400	33.867	0.100
389.500	42.207	0.100
389.600	34.653	0.100
389.700	44.542	0.100
389.800	33.303	0.100
389.900	39.169	0.100
390.000	36.570	0.100
390.100	34.841	0.100
390.200	31.598	0.100
390.300	35.859	0.100
390.400	20.608	0.100
390.500	19.982	0.100
390.600	20.107	0.100
390.700	33.416	0.100
390.800	12.430	0.100
390.900	15.597	0.100
391.000	15.523	0.100
391.100	29.693	0.100
391.200	20.145	0.100
391.300	14.017	0.100
391.400	12.811	0.100
391.500	14.924	0.100
391.600	14.968	0.100
391.700	7.803	0.100
391.800	9.642	0.100
391.900	10.568	0.100
392.000	10.030	0.100
392.100	6.744	0.100
392.200	2.673	0.100
392.300	2.818	0.100
392.400	10.048	0.100
392.500	2.134	0.100
392.600	7.098	0.100
392.700	-5.268	0.100
392.800	-0.766	0.100
392.900	-5.551	0.100
393.000	3.407	0.100
393.100	3.657	0.100
393.200	3.412	0.100
393.300	2.414	0.100
393.400	-4.137	0.100
393.500	-1.394	0.100
393.600	-0.122	0.100
393.700	-6.060	0.100
393.800	-5.378	0.100
393.900	-5.437	0.100
394.000	0.825	0.100
394.100	4.435	0.100
394.200	-8.737	0.100
394.300	-9.571	0.100
394.400	-7.289	0.100
394.500	2.585	0.100
394.600	2.524	0.100
394.700	-1.715	0.100
394.800	-2.987	0.100
394.900	-8.702	0.100
395.000	2.188	0.100
395.100	-2.826	0.100
395.200	4.938	0.100
395.300	6.889	0.100
395.400	-8.082	0.100
395.500	0.079	0.100
395.600	-5.759	0.100
395.700	-5.193	0.100
395.800	-1.260	0.100
395.900	-21.868	0.100
396.000	-6.986	0.100
396.100	-13.701	0.100
396.200	2.341	0.100
396.300	-0.200	0.100
396.400	-4.853	0.100
396.500	-6.192	0.100
396.600	-2.625	0.100
396.700	-0.992	0.100
396.800	-4.929	0.100
396.900	-4.156	0.100
397.000	-5.347	0.100
397.100	-18.520	0.100
397.200	3.576	0.100
397.300	-7.554	0.100
397.400	-11.253	0.100
397.500	4.060	0.100
397.600	-4.103	0.100
397.700	-8.441	0.100
397.800	-3.625	0.100
397.900	-12.112	0.100
398.000	-4.837	0.100
398.100	0.742	0.100
398.200	1.596	0.100
398.300	-4.377	0.100
398.400	-11.656	0.100
398.500	-9.942	0.100
398.600	-5.639	0.100
398.700	0.338	0.100
398.800	5.842	0.100
398.900	-4.316	0.100
399.000	-11.709	0.100
399.100	-10.122	0.100
399.200	-5.609	0.100
399.300	-4.000	0.100
399.400	-4.699	0.100
399.500	0.374	0.100
399.600	-4.071	0.100
399.700	3.019	0.100
399.800	-3.924	0.100
399.900	-8.548	0.100
400.000	-11.707	0.100
400.100	-4.494	0.100
400.200	-4.725	0.100
400.300	-17.110	0.100
400.400	-11.934	0.100
400.500	-6.384	0.100
400.600	-14.530	0.100
400.700	-1.974	0.100
400.800	-6.650	0.100
400.900	-10.065	0.100
401.000	-4.756	0.100
401.100	-3.946	0.100
401.200	-6.143	0.100
401.300	-6.712	0.100
401.400	-6.752	0.100
401.500	-5.394	0.100
401.600	-10.188	0.100
401.700	-8.513	0.100
401.800	-5.482	0.100
401.900	-10.625	0.100
402.000	-4.993	0.100
402.100	-10.296	0.100
402.200	-6.601	0.100
402.300	-2.246	0.100
402.400	-7.444	0.100
402.500	-11.011	0.100
402.600	-10.331	0.100
402.700	-1.864	0.100
402.800	-19.477	0.100
402.900	-7.520	0.100
403.000	-9.274	0.100
403.100	-6.570	0.100
403.200	-8.762	0.100
403.300	-4.951	0.100
403.400	-12.701	0.100
403.500	-10.919	0.100
403.600	-14.481	0.100
403.700	-10.838	0.100
403.800	-15.489	0.100
403.900	-13.959	0.100
404.000	2.895	0.100
404.100	-4.320	0.100
404.200	-3.351	0.100
404.300	-14.029	0.100
404.400	-18.181	0.100
404.500	-3.783	0.100
404.600	-5.893	0.100
404.700	-7.422	0.100
404.800	-9.099	0.100
404.900	-7.604	0.100
405.000	-14.921	0.100
405.100	-5.831	0.100
405.200	-13.821	0.100
405.300	-11.106	0.100
405.400	-4.542	0.100
405.500	-17.619	0.100
405.600	-15.926	0.100
405.700	-17.703	0.100
405.800	-6.597	0.100
405.900	-11.056	0.100
406.000	-14.346	0.100
406.100	-18.692	0.100
406.200	-6.466	0.100
406.300	-14.719	0.100
406.400	-8.882	0.100
406.500	-10.521	0.100
406.600	-12.320	0.100
406.700	-13.217	0.100
406.800	-13.324	0.100
406.900	-14.905	0.100
407.000	-14.018	0.100
407.100	-13.026	0.100
407.200	-11.054	0.100
407.300	-14.421	0.100
407.400	-16.207	0.100
407.500	-9.155	0.100
407.600	-17.931	0.100
407.700	-20.296	0.100
407.800	-19.107	0.100
407.900	-13.937	0.100
408.000	-7.523	0.100
408.100	5.517	0.100
408.200	-11.488	0.100
408.300	-18.768	0.100
408.400	-6.583	0.100
408.500	-12.005	0.100
408.600	-16.334	0.100
408.700	-14.246	0.100
408.800	-16.544	0.100
408.900	-8.203	0.100
409.000	-11.925	0.100
409.100	-18.263	0.100
409.200	-14.965	0.100
409.300	-5.539	0.100
409.400	-20.751	0.100
409.500	-18.278	0.100
409.600	-15.926	0.100
409.700	-19.482	0.100
409.800	-10.318	0.100
409.900	-11.059	0.100
410.000	-18.788	0.100
410.100	-15.877	0.100
410.200	-14.194	0.100
410.300	-21.329	0.100
410.400	-21.506	0.100
410.500	-21.618	0.100
410.600	-17.473	0.100
410.700	-6.191	0.100
410.800	-10.590	0.100
410.900	-16.980	0.100
411.000	-23.968	0.100
411.100	-8.729	0.100
411.200	-13.432	0.100
411.300	-15.601	0.100
411.400	-14.690	0.100
411.500	-21.981	0.100
411.600	-18.946	0.100
411.700	-17.231	0.100
411.800	-19.838	0.100
411.900	-16.334	0.100
412.000	-9.952	0.100
412.100	-8.403	0.100
412.200	-21.675	0.100
412.300	-26.608	0.100
412.400	-3.853	0.100
412.500	-15.821	0.100
412.600	-17.174	0.100
412.700	-16.478	0.100
412.800	-12.344	0.100
412.900	-25.323	0.100
413.000	-17.359	0.100
413.100	-18.422	0.100
413.200	-16.020	0.100
413.300	-26.187	0.100
413.400	-26.685	0.100
413.500	-12.374	0.100
413.600	-19.870	0.100
413.700	-10.153	0.100
413.800	-21.524	0.100
413.900	-18.181	0.100
414.000	-23.426	0.100
414.100	-14.036	0.100
414.200	-14.970	0.100
414.300	-21.659	0.100
414.400	-19.771	0.100
414.500	-18.794	0.100
414.600	-0.728	0.100
414.700	-14.747	0.100
414.800	-22.208	0.100
414.900	-20.313	0.100
415.000	-25.447	0.100
415.100	-23.511	0.100
415.200	-24.340	0.100
415.300	-21.195	0.100
415.400	-24.481	0.100
415.500	-5.073	0.100
415.600	-9.196	0.100
415.700	-21.629	0.100
415.800	-20.983	0.100
415.900	-14.578	0.100
416.000	-22.251	0.100
416.100	-20.531	0.100
416.200	-14.718	0.100
416.300	-23.984	0.100
416.400	-17.943	0.100
416.500	-9.339	0.100
416.600	-13.589	0.100
416.700	-18.216	0.100
416.800	-29.480	0.100
416.900	-17.152	0.100
417.000	-9.639	0.100
417.100	-14.952	0.100
417.200	-17.631	0.100
417.300	-30.002	0.100
417.400	-27.127	0.100
417.500	-29.173	0.100
417.600	-17.157	0.100
417.700	-19.126	0.100
417.800	-15.936	0.100
417.900	-24.963	0.100
418.000	-23.805	0.100
418.100	-16.971	0.100
418.200	-19.343	0.100
418.300	-27.883	0.100
418.400	-19.110	0.100
418.500	-15.255	0.100
418.600	-19.140	0.100
418.700	-18.513	0.100
418.800	-20.964	0.100
418.900	-21.921	0.100
419.000	-18.017	0.100
419.100	-22.576	0.100
419.200	-18.153	0.100
419.300	-16.915	0.100
419.400	-20.595	0.100
419.500	-20.350	0.100
419.600	-19.526	0.100
419.700	-22.778	0.100
419.800	-14.624	0.100
419.900	-16.851	0.100
420.000	-21.672	0.100
420.100	-14.386	0.100
420.200	-18.795	0.100
420.300	-21.465	0.100
420.400	-26.918	0.100
420.500	-14.634	0.100
420.600	-20.612	0.100
420.700	-25.495	0.100
420.800	-15.541	0.100
420.900	-27.767	0.100
421.000	-24.014	0.100
421.100	-12.195	0.100
421.200	-12.357	0.100
421.300	-17.677	0.100
421.400	-16.968	0.100
421.500	-26.080	0.100
421.600	-28.779	0.100
421.700	-27.591	0.100
421.800	-21.113	0.100
421.900	-20.079	0.100
422.000	-23.199	0.100
422.100	-14.999	0.100
422.200	-24.888	0.100
422.300	-28.072	0.100
422.400	-19.500	0.100
422.500	-21.657	0.100
422.600	-20.705	0.100
422.700	-22.095	0.100
422.800	-19.138	0.100
422.900	-20.286	0.100
423.000	-21.734	0.100
423.100	-24.325	0.100
423.200	-18.372	0.100
423.300	-18.509	0.100
423.400	-30.389	0.100
423.500	-26.206	0.100
423.600	-16.116	0.100
423.700	-21.381	0.100
423.800	-20.707	0.100
423.900	-24.496	0.100
424.000	-26.020	0.100
424.100	-22.033	0.100
424.200	-17.494	0.100
424.300	-22.944	0.100
424.400	-24.624	0.100
424.500	-17.368	0.100
424.600	-12.261	0.100
424.700	-26.888	0.100
424.800	-28.485	0.100
424.900	-32.498	0.100
425.000	-37.984	0.100
425.100	-32.180	0.100
425.200	-11.178	0.100
425.300	-15.047	0.100
425.400	-19.325	0.100
425.500	-18.498	0.100
425.600	-23.046	0.100
425.700	-27.848	0.100
425.800	-16.424	0.100
425.900	-20.993	0.100
426.000	-20.851	0.100
426.100	-23.585	0.100
426.200	-19.196	0.100
426.300	-22.100	0.100
426.400	-30.162	0.100
426.500	-30.739	0.100
426.600	-31.144	0.100
426.700	-18.745	0.100
426.800	-10.995	0.100
426.900	-24.004	0.100
427.000	-14.453	0.100
427.100	-19.873	0.100
427.200	-37.108	0.100
427.300	-28.146	0.100
427.400	-21.921	0.100
427.500	-37.518	0.100
427.600	-25.791	0.100
427.700	-24.033	0.100
427.800	-33.552	0.100
427.900	-13.722	0.100
428.000	-16.595	0.100
428.100	-23.443	0.100
428.200	-35.000	0.100
428.300	-20.825	0.100
428.400	-20.476	0.100
428.500	-28.936	0.100
428.600	-22.174	0.100
428.700	-30.313	0.100
428.800	-28.844	0.100
428.900	-24.944	0.100
429.000	-29.606	0.100
429.100	-23.013	0.100
429.200	-15.859	0.100
429.300	-20.176	0.100
429.400	-15.608	0.100
429.500	-29.065	0.100
429.600	-17.375	0.100
429.700	-21.279	0.100
429.800	-22.925	0.100
429.900	-26.692	0.100
430.000	-34.112	0.100
430.100	-17.582	0.100
430.200	-24.753	0.100
430.300	-22.779	0.100
430.400	-30.314	0.100
430.500	-32.834	0.100
430.600	-22.289	0.100
430.700	-16.968	0.100
430.800	-23.548	0.100
430.900	-27.373	0.100
431.000	-16.324	0.100
431.100	-23.164	0.100
431.200	-32.013	0.100
431.300	-20.282	0.100
431.400	-15.055	0.100
431.500	-22.094	0.100
431.600	-26.065	0.100
431.700	-23.927	0.100
431.800	-22.371	0.100
431.900	-25.966	0.100
432.000	-24.310	0.100
432.100	-17.148	0.100
432.200	-29.674	0.100
432.300	-37.627	0.100
432.400	-25.797	0.100
432.500	-34.210	0.100
432.600	-16.506	0.100
432.700	-21.673	0.100
432.800	-21.680	0.100
432.900	-24.246	0.100
433.000	-34.392	0.100
433.100	-22.126	0.100
433.200	-17.011	0.100
433.300	-25.602	0.100
433.400	-27.785	0.100
433.500	-24.000	0.100
433.600	-22.701	0.100
433.700	-25.997	0.100
433.800	-32.759	0.100
433.900	-31.330	0.100
434.000	-23.095	0.100
434.100	-27.688	0.100
434.200	-20.053	0.100
434.300	-17.416	0.100
434.400	-28.226	0.100
434.500	-35.988	0.100
434.600	-27.641	0.100
434.700	-21.415	0.100
434.800	-27.819	0.100
434.900	-15.022	0.100
435.000	-17.013	0.100
435.100	-32.616	0.100
435.200	-33.069	0.100
435.300	-23.457	0.100
435.400	-26.833	0.100
435.500	-28.315	0.100
435.600	-25.525	0.100
435.700	-22.509	0.100
435.800	-14.778	0.100
435.900	-21.206	0.100
436.000	-29.389	0.100
436.100	-23.968	0.100
436.200	-23.199	0.100
436.300	-18.227	0.100
436.400	-35.807	0.100
436.500	-28.365	0.100
436.600	-27.088	0.100
436.700	-23.976	0.100
436.800	-22.889	0.100
436.900	-17.713	0.100
437.000	-26.409	0.100
437.100	-16.285	0.100
437.200	-32.062	0.100
437.300	-22.602	0.100
437.400	-24.536	0.100
437.500	-26.568	0.100
437.600	-28.396	0.100
437.700	-25.381	0.100
437.800	-23.507	0.100
437.900	-31.875	0.100
438.000	-24.449	0.100
438.100	-22.284	0.100
438.200	-26.912	0.100
438.300	-16.892	0.100
438.400	-18.832	0.100
438.500	-26.934	0.100
438.600	-33.578	0.100
438.700	-21.015	0.100
438.800	-19.264	0.100
438.900	-18.626	0.100
439.000	-20.674	0.100
439.100	-22.076	0.100
439.200	-26.984	0.100
439.300	-22.043	0.100
439.400	-20.733	0.100
439.500	-22.138	0.100
439.600	-29.771	0.100
439.700	-22.740	0.100
439.800	-24.505	0.100
439.900	-23.181	0.100
440.000	-32.824	0.100
440.100	-36.824	0.100
440.200	-30.536	0.100
440.300	-20.450	0.100
440.400	-15.883	0.100
440.500	-21.895	0.100
440.600	-26.982	0.100
440.700	-31.814	0.100
440.800	-24.221	0.100
440.900	-20.326	0.100
441.000	-19.582	0.100
441.100	-33.260	0.100
441.200	-32.948	0.100
441.300	-29.264	0.100
441.400	-17.169	0.100
441.500	-20.100	0.100
441.600	-23.732	0.100
441.700	-21.117	0.100
441.800	-20.593	0.100
441.900	-26.413	0.100
442.000	-26.804	0.100
442.100	-26.338	0.100
442.200	-24.308	0.100
442.300	-30.758	0.100
442.400	-14.796	0.100
442.500	-30.351	0.100
442.600	-40.349	0.100
442.700	-20.972	0.100
442.800	-26.672	0.100
442.900	-15.846	0.100
443.000	-26.039	0.100
443.100	-31.731	0.100
443.200	-32.148	0.100
443.300	-18.458	0.100
443.400	-24.394	0.100
443.500	-24.195	0.100
443.600	-23.221	0.100
443.700	-18.238	0.100
443.800	-18.734	0.100
443.900	-19.241	0.100
444.000	-19.602	0.100
444.100	-25.595	0.100
444.200	-32.136	0.100
444.300	-32.013	0.100
444.400	-26.206	0.100
444.500	-34.618	0.100
444.600	-27.645	0.100
444.700	-32.836	0.100
444.800	-24.713	0.100
444.900	-33.096	0.100
445.000	-18.335	0.100
445.100	-22.653	0.100
445.200	-17.778	0.100
445.300	-25.284	0.100
445.400	-21.979	0.100
445.500	-36.776	0.100
445.600	-12.958	0.100
445.700	-24.363	0.100
445.800	-28.039	0.100
445.900	-18.164	0.100
446.000	-23.735	0.100
446.100	-28.325	0.100
446.200	-26.169	0.100
446.300	-20.562	0.100
446.400	-20.027	0.100
446.500	-21.674	0.100
446.600	-25.590	0.100
446.700	-16.279	0.100
446.800	-27.176	0.100
446.900	-37.397	0.100
447.000	-21.296	0.100
447.100	-29.766	0.100
447.200	-22.915	0.100
447.300	-23.263	0.100
447.400	-24.900	0.100
447.500	-24.661	0.100
447.600	-19.200	0.100
447.700	-20.394	0.100
447.800	-25.095	0.100
447.900	-17.417	0.100
448.000	-23.758	0.100
448.100	-28.894	0.100
448.200	-27.101	0.100
448.300	-20.162	0.100
448.400	-28.680	0.100
448.500	-24.695	0.100
448.600	-19.154	0.100
448.700	-18.370	0.100
448.800	-25.943	0.100
448.900	-22.307	0.100
449.000	-31.992	0.100
449.100	-25.294	0.100
449.200	-27.154	0.100
449.300	-26.862	0.100
449.400	-27.032	0.100
449.500	-20.067	0.100
449.600	-24.185	0.100
449.700	-22.447	0.100
449.800	-28.932	0.100
449.900	-30.535	0.100
450.000	-23.706	0.100
450.100	-19.187	0.100
450.200	-18.354	0.100
450.300	-22.880	0.100
450.400	-18.634	0.100
450.500	-21.587	0.100
450.600	-17.479	0.100
450.700	-25.305	0.100
450.800	-29.772	0.100
450.900	-26.496	0.100
451.000	-25.634	0.100
451.100	-23.960	0.100
451.200	-27.492	0.100
451.300	-30.425	0.100
451.400	-20.404	0.100
451.500	-16.310	0.100
451.600	-18.459	0.100
451.700	-21.403	0.100
451.800	-24.315	0.100
451.900	-28.800	0.100
452.000	-22.153	0.100
452.100	-30.006	0.100
452.200	-25.062	0.100
452.300	-15.158	0.100
452.400	-21.871	0.100
452.500	-15.955	0.100
452.600	-24.657	0.100
452.700	-27.763	0.100
452.800	-22.351	0.100
452.900	-23.432	0.100
453.000	-20.992	0.100
453.100	-20.283	0.100
453.200	-22.264	0.100
453.300	-30.357	0.100
453.400	-25.107	0.100
453.500	-22.298	0.100
453.600	-30.331	0.100
453.700	-19.135	0.100
453.800	-26.967	0.100
453.900	-29.103	0.100
454.000	-25.230	0.100
454.100	-22.947	0.100
454.200	-16.166	0.100
454.300	-20.753	0.100
454.400	-21.193	0.100
454.500	-25.992	0.100
454.600	-28.624	0.100
454.700	-27.656	0.100
454.800	-19.074	0.100
454.900	-18.727	0.100
455.000	-23.025	0.100
455.100	-18.416	0.100
455.200	-20.914	0.100
455.300	-23.229	0.100
455.400	-28.136	0.100
455.500	-23.003	0.100
455.600	-26.540	0.100
455.700	-20.034	0.100
455.800	-18.712	0.100
455.900	-16.125	0.100
456.000	-26.577	0.100
456.100	-28.839	0.100
456.200	-19.173	0.100
456.300	-18.753	0.100
456.400	-24.477	0.100
456.500	-32.891	0.100
456.600	-25.483	0.100
456.700	-14.433	0.100
456.800	-38.289	0.100
456.900	-14.978	0.100
457.000	-24.699	0.100
457.100	-20.022	0.100
457.200	-13.447	0.100
457.300	-22.418	0.100
457.400	-25.292	0.100
457.500	-34.381	0.100
457.600	-20.605	0.100
457.700	-19.228	0.100
457.800	-20.345	0.100
457.900	-19.475	0.100
458.000	-14.225	0.100
458.100	-24.911	0.100
458.200	-14.084	0.100
458.300	-22.496	0.100
458.400	-29.438	0.100
458.500	-28.264	0.100
458.600	-23.235	0.100
458.700	-23.637	0.100
458.800	-27.597	0.100
458.900	-32.391	0.100
459.000	-16.099	0.100
459.100	-23.994	0.100
459.200	-26.312	0.100
459.300	-22.145	0.100
459.400	-23.283	0.100
459.500	-14.251	0.100
459.600	-23.021	0.100
459.700	-17.516	0.100
459.800	-21.054	0.100
459.900	-16.090	0.100
460.000	-25.208	0.100
460.100	-21.261	0.100
460.200	-24.760	0.100
460.300	-18.514	0.100
460.400	-16.603	0.100
460.500	-16.301	0.100
460.600	-24.306	0.100
460.700	-25.240	0.100
460.800	-26.651	0.100
460.900	-26.932	0.100
461.000	-25.654	0.100
461.100	-15.925	0.100
461.200	-20.446	0.100
461.300	-25.379	0.100
461.400	-38.486	0.100
461.500	-19.448	0.100
461.600	-26.626	0.100
461.700	-24.280	0.100
461.800	-16.234	0.100
461.900	-14.973	0.100
462.000	-25.975	0.100
462.100	-19.092	0.100
462.200	-13.929	0.100
462.300	-30.571	0.100
462.400	-22.899	0.100
462.500	-25.352	0.100
462.600	-33.704	0.100
462.700	-20.840	0.100
462.800	-25.133	0.100
462.900	-16.453	0.100
463.000	-17.528	0.100
463.100	-25.663	0.100
463.200	-26.374	0.100
463.300	-32.982	0.100
463.400	-27.070	0.100
463.500	-25.910	0.100
463.600	-21.645	0.100
463.700	-18.298	0.100
463.800	-14.736	0.100
463.900	-21.430	0.100
464.000	-25.256	0.100
464.100	-20.315	0.100
464.200	-20.738	0.100
464.300	-27.780	0.100
464.400	-22.328	0.100
464.500	-26.795	0.100
464.600	-17.618	0.100
464.700	-24.274	0.100
464.800	-30.224	0.100
464.900	-28.377	0.100
465.000	-26.068	0.100
465.100	-27.660	0.100
465.200	-26.881	0.100
465.300	-19.212	0.100
465.400	-17.065	0.100
465.500	-24.660	0.100
465.600	-14.464	0.100
465.700	-19.952	0.100
465.800	-15.090	0.100
465.900	-15.463	0.100
466.000	-19.375	0.100
466.100	-21.778	0.100
466.200	-36.955	0.100
466.300	-28.493	0.100
466.400	-13.036	0.100
466.500	-16.007	0.100
466.600	-19.076	0.100
466.700	-20.986	0.100
466.800	-29.299	0.100
466.900	-25.294	0.100
467.000	-24.177	0.100
467.100	-25.130	0.100
467.200	-25.692	0.100
467.300	-39.593	0.100
467.400	-31.895	0.100
467.500	-11.089	0.100
467.600	-15.653	0.100
467.700	-22.454	0.100
467.800	-23.116	0.100
467.900	-21.784	0.100
468.000	-21.337	0.100
468.100	-19.153	0.100
468.200	-24.728	0.100
468.300	-28.565	0.100
468.400	-25.953	0.100
468.500	-27.751	0.100
468.600	-11.312	0.100
468.700	-18.165	0.100
468.800	-34.459	0.100
468.900	-18.851	0.100
469.000	-21.342	0.100
469.100	-25.199	0.100
469.200	-21.225	0.100
469.300	-18.967	0.100
469.400	-22.265	0.100
469.500	-17.860	0.100
469.600	-21.834	0.100
469.700	-20.977	0.100
469.800	-14.663	0.100
469.900	-18.720	0.100
470.000	-25.584	0.100
470.100	-33.096	0.100
470.200	-26.547	0.100
470.300	-21.663	0.100
470.400	-16.500	0.100
470.500	-13.818	0.100
470.600	-21.127	0.100
470.700	-17.921	0.100
470.800	-25.270	0.100
470.900	-32.996	0.100
471.000	-32.811	0.100
471.100	-24.004	0.100
471.200	-13.264	0.100
471.300	-12.360	0.100
471.400	-14.128	0.100
471.500	-12.219	0.100
471.600	-26.414	0.100
471.700	-17.767	0.100
471.800	-14.937	0.100
471.900	-24.996	0.100
472.000	-28.394	0.100
472.100	-22.457	0.100
472.200	-6.326	0.100
472.300	-9.655	0.100
472.400	-20.826	0.100
472.500	-28.028	0.100
472.600	-23.979	0.100
472.700	-23.708	0.100
472.800	-22.497	0.100
472.900	-23.221	0.100
473.000	-23.665	0.100
473.100	-22.116	0.100
473.200	-19.523	0.100
473.300	-27.058	0.100
473.400	-13.650	0.100
473.500	-18.758	0.100
473.600	-24.943	0.100
473.700	-25.800	0.100
473.800	-16.949	0.100
473.900	-13.118	0.100
474.000	-14.886	0.100
474.100	-21.338	0.100
474.200	-12.466	0.100
474.300	-20.654	0.100
474.400	-20.450	0.100
474.500	-26.715	0.100
474.600	-18.470	0.100
474.700	-13.748	0.100
474.800	-26.313	0.100
474.900	-22.628	0.100
475.000	-20.792	0.100
475.100	-18.610	0.100
475.200	-22.714	0.100
475.300	-21.413	0.100
475.400	-16.779	0.100
475.500	-35.349	0.100
475.600	-22.970	0.100
475.700	-33.933	0.100
475.800	-25.553	0.100
475.900	-20.426	0.100
476.000	-19.148	0.100
476.100	-20.873	0.100
476.200	-34.318	0.100
476.300	-16.954	0.100
476.400	-18.471	0.100
476.500	-15.039	0.100
476.600	-13.049	0.100
476.700	-2.675	0.100
476.800	-35.144	0.100
476.900	-33.228	0.100
477.000	-22.411	0.100
477.100	-26.948	0.100
477.200	-23.010	0.100
477.300	-17.052	0.100
477.400	-23.416	0.100
477.500	-17.346	0.100
477.600	-17.227	0.100
477.700	-21.716	0.100
477.800	-23.581	0.100
477.900	-16.999	0.100
478.000	-18.490	0.100
478.100	-21.172	0.100
478.200	-24.508	0.100
478.300	-28.500	0.100
478.400	-31.848	0.100
478.500	-18.810	0.100
478.600	-20.518	0.100
478.700	-22.123	0.100
478.800	-15.976	0.100
478.900	-27.337	0.100
479.000	-27.187	0.100
479.100	-17.925	0.100
479.200	-16.605	0.100
479.300	-19.013	0.100
479.400	-24.012	0.100
479.500	-13.614	0.100
479.600	-23.723	0.100
479.700	-20.082	0.100
479.800	-21.984	0.100
479.900	-17.409	0.100
480.000	-20.454	0.100
480.100	-29.090	0.100
480.200	-23.016	0.100
480.300	2.942	0.100
480.400	0.529	0.100
480.500	-2.549	0.100
480.600	-8.642	0.100
480.700	-3.899	0.100
480.800	-6.594	0.100
480.900	-4.182	0.100
481.000	-3.506	0.100
481.100	-5.075	0.100
481.200	-7.332	0.100
481.300	-0.380	0.100
481.400	11.032	0.100
481.500	6.566	0.100
481.600	1.560	0.100
481.700	-6.196	0.100
481.800	11.661	0.100
481.900	3.978	0.100
482.000	8.863	0.100
482.100	9.554	0.100
482.200	-1.787	0.100
482.300	16.528	0.100
482.400	12.256	0.100
482.500	9.526	0.100
482.600	7.548	0.100
482.700	13.011	0.100
482.800	15.752	0.100
482.900	11.840	0.100
483.000	10.894	0.100
483.100	-0.702	0.100
483.200	5.802	0.100
483.300	13.687	0.100
483.400	17.241	0.100
483.500	27.060	0.100
483.600	11.551	0.100
483.700	15.060	0.100
483.800	12.760	0.100
483.900	10.078	0.100
484.000	14.543	0.100
484.100	13.734	0.100
484.200	15.140	0.100
484.300	5.448	0.100
484.400	6.276	0.100
484.500	18.821	0.100
484.600	11.786	0.100
484.700	6.838	0.100
484.800	15.354	0.100
484.900	15.838	0.100
485.000	7.817	0.100
485.100	5.765	0.100
485.200	17.338	0.100
485.300	9.177	0.100
485.400	7.940	0.100
485.500	10.099	0.100
485.600	1.519	0.100
485.700	3.109	0.100
485.800	12.715	0.100
485.900	9.659	0.100
486.000	16.055	0.100
486.100	13.574	0.100
486.200	16.553	0.100
486.300	8.341	0.100
486.400	5.338	0.100
486.500	11.684	0.100
486.600	9.149	0.100
486.700	9.596	0.100
486.800	12.666	0.100
486.900	15.468	0.100
487.000	13.712	0.100
487.100	7.495	0.100
487.200	16.649	0.100
487.300	16.693	0.100
487.400	6.388	0.100
487.500	5.725	0.100
487.600	3.188	0.100
487.700	7.203	0.100
487.800	8.167	0.100
487.900	0.374	0.100
488.000	10.772	0.100
488.100	9.473	0.100
488.200	21.034	0.100
488.300	11.410	0.100
488.400	9.700	0.100
488.500	8.418	0.100
488.600	3.821	0.100
488.700	4.674	0.100
488.800	9.869	0.100
488.900	15.157	0.100
489.000	9.756	0.100
489.100	4.382	0.100
489.200	5.258	0.100
489.300	-1.468	0.100
489.400	2.323	0.100
489.500	9.789	0.100
489.600	18.116	0.100
489.700	16.770	0.100
489.800	18.465	0.100
489.900	13.047	0.100
490.000	3.961	0.100
490.100	9.114	0.100
490.200	19.568	0.100
490.300	16.580	0.100
490.400	8.586	0.100
490.500	5.197	0.100
490.600	7.846	0.100
490.700	-5.125	0.100
490.800	2.890	0.100
490.900	10.694	0.100
491.000	6.774	0.100
491.100	20.230	0.100
491.200	8.104	0.100
491.300	15.699	0.100
491.400	14.864	0.100
491.500	7.255	0.100
491.600	7.154	0.100
491.700	18.119	0.100
491.800	8.851	0.100
491.900	19.535	0.100
492.000	13.468	0.100
492.100	7.514	0.100
492.200	9.398	0.100
492.300	20.056	0.100
492.400	5.946	0.100
492.500	12.650	0.100
492.600	6.675	0.100
492.700	8.662	0.100
492.800	21.153	0.100
492.900	6.710	0.100
493.000	2.328	0.100
493.100	13.420	0.100
493.200	20.512	0.100
493.300	26.731	0.100
493.400	21.886	0.100
493.500	12.045	0.100
493.600	4.486	0.100
493.700	11.688	0.100
493.800	15.033	0.100
493.900	12.530	0.100
494.000	23.109	0.100
494.100	21.893	0.100
494.200	17.773	0.100
494.300	15.446	0.100
494.400	18.954	0.100
494.500	16.086	0.100
494.600	11.586	0.100
494.700	19.528	0.100
494.800	23.759	0.100
494.900	18.982	0.100
495.000	19.952	0.100
495.100	20.924	0.100
495.200	12.549	0.100
495.300	12.473	0.100
495.400	28.658	0.100
495.500	23.408	0.100
495.600	23.006	0.100
495.700	24.949	0.100
495.800	18.289	0.100
495.900	14.205	0.100
496.000	24.040	0.100
496.100	27.535	0.100
496.200	14.287	0.100
496.300	13.540	0.100
496.400	23.418	0.100
496.500	11.150	0.100
496.600	18.122	0.100
496.700	20.057	0.100
496.800	20.887	0.100
496.900	19.615	0.100
497.000	27.304	0.100
497.100	18.495	0.100
497.200	21.688	0.100
497.300	20.202	0.100
497.400	26.613	0.100
497.500	16.475	0.100
497.600	30.795	0.100
497.700	17.172	0.100
497.800	20.493	0.100
497.900	27.605	0.100
498.000	22.044	0.100
498.100	33.197	0.100
498.200	29.323	0.100
498.300	23.220	0.100
498.400	20.620	0.100
498.500	27.225	0.100
498.600	11.683	0.100
498.700	21.082	0.100
498.800	31.676	0.100
498.900	22.028	0.100
499.000	15.397	0.100
499.100	21.381	0.100
499.200	26.979	0.100
499.300	31.445	0.100
499.400	25.050	0.100
499.500	34.727	0.100
499.600	26.965	0.100
499.700	23.475	0.100
499.800	25.790	0.100
499.900	32.907	0.100
500.000	30.202	0.100
500.100	37.042	0.100
500.200	32.430	0.100
500.300	21.573	0.100
500.400	31.967	0.100
500.500	27.589	0.100
500.600	24.075	0.100
500.700	37.548	0.100
500.800	35.133	0.100
500.900	37.885	0.100
501.000	23.592	0.100
501.100	29.647	0.100
501.200	26.963	0.100
501.300	25.654	0.100
501.400	29.076	0.100
501.500	32.851	0.100
501.600	32.076	0.100
501.700	24.754	0.100
501.800	34.363	0.100
501.900	31.643	0.100
502.000	37.035	0.100
502.100	34.846	0.100
502.200	36.354	0.100
502.300	30.395	0.100
502.400	17.958	0.100
502.500	32.212	0.100
502.600	37.965	0.100
502.700	49.591	0.100
502.800	33.542	0.100
502.900	20.645	0.100
503.000	22.165	0.100
503.100	40.635	0.100
503.200	30.188	0.100
503.300	29.765	0.100
503.400	24.513	0.100
503.500	22.399	0.100
503.600	37.123	0.100
503.700	31.202	0.100
503.800	52.520	0.100
503.900	40.241	0.100
504.000	27.467	0.100
504.100	41.777	0.100
504.200	34.965	0.100
504.300	32.167	0.100
504.400	36.206	0.100
504.500	25.119	0.100
504.600	33.963	0.100
504.700	34.896	0.100
504.800	37.200	0.100
504.900	41.457	0.100
505.000	45.401	0.100
505.100	43.968	0.100
505.200	40.217	0.100
505.300	41.009	0.100
505.400	28.572	0.100
505.500	34.069	0.100
505.600	19.379	0.100
505.700	35.381	0.100
505.800	37.165	0.100
505.900	40.908	0.100
506.000	35.997	0.100
506.100	46.283	0.100
506.200	47.945	0.100
506.300	25.182	0.100
506.400	34.189	0.100
506.500	20.264	0.100
506.600	31.440	0.100
506.700	36.333	0.100
506.800	41.896	0.100
506.900	38.805	0.100
507.000	36.631	0.100
507.100	46.354	0.100
507.200	33.606	0.100
507.300	35.082	0.100
507.400	41.867	0.100
507.500	43.084	0.100
507.600	35.236	0.100
507.700	40.500	0.100
507.800	35.549	0.100
507.900	44.762	0.100
508.000	32.734	0.100
508.100	25.176	0.100
508.200	43.984	0.100
508.300	43.776	0.100
508.400	38.175	0.100
508.500	44.975	0.100
508.600	36.396	0.100
508.700	39.433	0.100
508.800	18.381	0.100
508.900	46.287	0.100
509.000	46.554	0.100
509.100	33.267	0.100
509.200	29.614	0.100
509.300	40.492	0.100
509.400	43.772	0.100
509.500	38.906	0.100
509.600	29.211	0.100
509.700	39.626	0.100
509.800	45.162	0.100
509.900	40.354	0.100
510.000	36.471	0.100
510.100	37.820	0.100
510.200	35.571	0.100
510.300	34.728	0.100
510.400	34.859	0.100
510.500	36.653	0.100
510.600	36.639	0.100
510.700	34.516	0.100
510.800	42.632	0.100
510.900	41.480	0.100
511.000	42.836	0.100
511.100	39.564	0.100
511.200	43.389	0.100
511.300	38.280	0.100
511.400	43.239	0.100
511.500	39.226	0.100
511.600	42.258	0.100
511.700	30.141	0.100
511.800	40.107	0.100
511.900	48.094	0.100
512.000	25.501	0.100
512.100	29.862	0.100
512.200	45.390	0.100
512.300	38.840	0.100
512.400	28.398	0.100
512.500	40.357	0.100
512.600	56.702	0.100
512.700	38.964	0.100
512.800	27.129	0.100
512.900	33.582	0.100
513.000	47.585	0.100
513.100	45.359	0.100
513.200	43.836	0.100
513.300	40.651	0.100
513.400	47.507	0.100
513.500	37.784	0.100
513.600	26.221	0.100
513.700	45.750	0.100
513.800	40.050	0.100
513.900	27.606	0.100
514.000	39.358	0.100
514.100	38.055	0.100
514.200	38.101	0.100
514.300	32.522	0.100
514.400	47.783	0.100
514.500	55.972	0.100
514.600	39.780	0.100
514.700	26.993	0.100
514.800	38.270	0.100
514.900	28.650	0.100
515.000	43.488	0.100
515.100	49.023	0.100
515.200	44.535	0.100
515.300	42.558	0.100
515.400	37.654	0.100
515.500	42.224	0.100
515.600	36.775	0.100
515.700	37.763	0.100
515.800	28.602	0.100
515.900	31.383	0.100
516.000	37.575	0.100
516.100	48.341	0.100
516.200	44.484	0.100
516.300	39.304	0.100
516.400	45.051	0.100
516.500	39.591	0.100
516.600	44.499	0.100
516.700	45.737	0.100
516.800	24.736	0.100
516.900	39.588	0.100
517.000	33.805	0.100
517.100	31.728	0.100
517.200	40.609	0.100
517.300	38.478	0.100
517.400	38.294	0.100
517.500	40.675	0.100
517.600	31.498	0.100
517.700	37.665	0.100
517.800	44.670	0.100
517.900	49.915	0.100
518.000	34.561	0.100
518.100	35.654	0.100
518.200	41.882	0.100
518.300	32.586	0.100
518.400	40.908	0.100
518.500	49.533	0.100
518.600	37.312	0.100
518.700	46.700	0.100
518.800	55.220	0.100
518.900	42.489	0.100
519.000	40.266	0.100
519.100	40.948	0.100
519.200	24.869	0.100
519.300	40.341	0.100
519.400	41.967	0.100
519.500	40.349	0.100
519.600	48.049	0.100
519.700	42.892	0.100
519.800	34.586	0.100
519.900	29.087	0.100
520.000	40.253	0.100
520.100	41.727	0.100
520.200	40.940	0.100
520.300	26.515	0.100
520.400	46.163	0.100
520.500	29.843	0.100
520.600	34.391	0.100
520.700	47.804	0.100
520.800	45.487	0.100
520.900	41.179	0.100
521.000	43.940	0.100
521.100	36.444	0.100
521.200	45.226	0.100
521.300	43.025	0.100
521.400	35.304	0.100
521.500	35.631	0.100
521.600	43.775	0.100
521.700	36.723	0.100
521.800	37.677	0.100
521.900	45.643	0.100
522.000	36.562	0.100
522.100	39.321	0.100
522.200	42.714	0.100
522.300	26.420	0.100
522.400	43.426	0.100
522.500	40.838	0.100
522.600	38.686	0.100
522.700	38.234	0.100
522.800	40.117	0.100
522.900	46.975	0.100
523.000	31.220	0.100
523.100	40.430	0.100
523.200	42.557	0.100
523.300	46.607	0.100
523.400	43.486	0.100
523.500	40.153	0.100
523.600	36.274	0.100
523.700	46.153	0.100
523.800	31.600	0.100
523.900	32.046	0.100
524.000	38.056	0.100
524.100	37.165	0.100
524.200	47.162	0.100
524.300	43.199	0.100
524.400	36.311	0.100
524.500	36.809	0.100
524.600	42.646	0.100
524.700	45.598	0.100
524.800	42.146	0.100
524.900	40.641	0.100
525.000	30.545	0.100
525.100	57.201	0.100
525.200	43.397	0.100
525.300	34.269	0.100
525.400	40.724	0.100
525.500	49.021	0.100
525.600	47.408	0.100
525.700	36.700	0.100
525.800	41.871	0.100
525.900	33.937	0.100
526.000	36.400	0.100
526.100	47.164	0.100
526.200	51.037	0.100
526.300	36.320	0.100
526.400	35.406	0.100
526.500	38.746	0.100
526.600	43.121	0.100
526.700	47.670	0.100
526.800	44.210	0.100
526.900	23.220	0.100
527.000	32.826	0.100
527.100	39.610	0.100
527.200	51.321	0.100
527.300	40.265	0.100
527.400	39.495	0.100
527.500	34.300	0.100
527.600	30.074	0.100
527.700	32.011	0.100
527.800	41.423	0.100
527.900	35.829	0.100
528.000	41.649	0.100
528.100	50.181	0.100
528.200	34.764	0.100
528.300	30.647	0.100
528.400	35.834	0.100
528.500	44.932	0.100
528.600	43.487	0.100
528.700	43.186	0.100
528.800	55.982	0.100
528.900	33.706	0.100
529.000	36.786	0.100
529.100	32.789	0.100
529.200	25.950	0.100
529.300	48.505	0.100
529.400	43.875	0.100
529.500	46.144	0.100
529.600	38.894	0.100
529.700	29.738	0.100
529.800	38.880	0.100
529.900	39.069	0.100
530.000	46.258	0.100
530.100	35.830	0.100
530.200	40.658	0.100
530.300	38.860	0.100
530.400	41.174	0.100
530.500	43.922	0.100
530.600	36.904	0.100
530.700	35.932	0.100
530.800	43.397	0.100
530.900	38.947	0.100
531.000	33.154	0.100
531.100	36.030	0.100
531.200	35.551	0.100
531.300	42.893	0.100
531.400	48.352	0.100
531.500	38.409	0.100
531.600	30.392	0.100
531.700	35.038	0.100
531.800	35.936	0.100
531.900	41.620	0.100
532.000	39.912	0.100
532.100	47.507	0.100
532.200	40.533	0.100
532.300	46.704	0.100
532.400	46.051	0.100
532.500	41.016	0.100
532.600	31.425	0.100
532.700	33.361	0.100
532.800	38.158	0.100
532.900	43.507	0.100
533.000	46.107	0.100
533.100	46.445	0.100
533.200	37.033	0.100
533.300	43.229	0.100
533.400	34.033	0.100
533.500	32.933	0.100
533.600	37.480	0.100
533.700	41.580	0.100
533.800	43.110	0.100
533.900	45.450	0.100
534.000	42.248	0.100
534.100	38.521	0.100
534.200	41.209	0.100
534.300	37.533	0.100
534.400	48.618	0.100
534.500	39.995	0.100
534.600	39.784	0.100
534.700	37.242	0.100
534.800	37.706	0.100
534.900	29.405	0.100
535.000	48.434	0.100
535.100	41.567	0.100
535.200	46.284	0.100
535.300	39.880	0.100
535.400	35.625	0.100
535.500	44.211	0.100
535.600	35.074	0.100
535.700	36.886	0.100
535.800	36.665	0.100
535.900	33.605	0.100
536.000	45.299	0.100
536.100	47.871	0.100
536.200	38.798	0.100
536.300	40.293	0.100
536.400	35.402	0.100
536.500	46.437	0.100
536.600	36.797	0.100
536.700	37.602	0.100
536.800	34.480	0.100
536.900	39.242	0.100
537.000	32.330	0.100
537.100	44.282	0.100
537.200	55.573	0.100
537.300	40.517	0.100
537.400	39.424	0.100
537.500	46.905	0.100
537.600	40.748	0.100
537.700	40.990	0.100
537.800	41.921	0.100
537.900	27.244	0.100
538.000	54.434	0.100
538.100	35.737	0.100
538.200	36.190	0.100
538.300	34.116	0.100
538.400	34.349	0.100
538.500	46.618	0.100
538.600	47.147	0.100
538.700	48.238	0.100
538.800	41.685	0.100
538.900	33.378	0.100
539.000	37.646	0.100
539.100	39.077	0.100
539.200	43.076	0.100
539.300	47.568	0.100
539.400	42.989	0.100
539.500	26.245	0.100
539.600	39.535	0.100
539.700	29.306	0.100
539.800	40.700	0.100
539.900	40.383	0.100
540.000	27.978	0.100
540.100	26.188	0.100
540.200	29.831	0.100
540.300	22.912	0.100
540.400	24.054	0.100
540.500	30.516	0.100
540.600	32.123	0.100
540.700	30.574	0.100
540.800	19.308	0.100
540.900	24.537	0.100
541.000	21.406	0.100
541.100	21.949	0.100
541.200	20.315	0.100
541.300	19.584	0.100
541.400	16.564	0.100
541.500	16.162	0.100
541.600	11.937	0.100
541.700	12.782	0.100
541.800	11.722	0.100
541.900	14.177	0.100
542.000	14.967	0.100
542.100	-6.857	0.100
542.200	12.941	0.100
542.300	4.217	0.100
542.400	7.004	0.100
542.500	2.984	0.100
542.600	-2.079	0.100
542.700	8.871	0.100
542.800	7.300	0.100
542.900	-3.600	0.100
543.000	0.301	0.100
543.100	-12.647	0.100
543.200	-8.867	0.100
543.300	-4.308	0.100
543.400	-1.879	0.100
543.500	5.275	0.100
543.600	4.392	0.100
543.700	-1.209	0.100
543.800	-3.269	0.100
543.900	-7.735	0.100
544.000	-12.194	0.100
544.100	-17.263	0.100
544.200	-7.443	0.100
544.300	-0.912	0.100
544.400	1.014	0.100
544.500	-11.149	0.100
544.600	-11.121	0.100
544.700	1.484	0.100
544.800	-7.779	0.100
544.900	-9.573	0.100
545.000	2.234	0.100
545.100	-2.727	0.100
545.200	-6.905	0.100
545.300	-2.106	0.100
545.400	-3.037	0.100
545.500	-13.443	0.100
545.600	-8.905	0.100
545.700	-5.795	0.100
545.800	-3.256	0.100
545.900	0.875	0.100
546.000	-16.710	0.100
546.100	-8.457	0.100
546.200	-3.506	0.100
546.300	3.524	0.100
546.400	-8.257	0.100
546.500	-5.768	0.100
546.600	-12.028	0.100
546.700	-6.272	0.100
546.800	-7.718	0.100
546.900	2.717	0.100
547.000	-12.522	0.100
547.100	-9.102	0.100
547.200	-11.608	0.100
547.300	-7.571	0.100
547.400	8.531	0.100
547.500	1.926	0.100
547.600	-1.313	0.100
547.700	-8.809	0.100
547.800	-7.396	0.100
547.900	-14.964	0.100
548.000	-8.500	0.100
548.100	-4.437	0.100
548.200	-0.421	0.100
548.300	-7.699	0.100
548.400	-15.505	0.100
548.500	-4.845	0.100
548.600	0.893	0.100
548.700	-10.485	0.100
548.800	-15.284	0.100
548.900	-6.525	0.100
549.000	-5.246	0.100
549.100	6.593	0.100
549.200	-0.572	0.100
549.300	-14.456	0.100
549.400	-6.307	0.100
549.500	-7.543	0.100
549.600	-16.946	0.100
549.700	-10.113	0.100
549.800	-5.547	0.100
549.900	-5.867	0.100
550.000	-18.716	0.100
550.100	-13.470	0.100
550.200	-1.068	0.100
550.300	-15.753	0.100
550.400	-9.452	0.100
550.500	-1.870	0.100
550.600	6.567	0.100
550.700	-2.619	0.100
550.800	-9.707	0.100
550.900	-4.584	0.100
551.000	-6.501	0.100
551.100	-0.130	0.100
551.200	-5.657	0.100
551.300	-10.129	0.100
551.400	-12.720	0.100
551.500	-11.480	0.100
551.600	-9.898	0.100
551.700	-15.261	0.100
551.800	-6.195	0.100
551.900	-4.549	0.100
552.000	-10.609	0.100
552.100	-4.433	0.100
552.200	-4.464	0.100
552.300	-25.948	0.100
552.400	-24.362	0.100
552.500	-11.542	0.100
552.600	-13.067	0.100
552.700	-6.775	0.100
552.800	-12.522	0.100
552.900	-9.802	0.100
553.000	5.970	0.100
553.100	-7.876	0.100
553.200	-6.706	0.100
553.300	-4.852	0.100
553.400	-21.805	0.100
553.500	-20.009	0.100
553.600	-10.752	0.100
553.700	-9.466	0.100
553.800	-6.996	0.100
553.900	-4.508	0.100
554.000	-8.426	0.100
554.100	-4.026	0.100
554.200	-13.120	0.100
554.300	-7.508	0.100
554.400	-15.570	0.100
554.500	-0.085	0.100
554.600	1.309	0.100
554.700	-2.859	0.100
554.800	-17.541	0.100
554.900	-23.604	0.100
555.000	-10.972	0.100
555.100	-32.313	0.100
555.200	-4.844	0.100
555.300	-4.735	0.100
555.400	-16.573	0.100
555.500	-16.778	0.100
555.600	-6.255	0.100
555.700	-7.980	0.100
555.800	-20.090	0.100
555.900	-15.162	0.100
556.000	-10.380	0.100
556.100	-12.417	0.100
556.200	4.272	0.100
556.300	-24.629	0.100
556.400	-16.150	0.100
556.500	-4.510	0.100
556.600	-20.322	0.100
556.700	-23.974	0.100
556.800	-9.679	0.100
556.900	-14.992	0.100
557.000	-6.314	0.100
557.100	-13.007	0.100
557.200	-18.323	0.100
557.300	-6.087	0.100
557.400	-13.902	0.100
557.500	-20.122	0.100
557.600	-25.169	0.100
557.700	-11.660	0.100
557.800	-10.590	0.100
557.900	-2.523	0.100
558.000	-14.590	0.100
558.100	-15.864	0.100
558.200	-9.259	0.100
558.300	-22.881	0.100
558.400	-12.742	0.100
558.500	-26.881	0.100
558.600	-22.601	0.100
558.700	-4.724	0.100
558.800	-16.675	0.100
558.900	-11.728	0.100
559.000	-4.683	0.100
559.100	-16.032	0.100
559.200	-9.602	0.100
559.300	-20.833	0.100
559.400	-17.586	0.100
559.500	-17.405	0.100
559.600	-11.210	0.100
559.700	-11.081	0.100
559.800	-7.988	0.100
559.900	-18.892	0.100
560.000	-17.671	0.100
560.100	-15.924	0.100
560.200	-15.391	0.100
560.300	-18.836	0.100
560.400	-22.537	0.100
560.500	-8.458	0.100
560.600	-16.849	0.100
560.700	-30.242	0.100
560.800	-17.943	0.100
560.900	-17.532	0.100
561.000	-8.082	0.100
561.100	-11.809	0.100
561.200	-16.810	0.100
561.300	-17.029	0.100
561.400	-17.311	0.100
561.500	-12.709	0.100
561.600	-24.523	0.100
561.700	-10.516	0.100
561.800	-25.776	0.100
561.900	-16.174	0.100
562.000	-18.392	0.100
562.100	-24.358	0.100
562.200	-7.654	0.100
562.300	-25.573	0.100
562.400	-17.478	0.100
562.500	-19.955	0.100
562.600	-15.085	0.100
562.700	-11.974	0.100
562.800	-10.825	0.100
562.900	-4.197	0.100
563.000	-20.313	0.100
563.100	-7.997	0.100
563.200	-34.159	0.100
563.300	-10.010	0.100
563.400	-26.229	0.100
563.500	-19.702	0.100
563.600	-16.490	0.100
563.700	-16.308	0.100
563.800	-19.291	0.100
563.900	-26.118	0.100
564.000	-22.918	0.100
564.100	-27.045	0.100
564.200	5.147	0.100
564.300	-13.920	0.100
564.400	-11.977	0.100
564.500	-22.706	0.100
564.600	-24.001	0.100
564.700	-20.122	0.100
564.800	-11.669	0.100
564.900	-22.522	0.100
565.000	-10.664	0.100
565.100	-26.262	0.100
565.200	-13.872	0.100
565.300	-24.249	0.100
565.400	-13.042	0.100
565.500	-21.788	0.100
565.600	-23.970	0.100
565.700	-17.219	0.100
565.800	-23.268	0.100
565.900	-18.748	0.100
566.000	-25.163	0.100
566.100	-21.496	0.100
566.200	-12.199	0.100
566.300	-15.233	0.100
566.400	-22.467	0.100
566.500	-16.029	0.100
566.600	-24.888	0.100
566.700	-16.093	0.100
566.800	-23.125	0.100
566.900	-24.614	0.100
567.000	-26.934	0.100
567.100	-22.335	0.100
567.200	-17.422	0.100
567.300	-13.563	0.100
567.400	-18.272	0.100
567.500	-24.268	0.100
567.600	-15.527	0.100
567.700	-22.572	0.100
567.800	-15.998	0.100
567.900	-29.712	0.100
568.000	-25.480	0.100
568.100	-24.172	0.100
568.200	-22.779	0.100
568.300	-25.577	0.100
568.400	-14.304	0.100
568.500	-24.724	0.100
568.600	-13.580	0.100
568.700	-42.331	0.100
568.800	-18.683	0.100
568.900	-9.916	0.100
569.000	-13.436	0.100
569.100	-19.590	0.100
569.200	-29.219	0.100
569.300	-15.405	0.100
569.400	-31.153	0.100
569.500	-18.775	0.100
569.600	-27.667	0.100
569.700	-19.312	0.100
569.800	-15.007	0.100
569.900	-19.892	0.100
570.000	-32.997	0.100
570.100	-25.129	0.100
570.200	-13.351	0.100
570.300	-23.076	0.100
570.400	-20.438	0.100
570.500	-38.078	0.100
570.600	-22.996	0.100
570.700	-21.390	0.100
570.800	-31.890	0.100
570.900	-6.661	0.100
571.000	-25.619	0.100
571.100	-17.527	0.100
571.200	-17.794	0.100
571.300	-14.257	0.100
571.400	-15.233	0.100
571.500	-21.610	0.100
571.600	-21.584	0.100
571.700	-27.049	0.100
571.800	-15.165	0.100
571.900	-24.130	0.100
572.000	-25.115	0.100
572.100	-23.488	0.100
572.200	-31.421	0.100
572.300	-17.570	0.100
572.400	-33.205	0.100
572.500	-27.058	0.100
572.600	-23.907	0.100
572.700	-28.062	0.100
572.800	-13.326	0.100
572.900	-22.298	0.100
573.000	-18.197	0.100
573.100	-20.241	0.100
573.200	-35.990	0.100
573.300	-25.161	0.100
573.400	-23.860	0.100
573.500	-18.229	0.100
573.600	-18.522	0.100
573.700	-23.937	0.100
573.800	-18.644	0.100
573.900	-16.846	0.100
574.000	-22.987	0.100
574.100	-24.766	0.100
574.200	-25.292	0.100
574.300	-29.718	0.100
574.400	-17.326	0.100
574.500	-24.714	0.100
574.600	-38.098	0.100
574.700	-20.363	0.100
574.800	-21.361	0.100
574.900	-35.078	0.100
575.000	-24.407	0.100
575.100	-23.928	0.100
575.200	-24.972	0.100
575.300	-28.924	0.100
575.400	-20.564	0.100
575.500	-18.173	0.100
575.600	-15.993	0.100
575.700	-27.284	0.100
575.800	-19.476	0.100
575.900	-23.555	0.100
576.000	-29.424	0.100
576.100	-19.264	0.100
576.200	-32.126	0.100
576.300	-23.281	0.100
576.400	-38.141	0.100
576.500	-20.339	0.100
576.600	-18.813	0.100
576.700	-25.452	0.100
576.800	-16.007	0.100
576.900	-25.813	0.100
577.000	-23.513	0.100
577.100	-33.655	0.100
577.200	-29.402	0.100
577.300	-33.392	0.100
577.400	-23.237	0.100
577.500	-21.971	0.100
577.600	-22.169	0.100
577.700	-22.891	0.100
577.800	-25.965	0.100
577.900	-20.968	0.100
578.000	-21.695	0.100
578.100	-25.232	0.100
578.200	-30.587	0.100
578.300	-11.500	0.100
578.400	-19.589	0.100
578.500	-28.331	0.100
578.600	-17.011	0.100
578.700	-25.789	0.100
578.800	-35.496	0.100
578.900	-28.442	0.100
579.000	-23.648	0.100
579.100	-26.046	0.100
579.200	-21.407	0.100
579.300	-24.734	0.100
579.400	-19.614	0.100
579.500	-19.148	0.100
579.600	-29.668	0.100
579.700	-13.020	0.100
579.800	-23.667	0.100
579.900	-28.379	0.100
580.000	-20.487	0.100
580.100	-23.621	0.100
580.200	-19.467	0.100
580.300	-27.987	0.100
580.400	-23.010	0.100
580.500	-19.511	0.100
580.600	-33.218	0.100
580.700	-32.961	0.100
580.800	-21.047	0.100
580.900	-32.327	0.100
581.000	-21.188	0.100
581.100	-22.347	0.100
581.200	-15.742	0.100
581.300	-30.397	0.100
581.400	-28.884	0.100
581.500	-35.574	0.100
581.600	-22.602	0.100
581.700	-35.081	0.100
581.800	-26.276	0.100
581.900	-21.478	0.100
582.000	-17.267	0.100
582.100	-19.289	0.100
582.200	-27.130	0.100
582.300	-29.736	0.100
582.400	-18.395	0.100
582.500	-10.262	0.100
582.600	-26.289	0.100
582.700	-28.066	0.100
582.800	-19.722	0.100
582.900	-31.191	0.100
583.000	-16.931	0.100
583.100	-29.164	0.100
583.200	-17.811	0.100
583.300	-15.350	0.100
583.400	-36.763	0.100
583.500	-33.949	0.100
583.600	-21.256	0.100
583.700	-19.511	0.100
583.800	-20.949	0.100
583.900	-22.285	0.100
584.000	-18.918	0.100
584.100	-10.481	0.100
584.200	-28.224	0.100
584.300	-36.243	0.100
584.400	-43.043	0.100
584.500	-25.980	0.100
584.600	-14.737	0.100
584.700	-29.175	0.100
584.800	-27.822	0.100
584.900	-25.774	0.100
585.000	-23.575	0.100
585.100	-24.697	0.100
585.200	-31.011	0.100
585.300	-27.724	0.100
585.400	-24.418	0.100
585.500	-10.435	0.100
585.600	-20.488	0.100
585.700	-12.616	0.100
585.800	-17.378	0.100
585.900	-27.959	0.100
586.000	-26.763	0.100
586.100	-31.183	0.100
586.200	-32.670	0.100
586.300	-32.827	0.100
586.400	-27.054	0.100
586.500	-32.937	0.100
586.600	-20.967	0.100
586.700	-15.140	0.100
586.800	-13.986	0.100
586.900	-22.598	0.100
587.000	-29.849	0.100
587.100	-32.469	0.100
587.200	-29.702	0.100
587.300	-22.824	0.100
587.400	-18.557	0.100
587.500	-32.271	0.100
587.600	-26.934	0.100
587.700	-24.938	0.100
587.800	-24.620	0.100
587.900	-31.413	0.100
588.000	-26.354	0.100
588.100	-26.805	0.100
588.200	-28.115	0.100
588.300	-27.543	0.100
588.400	-25.335	0.100
588.500	-24.098	0.100
588.600	-18.006	0.100
588.700	-24.006	0.100
588.800	-20.514	0.100
588.900	-29.297	0.100
589.000	-26.004	0.100
589.100	-20.970	0.100
589.200	-19.067	0.100
589.300	-17.366	0.100
589.400	-16.765	0.100
589.500	-23.830	0.100
589.600	-40.823	0.100
589.700	-38.988	0.100
589.800	-40.366	0.100
589.900	-16.645	0.100
590.000	-17.084	0.100
590.100	-29.865	0.100
590.200	-19.471	0.100
590.300	-15.467	0.100
590.400	-22.355	0.100
590.500	-28.409	0.100
590.600	-32.131	0.100
590.700	-26.666	0.100
590.800	-30.213	0.100
590.900	-16.469	0.100
591.000	-26.578	0.100
591.100	-14.121	0.100
591.200	-25.113	0.100
591.300	-30.198	0.100
591.400	-20.439	0.100
591.500	-27.905	0.100
591.600	-28.073	0.100
591.700	-31.350	0.100
591.800	-22.161	0.100
591.900	-23.793	0.100
592.000	-21.250	0.100
592.100	-22.777	0.100
592.200	-29.781	0.100
592.300	-31.472	0.100
592.400	-36.483	0.100
592.500	-35.345	0.100
592.600	-15.778	0.100
592.700	-22.408	0.100
592.800	-25.049	0.100
592.900	-29.219	0.100
593.000	-20.511	0.100
593.100	-12.546	0.100
593.200	-20.018	0.100
593.300	-19.081	0.100
593.400	-26.958	0.100
593.500	-24.367	0.100
593.600	-24.814	0.100
593.700	-26.501	0.100
593.800	-30.784	0.100
593.900	-25.733	0.100
594.000	-26.853	0.100
594.100	-28.876	0.100
594.200	-23.916	0.100
594.300	-29.937	0.100
594.400	-31.862	0.100
594.500	-35.338	0.100
594.600	-24.701	0.100
594.700	-17.152	0.100
594.800	-28.659	0.100
594.900	-14.886	0.100
595.000	-19.310	0.100
595.100	-24.069	0.100
595.200	-17.524	0.100
595.300	-23.538	0.100
595.400	-26.071	0.100
595.500	-38.338	0.100
595.600	-16.362	0.100
595.700	-19.927	0.100
595.800	-22.576	0.100
595.900	-22.925	0.100
596.000	-33.072	0.100
596.100	-24.207	0.100
596.200	-32.645	0.100
596.300	-26.799	0.100
596.400	-21.807	0.100
596.500	-26.996	0.100
596.600	-26.162	0.100
596.700	-22.838	0.100
596.800	-19.722	0.100
596.900	-27.416	0.100
597.000	-31.820	0.100
597.100	-37.550	0.100
597.200	-19.852	0.100
597.300	-19.089	0.100
597.400	-22.319	0.100
597.500	-14.709	0.100
597.600	-12.590	0.100
597.700	-24.721	0.100
597.800	-24.039	0.100
597.900	-22.001	0.100
598.000	-21.503	0.100
598.100	-26.853	0.100
598.200	-22.452	0.100
598.300	-21.445	0.100
598.400	-18.613	0.100
598.500	-29.220	0.100
598.600	-26.141	0.100
598.700	-21.956	0.100
598.800	-27.619	0.100
598.900	-14.575	0.100
599.000	-21.984	0.100
599.100	-32.906	0.100
599.200	-27.467	0.100
599.300	-15.269	0.100
599.400	-28.332	0.100
599.500	-23.697	0.100
599.600	-30.207	0.100
599.700	-23.083	0.100
599.800	-18.261	0.100
599.900	-29.789	0.100
600.000	-19.945	0.100
600.100	-14.803	0.100
600.200	-17.995	0.100
600.300	-19.462	0.100
600.400	-17.367	0.100
600.500	-29.177	0.100
600.600	-29.353	0.100
600.700	-32.090	0.100
600.800	-33.487	0.100
600.900	-25.643	0.100
601.000	-19.472	0.100
601.100	-16.100	0.100
601.200	-26.557	0.100
601.300	-30.246	0.100
601.400	-19.272	0.100
601.500	-23.492	0.100
601.600	-25.046	0.100
601.700	-21.260	0.100
601.800	-26.042	0.100
601.900	-19.953	0.100
602.000	-29.270	0.100
602.100	-28.004	0.100
602.200	-20.505	0.100
602.300	-19.169	0.100
602.400	-29.111	0.100
602.500	-20.727	0.100
602.600	-24.890	0.100
602.700	-22.897	0.100
602.800	-28.416	0.100
602.900	-21.099	0.100
603.000	-22.056	0.100
603.100	-37.002	0.100
603.200	-27.903	0.100
603.300	-11.117	0.100
603.400	-8.378	0.100
603.500	-11.977	0.100
603.600	-23.293	0.100
603.700	-26.940	0.100
603.800	-19.954	0.100
603.900	-24.922	0.100
604.000	-28.799	0.100
604.100	-26.828	0.100
604.200	-27.007	0.100
604.300	-28.274	0.100
604.400	-20.922	0.100
604.500	-14.051	0.100
604.600	-13.215	0.100
604.700	-25.670	0.100
604.800	-27.850	0.100
604.900	-24.075	0.100
605.000	-9.029	0.100
605.100	-22.066	0.100
605.200	-26.064	0.100
605.300	-28.900	0.100
605.400	-22.276	0.100
605.500	-27.360	0.100
605.600	-18.184	0.100
605.700	-23.012	0.100
605.800	-21.455	0.100
605.900	-26.136	0.100
606.000	-22.701	0.100
606.100	-36.618	0.100
606.200	-20.578	0.100
606.300	-23.720	0.100
606.400	-24.368	0.100
606.500	-21.770	0.100
606.600	-31.132	0.100
606.700	-34.345	0.100
606.800	-18.734	0.100
606.900	-15.786	0.100
607.000	-13.376	0.100
607.100	-15.844	0.100
607.200	-25.262	0.100
607.300	-31.629	0.100
607.400	-28.478	0.100
607.500	-24.284	0.100
607.600	-25.096	0.100
607.700	-34.453	0.100
607.800	-13.771	0.100
607.900	-32.747	0.100
608.000	-30.586	0.100
608.100	-28.091	0.100
608.200	-28.713	0.100
608.300	-20.749	0.100
608.400	-20.064	0.100
608.500	-23.577	0.100
608.600	-24.211	0.100
608.700	-26.366	0.100
608.800	-24.295	0.100
608.900	-21.842	0.100
609.000	-14.471	0.100
609.100	-12.475	0.100
609.200	-20.125	0.100
609.300	-21.942	0.100
609.400	-15.351	0.100
609.500	-18.335	0.100
609.600	-21.704	0.100
609.700	-26.729	0.100
609.800	-37.000	0.100
609.900	-23.665	0.100
610.000	-23.554	0.100
610.100	-14.467	0.100
610.200	-13.877	0.100
610.300	-29.446	0.100
610.400	-33.639	0.100
610.500	-30.875	0.100
610.600	-23.206	0.100
610.700	-26.487	0.100
610.800	-34.978	0.100
610.900	-27.359	0.100
611.000	-29.131	0.100
611.100	-31.979	0.100
611.200	-24.084	0.100
611.300	-16.995	0.100
611.400	-17.781	0.100
611.500	-18.457	0.100
611.600	-27.423	0.100
611.700	-22.439	0.100
611.800	-15.652	0.100
611.900	-19.381	0.100
612.000	-26.144	0.100
612.100	-18.222	0.100
612.200	-25.998	0.100
612.300	-16.612	0.100
612.400	-34.107	0.100
612.500	-31.255	0.100
612.600	-22.889	0.100
612.700	-29.048	0.100
612.800	-30.475	0.100
612.900	-25.209	0.100
613.000	-31.269	0.100
613.100	-11.859	0.100
613.200	-17.184	0.100
613.300	-21.856	0.100
613.400	-23.654	0.100
613.500	-11.444	0.100
613.600	-19.168	0.100
613.700	-25.106	0.100
613.800	-30.980	0.100
613.900	-19.264	0.100
614.000	-25.002	0.100
614.100	-30.642	0.100
614.200	-20.266	0.100
614.300	-16.329	0.100
614.400	-11.974	0.100
614.500	-22.270	0.100
614.600	-24.185	0.100
614.700	-20.030	0.100
614.800	-38.735	0.100
614.900	-38.384	0.100
615.000	-10.634	0.100
615.100	-13.122	0.100
615.200	-20.464	0.100
615.300	-22.716	0.100
615.400	-16.874	0.100
615.500	-17.717	0.100
615.600	-21.290	0.100
615.700	-29.135	0.100
615.800	-16.656	0.100
615.900	-19.960	0.100
616.000	-35.919	0.100
616.100	-26.851	0.100
616.200	-18.457	0.100
616.300	-21.033	0.100
616.400	-21.461	0.100
616.500	-19.947	0.100
616.600	-22.965	0.100
616.700	-21.375	0.100
616.800	-31.503	0.100
616.900	-10.046	0.100
617.000	-33.100	0.100
617.100	-33.625	0.100
617.200	-20.989	0.100
617.300	-8.794	0.100
617.400	-20.855	0.100
617.500	-19.731	0.100
617.600	-5.627	0.100
617.700	-11.905	0.100
617.800	-23.303	0.100
617.900	-24.267	0.100
618.000	-42.376	0.100
618.100	-14.780	0.100
618.200	-11.533	0.100
618.300	-29.535	0.100
618.400	-27.576	0.100
618.500	-26.950	0.100
618.600	-31.351	0.100
618.700	-31.880	0.100
618.800	-29.135	0.100
618.900	-14.994	0.100
619.000	-18.684	0.100
619.100	-27.490	0.100
619.200	-22.225	0.100
619.300	-16.439	0.100
619.400	-37.720	0.100
619.500	-16.004	0.100
619.600	-22.189	0.100
619.700	-28.801	0.100
619.800	-16.451	0.100
619.900	-15.572	0.100
620.000	-19.965	0.100
620.100	-10.406	0.100
620.200	-18.822	0.100
620.300	-28.541	0.100
620.400	-25.413	0.100
620.500	-21.565	0.100
620.600	-22.401	0.100
620.700	-18.207	0.100
620.800	-25.133	0.100
620.900	-17.712	0.100
621.000	-23.241	0.100
621.100	-22.721	0.100
621.200	-23.332	0.100
621.300	-11.979	0.100
621.400	-20.884	0.100
621.500	-20.303	0.100
621.600	-21.792	0.100
621.700	-18.883	0.100
621.800	-20.999	0.100
621.900	-22.979	0.100
622.000	-28.368	0.100
622.100	-25.871	0.100
622.200	-23.397	0.100
622.300	-37.110	0.100
622.400	-24.947	0.100
622.500	-19.437	0.100
622.600	-22.721	0.100
622.700	-15.928	0.100
622.800	-13.945	0.100
622.900	-17.349	0.100
623.000	-25.532	0.100
623.100	-18.329	0.100
623.200	-18.132	0.100
623.300	-15.288	0.100
623.400	-22.730	0.100
623.500	-9.997	0.100
623.600	-19.162	0.100
623.700	-11.260	0.100
623.800	-30.504	0.100
623.900	-27.720	0.100
624.000	-22.174	0.100
624.100	-15.590	0.100
624.200	-27.926	0.100
624.300	-10.911	0.100
624.400	-19.200	0.100
624.500	-32.256	0.100
624.600	-14.933	0.100
624.700	-19.924	0.100
624.800	-10.864	0.100
624.900	-26.981	0.100
625.000	-23.668	0.100
625.100	-15.438	0.100
625.200	-19.239	0.100
625.300	-20.071	0.100
625.400	-19.869	0.100
625.500	-28.681	0.100
625.600	-15.499	0.100
625.700	-20.746	0.100
625.800	-15.832	0.100
625.900	-24.436	0.100
626.000	-17.662	0.100
626.100	-21.640	0.100
626.200	-18.979	0.100
626.300	-15.665	0.100
626.400	-34.110	0.100
626.500	-28.945	0.100
626.600	-22.143	0.100
626.700	-19.309	0.100
626.800	-9.008	0.100
626.900	-15.216	0.100
627.000	-31.386	0.100
627.100	-34.004	0.100
627.200	-15.243	0.100
627.300	-28.543	0.100
627.400	-23.450	0.100
627.500	-15.559	0.100
627.600	-18.690	0.100
627.700	-16.615	0.100
627.800	-31.018	0.100
627.900	-17.872	0.100
628.000	-26.434	0.100
628.100	-23.416	0.100
628.200	-31.613	0.100
628.300	-20.028	0.100
628.400	-20.710	0.100
628.500	-21.067	0.100
628.600	-15.221	0.100
628.700	-19.721	0.100
628.800	-17.330	0.100
628.900	-15.815	0.100
629.000	-27.539	0.100
629.100	-13.956	0.100
629.200	-18.459	0.100
629.300	-8.808	0.100
629.400	-22.372	0.100
629.500	-21.501	0.100
629.600	-31.341	0.100
629.700	-10.858	0.100
629.800	-25.600	0.100
629.900	-28.376	0.100
630.000	-19.430	0.100
630.100	-15.569	0.100
630.200	-12.846	0.100
630.300	-21.902	0.100
630.400	-12.029	0.100
630.500	-11.065	0.100
630.600	0.055	0.100
630.700	-7.153	0.100
630.800	-4.112	0.100
630.900	-0.931	0.100
631.000	6.200	0.100
631.100	-17.506	0.100
631.200	0.894	0.100
631.300	-8.210	0.100
631.400	1.027	0.100
631.500	7.688	0.100
631.600	15.029	0.100
631.700	5.779	0.100
631.800	21.360	0.100
631.900	0.656	0.100
632.000	6.096	0.100
632.100	-3.038	0.100
632.200	5.229	0.100
632.300	-4.015	0.100
632.400	19.495	0.100
632.500	7.099	0.100
632.600	8.513	0.100
632.700	5.103	0.100
632.800	9.851	0.100
632.900	6.731	0.100
633.000	13.553	0.100
633.100	8.073	0.100
633.200	13.625	0.100
633.300	-0.368	0.100
633.400	16.583	0.100
633.500	8.989	0.100
633.600	8.330	0.100
633.700	3.886	0.100
633.800	10.184	0.100
633.900	18.395	0.100
634.000	14.240	0.100
634.100	-0.348	0.100
634.200	18.865	0.100
634.300	7.008	0.100
634.400	15.319	0.100
634.500	15.212	0.100
634.600	16.180	0.100
634.700	-1.656	0.100
634.800	11.647	0.100
634.900	19.211	0.100
635.000	2.753	0.100
635.100	16.137	0.100
635.200	5.346	0.100
635.300	12.296	0.100
635.400	8.526	0.100
635.500	15.949	0.100
635.600	8.431	0.100
635.700	9.652	0.100
635.800	11.827	0.100
635.900	15.651	0.100
636.000	16.589	0.100
636.100	1.850	0.100
636.200	8.091	0.100
636.300	10.853	0.100
636.400	8.991	0.100
636.500	5.241	0.100
636.600	13.249	0.100
636.700	-0.266	0.100
636.800	14.603	0.100
636.900	11.689	0.100
637.000	16.838	0.100
637.100	9.647	0.100
637.200	7.359	0.100
637.300	6.339	0.100
637.400	4.193	0.100
637.500	15.246	0.100
637.600	12.542	0.100
637.700	14.047	0.100
637.800	10.236	0.100
637.900	0.642	0.100
638.000	3.187	0.100
638.100	-4.025	0.100
638.200	19.024	0.100
638.300	7.681	0.100
638.400	3.209	0.100
638.500	9.791	0.100
638.600	10.456	0.100
638.700	9.851	0.100
638.800	2.427	0.100
638.900	18.084	0.100
639.000	12.571	0.100
639.100	7.619	0.100
639.200	8.110	0.100
639.300	10.949	0.100
639.400	12.363	0.100
639.500	6.837	0.100
639.600	18.186	0.100
639.700	16.041	0.100
639.800	9.583	0.100
639.900	15.251	0.100
640.000	3.821	0.100
640.100	18.337	0.100
640.200	18.506	0.100
640.300	7.689	0.100
640.400	21.878	0.100
640.500	11.278	0.100
640.600	2.097	0.100
640.700	0.448	0.100
640.800	3.169	0.100
640.900	16.984	0.100
641.000	11.987	0.100
641.100	19.132	0.100
641.200	10.524	0.100
641.300	8.102	0.100
641.400	8.351	0.100
641.500	10.118	0.100
641.600	16.138	0.100
641.700	21.949	0.100
641.800	25.361	0.100
641.900	18.194	0.100
642.000	5.895	0.100
642.100	7.332	0.100
642.200	20.765	0.100
642.300	5.769	0.100
642.400	17.689	0.100
642.500	8.608	0.100
642.600	11.523	0.100
642.700	15.092	0.100
642.800	14.436	0.100
642.900	20.637	0.100
643.000	27.738	0.100
643.100	24.755	0.100
643.200	15.288	0.100
643.300	15.140	0.100
643.400	22.452	0.100
643.500	9.502	0.100
643.600	27.172	0.100
643.700	15.696	0.100
643.800	10.502	0.100
643.900	17.484	0.100
644.000	4.980	0.100
644.100	19.087	0.100
644.200	24.318	0.100
644.300	17.141	0.100
644.400	9.235	0.100
644.500	14.302	0.100
644.600	22.202	0.100
644.700	21.098	0.100
644.800	20.336	0.100
644.900	9.968	0.100
645.000	19.111	0.100
645.100	19.668	0.100
645.200	6.055	0.100
645.300	11.101	0.100
645.400	24.924	0.100
645.500	7.685	0.100
645.600	22.722	0.100
645.700	25.835	0.100
645.800	12.414	0.100
645.900	23.857	0.100
646.000	30.017	0.100
646.100	19.182	0.100
646.200	27.198	0.100
646.300	23.732	0.100
646.400	18.721	0.100
646.500	20.886	0.100
646.600	16.728	0.100
646.700	11.681	0.100
646.800	22.223	0.100
646.900	29.648	0.100
647.000	25.755	0.100
647.100	9.319	0.100
647.200	16.204	0.100
647.300	28.618	0.100
647.400	24.212	0.100
647.500	18.325	0.100
647.600	30.585	0.100
647.700	20.000	0.100
647.800	21.399	0.100
647.900	22.114	0.100
648.000	25.971	0.100
648.100	15.092	0.100
648.200	31.589	0.100
648.300	23.340	0.100
648.400	23.392	0.100
648.500	25.320	0.100
648.600	23.813	0.100
648.700	18.686	0.100
648.800	34.748	0.100
648.900	29.432	0.100
649.000	16.642	0.100
649.100	16.548	0.100
649.200	34.095	0.100
649.300	39.127	0.100
649.400	31.816	0.100
649.500	35.673	0.100
649.600	28.291	0.100
649.700	29.069	0.100
649.800	29.294	0.100
649.900	25.163	0.100
650.000	34.546	0.100
650.100	21.309	0.100
650.200	16.667	0.100
650.300	37.465	0.100
650.400	40.796	0.100
650.500	29.623	0.100
650.600	26.444	0.100
650.700	30.032	0.100
650.800	27.693	0.100
650.900	27.437	0.100
651.000	25.728	0.100
651.100	30.143	0.100
651.200	38.189	0.100
651.300	30.041	0.100
651.400	24.822	0.100
651.500	35.162	0.100
651.600	39.831	0.100
651.700	33.717	0.100
651.800	29.813	0.100
651.900	26.464	0.100
652.000	38.802	0.100
652.100	28.587	0.100
652.200	24.734	0.100
652.300	37.289	0.100
652.400	48.548	0.100
652.500	41.328	0.100
652.600	32.212	0.100
652.700	35.784	0.100
652.800	25.793	0.100
652.900	29.633	0.100
653.000	33.290	0.100
653.100	33.494	0.100
653.200	52.686	0.100
653.300	39.953	0.100
653.400	23.965	0.100
653.500	34.338	0.100
653.600	34.056	0.100
653.700	32.836	0.100
653.800	30.539	0.100
653.900	31.647	0.100
654.000	43.826	0.100
654.100	38.989	0.100
654.200	37.134	0.100
654.300	29.424	0.100
654.400	28.424	0.100
654.500	41.594	0.100
654.600	43.157	0.100
654.700	33.582	0.100
654.800	20.583	0.100
654.900	35.511	0.100
655.000	48.825	0.100
655.100	47.827	0.100
655.200	39.495	0.100
655.300	36.559	0.100
655.400	38.031	0.100
655.500	36.894	0.100
655.600	31.889	0.100
655.700	26.066	0.100
655.800	40.143	0.100
655.900	37.797	0.100
656.000	41.223	0.100
656.100	39.467	0.100
656.200	35.782	0.100
656.300	32.019	0.100
656.400	45.441	0.100
656.500	42.591	0.100
656.600	35.038	0.100
656.700	40.798	0.100
656.800	32.859	0.100
656.900	38.145	0.100
657.000	41.822	0.100
657.100	42.872	0.100
657.200	35.607	0.100
657.300	35.494	0.100
657.400	32.668	0.100
657.500	37.183	0.100
657.600	33.189	0.100
657.700	37.995	0.100
657.800	33.467	0.100
657.900	30.422	0.100
658.000	34.615	0.100
658.100	47.288	0.100
658.200	44.762	0.100
658.300	37.531	0.100
658.400	32.744	0.100
658.500	31.008	0.100
658.600	36.259	0.100
658.700	47.742	0.100
658.800	44.352	0.100
658.900	38.253	0.100
659.000	33.501	0.100
659.100	29.206	0.100
659.200	32.423	0.100
659.300	41.158	0.100
659.400	46.018	0.100
659.500	37.883	0.100
659.600	30.706	0.100
659.700	32.736	0.100
659.800	36.637	0.100
659.900	44.275	0.100
660.000	48.273	0.100
660.100	46.265	0.100
660.200	31.321	0.100
660.300	47.401	0.100
660.400	33.036	0.100
660.500	26.533	0.100
660.600	38.325	0.100
660.700	45.682	0.100
660.800	49.576	0.100
660.900	46.639	0.100
661.000	31.993	0.100
661.100	40.771	0.100
661.200	31.929	0.100
661.300	40.904	0.100
661.400	39.806	0.100
661.500	45.096	0.100
661.600	36.172	0.100
661.700	37.850	0.100
661.800	41.670	0.100
661.900	30.385	0.100
662.000	39.887	0.100
662.100	42.430	0.100
662.200	41.220	0.100
662.300	43.120	0.100
662.400	43.029	0.100
662.500	46.276	0.100
662.600	35.818	0.100
662.700	22.663	0.100
662.800	37.331	0.100
662.900	35.107	0.100
663.000	49.307	0.100
663.100	40.488	0.100
663.200	38.522	0.100
663.300	38.357	0.100
663.400	48.455	0.100
663.500	38.696	0.100
663.600	31.494	0.100
663.700	44.715	0.100
663.800	51.764	0.100
663.900	27.952	0.100
664.000	45.629	0.100
664.100	45.577	0.100
664.200	47.122	0.100
664.300	38.877	0.100
664.400	40.674	0.100
664.500	27.828	0.100
664.600	31.900	0.100
664.700	38.091	0.100
664.800	46.999	0.100
664.900	40.746	0.100
665.000	45.533	0.100
665.100	43.594	0.100
665.200	38.495	0.100
665.300	47.552	0.100
665.400	41.902	0.100
665.500	42.224	0.100
665.600	36.441	0.100
665.700	35.253	0.100
665.800	34.273	0.100
665.900	41.351	0.100
666.000	44.914	0.100
666.100	44.038	0.100
666.200	47.252	0.100
666.300	31.981	0.100
666.400	41.568	0.100
666.500	37.454	0.100
666.600	39.204	0.100
666.700	43.669	0.100
666.800	40.723	0.100
666.900	38.070	0.100
667.000	35.246	0.100
667.100	30.818	0.100
667.200	42.540	0.100
667.300	36.718	0.100
667.400	45.736	0.100
667.500	39.668	0.100
667.600	47.429	0.100
667.700	45.104	0.100
667.800	40.147	0.100
667.900	42.199	0.100
668.000	47.478	0.100
668.100	36.187	0.100
668.200	39.756	0.100
668.300	35.556	0.100
668.400	38.050	0.100
668.500	21.067	0.100
668.600	39.512	0.100
668.700	34.291	0.100
668.800	43.180	0.100
668.900	39.370	0.100
669.000	48.452	0.100
669.100	37.794	0.100
669.200	29.583	0.100
669.300	40.500	0.100
669.400	46.970	0.100
669.500	43.694	0.100
669.600	36.844	0.100
669.700	41.317	0.100
669.800	35.096	0.100
669.900	39.114	0.100
670.000	46.964	0.100
670.100	39.600	0.100
670.200	42.131	0.100
670.300	28.196	0.100
670.400	37.952	0.100
670.500	38.962	0.100
670.600	49.755	0.100
670.700	38.665	0.100
670.800	37.751	0.100
670.900	39.230	0.100
671.000	40.049	0.100
671.100	38.450	0.100
671.200	41.851	0.100
671.300	45.446	0.100
671.400	37.094	0.100
671.500	35.739	0.100
671.600	42.790	0.100
671.700	36.857	0.100
671.800	36.241	0.100
671.900	45.647	0.100
672.000	30.746	0.100
672.100	33.509	0.100
672.200	37.003	0.100
672.300	43.537	0.100
672.400	30.476	0.100
672.500	30.774	0.100
672.600	30.758	0.100
672.700	42.432	0.100
672.800	40.716	0.100
672.900	43.086	0.100
673.000	27.210	0.100
673.100	36.946	0.100
673.200	45.738	0.100
673.300	33.253	0.100
673.400	40.545	0.100
673.500	38.305	0.100
673.600	38.858	0.100
673.700	37.763	0.100
673.800	32.318	0.100
673.900	35.593	0.100
674.000	39.638	0.100
674.100	44.694	0.100
674.200	43.789	0.100
674.300	41.199	0.100
674.400	38.230	0.100
674.500	31.293	0.100
674.600	35.832	0.100
674.700	38.266	0.100
674.800	29.277	0.100
674.900	36.602	0.100
675.000	37.764	0.100
675.100	40.101	0.100
675.200	43.897	0.100
675.300	38.132	0.100
675.400	36.477	0.100
675.500	40.646	0.100
675.600	37.899	0.100
675.700	48.090	0.100
675.800	26.581	0.100
675.900	41.407	0.100
676.000	42.690	0.100
676.100	37.696	0.100
676.200	39.988	0.100
676.300	27.481	0.100
676.400	40.571	0.100
676.500	47.833	0.100
676.600	47.033	0.100
676.700	42.904	0.100
676.800	41.256	0.100
676.900	38.744	0.100
677.000	45.130	0.100
677.100	36.907	0.100
677.200	31.743	0.100
677.300	34.857	0.100
677.400	45.230	0.100
677.500	39.917	0.100
677.600	36.680	0.100
677.700	42.645	0.100
677.800	39.642	0.100
677.900	39.526	0.100
678.000	31.727	0.100
678.100	28.171	0.100
678.200	43.650	0.100
678.300	41.716	0.100
678.400	41.397	0.100
678.500	45.167	0.100
678.600	41.008	0.100
678.700	46.951	0.100
678.800	43.726	0.100
678.900	39.201	0.100
679.000	46.255	0.100
679.100	39.323	0.100
679.200	41.049	0.100
679.300	38.266	0.100
679.400	35.224	0.100
679.500	36.135	0.100
679.600	36.571	0.100
679.700	40.070	0.100
679.800	45.195	0.100
679.900	40.125	0.100
680.000	37.879	0.100
680.100	42.305	0.100
680.200	42.624	0.100
680.300	36.722	0.100
680.400	46.998	0.100
680.500	40.678	0.100
680.600	33.704	0.100
680.700	41.708	0.100
680.800	43.676	0.100
680.900	40.542	0.100
681.000	35.920	0.100
681.100	43.668	0.100
681.200	40.849	0.100
681.300	53.808	0.100
681.400	27.126	0.100
681.500	40.846	0.100
681.600	30.648	0.100
681.700	40.187	0.100
681.800	36.736	0.100
681.900	33.787	0.100
682.000	43.650	0.100
682.100	38.067	0.100
682.200	39.592	0.100
682.300	42.943	0.100
682.400	45.214	0.100
682.500	38.440	0.100
682.600	39.331	0.100
682.700	49.041	0.100
682.800	43.036	0.100
682.900	35.367	0.100
683.000	30.032	0.100
683.100	45.541	0.100
683.200	41.003	0.100
683.300	47.275	0.100
683.400	41.315	0.100
683.500	40.960	0.100
683.600	37.595	0.100
683.700	29.283	0.100
683.800	29.409	0.100
683.900	48.084	0.100
684.000	44.092	0.100
684.100	36.189	0.100
684.200	34.867	0.100
684.300	56.495	0.100
684.400	36.882	0.100
684.500	29.844	0.100
684.600	37.499	0.100
684.700	43.958	0.100
684.800	37.633	0.100
684.900	48.773	0.100
685.000	30.501	0.100
685.100	30.958	0.100
685.200	36.294	0.100
685.300	38.248	0.100
685.400	32.754	0.100
685.500	52.532	0.100
685.600	45.731	0.100
685.700	42.339	0.100
685.800	38.487	0.100
685.900	40.714	0.100
686.000	36.488	0.100
686.100	41.440	0.100
686.200	41.067	0.100
686.300	42.810	0.100
686.400	41.272	0.100
686.500	36.359	0.100
686.600	48.375	0.100
686.700	44.467	0.100
686.800	31.401	0.100
686.900	42.430	0.100
687.000	50.608	0.100
687.100	32.440	0.100
687.200	30.765	0.100
687.300	46.308	0.100
687.400	38.250	0.100
687.500	39.511	0.100
687.600	41.487	0.100
687.700	43.633	0.100
687.800	42.753	0.100
687.900	43.490	0.100
688.000	40.325	0.100
688.100	44.018	0.100
688.200	49.712	0.100
688.300	49.670	0.100
688.400	35.281	0.100
688.500	39.625	0.100
688.600	35.309	0.100
688.700	43.459	0.100
688.800	40.194	0.100
688.900	47.113	0.100
689.000	41.482	0.100
689.100	36.259	0.100
689.200	39.027	0.100
689.300	41.028	0.100
689.400	40.845	0.100
689.500	51.690	0.100
689.600	33.526	0.100
689.700	43.957	0.100
689.800	41.919	0.100
689.900	34.737	0.100
690.000	42.966	0.100
690.100	25.884	0.100
690.200	21.213	0.100
690.300	31.005	0.100
690.400	22.829	0.100
690.500	33.212	0.100
690.600	24.659	0.100
690.700	18.434	0.100
690.800	23.435	0.100
690.900	26.905	0.100
691.000	29.150	0.100
691.100	13.543	0.100
691.200	10.864	0.100
691.300	7.586	0.100
691.400	12.513	0.100
691.500	20.548	0.100
691.600	6.742	0.100
691.700	5.957	0.100
691.800	4.971	0.100
691.900	16.096	0.100
692.000	17.782	0.100
692.100	-1.709	0.100
692.200	5.776	0.100
692.300	7.542	0.100
692.400	2.340	0.100
692.500	-0.656	0.100
692.600	-11.854	0.100
692.700	9.817	0.100
692.800	5.373	0.100
692.900	2.694	0.100
693.000	2.295	0.100
693.100	9.262	0.100
693.200	-15.037	0.100
693.300	-12.090	0.100
693.400	1.159	0.100
693.500	3.859	0.100
693.600	-7.393	0.100
693.700	-0.746	0.100
693.800	-6.852	0.100
693.900	1.374	0.100
694.000	-2.560	0.100
694.100	-0.821	0.100
694.200	-7.491	0.100
694.300	5.450	0.100
694.400	-7.266	0.100
694.500	-8.241	0.100
694.600	-9.810	0.100
694.700	-2.828	0.100
694.800	8.818	0.100
694.900	-5.676	0.100
695.000	-5.978	0.100
695.100	-13.808	0.100
695.200	-2.885	0.100
695.300	-8.609	0.100
695.400	-4.490	0.100
695.500	-3.122	0.100
695.600	-2.208	0.100
695.700	-0.762	0.100
695.800	-13.001	0.100
695.900	-0.152	0.100
696.000	-11.725	0.100
696.100	-8.884	0.100
696.200	-13.262	0.100
696.300	-10.462	0.100
696.400	-0.984	0.100
696.500	-7.154	0.100
696.600	-3.356	0.100
696.700	10.557	0.100
696.800	-10.680	0.100
696.900	-1.215	0.100
697.000	2.208	0.100
697.100	-3.152	0.100
697.200	-4.851	0.100
697.300	-12.837	0.100
697.400	-3.069	0.100
697.500	-5.675	0.100
697.600	-4.331	0.100
697.700	-13.740	0.100
697.800	-8.094	0.100
697.900	-7.957	0.100
698.000	-9.735	0.100
698.100	4.571	0.100
698.200	5.235	0.100
698.300	-4.564	0.100
698.400	-4.417	0.100
698.500	-1.412	0.100
698.600	-6.182	0.100
698.700	-10.923	0.100
698.800	-4.688	0.100
698.900	-8.233	0.100
699.000	-12.528	0.100
699.100	-4.346	0.100
699.200	-5.992	0.100
699.300	-6.157	0.100
699.400	-5.419	0.100
699.500	-5.101	0.100
699.600	-9.453	0.100
699.700	-11.391	0.100
699.800	-1.018	0.100
699.900	-7.596	0.100
700.000	-13.589	0.100
700.100	-4.194	0.100
700.200	-5.317	0.100
700.300	-2.284	0.100
700.400	-15.836	0.100
700.500	-1.461	0.100
700.600	-7.949	0.100
700.700	-14.958	0.100
700.800	-7.750	0.100
700.900	-1.724	0.100
701.000	-11.753	0.100
701.100	-12.688	0.100
701.200	-7.987	0.100
701.300	-4.946	0.100
701.400	-6.095	0.100
701.500	-0.023	0.100
701.600	-7.010	0.100
701.700	-10.378	0.100
701.800	-14.057	0.100
701.900	-16.458	0.100
702.000	-11.940	0.100
702.100	-7.710	0.100
702.200	-2.600	0.100
702.300	-18.966	0.100
702.400	-3.200	0.100
702.500	-4.870	0.100
702.600	-5.886	0.100
702.700	-16.472	0.100
702.800	-15.650	0.100
702.900	-16.718	0.100
703.000	-7.165	0.100
703.100	-10.392	0.100
703.200	-8.486	0.100
703.300	-6.137	0.100
703.400	-22.312	0.100
703.500	-11.149	0.100
703.600	-15.032	0.100
703.700	-3.768	0.100
703.800	-12.387	0.100
703.900	-16.657	0.100
704.000	-17.553	0.100
704.100	-3.288	0.100
704.200	-17.753	0.100
704.300	-16.689	0.100
704.400	-13.178	0.100
704.500	-11.017	0.100
704.600	-17.268	0.100
704.700	-8.714	0.100
704.800	-18.303	0.100
704.900	-1.953	0.100
705.000	-6.026	0.100
705.100	-9.109	0.100
705.200	-7.759	0.100
705.300	-20.392	0.100
705.400	-21.892	0.100
705.500	-8.336	0.100
705.600	-7.139	0.100
705.700	-14.242	0.100
705.800	-12.401	0.100
705.900	-8.382	0.100
706.000	-14.261	0.100
706.100	-21.697	0.100
706.200	-9.477	0.100
706.300	-23.140	0.100
706.400	-12.497	0.100
706.500	-17.439	0.100
706.600	-6.570	0.100
706.700	-2.926	0.100
706.800	-19.384	0.100
706.900	-15.361	0.100
707.000	-16.389	0.100
707.100	-34.582	0.100
707.200	-12.006	0.100
707.300	-16.836	0.100
707.400	-11.938	0.100
707.500	-11.612	0.100
707.600	-16.847	0.100
707.700	-15.054	0.100
707.800	-14.830	0.100
707.900	-20.382	0.100
708.000	-13.743	0.100
708.100	-21.757	0.100
708.200	-20.436	0.100
708.300	-2.806	0.100
708.400	-7.199	0.100
708.500	-18.372	0.100
708.600	-14.421	0.100
708.700	-18.172	0.100
708.800	-5.841	0.100
708.900	-21.203	0.100
709.000	-25.667	0.100
709.100	2.256	0.100
709.200	-7.899	0.100
709.300	-0.623	0.100
709.400	-21.755	0.100
709.500	-25.360	0.100
709.600	-10.236	0.100
709.700	-13.667	0.100
709.800	-13.355	0.100
709.900	-15.104	0.100
710.000	-20.228	0.100
710.100	-11.439	0.100
710.200	-14.606	0.100
710.300	-12.136	0.100
710.400	-23.488	0.100
710.500	-16.281	0.100
710.600	-19.576	0.100
710.700	-3.004	0.100
710.800	-19.517	0.100
710.900	-7.842	0.100
711.000	-26.862	0.100
711.100	-11.658	0.100
711.200	-16.362	0.100
711.300	-29.084	0.100
711.400	-17.964	0.100
711.500	-13.486	0.100
711.600	-23.496	0.100
711.700	-22.489	0.100
711.800	-22.961	0.100
711.900	-11.075	0.100
712.000	-7.826	0.100
712.100	-6.068	0.100
712.200	-25.437	0.100
712.300	-15.727	0.100
712.400	-5.047	0.100
712.500	-20.690	0.100
712.600	-12.747	0.100
712.700	-20.567	0.100
712.800	-21.260	0.100
712.900	-16.296	0.100
713.000	-19.319	0.100
713.100	-11.731	0.100
713.200	-25.796	0.100
713.300	-22.538	0.100
713.400	-31.203	0.100
713.500	-20.296	0.100
713.600	-14.015	0.100
713.700	-22.269	0.100
713.800	-13.202	0.100
713.900	-16.834	0.100
714.000	-14.865	0.100
714.100	-22.196	0.100
714.200	-13.711	0.100
714.300	-14.633	0.100
714.400	-18.832	0.100
714.500	-16.739	0.100
714.600	-22.579	0.100
714.700	-18.565	0.100
714.800	-28.912	0.100
714.900	-20.058	0.100
715.000	-20.848	0.100
715.100	-19.878	0.100
715.200	-18.358	0.100
715.300	-25.352	0.100
715.400	-23.283	0.100
715.500	-14.771	0.100
715.600	-12.687	0.100
715.700	-21.113	0.100
715.800	-25.995	0.100
715.900	-12.006	0.100
716.000	-17.987	0.100
716.100	-16.403	0.100
716.200	-20.381	0.100
716.300	-16.399	0.100
716.400	-23.853	0.100
716.500	-18.841	0.100
716.600	-28.270	0.100
716.700	-16.411	0.100
716.800	-21.410	0.100
716.900	-13.267	0.100
717.000	-12.477	0.100
717.100	-27.014	0.100
717.200	-31.191	0.100
717.300	-27.162	0.100
717.400	-15.781	0.100
717.500	-28.695	0.100
717.600	-27.314	0.100
717.700	-7.779	0.100
717.800	-15.369	0.100
717.900	-12.701	0.100
718.000	-15.866	0.100
718.100	-19.855	0.100
718.200	-21.506	0.100
718.300	-32.147	0.100
718.400	-19.041	0.100
718.500	-21.520	0.100
718.600	-16.498	0.100
718.700	-15.781	0.100
718.800	-34.724	0.100
718.900	-25.074	0.100
719.000	-13.739	0.100
719.100	-20.298	0.100
719.200	-23.845	0.100
719.300	-22.654	0.100
719.400	-21.819	0.100
719.500	-16.522	0.100
719.600	-15.880	0.100
719.700	-20.538	0.100
719.800	-16.879	0.100
719.900	-26.100	0.100
720.000	-22.125	0.100
720.100	-25.175	0.100
720.200	-17.194	0.100
720.300	-21.018	0.100
720.400	-29.674	0.100
720.500	-10.307	0.100
720.600	-28.177	0.100
720.700	-25.013	0.100
720.800	-24.343	0.100
720.900	-17.343	0.100
721.000	-17.031	0.100
721.100	-28.852	0.100
721.200	-18.276	0.100
721.300	-14.853	0.100
721.400	-21.388	0.100
721.500	-16.011	0.100
721.600	-27.798	0.100
721.700	-24.554	0.100
721.800	-27.893	0.100
721.900	-23.986	0.100
722.000	-24.600	0.100
722.100	-15.609	0.100
722.200	-24.325	0.100
722.300	-16.859	0.100
722.400	-16.514	0.100
722.500	-29.022	0.100
722.600	-32.952	0.100
722.700	-25.369	0.100
722.800	-4.883	0.100
722.900	-24.679	0.100
723.000	-17.656	0.100
723.100	-24.519	0.100
723.200	-17.197	0.100
723.300	-21.194	0.100
723.400	-30.911	0.100
723.500	-26.454	0.100
723.600	-24.475	0.100
723.700	-20.923	0.100
723.800	-8.670	0.100
723.900	-29.126	0.100
724.000	-29.064	0.100
724.100	-25.368	0.100
724.200	-15.879	0.100
724.300	-24.418	0.100
724.400	-12.269	0.100
724.500	-20.223	0.100
724.600	-25.350	0.100
724.700	-22.918	0.100
724.800	-23.439	0.100
724.900	-25.171	0.100
725.000	-12.450	0.100
725.100	-16.603	0.100
725.200	-16.949	0.100
725.300	-24.743	0.100
725.400	-32.624	0.100
725.500	-26.041	0.100
725.600	-29.771	0.100
725.700	-21.398	0.100
725.800	-23.114	0.100
725.900	-23.052	0.100
726.000	-20.398	0.100
726.100	-24.034	0.100
726.200	-15.829	0.100
726.300	-18.358	0.100
726.400	-16.032	0.100
726.500	-10.973	0.100
726.600	-28.050	0.100
726.700	-20.509	0.100
726.800	-19.230	0.100
726.900	-18.613	0.100
727.000	-24.477	0.100
727.100	-26.648	0.100
727.200	-18.010	0.100
727.300	-20.022	0.100
727.400	-21.516	0.100
727.500	-23.562	0.100
727.600	-31.570	0.100
727.700	-29.629	0.100
727.800	-26.800	0.100
727.900	-16.369	0.100
728.000	-36.492	0.100
728.100	-29.415	0.100
728.200	-22.601	0.100
728.300	-20.361	0.100
728.400	-21.199	0.100
728.500	-22.063	0.100
728.600	-22.506	0.100
728.700	-31.182	0.100
728.800	-15.210	0.100
728.900	-24.425	0.100
729.000	-21.172	0.100
729.100	-17.711	0.100
729.200	-21.065	0.100
729.300	-24.990	0.100
729.400	-30.157	0.100
729.500	-19.212	0.100
729.600	-28.850	0.100
729.700	-28.099	0.100
729.800	-30.887	0.100
729.900	-27.265	0.100
730.000	-16.803	0.100
730.100	-24.798	0.100
730.200	-28.181	0.100
730.300	-28.649	0.100
730.400	-29.336	0.100
730.500	-18.683	0.100
730.600	-31.079	0.100
730.700	-21.054	0.100
730.800	-32.628	0.100
730.900	-33.668	0.100
731.000	-17.277	0.100
731.100	-28.374	0.100
731.200	-21.297	0.100
731.300	-31.747	0.100
731.400	-18.156	0.100
731.500	-16.632	0.100
731.600	-22.347	0.100
731.700	-16.236	0.100
731.800	-23.766	0.100
731.900	-16.619	0.100
732.000	-20.693	0.100
732.100	-30.098	0.100
732.200	-21.175	0.100
732.300	-28.945	0.100
732.400	-23.476	0.100
732.500	-32.042	0.100
732.600	-25.811	0.100
732.700	-29.404	0.100
732.800	-22.282	0.100
732.900	-21.885	0.100
733.000	-24.559	0.100
733.100	-20.293	0.100
733.200	-20.489	0.100
733.300	-27.251	0.100
733.400	-15.486	0.100
733.500	-25.527	0.100
733.600	-31.634	0.100
733.700	-24.998	0.100
733.800	-22.382	0.100
733.900	-35.718	0.100
734.000	-27.187	0.100
734.100	-20.300	0.100
734.200	-29.120	0.100
734.300	-30.687	0.100
734.400	-14.656	0.100
734.500	-22.484	0.100
734.600	-31.001	0.100
734.700	-25.321	0.100
734.800	-21.155	0.100
734.900	-37.055	0.100
735.000	-28.639	0.100
735.100	-16.998	0.100
735.200	-25.356	0.100
735.300	-28.717	0.100
735.400	-37.049	0.100
735.500	-36.272	0.100
735.600	-23.357	0.100
735.700	-16.774	0.100
735.800	-20.645	0.100
735.900	-21.256	0.100
736.000	-29.596	0.100
736.100	-29.947	0.100
736.200	-24.954	0.100
736.300	-19.641	0.100
736.400	-20.982	0.100
736.500	-20.519	0.100
736.600	-25.586	0.100
736.700	-28.140	0.100
736.800	-23.818	0.100
736.900	-22.227	0.100
737.000	-18.987	0.100
737.100	-20.640	0.100
737.200	-26.831	0.100
737.300	-16.488	0.100
737.400	-22.589	0.100
737.500	-31.482	0.100
737.600	-26.214	0.100
737.700	-29.635	0.100
737.800	-21.393	0.100
737.900	-18.027	0.100
738.000	-34.291	0.100
738.100	-29.269	0.100
738.200	-24.200	0.100
738.300	-22.131	0.100
738.400	-26.669	0.100
738.500	-22.577	0.100
738.600	-29.674	0.100
738.700	-31.457	0.100
738.800	-24.237	0.100
738.900	-24.312	0.100
739.000	-27.826	0.100
739.100	-20.571	0.100
739.200	-26.226	0.100
739.300	-10.305	0.100
739.400	-7.824	0.100
739.500	-27.534	0.100
739.600	-33.705	0.100
739.700	-31.969	0.100
739.800	-24.759	0.100
739.900	-24.356	0.100
740.000	-21.834	0.100
740.100	-20.439	0.100
740.200	-19.795	0.100
740.300	-24.403	0.100
740.400	-24.496	0.100
740.500	-24.887	0.100
740.600	-25.751	0.100
740.700	-25.370	0.100
740.800	-29.986	0.100
740.900	-26.866	0.100
741.000	-28.490	0.100
741.100	-23.032	0.100
741.200	-19.753	0.100
741.300	-25.259	0.100
741.400	-26.065	0.100
741.500	-23.399	0.100
741.600	-27.191	0.100
741.700	-35.590	0.100
741.800	-25.593	0.100
741.900	-34.366	0.100
742.000	-28.579	0.100
742.100	-25.893	0.100
742.200	-20.466	0.100
742.300	-23.699	0.100
742.400	-22.749	0.100
742.500	-23.994	0.100
742.600	-10.073	0.100
742.700	-26.991	0.100
742.800	-25.948	0.100
742.900	-18.218	0.100
743.000	-20.746	0.100
743.100	-31.645	0.100
743.200	-30.536	0.100
743.300	-33.631	0.100
743.400	-28.446	0.100
743.500	-23.056	0.100
743.600	-19.409	0.100
743.700	-23.191	0.100
743.800	-28.557	0.100
743.900	-20.036	0.100
744.000	-24.395	0.100
744.100	-17.089	0.100
744.200	-29.122	0.100
744.300	-21.386	0.100
744.400	-34.816	0.100
744.500	-25.849	0.100
744.600	-31.852	0.100
744.700	-22.377	0.100
744.800	-8.713	0.100
744.900	-28.389	0.100
745.000	-25.831	0.100
745.100	-26.606	0.100
745.200	-20.181	0.100
745.300	-26.282	0.100
745.400	-20.933	0.100
745.500	-25.578	0.100
745.600	-21.092	0.100
745.700	-22.054	0.100
745.800	-33.357	0.100
745.900	-21.413	0.100
746.000	-19.882	0.100
746.100	-28.632	0.100
746.200	-20.178	0.100
746.300	-20.762	0.100
746.400	-19.879	0.100
746.500	-26.080	0.100
746.600	-17.950	0.100
746.700	-30.924	0.100
746.800	-26.581	0.100
746.900	-22.692	0.100
747.000	-25.356	0.100
747.100	-27.278	0.100
747.200	-23.837	0.100
747.300	-26.792	0.100
747.400	-21.440	0.100
747.500	-31.700	0.100
747.600	-27.510	0.100
747.700	-23.419	0.100
747.800	-19.970	0.100
747.900	-15.407	0.100
748.000	-27.264	0.100
748.100	-25.431	0.100
748.200	-24.903	0.100
748.300	-25.324	0.100
748.400	-26.987	0.100
748.500	-24.820	0.100
748.600	-35.915	0.100
748.700	-29.298	0.100
748.800	-29.088	0.100
748.900	-28.403	0.100
749.000	-31.107	0.100
749.100	-18.279	0.100
749.200	-18.640	0.100
749.300	-23.381	0.100
749.400	-18.313	0.100
749.500	-20.395	0.100
749.600	-30.506	0.100
749.700	-26.256	0.100
749.800	-17.557	0.100
749.900	-18.360	0.100
750.000	-39.980	0.100
750.100	-28.606	0.100
750.200	-17.651	0.100
750.300	-23.297	0.100
750.400	-19.775	0.100
750.500	-18.466	0.100
750.600	-25.502	0.100
750.700	-37.364	0.100
750.800	-20.738	0.100
750.900	-13.427	0.100
751.000	-20.453	0.100
751.100	-21.815	0.100
751.200	-19.981	0.100
751.300	-17.647	0.100
751.400	-23.936	0.100
751.500	-41.362	0.100
751.600	-17.630	0.100
751.700	-23.103	0.100
751.800	-18.713	0.100
751.900	-18.516	0.100
752.000	-25.980	0.100
752.100	-18.844	0.100
752.200	-23.587	0.100
752.300	-22.979	0.100
752.400	-24.506	0.100
752.500	-27.015	0.100
752.600	-29.598	0.100
752.700	-21.973	0.100
752.800	-26.336	0.100
752.900	-22.802	0.100
753.000	-34.585	0.100
753.100	-19.337	0.100
753.200	-17.560	0.100
753.300	-18.316	0.100
753.400	-13.999	0.100
753.500	-21.589	0.100
753.600	-30.181	0.100
753.700	-17.974	0.100
753.800	-26.673	0.100
753.900	-20.346	0.100
754.000	-28.658	0.100
754.100	-30.571	0.100
754.200	-24.931	0.100
754.300	-22.106	0.100
754.400	-29.063	0.100
754.500	-21.483	0.100
754.600	-32.813	0.100
754.700	-23.024	0.100
754.800	-31.435	0.100
754.900	-13.560	0.100
755.000	-28.331	0.100
755.100	-17.293	0.100
755.200	-22.470	0.100
755.300	-17.756	0.100
755.400	-30.369	0.100
755.500	-13.345	0.100
755.600	-23.084	0.100
755.700	-27.279	0.100
755.800	-31.737	0.100
755.900	-24.470	0.100
756.000	-15.525	0.100
756.100	-23.879	0.100
756.200	-24.483	0.100
756.300	-22.022	0.100
756.400	-27.871	0.100
756.500	-13.777	0.100
756.600	-6.890	0.100
756.700	-30.032	0.100
756.800	-28.529	0.100
756.900	-22.686	0.100
757.000	-25.101	0.100
757.100	-17.190	0.100
757.200	-28.075	0.100
757.300	-20.609	0.100
757.400	-18.760	0.100
757.500	-17.255	0.100
757.600	-25.582	0.100
757.700	-18.424	0.100
757.800	-23.095	0.100
757.900	-29.301	0.100
758.000	-31.854	0.100
758.100	-17.560	0.100
758.200	-20.416	0.100
758.300	-30.020	0.100
758.400	-32.970	0.100
758.500	-19.615	0.100
758.600	-26.635	0.100
758.700	-27.193	0.100
758.800	-24.780	0.100
758.900	-19.839	0.100
759.000	-23.375	0.100
759.100	-19.689	0.100
759.200	-16.291	0.100
759.300	-30.651	0.100
759.400	-22.279	0.100
759.500	-24.686	0.100
759.600	-18.535	0.100
759.700	-21.764	0.100
759.800	-29.091	0.100
759.900	-31.570	0.100
760.000	-24.466	0.100
760.100	-37.888	0.100
760.200	-23.841	0.100
760.300	-15.009	0.100
760.400	-12.357	0.100
760.500	-19.726	0.100
760.600	-25.117	0.100
760.700	-19.085	0.100
760.800	-17.050	0.100
760.900	-23.113	0.100
761.000	-20.793	0.100
761.100	-22.718	0.100
761.200	-14.809	0.100
761.300	-17.700	0.100
761.400	-25.465	0.100
761.500	-31.059	0.100
761.600	-30.230	0.100
761.700	-9.213	0.100
761.800	-20.886	0.100
761.900	-26.017	0.100
762.000	-25.198	0.100
762.100	-19.478	0.100
762.200	-16.403	0.100
762.300	-24.179	0.100
762.400	-24.171	0.100
762.500	-26.902	0.100
762.600	-34.928	0.100
762.700	-28.626	0.100
762.800	-14.078	0.100
762.900	-18.448	0.100
763.000	-8.888	0.100
763.100	-21.847	0.100
763.200	-24.425	0.100
763.300	-25.893	0.100
763.400	-29.176	0.100
763.500	-27.399	0.100
763.600	-25.917	0.100
763.700	-14.873	0.100
763.800	-23.290	0.100
763.900	-22.739	0.100
764.000	-24.626	0.100
764.100	-21.764	0.100
764.200	-15.387	0.100
764.300	-18.948	0.100
764.400	-21.896	0.100
764.500	-22.665	0.100
764.600	-22.696	0.100
764.700	-17.469	0.100
764.800	-19.454	0.100
764.900	-20.912	0.100
765.000	-22.598	0.100
765.100	-29.020	0.100
765.200	-12.007	0.100
765.300	-10.252	0.100
765.400	-22.303	0.100
765.500	-16.664	0.100
765.600	-27.059	0.100
765.700	-25.982	0.100
765.800	-18.965	0.100
765.900	-18.149	0.100
766.000	-21.096	0.100
766.100	-12.944	0.100
766.200	-17.616	0.100
766.300	-19.412	0.100
766.400	-25.323	0.100
766.500	-23.360	0.100
766.600	-22.530	0.100
766.700	-24.540	0.100
766.800	-21.201	0.100
766.900	-22.523	0.100
767.000	-24.571	0.100
767.100	-19.626	0.100
767.200	-25.210	0.100
767.300	-22.988	0.100
767.400	-23.090	0.100
767.500	-10.694	0.100
767.600	-18.699	0.100
767.700	-17.767	0.100
767.800	-24.333	0.100
767.900	-24.452	0.100
768.000	-24.561	0.100
768.100	-17.010	0.100
768.200	-21.219	0.100
768.300	-31.984	0.100
768.400	-30.693	0.100
768.500	-28.109	0.100
768.600	-26.538	0.100
768.700	-13.773	0.100
768.800	-18.854	0.100
768.900	-30.701	0.100
769.000	-18.526	0.100
769.100	-16.679	0.100
769.200	-13.620	0.100
769.300	-13.440	0.100
769.400	-17.238	0.100
769.500	-21.677	0.100
769.600	-22.479	0.100
769.700	-26.891	0.100
769.800	-23.415	0.100
769.900	-33.061	0.100
770.000	-22.350	0.100
770.100	-15.401	0.100
770.200	-15.245	0.100
770.300	-35.070	0.100
770.400	-29.610	0.100
770.500	-14.177	0.100
770.600	-21.202	0.100
770.700	-29.667	0.100
770.800	-21.831	0.100
770.900	-15.355	0.100
771.000	-23.361	0.100
771.100	-19.502	0.100
771.200	-14.175	0.100
771.300	-23.161	0.100
771.400	-23.889	0.100
771.500	-31.250	0.100
771.600	-21.559	0.100
771.700	-22.474	0.100
771.800	-19.312	0.100
771.900	-22.971	0.100
772.000	-22.029	0.100
772.100	-17.961	0.100
772.200	-35.109	0.100
772.300	-28.218	0.100
772.400	-21.175	0.100
772.500	-24.826	0.100
772.600	-15.957	0.100
772.700	-17.242	0.100
772.800	-18.816	0.100
772.900	-20.420	0.100
773.000	-31.190	0.100
773.100	-22.810	0.100
773.200	-23.093	0.100
773.300	-26.073	0.100
773.400	-21.018	0.100
773.500	-22.810	0.100
773.600	-25.629	0.100
773.700	-19.064	0.100
773.800	-19.555	0.100
773.900	-25.134	0.100
774.000	-19.042	0.100
774.100	-18.823	0.100
774.200	-20.705	0.100
774.300	-22.807	0.100
774.400	-16.845	0.100
774.500	-27.897	0.100
774.600	-22.249	0.100
774.700	-27.864	0.100
774.800	-22.145	0.100
774.900	-10.298	0.100
775.000	-6.181	0.100
775.100	-26.170	0.100
775.200	-22.717	0.100
775.300	-22.298	0.100
775.400	-15.780	0.100
775.500	-28.524	0.100
775.600	-28.851	0.100
775.700	-32.647	0.100
775.800	-28.620	0.100
775.900	-20.983	0.100
776.000	-21.141	0.100
776.100	-17.351	0.100
776.200	-26.392	0.100
776.300	-22.754	0.100
776.400	-10.712	0.100
776.500	-24.379	0.100
776.600	-25.501	0.100
776.700	-28.700	0.100
776.800	-26.954	0.100
776.900	-20.103	0.100
777.000	-18.402	0.100
777.100	-20.515	0.100
777.200	-18.536	0.100
777.300	-36.344	0.100
777.400	-28.973	0.100
777.500	-22.015	0.100
777.600	-22.578	0.100
777.700	-17.561	0.100
777.800	-15.299	0.100
777.900	-27.418	0.100
778.000	-28.256	0.100
778.100	-23.817	0.100
778.200	-34.142	0.100
778.300	-24.402	0.100
778.400	-19.107	0.100
778.500	-14.977	0.100
778.600	-21.665	0.100
778.700	-19.686	0.100
778.800	-22.888	0.100
778.900	-13.527	0.100
779.000	-18.062	0.100
779.100	-11.751	0.100
779.200	-7.449	0.100
779.300	-25.831	0.100
779.400	-14.581	0.100
779.500	-15.103	0.100
779.600	-29.341	0.100
779.700	-20.984	0.100
779.800	-21.395	0.100
779.900	-15.048	0.100
780.000	-12.745	0.100
780.100	-17.060	0.100
780.200	-11.046	0.100
780.300	-11.059	0.100
780.400	-13.448	0.100
780.500	-11.269	0.100
780.600	-8.164	0.100
780.700	-10.401	0.100
780.800	-5.107	0.100
780.900	-1.561	0.100
781.000	-7.466	0.100
781.100	-2.034	0.100
781.200	-0.317	0.100
781.300	-0.738	0.100
781.400	6.020	0.100
781.500	11.375	0.100
781.600	0.141	0.100
781.700	1.986	0.100
781.800	0.819	0.100
781.900	4.664	0.100
782.000	3.016	0.100
782.100	5.495	0.100
782.200	10.888	0.100
782.300	-0.843	0.100
782.400	13.722	0.100
782.500	11.747	0.100
782.600	8.346	0.100
782.700	6.633	0.100
782.800	8.517	0.100
782.900	5.115	0.100
783.000	16.664	0.100
783.100	14.573	0.100
783.200	4.023	0.100
783.300	10.416	0.100
783.400	21.097	0.100
783.500	18.784	0.100
783.600	15.340	0.100
783.700	10.844	0.100
783.800	12.337	0.100
783.900	8.834	0.100
784.000	16.055	0.100
784.100	11.323	0.100
784.200	19.273	0.100
784.300	10.517	0.100
784.400	7.560	0.100
784.500	15.023	0.100
784.600	19.501	0.100
784.700	14.752	0.100
784.800	6.551	0.100
784.900	6.784	0.100
785.000	4.531	0.100
785.100	4.651	0.100
785.200	20.140	0.100
785.300	11.825	0.100
785.400	7.158	0.100
785.500	6.541	0.100
785.600	3.256	0.100
785.700	6.520	0.100
785.800	10.243	0.100
785.900	19.932	0.100
786.000	15.989	0.100
786.100	14.419	0.100
786.200	13.906	0.100
786.300	10.690	0.100
786.400	19.944	0.100
786.500	10.996	0.100
786.600	-1.450	0.100
786.700	4.933	0.100
786.800	16.082	0.100
786.900	10.269	0.100
787.000	17.075	0.100
787.100	13.174	0.100
787.200	12.903	0.100
787.300	17.852	0.100
787.400	16.339	0.100
787.500	10.354	0.100
787.600	9.691	0.100
787.700	11.770	0.100
787.800	-0.153	0.100
787.900	7.911	0.100
788.000	9.500	0.100
788.100	1.029	0.100
788.200	11.745	0.100
788.300	15.216	0.100
788.400	22.677	0.100
788.500	13.691	0.100
788.600	17.504	0.100
788.700	18.713	0.100
788.800	8.469	0.100
788.900	-0.075	0.100
789.000	0.709	0.100
789.100	14.172	0.100
789.200	11.817	0.100
789.300	18.746	0.100
789.400	10.954	0.100
789.500	13.992	0.100
789.600	17.185	0.100
789.700	11.918	0.100
789.800	8.156	0.100
789.900	13.574	0.100
790.000	10.817	0.100
790.100	4.817	0.100
790.200	11.370	0.100
790.300	19.947	0.100
790.400	15.307	0.100
790.500	11.842	0.100
790.600	9.017	0.100
790.700	23.504	0.100
790.800	6.722	0.100
790.900	9.491	0.100
791.000	26.895	0.100
791.100	22.655	0.100
791.200	11.314	0.100
791.300	17.167	0.100
791.400	14.491	0.100
791.500	16.563	0.100
791.600	-0.165	0.100
791.700	16.435	0.100
791.800	16.988	0.100
791.900	17.260	0.100
792.000	8.091	0.100
792.100	7.617	0.100
792.200	10.900	0.100
792.300	18.970	0.100
792.400	13.962	0.100
792.500	18.674	0.100
792.600	15.218	0.100
792.700	8.614	0.100
792.800	19.091	0.100
792.900	12.238	0.100
793.000	14.083	0.100
793.100	16.661	0.100
793.200	9.356	0.100
793.300	2.687	0.100
793.400	8.989	0.100
793.500	19.586	0.100
793.600	7.274	0.100
793.700	20.945	0.100
793.800	19.724	0.100
793.900	23.360	0.100
794.000	19.596	0.100
794.100	12.501	0.100
794.200	15.035	0.100
794.300	23.578	0.100
794.400	19.946	0.100
794.500	20.188	0.100
794.600	17.890	0.100
794.700	14.293	0.100
794.800	15.624	0.100
794.900	12.708	0.100
795.000	25.452	0.100
795.100	12.535	0.100
795.200	19.360	0.100
795.300	15.684	0.100
795.400	22.918	0.100
795.500	14.777	0.100
795.600	17.833	0.100
795.700	28.385	0.100
795.800	19.407	0.100
795.900	15.087	0.100
796.000	18.989	0.100
796.100	27.986	0.100
796.200	7.072	0.100
796.300	14.691	0.100
796.400	17.484	0.100
796.500	29.728	0.100
796.600	26.316	0.100
796.700	19.376	0.100
796.800	17.728	0.100
796.900	17.141	0.100
797.000	22.066	0.100
797.100	21.628	0.100
797.200	31.476	0.100
797.300	23.453	0.100
797.400	25.792	0.100
797.500	17.814	0.100
797.600	27.020	0.100
797.700	25.418	0.100
797.800	27.256	0.100
797.900	25.938	0.100
798.000	27.206	0.100
798.100	23.132	0.100
798.200	20.182	0.100
798.300	25.848	0.100
798.400	25.344	0.100
798.500	23.852	0.100
798.600	24.397	0.100
798.700	23.321	0.100
798.800	28.016	0.100
798.900	23.443	0.100
799.000	21.200	0.100
799.100	34.210	0.100
799.200	26.189	0.100
799.300	23.481	0.100
799.400	28.555	0.100
799.500	34.532	0.100
799.600	19.603	0.100
799.700	33.520	0.100
799.800	34.018	0.100
799.900	22.967	0.100
800.000	23.418	0.100
