time /s	I /nA	E /V
0.100	-13.072	0.100
0.200	-12.750	0.100
0.300	-19.632	0.100
0.400	-5.791	0.100
0.500	-11.959	0.100
0.600	-10.349	0.100
0.700	0.145	0.100
0.800	-1.800	0.100
0.900	-2.680	0.100
1.000	1.244	0.100
1.100	-3.585	0.100
1.200	-18.022	0.100
1.300	-4.666	0.100
1.400	-8.132	0.100
1.500	-8.145	0.100
1.600	5.979	0.100
1.700	-3.488	0.100
1.800	-5.348	0.100
1.900	1.029	0.100
2.000	-3.155	0.100
2.100	-0.460	0.100
2.200	-0.580	0.100
2.300	-8.951	0.100
2.400	-10.145	0.100
2.500	-4.046	0.100
2.600	-6.059	0.100
2.700	-11.055	0.100
2.800	-3.328	0.100
2.900	-14.760	0.100
3.000	-9.263	0.100
3.100	-7.140	0.100
3.200	-8.314	0.100
3.300	-10.959	0.100
3.400	3.202	0.100
3.500	-13.276	0.100
3.600	-6.877	0.100
3.700	1.337	0.100
3.800	4.714	0.100
3.900	-11.763	0.100
4.000	-12.958	0.100
4.100	-3.650	0.100
4.200	-2.120	0.100
4.300	-12.365	0.100
4.400	-16.622	0.100
4.500	-10.663	0.100
4.600	0.827	0.100
4.700	-4.849	0.100
4.800	-12.151	0.100
4.900	0.803	0.100
5.000	-14.621	0.100
5.100	-9.831	0.100
5.200	7.876	0.100
5.300	-9.526	0.100
5.400	-6.708	0.100
5.500	-3.545	0.100
5.600	-14.596	0.100
5.700	-6.816	0.100
5.800	-4.455	0.100
5.900	-1.120	0.100
6.000	-20.831	0.100
6.100	2.963	0.100
6.200	-7.895	0.100
6.300	-1.204	0.100
6.400	-5.176	0.100
6.500	4.938	0.100
6.600	1.532	0.100
6.700	-11.919	0.100
6.800	3.784	0.100
6.900	-23.039	0.100
7.000	3.708	0.100
7.100	-14.096	0.100
7.200	-9.812	0.100
7.300	-13.830	0.100
7.400	4.574	0.100
7.500	-0.135	0.100
7.600	-16.352	0.100
7.700	-8.597	0.100
7.800	-10.509	0.100
7.900	4.129	0.100
8.000	4.445	0.100
8.100	5.516	0.100
8.200	-4.034	0.100
8.300	-7.609	0.100
8.400	-12.134	0.100
8.500	-3.637	0.100
8.600	-21.223	0.100
8.700	8.647	0.100
8.800	-15.382	0.100
8.900	-21.137	0.100
9.000	1.510	0.100
9.100	2.576	0.100
9.200	-6.055	0.100
9.300	-6.403	0.100
9.400	-11.469	0.100
9.500	-13.539	0.100
9.600	-5.543	0.100
9.700	-1.043	0.100
9.800	-5.639	0.100
9.900	6.628	0.100
10.000	-9.091	0.100
10.100	-11.567	0.100
10.200	1.615	0.100
10.300	-7.326	0.100
10.400	1.162	0.100
10.500	-9.569	0.100
10.600	1.135	0.100
10.700	-5.851	0.100
10.800	-1.276	0.100
10.900	-15.004	0.100
11.000	-14.932	0.100
11.100	-5.642	0.100
11.200	-4.120	0.100
11.300	-7.154	0.100
11.400	-15.776	0.100
11.500	-1.017	0.100
11.600	4.719	0.100
11.700	-6.979	0.100
11.800	-16.747	0.100
11.900	0.689	0.100
12.000	-5.147	0.100
12.100	-4.065	0.100
12.200	-5.813	0.100
12.300	5.024	0.100
12.400	-12.576	0.100
12.500	-7.660	0.100
12.600	-4.216	0.100
12.700	-7.310	0.100
12.800	-13.777	0.100
12.900	-8.448	0.100
13.000	-10.548	0.100
13.100	-6.571	0.100
13.200	5.599	0.100
13.300	-0.151	0.100
13.400	0.112	0.100
13.500	-14.627	0.100
13.600	4.089	0.100
13.700	-14.134	0.100
13.800	-7.778	0.100
13.900	-11.702	0.100
14.000	11.154	0.100
14.100	1.336	0.100
14.200	-0.816	0.100
14.300	-13.454	0.100
14.400	-10.468	0.100
14.500	7.699	0.100
14.600	1.235	0.100
14.700	-21.096	0.100
14.800	-9.947	0.100
14.900	-0.891	0.100
15.000	0.050	0.100
15.100	-4.101	0.100
15.200	-13.909	0.100
15.300	-12.546	0.100
15.400	-12.601	0.100
15.500	-2.897	0.100
15.600	-13.720	0.100
15.700	-3.441	0.100
15.800	-5.549	0.100
15.900	3.874	0.100
16.000	0.521	0.100
16.100	-4.475	0.100
16.200	-8.086	0.100
16.300	-10.921	0.100
16.400	0.703	0.100
16.500	-11.381	0.100
16.600	-2.624	0.100
16.700	0.010	0.100
16.800	-26.585	0.100
16.900	-13.765	0.100
17.000	6.786	0.100
17.100	4.919	0.100
17.200	-3.450	0.100
17.300	-6.574	0.100
17.400	-5.361	0.100
17.500	0.301	0.100
17.600	-0.491	0.100
17.700	-1.451	0.100
17.800	-11.795	0.100
17.900	-1.607	0.100
18.000	-28.346	0.100
18.100	-4.750	0.100
18.200	7.711	0.100
18.300	5.241	0.100
18.400	-2.887	0.100
18.500	-7.658	0.100
18.600	1.392	0.100
18.700	-6.052	0.100
18.800	-14.113	0.100
18.900	0.942	0.100
19.000	-8.134	0.100
19.100	-3.292	0.100
19.200	-3.446	0.100
19.300	-4.288	0.100
19.400	-9.601	0.100
19.500	-19.781	0.100
19.600	-8.043	0.100
19.700	9.656	0.100
19.800	-4.358	0.100
19.900	1.044	0.100
20.000	-14.421	0.100
20.100	-8.103	0.100
20.200	-0.261	0.100
20.300	-8.815	0.100
20.400	2.583	0.100
20.500	-1.264	0.100
20.600	-5.009	0.100
20.700	4.783	0.100
20.800	-3.790	0.100
20.900	-2.258	0.100
21.000	-10.254	0.100
21.100	-14.714	0.100
21.200	-3.375	0.100
21.300	4.751	0.100
21.400	-16.239	0.100
21.500	-3.779	0.100
21.600	-2.464	0.100
21.700	-12.585	0.100
21.800	-7.486	0.100
21.900	-5.608	0.100
22.000	-1.731	0.100
22.100	-1.488	0.100
22.200	-5.080	0.100
22.300	-23.468	0.100
22.400	3.235	0.100
22.500	-8.837	0.100
22.600	-10.787	0.100
22.700	-8.031	0.100
22.800	2.716	0.100
22.900	-17.842	0.100
23.000	-14.086	0.100
23.100	12.911	0.100
23.200	0.324	0.100
23.300	-3.556	0.100
23.400	-11.199	0.100
23.500	-14.918	0.100
23.600	-3.716	0.100
23.700	0.655	0.100
23.800	-11.655	0.100
23.900	-4.513	0.100
24.000	-17.777	0.100
24.100	-1.487	0.100
24.200	-6.176	0.100
24.300	-12.328	0.100
24.400	-0.744	0.100
24.500	-5.502	0.100
24.600	-7.138	0.100
24.700	1.668	0.100
24.800	-6.970	0.100
24.900	-8.471	0.100
25.000	-9.393	0.100
25.100	0.693	0.100
25.200	4.481	0.100
25.300	-12.621	0.100
25.400	-8.620	0.100
25.500	-1.142	0.100
25.600	-0.150	0.100
25.700	-9.752	0.100
25.800	0.025	0.100
25.900	-3.216	0.100
26.000	-8.838	0.100
26.100	-19.463	0.100
26.200	-8.068	0.100
26.300	-13.122	0.100
26.400	1.620	0.100
26.500	-0.504	0.100
26.600	-3.887	0.100
26.700	-5.694	0.100
26.800	13.819	0.100
26.900	-8.142	0.100
27.000	-3.969	0.100
27.100	0.638	0.100
27.200	-10.112	0.100
27.300	-1.532	0.100
27.400	-4.106	0.100
27.500	1.761	0.100
27.600	-13.528	0.100
27.700	-7.027	0.100
27.800	-0.504	0.100
27.900	-5.583	0.100
28.000	-4.616	0.100
28.100	-3.739	0.100
28.200	3.112	0.100
28.300	-6.103	0.100
28.400	-17.470	0.100
28.500	-13.055	0.100
28.600	3.487	0.100
28.700	-13.615	0.100
28.800	-1.957	0.100
28.900	-2.834	0.100
29.000	-18.380	0.100
29.100	-12.777	0.100
29.200	4.319	0.100
29.300	3.372	0.100
29.400	-19.191	0.100
29.500	2.086	0.100
29.600	2.365	0.100
29.700	-0.775	0.100
29.800	-9.989	0.100
29.900	-4.862	0.100
30.000	-6.924	0.100
30.100	3.142	0.100
30.200	9.131	0.100
30.300	8.456	0.100
30.400	4.828	0.100
30.500	2.088	0.100
30.600	-0.147	0.100
30.700	0.453	0.100
30.800	0.817	0.100
30.900	-4.335	0.100
31.000	8.814	0.100
31.100	11.205	0.100
31.200	9.100	0.100
31.300	16.663	0.100
31.400	9.211	0.100
31.500	2.106	0.100
31.600	17.919	0.100
31.700	11.329	0.100
31.800	6.413	0.100
31.900	12.107	0.100
32.000	11.117	0.100
32.100	5.599	0.100
32.200	17.130	0.100
32.300	10.471	0.100
32.400	11.724	0.100
32.500	13.876	0.100
32.600	20.281	0.100
32.700	8.027	0.100
32.800	14.792	0.100
32.900	22.322	0.100
33.000	23.630	0.100
33.100	16.933	0.100
33.200	5.393	0.100
33.300	7.515	0.100
33.400	12.262	0.100
33.500	13.681	0.100
33.600	26.062	0.100
33.700	20.853	0.100
33.800	0.506	0.100
33.900	27.819	0.100
34.000	18.427	0.100
34.100	10.083	0.100
34.200	18.089	0.100
34.300	24.259	0.100
34.400	9.036	0.100
34.500	-3.398	0.100
34.600	29.560	0.100
34.700	7.223	0.100
34.800	18.421	0.100
34.900	10.850	0.100
35.000	10.505	0.100
35.100	10.039	0.100
35.200	1.108	0.100
35.300	19.489	0.100
35.400	13.985	0.100
35.500	15.982	0.100
35.600	10.651	0.100
35.700	12.712	0.100
35.800	18.555	0.100
35.900	10.669	0.100
36.000	5.730	0.100
36.100	8.360	0.100
36.200	4.327	0.100
36.300	9.970	0.100
36.400	0.274	0.100
36.500	18.969	0.100
36.600	6.409	0.100
36.700	26.561	0.100
36.800	6.575	0.100
36.900	5.799	0.100
37.000	21.163	0.100
37.100	16.096	0.100
37.200	17.523	0.100
37.300	20.122	0.100
37.400	4.843	0.100
37.500	6.353	0.100
37.600	20.157	0.100
37.700	2.246	0.100
37.800	7.225	0.100
37.900	8.025	0.100
38.000	14.021	0.100
38.100	20.081	0.100
38.200	6.011	0.100
38.300	12.938	0.100
38.400	17.509	0.100
38.500	17.505	0.100
38.600	24.591	0.100
38.700	9.080	0.100
38.800	0.744	0.100
38.900	21.474	0.100
39.000	18.417	0.100
39.100	5.225	0.100
39.200	11.553	0.100
39.300	12.085	0.100
39.400	9.768	0.100
39.500	1.992	0.100
39.600	23.505	0.100
39.700	5.192	0.100
39.800	18.826	0.100
39.900	18.629	0.100
40.000	18.278	0.100
40.100	10.534	0.100
40.200	15.086	0.100
40.300	15.920	0.100
40.400	10.636	0.100
40.500	17.685	0.100
40.600	9.967	0.100
40.700	7.171	0.100
40.800	7.628	0.100
40.900	26.967	0.100
41.000	16.441	0.100
41.100	10.653	0.100
41.200	15.386	0.100
41.300	17.499	0.100
41.400	18.372	0.100
41.500	19.139	0.100
41.600	14.029	0.100
41.700	19.321	0.100
41.800	12.266	0.100
41.900	14.733	0.100
42.000	11.477	0.100
42.100	18.633	0.100
42.200	13.134	0.100
42.300	18.290	0.100
42.400	21.022	0.100
42.500	20.931	0.100
42.600	28.400	0.100
42.700	-4.724	0.100
42.800	31.031	0.100
42.900	15.310	0.100
43.000	17.860	0.100
43.100	18.879	0.100
43.200	18.065	0.100
43.300	11.013	0.100
43.400	16.820	0.100
43.500	17.346	0.100
43.600	12.096	0.100
43.700	24.734	0.100
43.800	28.469	0.100
43.900	14.415	0.100
44.000	14.805	0.100
44.100	19.639	0.100
44.200	22.402	0.100
44.300	25.405	0.100
44.400	13.267	0.100
44.500	13.866	0.100
44.600	16.096	0.100
44.700	19.749	0.100
44.800	6.957	0.100
44.900	14.337	0.100
45.000	16.319	0.100
45.100	20.919	0.100
45.200	3.977	0.100
45.300	21.134	0.100
45.400	21.207	0.100
45.500	25.472	0.100
45.600	22.640	0.100
45.700	20.414	0.100
45.800	12.799	0.100
45.900	11.435	0.100
46.000	13.076	0.100
46.100	17.138	0.100
46.200	29.289	0.100
46.300	13.967	0.100
46.400	15.259	0.100
46.500	6.045	0.100
46.600	18.742	0.100
46.700	28.303	0.100
46.800	17.965	0.100
46.900	22.384	0.100
47.000	19.695	0.100
47.100	22.148	0.100
47.200	35.443	0.100
47.300	19.138	0.100
47.400	20.273	0.100
47.500	30.895	0.100
47.600	23.666	0.100
47.700	21.941	0.100
47.800	23.098	0.100
47.900	20.517	0.100
48.000	33.536	0.100
48.100	26.175	0.100
48.200	20.778	0.100
48.300	29.615	0.100
48.400	19.479	0.100
48.500	17.818	0.100
48.600	25.814	0.100
48.700	24.491	0.100
48.800	22.882	0.100
48.900	28.731	0.100
49.000	18.357	0.100
49.100	22.358	0.100
49.200	18.698	0.100
49.300	33.512	0.100
49.400	20.533	0.100
49.500	30.332	0.100
49.600	19.316	0.100
49.700	24.049	0.100
49.800	18.253	0.100
49.900	39.811	0.100
50.000	25.893	0.100
50.100	10.698	0.100
50.200	12.819	0.100
50.300	22.757	0.100
50.400	31.109	0.100
50.500	15.968	0.100
50.600	29.487	0.100
50.700	32.905	0.100
50.800	17.699	0.100
50.900	6.147	0.100
51.000	22.172	0.100
51.100	30.245	0.100
51.200	20.865	0.100
51.300	42.113	0.100
51.400	17.232	0.100
51.500	23.437	0.100
51.600	20.876	0.100
51.700	23.377	0.100
51.800	27.733	0.100
51.900	29.068	0.100
52.000	24.961	0.100
52.100	21.358	0.100
52.200	21.960	0.100
52.300	26.154	0.100
52.400	18.911	0.100
52.500	8.153	0.100
52.600	38.584	0.100
52.700	37.777	0.100
52.800	29.675	0.100
52.900	15.058	0.100
53.000	12.630	0.100
53.100	11.389	0.100
53.200	27.476	0.100
53.300	34.905	0.100
53.400	29.017	0.100
53.500	18.019	0.100
53.600	19.411	0.100
53.700	36.556	0.100
53.800	23.085	0.100
53.900	25.253	0.100
54.000	21.832	0.100
54.100	13.751	0.100
54.200	29.660	0.100
54.300	29.179	0.100
54.400	38.764	0.100
54.500	25.695	0.100
54.600	22.625	0.100
54.700	33.271	0.100
54.800	11.396	0.100
54.900	35.529	0.100
55.000	38.111	0.100
55.100	29.548	0.100
55.200	16.714	0.100
55.300	29.757	0.100
55.400	40.174	0.100
55.500	27.505	0.100
55.600	28.061	0.100
55.700	20.949	0.100
55.800	22.728	0.100
55.900	21.750	0.100
56.000	26.633	0.100
56.100	29.746	0.100
56.200	28.731	0.100
56.300	31.660	0.100
56.400	21.038	0.100
56.500	29.041	0.100
56.600	22.585	0.100
56.700	50.155	0.100
56.800	47.744	0.100
56.900	29.734	0.100
57.000	23.942	0.100
57.100	26.812	0.100
57.200	28.523	0.100
57.300	40.023	0.100
57.400	39.589	0.100
57.500	29.841	0.100
57.600	27.676	0.100
57.700	33.052	0.100
57.800	22.247	0.100
57.900	29.859	0.100
58.000	27.477	0.100
58.100	24.795	0.100
58.200	31.905	0.100
58.300	12.279	0.100
58.400	17.777	0.100
58.500	29.083	0.100
58.600	28.942	0.100
58.700	26.531	0.099
58.800	29.842	0.100
58.900	25.929	0.100
59.000	30.436	0.100
59.100	27.652	0.100
59.200	7.348	0.100
59.300	40.456	0.100
59.400	23.812	0.100
59.500	22.727	0.100
59.600	42.095	0.100
59.700	31.057	0.100
59.800	30.362	0.100
59.900	22.194	0.100
60.000	31.856	0.100
60.100	15.471	0.100
60.200	31.486	0.100
60.300	29.513	0.100
60.400	28.273	0.099
60.500	23.302	0.100
60.600	26.876	0.100
60.700	28.617	0.100
60.800	32.978	0.100
60.900	37.365	0.099
61.000	30.249	0.100
61.100	20.683	0.100
61.200	36.052	0.100
61.300	25.581	0.099
61.400	17.631	0.100
61.500	31.923	0.099
61.600	32.114	0.100
61.700	35.701	0.100
61.800	29.853	0.099
61.900	30.335	0.100
62.000	23.415	0.099
62.100	15.382	0.099
62.200	39.763	0.099
62.300	33.030	0.099
62.400	33.625	0.099
62.500	27.696	0.099
62.600	22.493	0.100
62.700	37.733	0.099
62.800	33.289	0.100
62.900	32.177	0.100
63.000	6.925	0.100
63.100	39.864	0.099
63.200	40.344	0.099
63.300	37.417	0.099
63.400	24.188	0.100
63.500	19.408	0.100
63.600	40.967	0.099
63.700	26.355	0.099
63.800	37.757	0.100
63.900	36.441	0.100
64.000	32.670	0.099
64.100	27.687	0.099
64.200	33.390	0.100
64.300	28.564	0.099
64.400	35.371	0.099
64.500	28.524	0.099
64.600	25.575	0.099
64.700	13.879	0.099
64.800	31.156	0.099
64.900	33.962	0.099
65.000	23.923	0.099
65.100	19.506	0.100
65.200	39.917	0.099
65.300	23.921	0.099
65.400	40.090	0.099
65.500	29.575	0.099
65.600	32.190	0.099
65.700	26.532	0.099
65.800	28.930	0.099
65.900	25.817	0.099
66.000	32.333	0.099
66.100	28.669	0.099
66.200	25.737	0.099
66.300	37.119	0.099
66.400	38.575	0.100
66.500	37.604	0.099
66.600	26.888	0.099
66.700	21.836	0.099
66.800	32.657	0.099
66.900	39.667	0.099
67.000	24.009	0.099
67.100	32.850	0.099
67.200	21.395	0.099
67.300	31.964	0.099
67.400	20.779	0.099
67.500	23.881	0.099
67.600	33.019	0.099
67.700	24.020	0.099
67.800	31.030	0.099
67.900	41.456	0.099
68.000	20.930	0.099
68.100	24.473	0.099
68.200	36.322	0.099
68.300	24.517	0.099
68.400	8.649	0.099
68.500	34.340	0.099
68.600	31.863	0.099
68.700	29.531	0.099
68.800	33.656	0.099
68.900	21.557	0.099
69.000	32.683	0.099
69.100	27.949	0.099
69.200	32.864	0.099
69.300	40.354	0.099
69.400	40.087	0.099
69.500	36.348	0.099
69.600	23.438	0.099
69.700	30.476	0.099
69.800	26.000	0.099
69.900	25.826	0.099
70.000	27.070	0.099
70.100	30.349	0.099
70.200	27.500	0.099
70.300	20.241	0.099
70.400	34.207	0.099
70.500	14.709	0.099
70.600	21.056	0.099
70.700	28.987	0.099
70.800	28.857	0.099
70.900	24.869	0.099
71.000	25.079	0.099
71.100	39.615	0.099
71.200	10.163	0.099
71.300	33.944	0.099
71.400	19.011	0.099
71.500	27.593	0.099
71.600	23.738	0.099
71.700	11.308	0.099
71.800	28.227	0.099
71.900	25.718	0.099
72.000	44.751	0.099
72.100	35.693	0.099
72.200	21.523	0.099
72.300	32.119	0.099
72.400	25.925	0.099
72.500	27.805	0.099
72.600	23.499	0.099
72.700	23.836	0.099
72.800	26.477	0.099
72.900	31.316	0.099
73.000	25.830	0.099
73.100	23.680	0.099
73.200	23.035	0.099
73.300	24.681	0.099
73.400	32.437	0.099
73.500	23.136	0.099
73.600	26.822	0.099
73.700	28.060	0.099
73.800	20.355	0.099
73.900	27.643	0.099
74.000	27.357	0.099
74.100	21.799	0.099
74.200	31.752	0.099
74.300	38.132	0.099
74.400	35.099	0.099
74.500	23.348	0.099
74.600	22.664	0.099
74.700	20.105	0.099
74.800	11.406	0.099
74.900	31.522	0.099
75.000	32.051	0.099
75.100	17.764	0.099
75.200	17.394	0.099
75.300	23.841	0.099
75.400	25.177	0.099
75.500	40.524	0.099
75.600	31.902	0.099
75.700	14.651	0.099
75.800	31.204	0.099
75.900	30.818	0.099
76.000	28.301	0.099
76.100	27.735	0.099
76.200	26.154	0.099
76.300	24.306	0.099
76.400	37.030	0.099
76.500	29.831	0.099
76.600	26.180	0.099
76.700	18.317	0.099
76.800	43.350	0.099
76.900	14.672	0.099
77.000	22.883	0.099
77.100	30.905	0.099
77.200	27.215	0.099
77.300	34.670	0.099
77.400	37.320	0.099
77.500	15.494	0.099
77.600	35.008	0.099
77.700	28.476	0.099
77.800	17.138	0.099
77.900	36.438	0.099
78.000	18.325	0.099
78.100	20.796	0.099
78.200	14.903	0.099
78.300	32.743	0.099
78.400	20.017	0.099
78.500	28.291	0.099
78.600	23.374	0.099
78.700	31.307	0.099
78.800	30.862	0.099
78.900	42.575	0.099
79.000	43.073	0.099
79.100	23.851	0.099
79.200	33.890	0.099
79.300	30.973	0.099
79.400	13.717	0.099
79.500	18.703	0.099
79.600	20.167	0.099
79.700	28.654	0.099
79.800	26.858	0.099
79.900	31.687	0.099
80.000	18.386	0.099
80.100	24.509	0.099
80.200	43.093	0.099
80.300	25.813	0.099
80.400	20.960	0.099
80.500	26.211	0.099
80.600	25.874	0.099
80.700	17.907	0.099
80.800	25.563	0.099
80.900	22.192	0.099
81.000	36.859	0.099
81.100	33.549	0.099
81.200	27.258	0.099
81.300	23.507	0.099
81.400	32.619	0.099
81.500	25.440	0.099
81.600	19.252	0.099
81.700	26.136	0.099
81.800	32.007	0.099
81.900	24.329	0.099
82.000	13.452	0.099
82.100	28.664	0.099
82.200	31.297	0.099
82.300	27.278	0.099
82.400	26.586	0.099
82.500	24.516	0.099
82.600	33.677	0.099
82.700	26.442	0.099
82.800	31.012	0.099
82.900	16.360	0.099
83.000	19.089	0.099
83.100	9.691	0.099
83.200	34.304	0.099
83.300	25.727	0.099
83.400	21.273	0.099
83.500	40.717	0.099
83.600	33.540	0.099
83.700	20.966	0.099
83.800	26.930	0.099
83.900	28.319	0.099
84.000	19.735	0.099
84.100	27.221	0.099
84.200	29.464	0.099
84.300	27.259	0.099
84.400	41.944	0.099
84.500	18.293	0.099
84.600	16.403	0.099
84.700	19.354	0.099
84.800	26.344	0.099
84.900	23.501	0.099
85.000	39.650	0.099
85.100	21.594	0.099
85.200	33.871	0.099
85.300	27.628	0.099
85.400	24.482	0.099
85.500	29.821	0.099
85.600	22.947	0.099
85.700	29.042	0.099
85.800	31.112	0.099
85.900	11.517	0.099
86.000	32.920	0.099
86.100	10.833	0.099
86.200	25.504	0.099
86.300	29.061	0.099
86.400	29.411	0.099
86.500	19.815	0.099
86.600	27.093	0.099
86.700	21.111	0.099
86.800	42.059	0.099
86.900	37.295	0.099
87.000	23.133	0.099
87.100	5.209	0.099
87.200	44.638	0.099
87.300	31.543	0.099
87.400	17.654	0.099
87.500	16.860	0.099
87.600	35.719	0.099
87.700	37.694	0.099
87.800	24.518	0.099
87.900	25.611	0.099
88.000	24.716	0.099
88.100	25.540	0.099
88.200	25.144	0.099
88.300	19.560	0.099
88.400	36.297	0.099
88.500	30.424	0.099
88.600	25.787	0.099
88.700	23.272	0.099
88.800	29.753	0.099
88.900	24.548	0.099
89.000	29.953	0.099
89.100	13.935	0.099
89.200	30.491	0.099
89.300	19.071	0.099
89.400	20.389	0.099
89.500	15.610	0.099
89.600	33.126	0.099
89.700	22.056	0.099
89.800	19.348	0.099
89.900	32.677	0.099
90.000	29.086	0.099
90.100	27.387	0.099
90.200	24.757	0.099
90.300	21.332	0.099
90.400	23.543	0.099
90.500	25.028	0.099
90.600	8.010	0.099
90.700	21.764	0.099
90.800	11.970	0.099
90.900	0.899	0.099
91.000	19.409	0.099
91.100	17.526	0.099
91.200	9.076	0.099
91.300	22.795	0.099
91.400	10.144	0.099
91.500	-4.380	0.099
91.600	10.868	0.099
91.700	4.753	0.099
91.800	5.015	0.099
91.900	12.165	0.099
92.000	8.432	0.099
92.100	21.782	0.099
92.200	-7.520	0.099
92.300	2.730	0.099
92.400	-4.884	0.099
92.500	-9.787	0.099
92.600	4.657	0.099
92.700	-5.636	0.099
92.800	-10.752	0.099
92.900	9.011	0.099
93.000	-5.352	0.099
93.100	-2.745	0.099
93.200	2.434	0.099
93.300	-8.139	0.099
93.400	-3.755	0.099
93.500	-2.357	0.099
93.600	-6.138	0.099
93.700	-9.230	0.099
93.800	-23.037	0.099
93.900	-7.752	0.099
94.000	-2.105	0.099
94.100	7.990	0.099
94.200	-17.412	0.099
94.300	1.757	0.099
94.400	-4.970	0.099
94.500	-6.425	0.099
94.600	-6.153	0.099
94.700	-8.676	0.099
94.800	-4.890	0.099
94.900	0.766	0.099
95.000	-5.217	0.099
95.100	-2.637	0.099
95.200	-10.175	0.099
95.300	-11.101	0.099
95.400	-10.501	0.099
95.500	-5.699	0.099
95.600	2.251	0.099
95.700	-14.408	0.099
95.800	-0.921	0.099
95.900	-12.669	0.099
96.000	-8.171	0.099
96.100	0.078	0.099
96.200	-3.197	0.099
96.300	2.171	0.099
96.400	-16.795	0.099
96.500	0.253	0.099
96.600	-3.041	0.099
96.700	0.002	0.099
96.800	0.437	0.099
96.900	-1.993	0.099
97.000	-8.923	0.099
97.100	0.226	0.099
97.200	-5.075	0.099
97.300	4.816	0.099
97.400	0.046	0.099
97.500	-10.427	0.099
97.600	-13.652	0.099
97.700	-7.104	0.099
97.800	7.307	0.099
97.900	-3.775	0.099
98.000	-13.949	0.099
98.100	2.836	0.099
98.200	-3.132	0.099
98.300	-11.902	0.099
98.400	-10.487	0.099
98.500	1.481	0.099
98.600	3.370	0.099
98.700	7.408	0.099
98.800	-8.788	0.099
98.900	-8.691	0.099
99.000	1.143	0.099
99.100	-0.043	0.099
99.200	-5.612	0.099
99.300	11.090	0.099
99.400	-4.659	0.099
99.500	3.376	0.099
99.600	0.601	0.099
99.700	-15.078	0.099
99.800	-0.538	0.099
99.900	-6.684	0.099
100.000	-1.420	0.099
100.100	-9.461	0.099
100.200	-0.756	0.099
100.300	1.694	0.099
100.400	-8.723	0.099
100.500	0.895	0.099
100.600	-12.795	0.099
100.700	-6.296	0.099
100.800	-1.207	0.099
100.900	13.082	0.099
101.000	2.524	0.099
101.100	-7.297	0.099
101.200	0.280	0.099
101.300	0.197	0.099
101.400	-0.635	0.099
101.500	-8.626	0.099
101.600	4.165	0.099
101.700	-4.524	0.099
101.800	6.759	0.099
101.900	-9.453	0.099
102.000	-11.645	0.099
102.100	0.232	0.099
102.200	-7.767	0.099
102.300	2.724	0.099
102.400	1.288	0.099
102.500	-0.669	0.099
102.600	-9.890	0.099
102.700	-3.109	0.099
102.800	-5.614	0.099
102.900	1.012	0.099
103.000	-3.218	0.099
103.100	-0.350	0.099
103.200	-7.043	0.099
103.300	-0.977	0.099
103.400	-3.913	0.099
103.500	4.775	0.099
103.600	-11.370	0.099
103.700	3.800	0.099
103.800	-2.846	0.099
103.900	-1.693	0.099
104.000	2.636	0.099
104.100	-0.979	0.099
104.200	6.500	0.099
104.300	-10.649	0.099
104.400	-17.693	0.099
104.500	2.326	0.099
104.600	-0.961	0.099
104.700	-4.123	0.099
104.800	-2.906	0.099
104.900	-3.429	0.099
105.000	-3.095	0.099
105.100	-2.813	0.099
105.200	-7.235	0.099
105.300	2.266	0.099
105.400	11.962	0.099
105.500	-2.781	0.099
105.600	-14.150	0.099
105.700	-4.735	0.099
105.800	-6.192	0.099
105.900	-5.212	0.099
106.000	0.101	0.099
106.100	-3.096	0.099
106.200	-13.743	0.099
106.300	8.698	0.099
106.400	1.062	0.099
106.500	-4.413	0.099
106.600	-5.303	0.099
106.700	-7.805	0.099
106.800	-1.112	0.099
106.900	6.045	0.099
107.000	-4.007	0.099
107.100	-10.088	0.099
107.200	6.000	0.100
107.300	-0.346	0.099
107.400	-12.577	0.099
107.500	-10.151	0.099
107.600	-5.435	0.099
107.700	-3.269	0.099
107.800	9.422	0.099
107.900	12.274	0.100
108.000	-4.437	0.099
108.100	-8.081	0.099
108.200	-3.176	0.100
108.300	-11.509	0.099
108.400	-3.769	0.100
108.500	-18.432	0.099
108.600	-5.929	0.100
108.700	-7.522	0.100
108.800	-3.297	0.100
108.900	-6.170	0.100
109.000	4.730	0.100
109.100	-8.439	0.100
109.200	0.658	0.100
109.300	-9.234	0.100
109.400	2.088	0.100
109.500	-13.944	0.100
109.600	-2.468	0.100
109.700	-11.733	0.100
109.800	-12.110	0.100
109.900	2.956	0.100
110.000	-7.570	0.100
110.100	-0.148	0.100
110.200	-3.108	0.100
110.300	-6.497	0.100
110.400	1.306	0.100
110.500	-3.221	0.100
110.600	-5.571	0.100
110.700	-1.974	0.100
110.800	-13.315	0.100
110.900	1.868	0.100
111.000	-2.160	0.100
111.100	-6.472	0.100
111.200	-9.358	0.100
111.300	-7.028	0.100
111.400	4.608	0.100
111.500	4.484	0.100
111.600	-6.625	0.100
111.700	-1.622	0.100
111.800	1.174	0.100
111.900	-7.711	0.100
112.000	-14.041	0.100
112.100	-9.959	0.100
112.200	-5.604	0.100
112.300	-16.067	0.100
112.400	-6.656	0.100
112.500	-8.790	0.100
112.600	-2.021	0.100
112.700	-14.096	0.100
112.800	-3.533	0.100
112.900	14.192	0.100
113.000	-16.430	0.100
113.100	-14.046	0.100
113.200	-3.520	0.100
113.300	-5.581	0.100
113.400	-4.387	0.100
113.500	7.438	0.100
113.600	-8.634	0.100
113.700	-3.607	0.100
113.800	-13.964	0.100
113.900	-9.389	0.100
114.000	5.358	0.100
114.100	-4.937	0.100
114.200	-6.189	0.100
114.300	-5.549	0.100
114.400	-11.902	0.100
114.500	-25.590	0.100
114.600	-10.101	0.100
114.700	0.294	0.100
114.800	-3.138	0.100
114.900	-5.951	0.100
115.000	-8.136	0.100
115.100	-15.028	0.100
115.200	-4.465	0.100
115.300	-11.442	0.100
115.400	1.904	0.100
115.500	-6.177	0.100
115.600	-7.587	0.100
115.700	-3.250	0.100
115.800	-5.549	0.100
115.900	-8.315	0.100
116.000	-7.918	0.100
116.100	-11.015	0.100
116.200	-0.372	0.100
116.300	2.344	0.100
116.400	-5.286	0.100
116.500	-10.181	0.100
116.600	0.171	0.100
116.700	-12.696	0.100
116.800	-16.178	0.100
116.900	-7.290	0.100
117.000	-12.178	0.100
117.100	-22.276	0.100
117.200	-7.703	0.100
117.300	-3.795	0.100
117.400	-8.818	0.100
117.500	-10.862	0.100
117.600	-19.692	0.100
117.700	-6.864	0.100
117.800	-4.902	0.100
117.900	4.743	0.100
118.000	-13.053	0.100
118.100	-13.619	0.100
118.200	-4.072	0.100
118.300	6.754	0.100
118.400	-12.270	0.100
118.500	-3.206	0.100
118.600	-11.520	0.100
118.700	-4.190	0.100
118.800	-10.251	0.100
118.900	-11.845	0.100
119.000	-6.572	0.100
119.100	1.990	0.100
119.200	-7.589	0.100
119.300	-5.973	0.100
119.400	-8.414	0.100
119.500	-0.961	0.100
119.600	-2.268	0.100
119.700	-4.207	0.100
119.800	-15.360	0.100
119.900	-3.859	0.100
120.000	5.643	0.100
120.100	-0.873	0.100
120.200	-5.992	0.100
120.300	-8.401	0.100
120.400	4.839	0.100
120.500	-6.183	0.100
120.600	-13.265	0.100
120.700	-9.686	0.100
120.800	-10.848	0.100
120.900	-8.067	0.101
121.000	-6.525	0.100
121.100	-11.625	0.100
121.200	-8.276	0.100
121.300	-1.176	0.100
121.400	-0.297	0.100
121.500	-15.241	0.100
121.600	5.105	0.100
121.700	-3.011	0.100
121.800	-15.201	0.100
121.900	-8.816	0.100
122.000	-7.875	0.100
122.100	-2.081	0.100
122.200	-2.379	0.100
122.300	-6.749	0.100
122.400	0.311	0.100
122.500	-3.413	0.100
122.600	-8.411	0.100
122.700	-19.799	0.100
122.800	2.808	0.100
122.900	-3.703	0.100
123.000	-12.957	0.100
123.100	-11.498	0.100
123.200	-14.336	0.100
123.300	-9.907	0.100
123.400	-7.265	0.100
123.500	-2.065	0.100
123.600	-20.234	0.100
123.700	-6.642	0.100
123.800	-17.341	0.100
123.900	-13.725	0.100
124.000	5.125	0.100
124.100	-6.599	0.100
124.200	-17.240	0.100
124.300	-8.848	0.100
124.400	-5.126	0.100
124.500	1.173	0.100
124.600	-24.743	0.100
124.700	-2.355	0.100
124.800	-9.955	0.100
124.900	1.230	0.100
125.000	0.199	0.100
125.100	-23.298	0.100
125.200	-11.100	0.100
125.300	4.490	0.100
125.400	-11.693	0.100
125.500	-13.945	0.100
125.600	-25.127	0.100
125.700	-2.504	0.100
125.800	4.133	0.100
125.900	-7.855	0.100
126.000	-11.914	0.100
126.100	-12.982	0.100
126.200	-9.665	0.100
126.300	-10.934	0.100
126.400	-13.235	0.100
126.500	7.574	0.100
126.600	-9.919	0.100
126.700	-12.447	0.100
126.800	-3.745	0.100
126.900	-10.751	0.100
127.000	-14.053	0.100
127.100	-0.424	0.100
127.200	-14.394	0.100
127.300	2.886	0.100
127.400	-12.662	0.100
127.500	-2.580	0.100
127.600	-23.924	0.100
127.700	-5.910	0.100
127.800	-17.066	0.100
127.900	3.268	0.100
128.000	-17.454	0.100
128.100	-13.876	0.100
128.200	-5.910	0.100
128.300	-19.328	0.100
128.400	-21.217	0.100
128.500	2.791	0.100
128.600	-11.331	0.100
128.700	-12.642	0.100
128.800	-13.961	0.100
128.900	-14.747	0.100
129.000	3.398	0.100
129.100	-6.076	0.100
129.200	-5.844	0.100
129.300	-26.445	0.100
129.400	-6.723	0.100
129.500	-17.629	0.100
129.600	-14.694	0.100
129.700	-9.383	0.100
129.800	-14.087	0.100
129.900	-12.847	0.100
130.000	-6.383	0.100
130.100	-4.411	0.100
130.200	-15.418	0.100
130.300	-4.331	0.100
130.400	-12.414	0.100
130.500	-6.226	0.100
130.600	-12.944	0.100
130.700	-17.611	0.100
130.800	-2.836	0.100
130.900	-15.799	0.100
131.000	-5.002	0.100
131.100	-13.212	0.100
131.200	-9.015	0.100
131.300	-6.133	0.100
131.400	-13.164	0.100
131.500	-12.524	0.100
131.600	-7.639	0.100
131.700	-12.335	0.100
131.800	-6.685	0.100
131.900	-10.256	0.100
132.000	-13.884	0.100
132.100	-20.743	0.100
132.200	-5.311	0.100
132.300	-4.814	0.100
132.400	-17.174	0.100
132.500	-8.297	0.100
132.600	-14.957	0.100
132.700	-7.466	0.100
132.800	-1.091	0.100
132.900	-8.794	0.100
133.000	-20.164	0.100
133.100	-4.519	0.100
133.200	-19.966	0.100
133.300	-15.566	0.100
133.400	-21.258	0.100
133.500	2.975	0.100
133.600	-12.922	0.100
133.700	-6.142	0.100
133.800	-14.817	0.100
133.900	-9.308	0.100
134.000	2.913	0.100
134.100	-4.534	0.100
134.200	-26.898	0.100
134.300	-8.413	0.100
134.400	-17.144	0.100
134.500	0.619	0.100
134.600	-1.130	0.100
134.700	-7.683	0.100
134.800	-1.393	0.100
134.900	-14.069	0.100
135.000	-12.773	0.100
135.100	-21.481	0.100
135.200	-13.691	0.100
135.300	0.845	0.100
135.400	-12.763	0.100
135.500	-19.963	0.100
135.600	-21.205	0.100
135.700	-20.452	0.100
135.800	10.210	0.100
135.900	-7.785	0.100
136.000	-7.618	0.100
136.100	-5.223	0.100
136.200	-12.523	0.100
136.300	-10.652	0.100
136.400	-10.164	0.100
136.500	-18.961	0.100
136.600	-14.066	0.100
136.700	-5.855	0.100
136.800	0.294	0.100
136.900	-32.887	0.100
137.000	2.219	0.100
137.100	-22.763	0.100
137.200	0.075	0.100
137.300	-9.932	0.100
137.400	-14.186	0.100
137.500	-6.250	0.100
137.600	-14.274	0.100
137.700	-24.860	0.100
137.800	-13.368	0.100
137.900	-19.764	0.100
138.000	-8.896	0.100
138.100	-18.089	0.100
138.200	-7.660	0.100
138.300	-8.956	0.100
138.400	1.892	0.100
138.500	-27.919	0.100
138.600	-11.650	0.100
138.700	-3.175	0.100
138.800	-12.110	0.100
138.900	-11.388	0.100
139.000	-13.242	0.100
139.100	-11.091	0.100
139.200	-11.051	0.100
139.300	-10.756	0.100
139.400	-6.879	0.100
139.500	2.818	0.100
139.600	-8.980	0.100
139.700	-8.631	0.100
139.800	-22.609	0.100
139.900	-16.158	0.100
140.000	-11.066	0.100
140.100	-5.314	0.100
140.200	-12.062	0.100
140.300	-13.612	0.100
140.400	-11.262	0.100
140.500	-8.480	0.100
140.600	-20.899	0.100
140.700	-16.206	0.100
140.800	-18.115	0.100
140.900	4.285	0.100
141.000	-8.840	0.100
141.100	-7.372	0.100
141.200	-18.303	0.100
141.300	-12.208	0.100
141.400	-2.295	0.100
141.500	-10.331	0.100
141.600	-4.075	0.100
141.700	-16.648	0.100
141.800	-16.616	0.100
141.900	-11.075	0.100
142.000	0.418	0.100
142.100	-1.027	0.100
142.200	-20.089	0.100
142.300	-9.235	0.100
142.400	-28.009	0.100
142.500	4.911	0.100
142.600	-8.207	0.100
142.700	-18.686	0.100
142.800	-8.400	0.100
142.900	-15.537	0.100
143.000	-8.743	0.100
143.100	-12.990	0.100
143.200	-11.959	0.100
143.300	-19.735	0.100
143.400	-11.802	0.100
143.500	-12.588	0.100
143.600	-15.954	0.100
143.700	0.604	0.100
143.800	-3.936	0.100
143.900	-7.966	0.100
144.000	-1.544	0.100
144.100	-11.375	0.100
144.200	-15.009	0.100
144.300	-13.540	0.100
144.400	-14.678	0.100
144.500	-12.824	0.100
144.600	-8.834	0.100
144.700	-12.487	0.100
144.800	-16.089	0.100
144.900	-8.191	0.100
145.000	-1.896	0.100
145.100	-2.294	0.100
145.200	-29.910	0.100
145.300	-4.326	0.100
145.400	-12.086	0.100
145.500	-33.483	0.100
145.600	-8.751	0.100
145.700	-16.311	0.100
145.800	-9.174	0.100
145.900	-14.932	0.100
146.000	0.000	0.100
146.100	1.509	0.100
146.200	-18.833	0.100
146.300	-13.619	0.100
146.400	-16.659	0.100
146.500	-9.967	0.100
146.600	-9.769	0.100
146.700	-14.804	0.100
146.800	-14.317	0.100
146.900	-9.624	0.100
147.000	-1.035	0.100
147.100	-4.762	0.100
147.200	-17.380	0.100
147.300	-12.615	0.100
147.400	-1.124	0.100
147.500	-8.928	0.100
147.600	-16.723	0.100
147.700	-14.896	0.100
147.800	1.144	0.100
147.900	-15.053	0.100
148.000	-12.556	0.100
148.100	-4.205	0.100
148.200	-9.743	0.100
148.300	-15.223	0.100
148.400	-10.415	0.100
148.500	-11.240	0.100
148.600	-6.643	0.100
148.700	-18.117	0.100
148.800	-15.264	0.100
148.900	-11.478	0.100
149.000	-21.858	0.100
149.100	-16.562	0.100
149.200	-19.490	0.100
149.300	-13.604	0.100
149.400	-4.619	0.100
149.500	3.712	0.100
149.600	-13.701	0.100
149.700	-14.883	0.100
149.800	-8.937	0.100
149.900	-11.749	0.100
150.000	-3.064	0.100
150.100	-13.790	0.100
150.200	-9.545	0.100
150.300	-23.242	0.100
150.400	-9.466	0.100
150.500	-14.365	0.100
150.600	1.746	0.100
150.700	-4.304	0.100
150.800	-9.546	0.100
150.900	-18.277	0.100
151.000	-11.404	0.100
151.100	-9.716	0.100
151.200	-15.583	0.100
151.300	-8.184	0.100
151.400	-2.259	0.100
151.500	-11.429	0.100
151.600	-23.958	0.100
151.700	-8.147	0.100
151.800	-16.364	0.100
151.900	-8.488	0.100
152.000	-13.095	0.100
152.100	-8.527	0.100
152.200	-17.128	0.100
152.300	-7.751	0.100
152.400	-0.510	0.100
152.500	-16.533	0.100
152.600	-5.322	0.100
152.700	-23.434	0.100
152.800	-5.591	0.100
152.900	0.098	0.100
153.000	-34.259	0.100
153.100	-4.452	0.100
153.200	-11.440	0.100
153.300	-6.212	0.100
153.400	-8.139	0.100
153.500	-23.421	0.100
153.600	-5.084	0.100
153.700	-7.400	0.100
153.800	-10.775	0.100
153.900	-13.685	0.100
154.000	-7.789	0.100
154.100	-12.600	0.100
154.200	-5.822	0.100
154.300	-8.149	0.100
154.400	-9.403	0.100
154.500	-6.180	0.100
154.600	-8.249	0.100
154.700	-22.348	0.100
154.800	-14.331	0.100
154.900	-6.932	0.100
155.000	2.222	0.100
155.100	-11.710	0.100
155.200	-21.374	0.100
155.300	-9.848	0.100
155.400	-3.905	0.100
155.500	-2.615	0.100
155.600	1.377	0.100
155.700	-22.564	0.100
155.800	-10.222	0.100
155.900	-21.321	0.100
156.000	0.546	0.100
156.100	-6.417	0.100
156.200	-4.364	0.100
156.300	-7.768	0.100
156.400	2.332	0.100
156.500	-11.294	0.100
156.600	-10.007	0.100
156.700	-13.291	0.100
156.800	-13.025	0.100
156.900	-10.625	0.100
157.000	-8.911	0.100
157.100	-19.188	0.100
157.200	-9.794	0.100
157.300	-10.667	0.100
157.400	-6.431	0.100
157.500	-13.736	0.100
157.600	-10.503	0.100
157.700	-9.925	0.100
157.800	-19.261	0.100
157.900	-9.186	0.100
158.000	-13.474	0.100
158.100	-2.914	0.100
158.200	-2.945	0.100
158.300	-8.177	0.100
158.400	-25.161	0.100
158.500	-20.863	0.100
158.600	-14.746	0.100
158.700	-4.332	0.100
158.800	-8.915	0.100
158.900	-8.165	0.100
159.000	-7.868	0.100
159.100	-13.871	0.100
159.200	-11.662	0.100
159.300	-14.442	0.100
159.400	-14.658	0.100
159.500	-4.330	0.100
159.600	-3.725	0.100
159.700	-15.431	0.100
159.800	-7.270	0.100
159.900	-14.434	0.100
160.000	-24.179	0.100
160.100	-5.170	0.100
160.200	-4.618	0.100
160.300	-31.827	0.100
160.400	-19.162	0.100
160.500	-1.131	0.100
160.600	-13.045	0.100
160.700	-4.992	0.100
160.800	-21.058	0.100
160.900	-6.952	0.100
161.000	-1.491	0.100
161.100	-19.284	0.100
161.200	1.600	0.100
161.300	-17.551	0.100
161.400	-12.982	0.100
161.500	2.710	0.100
161.600	-20.626	0.100
161.700	-14.808	0.100
161.800	-23.366	0.100
161.900	-7.972	0.100
162.000	-14.713	0.100
162.100	-15.862	0.100
162.200	1.595	0.100
162.300	-5.202	0.100
162.400	-9.345	0.100
162.500	-14.899	0.100
162.600	2.678	0.100
162.700	-11.507	0.100
162.800	-15.112	0.100
162.900	-7.989	0.100
163.000	-1.894	0.100
163.100	-0.454	0.100
163.200	-21.463	0.100
163.300	-5.386	0.100
163.400	0.530	0.100
163.500	-21.962	0.100
163.600	-10.045	0.100
163.700	-8.337	0.100
163.800	-9.255	0.100
163.900	-14.461	0.100
164.000	-6.932	0.100
164.100	7.940	0.100
164.200	-17.365	0.100
164.300	-9.269	0.100
164.400	-11.498	0.100
164.500	-8.249	0.100
164.600	-0.569	0.100
164.700	-14.260	0.100
164.800	-2.070	0.100
164.900	-9.237	0.100
165.000	-12.736	0.100
165.100	0.660	0.100
165.200	-11.793	0.100
165.300	-16.615	0.100
165.400	-13.303	0.100
165.500	-16.393	0.100
165.600	-0.202	0.100
165.700	-13.551	0.100
165.800	-6.652	0.100
165.900	-3.911	0.100
166.000	-9.096	0.100
166.100	-15.403	0.100
166.200	-3.251	0.100
166.300	-11.417	0.100
166.400	-9.778	0.100
166.500	-4.806	0.100
166.600	-21.795	0.100
166.700	-20.728	0.100
166.800	-13.495	0.100
166.900	-3.990	0.100
167.000	-18.061	0.100
167.100	-12.040	0.100
167.200	3.858	0.100
167.300	-11.476	0.100
167.400	-15.692	0.100
167.500	2.088	0.100
167.600	-8.109	0.100
167.700	-3.161	0.100
167.800	-11.216	0.100
167.900	-3.878	0.100
168.000	-9.122	0.100
168.100	-7.882	0.100
168.200	-3.922	0.100
168.300	8.577	0.100
168.400	-8.538	0.100
168.500	-17.247	0.100
168.600	-18.353	0.100
168.700	-6.281	0.100
168.800	-9.111	0.100
168.900	-7.092	0.100
169.000	-19.787	0.100
169.100	-0.337	0.100
169.200	-4.386	0.100
169.300	-16.030	0.100
169.400	-7.975	0.100
169.500	-20.778	0.100
169.600	-13.760	0.100
169.700	-6.727	0.100
169.800	-7.970	0.100
169.900	-2.747	0.100
170.000	0.599	0.100
170.100	-16.739	0.100
170.200	-13.450	0.100
170.300	-2.572	0.100
170.400	-7.043	0.100
170.500	-23.320	0.100
170.600	8.539	0.100
170.700	-7.208	0.100
170.800	-3.567	0.100
170.900	2.219	0.100
171.000	-25.026	0.100
171.100	-3.985	0.100
171.200	-1.291	0.100
171.300	-15.646	0.100
171.400	-7.682	0.100
171.500	-4.638	0.100
171.600	-3.803	0.100
171.700	-15.831	0.100
171.800	-11.091	0.100
171.900	-15.295	0.100
172.000	-14.955	0.100
172.100	-0.534	0.100
172.200	-13.841	0.100
172.300	-4.230	0.100
172.400	-2.434	0.100
172.500	-13.128	0.100
172.600	-20.266	0.100
172.700	-8.004	0.100
172.800	-10.765	0.100
172.900	6.302	0.100
173.000	2.428	0.100
173.100	-4.892	0.100
173.200	-21.681	0.100
173.300	-11.489	0.100
173.400	0.790	0.100
173.500	-20.770	0.100
173.600	-1.554	0.100
173.700	-7.199	0.100
173.800	-7.982	0.100
173.900	-8.861	0.100
174.000	-5.978	0.100
174.100	-6.237	0.100
174.200	-21.330	0.100
174.300	-11.759	0.100
174.400	-5.297	0.100
174.500	-16.624	0.100
174.600	-8.231	0.100
174.700	1.248	0.100
174.800	-15.597	0.100
174.900	-15.505	0.100
175.000	0.972	0.100
175.100	-13.818	0.100
175.200	-10.269	0.100
175.300	-0.075	0.100
175.400	-12.791	0.100
175.500	-13.224	0.100
175.600	-3.056	0.100
175.700	-11.130	0.100
175.800	-12.012	0.100
175.900	-6.060	0.100
176.000	-13.104	0.100
176.100	-9.398	0.100
176.200	-5.582	0.100
176.300	-9.110	0.100
176.400	-3.387	0.100
176.500	-24.032	0.100
176.600	-1.375	0.100
176.700	-9.351	0.100
176.800	-5.251	0.100
176.900	-3.890	0.100
177.000	-20.558	0.100
177.100	-3.990	0.100
177.200	-12.183	0.100
177.300	-14.711	0.100
177.400	-5.777	0.100
177.500	-14.795	0.100
177.600	-4.450	0.100
177.700	6.091	0.100
177.800	-1.418	0.100
177.900	-14.708	0.100
178.000	-12.420	0.100
178.100	-15.052	0.100
178.200	-4.550	0.100
178.300	7.918	0.100
178.400	-7.711	0.100
178.500	-2.244	0.100
178.600	-11.573	0.100
178.700	-1.182	0.100
178.800	-16.123	0.100
178.900	-15.267	0.100
179.000	-8.146	0.100
179.100	1.045	0.100
179.200	-4.973	0.100
179.300	-1.607	0.100
179.400	-11.205	0.100
179.500	-14.030	0.100
179.600	-22.100	0.100
179.700	-2.128	0.100
179.800	3.422	0.100
179.900	-6.408	0.100
180.000	-3.269	0.100
180.100	-11.319	0.100
180.200	-0.593	0.100
180.300	-4.261	0.100
180.400	0.169	0.100
180.500	2.901	0.100
180.600	6.074	0.100
180.700	15.211	0.100
180.800	-10.828	0.100
180.900	4.246	0.100
181.000	-6.213	0.100
181.100	5.277	0.100
181.200	9.210	0.100
181.300	-2.956	0.100
181.400	12.025	0.100
181.500	15.857	0.100
181.600	0.949	0.100
181.700	8.900	0.100
181.800	20.723	0.100
181.900	5.277	0.100
182.000	14.497	0.100
182.100	9.608	0.100
182.200	20.785	0.100
182.300	7.719	0.100
182.400	23.757	0.100
182.500	11.929	0.100
182.600	12.118	0.100
182.700	14.421	0.100
182.800	18.614	0.100
182.900	7.633	0.100
183.000	14.357	0.100
183.100	2.634	0.100
183.200	21.009	0.100
183.300	15.984	0.100
183.400	21.118	0.100
183.500	29.833	0.100
183.600	13.393	0.100
183.700	9.900	0.100
183.800	33.002	0.100
183.900	16.038	0.100
184.000	25.836	0.100
184.100	13.370	0.100
184.200	12.679	0.100
184.300	10.752	0.100
184.400	17.810	0.100
184.500	17.831	0.100
184.600	8.685	0.100
184.700	11.895	0.100
184.800	-1.185	0.100
184.900	14.313	0.100
185.000	19.157	0.100
185.100	20.975	0.100
185.200	23.415	0.100
185.300	13.924	0.100
185.400	12.181	0.100
185.500	7.758	0.100
185.600	17.571	0.100
185.700	19.092	0.100
185.800	6.458	0.100
185.900	8.497	0.100
186.000	2.927	0.100
186.100	10.012	0.100
186.200	9.721	0.100
186.300	18.530	0.100
186.400	9.572	0.100
186.500	16.573	0.100
186.600	5.691	0.100
186.700	18.005	0.100
186.800	9.569	0.100
186.900	15.250	0.100
187.000	18.740	0.100
187.100	15.941	0.100
187.200	16.060	0.100
187.300	9.844	0.100
187.400	15.095	0.100
187.500	22.977	0.100
187.600	13.831	0.100
187.700	5.143	0.100
187.800	16.864	0.100
187.900	15.882	0.100
188.000	23.888	0.100
188.100	7.910	0.100
188.200	10.198	0.100
188.300	17.830	0.100
188.400	14.398	0.100
188.500	12.507	0.100
188.600	13.083	0.100
188.700	16.818	0.100
188.800	8.893	0.100
188.900	15.366	0.100
189.000	9.932	0.100
189.100	19.662	0.100
189.200	6.973	0.100
189.300	20.625	0.100
189.400	21.125	0.100
189.500	22.048	0.100
189.600	18.667	0.100
189.700	6.961	0.100
189.800	10.564	0.100
189.900	8.282	0.100
190.000	12.264	0.100
190.100	19.164	0.100
190.200	16.725	0.100
190.300	17.152	0.100
190.400	16.382	0.100
190.500	22.296	0.100
190.600	5.922	0.100
190.700	15.801	0.100
190.800	-4.274	0.100
190.900	18.295	0.100
191.000	18.549	0.100
191.100	13.444	0.100
191.200	10.130	0.100
191.300	22.404	0.100
191.400	17.629	0.100
191.500	7.005	0.100
191.600	20.130	0.100
191.700	11.403	0.100
191.800	21.402	0.100
191.900	13.713	0.100
192.000	16.064	0.100
192.100	29.503	0.100
192.200	21.050	0.100
192.300	16.441	0.100
192.400	20.214	0.100
192.500	15.393	0.100
192.600	15.674	0.100
192.700	25.138	0.100
192.800	20.840	0.100
192.900	8.695	0.100
193.000	20.862	0.100
193.100	16.059	0.100
193.200	11.188	0.100
193.300	13.210	0.100
193.400	16.653	0.100
193.500	13.357	0.100
193.600	18.223	0.100
193.700	13.955	0.100
193.800	7.592	0.100
193.900	13.795	0.100
194.000	21.124	0.100
194.100	5.209	0.100
194.200	21.274	0.100
194.300	16.223	0.100
194.400	18.244	0.100
194.500	22.157	0.100
194.600	19.581	0.100
194.700	18.571	0.100
194.800	14.706	0.100
194.900	14.483	0.100
195.000	14.795	0.100
195.100	12.719	0.100
195.200	21.287	0.100
195.300	27.213	0.100
195.400	19.358	0.100
195.500	15.040	0.100
195.600	6.886	0.100
195.700	24.610	0.100
195.800	25.089	0.100
195.900	9.872	0.100
196.000	24.016	0.100
196.100	17.988	0.100
196.200	23.100	0.100
196.300	12.653	0.100
196.400	26.012	0.100
196.500	30.688	0.100
196.600	17.679	0.100
196.700	23.419	0.100
196.800	31.093	0.100
196.900	11.355	0.100
197.000	22.380	0.100
197.100	17.152	0.100
197.200	21.065	0.100
197.300	14.644	0.100
197.400	21.348	0.100
197.500	9.144	0.100
197.600	33.368	0.100
197.700	25.146	0.100
197.800	19.767	0.100
197.900	26.523	0.100
198.000	20.689	0.100
198.100	18.561	0.100
198.200	21.148	0.100
198.300	24.379	0.100
198.400	12.500	0.100
198.500	30.909	0.100
198.600	18.105	0.100
198.700	24.401	0.100
198.800	18.335	0.100
198.900	23.763	0.100
199.000	23.573	0.100
199.100	19.068	0.100
199.200	30.315	0.100
199.300	5.775	0.100
199.400	17.538	0.100
199.500	36.660	0.100
199.600	24.324	0.100
199.700	31.258	0.100
199.800	31.483	0.100
199.900	24.246	0.100
200.000	23.709	0.100
200.100	24.739	0.100
200.200	15.239	0.100
200.300	26.296	0.100
200.400	35.426	0.100
200.500	39.590	0.100
200.600	28.780	0.100
200.700	22.664	0.100
200.800	14.934	0.100
200.900	14.915	0.100
201.000	37.863	0.100
201.100	19.108	0.100
201.200	23.845	0.100
201.300	33.785	0.100
201.400	28.135	0.100
201.500	24.564	0.100
201.600	25.436	0.100
201.700	33.049	0.100
201.800	17.829	0.100
201.900	32.659	0.100
202.000	35.457	0.100
202.100	25.392	0.100
202.200	16.175	0.100
202.300	30.313	0.100
202.400	30.994	0.100
202.500	22.422	0.100
202.600	29.824	0.100
202.700	28.742	0.100
202.800	19.124	0.100
202.900	38.764	0.100
203.000	23.783	0.100
203.100	25.984	0.100
203.200	28.984	0.100
203.300	25.192	0.100
203.400	36.915	0.100
203.500	19.971	0.100
203.600	14.842	0.100
203.700	49.177	0.100
203.800	22.512	0.100
203.900	26.785	0.100
204.000	27.310	0.100
204.100	26.406	0.100
204.200	33.285	0.100
204.300	30.966	0.100
204.400	29.941	0.100
204.500	22.536	0.100
204.600	34.784	0.100
204.700	16.171	0.100
204.800	33.883	0.100
204.900	38.208	0.100
205.000	30.074	0.100
205.100	23.966	0.100
205.200	40.426	0.100
205.300	27.737	0.100
205.400	34.329	0.100
205.500	11.702	0.100
205.600	45.498	0.100
205.700	22.191	0.100
205.800	35.586	0.100
205.900	33.932	0.100
206.000	19.612	0.100
206.100	27.462	0.100
206.200	32.731	0.100
206.300	31.174	0.100
206.400	40.828	0.100
206.500	29.471	0.100
206.600	31.312	0.100
206.700	31.626	0.100
206.800	26.496	0.100
206.900	32.021	0.100
207.000	30.580	0.100
207.100	24.039	0.100
207.200	37.473	0.100
207.300	26.820	0.100
207.400	19.275	0.100
207.500	31.039	0.100
207.600	35.565	0.100
207.700	34.019	0.100
207.800	18.413	0.100
207.900	40.781	0.100
208.000	26.843	0.100
208.100	25.590	0.100
208.200	29.412	0.100
208.300	21.330	0.100
208.400	22.875	0.100
208.500	37.900	0.100
208.600	30.712	0.100
208.700	45.915	0.100
208.800	25.652	0.100
208.900	12.967	0.100
209.000	45.201	0.100
209.100	23.900	0.100
209.200	41.467	0.100
209.300	32.970	0.100
209.400	33.191	0.100
209.500	10.766	0.100
209.600	37.203	0.100
209.700	46.628	0.100
209.800	27.977	0.100
209.900	25.443	0.100
210.000	27.246	0.100
210.100	37.866	0.100
210.200	31.232	0.100
210.300	27.354	0.100
210.400	29.115	0.100
210.500	27.019	0.100
210.600	16.484	0.100
210.700	30.027	0.100
210.800	24.881	0.100
210.900	22.377	0.100
211.000	39.023	0.100
211.100	28.848	0.100
211.200	31.827	0.100
211.300	20.917	0.100
211.400	27.053	0.100
211.500	39.345	0.100
211.600	27.463	0.100
211.700	11.162	0.100
211.800	30.812	0.100
211.900	32.455	0.100
212.000	36.290	0.100
212.100	36.658	0.100
212.200	44.941	0.100
212.300	31.941	0.100
212.400	27.713	0.100
212.500	17.411	0.100
212.600	15.099	0.100
212.700	28.680	0.100
212.800	45.505	0.100
212.900	45.279	0.100
213.000	35.097	0.100
213.100	19.563	0.100
213.200	14.393	0.100
213.300	22.745	0.100
213.400	34.185	0.100
213.500	24.583	0.100
213.600	33.984	0.100
213.700	40.474	0.100
213.800	26.384	0.100
213.900	29.714	0.100
214.000	32.961	0.100
214.100	27.492	0.100
214.200	24.226	0.100
214.300	26.484	0.100
214.400	35.084	0.100
214.500	29.781	0.100
214.600	23.458	0.100
214.700	26.691	0.100
214.800	29.191	0.100
214.900	28.021	0.100
215.000	43.886	0.100
215.100	19.845	0.100
215.200	21.845	0.100
215.300	29.022	0.100
215.400	15.499	0.100
215.500	40.758	0.100
215.600	27.056	0.100
215.700	24.845	0.100
215.800	23.086	0.100
215.900	31.808	0.100
216.000	16.328	0.100
216.100	36.932	0.100
216.200	24.765	0.100
216.300	31.213	0.100
216.400	27.701	0.100
216.500	22.568	0.100
216.600	40.966	0.100
216.700	36.953	0.100
216.800	30.043	0.100
216.900	32.566	0.100
217.000	31.925	0.100
217.100	23.877	0.100
217.200	37.462	0.100
217.300	27.532	0.100
217.400	35.539	0.100
217.500	23.544	0.100
217.600	29.978	0.100
217.700	19.635	0.100
217.800	23.368	0.100
217.900	32.987	0.100
218.000	43.199	0.100
218.100	28.837	0.100
218.200	35.652	0.100
218.300	29.582	0.100
218.400	27.581	0.100
218.500	41.351	0.100
218.600	34.120	0.100
218.700	25.979	0.100
218.800	19.648	0.100
218.900	30.894	0.100
219.000	35.781	0.100
219.100	37.617	0.100
219.200	31.084	0.100
219.300	22.081	0.100
219.400	25.264	0.100
219.500	26.999	0.100
219.600	29.351	0.100
219.700	33.046	0.100
219.800	26.896	0.100
219.900	24.804	0.100
220.000	29.047	0.100
220.100	22.181	0.100
220.200	29.234	0.100
220.300	10.470	0.100
220.400	35.328	0.100
220.500	31.621	0.100
220.600	29.658	0.100
220.700	22.994	0.100
220.800	21.036	0.100
220.900	25.174	0.100
221.000	19.970	0.100
221.100	33.068	0.100
221.200	30.889	0.100
221.300	43.682	0.100
221.400	33.194	0.100
221.500	26.440	0.100
221.600	29.841	0.100
221.700	23.592	0.100
221.800	16.139	0.100
221.900	34.021	0.100
222.000	44.129	0.100
222.100	29.547	0.100
222.200	46.028	0.100
222.300	22.929	0.100
222.400	26.427	0.100
222.500	36.382	0.100
222.600	26.529	0.100
222.700	16.894	0.100
222.800	36.365	0.100
222.900	26.152	0.100
223.000	33.509	0.100
223.100	18.645	0.100
223.200	30.179	0.100
223.300	33.549	0.100
223.400	29.128	0.100
223.500	28.258	0.100
223.600	32.430	0.100
223.700	21.899	0.100
223.800	35.273	0.100
223.900	30.503	0.100
224.000	32.213	0.100
224.100	35.616	0.100
224.200	26.541	0.100
224.300	23.407	0.100
224.400	33.667	0.100
224.500	23.903	0.100
224.600	19.286	0.100
224.700	22.346	0.100
224.800	22.181	0.100
224.900	31.180	0.100
225.000	19.573	0.100
225.100	30.271	0.100
225.200	27.006	0.100
225.300	25.339	0.100
225.400	29.325	0.100
225.500	25.266	0.100
225.600	25.702	0.100
225.700	32.413	0.100
225.800	24.434	0.100
225.900	41.413	0.100
226.000	28.878	0.100
226.100	29.998	0.100
226.200	27.595	0.100
226.300	17.360	0.100
226.400	26.481	0.100
226.500	17.602	0.100
226.600	22.112	0.100
226.700	15.009	0.100
226.800	38.316	0.100
226.900	26.396	0.100
227.000	29.579	0.100
227.100	25.622	0.100
227.200	29.125	0.100
227.300	29.716	0.100
227.400	29.996	0.100
227.500	34.777	0.100
227.600	24.984	0.100
227.700	26.672	0.100
227.800	27.413	0.100
227.900	23.718	0.100
228.000	37.947	0.100
228.100	26.311	0.100
228.200	22.322	0.100
228.300	24.118	0.100
228.400	33.399	0.100
228.500	35.655	0.100
228.600	24.821	0.100
228.700	27.113	0.100
228.800	34.488	0.100
228.900	14.895	0.100
229.000	25.754	0.100
229.100	33.278	0.100
229.200	26.903	0.100
229.300	22.028	0.100
229.400	23.402	0.100
229.500	29.627	0.100
229.600	36.440	0.100
229.700	28.032	0.100
229.800	25.989	0.100
229.900	21.761	0.100
230.000	43.703	0.100
230.100	26.145	0.100
230.200	24.470	0.100
230.300	26.836	0.100
230.400	26.015	0.100
230.500	21.121	0.100
230.600	38.066	0.100
230.700	30.940	0.100
230.800	27.306	0.100
230.900	25.969	0.100
231.000	19.257	0.100
231.100	33.738	0.100
231.200	38.458	0.100
231.300	33.745	0.100
231.400	24.028	0.100
231.500	24.356	0.100
231.600	23.538	0.100
231.700	30.087	0.100
231.800	21.653	0.100
231.900	30.844	0.100
232.000	17.841	0.100
232.100	31.346	0.100
232.200	32.403	0.100
232.300	37.793	0.100
232.400	20.794	0.100
232.500	28.810	0.100
232.600	37.875	0.100
232.700	22.540	0.100
232.800	29.179	0.100
232.900	23.669	0.100
233.000	43.011	0.100
233.100	29.037	0.100
233.200	33.018	0.100
233.300	25.796	0.100
233.400	14.132	0.100
233.500	41.247	0.100
233.600	25.339	0.100
233.700	11.302	0.100
233.800	13.567	0.100
233.900	40.242	0.100
234.000	19.485	0.100
234.100	38.271	0.100
234.200	30.386	0.100
234.300	33.799	0.100
234.400	37.550	0.100
234.500	23.980	0.100
234.600	17.915	0.100
234.700	24.397	0.100
234.800	23.347	0.100
234.900	33.193	0.100
235.000	21.426	0.100
235.100	31.034	0.100
235.200	25.862	0.100
235.300	42.515	0.100
235.400	24.529	0.100
235.500	13.409	0.100
235.600	32.324	0.100
235.700	35.978	0.100
235.800	15.894	0.100
235.900	20.176	0.100
236.000	21.637	0.100
236.100	26.574	0.100
236.200	32.271	0.100
236.300	32.693	0.100
236.400	41.334	0.100
236.500	23.927	0.100
236.600	33.488	0.100
236.700	24.292	0.100
236.800	22.401	0.100
236.900	27.323	0.100
237.000	38.086	0.100
237.100	30.461	0.100
237.200	16.462	0.100
237.300	43.743	0.100
237.400	31.725	0.100
237.500	27.121	0.100
237.600	29.162	0.100
237.700	26.651	0.100
237.800	20.121	0.100
237.900	31.790	0.100
238.000	19.260	0.100
238.100	28.740	0.100
238.200	35.757	0.100
238.300	20.492	0.100
238.400	26.425	0.100
238.500	32.309	0.100
238.600	29.786	0.100
238.700	25.164	0.100
238.800	34.648	0.100
238.900	0.782	0.100
239.000	43.287	0.100
239.100	40.239	0.100
239.200	31.017	0.100
239.300	22.965	0.100
239.400	35.001	0.100
239.500	28.925	0.100
239.600	23.188	0.100
239.700	21.687	0.100
239.800	37.634	0.100
239.900	21.055	0.100
240.000	26.979	0.100
240.100	18.338	0.100
240.200	19.817	0.100
240.300	12.451	0.100
240.400	15.085	0.100
240.500	21.751	0.100
240.600	6.962	0.100
240.700	26.336	0.100
240.800	10.593	0.100
240.900	21.577	0.100
241.000	13.278	0.100
241.100	11.469	0.100
241.200	14.570	0.100
241.300	2.373	0.100
241.400	13.797	0.100
241.500	7.374	0.100
241.600	11.187	0.100
241.700	0.533	0.100
241.800	5.674	0.100
241.900	13.346	0.100
242.000	4.281	0.100
242.100	2.503	0.100
242.200	6.382	0.100
242.300	6.696	0.100
242.400	-0.304	0.100
242.500	-8.361	0.100
242.600	-0.777	0.100
242.700	-5.853	0.100
242.800	-0.669	0.100
242.900	-5.750	0.100
243.000	-3.291	0.100
243.100	-12.478	0.100
243.200	-17.342	0.100
243.300	-3.076	0.100
243.400	-3.386	0.100
243.500	2.485	0.100
243.600	-7.022	0.100
243.700	7.483	0.100
243.800	-8.693	0.100
243.900	-9.169	0.100
244.000	-11.256	0.100
244.100	-0.565	0.100
244.200	-4.987	0.100
244.300	-22.362	0.100
244.400	0.957	0.100
244.500	1.534	0.100
244.600	-4.385	0.100
244.700	-8.563	0.100
244.800	-6.343	0.100
244.900	-8.728	0.100
245.000	-4.812	0.100
245.100	-5.323	0.100
245.200	1.268	0.100
245.300	-3.043	0.100
245.400	-9.014	0.100
245.500	-0.782	0.100
245.600	-13.012	0.100
245.700	-4.613	0.100
245.800	-14.129	0.100
245.900	0.340	0.100
246.000	0.828	0.100
246.100	-5.178	0.100
246.200	-15.080	0.100
246.300	-16.630	0.100
246.400	-8.618	0.100
246.500	9.374	0.100
246.600	-15.244	0.100
246.700	6.771	0.100
246.800	-4.635	0.100
246.900	-8.485	0.100
247.000	-11.107	0.100
247.100	-21.036	0.100
247.200	-3.486	0.100
247.300	-8.960	0.100
247.400	-10.946	0.100
247.500	-8.863	0.100
247.600	-2.023	0.100
247.700	-5.596	0.100
247.800	0.870	0.100
247.900	-7.571	0.100
248.000	-5.762	0.100
248.100	3.997	0.100
248.200	-5.338	0.100
248.300	-5.322	0.100
248.400	-7.661	0.100
248.500	-16.503	0.100
248.600	1.692	0.100
248.700	-7.950	0.100
248.800	-2.977	0.100
248.900	-12.610	0.100
249.000	2.041	0.100
249.100	-8.039	0.100
249.200	-4.905	0.100
249.300	6.716	0.100
249.400	5.384	0.100
249.500	-9.882	0.100
249.600	2.943	0.100
249.700	-7.022	0.100
249.800	-11.848	0.100
249.900	-5.330	0.100
250.000	-8.002	0.100
250.100	-6.668	0.100
250.200	-5.724	0.100
250.300	-5.479	0.100
250.400	0.935	0.100
250.500	-3.997	0.100
250.600	-0.332	0.100
250.700	-2.099	0.100
250.800	-7.570	0.100
250.900	-2.968	0.100
251.000	-14.930	0.100
251.100	-2.813	0.100
251.200	0.359	0.100
251.300	0.445	0.100
251.400	-6.430	0.100
251.500	-0.019	0.100
251.600	6.342	0.100
251.700	-11.046	0.100
251.800	3.613	0.100
251.900	-6.491	0.100
252.000	-17.241	0.100
252.100	-8.650	0.100
252.200	-12.540	0.100
252.300	1.140	0.100
252.400	-15.961	0.100
252.500	-5.486	0.100
252.600	-3.842	0.100
252.700	-15.189	0.100
252.800	6.076	0.100
252.900	-5.125	0.100
253.000	-0.792	0.100
253.100	-8.795	0.100
253.200	6.094	0.100
253.300	2.483	0.100
253.400	4.631	0.100
253.500	-13.460	0.100
253.600	-5.113	0.100
253.700	-1.968	0.100
253.800	-4.783	0.100
253.900	-19.302	0.100
254.000	-2.815	0.100
254.100	6.969	0.100
254.200	-11.812	0.100
254.300	2.462	0.100
254.400	-0.439	0.100
254.500	-7.624	0.100
254.600	-7.744	0.100
254.700	-4.128	0.100
254.800	2.988	0.100
254.900	-3.928	0.100
255.000	0.847	0.100
255.100	-4.076	0.100
255.200	-7.082	0.100
255.300	-14.997	0.100
255.400	1.176	0.100
255.500	-15.957	0.100
255.600	-9.637	0.100
255.700	-13.913	0.100
255.800	-6.518	0.100
255.900	-6.017	0.100
256.000	-10.484	0.100
256.100	-21.036	0.100
256.200	4.965	0.100
256.300	-9.043	0.100
256.400	-9.641	0.100
256.500	-5.624	0.100
256.600	3.630	0.100
256.700	-3.671	0.100
256.800	-4.416	0.100
256.900	-4.473	0.100
257.000	-0.321	0.100
257.100	-19.095	0.100
257.200	-13.603	0.100
257.300	-7.816	0.100
257.400	-7.693	0.100
257.500	-0.105	0.100
257.600	-4.602	0.100
257.700	-11.286	0.100
257.800	-8.983	0.100
257.900	-15.015	0.100
258.000	-10.144	0.100
258.100	11.569	0.100
258.200	-0.019	0.100
258.300	-7.471	0.100
258.400	-4.785	0.100
258.500	-24.624	0.100
258.600	-13.397	0.100
258.700	-2.249	0.100
258.800	-2.536	0.100
258.900	-14.900	0.100
259.000	-1.158	0.100
259.100	-2.945	0.100
259.200	0.561	0.100
259.300	-9.119	0.100
259.400	2.668	0.100
259.500	1.231	0.100
259.600	-5.960	0.100
259.700	-16.894	0.100
259.800	-6.868	0.100
259.900	-11.634	0.100
260.000	-8.754	0.100
260.100	-9.847	0.100
260.200	-17.129	0.100
260.300	-6.189	0.100
260.400	-0.077	0.100
260.500	-9.967	0.100
260.600	-3.272	0.100
260.700	3.414	0.100
260.800	-0.232	0.100
260.900	-3.858	0.100
261.000	-9.169	0.100
261.100	-11.972	0.100
261.200	-9.598	0.100
261.300	-15.709	0.100
261.400	-1.462	0.100
261.500	-8.164	0.100
261.600	-2.027	0.100
261.700	-5.919	0.100
261.800	-4.958	0.100
261.900	-10.106	0.100
262.000	-13.258	0.100
262.100	4.660	0.100
262.200	-2.843	0.100
262.300	-9.976	0.100
262.400	-13.336	0.100
262.500	-1.136	0.100
262.600	-8.528	0.100
262.700	-8.456	0.100
262.800	-13.333	0.100
262.900	-11.303	0.100
263.000	-0.059	0.100
263.100	-13.142	0.100
263.200	-8.127	0.100
263.300	-12.148	0.100
263.400	-16.183	0.100
263.500	-4.582	0.100
263.600	10.630	0.100
263.700	-15.446	0.100
263.800	-12.824	0.100
263.900	-5.683	0.100
264.000	-12.348	0.100
264.100	1.323	0.100
264.200	-9.515	0.100
264.300	-15.144	0.100
264.400	-19.685	0.100
264.500	0.873	0.100
264.600	0.620	0.100
264.700	-13.788	0.100
264.800	-27.690	0.100
264.900	-3.752	0.100
265.000	-7.025	0.100
265.100	4.369	0.100
265.200	-8.719	0.100
265.300	-9.575	0.100
265.400	-7.796	0.100
265.500	-5.702	0.100
265.600	-13.751	0.100
265.700	-5.865	0.100
265.800	-12.819	0.100
265.900	-20.935	0.100
266.000	-12.723	0.100
266.100	-2.982	0.100
266.200	-0.610	0.100
266.300	-6.671	0.100
266.400	-15.299	0.100
266.500	-14.576	0.100
266.600	-2.703	0.100
266.700	-8.437	0.100
266.800	1.036	0.100
266.900	-4.012	0.100
267.000	-8.657	0.100
267.100	-12.433	0.100
267.200	-3.932	0.100
267.300	-10.772	0.100
267.400	-14.526	0.100
267.500	-12.501	0.100
267.600	-16.621	0.100
267.700	-5.477	0.100
267.800	-5.298	0.100
267.900	-7.591	0.100
268.000	-13.870	0.100
268.100	-9.967	0.100
268.200	-10.716	0.100
268.300	-3.929	0.100
268.400	-8.996	0.100
268.500	-24.617	0.100
268.600	-9.179	0.100
268.700	-24.023	0.100
268.800	-8.391	0.100
268.900	0.662	0.100
269.000	-11.809	0.100
269.100	-10.763	0.100
269.200	-7.137	0.100
269.300	-13.792	0.100
269.400	-13.722	0.100
269.500	-5.917	0.100
269.600	-2.534	0.100
269.700	-6.377	0.100
269.800	-11.052	0.100
269.900	-11.533	0.100
270.000	-5.061	0.100
270.100	1.680	0.100
270.200	-16.914	0.100
270.300	-7.866	0.100
270.400	-0.139	0.100
270.500	-5.353	0.100
270.600	-22.203	0.100
270.700	-21.395	0.100
270.800	-11.071	0.100
270.900	-15.476	0.100
271.000	-9.261	0.100
271.100	-16.278	0.100
271.200	-15.677	0.100
271.300	-8.360	0.100
271.400	-19.923	0.100
271.500	-7.631	0.100
271.600	-1.632	0.100
271.700	-16.430	0.100
271.800	-7.059	0.100
271.900	-18.930	0.100
272.000	-15.667	0.100
272.100	-1.168	0.100
272.200	-17.757	0.100
272.300	-10.074	0.100
272.400	-14.204	0.100
272.500	-4.972	0.100
272.600	-7.770	0.100
272.700	-16.190	0.100
272.800	-8.079	0.100
272.900	-15.699	0.100
273.000	-11.096	0.100
273.100	-6.960	0.100
273.200	-9.989	0.100
273.300	-15.031	0.100
273.400	-10.121	0.100
273.500	-4.613	0.100
273.600	-18.696	0.100
273.700	-18.878	0.100
273.800	-13.770	0.100
273.900	-9.605	0.100
274.000	-7.774	0.100
274.100	-17.221	0.100
274.200	-10.839	0.100
274.300	-10.591	0.100
274.400	-9.813	0.100
274.500	-9.231	0.100
274.600	-21.503	0.100
274.700	-0.248	0.100
274.800	-20.577	0.100
274.900	-9.187	0.100
275.000	-9.616	0.100
275.100	-14.155	0.100
275.200	-4.523	0.100
275.300	-12.693	0.100
275.400	-26.412	0.100
275.500	-19.149	0.100
275.600	-10.414	0.100
275.700	-9.813	0.100
275.800	-6.592	0.100
275.900	-1.915	0.100
276.000	-4.603	0.100
276.100	-32.676	0.100
276.200	-11.690	0.100
276.300	-8.596	0.100
276.400	-18.468	0.100
276.500	-11.749	0.100
276.600	-7.606	0.100
276.700	1.950	0.100
276.800	-19.577	0.100
276.900	-10.527	0.100
277.000	0.955	0.100
277.100	-18.944	0.100
277.200	-27.618	0.100
277.300	-7.510	0.100
277.400	-29.046	0.100
277.500	0.285	0.100
277.600	-19.034	0.100
277.700	-20.359	0.100
277.800	-14.417	0.100
277.900	-19.686	0.100
278.000	10.748	0.100
278.100	-4.318	0.100
278.200	-14.717	0.100
278.300	-18.041	0.100
278.400	-8.326	0.100
278.500	-18.515	0.100
278.600	-14.675	0.100
278.700	-22.282	0.100
278.800	-7.268	0.100
278.900	-20.248	0.100
279.000	-15.919	0.100
279.100	-2.072	0.100
279.200	-2.955	0.100
279.300	-6.237	0.100
279.400	-26.781	0.100
279.500	-18.730	0.100
279.600	-20.939	0.100
279.700	6.878	0.100
279.800	-14.563	0.100
279.900	-18.156	0.100
280.000	-8.762	0.100
280.100	-0.176	0.100
280.200	-8.240	0.100
280.300	0.732	0.100
280.400	-21.315	0.100
280.500	-10.121	0.100
280.600	-15.670	0.100
280.700	-11.703	0.100
280.800	-6.836	0.100
280.900	-12.546	0.100
281.000	-9.692	0.100
281.100	-7.177	0.100
281.200	-11.834	0.100
281.300	-15.589	0.100
281.400	-2.882	0.100
281.500	-22.255	0.100
281.600	-6.755	0.100
281.700	-20.492	0.100
281.800	-19.399	0.100
281.900	-4.172	0.100
282.000	-11.802	0.100
282.100	-8.744	0.100
282.200	-13.363	0.100
282.300	-13.578	0.100
282.400	-12.166	0.100
282.500	-14.535	0.100
282.600	-13.765	0.100
282.700	-14.978	0.100
282.800	-17.668	0.100
282.900	-18.923	0.100
283.000	-8.541	0.100
283.100	-13.899	0.100
283.200	-9.039	0.100
283.300	-5.486	0.100
283.400	-14.761	0.100
283.500	-10.658	0.100
283.600	-16.896	0.100
283.700	-6.355	0.100
283.800	-14.497	0.100
283.900	-18.769	0.100
284.000	-21.874	0.100
284.100	-7.305	0.100
284.200	-5.888	0.100
284.300	-5.934	0.100
284.400	-10.269	0.100
284.500	-17.072	0.100
284.600	-13.526	0.100
284.700	-15.806	0.100
284.800	-5.970	0.100
284.900	-13.153	0.100
285.000	-2.929	0.100
285.100	-18.334	0.100
285.200	-9.869	0.100
285.300	-11.053	0.100
285.400	-23.254	0.100
285.500	-16.125	0.100
285.600	-16.620	0.100
285.700	-4.273	0.100
285.800	-25.049	0.100
285.900	-9.325	0.100
286.000	-6.437	0.100
286.100	-5.799	0.100
286.200	-15.931	0.100
286.300	-10.753	0.100
286.400	-30.877	0.100
286.500	-3.836	0.100
286.600	-19.549	0.100
286.700	-6.928	0.100
286.800	-2.996	0.100
286.900	-12.408	0.100
287.000	-10.560	0.100
287.100	-15.916	0.100
287.200	-12.801	0.100
287.300	-12.358	0.100
287.400	-21.453	0.100
287.500	-16.952	0.100
287.600	-7.138	0.100
287.700	-11.008	0.100
287.800	-27.924	0.100
287.900	-10.266	0.100
288.000	-14.767	0.100
288.100	-13.429	0.100
288.200	-18.080	0.100
288.300	-13.061	0.100
288.400	-12.230	0.100
288.500	-4.018	0.100
288.600	-9.689	0.100
288.700	-21.095	0.100
288.800	-17.532	0.100
288.900	-8.111	0.100
289.000	-14.112	0.100
289.100	-7.221	0.100
289.200	-11.329	0.100
289.300	-24.077	0.100
289.400	-14.308	0.100
289.500	-23.421	0.100
289.600	-34.336	0.100
289.700	-13.807	0.100
289.800	-7.133	0.100
289.900	-11.885	0.100
290.000	-12.726	0.100
290.100	-14.627	0.100
290.200	-8.266	0.100
290.300	-21.318	0.100
290.400	-5.958	0.100
290.500	-6.779	0.100
290.600	-19.007	0.100
290.700	-10.138	0.100
290.800	-21.026	0.100
290.900	-9.985	0.100
291.000	-5.310	0.100
291.100	-7.380	0.100
291.200	-15.805	0.100
291.300	-7.591	0.100
291.400	-20.991	0.100
291.500	-6.446	0.100
291.600	-14.672	0.100
291.700	-12.634	0.100
291.800	-11.534	0.100
291.900	-16.138	0.100
292.000	-12.599	0.100
292.100	-23.442	0.100
292.200	-21.648	0.100
292.300	6.288	0.100
292.400	-6.957	0.100
292.500	-14.112	0.100
292.600	-14.002	0.100
292.700	-18.986	0.100
292.800	-11.935	0.100
292.900	-1.390	0.100
293.000	-21.802	0.100
293.100	-17.907	0.100
293.200	-7.924	0.100
293.300	-16.128	0.100
293.400	-8.979	0.100
293.500	-11.725	0.100
293.600	-9.375	0.100
293.700	-11.155	0.100
293.800	-2.338	0.100
293.900	-16.874	0.100
294.000	-7.706	0.100
294.100	-21.758	0.100
294.200	-2.222	0.100
294.300	-14.299	0.100
294.400	-18.747	0.100
294.500	-8.355	0.100
294.600	-11.486	0.100
294.700	-7.155	0.100
294.800	-12.632	0.100
294.900	-11.938	0.100
295.000	-16.795	0.100
295.100	-18.578	0.100
295.200	-6.891	0.100
295.300	-9.776	0.100
295.400	-13.165	0.100
295.500	-19.520	0.100
295.600	-18.983	0.100
295.700	-2.976	0.100
295.800	-11.027	0.100
295.900	-17.397	0.100
296.000	-4.010	0.100
296.100	-3.113	0.100
296.200	-13.880	0.100
296.300	-11.880	0.100
296.400	-15.113	0.100
296.500	-24.568	0.100
296.600	-9.031	0.100
296.700	-10.067	0.100
296.800	-9.848	0.100
296.900	-20.865	0.100
297.000	-5.493	0.100
297.100	-7.250	0.100
297.200	-17.291	0.100
297.300	-16.040	0.100
297.400	-6.388	0.100
297.500	-5.406	0.100
297.600	-6.909	0.100
297.700	-20.809	0.100
297.800	-7.648	0.100
297.900	-10.100	0.100
298.000	-16.334	0.100
298.100	-1.921	0.100
298.200	-12.053	0.100
298.300	-15.468	0.100
298.400	-17.883	0.100
298.500	-11.590	0.100
298.600	-6.706	0.100
298.700	-20.448	0.100
298.800	-11.393	0.100
298.900	-11.723	0.100
299.000	-12.746	0.100
299.100	-11.392	0.100
299.200	-9.089	0.100
299.300	-14.157	0.100
299.400	-17.935	0.100
299.500	-13.187	0.100
299.600	-23.558	0.100
299.700	-3.065	0.100
299.800	-7.192	0.100
299.900	-28.516	0.100
300.000	-18.843	0.100
300.100	-0.731	0.100
300.200	-8.338	0.100
300.300	-6.031	0.100
300.400	-13.047	0.100
300.500	-22.192	0.100
300.600	-10.965	0.100
300.700	-15.651	0.100
300.800	-12.693	0.100
300.900	-9.824	0.100
301.000	-15.681	0.100
301.100	-16.214	0.100
301.200	-19.425	0.100
301.300	-5.083	0.100
301.400	-3.138	0.100
301.500	-14.625	0.100
301.600	-11.223	0.100
301.700	-1.715	0.100
301.800	-5.493	0.100
301.900	-7.127	0.100
302.000	-17.106	0.100
302.100	-13.913	0.100
302.200	-15.324	0.100
302.300	-21.323	0.100
302.400	-15.371	0.100
302.500	-7.698	0.100
302.600	-16.492	0.100
302.700	-20.492	0.100
302.800	-26.380	0.100
302.900	-20.053	0.100
303.000	-6.976	0.100
303.100	-12.648	0.100
303.200	-29.680	0.100
303.300	0.714	0.100
303.400	-2.800	0.100
303.500	-10.978	0.100
303.600	-14.143	0.100
303.700	-11.018	0.100
303.800	-14.388	0.100
303.900	-17.961	0.100
304.000	-8.280	0.100
304.100	-7.796	0.100
304.200	-17.422	0.100
304.300	-5.724	0.100
304.400	2.378	0.100
304.500	-11.752	0.100
304.600	-17.637	0.100
304.700	-15.697	0.100
304.800	-10.671	0.100
304.900	-16.076	0.100
305.000	-9.943	0.100
305.100	-8.548	0.100
305.200	-33.139	0.100
305.300	-12.484	0.100
305.400	-13.339	0.100
305.500	-16.719	0.100
305.600	-20.587	0.100
305.700	-15.286	0.100
305.800	-1.622	0.100
305.900	0.497	0.100
306.000	-12.502	0.100
306.100	-24.357	0.100
306.200	-3.555	0.100
306.300	1.163	0.100
306.400	-6.987	0.100
306.500	-14.289	0.100
306.600	-19.052	0.100
306.700	-4.601	0.100
306.800	-28.123	0.100
306.900	-12.630	0.100
307.000	-14.645	0.100
307.100	-5.458	0.100
307.200	-11.876	0.100
307.300	-11.171	0.100
307.400	-4.038	0.100
307.500	-2.493	0.100
307.600	-11.917	0.100
307.700	-16.776	0.100
307.800	4.177	0.100
307.900	-15.268	0.100
308.000	-9.182	0.100
308.100	-10.172	0.100
308.200	-7.967	0.100
308.300	-8.456	0.100
308.400	-15.052	0.100
308.500	-10.786	0.100
308.600	-3.579	0.100
308.700	-3.879	0.100
308.800	-3.107	0.100
308.900	-12.111	0.100
309.000	-19.160	0.100
309.100	-22.111	0.100
309.200	-0.996	0.100
309.300	-0.833	0.100
309.400	-8.594	0.100
309.500	-24.950	0.100
309.600	-14.022	0.100
309.700	-2.696	0.100
309.800	-10.099	0.100
309.900	-16.987	0.100
310.000	-12.708	0.100
310.100	-9.288	0.100
310.200	-12.753	0.100
310.300	-16.744	0.100
310.400	-9.490	0.100
310.500	4.220	0.100
310.600	-13.560	0.100
310.700	-4.708	0.100
310.800	-8.149	0.100
310.900	-18.820	0.100
311.000	-17.859	0.100
311.100	-10.288	0.100
311.200	-11.108	0.100
311.300	-11.283	0.100
311.400	-15.563	0.100
311.500	-11.654	0.100
311.600	-1.059	0.100
311.700	-6.493	0.100
311.800	-13.687	0.100
311.900	-12.873	0.100
312.000	-4.596	0.100
312.100	-11.266	0.100
312.200	-9.849	0.100
312.300	-9.344	0.100
312.400	-1.063	0.100
312.500	-18.261	0.100
312.600	-6.559	0.100
312.700	-5.948	0.100
312.800	-12.730	0.100
312.900	-27.024	0.100
313.000	-18.081	0.100
313.100	-7.843	0.100
313.200	-8.958	0.100
313.300	-14.095	0.100
313.400	10.094	0.100
313.500	-12.488	0.100
313.600	-12.081	0.100
313.700	-9.490	0.100
313.800	-13.401	0.100
313.900	-7.057	0.100
314.000	-10.648	0.100
314.100	1.874	0.100
314.200	-12.474	0.100
314.300	-13.786	0.100
314.400	-9.910	0.100
314.500	-9.273	0.100
314.600	-12.252	0.100
314.700	-12.987	0.100
314.800	-8.333	0.100
314.900	-7.242	0.100
315.000	-3.138	0.100
315.100	-1.393	0.100
315.200	-18.362	0.100
315.300	-13.945	0.100
315.400	-14.300	0.100
315.500	-13.248	0.100
315.600	-6.045	0.100
315.700	-8.486	0.100
315.800	-11.359	0.100
315.900	-15.978	0.100
316.000	-18.177	0.100
316.100	-0.645	0.100
316.200	-5.437	0.100
316.300	-23.392	0.100
316.400	-26.715	0.100
316.500	-4.697	0.100
316.600	-10.191	0.100
316.700	-14.523	0.100
316.800	-8.006	0.100
316.900	-9.214	0.100
317.000	-2.858	0.100
317.100	-15.144	0.100
317.200	-13.890	0.100
317.300	-7.786	0.100
317.400	-12.505	0.100
317.500	-12.993	0.100
317.600	1.064	0.100
317.700	-6.871	0.100
317.800	-8.206	0.100
317.900	-2.435	0.100
318.000	-19.078	0.100
318.100	-20.737	0.100
318.200	-6.314	0.100
318.300	-17.674	0.100
318.400	1.723	0.100
318.500	-11.116	0.100
318.600	-10.670	0.100
318.700	-16.431	0.100
318.800	-2.951	0.100
318.900	-11.401	0.100
319.000	-13.197	0.100
319.100	-6.102	0.100
319.200	-1.719	0.100
319.300	-25.160	0.100
319.400	-5.209	0.100
319.500	-16.751	0.100
319.600	-11.622	0.100
319.700	-6.572	0.100
319.800	-9.968	0.100
319.900	-4.230	0.100
320.000	-3.002	0.100
320.100	-6.836	0.100
320.200	-15.469	0.100
320.300	-12.183	0.100
320.400	-12.387	0.100
320.500	-6.748	0.100
320.600	0.424	0.100
320.700	-11.475	0.100
320.800	-12.261	0.100
320.900	-6.533	0.100
321.000	-14.674	0.100
321.100	-1.601	0.100
321.200	-9.403	0.100
321.300	-19.198	0.100
321.400	-10.369	0.100
321.500	-0.701	0.100
321.600	-12.232	0.100
321.700	-9.296	0.100
321.800	-10.068	0.100
321.900	-14.755	0.100
322.000	-10.634	0.100
322.100	-12.732	0.100
322.200	-15.470	0.100
322.300	-10.563	0.100
322.400	-1.158	0.100
322.500	-15.296	0.100
322.600	-14.372	0.100
322.700	-27.342	0.100
322.800	-1.481	0.100
322.900	-10.452	0.100
323.000	-16.698	0.100
323.100	-8.742	0.100
323.200	-6.050	0.100
323.300	-12.122	0.100
323.400	1.581	0.100
323.500	-17.088	0.100
323.600	-11.572	0.100
323.700	-11.038	0.100
323.800	-2.007	0.100
323.900	-2.755	0.100
324.000	-14.161	0.100
324.100	-12.689	0.100
324.200	-19.441	0.100
324.300	-2.608	0.100
324.400	0.438	0.100
324.500	-16.500	0.100
324.600	-23.584	0.100
324.700	-16.672	0.100
324.800	-7.997	0.100
324.900	-9.089	0.100
325.000	-9.938	0.100
325.100	-8.237	0.100
325.200	-4.557	0.100
325.300	-6.752	0.100
325.400	-10.799	0.100
325.500	4.123	0.100
325.600	-17.088	0.100
325.700	-14.272	0.100
325.800	-6.068	0.100
325.900	-8.701	0.100
326.000	-11.228	0.100
326.100	-3.326	0.100
326.200	-10.378	0.100
326.300	-7.577	0.100
326.400	4.546	0.100
326.500	-20.450	0.100
326.600	-10.193	0.100
326.700	-4.916	0.100
326.800	-11.336	0.100
326.900	-15.204	0.100
327.000	6.237	0.100
327.100	-11.613	0.100
327.200	3.791	0.100
327.300	-16.454	0.100
327.400	-10.872	0.100
327.500	-2.428	0.100
327.600	-8.172	0.100
327.700	-4.415	0.100
327.800	-25.189	0.100
327.900	1.986	0.100
328.000	-23.741	0.100
328.100	-21.074	0.100
328.200	-9.567	0.100
328.300	-8.294	0.100
328.400	-18.428	0.100
328.500	-2.444	0.100
328.600	-8.245	0.100
328.700	-12.119	0.100
328.800	-12.239	0.100
328.900	-7.867	0.100
329.000	-10.745	0.100
329.100	-9.753	0.100
329.200	-5.913	0.100
329.300	5.818	0.100
329.400	-20.477	0.100
329.500	-10.594	0.100
329.600	-16.767	0.100
329.700	-9.227	0.100
329.800	-12.163	0.100
329.900	-14.931	0.100
330.000	-12.921	0.100
330.100	-10.137	0.100
330.200	-4.901	0.100
330.300	-0.829	0.100
330.400	2.619	0.100
330.500	3.705	0.100
330.600	-9.067	0.100
330.700	-3.569	0.100
330.800	1.781	0.100
330.900	0.625	0.100
331.000	7.039	0.100
331.100	6.421	0.100
331.200	10.484	0.100
331.300	3.068	0.100
331.400	4.694	0.100
331.500	6.909	0.100
331.600	9.864	0.100
331.700	18.430	0.100
331.800	9.718	0.100
331.900	5.369	0.100
332.000	13.180	0.100
332.100	18.780	0.100
332.200	14.648	0.100
332.300	13.478	0.100
332.400	3.483	0.100
332.500	18.937	0.100
332.600	14.053	0.100
332.700	5.147	0.100
332.800	24.015	0.100
332.900	14.284	0.100
333.000	3.415	0.100
333.100	11.715	0.100
333.200	14.611	0.100
333.300	14.719	0.100
333.400	12.621	0.100
333.500	10.796	0.100
333.600	13.769	0.100
333.700	17.974	0.100
333.800	15.994	0.100
333.900	19.626	0.100
334.000	20.051	0.100
334.100	19.810	0.100
334.200	10.719	0.100
334.300	10.015	0.100
334.400	10.383	0.100
334.500	15.059	0.100
334.600	11.708	0.100
334.700	22.409	0.100
334.800	18.301	0.100
334.900	20.032	0.100
335.000	17.115	0.100
335.100	19.422	0.100
335.200	22.064	0.100
335.300	12.254	0.100
335.400	16.467	0.100
335.500	9.174	0.100
335.600	11.383	0.100
335.700	30.405	0.100
335.800	13.888	0.100
335.900	16.589	0.100
336.000	7.348	0.100
336.100	14.664	0.100
336.200	10.473	0.100
336.300	14.698	0.100
336.400	10.479	0.100
336.500	8.942	0.100
336.600	3.918	0.100
336.700	10.115	0.100
336.800	2.667	0.100
336.900	5.719	0.100
337.000	22.314	0.100
337.100	18.477	0.100
337.200	16.623	0.100
337.300	22.325	0.100
337.400	7.059	0.100
337.500	16.674	0.100
337.600	15.642	0.100
337.700	15.591	0.100
337.800	14.229	0.100
337.900	18.227	0.100
338.000	11.069	0.100
338.100	13.913	0.100
338.200	12.071	0.100
338.300	23.054	0.100
338.400	11.555	0.100
338.500	23.547	0.100
338.600	1.149	0.100
338.700	10.161	0.100
338.800	18.742	0.100
338.900	10.593	0.100
339.000	12.195	0.100
339.100	9.023	0.100
339.200	18.922	0.100
339.300	16.064	0.100
339.400	8.631	0.100
339.500	15.375	0.100
339.600	13.313	0.100
339.700	-0.968	0.100
339.800	12.291	0.100
339.900	18.199	0.100
340.000	10.645	0.100
340.100	11.905	0.100
340.200	5.446	0.100
340.300	16.814	0.100
340.400	8.042	0.100
340.500	19.428	0.100
340.600	23.418	0.100
340.700	18.566	0.100
340.800	19.889	0.100
340.900	14.371	0.100
341.000	-1.936	0.100
341.100	4.575	0.100
341.200	20.873	0.100
341.300	21.159	0.100
341.400	4.913	0.100
341.500	23.729	0.100
341.600	27.607	0.100
341.700	20.319	0.100
341.800	12.277	0.100
341.900	10.107	0.100
342.000	8.392	0.100
342.100	8.175	0.100
342.200	0.815	0.100
342.300	17.485	0.100
342.400	23.589	0.100
342.500	22.129	0.100
342.600	-0.405	0.100
342.700	23.124	0.100
342.800	8.701	0.100
342.900	6.894	0.100
343.000	25.208	0.100
343.100	25.854	0.100
343.200	15.101	0.100
343.300	12.814	0.100
343.400	20.101	0.100
343.500	29.795	0.100
343.600	16.581	0.100
343.700	15.581	0.100
343.800	-5.553	0.100
343.900	10.269	0.100
344.000	23.755	0.100
344.100	21.160	0.100
344.200	13.358	0.100
344.300	15.484	0.100
344.400	8.018	0.100
344.500	7.462	0.100
344.600	30.000	0.100
344.700	18.032	0.100
344.800	9.955	0.100
344.900	20.323	0.100
345.000	20.347	0.100
345.100	25.613	0.100
345.200	12.629	0.100
345.300	43.976	0.100
345.400	14.501	0.100
345.500	1.944	0.100
345.600	20.136	0.100
345.700	8.424	0.100
345.800	17.052	0.100
345.900	12.569	0.100
346.000	14.637	0.100
346.100	21.468	0.100
346.200	21.439	0.100
346.300	27.118	0.100
346.400	21.468	0.100
346.500	23.479	0.100
346.600	6.311	0.100
346.700	27.478	0.100
346.800	9.583	0.100
346.900	20.926	0.100
347.000	25.835	0.100
347.100	19.599	0.100
347.200	13.974	0.100
347.300	13.027	0.100
347.400	17.341	0.100
347.500	23.462	0.100
347.600	13.400	0.100
347.700	21.185	0.100
347.800	17.360	0.100
347.900	25.080	0.100
348.000	19.202	0.100
348.100	10.609	0.100
348.200	13.717	0.100
348.300	20.950	0.100
348.400	31.117	0.100
348.500	15.923	0.100
348.600	27.639	0.100
348.700	21.098	0.100
348.800	28.996	0.100
348.900	20.141	0.100
349.000	12.987	0.100
349.100	29.887	0.100
349.200	32.789	0.100
349.300	1.740	0.100
349.400	22.736	0.100
349.500	19.456	0.100
349.600	28.087	0.100
349.700	21.434	0.100
349.800	26.482	0.100
349.900	25.046	0.100
350.000	10.002	0.100
350.100	23.448	0.100
350.200	31.018	0.100
350.300	26.932	0.100
350.400	10.540	0.100
350.500	21.200	0.100
350.600	29.542	0.100
350.700	26.364	0.100
350.800	17.584	0.100
350.900	44.333	0.100
351.000	23.751	0.100
351.100	18.947	0.100
351.200	24.719	0.100
351.300	26.827	0.100
351.400	27.931	0.100
351.500	28.054	0.100
351.600	16.325	0.100
351.700	25.094	0.100
351.800	19.309	0.100
351.900	33.034	0.100
352.000	20.461	0.100
352.100	22.839	0.100
352.200	29.700	0.100
352.300	20.364	0.100
352.400	13.274	0.100
352.500	30.051	0.100
352.600	14.589	0.100
352.700	30.498	0.100
352.800	24.452	0.100
352.900	11.977	0.100
353.000	36.734	0.100
353.100	37.188	0.100
353.200	22.755	0.100
353.300	29.932	0.100
353.400	22.667	0.100
353.500	24.782	0.100
353.600	28.905	0.100
353.700	38.124	0.100
353.800	32.186	0.100
353.900	27.938	0.100
354.000	18.034	0.100
354.100	33.354	0.100
354.200	30.664	0.100
354.300	29.055	0.100
354.400	28.438	0.100
354.500	28.016	0.100
354.600	36.871	0.100
354.700	26.995	0.100
354.800	36.143	0.100
354.900	29.372	0.100
355.000	21.394	0.100
355.100	24.215	0.100
355.200	28.304	0.100
355.300	15.294	0.100
355.400	27.276	0.100
355.500	23.983	0.100
355.600	33.421	0.100
355.700	24.969	0.100
355.800	37.495	0.100
355.900	25.521	0.100
356.000	19.769	0.100
356.100	38.037	0.100
356.200	24.444	0.100
356.300	23.907	0.100
356.400	28.730	0.100
356.500	18.952	0.100
356.600	27.781	0.100
356.700	26.358	0.100
356.800	37.909	0.100
356.900	34.181	0.100
357.000	19.181	0.100
357.100	35.962	0.100
357.200	22.685	0.100
357.300	34.321	0.100
357.400	42.591	0.100
357.500	22.011	0.100
357.600	14.789	0.100
357.700	34.397	0.100
357.800	24.778	0.100
357.900	27.948	0.100
358.000	20.876	0.100
358.100	39.866	0.100
358.200	32.276	0.100
358.300	26.095	0.100
358.400	23.667	0.100
358.500	32.992	0.100
358.600	39.707	0.100
358.700	41.471	0.100
358.800	25.998	0.100
358.900	32.646	0.100
359.000	22.520	0.100
359.100	13.744	0.100
359.200	27.964	0.100
359.300	9.954	0.100
359.400	29.399	0.100
359.500	20.993	0.100
359.600	25.636	0.100
359.700	36.999	0.100
359.800	26.618	0.100
359.900	30.638	0.100
360.000	22.165	0.100
360.100	33.086	0.100
360.200	33.464	0.100
360.300	21.557	0.100
360.400	39.013	0.100
360.500	12.510	0.100
360.600	20.421	0.100
360.700	27.539	0.100
360.800	23.346	0.100
360.900	55.972	0.100
361.000	39.800	0.100
361.100	29.790	0.100
361.200	28.320	0.100
361.300	26.000	0.100
361.400	39.757	0.100
361.500	33.588	0.100
361.600	27.865	0.100
361.700	30.418	0.100
361.800	41.716	0.100
361.900	32.862	0.100
362.000	27.488	0.100
362.100	34.655	0.100
362.200	26.550	0.100
362.300	25.293	0.100
362.400	28.969	0.100
362.500	29.518	0.100
362.600	36.224	0.100
362.700	20.094	0.100
362.800	25.988	0.100
362.900	33.042	0.100
363.000	30.339	0.100
363.100	41.972	0.100
363.200	30.921	0.100
363.300	32.042	0.100
363.400	34.181	0.100
363.500	21.363	0.100
363.600	33.137	0.100
363.700	33.685	0.100
363.800	39.057	0.100
363.900	28.519	0.100
364.000	26.328	0.100
364.100	25.341	0.100
364.200	31.932	0.100
364.300	29.593	0.100
364.400	28.755	0.100
364.500	27.530	0.100
364.600	25.100	0.100
364.700	22.676	0.100
364.800	34.980	0.100
364.900	45.122	0.100
365.000	30.185	0.100
365.100	24.787	0.100
365.200	33.702	0.100
365.300	31.079	0.100
365.400	24.582	0.100
365.500	32.781	0.100
365.600	30.156	0.100
365.700	30.923	0.100
365.800	26.803	0.100
365.900	24.313	0.100
366.000	26.663	0.100
366.100	29.358	0.100
366.200	39.008	0.100
366.300	33.569	0.100
366.400	24.779	0.100
366.500	38.220	0.100
366.600	19.653	0.100
366.700	30.416	0.100
366.800	30.706	0.100
366.900	34.001	0.100
367.000	25.244	0.100
367.100	30.516	0.100
367.200	17.169	0.100
367.300	21.029	0.100
367.400	38.616	0.100
367.500	36.201	0.100
367.600	35.023	0.100
367.700	17.502	0.100
367.800	27.387	0.100
367.900	28.814	0.100
368.000	36.014	0.100
368.100	28.844	0.100
368.200	32.315	0.100
368.300	29.586	0.100
368.400	28.641	0.100
368.500	21.687	0.100
368.600	28.340	0.100
368.700	26.291	0.100
368.800	29.989	0.100
368.900	28.068	0.100
369.000	40.334	0.100
369.100	32.482	0.100
369.200	19.733	0.100
369.300	26.404	0.100
369.400	30.469	0.100
369.500	27.123	0.100
369.600	27.630	0.100
369.700	24.889	0.100
369.800	23.219	0.100
369.900	26.130	0.100
370.000	35.533	0.100
370.100	23.587	0.100
370.200	21.529	0.100
370.300	26.448	0.100
370.400	39.543	0.100
370.500	39.496	0.100
370.600	28.472	0.100
370.700	23.611	0.100
370.800	22.166	0.100
370.900	38.243	0.100
371.000	28.330	0.100
371.100	31.363	0.100
371.200	20.434	0.100
371.300	34.820	0.100
371.400	37.135	0.100
371.500	32.688	0.100
371.600	34.518	0.100
371.700	30.337	0.100
371.800	25.286	0.100
371.900	25.592	0.100
372.000	25.110	0.100
372.100	30.061	0.100
372.200	27.441	0.100
372.300	34.664	0.100
372.400	31.190	0.100
372.500	28.675	0.100
372.600	25.463	0.100
372.700	27.259	0.100
372.800	34.415	0.100
372.900	22.947	0.100
373.000	29.450	0.100
373.100	29.936	0.100
373.200	19.548	0.100
373.300	28.967	0.100
373.400	33.719	0.100
373.500	14.581	0.100
373.600	30.023	0.100
373.700	19.034	0.100
373.800	27.066	0.100
373.900	23.385	0.100
374.000	38.042	0.100
374.100	40.031	0.100
374.200	40.578	0.100
374.300	37.484	0.100
374.400	12.244	0.100
374.500	31.514	0.100
374.600	20.145	0.100
374.700	34.165	0.100
374.800	30.889	0.100
374.900	28.997	0.100
375.000	14.607	0.100
375.100	34.813	0.100
375.200	31.925	0.100
375.300	28.447	0.100
375.400	31.181	0.100
375.500	28.594	0.100
375.600	33.267	0.100
375.700	27.377	0.100
375.800	35.611	0.100
375.900	15.259	0.100
376.000	14.688	0.100
376.100	45.729	0.100
376.200	40.836	0.100
376.300	35.888	0.100
376.400	20.825	0.100
376.500	32.872	0.100
376.600	25.596	0.100
376.700	41.554	0.100
376.800	20.088	0.100
376.900	27.201	0.100
377.000	26.684	0.100
377.100	12.634	0.100
377.200	36.009	0.100
377.300	17.897	0.100
377.400	31.092	0.100
377.500	30.481	0.100
377.600	26.450	0.100
377.700	33.283	0.100
377.800	24.050	0.100
377.900	33.517	0.100
378.000	22.690	0.100
378.100	34.973	0.100
378.200	37.347	0.100
378.300	23.582	0.100
378.400	35.079	0.100
378.500	40.900	0.100
378.600	22.873	0.100
378.700	36.529	0.100
378.800	29.322	0.100
378.900	31.385	0.100
379.000	22.543	0.100
379.100	25.373	0.100
379.200	41.985	0.100
379.300	32.273	0.100
379.400	17.934	0.100
379.500	23.935	0.100
379.600	28.406	0.100
379.700	19.987	0.100
379.800	16.794	0.100
379.900	33.214	0.100
380.000	23.660	0.100
380.100	27.776	0.100
380.200	31.394	0.100
380.300	29.219	0.100
380.400	36.794	0.100
380.500	29.552	0.100
380.600	32.009	0.100
380.700	34.185	0.100
380.800	31.275	0.100
380.900	21.814	0.100
381.000	20.888	0.100
381.100	29.241	0.100
381.200	32.094	0.100
381.300	25.327	0.100
381.400	17.414	0.100
381.500	36.518	0.100
381.600	30.739	0.100
381.700	26.616	0.100
381.800	25.534	0.100
381.900	38.289	0.100
382.000	24.601	0.100
382.100	23.997	0.100
382.200	35.185	0.100
382.300	35.201	0.100
382.400	12.580	0.100
382.500	33.823	0.100
382.600	33.271	0.100
382.700	26.047	0.100
382.800	37.837	0.100
382.900	29.452	0.100
383.000	27.685	0.100
383.100	32.988	0.100
383.200	32.246	0.100
383.300	28.757	0.100
383.400	23.049	0.100
383.500	17.236	0.100
383.600	23.980	0.100
383.700	33.260	0.100
383.800	28.778	0.100
383.900	27.353	0.100
384.000	26.687	0.100
384.100	25.368	0.100
384.200	27.755	0.100
384.300	30.297	0.100
384.400	45.658	0.100
384.500	23.508	0.100
384.600	16.216	0.100
384.700	19.059	0.100
384.800	31.523	0.100
384.900	30.297	0.100
385.000	27.111	0.100
385.100	25.678	0.100
385.200	32.191	0.100
385.300	24.684	0.100
385.400	37.010	0.100
385.500	27.709	0.100
385.600	14.148	0.100
385.700	31.813	0.100
385.800	31.514	0.100
385.900	23.617	0.100
386.000	26.729	0.100
386.100	23.646	0.100
386.200	26.648	0.100
386.300	13.873	0.100
386.400	37.929	0.100
386.500	27.387	0.100
386.600	16.822	0.100
386.700	23.721	0.100
386.800	40.214	0.100
386.900	22.226	0.100
387.000	21.356	0.100
387.100	45.464	0.100
387.200	24.626	0.100
387.300	26.958	0.100
387.400	25.969	0.100
387.500	30.472	0.100
387.600	25.924	0.100
387.700	35.988	0.100
387.800	16.901	0.100
387.900	32.586	0.100
388.000	36.292	0.100
388.100	27.341	0.100
388.200	27.480	0.100
388.300	26.461	0.100
388.400	21.769	0.100
388.500	23.240	0.100
388.600	30.579	0.100
388.700	6.101	0.100
388.800	36.384	0.100
388.900	29.816	0.100
389.000	30.747	0.100
389.100	22.186	0.100
389.200	25.776	0.100
389.300	29.803	0.100
389.400	32.615	0.100
389.500	25.877	0.100
389.600	29.579	0.100
389.700	26.533	0.100
389.800	31.111	0.100
389.900	24.383	0.100
390.000	22.192	0.100
390.100	19.265	0.100
390.200	26.198	0.100
390.300	13.467	0.100
390.400	19.838	0.100
390.500	26.301	0.100
390.600	15.587	0.100
390.700	23.052	0.100
390.800	15.755	0.100
390.900	11.096	0.100
391.000	5.764	0.100
391.100	20.357	0.100
391.200	13.179	0.100
391.300	-6.106	0.100
391.400	12.675	0.100
391.500	19.482	0.100
391.600	-7.085	0.100
391.700	6.530	0.100
391.800	8.936	0.100
391.900	-2.162	0.100
392.000	6.638	0.100
392.100	-0.755	0.100
392.200	-1.208	0.100
392.300	-5.926	0.100
392.400	1.616	0.100
392.500	-1.037	0.100
392.600	-8.124	0.100
392.700	2.671	0.100
392.800	-6.326	0.100
392.900	-9.035	0.100
393.000	-9.232	0.100
393.100	0.792	0.100
393.200	-8.737	0.100
393.300	5.545	0.100
393.400	0.477	0.100
393.500	-3.572	0.100
393.600	-7.002	0.100
393.700	-0.527	0.100
393.800	-5.180	0.100
393.900	-9.392	0.100
394.000	-15.038	0.100
394.100	-13.885	0.100
394.200	-11.429	0.100
394.300	-3.226	0.100
394.400	-2.090	0.100
394.500	0.026	0.100
394.600	-7.975	0.100
394.700	-9.849	0.100
394.800	-3.786	0.100
394.900	-5.533	0.100
395.000	-1.943	0.100
395.100	-0.345	0.100
395.200	-10.316	0.100
395.300	-0.637	0.100
395.400	-10.317	0.100
395.500	-13.582	0.100
395.600	-13.948	0.100
395.700	-6.483	0.100
395.800	1.617	0.100
395.900	-17.656	0.100
396.000	-14.828	0.100
396.100	-5.662	0.100
396.200	-14.251	0.100
396.300	-0.267	0.100
396.400	-4.408	0.100
396.500	-2.282	0.100
396.600	1.353	0.100
396.700	-2.973	0.100
396.800	-8.463	0.100
396.900	-8.108	0.100
397.000	-6.179	0.100
397.100	-11.429	0.100
397.200	-2.061	0.100
397.300	-0.290	0.100
397.400	-1.123	0.100
397.500	-3.367	0.100
397.600	-7.748	0.100
397.700	-3.358	0.100
397.800	-14.823	0.100
397.900	3.643	0.100
398.000	-8.180	0.100
398.100	-7.618	0.100
398.200	-5.785	0.100
398.300	-10.620	0.100
398.400	-4.045	0.100
398.500	1.905	0.100
398.600	-4.666	0.100
398.700	-9.732	0.100
398.800	-10.530	0.100
398.900	-2.894	0.100
399.000	-11.489	0.100
399.100	10.294	0.100
399.200	-17.019	0.100
399.300	-1.332	0.100
399.400	7.730	0.100
399.500	3.082	0.100
399.600	-6.821	0.100
399.700	-3.031	0.100
399.800	-5.100	0.100
399.900	3.022	0.100
400.000	-1.995	0.100
400.100	-0.395	0.100
400.200	-8.629	0.100
400.300	-5.004	0.100
400.400	-0.999	0.100
400.500	5.231	0.100
400.600	-4.885	0.100
400.700	-5.927	0.100
400.800	-9.678	0.100
400.900	-4.352	0.100
401.000	1.804	0.100
401.100	-7.137	0.100
401.200	-1.900	0.100
401.300	-5.882	0.100
401.400	-6.724	0.100
401.500	-0.456	0.100
401.600	-17.398	0.100
401.700	-0.100	0.100
401.800	-2.568	0.100
401.900	-12.719	0.100
402.000	3.046	0.100
402.100	7.075	0.100
402.200	2.716	0.100
402.300	-16.949	0.100
402.400	-10.562	0.100
402.500	-2.579	0.100
402.600	-7.766	0.100
402.700	-10.711	0.100
402.800	-16.393	0.100
402.900	-5.816	0.100
403.000	4.723	0.100
403.100	-0.245	0.100
403.200	-12.301	0.100
403.300	0.652	0.100
403.400	-8.940	0.100
403.500	-9.232	0.100
403.600	-14.328	0.100
403.700	-6.570	0.100
403.800	-6.703	0.100
403.900	-5.793	0.100
404.000	-20.299	0.100
404.100	0.710	0.100
404.200	-12.825	0.100
404.300	-5.941	0.100
404.400	0.183	0.100
404.500	-8.384	0.100
404.600	-6.899	0.100
404.700	-6.559	0.100
404.800	-10.475	0.100
404.900	-9.577	0.100
405.000	0.011	0.100
405.100	-2.930	0.100
405.200	-11.833	0.100
405.300	-11.381	0.100
405.400	0.432	0.100
405.500	7.210	0.100
405.600	-8.137	0.100
405.700	-10.159	0.100
405.800	-26.655	0.100
405.900	0.404	0.100
406.000	-3.614	0.100
406.100	4.525	0.100
406.200	-14.963	0.100
406.300	-4.984	0.100
406.400	-11.296	0.100
406.500	-7.233	0.100
406.600	-6.076	0.100
406.700	-21.015	0.100
406.800	-15.361	0.100
406.900	3.042	0.100
407.000	-1.892	0.100
407.100	-3.580	0.100
407.200	-4.559	0.100
407.300	-6.268	0.100
407.400	-17.914	0.100
407.500	-1.682	0.100
407.600	1.600	0.100
407.700	-9.232	0.100
407.800	-19.756	0.100
407.900	-1.781	0.100
408.000	-2.143	0.100
408.100	-9.258	0.100
408.200	-3.734	0.100
408.300	-16.514	0.100
408.400	1.779	0.100
408.500	0.411	0.100
408.600	-16.962	0.100
408.700	-2.184	0.100
408.800	-6.682	0.100
408.900	-9.688	0.100
409.000	-15.644	0.100
409.100	-11.437	0.100
409.200	-7.498	0.100
409.300	-15.524	0.100
409.400	-11.525	0.100
409.500	-2.359	0.100
409.600	-11.607	0.100
409.700	-16.130	0.100
409.800	-6.284	0.100
409.900	-12.320	0.100
410.000	-0.263	0.100
410.100	-8.833	0.100
410.200	4.462	0.100
410.300	-1.805	0.100
410.400	-6.473	0.100
410.500	-19.849	0.100
410.600	-1.616	0.100
410.700	-9.514	0.100
410.800	-19.748	0.100
410.900	-8.301	0.100
411.000	1.438	0.100
411.100	0.775	0.100
411.200	-18.678	0.100
411.300	0.439	0.100
411.400	-2.022	0.100
411.500	-10.662	0.100
411.600	-0.177	0.100
411.700	-27.817	0.100
411.800	-7.331	0.100
411.900	-11.012	0.100
412.000	-10.492	0.100
412.100	-25.261	0.100
412.200	2.993	0.100
412.300	-10.546	0.100
412.400	-0.605	0.100
412.500	-14.559	0.100
412.600	-5.785	0.100
412.700	-16.706	0.100
412.800	-8.010	0.100
412.900	7.099	0.100
413.000	-13.759	0.100
413.100	-15.757	0.100
413.200	-1.775	0.100
413.300	-7.209	0.100
413.400	-4.266	0.100
413.500	-4.690	0.100
413.600	-15.089	0.100
413.700	3.715	0.100
413.800	-13.953	0.100
413.900	-11.678	0.100
414.000	8.207	0.100
414.100	-5.680	0.100
414.200	-15.067	0.100
414.300	-2.002	0.100
414.400	-14.465	0.100
414.500	-5.325	0.100
414.600	-9.047	0.100
414.700	-14.467	0.100
414.800	-13.687	0.100
414.900	2.127	0.100
415.000	-21.875	0.100
415.100	-13.708	0.100
415.200	-7.907	0.100
415.300	-20.243	0.100
415.400	-16.423	0.100
415.500	2.250	0.100
415.600	-0.882	0.100
415.700	-24.094	0.100
415.800	-5.529	0.100
415.900	-4.300	0.100
416.000	-16.217	0.100
416.100	-9.483	0.100
416.200	-6.568	0.100
416.300	-6.187	0.100
416.400	-4.009	0.100
416.500	-28.261	0.100
416.600	-7.420	0.100
416.700	-4.245	0.100
416.800	-11.992	0.100
416.900	-7.103	0.100
417.000	-15.410	0.100
417.100	3.449	0.100
417.200	-11.867	0.100
417.300	-12.516	0.100
417.400	-0.945	0.100
417.500	-17.425	0.100
417.600	-16.045	0.100
417.700	-3.229	0.100
417.800	-5.907	0.100
417.900	-7.607	0.100
418.000	-15.975	0.100
418.100	-12.570	0.100
418.200	-12.281	0.100
418.300	-8.864	0.100
418.400	-16.948	0.100
418.500	-9.193	0.100
418.600	-6.733	0.100
418.700	-17.618	0.100
418.800	-0.407	0.100
418.900	-14.985	0.100
419.000	-3.300	0.100
419.100	-13.863	0.100
419.200	1.332	0.100
419.300	-13.679	0.100
419.400	-7.795	0.100
419.500	-17.627	0.100
419.600	-18.317	0.100
419.700	-17.333	0.100
419.800	-4.014	0.100
419.900	-1.298	0.100
420.000	-9.963	0.100
420.100	-22.608	0.100
420.200	-14.888	0.100
420.300	-14.611	0.100
420.400	-1.578	0.100
420.500	-15.953	0.100
420.600	-14.883	0.100
420.700	-9.566	0.100
420.800	-2.091	0.100
420.900	-11.087	0.100
421.000	-22.628	0.100
421.100	-0.877	0.100
421.200	-15.925	0.100
421.300	-22.196	0.100
421.400	-11.671	0.100
421.500	-6.661	0.100
421.600	-3.874	0.100
421.700	-16.089	0.100
421.800	-12.240	0.100
421.900	-5.404	0.100
422.000	-18.579	0.100
422.100	-7.365	0.100
422.200	-8.689	0.100
422.300	-12.110	0.100
422.400	-20.581	0.100
422.500	-9.825	0.100
422.600	-4.421	0.100
422.700	-8.351	0.100
422.800	-14.093	0.100
422.900	-16.205	0.100
423.000	-14.471	0.100
423.100	-2.403	0.100
423.200	-7.474	0.100
423.300	-10.954	0.100
423.400	-20.323	0.100
423.500	-4.216	0.100
423.600	-15.263	0.100
423.700	-14.708	0.100
423.800	-19.980	0.100
423.900	-16.544	0.100
424.000	-18.104	0.100
424.100	-26.227	0.100
424.200	-0.040	0.100
424.300	-1.388	0.100
424.400	-16.762	0.100
424.500	-2.841	0.100
424.600	-10.976	0.100
424.700	-7.322	0.100
424.800	-15.492	0.100
424.900	-18.992	0.100
425.000	-16.124	0.100
425.100	-13.721	0.100
425.200	-19.227	0.100
425.300	-16.507	0.100
425.400	2.696	0.100
425.500	-14.210	0.100
425.600	-0.093	0.100
425.700	-18.754	0.100
425.800	-19.993	0.100
425.900	-8.121	0.100
426.000	0.101	0.100
426.100	-4.894	0.100
426.200	-19.575	0.100
426.300	-19.570	0.100
426.400	-20.238	0.100
426.500	-12.394	0.100
426.600	-23.866	0.100
426.700	-3.727	0.100
426.800	-4.458	0.100
426.900	-11.597	0.100
427.000	-10.173	0.100
427.100	-7.683	0.100
427.200	-5.173	0.100
427.300	-14.025	0.100
427.400	-1.615	0.100
427.500	-26.754	0.100
427.600	-9.203	0.100
427.700	-10.683	0.100
427.800	-15.624	0.100
427.900	-14.597	0.100
428.000	-10.950	0.100
428.100	-19.344	0.100
428.200	-11.268	0.100
428.300	-24.429	0.100
428.400	-12.236	0.100
428.500	-15.262	0.100
428.600	-25.044	0.100
428.700	-6.661	0.100
428.800	-15.177	0.100
428.900	-12.034	0.100
429.000	-9.668	0.100
429.100	-18.779	0.100
429.200	-9.688	0.100
429.300	-13.372	0.100
429.400	-12.582	0.100
429.500	-15.495	0.100
429.600	-8.220	0.100
429.700	-14.685	0.100
429.800	-9.580	0.100
429.900	-5.981	0.100
430.000	-4.760	0.100
430.100	-24.082	0.100
430.200	-7.351	0.100
430.300	-18.401	0.100
430.400	-14.365	0.100
430.500	-15.405	0.100
430.600	-4.189	0.100
430.700	-23.359	0.100
430.800	-17.394	0.100
430.900	-10.807	0.100
431.000	-9.164	0.100
431.100	6.024	0.100
431.200	-22.234	0.100
431.300	-10.372	0.100
431.400	-27.670	0.100
431.500	-16.235	0.100
431.600	-1.082	0.100
431.700	-12.308	0.100
431.800	-18.170	0.100
431.900	-28.114	0.100
432.000	-17.001	0.100
432.100	-17.190	0.100
432.200	-6.396	0.100
432.300	-7.963	0.100
432.400	-11.954	0.100
432.500	-21.759	0.100
432.600	-12.552	0.100
432.700	-17.568	0.100
432.800	-24.392	0.100
432.900	-15.060	0.100
433.000	-6.455	0.100
433.100	-18.618	0.100
433.200	-14.181	0.100
433.300	-15.529	0.100
433.400	-9.655	0.100
433.500	-14.948	0.100
433.600	-21.898	0.100
433.700	-12.292	0.100
433.800	-13.585	0.100
433.900	-13.534	0.100
434.000	-20.148	0.100
434.100	-21.208	0.100
434.200	-15.589	0.100
434.300	-17.897	0.100
434.400	-14.212	0.100
434.500	-21.149	0.100
434.600	1.994	0.100
434.700	-11.985	0.100
434.800	-10.244	0.100
434.900	-8.800	0.100
435.000	-14.198	0.100
435.100	-11.139	0.100
435.200	-9.277	0.100
435.300	-9.994	0.100
435.400	-20.335	0.100
435.500	-24.107	0.100
435.600	-11.698	0.100
435.700	-8.891	0.100
435.800	-20.631	0.100
435.900	-12.326	0.100
436.000	-15.787	0.100
436.100	-8.780	0.100
436.200	-8.757	0.100
436.300	-15.421	0.100
436.400	-18.397	0.100
436.500	-12.587	0.100
436.600	-10.769	0.100
436.700	-15.809	0.100
436.800	-3.068	0.100
436.900	-7.276	0.100
437.000	-7.584	0.100
437.100	-14.776	0.100
437.200	-7.302	0.100
437.300	-33.965	0.100
437.400	-29.305	0.100
437.500	-4.073	0.100
437.600	-21.449	0.100
437.700	-10.404	0.100
437.800	-16.812	0.100
437.900	-13.053	0.100
438.000	-7.760	0.100
438.100	-11.503	0.100
438.200	-16.585	0.100
438.300	-8.712	0.100
438.400	-12.741	0.100
438.500	-12.643	0.100
438.600	-11.540	0.100
438.700	-9.659	0.100
438.800	-13.300	0.100
438.900	-25.634	0.100
439.000	-26.234	0.100
439.100	-22.754	0.100
439.200	-20.271	0.100
439.300	-2.797	0.100
439.400	-10.285	0.100
439.500	-18.110	0.100
439.600	-28.572	0.100
439.700	-12.930	0.100
439.800	-21.405	0.100
439.900	-3.882	0.100
440.000	-7.229	0.100
440.100	-9.719	0.100
440.200	-11.055	0.100
440.300	-11.354	0.100
440.400	-19.027	0.100
440.500	-17.428	0.100
440.600	-18.941	0.100
440.700	-15.243	0.100
440.800	-9.891	0.100
440.900	1.526	0.100
441.000	-18.468	0.100
441.100	-24.751	0.100
441.200	-22.365	0.100
441.300	-11.038	0.100
441.400	-13.550	0.100
441.500	-0.565	0.100
441.600	-21.607	0.100
441.700	-3.562	0.100
441.800	-10.141	0.100
441.900	-10.724	0.100
442.000	-17.627	0.100
442.100	-13.678	0.100
442.200	-27.090	0.100
442.300	-3.480	0.100
442.400	-19.121	0.100
442.500	-11.732	0.100
442.600	-13.449	0.100
442.700	-17.665	0.100
442.800	-11.300	0.100
442.900	-14.071	0.100
443.000	-4.629	0.100
443.100	-16.853	0.100
443.200	-15.655	0.100
443.300	-4.368	0.100
443.400	-13.102	0.100
443.500	-22.066	0.100
443.600	-10.878	0.100
443.700	-9.023	0.100
443.800	-16.052	0.100
443.900	-17.882	0.100
444.000	-16.854	0.100
444.100	-21.526	0.100
444.200	-5.418	0.100
444.300	-19.502	0.100
444.400	-12.565	0.100
444.500	-23.435	0.100
444.600	-16.202	0.100
444.700	-7.011	0.100
444.800	-20.198	0.100
444.900	-6.840	0.100
445.000	-4.017	0.100
445.100	-18.058	0.100
445.200	-7.925	0.100
445.300	-6.984	0.100
445.400	-19.019	0.100
445.500	-13.503	0.100
445.600	-13.211	0.100
445.700	-20.343	0.100
445.800	-7.574	0.100
445.900	-15.563	0.100
446.000	-11.198	0.100
446.100	-6.939	0.100
446.200	-11.408	0.100
446.300	-23.133	0.100
446.400	-7.621	0.100
446.500	-20.868	0.100
446.600	-13.403	0.100
446.700	-12.573	0.100
446.800	-12.553	0.100
446.900	-13.545	0.100
447.000	-20.922	0.100
447.100	-11.823	0.100
447.200	-17.433	0.100
447.300	-8.398	0.100
447.400	-9.270	0.100
447.500	-23.946	0.100
447.600	-13.595	0.100
447.700	-12.682	0.100
447.800	-10.274	0.100
447.900	-12.927	0.100
448.000	-13.341	0.100
448.100	-8.082	0.100
448.200	-8.414	0.100
448.300	-10.960	0.100
448.400	-14.432	0.100
448.500	-11.104	0.100
448.600	-23.728	0.100
448.700	-30.233	0.100
448.800	0.993	0.100
448.900	-15.972	0.100
449.000	-12.628	0.100
449.100	-5.890	0.100
449.200	-21.884	0.100
449.300	-2.604	0.100
449.400	-20.978	0.100
449.500	-4.422	0.100
449.600	-8.804	0.100
449.700	-16.106	0.100
449.800	-14.071	0.100
449.900	-15.194	0.100
450.000	-9.355	0.100
450.100	-21.646	0.100
450.200	-18.633	0.100
450.300	-7.785	0.100
450.400	-9.441	0.100
450.500	-12.350	0.100
450.600	-17.756	0.100
450.700	-12.528	0.100
450.800	-17.483	0.100
450.900	-5.037	0.100
451.000	-13.941	0.100
451.100	-13.996	0.100
451.200	-7.048	0.100
451.300	-11.482	0.100
451.400	-12.176	0.100
451.500	-13.801	0.100
451.600	-17.924	0.100
451.700	-10.519	0.100
451.800	-20.928	0.100
451.900	-2.747	0.100
452.000	-11.332	0.100
452.100	-12.096	0.100
452.200	-17.230	0.100
452.300	-3.584	0.100
452.400	-5.791	0.100
452.500	-6.608	0.100
452.600	-22.019	0.100
452.700	-5.041	0.100
452.800	-16.597	0.100
452.900	-11.742	0.100
453.000	-17.908	0.100
453.100	-23.887	0.100
453.200	-18.435	0.100
453.300	-4.788	0.100
453.400	-18.956	0.100
453.500	-5.031	0.100
453.600	-15.108	0.100
453.700	-16.498	0.100
453.800	-13.981	0.100
453.900	-7.583	0.100
454.000	-12.106	0.100
454.100	-9.255	0.100
454.200	-18.090	0.100
454.300	-16.801	0.100
454.400	-10.315	0.100
454.500	-14.067	0.100
454.600	-4.303	0.100
454.700	-18.174	0.100
454.800	-19.106	0.100
454.900	-5.735	0.100
455.000	-10.529	0.100
455.100	-10.460	0.100
455.200	-12.300	0.100
455.300	-17.288	0.100
455.400	-12.175	0.100
455.500	-10.726	0.100
455.600	-15.884	0.100
455.700	0.063	0.100
455.800	-9.414	0.100
455.900	-15.857	0.100
456.000	-7.903	0.100
456.100	-7.921	0.100
456.200	-22.634	0.100
456.300	-15.435	0.100
456.400	-13.782	0.100
456.500	-18.078	0.100
456.600	-10.329	0.100
456.700	-7.178	0.100
456.800	-9.573	0.100
456.900	-20.591	0.100
457.000	-7.254	0.100
457.100	-13.796	0.100
457.200	-13.224	0.100
457.300	-6.505	0.100
457.400	-14.291	0.100
457.500	-20.767	0.100
457.600	-19.078	0.100
457.700	10.063	0.100
457.800	-12.795	0.100
457.900	-14.123	0.100
458.000	-11.338	0.100
458.100	-10.758	0.100
458.200	-23.646	0.100
458.300	-13.433	0.100
458.400	-8.200	0.100
458.500	-0.187	0.100
458.600	-14.577	0.100
458.700	-13.303	0.100
458.800	-21.038	0.100
458.900	-5.230	0.100
459.000	-13.712	0.100
459.100	-9.303	0.100
459.200	1.021	0.100
459.300	-17.189	0.100
459.400	-15.823	0.100
459.500	-9.508	0.100
459.600	-10.355	0.100
459.700	-2.635	0.100
459.800	-24.103	0.100
459.900	-25.596	0.100
460.000	-8.992	0.100
460.100	-12.333	0.100
460.200	-9.019	0.100
460.300	-23.550	0.100
460.400	-13.542	0.100
460.500	-12.443	0.100
460.600	-16.773	0.100
460.700	3.432	0.100
460.800	-3.109	0.100
460.900	-17.646	0.100
461.000	-5.588	0.100
461.100	-17.282	0.100
461.200	-21.428	0.100
461.300	-21.988	0.100
461.400	-10.613	0.100
461.500	-3.177	0.100
461.600	0.893	0.100
461.700	-11.178	0.100
461.800	-15.039	0.100
461.900	-17.408	0.100
462.000	-12.832	0.100
462.100	-13.195	0.100
462.200	-7.696	0.100
462.300	-22.692	0.100
462.400	-17.948	0.100
462.500	3.324	0.100
462.600	-1.160	0.100
462.700	-15.110	0.100
462.800	-5.816	0.100
462.900	-18.543	0.100
463.000	1.602	0.100
463.100	-17.477	0.100
463.200	-6.098	0.100
463.300	-0.636	0.100
463.400	-22.208	0.100
463.500	-3.687	0.100
463.600	-12.559	0.100
463.700	-6.552	0.100
463.800	-14.803	0.100
463.900	-10.722	0.100
464.000	-20.387	0.100
464.100	-3.260	0.100
464.200	-7.495	0.100
464.300	-12.386	0.100
464.400	-14.752	0.100
464.500	-0.256	0.100
464.600	-3.211	0.100
464.700	-15.613	0.100
464.800	-23.182	0.100
464.900	-8.387	0.100
465.000	-3.228	0.100
465.100	-2.253	0.100
465.200	-9.981	0.100
465.300	-11.801	0.100
465.400	-22.317	0.100
465.500	-5.365	0.100
465.600	-2.927	0.100
465.700	-13.859	0.100
465.800	-13.382	0.100
465.900	-9.233	0.100
466.000	-9.764	0.100
466.100	-6.051	0.100
466.200	-10.471	0.100
466.300	-12.149	0.100
466.400	-13.998	0.100
466.500	-15.227	0.100
466.600	-13.985	0.100
466.700	-5.200	0.100
466.800	-3.870	0.100
466.900	-22.547	0.100
467.000	-11.089	0.100
467.100	2.768	0.100
467.200	-20.688	0.100
467.300	-12.791	0.100
467.400	-7.142	0.100
467.500	-17.387	0.100
467.600	0.276	0.100
467.700	-6.434	0.100
467.800	-15.985	0.100
467.900	-6.371	0.100
468.000	-12.185	0.100
468.100	-9.734	0.100
468.200	-1.664	0.100
468.300	-11.464	0.100
468.400	-17.025	0.100
468.500	-8.885	0.100
468.600	7.328	0.100
468.700	-2.115	0.100
468.800	-13.215	0.100
468.900	-16.143	0.100
469.000	-9.273	0.100
469.100	-7.343	0.100
469.200	-5.671	0.100
469.300	-12.573	0.100
469.400	-25.996	0.100
469.500	-13.965	0.100
469.600	-6.103	0.100
469.700	-8.248	0.100
469.800	-3.977	0.100
469.900	-12.115	0.100
470.000	-12.426	0.100
470.100	-19.558	0.100
470.200	-7.288	0.100
470.300	-11.432	0.100
470.400	-11.681	0.100
470.500	-9.565	0.100
470.600	1.192	0.100
470.700	-11.901	0.100
470.800	-4.983	0.100
470.900	-20.143	0.100
471.000	-8.489	0.100
471.100	-4.595	0.100
471.200	2.705	0.100
471.300	-0.219	0.100
471.400	1.914	0.100
471.500	-9.119	0.100
471.600	-16.758	0.100
471.700	0.124	0.100
471.800	5.420	0.100
471.900	-15.173	0.100
472.000	-13.579	0.100
472.100	-1.142	0.100
472.200	1.219	0.100
472.300	0.871	0.100
472.400	-19.343	0.100
472.500	-2.452	0.100
472.600	4.008	0.100
472.700	5.386	0.100
472.800	-5.950	0.100
472.900	-6.384	0.100
473.000	-10.702	0.100
473.100	-4.856	0.100
473.200	1.283	0.100
473.300	12.562	0.100
473.400	-3.359	0.100
473.500	-1.819	0.100
473.600	2.973	0.100
473.700	-4.094	0.100
473.800	-1.799	0.100
473.900	2.246	0.100
474.000	-12.171	0.100
474.100	11.571	0.100
474.200	-16.220	0.100
474.300	15.499	0.100
474.400	6.003	0.100
474.500	-2.412	0.100
474.600	-0.303	0.100
474.700	6.385	0.100
474.800	5.363	0.100
474.900	-8.305	0.100
475.000	6.745	0.100
475.100	-3.143	0.100
475.200	-0.685	0.100
475.300	-4.261	0.100
475.400	-3.198	0.100
475.500	16.824	0.100
475.600	0.104	0.100
475.700	8.069	0.100
475.800	8.359	0.100
475.900	10.155	0.100
476.000	2.661	0.100
476.100	14.573	0.100
476.200	4.840	0.100
476.300	-0.357	0.100
476.400	9.868	0.100
476.500	-0.320	0.100
476.600	15.065	0.100
476.700	13.415	0.100
476.800	1.035	0.100
476.900	-1.895	0.100
477.000	9.108	0.100
477.100	11.700	0.100
477.200	11.767	0.100
477.300	-8.826	0.100
477.400	6.971	0.100
477.500	-5.762	0.100
477.600	9.018	0.100
477.700	-9.623	0.100
477.800	-16.604	0.100
477.900	-19.812	0.100
478.000	-19.252	0.100
478.100	-16.797	0.100
478.200	-19.787	0.100
478.300	-1.825	0.100
478.400	-12.006	0.100
478.500	-15.771	0.100
478.600	-11.837	0.100
478.700	-3.989	0.100
478.800	-7.434	0.100
478.900	-4.054	0.100
479.000	-6.648	0.100
479.100	-14.499	0.100
479.200	-19.649	0.100
479.300	-7.115	0.100
479.400	-23.038	0.100
479.500	-13.814	0.100
479.600	-10.328	0.100
479.700	-15.067	0.100
479.800	-2.551	0.100
479.900	-7.068	0.100
480.000	-8.942	0.100
480.100	7.246	0.100
480.200	-4.940	0.100
480.300	1.075	0.100
480.400	-1.044	0.100
480.500	-1.346	0.100
480.600	-2.028	0.100
480.700	-8.681	0.100
480.800	1.249	0.100
480.900	-1.868	0.100
481.000	4.218	0.100
481.100	10.566	0.100
481.200	6.767	0.100
481.300	1.469	0.100
481.400	3.853	0.100
481.500	6.414	0.100
481.600	11.169	0.100
481.700	6.230	0.100
481.800	11.049	0.100
481.900	3.964	0.100
482.000	19.477	0.100
482.100	5.913	0.100
482.200	1.048	0.100
482.300	17.045	0.100
482.400	9.742	0.100
482.500	11.155	0.100
482.600	24.235	0.100
482.700	18.970	0.100
482.800	7.630	0.100
482.900	18.083	0.100
483.000	10.155	0.100
483.100	19.836	0.100
483.200	11.498	0.100
483.300	18.277	0.100
483.400	2.071	0.100
483.500	11.338	0.100
483.600	18.314	0.100
483.700	15.410	0.100
483.800	14.053	0.100
483.900	18.828	0.100
484.000	21.250	0.100
484.100	16.703	0.100
484.200	11.795	0.100
484.300	6.795	0.100
484.400	13.804	0.100
484.500	17.723	0.100
484.600	16.680	0.100
484.700	11.978	0.100
484.800	13.909	0.100
484.900	23.482	0.100
485.000	13.051	0.100
485.100	5.317	0.100
485.200	17.465	0.100
485.300	16.464	0.100
485.400	19.801	0.100
485.500	23.555	0.100
485.600	7.538	0.100
485.700	28.782	0.100
485.800	12.345	0.100
485.900	14.196	0.100
486.000	15.278	0.100
486.100	22.961	0.100
486.200	14.355	0.100
486.300	11.614	0.100
486.400	14.300	0.100
486.500	6.928	0.100
486.600	12.903	0.100
486.700	7.057	0.100
486.800	18.390	0.100
486.900	13.357	0.100
487.000	13.367	0.100
487.100	10.782	0.100
487.200	16.616	0.100
487.300	19.215	0.100
487.400	10.186	0.100
487.500	13.144	0.100
487.600	19.503	0.100
487.700	14.257	0.100
487.800	9.697	0.100
487.900	18.541	0.100
488.000	10.251	0.100
488.100	23.944	0.100
488.200	13.956	0.100
488.300	9.109	0.100
488.400	9.730	0.100
488.500	17.265	0.100
488.600	16.301	0.100
488.700	11.681	0.100
488.800	11.331	0.100
488.900	12.480	0.100
489.000	9.188	0.100
489.100	10.547	0.100
489.200	10.679	0.100
489.300	13.056	0.100
489.400	11.198	0.100
489.500	7.973	0.100
489.600	26.325	0.100
489.700	7.598	0.100
489.800	20.335	0.100
489.900	10.887	0.100
490.000	0.500	0.100
490.100	19.304	0.100
490.200	21.952	0.100
490.300	6.336	0.100
490.400	19.380	0.100
490.500	16.600	0.100
490.600	12.188	0.100
490.700	14.423	0.100
490.800	18.385	0.100
490.900	8.639	0.100
491.000	9.298	0.100
491.100	15.559	0.100
491.200	15.351	0.100
491.300	12.826	0.100
491.400	8.862	0.100
491.500	8.407	0.100
491.600	7.403	0.100
491.700	12.266	0.100
491.800	15.054	0.100
491.900	19.442	0.100
492.000	12.301	0.100
492.100	17.914	0.100
492.200	20.052	0.100
492.300	15.362	0.100
492.400	10.673	0.100
492.500	18.553	0.100
492.600	10.940	0.100
492.700	22.577	0.100
492.800	11.785	0.100
492.900	17.114	0.100
493.000	16.214	0.100
493.100	8.171	0.100
493.200	1.525	0.100
493.300	5.525	0.100
493.400	14.225	0.100
493.500	16.916	0.100
493.600	15.731	0.100
493.700	11.861	0.100
493.800	18.644	0.100
493.900	35.041	0.100
494.000	8.861	0.100
494.100	16.406	0.100
494.200	21.273	0.100
494.300	13.512	0.100
494.400	16.394	0.100
494.500	11.370	0.100
494.600	13.893	0.100
494.700	19.572	0.100
494.800	18.308	0.100
494.900	8.126	0.100
495.000	27.831	0.100
495.100	17.473	0.100
495.200	13.296	0.100
495.300	3.703	0.100
495.400	12.034	0.100
495.500	15.867	0.100
495.600	9.338	0.100
495.700	11.959	0.100
495.800	24.160	0.100
495.900	17.330	0.100
496.000	26.110	0.100
496.100	19.219	0.100
496.200	14.096	0.100
496.300	12.644	0.100
496.400	17.702	0.100
496.500	8.650	0.100
496.600	16.759	0.100
496.700	17.546	0.100
496.800	23.626	0.100
496.900	28.893	0.100
497.000	22.035	0.100
497.100	19.253	0.100
497.200	11.618	0.100
497.300	15.399	0.100
497.400	23.946	0.100
497.500	10.364	0.100
497.600	18.755	0.100
497.700	7.718	0.100
497.800	4.666	0.100
497.900	39.309	0.100
498.000	19.941	0.100
498.100	27.371	0.100
498.200	23.338	0.100
498.300	25.007	0.100
498.400	21.031	0.100
498.500	19.273	0.100
498.600	18.775	0.100
498.700	14.055	0.100
498.800	24.581	0.100
498.900	7.294	0.100
499.000	18.022	0.100
499.100	26.151	0.100
499.200	35.276	0.100
499.300	23.720	0.100
499.400	27.099	0.100
499.500	5.451	0.100
499.600	9.582	0.100
499.700	31.036	0.100
499.800	16.012	0.100
499.900	19.755	0.100
500.000	28.924	0.100
500.100	15.416	0.100
500.200	28.115	0.100
500.300	17.790	0.100
500.400	7.577	0.100
500.500	36.100	0.100
500.600	22.523	0.100
500.700	24.281	0.100
500.800	34.299	0.100
500.900	16.448	0.100
501.000	19.309	0.100
501.100	18.051	0.100
501.200	33.433	0.100
501.300	27.937	0.100
501.400	22.684	0.100
501.500	20.016	0.100
501.600	25.155	0.100
501.700	24.294	0.100
501.800	19.806	0.100
501.900	30.562	0.100
502.000	26.656	0.100
502.100	19.959	0.100
502.200	24.600	0.100
502.300	32.126	0.100
502.400	25.357	0.100
502.500	20.685	0.100
502.600	21.763	0.100
502.700	16.421	0.100
502.800	15.415	0.100
502.900	28.811	0.100
503.000	25.079	0.100
503.100	11.448	0.100
503.200	39.802	0.100
503.300	38.730	0.100
503.400	23.748	0.100
503.500	25.533	0.100
503.600	36.040	0.100
503.700	16.086	0.100
503.800	22.926	0.100
503.900	33.209	0.100
504.000	27.149	0.100
504.100	32.213	0.100
504.200	21.082	0.100
504.300	27.987	0.100
504.400	26.748	0.100
504.500	26.796	0.100
504.600	24.206	0.100
504.700	26.739	0.100
504.800	21.328	0.100
504.900	32.184	0.100
505.000	29.316	0.100
505.100	42.061	0.100
505.200	22.073	0.100
505.300	25.757	0.100
505.400	26.028	0.100
505.500	33.623	0.100
505.600	33.856	0.100
505.700	30.675	0.100
505.800	22.050	0.100
505.900	29.935	0.100
506.000	14.754	0.100
506.100	23.875	0.100
506.200	30.032	0.100
506.300	27.321	0.100
506.400	33.336	0.100
506.500	21.966	0.100
506.600	20.084	0.100
506.700	36.982	0.100
506.800	31.279	0.100
506.900	26.727	0.100
507.000	32.615	0.100
507.100	29.071	0.100
507.200	29.662	0.100
507.300	28.016	0.100
507.400	19.991	0.100
507.500	28.684	0.100
507.600	34.008	0.100
507.700	18.038	0.100
507.800	23.629	0.100
507.900	39.587	0.100
508.000	33.828	0.100
508.100	33.290	0.100
508.200	29.460	0.100
508.300	39.929	0.100
508.400	23.659	0.100
508.500	21.271	0.100
508.600	45.199	0.100
508.700	28.049	0.100
508.800	20.964	0.100
508.900	26.964	0.100
509.000	36.136	0.100
509.100	32.560	0.100
509.200	28.926	0.100
509.300	30.434	0.100
509.400	39.247	0.100
509.500	25.989	0.100
509.600	26.384	0.100
509.700	22.975	0.100
509.800	29.736	0.100
509.900	32.198	0.100
510.000	30.248	0.100
510.100	27.962	0.100
510.200	26.672	0.100
510.300	24.260	0.100
510.400	20.647	0.100
510.500	18.707	0.100
510.600	35.446	0.100
510.700	21.199	0.100
510.800	22.759	0.100
510.900	23.047	0.100
511.000	34.089	0.100
511.100	31.791	0.100
511.200	25.433	0.100
511.300	38.302	0.100
511.400	40.083	0.100
511.500	23.455	0.100
511.600	22.353	0.100
511.700	33.265	0.100
511.800	32.642	0.100
511.900	22.104	0.100
512.000	23.119	0.100
512.100	41.324	0.100
512.200	25.664	0.100
512.300	36.954	0.100
512.400	29.182	0.100
512.500	39.754	0.100
512.600	25.808	0.100
512.700	30.534	0.100
512.800	16.371	0.100
512.900	35.796	0.100
513.000	31.619	0.100
513.100	22.359	0.100
513.200	44.293	0.100
513.300	40.753	0.100
513.400	16.763	0.100
513.500	24.136	0.100
513.600	36.438	0.100
513.700	35.093	0.100
513.800	23.159	0.100
513.900	26.480	0.100
514.000	33.602	0.100
514.100	1.561	0.100
514.200	38.018	0.100
514.300	25.844	0.100
514.400	28.844	0.100
514.500	31.760	0.100
514.600	31.159	0.100
514.700	21.443	0.100
514.800	33.381	0.100
514.900	30.623	0.100
515.000	27.781	0.100
515.100	36.013	0.100
515.200	30.527	0.100
515.300	34.480	0.100
515.400	36.395	0.100
515.500	35.736	0.100
515.600	26.290	0.100
515.700	39.611	0.100
515.800	19.120	0.100
515.900	28.130	0.100
516.000	20.889	0.100
516.100	23.217	0.100
516.200	31.586	0.100
516.300	20.650	0.100
516.400	25.377	0.100
516.500	24.382	0.100
516.600	35.058	0.100
516.700	32.535	0.100
516.800	30.485	0.100
516.900	32.013	0.100
517.000	29.262	0.100
517.100	30.578	0.100
517.200	15.421	0.100
517.300	31.261	0.100
517.400	25.496	0.100
517.500	30.493	0.100
517.600	30.745	0.100
517.700	23.178	0.100
517.800	32.966	0.100
517.900	24.415	0.100
518.000	35.413	0.100
518.100	28.324	0.100
518.200	35.677	0.100
518.300	32.621	0.100
518.400	42.549	0.100
518.500	23.109	0.100
518.600	31.098	0.100
518.700	36.493	0.100
518.800	13.476	0.100
518.900	24.446	0.100
519.000	17.883	0.100
519.100	30.708	0.100
519.200	30.869	0.100
519.300	22.801	0.100
519.400	36.988	0.100
519.500	24.742	0.100
519.600	34.457	0.100
519.700	25.603	0.100
519.800	29.149	0.100
519.900	39.407	0.100
520.000	32.614	0.100
520.100	22.708	0.100
520.200	26.911	0.100
520.300	31.076	0.100
520.400	29.610	0.100
520.500	21.332	0.100
520.600	23.268	0.100
520.700	26.311	0.100
520.800	29.791	0.100
520.900	21.305	0.100
521.000	31.945	0.100
521.100	26.244	0.100
521.200	30.475	0.100
521.300	28.456	0.100
521.400	14.428	0.100
521.500	23.880	0.100
521.600	37.152	0.100
521.700	28.045	0.100
521.800	34.898	0.100
521.900	21.314	0.100
522.000	28.318	0.100
522.100	38.774	0.100
522.200	31.496	0.100
522.300	19.884	0.100
522.400	37.420	0.100
522.500	36.215	0.100
522.600	8.885	0.100
522.700	32.231	0.100
522.800	33.621	0.100
522.900	20.307	0.100
523.000	32.241	0.100
523.100	24.897	0.100
523.200	41.405	0.100
523.300	30.411	0.100
523.400	23.828	0.100
523.500	27.315	0.100
523.600	26.712	0.100
523.700	23.407	0.100
523.800	41.848	0.100
523.900	22.955	0.100
524.000	24.140	0.100
524.100	16.943	0.100
524.200	29.192	0.100
524.300	36.687	0.100
524.400	36.682	0.100
524.500	39.042	0.100
524.600	28.210	0.100
524.700	22.568	0.100
524.800	28.096	0.100
524.900	19.530	0.100
525.000	22.328	0.100
525.100	42.474	0.100
525.200	35.907	0.100
525.300	19.516	0.100
525.400	32.729	0.100
525.500	40.260	0.100
525.600	36.198	0.100
525.700	11.429	0.100
525.800	20.349	0.100
525.900	24.953	0.100
526.000	46.892	0.100
526.100	24.753	0.100
526.200	32.349	0.100
526.300	16.990	0.100
526.400	35.947	0.100
526.500	34.516	0.100
526.600	35.091	0.100
526.700	18.326	0.100
526.800	18.905	0.100
526.900	34.296	0.100
527.000	16.972	0.100
527.100	30.185	0.100
527.200	23.768	0.100
527.300	29.802	0.100
527.400	28.234	0.100
527.500	31.483	0.100
527.600	16.613	0.100
527.700	28.328	0.100
527.800	30.205	0.100
527.900	29.354	0.100
528.000	11.640	0.100
528.100	29.467	0.100
528.200	27.842	0.100
528.300	28.232	0.100
528.400	36.014	0.100
528.500	21.293	0.100
528.600	22.531	0.100
528.700	32.348	0.100
528.800	23.025	0.100
528.900	29.610	0.100
529.000	22.113	0.100
529.100	24.654	0.100
529.200	28.890	0.100
529.300	27.015	0.100
529.400	18.645	0.100
529.500	23.290	0.100
529.600	33.160	0.100
529.700	35.744	0.100
529.800	25.381	0.100
529.900	22.654	0.100
530.000	33.895	0.100
530.100	16.600	0.100
530.200	35.062	0.100
530.300	36.538	0.100
530.400	18.271	0.100
530.500	25.922	0.100
530.600	23.782	0.100
530.700	18.735	0.100
530.800	33.418	0.100
530.900	27.742	0.100
531.000	40.311	0.100
531.100	28.172	0.100
531.200	10.117	0.100
531.300	42.489	0.100
531.400	31.272	0.100
531.500	15.026	0.100
531.600	32.876	0.100
531.700	13.603	0.100
531.800	19.191	0.100
531.900	25.758	0.100
532.000	29.805	0.100
532.100	25.881	0.100
532.200	33.792	0.100
532.300	8.510	0.100
532.400	37.610	0.100
532.500	35.732	0.100
532.600	19.895	0.100
532.700	44.750	0.100
532.800	37.403	0.100
532.900	27.296	0.100
533.000	27.980	0.100
533.100	22.646	0.100
533.200	22.077	0.100
533.300	29.059	0.100
533.400	28.654	0.100
533.500	32.433	0.100
533.600	28.403	0.100
533.700	30.145	0.100
533.800	29.011	0.100
533.900	24.203	0.100
534.000	30.517	0.100
534.100	13.703	0.100
534.200	28.684	0.100
534.300	27.128	0.100
534.400	34.880	0.100
534.500	26.828	0.100
534.600	28.281	0.100
534.700	34.664	0.100
534.800	36.251	0.100
534.900	40.075	0.100
535.000	24.759	0.100
535.100	30.305	0.100
535.200	29.284	0.100
535.300	27.431	0.100
535.400	20.382	0.100
535.500	24.247	0.100
535.600	24.978	0.100
535.700	35.789	0.100
535.800	32.249	0.100
535.900	27.534	0.100
536.000	13.703	0.100
536.100	28.732	0.100
536.200	28.980	0.100
536.300	19.268	0.100
536.400	24.384	0.100
536.500	27.847	0.100
536.600	30.802	0.100
536.700	21.549	0.100
536.800	20.785	0.100
536.900	29.539	0.100
537.000	32.522	0.100
537.100	23.926	0.100
537.200	28.187	0.100
537.300	23.873	0.100
537.400	19.526	0.100
537.500	28.531	0.100
537.600	30.525	0.100
537.700	35.373	0.100
537.800	36.865	0.100
537.900	21.853	0.100
538.000	23.497	0.100
538.100	26.773	0.100
538.200	30.630	0.100
538.300	24.942	0.100
538.400	27.175	0.100
538.500	26.537	0.100
538.600	25.707	0.100
538.700	27.162	0.100
538.800	25.470	0.100
538.900	28.862	0.100
539.000	24.865	0.100
539.100	36.540	0.100
539.200	24.488	0.100
539.300	26.550	0.100
539.400	25.419	0.100
539.500	31.690	0.100
539.600	31.661	0.100
539.700	25.157	0.100
539.800	35.496	0.100
539.900	24.169	0.100
540.000	19.167	0.100
540.100	27.200	0.100
540.200	15.716	0.100
540.300	29.746	0.100
540.400	25.920	0.100
540.500	24.600	0.100
540.600	22.511	0.100
540.700	2.991	0.100
540.800	16.806	0.100
540.900	10.920	0.100
541.000	16.535	0.100
541.100	9.221	0.100
541.200	3.849	0.100
541.300	1.906	0.100
541.400	0.968	0.100
541.500	6.490	0.100
541.600	4.694	0.100
541.700	10.500	0.100
541.800	17.628	0.100
541.900	9.181	0.100
542.000	5.570	0.100
542.100	-3.612	0.100
542.200	5.768	0.100
542.300	3.321	0.100
542.400	3.790	0.100
542.500	-0.092	0.100
542.600	-5.690	0.100
542.700	-2.361	0.100
542.800	1.270	0.100
542.900	-6.880	0.100
543.000	-15.753	0.100
543.100	-20.696	0.100
543.200	1.973	0.100
543.300	-11.150	0.100
543.400	-3.127	0.100
543.500	-4.048	0.100
543.600	-13.986	0.100
543.700	-3.654	0.100
543.800	-14.913	0.100
543.900	-12.775	0.100
544.000	-15.793	0.100
544.100	-1.903	0.100
544.200	-14.262	0.100
544.300	-9.901	0.100
544.400	-9.115	0.100
544.500	3.915	0.100
544.600	-2.634	0.100
544.700	-12.842	0.100
544.800	-6.380	0.100
544.900	-9.623	0.100
545.000	-8.777	0.100
545.100	-12.977	0.100
545.200	-15.405	0.100
545.300	1.990	0.100
545.400	-0.807	0.100
545.500	0.529	0.100
545.600	-19.785	0.100
545.700	0.045	0.100
545.800	-18.709	0.100
545.900	-4.362	0.100
546.000	-2.445	0.100
546.100	-16.694	0.100
546.200	-8.282	0.100
546.300	-15.042	0.100
546.400	-4.446	0.100
546.500	-23.199	0.100
546.600	-3.310	0.100
546.700	-1.117	0.100
546.800	-16.718	0.100
546.900	-11.195	0.100
547.000	4.693	0.100
547.100	0.269	0.100
547.200	-8.595	0.100
547.300	-11.386	0.100
547.400	9.196	0.100
547.500	-22.840	0.100
547.600	-8.119	0.100
547.700	-0.684	0.100
547.800	-4.019	0.100
547.900	-11.125	0.100
548.000	-14.318	0.100
548.100	4.408	0.100
548.200	-2.714	0.100
548.300	-6.105	0.100
548.400	4.495	0.100
548.500	-10.352	0.100
548.600	-8.773	0.100
548.700	-12.782	0.100
548.800	0.621	0.100
548.900	-8.499	0.100
549.000	-7.777	0.100
549.100	-4.231	0.100
549.200	-5.171	0.100
549.300	-10.671	0.100
549.400	-0.738	0.100
549.500	-10.745	0.100
549.600	-10.079	0.100
549.700	-10.838	0.100
549.800	4.647	0.100
549.900	0.197	0.100
550.000	-2.576	0.100
550.100	-10.034	0.100
550.200	2.638	0.100
550.300	2.130	0.100
550.400	-7.439	0.100
550.500	-6.907	0.100
550.600	-9.933	0.100
550.700	-5.847	0.100
550.800	-0.212	0.100
550.900	-14.547	0.100
551.000	-5.042	0.100
551.100	-8.645	0.100
551.200	-1.822	0.100
551.300	-5.375	0.100
551.400	2.389	0.100
551.500	0.986	0.100
551.600	-6.003	0.100
551.700	-6.259	0.100
551.800	-2.447	0.100
551.900	5.549	0.100
552.000	-1.585	0.100
552.100	-14.012	0.100
552.200	-5.800	0.100
552.300	-11.432	0.100
552.400	-2.567	0.100
552.500	-2.030	0.100
552.600	-11.752	0.100
552.700	-16.159	0.100
552.800	-0.693	0.100
552.900	-8.546	0.100
553.000	0.147	0.100
553.100	-12.568	0.100
553.200	1.183	0.100
553.300	-3.288	0.100
553.400	-7.666	0.100
553.500	-18.882	0.100
553.600	-2.977	0.100
553.700	-2.029	0.100
553.800	-8.847	0.100
553.900	4.533	0.100
554.000	-11.296	0.100
554.100	-5.153	0.100
554.200	-8.762	0.100
554.300	-9.470	0.100
554.400	3.736	0.100
554.500	-3.705	0.100
554.600	-7.492	0.100
554.700	1.516	0.100
554.800	-6.890	0.100
554.900	-6.275	0.100
555.000	-10.833	0.100
555.100	-8.844	0.100
555.200	-13.248	0.100
555.300	-7.278	0.100
555.400	-6.311	0.100
555.500	-16.889	0.100
555.600	-4.601	0.100
555.700	-0.044	0.100
555.800	0.491	0.100
555.900	-15.506	0.100
556.000	-14.775	0.100
556.100	-13.502	0.100
556.200	-2.217	0.100
556.300	-1.971	0.100
556.400	1.496	0.100
556.500	-2.416	0.100
556.600	0.594	0.100
556.700	-18.840	0.100
556.800	-22.872	0.100
556.900	0.150	0.100
557.000	-8.625	0.100
557.100	-15.779	0.100
557.200	-4.405	0.100
557.300	-2.352	0.100
557.400	5.507	0.100
557.500	-10.066	0.100
557.600	-4.679	0.100
557.700	-1.899	0.100
557.800	-1.119	0.100
557.900	-5.389	0.100
558.000	-7.021	0.100
558.100	-15.948	0.100
558.200	-7.396	0.100
558.300	4.570	0.100
558.400	-16.276	0.100
558.500	-11.033	0.100
558.600	-13.049	0.100
558.700	-2.902	0.100
558.800	4.516	0.100
558.900	-2.280	0.100
559.000	-8.475	0.100
559.100	-5.619	0.100
559.200	-8.183	0.100
559.300	-3.063	0.100
559.400	-10.970	0.100
559.500	-7.670	0.100
559.600	-0.836	0.100
559.700	-25.768	0.100
559.800	-5.848	0.100
559.900	-4.415	0.100
560.000	-4.189	0.100
560.100	-12.882	0.100
560.200	-17.275	0.100
560.300	-8.893	0.100
560.400	-9.916	0.100
560.500	2.351	0.100
560.600	-5.644	0.100
560.700	8.177	0.100
560.800	-15.919	0.100
560.900	-5.654	0.100
561.000	-5.346	0.100
561.100	-6.795	0.100
561.200	-4.450	0.100
561.300	-8.470	0.100
561.400	-13.606	0.100
561.500	-16.467	0.100
561.600	-0.925	0.100
561.700	-8.859	0.100
561.800	-12.326	0.100
561.900	-5.050	0.100
562.000	-4.394	0.100
562.100	5.285	0.100
562.200	-2.507	0.100
562.300	-3.664	0.100
562.400	-12.044	0.100
562.500	-9.784	0.100
562.600	-10.123	0.100
562.700	-12.950	0.100
562.800	-8.161	0.100
562.900	5.657	0.100
563.000	-6.966	0.100
563.100	-21.218	0.100
563.200	-9.521	0.100
563.300	-22.459	0.100
563.400	-16.583	0.100
563.500	-5.394	0.100
563.600	-8.046	0.100
563.700	-15.705	0.100
563.800	-2.767	0.100
563.900	2.226	0.100
564.000	-10.531	0.100
564.100	-12.788	0.100
564.200	-6.305	0.100
564.300	-10.001	0.100
564.400	-7.547	0.100
564.500	-17.084	0.100
564.600	-7.303	0.100
564.700	-13.189	0.100
564.800	-17.622	0.100
564.900	-10.826	0.100
565.000	-4.853	0.100
565.100	-13.700	0.100
565.200	-13.465	0.100
565.300	-18.154	0.100
565.400	-18.833	0.100
565.500	-7.088	0.100
565.600	-7.944	0.100
565.700	-21.170	0.100
565.800	-17.754	0.100
565.900	1.592	0.100
566.000	-8.242	0.100
566.100	-3.204	0.100
566.200	-8.075	0.100
566.300	-5.116	0.100
566.400	-14.676	0.100
566.500	-0.115	0.100
566.600	-14.616	0.100
566.700	-7.982	0.100
566.800	-23.018	0.100
566.900	-11.271	0.100
567.000	-19.088	0.100
567.100	-9.761	0.100
567.200	-9.277	0.100
567.300	-8.719	0.100
567.400	-20.623	0.100
567.500	-21.158	0.100
567.600	-2.263	0.100
567.700	-23.294	0.100
567.800	-2.175	0.100
567.900	-20.247	0.100
568.000	-1.131	0.100
568.100	-11.345	0.100
568.200	-15.704	0.100
568.300	-12.595	0.100
568.400	-13.989	0.100
568.500	-24.167	0.100
568.600	-8.013	0.100
568.700	-19.421	0.100
568.800	-2.364	0.100
568.900	-1.860	0.100
569.000	-10.221	0.100
569.100	-9.295	0.100
569.200	-9.523	0.100
569.300	-5.519	0.100
569.400	-7.533	0.100
569.500	-9.949	0.100
569.600	-7.370	0.100
569.700	-22.084	0.100
569.800	-9.714	0.100
569.900	-6.446	0.100
570.000	-6.582	0.100
570.100	-13.479	0.100
570.200	-12.855	0.100
570.300	-18.016	0.100
570.400	-9.271	0.100
570.500	-16.472	0.100
570.600	-12.550	0.100
570.700	-12.993	0.100
570.800	-11.889	0.100
570.900	-17.339	0.100
571.000	-11.893	0.100
571.100	-26.653	0.100
571.200	0.635	0.100
571.300	-5.708	0.100
571.400	-15.738	0.100
571.500	-9.913	0.100
571.600	-10.939	0.100
571.700	-7.896	0.100
571.800	-0.860	0.100
571.900	-8.536	0.100
572.000	-14.295	0.100
572.100	-17.527	0.100
572.200	-10.322	0.100
572.300	-19.389	0.100
572.400	-3.979	0.100
572.500	-14.494	0.100
572.600	-18.815	0.100
572.700	-21.113	0.100
572.800	-15.512	0.100
572.900	-13.891	0.100
573.000	-12.721	0.100
573.100	-17.472	0.100
573.200	-17.699	0.100
573.300	-10.608	0.100
573.400	-30.128	0.100
573.500	-2.395	0.100
573.600	-12.637	0.100
573.700	-6.415	0.100
573.800	-7.085	0.100
573.900	-7.474	0.100
574.000	-23.130	0.100
574.100	-11.178	0.100
574.200	-13.884	0.100
574.300	-10.447	0.100
574.400	0.453	0.100
574.500	-16.508	0.100
574.600	-14.216	0.100
574.700	-15.938	0.100
574.800	-21.485	0.100
574.900	-18.785	0.100
575.000	-1.391	0.100
575.100	-15.042	0.100
575.200	-13.423	0.100
575.300	-4.882	0.100
575.400	-14.365	0.100
575.500	-21.112	0.100
575.600	-2.854	0.100
575.700	-9.512	0.100
575.800	-17.782	0.100
575.900	-9.331	0.100
576.000	-23.499	0.100
576.100	-3.184	0.100
576.200	-22.402	0.100
576.300	-4.625	0.100
576.400	-10.270	0.100
576.500	-3.993	0.100
576.600	-9.579	0.100
576.700	-4.244	0.100
576.800	-13.821	0.100
576.900	-26.073	0.100
577.000	-9.192	0.100
577.100	-15.964	0.100
577.200	-12.195	0.100
577.300	-28.001	0.100
577.400	-20.567	0.100
577.500	-24.912	0.100
577.600	5.108	0.100
577.700	-14.596	0.100
577.800	-20.766	0.100
577.900	-12.161	0.100
578.000	-16.209	0.100
578.100	-15.003	0.100
578.200	-15.260	0.100
578.300	-5.975	0.100
578.400	-5.629	0.100
578.500	-7.818	0.100
578.600	-20.699	0.100
578.700	-11.321	0.100
578.800	-5.895	0.100
578.900	-8.310	0.100
579.000	-14.099	0.100
579.100	-16.214	0.100
579.200	-15.584	0.100
579.300	-17.456	0.100
579.400	-4.821	0.100
579.500	-15.895	0.100
579.600	-28.331	0.100
579.700	-17.453	0.100
579.800	-17.144	0.100
579.900	-8.758	0.100
580.000	-21.440	0.100
580.100	-16.079	0.100
580.200	-9.610	0.100
580.300	-21.517	0.100
580.400	-2.819	0.100
580.500	-5.744	0.100
580.600	-17.912	0.100
580.700	-9.982	0.100
580.800	-16.247	0.100
580.900	-18.479	0.100
581.000	-9.275	0.100
581.100	-14.420	0.100
581.200	-6.503	0.100
581.300	-7.530	0.100
581.400	-10.678	0.100
581.500	-8.030	0.100
581.600	-16.830	0.100
581.700	-24.855	0.100
581.800	-14.922	0.100
581.900	-14.699	0.100
582.000	-7.997	0.100
582.100	-10.326	0.100
582.200	-19.706	0.100
582.300	-16.880	0.100
582.400	-12.008	0.100
582.500	-18.042	0.100
582.600	-15.586	0.100
582.700	-15.016	0.100
582.800	-12.706	0.100
582.900	-10.118	0.100
583.000	-10.294	0.100
583.100	-29.085	0.100
583.200	5.673	0.100
583.300	-13.064	0.100
583.400	-15.989	0.100
583.500	-21.357	0.100
583.600	-17.166	0.100
583.700	-10.736	0.100
583.800	-16.131	0.100
583.900	-3.313	0.100
584.000	-3.817	0.100
584.100	-12.470	0.100
584.200	-22.907	0.100
584.300	-20.089	0.100
584.400	-15.805	0.100
584.500	-13.853	0.100
584.600	-5.145	0.100
584.700	-2.543	0.100
584.800	-25.051	0.100
584.900	0.175	0.100
585.000	-7.880	0.100
585.100	-11.355	0.100
585.200	-13.729	0.100
585.300	-16.824	0.100
585.400	-8.799	0.100
585.500	-13.211	0.100
585.600	-11.940	0.100
585.700	-17.639	0.100
585.800	-17.859	0.100
585.900	-18.674	0.100
586.000	-22.847	0.100
586.100	-10.753	0.100
586.200	-4.103	0.100
586.300	-16.614	0.100
586.400	-24.950	0.100
586.500	-2.042	0.100
586.600	-17.771	0.100
586.700	-6.300	0.100
586.800	-18.505	0.100
586.900	-16.734	0.100
587.000	-16.882	0.100
587.100	-20.229	0.100
587.200	-5.391	0.100
587.300	-16.453	0.100
587.400	-0.563	0.100
587.500	-14.892	0.100
587.600	-25.704	0.100
587.700	3.740	0.100
587.800	-23.717	0.100
587.900	-15.291	0.100
588.000	-4.225	0.100
588.100	-14.945	0.100
588.200	-11.632	0.100
588.300	-21.100	0.100
588.400	-21.216	0.100
588.500	-20.718	0.100
588.600	-3.331	0.100
588.700	-25.146	0.100
588.800	-4.311	0.100
588.900	-11.833	0.100
589.000	-11.455	0.100
589.100	-21.202	0.100
589.200	-4.094	0.100
589.300	-11.213	0.100
589.400	-17.156	0.100
589.500	-23.035	0.100
589.600	-4.508	0.100
589.700	-13.893	0.100
589.800	-17.626	0.100
589.900	-21.817	0.100
590.000	-21.260	0.100
590.100	-18.200	0.100
590.200	-8.561	0.100
590.300	-9.913	0.100
590.400	-25.841	0.100
590.500	-17.473	0.100
590.600	-19.197	0.100
590.700	-4.751	0.100
590.800	-13.761	0.100
590.900	-13.779	0.100
591.000	-9.105	0.100
591.100	-10.559	0.100
591.200	-13.017	0.100
591.300	-16.809	0.100
591.400	-16.533	0.100
591.500	-9.271	0.100
591.600	-13.337	0.100
591.700	-6.201	0.100
591.800	-22.770	0.100
591.900	-12.233	0.100
592.000	-5.985	0.100
592.100	-16.212	0.100
592.200	-12.456	0.100
592.300	-8.063	0.100
592.400	-23.301	0.100
592.500	-14.952	0.100
592.600	-13.812	0.100
592.700	-8.499	0.100
592.800	-19.893	0.100
592.900	-9.477	0.100
593.000	-1.620	0.100
593.100	-6.530	0.100
593.200	-6.549	0.100
593.300	-24.654	0.100
593.400	-15.806	0.100
593.500	-21.448	0.100
593.600	1.691	0.100
593.700	-18.196	0.100
593.800	-12.817	0.100
593.900	-7.252	0.100
594.000	-18.076	0.100
594.100	-13.062	0.100
594.200	1.434	0.100
594.300	-17.113	0.100
594.400	-30.388	0.100
594.500	-5.104	0.100
594.600	0.409	0.100
594.700	-20.090	0.100
594.800	-13.276	0.100
594.900	-26.746	0.100
595.000	-11.666	0.100
595.100	-19.505	0.100
595.200	-16.114	0.100
595.300	-5.327	0.100
595.400	-12.481	0.100
595.500	-13.791	0.100
595.600	-10.202	0.100
595.700	-22.286	0.100
595.800	-2.259	0.100
595.900	-18.097	0.100
596.000	-19.427	0.100
596.100	-9.202	0.100
596.200	-25.135	0.100
596.300	-9.417	0.100
596.400	-13.626	0.100
596.500	-9.578	0.100
596.600	-17.703	0.100
596.700	-8.970	0.100
596.800	-12.282	0.100
596.900	-26.807	0.100
597.000	0.147	0.100
597.100	-9.177	0.100
597.200	-29.608	0.100
597.300	-8.102	0.100
597.400	-11.616	0.100
597.500	-6.821	0.100
597.600	-23.298	0.100
597.700	-16.143	0.100
597.800	-8.342	0.100
597.900	-15.035	0.100
598.000	-7.637	0.100
598.100	-20.863	0.100
598.200	-7.209	0.100
598.300	-20.198	0.100
598.400	-22.118	0.100
598.500	-8.608	0.100
598.600	-4.067	0.100
598.700	-15.461	0.100
598.800	-9.319	0.100
598.900	-14.455	0.100
599.000	-9.945	0.100
599.100	-7.267	0.100
599.200	-20.202	0.100
599.300	-10.327	0.100
599.400	-24.175	0.100
599.500	-10.312	0.100
599.600	-18.196	0.100
599.700	-6.481	0.100
599.800	-2.739	0.100
599.900	-2.762	0.100
600.000	-12.941	0.100
600.100	-7.907	0.100
600.200	-18.506	0.100
600.300	-15.085	0.100
600.400	-9.909	0.100
600.500	-4.297	0.100
600.600	-17.630	0.100
600.700	-9.362	0.100
600.800	-17.929	0.100
600.900	-18.152	0.100
601.000	-21.093	0.100
601.100	-11.036	0.100
601.200	-4.548	0.100
601.300	-15.487	0.100
601.400	-13.884	0.100
601.500	-16.696	0.100
601.600	-14.403	0.100
601.700	-2.884	0.100
601.800	-20.516	0.100
601.900	-14.334	0.100
602.000	-21.125	0.100
602.100	-7.687	0.100
602.200	-9.596	0.100
602.300	-10.147	0.100
602.400	-23.427	0.100
602.500	-18.784	0.100
602.600	-6.899	0.100
602.700	-20.285	0.100
602.800	-9.344	0.100
602.900	-20.848	0.100
603.000	-8.890	0.100
603.100	-10.733	0.100
603.200	-28.531	0.100
603.300	-2.146	0.100
603.400	-12.760	0.100
603.500	-14.928	0.100
603.600	-6.492	0.100
603.700	-12.268	0.100
603.800	-25.443	0.100
603.900	-13.871	0.100
604.000	-19.702	0.100
604.100	-5.272	0.100
604.200	-21.805	0.100
604.300	-4.082	0.100
604.400	-21.435	0.100
604.500	-12.747	0.100
604.600	-4.402	0.100
604.700	-10.520	0.100
604.800	-4.791	0.100
604.900	-31.329	0.100
605.000	-6.332	0.100
605.100	-5.221	0.100
605.200	-9.209	0.100
605.300	-13.512	0.100
605.400	-13.077	0.100
605.500	-6.457	0.100
605.600	-6.002	0.100
605.700	-18.586	0.100
605.800	-14.615	0.100
605.900	-8.373	0.100
606.000	-15.734	0.100
606.100	-9.562	0.100
606.200	-2.970	0.100
606.300	-1.611	0.100
606.400	-15.885	0.100
606.500	-9.264	0.100
606.600	-19.537	0.100
606.700	-17.365	0.100
606.800	-16.581	0.100
606.900	-4.388	0.100
607.000	-15.864	0.100
607.100	-16.610	0.100
607.200	-16.710	0.100
607.300	-16.097	0.100
607.400	-27.554	0.100
607.500	-18.567	0.100
607.600	0.861	0.100
607.700	-1.434	0.100
607.800	-22.639	0.100
607.900	-17.247	0.099
608.000	-9.872	0.099
608.100	-16.547	0.099
608.200	-16.843	0.099
608.300	-5.112	0.099
608.400	-19.947	0.099
608.500	-6.064	0.099
608.600	-27.577	0.099
608.700	-7.754	0.099
608.800	-14.541	0.099
608.900	-3.698	0.099
609.000	-9.574	0.099
609.100	-18.914	0.099
609.200	-8.458	0.099
609.300	-4.470	0.099
609.400	-22.244	0.099
609.500	-10.250	0.099
609.600	-9.014	0.099
609.700	-9.183	0.099
609.800	-15.985	0.099
609.900	-13.255	0.099
610.000	-11.122	0.099
610.100	-7.712	0.099
610.200	-14.439	0.099
610.300	-15.827	0.099
610.400	-11.013	0.099
610.500	-9.063	0.099
610.600	-17.093	0.099
610.700	-9.073	0.099
610.800	-13.534	0.099
610.900	-8.340	0.099
611.000	-5.023	0.099
611.100	-12.843	0.099
611.200	-7.793	0.099
611.300	-14.394	0.099
611.400	-12.202	0.099
611.500	0.813	0.099
611.600	-7.414	0.099
611.700	-17.057	0.099
611.800	-1.210	0.099
611.900	-12.638	0.099
612.000	-19.224	0.099
612.100	-20.985	0.099
612.200	-12.562	0.099
612.300	-5.518	0.099
612.400	-15.361	0.099
612.500	-8.635	0.099
612.600	-15.620	0.099
612.700	-11.472	0.099
612.800	-15.262	0.099
612.900	-4.081	0.099
613.000	-23.310	0.099
613.100	1.632	0.099
613.200	-6.009	0.099
613.300	-16.963	0.099
613.400	-11.873	0.099
613.500	2.186	0.099
613.600	-6.733	0.099
613.700	-25.228	0.099
613.800	-9.729	0.099
613.900	-4.192	0.099
614.000	-10.946	0.099
614.100	-13.009	0.099
614.200	-14.851	0.099
614.300	-7.129	0.099
614.400	-20.822	0.099
614.500	-13.788	0.099
614.600	-17.506	0.099
614.700	-18.737	0.099
614.800	-10.236	0.099
614.900	-2.161	0.099
615.000	-12.894	0.099
615.100	-31.805	0.099
615.200	-16.648	0.099
615.300	-7.025	0.099
615.400	-21.639	0.099
615.500	-2.060	0.099
615.600	-18.019	0.099
615.700	-12.368	0.099
615.800	-21.669	0.099
615.900	-6.107	0.099
616.000	-15.047	0.099
616.100	4.563	0.099
616.200	-11.322	0.099
616.300	-7.342	0.099
616.400	-22.734	0.099
616.500	-15.650	0.099
616.600	-9.700	0.099
616.700	-7.358	0.099
616.800	1.691	0.099
616.900	-17.523	0.099
617.000	-20.097	0.099
617.100	-12.109	0.099
617.200	-6.892	0.099
617.300	-4.273	0.099
617.400	-7.513	0.099
617.500	-29.541	0.099
617.600	-20.054	0.099
617.700	-8.611	0.099
617.800	-23.334	0.099
617.900	-8.909	0.099
618.000	-22.300	0.099
618.100	-21.168	0.099
618.200	-14.706	0.099
618.300	-7.577	0.099
618.400	4.894	0.099
618.500	-19.158	0.099
618.600	1.543	0.099
618.700	-3.994	0.099
618.800	-11.738	0.099
618.900	-17.164	0.099
619.000	-7.381	0.099
619.100	-10.596	0.099
619.200	-8.300	0.099
619.300	-3.760	0.099
619.400	-25.965	0.099
619.500	-20.453	0.099
619.600	-9.594	0.099
619.700	-10.487	0.099
619.800	-6.468	0.099
619.900	-10.759	0.099
620.000	-12.054	0.099
620.100	0.415	0.099
620.200	-12.135	0.099
620.300	-26.196	0.099
620.400	-15.051	0.099
620.500	-9.039	0.099
620.600	-4.722	0.099
620.700	-0.620	0.099
620.800	-14.786	0.099
620.900	-25.683	0.099
621.000	-6.843	0.099
621.100	-5.990	0.099
621.200	-3.777	0.099
621.300	-11.485	0.099
621.400	-11.956	0.099
621.500	-1.557	0.099
621.600	-20.132	0.099
621.700	-13.474	0.099
621.800	-7.274	0.099
621.900	-10.717	0.099
622.000	-15.248	0.099
622.100	-18.450	0.099
622.200	3.737	0.099
622.300	-8.965	0.099
622.400	-2.440	0.099
622.500	-24.598	0.099
622.600	-21.133	0.099
622.700	-9.511	0.099
622.800	-8.290	0.099
622.900	-13.157	0.099
623.000	-12.673	0.099
623.100	-7.658	0.099
623.200	-18.793	0.099
623.300	-14.357	0.099
623.400	-3.294	0.099
623.500	-5.425	0.099
623.600	-11.841	0.099
623.700	-12.546	0.099
623.800	-11.782	0.099
623.900	-15.061	0.099
624.000	-16.334	0.099
624.100	-10.766	0.099
624.200	-8.333	0.099
624.300	-2.543	0.099
624.400	-6.949	0.099
624.500	-10.711	0.099
624.600	-16.464	0.099
624.700	1.168	0.099
624.800	-13.888	0.099
624.900	-19.952	0.099
625.000	6.596	0.100
625.100	-19.193	0.099
625.200	-14.228	0.100
625.300	-14.630	0.100
625.400	-13.394	0.100
625.500	-11.174	0.100
625.600	-11.351	0.100
625.700	8.023	0.100
625.800	-16.342	0.100
625.900	1.193	0.100
626.000	-9.198	0.100
626.100	-18.077	0.100
626.200	-10.569	0.100
626.300	4.352	0.100
626.400	-25.257	0.100
626.500	-7.794	0.100
626.600	-6.584	0.100
626.700	-7.913	0.100
626.800	-0.971	0.100
626.900	-8.778	0.100
627.000	-5.733	0.100
627.100	3.597	0.100
627.200	-19.775	0.100
627.300	-11.640	0.100
627.400	-12.430	0.100
627.500	-31.921	0.100
627.600	5.002	0.100
627.700	-6.844	0.100
627.800	-8.970	0.100
627.900	-4.986	0.100
628.000	-25.798	0.100
628.100	-2.396	0.100
628.200	-12.999	0.100
628.300	-10.749	0.100
628.400	-4.623	0.100
628.500	-4.736	0.100
628.600	-15.680	0.100
628.700	-9.849	0.100
628.800	-11.484	0.100
628.900	-8.297	0.100
629.000	-17.391	0.100
629.100	-11.869	0.100
629.200	-13.116	0.100
629.300	4.786	0.100
629.400	-13.784	0.100
629.500	0.571	0.100
629.600	-17.465	0.100
629.700	-21.411	0.100
629.800	-6.208	0.100
629.900	-4.904	0.100
630.000	-4.602	0.100
630.100	-0.349	0.100
630.200	-6.686	0.100
630.300	-5.503	0.100
630.400	-1.038	0.100
630.500	-0.830	0.100
630.600	1.395	0.100
630.700	-2.835	0.100
630.800	-2.050	0.100
630.900	10.019	0.100
631.000	-3.989	0.100
631.100	10.662	0.100
631.200	0.094	0.100
631.300	1.909	0.100
631.400	0.167	0.100
631.500	8.617	0.100
631.600	6.298	0.100
631.700	13.112	0.100
631.800	2.489	0.100
631.900	2.455	0.100
632.000	18.055	0.100
632.100	16.529	0.100
632.200	5.682	0.100
632.300	15.742	0.100
632.400	21.158	0.100
632.500	13.550	0.100
632.600	5.838	0.100
632.700	15.580	0.100
632.800	6.896	0.100
632.900	16.289	0.100
633.000	10.349	0.100
633.100	11.282	0.100
633.200	12.421	0.100
633.300	7.307	0.100
633.400	17.255	0.100
633.500	9.540	0.100
633.600	8.416	0.100
633.700	23.275	0.100
633.800	13.225	0.100
633.900	6.322	0.100
634.000	17.247	0.100
634.100	10.597	0.100
634.200	12.282	0.100
634.300	12.572	0.100
634.400	20.847	0.100
634.500	-0.531	0.100
634.600	9.844	0.100
634.700	15.954	0.100
634.800	30.157	0.100
634.900	16.179	0.100
635.000	17.090	0.100
635.100	22.658	0.100
635.200	5.200	0.100
635.300	15.822	0.100
635.400	26.972	0.100
635.500	12.600	0.100
635.600	17.704	0.100
635.700	6.002	0.100
635.800	21.104	0.100
635.900	24.002	0.100
636.000	16.479	0.100
636.100	16.133	0.100
636.200	10.824	0.100
636.300	5.430	0.100
636.400	16.024	0.100
636.500	15.806	0.100
636.600	15.907	0.100
636.700	10.064	0.100
636.800	9.730	0.100
636.900	18.544	0.100
637.000	17.607	0.100
637.100	-0.347	0.100
637.200	7.392	0.100
637.300	5.078	0.100
637.400	26.400	0.100
637.500	13.952	0.100
637.600	13.409	0.100
637.700	13.350	0.100
637.800	8.004	0.100
637.900	17.790	0.100
638.000	14.739	0.100
638.100	10.326	0.100
638.200	16.806	0.100
638.300	-0.904	0.100
638.400	25.494	0.100
638.500	12.565	0.100
638.600	5.356	0.100
638.700	9.745	0.100
638.800	9.707	0.100
638.900	24.539	0.100
639.000	14.804	0.100
639.100	11.766	0.100
639.200	17.935	0.100
639.300	22.186	0.100
639.400	3.583	0.100
639.500	5.801	0.100
639.600	16.804	0.100
639.700	11.356	0.100
639.800	10.157	0.100
639.900	11.597	0.100
640.000	8.985	0.100
640.100	16.904	0.100
640.200	13.451	0.100
640.300	4.214	0.100
640.400	25.867	0.100
640.500	11.445	0.100
640.600	10.408	0.100
640.700	17.309	0.100
640.800	11.945	0.100
640.900	15.933	0.100
641.000	11.729	0.100
641.100	11.029	0.100
641.200	14.461	0.100
641.300	12.839	0.100
641.400	9.433	0.100
641.500	11.293	0.100
641.600	26.469	0.100
641.700	13.585	0.100
641.800	18.894	0.100
641.900	5.495	0.100
642.000	6.105	0.100
642.100	23.709	0.100
642.200	7.248	0.100
642.300	7.290	0.100
642.400	9.781	0.100
642.500	13.799	0.100
642.600	22.526	0.100
642.700	8.077	0.100
642.800	5.788	0.100
642.900	12.760	0.100
643.000	14.044	0.100
643.100	14.457	0.100
643.200	15.102	0.100
643.300	9.455	0.100
643.400	14.992	0.100
643.500	22.221	0.100
643.600	11.733	0.100
643.700	20.334	0.100
643.800	10.409	0.100
643.900	18.055	0.100
644.000	6.722	0.100
644.100	18.247	0.100
644.200	20.173	0.100
644.300	4.356	0.100
644.400	15.067	0.100
644.500	20.039	0.100
644.600	29.122	0.100
644.700	16.918	0.100
644.800	28.526	0.100
644.900	33.046	0.100
645.000	5.629	0.100
645.100	9.040	0.100
645.200	24.676	0.100
645.300	5.505	0.100
645.400	14.529	0.100
645.500	9.935	0.100
645.600	-3.341	0.100
645.700	24.224	0.100
645.800	25.327	0.100
645.900	18.066	0.100
646.000	12.266	0.100
646.100	15.956	0.100
646.200	11.271	0.100
646.300	19.636	0.100
646.400	11.760	0.100
646.500	20.890	0.100
646.600	18.453	0.100
646.700	19.783	0.100
646.800	15.509	0.100
646.900	18.279	0.100
647.000	24.101	0.100
647.100	-1.263	0.100
647.200	24.553	0.100
647.300	21.220	0.100
647.400	23.619	0.100
647.500	19.271	0.100
647.600	18.471	0.100
647.700	11.390	0.100
647.800	18.621	0.100
647.900	24.644	0.100
648.000	16.964	0.100
648.100	24.473	0.100
648.200	13.217	0.100
648.300	21.437	0.100
648.400	17.601	0.100
648.500	18.093	0.100
648.600	19.512	0.100
648.700	5.721	0.100
648.800	12.297	0.100
648.900	13.187	0.100
649.000	17.993	0.100
649.100	30.040	0.100
649.200	20.230	0.100
649.300	25.930	0.100
649.400	28.031	0.100
649.500	3.824	0.100
649.600	17.630	0.100
649.700	27.064	0.100
649.800	24.928	0.100
649.900	22.596	0.100
650.000	6.394	0.100
650.100	17.726	0.100
650.200	36.658	0.100
650.300	17.379	0.100
650.400	23.545	0.100
650.500	29.044	0.100
650.600	26.685	0.100
650.700	19.221	0.100
650.800	21.283	0.100
650.900	16.188	0.100
651.000	8.577	0.100
651.100	23.885	0.100
651.200	28.682	0.100
651.300	25.654	0.100
651.400	19.861	0.100
651.500	25.201	0.100
651.600	28.359	0.100
651.700	14.515	0.100
651.800	27.769	0.100
651.900	10.337	0.100
652.000	17.922	0.100
652.100	28.251	0.100
652.200	21.448	0.100
652.300	15.894	0.100
652.400	18.353	0.100
652.500	25.122	0.100
652.600	24.881	0.100
652.700	26.398	0.100
652.800	24.665	0.100
652.900	24.476	0.100
653.000	18.620	0.100
653.100	34.527	0.100
653.200	26.136	0.100
653.300	24.797	0.100
653.400	24.010	0.100
653.500	33.193	0.100
653.600	14.875	0.100
653.700	30.096	0.100
653.800	24.026	0.100
653.900	27.256	0.100
654.000	26.016	0.100
654.100	22.659	0.100
654.200	28.828	0.100
654.300	22.181	0.100
654.400	20.730	0.100
654.500	36.072	0.100
654.600	24.630	0.100
654.700	17.624	0.100
654.800	23.909	0.100
654.900	25.908	0.100
655.000	17.331	0.100
655.100	20.392	0.100
655.200	25.719	0.100
655.300	35.488	0.100
655.400	27.069	0.100
655.500	30.382	0.100
655.600	25.177	0.100
655.700	31.263	0.100
655.800	36.115	0.100
655.900	30.870	0.100
656.000	17.395	0.100
656.100	34.426	0.100
656.200	21.056	0.100
656.300	37.263	0.100
656.400	28.547	0.100
656.500	20.334	0.100
656.600	25.086	0.100
656.700	23.136	0.100
656.800	35.421	0.100
656.900	28.655	0.100
657.000	31.637	0.099
657.100	31.152	0.100
657.200	34.999	0.100
657.300	32.023	0.100
657.400	33.900	0.099
657.500	12.448	0.100
657.600	12.007	0.099
657.700	27.032	0.100
657.800	37.230	0.100
657.900	31.107	0.100
658.000	32.734	0.100
658.100	38.187	0.100
658.200	25.480	0.100
658.300	28.657	0.100
658.400	28.084	0.100
658.500	27.477	0.100
658.600	24.192	0.100
658.700	28.996	0.100
658.800	19.165	0.100
658.900	31.222	0.100
659.000	30.922	0.100
659.100	32.177	0.100
659.200	40.835	0.100
659.300	28.756	0.100
659.400	36.531	0.100
659.500	31.892	0.100
659.600	32.936	0.100
659.700	26.354	0.100
659.800	30.052	0.100
659.900	31.048	0.100
660.000	40.574	0.100
660.100	25.564	0.100
660.200	40.928	0.100
660.300	22.068	0.100
660.400	26.767	0.100
660.500	32.397	0.100
660.600	33.048	0.100
660.700	26.562	0.100
660.800	32.990	0.100
660.900	19.677	0.100
661.000	28.588	0.100
661.100	12.618	0.100
661.200	24.768	0.100
661.300	15.485	0.100
661.400	32.637	0.100
661.500	30.189	0.100
661.600	33.156	0.100
661.700	29.135	0.100
661.800	37.533	0.100
661.900	25.707	0.100
662.000	33.077	0.100
662.100	32.556	0.100
662.200	19.595	0.100
662.300	27.826	0.100
662.400	30.141	0.100
662.500	17.696	0.100
662.600	24.000	0.100
662.700	29.691	0.100
662.800	28.937	0.100
662.900	26.636	0.100
663.000	32.167	0.100
663.100	31.626	0.100
663.200	31.713	0.100
663.300	28.367	0.100
663.400	28.836	0.100
663.500	24.451	0.100
663.600	29.774	0.100
663.700	34.843	0.100
663.800	17.430	0.100
663.900	27.248	0.100
664.000	27.375	0.100
664.100	18.950	0.100
664.200	29.078	0.100
664.300	31.274	0.100
664.400	33.308	0.100
664.500	25.540	0.100
664.600	26.846	0.100
664.700	31.299	0.100
664.800	26.663	0.100
664.900	21.443	0.100
665.000	40.008	0.100
665.100	23.847	0.100
665.200	23.409	0.100
665.300	36.784	0.100
665.400	26.675	0.100
665.500	28.094	0.100
665.600	26.669	0.100
665.700	35.996	0.100
665.800	28.778	0.100
665.900	32.212	0.100
666.000	31.329	0.100
666.100	25.255	0.100
666.200	26.188	0.100
666.300	25.956	0.100
666.400	34.142	0.100
666.500	30.746	0.100
666.600	29.972	0.100
666.700	16.739	0.100
666.800	13.613	0.100
666.900	34.876	0.100
667.000	38.458	0.100
667.100	33.260	0.100
667.200	22.106	0.100
667.300	24.886	0.100
667.400	24.475	0.100
667.500	21.155	0.100
667.600	24.268	0.100
667.700	36.417	0.100
667.800	36.428	0.100
667.900	37.000	0.100
668.000	27.754	0.100
668.100	16.280	0.100
668.200	36.922	0.100
668.300	28.138	0.100
668.400	30.138	0.100
668.500	22.162	0.100
668.600	20.034	0.100
668.700	28.325	0.100
668.800	23.488	0.100
668.900	22.489	0.100
669.000	44.706	0.100
669.100	28.872	0.100
669.200	20.332	0.100
669.300	39.006	0.100
669.400	28.395	0.100
669.500	24.985	0.100
669.600	18.842	0.100
669.700	32.707	0.100
669.800	29.029	0.100
669.900	20.625	0.100
670.000	30.631	0.100
670.100	29.774	0.100
670.200	18.553	0.100
670.300	37.692	0.100
670.400	27.325	0.099
670.500	38.663	0.100
670.600	18.792	0.100
670.700	25.316	0.100
670.800	34.239	0.100
670.900	25.714	0.100
671.000	28.376	0.100
671.100	33.921	0.100
671.200	22.937	0.099
671.300	36.815	0.100
671.400	31.708	0.100
671.500	31.981	0.100
671.600	30.711	0.099
671.700	36.866	0.100
671.800	34.041	0.100
671.900	18.615	0.100
672.000	22.111	0.100
672.100	23.749	0.100
672.200	26.784	0.099
672.300	12.155	0.099
672.400	38.831	0.100
672.500	29.865	0.100
672.600	19.655	0.100
672.700	25.851	0.100
672.800	26.043	0.099
672.900	27.350	0.100
673.000	26.749	0.099
673.100	19.533	0.100
673.200	32.202	0.099
673.300	26.145	0.099
673.400	16.705	0.100
673.500	16.850	0.099
673.600	20.004	0.099
673.700	42.162	0.100
673.800	32.476	0.100
673.900	31.604	0.100
674.000	27.370	0.100
674.100	28.124	0.100
674.200	27.496	0.100
674.300	17.308	0.099
674.400	22.149	0.099
674.500	32.056	0.100
674.600	33.908	0.099
674.700	34.260	0.100
674.800	36.430	0.100
674.900	37.241	0.100
675.000	17.401	0.099
675.100	19.413	0.099
675.200	41.394	0.099
675.300	23.733	0.099
675.400	25.456	0.099
675.500	26.497	0.099
675.600	32.656	0.099
675.700	27.048	0.099
675.800	20.214	0.099
675.900	23.280	0.099
676.000	33.986	0.099
676.100	39.155	0.099
676.200	26.216	0.099
676.300	34.899	0.099
676.400	28.107	0.099
676.500	21.888	0.099
676.600	17.898	0.099
676.700	31.643	0.099
676.800	34.490	0.099
676.900	41.060	0.099
677.000	21.923	0.099
677.100	29.161	0.099
677.200	19.441	0.099
677.300	28.574	0.099
677.400	25.748	0.099
677.500	28.842	0.099
677.600	28.593	0.099
677.700	23.935	0.099
677.800	36.177	0.099
677.900	15.696	0.099
678.000	16.493	0.099
678.100	29.611	0.099
678.200	40.934	0.099
678.300	22.319	0.099
678.400	23.075	0.099
678.500	19.776	0.099
678.600	27.748	0.099
678.700	24.875	0.099
678.800	21.721	0.099
678.900	30.581	0.099
679.000	23.807	0.099
679.100	22.858	0.099
679.200	30.297	0.099
679.300	25.889	0.099
679.400	40.898	0.099
679.500	27.398	0.099
679.600	35.849	0.099
679.700	27.413	0.099
679.800	33.733	0.099
679.900	25.163	0.099
680.000	28.997	0.099
680.100	18.714	0.099
680.200	34.979	0.099
680.300	20.158	0.099
680.400	30.108	0.099
680.500	20.991	0.099
680.600	37.661	0.099
680.700	16.475	0.099
680.800	23.326	0.099
680.900	30.436	0.099
681.000	38.141	0.099
681.100	27.344	0.099
681.200	23.015	0.099
681.300	17.200	0.099
681.400	17.160	0.099
681.500	23.323	0.099
681.600	29.330	0.099
681.700	18.809	0.099
681.800	41.208	0.099
681.900	18.030	0.099
682.000	25.814	0.099
682.100	25.428	0.099
682.200	20.670	0.099
682.300	27.513	0.099
682.400	18.360	0.099
682.500	31.078	0.099
682.600	32.899	0.099
682.700	20.073	0.099
682.800	28.054	0.099
682.900	19.328	0.099
683.000	18.925	0.099
683.100	29.401	0.099
683.200	36.200	0.099
683.300	28.851	0.099
683.400	21.074	0.099
683.500	33.484	0.099
683.600	26.932	0.099
683.700	32.055	0.099
683.800	13.884	0.099
683.900	30.033	0.099
684.000	23.367	0.099
684.100	29.820	0.099
684.200	28.468	0.099
684.300	37.159	0.099
684.400	7.758	0.099
684.500	35.476	0.099
684.600	27.585	0.099
684.700	26.097	0.099
684.800	24.255	0.099
684.900	11.849	0.099
685.000	30.623	0.099
685.100	26.840	0.099
685.200	26.256	0.099
685.300	29.530	0.099
685.400	14.740	0.099
685.500	26.839	0.099
685.600	36.260	0.099
685.700	33.399	0.099
685.800	34.842	0.099
685.900	24.437	0.099
686.000	22.222	0.099
686.100	21.934	0.099
686.200	18.996	0.099
686.300	40.792	0.099
686.400	31.334	0.099
686.500	32.738	0.099
686.600	22.075	0.100
686.700	28.386	0.100
686.800	22.527	0.100
686.900	18.882	0.099
687.000	26.244	0.100
687.100	40.059	0.099
687.200	35.963	0.100
687.300	33.290	0.099
687.400	24.111	0.100
687.500	30.981	0.100
687.600	27.270	0.100
687.700	29.155	0.100
687.800	28.334	0.100
687.900	35.648	0.099
688.000	18.197	0.100
688.100	19.050	0.100
688.200	32.086	0.100
688.300	29.889	0.100
688.400	30.060	0.100
688.500	19.900	0.100
688.600	29.518	0.100
688.700	20.836	0.100
688.800	27.623	0.100
688.900	29.827	0.100
689.000	21.513	0.100
689.100	38.103	0.100
689.200	12.782	0.100
689.300	37.715	0.099
689.400	38.278	0.100
689.500	34.142	0.100
689.600	27.887	0.100
689.700	42.543	0.099
689.800	24.603	0.100
689.900	26.273	0.100
690.000	22.802	0.100
690.100	23.528	0.099
690.200	10.951	0.100
690.300	23.902	0.100
690.400	17.879	0.099
690.500	15.254	0.100
690.600	26.486	0.100
690.700	17.039	0.100
690.800	17.528	0.099
690.900	10.458	0.100
691.000	19.925	0.100
691.100	6.332	0.100
691.200	5.626	0.100
691.300	18.468	0.099
691.400	4.920	0.100
691.500	11.282	0.100
691.600	1.275	0.100
691.700	-0.752	0.099
691.800	-4.880	0.100
691.900	1.813	0.100
692.000	9.627	0.100
692.100	-9.853	0.100
692.200	-0.214	0.100
692.300	-4.846	0.100
692.400	-7.226	0.100
692.500	-8.503	0.100
692.600	9.568	0.100
692.700	-7.745	0.100
692.800	8.951	0.100
692.900	7.027	0.100
693.000	-0.172	0.100
693.100	-2.706	0.100
693.200	-7.331	0.100
693.300	-0.151	0.100
693.400	-14.906	0.100
693.500	-15.809	0.100
693.600	-5.673	0.100
693.700	-6.130	0.100
693.800	-6.029	0.100
693.900	-4.326	0.100
694.000	-1.268	0.100
694.100	-9.108	0.100
694.200	-2.187	0.100
694.300	-9.426	0.100
694.400	-6.394	0.100
694.500	-2.150	0.100
694.600	-22.214	0.100
694.700	-5.151	0.100
694.800	-7.244	0.100
694.900	-16.438	0.100
695.000	-2.595	0.100
695.100	-7.027	0.100
695.200	-8.290	0.100
695.300	-17.496	0.100
695.400	-0.802	0.100
695.500	-11.609	0.100
695.600	-4.142	0.100
695.700	-2.431	0.100
695.800	-10.132	0.100
695.900	-19.622	0.100
696.000	-24.293	0.100
696.100	-2.241	0.100
696.200	3.842	0.100
696.300	-10.213	0.100
696.400	-13.898	0.100
696.500	-3.041	0.100
696.600	0.932	0.100
696.700	-10.295	0.100
696.800	-11.109	0.100
696.900	2.530	0.100
697.000	-12.850	0.100
697.100	-15.139	0.100
697.200	-2.918	0.100
697.300	-4.371	0.100
697.400	-4.239	0.100
697.500	-14.264	0.100
697.600	-11.994	0.100
697.700	-10.804	0.100
697.800	0.508	0.100
697.900	-10.971	0.100
698.000	-1.885	0.100
698.100	-9.171	0.100
698.200	-1.555	0.100
698.300	15.300	0.100
698.400	-3.847	0.100
698.500	-12.059	0.099
698.600	-20.177	0.099
698.700	-10.360	0.100
698.800	-13.503	0.100
698.900	-5.478	0.100
699.000	2.243	0.100
699.100	-6.068	0.100
699.200	-0.733	0.100
699.300	-2.935	0.099
699.400	-1.439	0.100
699.500	-15.638	0.100
699.600	-7.964	0.100
699.700	-12.944	0.100
699.800	-11.267	0.100
699.900	5.999	0.100
700.000	5.539	0.100
700.100	-0.496	0.100
700.200	-11.230	0.099
700.300	-5.233	0.100
700.400	4.612	0.100
700.500	-9.104	0.100
700.600	-3.355	0.100
700.700	-3.650	0.099
700.800	1.042	0.100
700.900	-16.975	0.099
701.000	-6.995	0.100
701.100	-12.788	0.099
701.200	-9.077	0.100
701.300	-2.567	0.100
701.400	-9.355	0.100
701.500	-0.602	0.100
701.600	-5.740	0.100
701.700	-13.493	0.100
701.800	-7.478	0.100
701.900	-6.429	0.100
702.000	-11.240	0.099
702.100	-6.077	0.100
702.200	-4.820	0.099
702.300	-6.728	0.100
702.400	-8.238	0.100
702.500	-0.104	0.100
702.600	-6.372	0.099
702.700	2.135	0.100
702.800	-9.788	0.100
702.900	-12.239	0.100
703.000	-5.758	0.099
703.100	-2.501	0.099
703.200	-12.638	0.099
703.300	-17.982	0.099
703.400	-10.001	0.099
703.500	2.640	0.099
703.600	-4.864	0.099
703.700	-17.888	0.099
703.800	0.506	0.099
703.900	-0.330	0.099
704.000	-6.685	0.099
704.100	-5.389	0.099
704.200	1.971	0.099
704.300	-7.451	0.099
704.400	-18.410	0.099
704.500	-2.387	0.099
704.600	-6.728	0.099
704.700	-8.215	0.099
704.800	-23.886	0.099
704.900	-14.302	0.099
705.000	-5.692	0.099
705.100	0.948	0.099
705.200	-8.434	0.099
705.300	-12.851	0.099
705.400	-10.860	0.099
705.500	-13.030	0.099
705.600	-4.828	0.099
705.700	-6.523	0.099
705.800	-13.948	0.099
705.900	-8.949	0.099
706.000	-12.524	0.099
706.100	-1.230	0.099
706.200	0.848	0.099
706.300	-2.749	0.099
706.400	-20.576	0.099
706.500	-8.878	0.099
706.600	6.167	0.099
706.700	-11.212	0.099
706.800	-16.142	0.099
706.900	-0.926	0.099
707.000	-11.620	0.099
707.100	-8.971	0.099
707.200	-9.808	0.099
707.300	-15.441	0.099
707.400	-2.207	0.099
707.500	-3.269	0.099
707.600	-1.805	0.099
707.700	-10.805	0.099
707.800	-13.820	0.099
707.900	-15.049	0.099
708.000	-7.523	0.099
708.100	-9.225	0.099
708.200	-4.414	0.099
708.300	1.557	0.099
708.400	-6.483	0.099
708.500	-18.010	0.099
708.600	-16.068	0.099
708.700	-7.366	0.099
708.800	-14.333	0.099
708.900	-2.843	0.099
709.000	-0.865	0.099
709.100	1.667	0.099
709.200	-17.113	0.099
709.300	-11.201	0.099
709.400	-8.539	0.099
709.500	-10.773	0.099
709.600	-11.401	0.099
709.700	-13.060	0.099
709.800	-14.674	0.099
709.900	-2.632	0.099
710.000	-0.337	0.099
710.100	-17.335	0.099
710.200	-1.527	0.099
710.300	-6.252	0.099
710.400	-11.948	0.099
710.500	-15.211	0.099
710.600	-12.334	0.099
710.700	-5.305	0.099
710.800	-3.038	0.099
710.900	-7.031	0.099
711.000	-11.389	0.099
711.100	-20.029	0.099
711.200	-13.653	0.099
711.300	-7.776	0.099
711.400	-6.802	0.099
711.500	-14.330	0.099
711.600	-13.169	0.099
711.700	-6.517	0.099
711.800	0.318	0.099
711.900	-9.547	0.099
712.000	-15.770	0.099
712.100	-17.799	0.099
712.200	-16.134	0.099
712.300	-8.416	0.099
712.400	-13.514	0.099
712.500	-14.707	0.099
712.600	-8.755	0.099
712.700	-17.421	0.099
712.800	-23.170	0.099
712.900	-11.569	0.099
713.000	-11.651	0.099
713.100	-10.886	0.099
713.200	-3.653	0.099
713.300	-11.307	0.099
713.400	-7.218	0.099
713.500	-3.596	0.099
713.600	-6.055	0.099
713.700	-15.895	0.099
713.800	-19.042	0.099
713.900	-4.060	0.099
714.000	-3.969	0.099
714.100	-9.224	0.099
714.200	-16.534	0.099
714.300	-8.992	0.099
714.400	-12.356	0.099
714.500	2.428	0.100
714.600	-6.663	0.100
714.700	-2.794	0.100
714.800	-19.908	0.100
714.900	-6.883	0.100
715.000	-11.219	0.100
715.100	-5.020	0.100
715.200	-12.577	0.100
715.300	-7.973	0.100
715.400	-11.584	0.100
715.500	-7.463	0.100
715.600	-7.712	0.100
715.700	-17.560	0.100
715.800	-4.237	0.100
715.900	-12.948	0.100
716.000	-15.896	0.100
716.100	-17.645	0.100
716.200	-0.489	0.100
716.300	-12.408	0.100
716.400	-5.213	0.100
716.500	-12.870	0.100
716.600	-11.727	0.100
716.700	-6.214	0.100
716.800	-15.637	0.100
716.900	-2.372	0.100
717.000	-16.493	0.100
717.100	-5.427	0.100
717.200	-11.610	0.100
717.300	-9.190	0.100
717.400	-18.362	0.100
717.500	-0.948	0.100
717.600	-11.402	0.100
717.700	-13.999	0.100
717.800	-8.263	0.100
717.900	-9.731	0.100
718.000	-13.237	0.100
718.100	-25.529	0.100
718.200	-2.497	0.100
718.300	-8.343	0.100
718.400	-9.418	0.100
718.500	-14.193	0.100
718.600	-1.392	0.100
718.700	-5.792	0.100
718.800	-20.778	0.100
718.900	-20.728	0.100
719.000	-2.867	0.100
719.100	-15.768	0.100
719.200	-4.511	0.100
719.300	-10.380	0.100
719.400	-27.005	0.100
719.500	-8.949	0.100
719.600	-11.272	0.100
719.700	-8.392	0.100
719.800	-18.294	0.100
719.900	-14.810	0.100
720.000	-0.565	0.100
720.100	-21.509	0.100
720.200	-7.094	0.100
720.300	-6.759	0.100
720.400	-12.096	0.100
720.500	-6.949	0.100
720.600	-5.184	0.100
720.700	-26.588	0.100
720.800	-7.662	0.100
720.900	-15.757	0.100
721.000	-13.499	0.100
721.100	4.565	0.100
721.200	-12.745	0.100
721.300	-16.608	0.100
721.400	-6.727	0.100
721.500	-18.159	0.100
721.600	-16.582	0.100
721.700	-14.632	0.100
721.800	-7.409	0.100
721.900	-18.795	0.100
722.000	-19.872	0.100
722.100	-5.232	0.100
722.200	-8.064	0.100
722.300	-9.180	0.100
722.400	-7.848	0.100
722.500	-25.780	0.100
722.600	-0.227	0.100
722.700	-20.369	0.100
722.800	-17.837	0.100
722.900	-17.109	0.100
723.000	-20.095	0.100
723.100	-13.217	0.100
723.200	-10.097	0.100
723.300	-5.412	0.100
723.400	-6.867	0.100
723.500	-18.368	0.100
723.600	-22.273	0.100
723.700	-0.333	0.100
723.800	-17.283	0.100
723.900	-18.104	0.100
724.000	-15.035	0.100
724.100	-14.034	0.100
724.200	1.357	0.100
724.300	-11.660	0.100
724.400	-16.974	0.100
724.500	-18.787	0.100
724.600	-11.737	0.100
724.700	-14.412	0.100
724.800	-10.316	0.100
724.900	-17.251	0.100
725.000	-17.772	0.100
725.100	-10.785	0.100
725.200	-17.941	0.100
725.300	-1.154	0.099
725.400	-11.655	0.099
725.500	-16.943	0.099
725.600	-13.718	0.099
725.700	-18.142	0.099
725.800	-10.232	0.099
725.900	-18.557	0.099
726.000	-8.899	0.099
726.100	-14.930	0.099
726.200	-23.408	0.099
726.300	-20.353	0.099
726.400	0.046	0.099
726.500	-16.060	0.099
726.600	-3.929	0.099
726.700	-17.705	0.099
726.800	-21.448	0.099
726.900	-0.245	0.099
727.000	-18.372	0.099
727.100	-14.212	0.099
727.200	-8.976	0.099
727.300	-24.791	0.099
727.400	-7.974	0.099
727.500	-17.317	0.099
727.600	-18.333	0.099
727.700	-16.320	0.099
727.800	-14.367	0.099
727.900	-11.368	0.099
728.000	-14.933	0.099
728.100	-29.087	0.099
728.200	-8.466	0.099
728.300	-5.634	0.099
728.400	-17.749	0.099
728.500	-12.447	0.099
728.600	-14.581	0.099
728.700	-11.919	0.099
728.800	-7.618	0.099
728.900	-18.192	0.099
729.000	-7.802	0.099
729.100	-10.297	0.099
729.200	-1.964	0.099
729.300	-20.277	0.099
729.400	-18.116	0.099
729.500	-7.894	0.099
729.600	-12.382	0.099
729.700	-6.246	0.099
729.800	-13.982	0.099
729.900	-11.636	0.099
730.000	-22.425	0.099
730.100	-15.977	0.099
730.200	-1.936	0.099
730.300	-24.567	0.099
730.400	-17.328	0.099
730.500	-8.357	0.099
730.600	-5.892	0.099
730.700	-16.211	0.099
730.800	-16.743	0.099
730.900	-15.682	0.099
731.000	-10.948	0.099
731.100	-18.988	0.099
731.200	-11.533	0.099
731.300	-10.454	0.099
731.400	-15.173	0.099
731.500	-14.549	0.099
731.600	-13.003	0.099
731.700	-19.813	0.099
731.800	-9.607	0.099
731.900	-24.134	0.099
732.000	-15.707	0.099
732.100	-12.292	0.099
732.200	-31.403	0.099
732.300	-22.714	0.099
732.400	-9.023	0.099
732.500	-19.687	0.099
732.600	-20.144	0.099
732.700	-10.750	0.099
732.800	-11.734	0.099
732.900	-21.100	0.099
733.000	-21.881	0.099
733.100	-10.066	0.099
733.200	-10.596	0.099
733.300	-11.911	0.099
733.400	-12.172	0.099
733.500	-8.903	0.099
733.600	-10.995	0.099
733.700	-15.157	0.099
733.800	-12.881	0.099
733.900	-14.011	0.099
734.000	-17.347	0.099
734.100	-15.124	0.099
734.200	-24.198	0.099
734.300	-6.332	0.099
734.400	-8.536	0.099
734.500	-18.433	0.099
734.600	-27.951	0.099
734.700	-23.344	0.099
734.800	-16.785	0.099
734.900	-13.131	0.099
735.000	-23.837	0.099
735.100	-16.088	0.099
735.200	-5.239	0.099
735.300	-14.268	0.099
735.400	-0.669	0.099
735.500	-8.793	0.099
735.600	-8.710	0.099
735.700	-22.822	0.099
735.800	-21.604	0.099
735.900	-13.724	0.099
736.000	-20.057	0.099
736.100	-7.771	0.099
736.200	-15.817	0.099
736.300	-11.214	0.099
736.400	-34.250	0.099
736.500	-24.054	0.099
736.600	-10.343	0.099
736.700	-14.676	0.099
736.800	-0.773	0.099
736.900	-17.098	0.099
737.000	-24.396	0.099
737.100	-12.311	0.099
737.200	-16.233	0.099
737.300	-20.907	0.099
737.400	-19.553	0.099
737.500	-17.805	0.099
737.600	-14.963	0.099
737.700	-3.201	0.099
737.800	-17.435	0.099
737.900	-26.595	0.099
738.000	-13.187	0.099
738.100	-9.394	0.099
738.200	-22.396	0.099
738.300	-11.496	0.099
738.400	-4.526	0.099
738.500	-3.370	0.099
738.600	-18.581	0.099
738.700	-16.323	0.099
738.800	-19.325	0.099
738.900	-15.762	0.099
739.000	-10.012	0.099
739.100	-25.284	0.099
739.200	-11.249	0.099
739.300	-6.599	0.099
739.400	-26.530	0.099
739.500	-11.126	0.099
739.600	-16.240	0.099
739.700	-13.722	0.099
739.800	-21.026	0.099
739.900	-23.004	0.099
740.000	-3.151	0.100
740.100	-1.950	0.099
740.200	-18.237	0.099
740.300	-10.801	0.099
740.400	-10.860	0.100
740.500	-10.102	0.100
740.600	-4.867	0.099
740.700	-23.933	0.099
740.800	-15.460	0.100
740.900	-12.200	0.099
741.000	-19.728	0.099
741.100	-10.695	0.099
741.200	-10.288	0.100
741.300	-14.657	0.099
741.400	-11.889	0.099
741.500	-18.208	0.100
741.600	-10.064	0.099
741.700	-19.729	0.099
741.800	-15.056	0.100
741.900	-12.552	0.100
742.000	-25.465	0.100
742.100	-18.833	0.100
742.200	-11.485	0.100
742.300	-7.159	0.100
742.400	-6.338	0.100
742.500	-23.763	0.100
742.600	-15.786	0.100
742.700	-2.015	0.100
742.800	-24.087	0.100
742.900	-10.049	0.100
743.000	-13.549	0.100
743.100	-3.971	0.100
743.200	-0.953	0.100
743.300	-23.111	0.100
743.400	-18.964	0.100
743.500	-16.451	0.100
743.600	-6.403	0.100
743.700	-8.650	0.100
743.800	-6.943	0.100
743.900	-29.293	0.100
744.000	-22.429	0.100
744.100	-22.829	0.100
744.200	-5.659	0.100
744.300	-28.730	0.100
744.400	-19.120	0.100
744.500	-5.452	0.100
744.600	-16.980	0.100
744.700	-6.311	0.100
744.800	-12.663	0.100
744.900	-9.210	0.100
745.000	-16.853	0.100
745.100	-28.828	0.100
745.200	1.224	0.100
745.300	-13.308	0.100
745.400	-11.866	0.100
745.500	-13.485	0.100
745.600	-15.871	0.100
745.700	-9.182	0.100
745.800	-9.108	0.100
745.900	-27.877	0.100
746.000	-23.354	0.100
746.100	-10.899	0.100
746.200	-6.773	0.100
746.300	-8.305	0.100
746.400	-16.575	0.100
746.500	-17.024	0.100
746.600	-13.687	0.100
746.700	-7.311	0.100
746.800	-9.688	0.100
746.900	-19.407	0.100
747.000	-14.843	0.100
747.100	-8.504	0.100
747.200	-7.887	0.100
747.300	-19.259	0.100
747.400	-21.037	0.100
747.500	-12.526	0.100
747.600	-9.549	0.100
747.700	-11.489	0.100
747.800	-25.422	0.100
747.900	-20.943	0.100
748.000	-7.629	0.100
748.100	-12.841	0.100
748.200	-10.049	0.100
748.300	-11.573	0.100
748.400	-9.797	0.100
748.500	-15.717	0.100
748.600	-10.912	0.100
748.700	-6.632	0.100
748.800	-5.670	0.100
748.900	0.212	0.100
749.000	-12.441	0.100
749.100	-19.253	0.100
749.200	-7.622	0.100
749.300	-19.423	0.100
749.400	-8.104	0.100
749.500	-17.125	0.100
749.600	-23.043	0.100
749.700	-17.303	0.100
749.800	-5.759	0.100
749.900	-6.181	0.100
750.000	-17.439	0.100
750.100	-19.943	0.100
750.200	-15.121	0.100
750.300	-13.983	0.100
750.400	-19.093	0.100
750.500	-22.499	0.100
750.600	-8.680	0.100
750.700	-12.123	0.100
750.800	10.021	0.100
750.900	-13.850	0.100
751.000	-6.893	0.100
751.100	-7.242	0.100
751.200	-19.094	0.100
751.300	-15.138	0.100
751.400	-25.663	0.100
751.500	-18.985	0.100
751.600	2.298	0.100
751.700	-3.295	0.100
751.800	-21.315	0.100
751.900	-17.821	0.100
752.000	-19.996	0.100
752.100	-11.985	0.100
752.200	-3.763	0.100
752.300	-24.852	0.100
752.400	-1.794	0.100
752.500	-26.167	0.100
752.600	2.370	0.100
752.700	-17.060	0.100
752.800	-12.959	0.100
752.900	3.328	0.100
753.000	-4.932	0.100
753.100	-13.455	0.100
753.200	-10.303	0.100
753.300	-16.866	0.100
753.400	-8.644	0.100
753.500	-15.334	0.100
753.600	-6.514	0.100
753.700	-2.290	0.100
753.800	-14.806	0.100
753.900	-17.014	0.100
754.000	-11.799	0.100
754.100	-11.692	0.100
754.200	-19.536	0.100
754.300	2.524	0.100
754.400	-10.226	0.100
754.500	-22.833	0.100
754.600	-1.347	0.100
754.700	-18.839	0.100
754.800	-6.855	0.100
754.900	-8.158	0.100
755.000	-7.603	0.100
755.100	-17.987	0.100
755.200	-6.704	0.100
755.300	-12.040	0.100
755.400	-12.892	0.100
755.500	-8.639	0.100
755.600	-23.448	0.100
755.700	-16.789	0.100
755.800	-8.192	0.100
755.900	-8.389	0.100
756.000	-17.113	0.100
756.100	-6.874	0.100
756.200	-19.950	0.100
756.300	-16.929	0.100
756.400	-8.592	0.100
756.500	-16.974	0.100
756.600	-13.126	0.100
756.700	-4.748	0.100
756.800	-7.780	0.100
756.900	-15.169	0.100
757.000	-17.854	0.100
757.100	0.031	0.100
757.200	-15.278	0.100
757.300	-13.181	0.100
757.400	-8.645	0.100
757.500	-14.629	0.100
757.600	-11.364	0.100
757.700	-15.107	0.100
757.800	-8.881	0.100
757.900	-21.044	0.100
758.000	0.989	0.100
758.100	-16.637	0.100
758.200	-31.941	0.100
758.300	-19.168	0.100
758.400	1.000	0.100
758.500	-0.219	0.100
758.600	-16.519	0.100
758.700	-15.155	0.100
758.800	-5.610	0.100
758.900	-9.806	0.100
759.000	-11.875	0.100
759.100	-17.384	0.100
759.200	-21.239	0.100
759.300	-8.787	0.100
759.400	-15.364	0.100
759.500	-18.027	0.100
759.600	-2.630	0.100
759.700	-15.201	0.100
759.800	5.296	0.100
759.900	3.419	0.100
760.000	-12.798	0.100
760.100	-19.729	0.100
760.200	-15.609	0.100
760.300	-10.582	0.100
760.400	0.225	0.100
760.500	-15.775	0.100
760.600	-14.238	0.100
760.700	-17.037	0.100
760.800	-7.206	0.100
760.900	-16.510	0.100
761.000	-13.268	0.100
761.100	-5.547	0.100
761.200	-18.155	0.100
761.300	-10.080	0.100
761.400	-20.679	0.100
761.500	-13.897	0.100
761.600	-16.289	0.100
761.700	-12.956	0.100
761.800	-14.265	0.100
761.900	-10.362	0.100
762.000	-3.057	0.100
762.100	2.881	0.100
762.200	-21.245	0.100
762.300	-10.534	0.100
762.400	-5.168	0.100
762.500	-22.995	0.100
762.600	-24.389	0.100
762.700	2.543	0.100
762.800	-10.685	0.100
762.900	-7.662	0.100
763.000	-4.678	0.100
763.100	-10.780	0.100
763.200	-16.889	0.100
763.300	-14.448	0.100
763.400	-8.369	0.100
763.500	-9.034	0.100
763.600	-7.356	0.100
763.700	-22.487	0.100
763.800	-25.127	0.100
763.900	-14.596	0.100
764.000	-14.985	0.100
764.100	-9.509	0.100
764.200	-12.079	0.100
764.300	-0.102	0.100
764.400	-6.900	0.100
764.500	-12.419	0.100
764.600	-7.333	0.100
764.700	-6.234	0.100
764.800	-9.455	0.100
764.900	-11.000	0.100
765.000	-18.280	0.100
765.100	-9.730	0.100
765.200	-5.955	0.100
765.300	-2.220	0.100
765.400	-6.790	0.100
765.500	-0.519	0.100
765.600	-17.307	0.100
765.700	-22.551	0.100
765.800	-12.563	0.100
765.900	-24.203	0.100
766.000	-6.604	0.100
766.100	-6.006	0.100
766.200	-18.574	0.100
766.300	-14.215	0.100
766.400	-11.267	0.100
766.500	-1.975	0.100
766.600	-9.280	0.100
766.700	-7.677	0.100
766.800	-20.576	0.100
766.900	-6.314	0.100
767.000	-8.017	0.100
767.100	-15.272	0.100
767.200	-6.768	0.100
767.300	-16.640	0.100
767.400	-2.443	0.100
767.500	-8.346	0.100
767.600	-8.957	0.100
767.700	-7.982	0.100
767.800	-12.748	0.100
767.900	-9.629	0.100
768.000	-8.386	0.100
768.100	9.711	0.100
768.200	-9.651	0.100
768.300	-10.992	0.100
768.400	-6.238	0.100
768.500	-13.988	0.100
768.600	-7.507	0.100
768.700	-9.366	0.100
768.800	-30.588	0.100
768.900	-7.286	0.100
769.000	-12.635	0.100
769.100	-13.222	0.100
769.200	-18.846	0.100
769.300	-10.632	0.100
769.400	-0.359	0.100
769.500	-5.688	0.100
769.600	-10.332	0.100
769.700	-9.557	0.100
769.800	-13.770	0.100
769.900	-7.085	0.100
770.000	-5.032	0.100
770.100	-8.770	0.100
770.200	-15.082	0.100
770.300	-14.276	0.100
770.400	-16.081	0.100
770.500	-17.440	0.100
770.600	-20.272	0.100
770.700	-10.306	0.100
770.800	-5.432	0.100
770.900	-6.305	0.100
771.000	-8.282	0.100
771.100	-6.692	0.100
771.200	-9.127	0.100
771.300	-5.406	0.100
771.400	-15.130	0.100
771.500	-15.281	0.100
771.600	-15.088	0.100
771.700	-7.391	0.100
771.800	-24.296	0.100
771.900	-7.922	0.100
772.000	-8.955	0.100
772.100	-14.816	0.100
772.200	7.372	0.100
772.300	-8.291	0.100
772.400	-9.457	0.100
772.500	-15.211	0.100
772.600	-30.282	0.100
772.700	-6.260	0.100
772.800	-20.010	0.100
772.900	-18.679	0.100
773.000	-8.802	0.100
773.100	5.290	0.100
773.200	-21.258	0.100
773.300	-14.209	0.100
773.400	-2.683	0.100
773.500	-8.616	0.100
773.600	-11.184	0.100
773.700	-15.899	0.100
773.800	-7.603	0.100
773.900	-4.901	0.100
774.000	-16.790	0.100
774.100	-11.060	0.100
774.200	-9.592	0.100
774.300	-11.692	0.100
774.400	-17.875	0.100
774.500	-6.252	0.100
774.600	-6.542	0.100
774.700	-6.005	0.100
774.800	-3.970	0.100
774.900	-11.897	0.100
775.000	-15.523	0.100
775.100	-18.706	0.100
775.200	-8.066	0.100
775.300	-12.237	0.100
775.400	-10.542	0.100
775.500	-9.668	0.100
775.600	-4.338	0.100
775.700	-6.756	0.100
775.800	-1.547	0.100
775.900	-6.380	0.100
776.000	-6.193	0.100
776.100	-21.715	0.100
776.200	-19.680	0.100
776.300	-13.111	0.100
776.400	-11.347	0.100
776.500	7.887	0.100
776.600	-3.824	0.100
776.700	-19.300	0.100
776.800	-0.091	0.100
776.900	-11.946	0.100
777.000	-8.056	0.100
777.100	-9.252	0.100
777.200	-7.966	0.100
777.300	-5.598	0.100
777.400	-9.811	0.100
777.500	-18.310	0.100
777.600	-8.522	0.100
777.700	-4.045	0.100
777.800	-8.078	0.100
777.900	-13.032	0.100
778.000	-23.612	0.100
778.100	-1.127	0.100
778.200	-5.380	0.100
778.300	-11.500	0.100
778.400	-10.602	0.100
778.500	-7.917	0.100
778.600	-14.411	0.100
778.700	-2.563	0.100
778.800	-19.598	0.100
778.900	-16.078	0.100
779.000	-2.672	0.100
779.100	-10.497	0.100
779.200	-12.252	0.100
779.300	-8.883	0.100
779.400	-18.109	0.100
779.500	-14.931	0.100
779.600	-11.105	0.100
779.700	-7.329	0.100
779.800	-7.803	0.100
779.900	-15.420	0.100
780.000	-16.529	0.100
780.100	-7.101	0.100
780.200	-16.042	0.100
780.300	-11.064	0.100
780.400	-0.189	0.100
780.500	-3.741	0.100
780.600	2.427	0.100
780.700	4.678	0.100
780.800	-9.812	0.100
780.900	12.982	0.100
781.000	-0.103	0.100
781.100	4.250	0.100
781.200	16.464	0.100
781.300	0.576	0.100
781.400	3.665	0.100
781.500	5.048	0.100
781.600	7.887	0.100
781.700	21.937	0.100
781.800	-0.609	0.100
781.900	2.370	0.100
782.000	12.032	0.100
782.100	21.769	0.100
782.200	12.017	0.100
782.300	7.826	0.100
782.400	10.903	0.100
782.500	8.986	0.100
782.600	15.069	0.100
782.700	14.503	0.100
782.800	11.938	0.100
782.900	10.477	0.100
783.000	11.692	0.100
783.100	27.819	0.100
783.200	13.550	0.100
783.300	3.732	0.100
783.400	23.995	0.100
783.500	21.977	0.100
783.600	5.490	0.100
783.700	19.865	0.100
783.800	21.906	0.100
783.900	13.479	0.100
784.000	8.871	0.100
784.100	22.716	0.100
784.200	20.326	0.100
784.300	20.157	0.100
784.400	12.032	0.100
784.500	20.097	0.100
784.600	19.170	0.100
784.700	8.182	0.100
784.800	2.551	0.100
784.900	19.365	0.100
785.000	12.030	0.100
785.100	14.314	0.100
785.200	10.456	0.100
785.300	20.827	0.100
785.400	4.772	0.100
785.500	22.663	0.100
785.600	18.170	0.100
785.700	22.612	0.100
785.800	15.402	0.100
785.900	2.316	0.100
786.000	9.468	0.100
786.100	12.049	0.100
786.200	22.456	0.100
786.300	20.116	0.100
786.400	10.928	0.100
786.500	11.300	0.100
786.600	8.349	0.100
786.700	6.529	0.100
786.800	7.337	0.100
786.900	6.062	0.100
787.000	17.709	0.100
787.100	25.541	0.100
787.200	29.288	0.100
787.300	13.949	0.100
787.400	10.642	0.100
787.500	27.566	0.100
787.600	11.793	0.100
787.700	15.699	0.100
787.800	17.146	0.100
787.900	9.351	0.100
788.000	13.259	0.100
788.100	22.499	0.100
788.200	17.002	0.100
788.300	12.075	0.100
788.400	12.137	0.100
788.500	3.036	0.100
788.600	20.906	0.100
788.700	14.932	0.100
788.800	12.157	0.100
788.900	8.971	0.100
789.000	18.568	0.100
789.100	6.528	0.100
789.200	17.802	0.100
789.300	13.053	0.100
789.400	15.893	0.100
789.500	23.826	0.100
789.600	18.838	0.100
789.700	3.958	0.100
789.800	21.784	0.100
789.900	8.085	0.100
790.000	17.230	0.100
790.100	8.201	0.100
790.200	6.555	0.100
790.300	13.762	0.100
790.400	4.763	0.100
790.500	19.280	0.100
790.600	11.695	0.100
790.700	16.770	0.100
790.800	12.575	0.100
790.900	19.374	0.100
791.000	3.120	0.100
791.100	8.422	0.100
791.200	19.015	0.100
791.300	12.372	0.100
791.400	21.979	0.100
791.500	20.640	0.100
791.600	12.700	0.100
791.700	11.602	0.100
791.800	13.840	0.100
791.900	18.567	0.100
792.000	13.162	0.100
792.100	6.715	0.100
792.200	5.166	0.100
792.300	13.003	0.100
792.400	16.542	0.100
792.500	15.885	0.100
792.600	15.179	0.100
792.700	12.081	0.100
792.800	6.122	0.100
792.900	11.150	0.100
793.000	30.897	0.100
793.100	26.880	0.100
793.200	15.888	0.100
793.300	9.793	0.100
793.400	16.808	0.100
793.500	25.741	0.100
793.600	21.055	0.100
793.700	15.555	0.100
793.800	25.427	0.100
793.900	12.218	0.100
794.000	13.268	0.100
794.100	5.172	0.100
794.200	27.531	0.100
794.300	15.957	0.100
794.400	21.630	0.100
794.500	19.912	0.100
794.600	3.519	0.100
794.700	9.428	0.100
794.800	17.901	0.100
794.900	12.768	0.100
795.000	13.551	0.100
795.100	27.433	0.100
795.200	5.766	0.100
795.300	13.508	0.100
795.400	18.322	0.100
795.500	21.293	0.100
795.600	12.163	0.100
795.700	10.621	0.100
795.800	4.892	0.100
795.900	22.708	0.100
796.000	15.624	0.100
796.100	13.052	0.100
796.200	23.753	0.100
796.300	15.814	0.100
796.400	14.520	0.100
796.500	17.365	0.100
796.600	13.271	0.100
796.700	6.321	0.100
796.800	14.978	0.100
796.900	21.793	0.100
797.000	15.495	0.100
797.100	23.930	0.100
797.200	21.220	0.100
797.300	16.782	0.100
797.400	17.381	0.100
797.500	15.988	0.100
797.600	25.638	0.100
797.700	17.187	0.100
797.800	22.226	0.100
797.900	21.679	0.100
798.000	21.435	0.100
798.100	16.165	0.100
798.200	19.097	0.100
798.300	11.931	0.100
798.400	18.072	0.100
798.500	29.203	0.100
798.600	28.559	0.100
798.700	4.738	0.100
798.800	16.676	0.100
798.900	13.184	0.100
799.000	19.284	0.100
799.100	23.114	0.100
799.200	18.427	0.100
799.300	26.512	0.100
799.400	17.730	0.100
799.500	25.176	0.100
799.600	17.685	0.100
799.700	9.426	0.100
799.800	23.760	0.100
799.900	25.555	0.100
800.000	19.665	0.100
