time /s	I /nA	E /V
0.100	-25.144	0.100
0.200	-20.547	0.100
0.300	-10.262	0.100
0.400	-30.218	0.100
0.500	-25.332	0.100
0.600	-27.770	0.100
0.700	-27.986	0.100
0.800	-47.478	0.100
0.900	-31.342	0.100
1.000	-30.651	0.100
1.100	-36.590	0.100
1.200	0.044	0.100
1.300	-35.132	0.100
1.400	-4.966	0.100
1.500	-29.545	0.100
1.600	-29.525	0.100
1.700	-12.207	0.100
1.800	-46.728	0.100
1.900	-29.435	0.100
2.000	-1.952	0.100
2.100	-23.047	0.100
2.200	-42.823	0.100
2.300	-35.775	0.100
2.400	-16.377	0.100
2.500	-19.752	0.100
2.600	-42.925	0.100
2.700	-29.413	0.100
2.800	-37.998	0.100
2.900	-32.496	0.100
3.000	-25.214	0.100
3.100	-20.986	0.100
3.200	-33.149	0.100
3.300	-44.708	0.100
3.400	-44.379	0.100
3.500	-40.228	0.100
3.600	-23.539	0.100
3.700	-32.484	0.100
3.800	-32.597	0.100
3.900	-37.576	0.100
4.000	-14.780	0.100
4.100	-21.333	0.100
4.200	-25.033	0.100
4.300	-23.671	0.100
4.400	-36.705	0.100
4.500	-32.536	0.100
4.600	-40.600	0.100
4.700	-5.458	0.100
4.800	-13.868	0.100
4.900	-31.738	0.100
5.000	-32.153	0.100
5.100	-12.944	0.100
5.200	-36.083	0.100
5.300	-31.414	0.100
5.400	-20.665	0.100
5.500	-18.126	0.100
5.600	-26.360	0.100
5.700	-15.320	0.100
5.800	-27.133	0.100
5.900	-13.286	0.100
6.000	-34.321	0.100
6.100	-22.549	0.100
6.200	-28.673	0.100
6.300	-31.925	0.100
6.400	-39.555	0.100
6.500	-32.699	0.100
6.600	-16.692	0.100
6.700	-11.432	0.100
6.800	-16.309	0.100
6.900	-39.505	0.100
7.000	-4.836	0.100
7.100	-27.156	0.100
7.200	-47.640	0.100
7.300	-20.819	0.100
7.400	-30.569	0.100
7.500	-29.354	0.100
7.600	-27.645	0.100
7.700	-22.740	0.100
7.800	-26.712	0.100
7.900	-41.976	0.100
8.000	-24.637	0.100
8.100	-12.879	0.100
8.200	-29.633	0.100
8.300	-16.428	0.100
8.400	-47.069	0.100
8.500	-20.069	0.100
8.600	-55.244	0.100
8.700	3.343	0.100
8.800	-25.097	0.100
8.900	-7.508	0.100
9.000	-23.529	0.100
9.100	-27.798	0.100
9.200	-21.637	0.100
9.300	-20.350	0.100
9.400	-31.339	0.100
9.500	-25.641	0.100
9.600	-39.455	0.100
9.700	-22.566	0.100
9.800	-22.616	0.100
9.900	-15.769	0.100
10.000	-32.548	0.100
10.100	-39.531	0.100
10.200	-33.756	0.100
10.300	-25.221	0.100
10.400	-17.341	0.100
10.500	-31.909	0.100
10.600	-17.341	0.100
10.700	-24.775	0.100
10.800	-29.088	0.100
10.900	-23.224	0.100
11.000	-36.371	0.100
11.100	-32.993	0.100
11.200	-21.127	0.100
11.300	-18.435	0.100
11.400	-15.099	0.100
11.500	-34.866	0.100
11.600	-17.860	0.100
11.700	-3.507	0.100
11.800	-45.877	0.100
11.900	-48.898	0.100
12.000	-36.877	0.100
12.100	1.624	0.100
12.200	-32.829	0.100
12.300	-29.416	0.100
12.400	-25.102	0.100
12.500	-7.017	0.100
12.600	-14.333	0.100
12.700	-25.757	0.100
12.800	-17.996	0.100
12.900	-14.772	0.100
13.000	-44.071	0.100
13.100	-39.834	0.100
13.200	-10.760	0.100
13.300	-16.359	0.100
13.400	-29.334	0.100
13.500	-22.737	0.100
13.600	-41.555	0.100
13.700	-46.543	0.100
13.800	-24.560	0.100
13.900	-15.367	0.100
14.000	-26.452	0.100
14.100	-29.934	0.100
14.200	-7.597	0.100
14.300	-14.320	0.100
14.400	-34.677	0.100
14.500	-43.683	0.100
14.600	-16.973	0.100
14.700	-14.040	0.100
14.800	-22.454	0.100
14.900	-20.075	0.100
15.000	-45.549	0.100
15.100	-17.930	0.100
15.200	-45.615	0.100
15.300	-7.823	0.100
15.400	-34.125	0.100
15.500	-53.122	0.100
15.600	-17.071	0.100
15.700	-30.829	0.100
15.800	-9.836	0.100
15.900	-29.515	0.100
16.000	-12.302	0.100
16.100	-12.536	0.100
16.200	-37.945	0.100
16.300	-41.623	0.100
16.400	-6.375	0.100
16.500	-19.484	0.100
16.600	-19.279	0.100
16.700	-24.265	0.100
16.800	-10.902	0.100
16.900	-30.854	0.100
17.000	-35.260	0.100
17.100	-19.894	0.100
17.200	-12.276	0.100
17.300	-16.050	0.100
17.400	-35.971	0.100
17.500	-48.799	0.100
17.600	-26.371	0.100
17.700	-9.970	0.100
17.800	-41.450	0.100
17.900	-17.539	0.100
18.000	-19.921	0.100
18.100	-39.540	0.100
18.200	-24.411	0.100
18.300	-16.811	0.100
18.400	-31.329	0.100
18.500	-10.364	0.100
18.600	-35.176	0.100
18.700	-45.725	0.100
18.800	-10.222	0.100
18.900	-7.241	0.100
19.000	-32.723	0.100
19.100	-31.437	0.100
19.200	-45.201	0.100
19.300	-11.534	0.100
19.400	-26.751	0.100
19.500	-30.341	0.100
19.600	-9.706	0.100
19.700	-36.035	0.100
19.800	-21.631	0.100
19.900	-24.692	0.100
20.000	-23.415	0.100
20.100	-27.362	0.100
20.200	-33.469	0.100
20.300	20.450	0.100
20.400	-20.220	0.100
20.500	6.491	0.100
20.600	-15.051	0.100
20.700	-25.277	0.100
20.800	-26.345	0.100
20.900	-22.040	0.100
21.000	-32.846	0.100
21.100	-15.924	0.100
21.200	-8.478	0.100
21.300	-15.428	0.100
21.400	-29.288	0.100
21.500	-17.339	0.100
21.600	-39.773	0.100
21.700	-20.188	0.100
21.800	-32.521	0.100
21.900	-26.954	0.100
22.000	-22.395	0.100
22.100	-40.104	0.100
22.200	-8.963	0.100
22.300	-36.499	0.100
22.400	-15.423	0.100
22.500	-37.770	0.100
22.600	-24.678	0.100
22.700	-23.554	0.100
22.800	-12.369	0.100
22.900	-18.831	0.100
23.000	-23.344	0.100
23.100	-12.803	0.100
23.200	-45.065	0.100
23.300	-14.426	0.100
23.400	-61.635	0.100
23.500	-40.207	0.100
23.600	-4.865	0.100
23.700	-30.987	0.100
23.800	-20.030	0.100
23.900	-15.936	0.100
24.000	-44.242	0.100
24.100	-17.037	0.100
24.200	-14.686	0.100
24.300	-24.230	0.100
24.400	-0.028	0.100
24.500	-14.423	0.100
24.600	-17.682	0.100
24.700	-31.942	0.100
24.800	-59.120	0.100
24.900	-7.106	0.100
25.000	-37.066	0.100
25.100	-7.003	0.100
25.200	-11.275	0.100
25.300	-36.688	0.100
25.400	-9.561	0.100
25.500	-18.249	0.100
25.600	-59.511	0.100
25.700	-41.044	0.100
25.800	-35.585	0.100
25.900	-30.769	0.100
26.000	-30.143	0.100
26.100	-36.556	0.100
26.200	-43.814	0.100
26.300	-27.398	0.100
26.400	-35.957	0.100
26.500	-7.805	0.100
26.600	-27.966	0.100
26.700	-36.651	0.100
26.800	-20.851	0.100
26.900	-18.156	0.100
27.000	-36.922	0.100
27.100	-45.294	0.100
27.200	-23.869	0.100
27.300	-27.900	0.100
27.400	-36.385	0.100
27.500	-17.971	0.100
27.600	8.853	0.100
27.700	-40.867	0.100
27.800	-8.766	0.100
27.900	-25.144	0.100
28.000	-18.674	0.100
28.100	-25.757	0.100
28.200	-0.495	0.100
28.300	-20.343	0.100
28.400	-0.214	0.100
28.500	-55.179	0.100
28.600	-51.379	0.100
28.700	-20.956	0.100
28.800	-8.987	0.100
28.900	-14.873	0.100
29.000	-36.863	0.100
29.100	-15.948	0.100
29.200	-13.223	0.100
29.300	-33.572	0.100
29.400	-32.590	0.100
29.500	-24.991	0.100
29.600	-43.628	0.100
29.700	-26.738	0.100
29.800	-10.465	0.100
29.900	-8.217	0.100
30.000	-18.791	0.100
30.100	-54.103	0.100
30.200	-32.253	0.100
30.300	-19.410	0.100
30.400	-27.913	0.100
30.500	-9.596	0.100
30.600	-34.199	0.100
30.700	-24.339	0.100
30.800	-5.389	0.100
30.900	-31.487	0.100
31.000	-3.165	0.100
31.100	-27.053	0.100
31.200	-7.450	0.100
31.300	5.703	0.100
31.400	-17.393	0.100
31.500	-10.536	0.100
31.600	-27.210	0.100
31.700	-11.965	0.100
31.800	-26.557	0.100
31.900	-15.516	0.100
32.000	-8.511	0.100
32.100	-27.206	0.100
32.200	11.756	0.100
32.300	-5.047	0.100
32.400	-26.210	0.100
32.500	14.495	0.100
32.600	11.056	0.100
32.700	-35.464	0.100
32.800	-8.400	0.100
32.900	0.537	0.100
33.000	6.799	0.100
33.100	-11.516	0.100
33.200	-20.566	0.100
33.300	-14.041	0.100
33.400	4.566	0.100
33.500	1.508	0.100
33.600	-1.914	0.100
33.700	-15.080	0.100
33.800	-1.819	0.100
33.900	-2.201	0.100
34.000	-23.916	0.100
34.100	1.976	0.100
34.200	-15.419	0.100
34.300	-11.063	0.100
34.400	-13.099	0.100
34.500	12.067	0.100
34.600	-0.399	0.100
34.700	-9.903	0.100
34.800	7.802	0.100
34.900	16.706	0.100
35.000	-13.823	0.100
35.100	10.714	0.100
35.200	-5.446	0.100
35.300	-21.664	0.100
35.400	-4.839	0.100
35.500	-18.132	0.100
35.600	18.116	0.100
35.700	-1.082	0.100
35.800	-13.966	0.100
35.900	-5.217	0.100
36.000	-18.121	0.100
36.100	0.554	0.100
36.200	13.023	0.100
36.300	-3.525	0.100
36.400	3.610	0.100
36.500	25.916	0.100
36.600	-19.750	0.100
36.700	-7.748	0.100
36.800	19.107	0.100
36.900	-2.894	0.100
37.000	-7.163	0.100
37.100	20.704	0.100
37.200	-8.422	0.100
37.300	-0.050	0.100
37.400	5.659	0.100
37.500	12.511	0.100
37.600	-5.596	0.100
37.700	-13.639	0.100
37.800	17.612	0.100
37.900	-9.083	0.100
38.000	-6.034	0.100
38.100	-17.568	0.100
38.200	1.260	0.100
38.300	33.502	0.100
38.400	-29.562	0.100
38.500	-37.423	0.100
38.600	-9.287	0.100
38.700	30.919	0.100
38.800	-0.779	0.100
38.900	7.821	0.100
39.000	5.014	0.100
39.100	-6.138	0.100
39.200	7.398	0.100
39.300	3.575	0.100
39.400	-4.133	0.100
39.500	-20.404	0.100
39.600	-1.613	0.100
39.700	16.310	0.100
39.800	3.434	0.100
39.900	13.660	0.100
40.000	-32.843	0.100
40.100	17.188	0.100
40.200	2.747	0.100
40.300	20.349	0.100
40.400	-17.079	0.100
40.500	33.773	0.100
40.600	-5.115	0.100
40.700	-9.984	0.100
40.800	16.099	0.100
40.900	10.949	0.100
41.000	8.000	0.100
41.100	6.784	0.100
41.200	-9.606	0.100
41.300	-1.477	0.100
41.400	-8.807	0.100
41.500	-0.326	0.100
41.600	-1.155	0.100
41.700	17.264	0.100
41.800	-11.682	0.100
41.900	1.184	0.100
42.000	21.992	0.100
42.100	32.867	0.100
42.200	26.896	0.100
42.300	5.557	0.100
42.400	0.409	0.100
42.500	22.220	0.100
42.600	24.509	0.100
42.700	20.663	0.100
42.800	4.902	0.100
42.900	4.400	0.100
43.000	3.348	0.100
43.100	10.074	0.100
43.200	-21.611	0.100
43.300	15.339	0.100
43.400	2.073	0.100
43.500	5.214	0.100
43.600	15.021	0.100
43.700	7.055	0.100
43.800	-1.447	0.100
43.900	10.729	0.100
44.000	-16.237	0.100
44.100	17.743	0.100
44.200	29.242	0.100
44.300	-2.447	0.100
44.400	10.520	0.100
44.500	-8.813	0.100
44.600	-14.174	0.100
44.700	-1.612	0.100
44.800	-21.711	0.100
44.900	42.575	0.100
45.000	10.017	0.100
45.100	13.067	0.100
45.200	8.572	0.100
45.300	-11.534	0.100
45.400	-11.357	0.100
45.500	3.561	0.100
45.600	33.731	0.100
45.700	-4.492	0.100
45.800	7.158	0.100
45.900	-3.624	0.100
46.000	2.089	0.100
46.100	-16.034	0.100
46.200	16.134	0.100
46.300	21.927	0.100
46.400	2.711	0.100
46.500	7.533	0.100
46.600	-12.871	0.100
46.700	7.403	0.100
46.800	27.792	0.100
46.900	12.056	0.100
47.000	-9.270	0.100
47.100	21.236	0.100
47.200	-11.037	0.100
47.300	8.841	0.100
47.400	-16.953	0.100
47.500	15.898	0.100
47.600	12.553	0.100
47.700	1.914	0.100
47.800	28.001	0.100
47.900	-6.658	0.100
48.000	-7.663	0.100
48.100	18.295	0.100
48.200	7.826	0.100
48.300	-0.682	0.100
48.400	5.573	0.100
48.500	7.854	0.100
48.600	13.378	0.100
48.700	8.823	0.100
48.800	2.719	0.100
48.900	26.035	0.100
49.000	-7.734	0.100
49.100	1.077	0.100
49.200	-5.448	0.100
49.300	-8.098	0.100
49.400	-19.187	0.100
49.500	10.908	0.100
49.600	14.517	0.100
49.700	-11.659	0.100
49.800	8.335	0.100
49.900	23.849	0.100
50.000	-1.231	0.100
50.100	-2.666	0.100
50.200	8.800	0.100
50.300	-3.763	0.100
50.400	25.175	0.100
50.500	18.967	0.100
50.600	-10.415	0.100
50.700	14.465	0.100
50.800	0.877	0.100
50.900	-7.098	0.100
51.000	11.240	0.100
51.100	2.085	0.100
51.200	-7.142	0.100
51.300	-1.391	0.100
51.400	15.716	0.100
51.500	3.017	0.100
51.600	11.767	0.100
51.700	32.032	0.100
51.800	11.567	0.100
51.900	-5.791	0.100
52.000	-16.328	0.100
52.100	-19.447	0.100
52.200	17.867	0.100
52.300	10.561	0.100
52.400	-8.907	0.100
52.500	22.057	0.100
52.600	3.479	0.100
52.700	-5.986	0.100
52.800	11.002	0.100
52.900	14.995	0.100
53.000	11.147	0.100
53.100	-9.913	0.100
53.200	3.441	0.100
53.300	9.405	0.100
53.400	3.036	0.100
53.500	4.135	0.100
53.600	15.340	0.100
53.700	6.534	0.100
53.800	3.869	0.100
53.900	1.534	0.100
54.000	12.798	0.100
54.100	-11.391	0.100
54.200	26.791	0.100
54.300	11.965	0.100
54.400	-7.804	0.100
54.500	1.421	0.100
54.600	0.225	0.100
54.700	-11.614	0.100
54.800	7.491	0.100
54.900	3.368	0.100
55.000	31.351	0.100
55.100	28.321	0.100
55.200	14.393	0.100
55.300	-0.365	0.100
55.400	-5.511	0.100
55.500	-5.483	0.100
55.600	-1.382	0.100
55.700	20.950	0.100
55.800	9.543	0.100
55.900	-18.662	0.100
56.000	-5.464	0.100
56.100	24.208	0.100
56.200	0.959	0.100
56.300	15.608	0.100
56.400	-4.015	0.100
56.500	-17.636	0.100
56.600	-9.565	0.100
56.700	6.732	0.100
56.800	26.614	0.100
56.900	10.126	0.100
57.000	32.623	0.100
57.100	-0.663	0.100
57.200	-14.848	0.100
57.300	25.845	0.100
57.400	-10.168	0.100
57.500	-5.724	0.100
57.600	22.642	0.100
57.700	6.700	0.100
57.800	6.407	0.100
57.900	0.559	0.100
58.000	17.002	0.100
58.100	7.170	0.100
58.200	4.703	0.100
58.300	-1.432	0.100
58.400	28.843	0.100
58.500	3.411	0.100
58.600	3.092	0.100
58.700	-7.094	0.100
58.800	17.368	0.100
58.900	21.150	0.100
59.000	-20.325	0.100
59.100	25.619	0.100
59.200	6.024	0.100
59.300	12.650	0.100
59.400	17.964	0.100
59.500	6.466	0.100
59.600	-1.475	0.100
59.700	12.986	0.100
59.800	-15.403	0.100
59.900	5.421	0.100
60.000	1.973	0.100
60.100	19.349	0.100
60.200	12.760	0.100
60.300	-4.412	0.100
60.400	8.815	0.100
60.500	7.708	0.100
60.600	30.682	0.100
60.700	-7.467	0.100
60.800	0.911	0.100
60.900	-9.950	0.100
61.000	-0.423	0.100
61.100	15.019	0.100
61.200	13.387	0.100
61.300	19.337	0.100
61.400	9.591	0.100
61.500	-0.464	0.100
61.600	12.640	0.100
61.700	11.366	0.100
61.800	15.852	0.100
61.900	-11.871	0.100
62.000	19.200	0.100
62.100	-10.818	0.100
62.200	12.944	0.100
62.300	-9.116	0.100
62.400	-5.531	0.100
62.500	-13.953	0.100
62.600	17.603	0.100
62.700	23.925	0.100
62.800	0.428	0.100
62.900	7.507	0.100
63.000	13.604	0.100
63.100	-1.920	0.100
63.200	24.355	0.100
63.300	-6.130	0.100
63.400	32.725	0.100
63.500	-3.658	0.100
63.600	11.276	0.100
63.700	9.873	0.100
63.800	-6.237	0.100
63.900	8.319	0.100
64.000	-5.983	0.100
64.100	13.917	0.100
64.200	4.621	0.100
64.300	-2.814	0.100
64.400	29.426	0.100
64.500	11.245	0.100
64.600	25.838	0.100
64.700	1.382	0.100
64.800	33.760	0.100
64.900	14.138	0.100
65.000	2.994	0.100
65.100	-30.104	0.100
65.200	-1.705	0.100
65.300	6.600	0.100
65.400	-13.904	0.100
65.500	29.868	0.100
65.600	9.249	0.100
65.700	8.257	0.100
65.800	-2.592	0.100
65.900	19.129	0.100
66.000	1.611	0.100
66.100	5.177	0.100
66.200	34.675	0.100
66.300	17.033	0.100
66.400	-9.780	0.100
66.500	0.339	0.100
66.600	22.386	0.100
66.700	14.686	0.100
66.800	-26.950	0.100
66.900	15.673	0.100
67.000	11.876	0.100
67.100	8.102	0.100
67.200	-11.243	0.100
67.300	22.589	0.100
67.400	-2.112	0.100
67.500	24.704	0.100
67.600	10.469	0.100
67.700	19.338	0.100
67.800	20.201	0.100
67.900	4.106	0.100
68.000	13.949	0.100
68.100	3.444	0.100
68.200	8.481	0.100
68.300	32.559	0.100
68.400	7.574	0.100
68.500	16.962	0.100
68.600	-8.063	0.100
68.700	12.236	0.100
68.800	10.516	0.100
68.900	21.575	0.100
69.000	-9.985	0.100
69.100	22.325	0.100
69.200	5.210	0.100
69.300	14.685	0.100
69.400	6.890	0.100
69.500	-5.185	0.100
69.600	14.636	0.100
69.700	32.414	0.100
69.800	5.325	0.100
69.900	0.466	0.100
70.000	26.913	0.100
70.100	-19.768	0.100
70.200	14.325	0.100
70.300	-5.553	0.100
70.400	20.219	0.100
70.500	11.906	0.100
70.600	11.578	0.100
70.700	19.662	0.100
70.800	10.759	0.100
70.900	7.435	0.100
71.000	21.043	0.100
71.100	4.686	0.100
71.200	9.325	0.100
71.300	-8.942	0.100
71.400	13.931	0.100
71.500	33.439	0.100
71.600	7.134	0.100
71.700	15.418	0.100
71.800	5.218	0.100
71.900	15.112	0.100
72.000	-7.444	0.100
72.100	18.203	0.100
72.200	16.234	0.100
72.300	-0.112	0.100
72.400	29.837	0.100
72.500	4.909	0.100
72.600	19.327	0.100
72.700	11.294	0.100
72.800	-2.201	0.100
72.900	16.119	0.100
73.000	-25.224	0.100
73.100	35.871	0.100
73.200	27.532	0.100
73.300	9.048	0.100
73.400	-11.711	0.100
73.500	20.193	0.100
73.600	7.812	0.100
73.700	22.893	0.100
73.800	18.628	0.100
73.900	32.206	0.100
74.000	14.635	0.100
74.100	-4.153	0.100
74.200	53.000	0.100
74.300	-3.484	0.100
74.400	14.155	0.100
74.500	13.687	0.100
74.600	1.177	0.100
74.700	4.419	0.100
74.800	15.860	0.100
74.900	19.058	0.100
75.000	5.199	0.100
75.100	8.811	0.100
75.200	24.123	0.100
75.300	14.566	0.100
75.400	4.550	0.100
75.500	13.937	0.100
75.600	29.094	0.100
75.700	18.021	0.100
75.800	8.838	0.100
75.900	10.285	0.100
76.000	3.356	0.100
76.100	18.613	0.100
76.200	5.234	0.100
76.300	21.445	0.100
76.400	36.272	0.100
76.500	-1.281	0.100
76.600	8.729	0.100
76.700	12.115	0.100
76.800	3.062	0.100
76.900	32.621	0.100
77.000	21.866	0.100
77.100	8.770	0.100
77.200	14.470	0.100
77.300	0.826	0.100
77.400	27.990	0.100
77.500	11.397	0.100
77.600	7.198	0.100
77.700	14.609	0.100
77.800	20.665	0.100
77.900	27.609	0.100
78.000	9.134	0.100
78.100	-18.906	0.100
78.200	13.582	0.100
78.300	12.543	0.100
78.400	5.534	0.100
78.500	12.176	0.100
78.600	36.261	0.100
78.700	4.713	0.100
78.800	26.094	0.100
78.900	-5.196	0.100
79.000	-23.216	0.100
79.100	12.879	0.100
79.200	45.145	0.100
79.300	8.982	0.100
79.400	12.854	0.100
79.500	33.225	0.100
79.600	11.722	0.100
79.700	-0.626	0.100
79.800	27.646	0.100
79.900	-6.645	0.100
80.000	37.746	0.100
80.100	17.953	0.100
80.200	8.278	0.100
80.300	12.322	0.100
80.400	-18.168	0.100
80.500	37.436	0.100
80.600	-11.708	0.100
80.700	19.934	0.100
80.800	31.946	0.100
80.900	14.900	0.100
81.000	14.199	0.100
81.100	27.055	0.100
81.200	18.534	0.100
81.300	9.657	0.100
81.400	-9.780	0.100
81.500	16.442	0.100
81.600	27.583	0.100
81.700	20.468	0.100
81.800	18.955	0.100
81.900	0.631	0.100
82.000	10.604	0.100
82.100	19.024	0.100
82.200	30.355	0.100
82.300	39.688	0.100
82.400	31.019	0.100
82.500	4.474	0.100
82.600	-7.118	0.100
82.700	20.781	0.100
82.800	30.062	0.100
82.900	5.441	0.100
83.000	0.980	0.100
83.100	53.679	0.100
83.200	26.021	0.100
83.300	7.427	0.100
83.400	22.352	0.100
83.500	18.361	0.100
83.600	-16.566	0.100
83.700	12.040	0.100
83.800	-3.884	0.100
83.900	25.231	0.100
84.000	21.660	0.100
84.100	30.647	0.100
84.200	17.575	0.100
84.300	22.231	0.100
84.400	25.108	0.100
84.500	37.310	0.100
84.600	-1.620	0.100
84.700	22.941	0.100
84.800	9.598	0.100
84.900	22.529	0.100
85.000	3.076	0.100
85.100	21.203	0.100
85.200	5.286	0.100
85.300	15.744	0.100
85.400	4.631	0.100
85.500	-8.996	0.100
85.600	14.275	0.100
85.700	-5.317	0.100
85.800	22.568	0.100
85.900	-3.645	0.100
86.000	4.566	0.100
86.100	5.387	0.100
86.200	29.731	0.100
86.300	28.822	0.100
86.400	20.093	0.100
86.500	-0.610	0.100
86.600	25.173	0.100
86.700	-0.834	0.100
86.800	23.950	0.100
86.900	15.425	0.100
87.000	42.231	0.100
87.100	7.673	0.100
87.200	16.329	0.100
87.300	11.260	0.100
87.400	10.658	0.100
87.500	-4.148	0.100
87.600	35.061	0.100
87.700	30.729	0.100
87.800	-3.004	0.100
87.900	19.120	0.100
88.000	11.908	0.100
88.100	18.694	0.100
88.200	8.371	0.100
88.300	1.563	0.100
88.400	14.518	0.100
88.500	2.035	0.100
88.600	-2.672	0.100
88.700	10.856	0.100
88.800	6.955	0.100
88.900	17.458	0.100
89.000	-2.026	0.100
89.100	17.802	0.100
89.200	31.796	0.100
89.300	18.235	0.100
89.400	36.760	0.100
89.500	-3.291	0.100
89.600	4.532	0.100
89.700	40.436	0.100
89.800	20.525	0.100
89.900	7.294	0.100
90.000	23.632	0.100
90.100	26.771	0.100
90.200	-11.232	0.100
90.300	-0.624	0.100
90.400	20.633	0.100
90.500	9.775	0.100
90.600	-1.611	0.100
90.700	23.675	0.100
90.800	-7.271	0.100
90.900	22.739	0.100
91.000	22.395	0.100
91.100	1.517	0.100
91.200	29.046	0.100
91.300	4.512	0.100
91.400	-3.527	0.100
91.500	-2.859	0.100
91.600	15.072	0.100
91.700	-24.567	0.100
91.800	-1.013	0.100
91.900	-1.245	0.100
92.000	21.675	0.100
92.100	-9.126	0.100
92.200	-4.799	0.100
92.300	-0.427	0.100
92.400	-13.757	0.100
92.500	11.888	0.100
92.600	1.242	0.100
92.700	-2.924	0.100
92.800	-8.556	0.100
92.900	-9.008	0.100
93.000	-2.687	0.100
93.100	7.998	0.100
93.200	10.791	0.100
93.300	-23.785	0.100
93.400	-18.661	0.100
93.500	-10.856	0.100
93.600	-11.280	0.100
93.700	-17.770	0.100
93.800	-10.563	0.100
93.900	-19.043	0.100
94.000	-10.605	0.100
94.100	-4.004	0.100
94.200	-11.837	0.100
94.300	-7.996	0.100
94.400	2.071	0.100
94.500	0.369	0.100
94.600	-15.162	0.100
94.700	-34.593	0.100
94.800	-15.342	0.100
94.900	-4.085	0.100
95.000	-38.587	0.100
95.100	-9.469	0.100
95.200	-13.055	0.100
95.300	-19.686	0.100
95.400	-29.967	0.100
95.500	-13.590	0.100
95.600	-32.389	0.100
95.700	-15.811	0.100
95.800	-7.250	0.100
95.900	-6.942	0.100
96.000	-26.126	0.100
96.100	-21.098	0.100
96.200	-23.351	0.100
96.300	-3.254	0.100
96.400	-6.420	0.100
96.500	-13.350	0.100
96.600	-33.177	0.100
96.700	-3.455	0.100
96.800	-18.856	0.100
96.900	-26.401	0.100
97.000	-31.007	0.100
97.100	9.358	0.100
97.200	-33.232	0.100
97.300	-7.938	0.100
97.400	-6.286	0.100
97.500	-23.904	0.100
97.600	-16.283	0.100
97.700	-22.192	0.100
97.800	-4.882	0.100
97.900	-35.494	0.100
98.000	-28.959	0.100
98.100	-6.399	0.100
98.200	-0.051	0.100
98.300	-10.728	0.100
98.400	-29.311	0.100
98.500	-5.576	0.100
98.600	-7.260	0.100
98.700	-27.858	0.100
98.800	-30.090	0.100
98.900	-14.670	0.100
99.000	-1.963	0.100
99.100	-13.132	0.100
99.200	-14.803	0.100
99.300	-16.066	0.100
99.400	-50.601	0.100
99.500	-22.336	0.100
99.600	0.011	0.100
99.700	-12.576	0.100
99.800	-39.744	0.100
99.900	-41.087	0.100
100.000	-19.743	0.100
100.100	-6.859	0.100
100.200	-1.832	0.100
100.300	-8.481	0.100
100.400	-30.751	0.100
100.500	-37.695	0.100
100.600	-1.709	0.100
100.700	-24.067	0.100
100.800	-0.797	0.100
100.900	-15.830	0.100
101.000	-18.119	0.100
101.100	-22.629	0.100
101.200	-16.183	0.100
101.300	-26.893	0.100
101.400	-35.005	0.100
101.500	-7.876	0.100
101.600	-21.294	0.100
101.700	-24.416	0.100
101.800	-15.692	0.100
101.900	-9.353	0.100
102.000	-27.819	0.100
102.100	-13.838	0.100
102.200	-17.698	0.100
102.300	-28.332	0.100
102.400	1.325	0.100
102.500	-19.872	0.100
102.600	-22.378	0.100
102.700	6.303	0.100
102.800	-14.911	0.100
102.900	-1.719	0.100
103.000	-10.034	0.100
103.100	-22.878	0.100
103.200	-11.463	0.100
103.300	-31.512	0.100
103.400	-21.354	0.100
103.500	-16.264	0.100
103.600	-13.318	0.100
103.700	-15.654	0.100
103.800	-24.267	0.100
103.900	-15.389	0.100
104.000	2.076	0.100
104.100	-37.419	0.100
104.200	-16.850	0.100
104.300	-27.934	0.100
104.400	5.718	0.100
104.500	-0.867	0.100
104.600	1.508	0.100
104.700	-43.865	0.100
104.800	-23.631	0.100
104.900	-25.672	0.100
105.000	-4.327	0.100
105.100	-17.281	0.100
105.200	-11.578	0.100
105.300	-23.680	0.100
105.400	-37.583	0.100
105.500	-2.840	0.100
105.600	0.698	0.100
105.700	-29.820	0.100
105.800	-9.141	0.100
105.900	-31.663	0.100
106.000	-30.816	0.100
106.100	-30.639	0.100
106.200	-4.450	0.100
106.300	-23.853	0.100
106.400	-34.812	0.100
106.500	-7.027	0.100
106.600	-1.511	0.100
106.700	-17.031	0.100
106.800	-28.919	0.100
106.900	-50.689	0.100
107.000	-30.194	0.100
107.100	-22.300	0.100
107.200	-10.866	0.100
107.300	-17.449	0.100
107.400	4.252	0.100
107.500	-19.730	0.100
107.600	-16.816	0.100
107.700	-8.094	0.100
107.800	-14.991	0.100
107.900	-19.039	0.100
108.000	-31.300	0.100
108.100	3.853	0.100
108.200	-43.452	0.100
108.300	-35.528	0.100
108.400	-18.613	0.100
108.500	-14.045	0.100
108.600	-5.319	0.100
108.700	-17.330	0.100
108.800	-32.547	0.100
108.900	-1.050	0.100
109.000	-27.675	0.100
109.100	-13.856	0.100
109.200	2.016	0.100
109.300	-14.220	0.100
109.400	-37.120	0.100
109.500	-1.794	0.100
109.600	-32.082	0.100
109.700	-31.791	0.100
109.800	-9.353	0.100
109.900	-25.650	0.100
110.000	-20.256	0.100
110.100	-7.427	0.100
110.200	-33.467	0.100
110.300	-18.739	0.100
110.400	2.190	0.100
110.500	-19.749	0.100
110.600	-16.704	0.100
110.700	-7.444	0.100
110.800	-24.816	0.100
110.900	-24.304	0.100
111.000	-21.056	0.100
111.100	-25.623	0.100
111.200	-17.969	0.100
111.300	-38.606	0.100
111.400	-14.557	0.100
111.500	-2.010	0.100
111.600	-29.879	0.100
111.700	-18.113	0.100
111.800	-7.551	0.100
111.900	-8.640	0.100
112.000	-19.737	0.100
112.100	-21.596	0.100
112.200	-18.550	0.100
112.300	-16.754	0.100
112.400	-25.182	0.100
112.500	-38.314	0.100
112.600	-36.269	0.100
112.700	-21.492	0.100
112.800	-3.249	0.100
112.900	-16.844	0.100
113.000	-7.552	0.100
113.100	-32.192	0.100
113.200	-21.489	0.100
113.300	-22.436	0.100
113.400	-14.946	0.100
113.500	-6.850	0.100
113.600	-21.069	0.100
113.700	-27.269	0.100
113.800	-10.776	0.100
113.900	-1.272	0.100
114.000	-33.866	0.100
114.100	-19.846	0.100
114.200	-20.424	0.100
114.300	-34.855	0.100
114.400	-42.493	0.100
114.500	-32.328	0.100
114.600	-11.226	0.100
114.700	18.387	0.100
114.800	-5.855	0.100
114.900	-27.300	0.100
115.000	-45.517	0.100
115.100	-26.364	0.100
115.200	1.032	0.100
115.300	-4.186	0.100
115.400	-32.531	0.100
115.500	-24.720	0.100
115.600	-24.126	0.100
115.700	-16.867	0.100
115.800	-28.757	0.100
115.900	-21.568	0.100
116.000	-30.391	0.100
116.100	-9.763	0.100
116.200	-17.213	0.100
116.300	-22.917	0.100
116.400	-12.955	0.100
116.500	-20.844	0.100
116.600	-19.385	0.100
116.700	11.886	0.100
116.800	-45.570	0.100
116.900	-6.309	0.100
117.000	-37.787	0.100
117.100	-21.877	0.100
117.200	-52.634	0.100
117.300	-9.716	0.100
117.400	-12.078	0.100
117.500	-4.532	0.100
117.600	-19.980	0.100
117.700	-16.970	0.100
117.800	-23.417	0.100
117.900	-16.667	0.100
118.000	-32.164	0.100
118.100	-17.010	0.100
118.200	-31.581	0.100
118.300	7.208	0.100
118.400	-9.434	0.100
118.500	-34.088	0.100
118.600	-27.534	0.100
118.700	-19.629	0.100
118.800	-37.403	0.100
118.900	22.121	0.100
119.000	-23.523	0.100
119.100	9.551	0.100
119.200	-56.437	0.100
119.300	-36.062	0.100
119.400	-11.358	0.100
119.500	-33.542	0.100
119.600	-26.687	0.100
119.700	-38.783	0.100
119.800	-42.500	0.100
119.900	-18.399	0.100
120.000	13.240	0.100
120.100	-20.219	0.100
120.200	-11.178	0.100
120.300	-19.365	0.100
120.400	-40.966	0.100
120.500	-28.300	0.100
120.600	-31.480	0.100
120.700	-27.754	0.100
120.800	-38.793	0.100
120.900	-19.559	0.100
121.000	-9.521	0.100
121.100	-21.132	0.100
121.200	-39.569	0.100
121.300	-38.196	0.100
121.400	-6.909	0.100
121.500	-0.286	0.100
121.600	-5.602	0.100
121.700	-45.567	0.100
121.800	-1.004	0.100
121.900	-35.098	0.100
122.000	-18.736	0.100
122.100	-22.819	0.100
122.200	-35.698	0.100
122.300	-14.150	0.100
122.400	-21.359	0.100
122.500	-38.261	0.100
122.600	-12.726	0.100
122.700	-18.234	0.100
122.800	-13.255	0.100
122.900	-36.949	0.100
123.000	-16.085	0.100
123.100	-11.515	0.100
123.200	-39.697	0.100
123.300	-41.147	0.100
123.400	-18.181	0.100
123.500	-16.871	0.100
123.600	-34.198	0.100
123.700	-24.275	0.100
123.800	-9.986	0.100
123.900	-28.052	0.100
124.000	-21.271	0.100
124.100	-10.981	0.100
124.200	-12.645	0.100
124.300	-3.671	0.100
124.400	-11.447	0.100
124.500	3.843	0.100
124.600	-20.030	0.100
124.700	-35.728	0.100
124.800	-44.048	0.100
124.900	-31.182	0.100
125.000	-24.571	0.100
125.100	-4.244	0.100
125.200	-2.374	0.100
125.300	-45.155	0.100
125.400	-17.550	0.100
125.500	-38.982	0.100
125.600	-10.128	0.100
125.700	-24.601	0.100
125.800	-30.659	0.100
125.900	-12.422	0.100
126.000	-16.266	0.100
126.100	-27.700	0.100
126.200	-36.940	0.100
126.300	-24.848	0.100
126.400	-24.714	0.100
126.500	-19.039	0.100
126.600	1.767	0.100
126.700	-13.308	0.100
126.800	-6.212	0.100
126.900	-37.705	0.100
127.000	-16.264	0.100
127.100	11.467	0.100
127.200	-13.206	0.100
127.300	-41.021	0.100
127.400	-18.723	0.100
127.500	-31.672	0.100
127.600	-23.829	0.100
127.700	-24.151	0.100
127.800	-31.048	0.100
127.900	-14.137	0.100
128.000	-17.766	0.100
128.100	-31.923	0.100
128.200	-52.094	0.100
128.300	-20.026	0.100
128.400	-24.254	0.100
128.500	-36.007	0.100
128.600	-15.854	0.100
128.700	-10.236	0.100
128.800	-18.952	0.100
128.900	-14.183	0.100
129.000	-11.792	0.100
129.100	-28.417	0.100
129.200	-26.519	0.100
129.300	-20.200	0.100
129.400	-19.918	0.100
129.500	-34.419	0.100
129.600	-18.082	0.100
129.700	-29.566	0.100
129.800	-20.160	0.100
129.900	-29.512	0.100
130.000	-21.151	0.100
130.100	-32.932	0.100
130.200	-41.541	0.100
130.300	8.569	0.100
130.400	-18.425	0.100
130.500	-21.626	0.100
130.600	-14.354	0.100
130.700	-21.967	0.100
130.800	-34.720	0.100
130.900	-19.804	0.100
131.000	-40.426	0.100
131.100	-32.002	0.100
131.200	-32.328	0.100
131.300	-45.759	0.100
131.400	-16.174	0.100
131.500	-13.786	0.100
131.600	-10.799	0.100
131.700	-29.651	0.100
131.800	-10.820	0.100
131.900	-41.441	0.100
132.000	-16.349	0.100
132.100	-12.051	0.100
132.200	-20.255	0.100
132.300	-17.185	0.100
132.400	-39.058	0.100
132.500	-20.502	0.100
132.600	-23.946	0.100
132.700	-25.925	0.100
132.800	-30.681	0.100
132.900	-27.480	0.100
133.000	-14.757	0.100
133.100	-23.864	0.100
133.200	-2.845	0.100
133.300	-35.580	0.100
133.400	-25.450	0.100
133.500	-23.852	0.100
133.600	2.847	0.100
133.700	-37.654	0.100
133.800	-16.618	0.100
133.900	-23.342	0.100
134.000	-15.234	0.100
134.100	-37.784	0.100
134.200	-34.078	0.100
134.300	-6.264	0.100
134.400	-48.001	0.100
134.500	-30.338	0.100
134.600	-54.997	0.100
134.700	-8.391	0.100
134.800	-22.767	0.100
134.900	-50.499	0.100
135.000	-23.857	0.100
135.100	-0.714	0.100
135.200	-14.446	0.100
135.300	-37.321	0.100
135.400	-10.564	0.100
135.500	-20.083	0.100
135.600	2.253	0.100
135.700	-31.538	0.100
135.800	-44.802	0.100
135.900	-26.042	0.100
136.000	-39.285	0.100
136.100	-33.104	0.100
136.200	-12.778	0.100
136.300	-14.833	0.100
136.400	-22.824	0.100
136.500	-15.896	0.100
136.600	-42.387	0.100
136.700	-26.030	0.100
136.800	-25.754	0.100
136.900	3.341	0.100
137.000	-24.029	0.100
137.100	-24.469	0.100
137.200	-32.253	0.100
137.300	1.069	0.100
137.400	-36.881	0.100
137.500	-33.592	0.100
137.600	-22.485	0.100
137.700	-11.253	0.100
137.800	-23.255	0.100
137.900	-49.587	0.100
138.000	-38.874	0.100
138.100	-16.267	0.100
138.200	-33.942	0.100
138.300	-4.253	0.100
138.400	-27.896	0.100
138.500	-19.864	0.100
138.600	-36.943	0.100
138.700	-22.697	0.100
138.800	-20.750	0.100
138.900	-10.356	0.100
139.000	-2.863	0.100
139.100	-42.908	0.100
139.200	-11.607	0.100
139.300	-26.851	0.100
139.400	-26.591	0.100
139.500	-21.831	0.100
139.600	-29.582	0.100
139.700	-32.302	0.100
139.800	-39.614	0.100
139.900	-13.800	0.100
140.000	-18.901	0.100
140.100	-5.510	0.100
140.200	-20.518	0.100
140.300	-31.980	0.100
140.400	-22.559	0.100
140.500	-7.740	0.100
140.600	-27.701	0.100
140.700	-11.227	0.100
140.800	-33.141	0.100
140.900	-28.039	0.100
141.000	-14.126	0.100
141.100	-36.971	0.100
141.200	-27.661	0.100
141.300	-29.799	0.100
141.400	-19.188	0.100
141.500	-43.102	0.100
141.600	-25.661	0.100
141.700	-27.731	0.100
141.800	-21.303	0.100
141.900	-6.490	0.100
142.000	-12.532	0.100
142.100	-23.730	0.100
142.200	-23.895	0.100
142.300	-15.981	0.100
142.400	-20.540	0.100
142.500	-26.828	0.100
142.600	-16.379	0.100
142.700	-25.793	0.100
142.800	-41.224	0.100
142.900	-14.105	0.100
143.000	-25.345	0.100
143.100	-30.318	0.100
143.200	-24.356	0.100
143.300	-11.216	0.100
143.400	-38.454	0.100
143.500	-37.324	0.100
143.600	-11.226	0.100
143.700	-19.189	0.100
143.800	-30.979	0.100
143.900	-9.539	0.100
144.000	-10.320	0.100
144.100	-27.278	0.100
144.200	-39.269	0.100
144.300	-13.986	0.100
144.400	-34.258	0.100
144.500	-18.079	0.100
144.600	-27.902	0.100
144.700	-32.723	0.100
144.800	-36.504	0.100
144.900	-12.298	0.100
145.000	-27.192	0.100
145.100	-42.507	0.100
145.200	-17.664	0.100
145.300	-24.797	0.100
145.400	-21.162	0.100
145.500	-35.706	0.100
145.600	-27.844	0.100
145.700	-15.002	0.100
145.800	-24.943	0.100
145.900	-9.508	0.100
146.000	-14.974	0.100
146.100	-31.059	0.100
146.200	-46.820	0.100
146.300	-26.408	0.100
146.400	-22.243	0.100
146.500	-22.585	0.100
146.600	-25.288	0.100
146.700	-0.748	0.100
146.800	-8.265	0.100
146.900	-58.225	0.100
147.000	-6.932	0.100
147.100	-17.520	0.100
147.200	-43.101	0.100
147.300	-27.198	0.100
147.400	-15.755	0.100
147.500	-28.849	0.100
147.600	-15.186	0.100
147.700	-17.145	0.100
147.800	-31.657	0.100
147.900	-37.775	0.100
148.000	-26.727	0.100
148.100	-39.567	0.100
148.200	-15.016	0.100
148.300	-27.992	0.100
148.400	-2.569	0.100
148.500	-7.429	0.100
148.600	-28.112	0.100
148.700	-23.537	0.100
148.800	-31.321	0.100
148.900	-32.321	0.100
149.000	-32.909	0.100
149.100	-24.763	0.100
149.200	-42.349	0.100
149.300	-25.720	0.100
149.400	-12.333	0.100
149.500	-43.220	0.100
149.600	-23.347	0.100
149.700	-8.997	0.100
149.800	-13.268	0.100
149.900	-19.368	0.100
150.000	-30.175	0.100
150.100	-46.181	0.100
150.200	-6.503	0.100
150.300	-24.999	0.100
150.400	-29.163	0.100
150.500	-52.675	0.100
150.600	-18.550	0.100
150.700	-18.914	0.100
150.800	-13.759	0.100
150.900	-2.710	0.100
151.000	-38.727	0.100
151.100	-13.893	0.100
151.200	-13.628	0.100
151.300	-3.648	0.100
151.400	-32.330	0.100
151.500	-16.836	0.100
151.600	-8.514	0.100
151.700	-16.162	0.100
151.800	-11.762	0.100
151.900	-31.267	0.100
152.000	-3.930	0.100
152.100	-14.843	0.100
152.200	-25.126	0.100
152.300	-33.586	0.100
152.400	-30.992	0.100
152.500	-29.474	0.100
152.600	-44.605	0.100
152.700	-15.844	0.100
152.800	-23.933	0.100
152.900	-9.897	0.100
153.000	-23.038	0.100
153.100	-34.934	0.100
153.200	-29.222	0.100
153.300	-21.761	0.100
153.400	-15.353	0.100
153.500	-17.182	0.100
153.600	-18.232	0.100
153.700	-5.652	0.100
153.800	-30.353	0.100
153.900	-51.878	0.100
154.000	-7.520	0.100
154.100	-6.978	0.100
154.200	-32.444	0.100
154.300	-14.795	0.100
154.400	-42.740	0.100
154.500	-8.266	0.100
154.600	-9.198	0.100
154.700	-34.324	0.100
154.800	-32.130	0.100
154.900	-27.969	0.100
155.000	-18.373	0.100
155.100	-40.026	0.100
155.200	-22.921	0.100
155.300	-12.014	0.100
155.400	-49.151	0.100
155.500	-45.443	0.100
155.600	-14.725	0.100
155.700	-26.440	0.100
155.800	-16.998	0.100
155.900	-13.840	0.100
156.000	-59.284	0.100
156.100	-30.279	0.100
156.200	-0.829	0.100
156.300	-8.417	0.100
156.400	-28.787	0.100
156.500	3.199	0.100
156.600	-20.333	0.100
156.700	-24.913	0.100
156.800	-19.834	0.100
156.900	-31.280	0.100
157.000	-9.383	0.100
157.100	-32.064	0.100
157.200	-40.560	0.100
157.300	-25.388	0.100
157.400	-15.192	0.100
157.500	-14.887	0.100
157.600	-10.554	0.100
157.700	-33.194	0.100
157.800	-12.420	0.100
157.900	-39.949	0.100
158.000	-25.041	0.100
158.100	-22.176	0.100
158.200	-28.435	0.100
158.300	-36.323	0.100
158.400	-30.012	0.100
158.500	-22.233	0.100
158.600	-35.708	0.100
158.700	-16.371	0.100
158.800	-21.794	0.100
158.900	-10.398	0.100
159.000	-34.875	0.100
159.100	-13.246	0.100
159.200	-47.663	0.100
159.300	-5.627	0.100
159.400	-12.379	0.100
159.500	-8.191	0.100
159.600	-33.968	0.100
159.700	-37.105	0.100
159.800	-24.692	0.100
159.900	-15.123	0.100
160.000	-32.764	0.100
160.100	6.376	0.100
160.200	4.427	0.100
160.300	-20.419	0.100
160.400	-32.134	0.100
160.500	-54.147	0.100
160.600	-28.576	0.100
160.700	10.648	0.100
160.800	-35.753	0.100
160.900	-8.881	0.100
161.000	-25.010	0.100
161.100	-13.453	0.100
161.200	-37.570	0.100
161.300	0.752	0.100
161.400	-32.422	0.100
161.500	-4.015	0.100
161.600	-27.762	0.100
161.700	-45.480	0.100
161.800	-27.467	0.100
161.900	-5.451	0.100
162.000	-27.887	0.100
162.100	-29.986	0.100
162.200	7.721	0.100
162.300	-5.486	0.100
162.400	-34.772	0.100
162.500	-14.754	0.100
162.600	-41.758	0.100
162.700	-22.612	0.100
162.800	-38.863	0.100
162.900	-22.800	0.100
163.000	-17.934	0.100
163.100	-26.762	0.100
163.200	-15.028	0.100
163.300	-29.616	0.100
163.400	1.531	0.100
163.500	-23.785	0.100
163.600	-18.393	0.100
163.700	-10.225	0.100
163.800	-15.915	0.100
163.900	-10.264	0.100
164.000	-26.636	0.100
164.100	-11.983	0.100
164.200	-34.217	0.100
164.300	-29.049	0.100
164.400	6.986	0.100
164.500	-16.733	0.100
164.600	-11.812	0.100
164.700	-30.113	0.100
164.800	-34.246	0.100
164.900	-40.869	0.100
165.000	-10.334	0.100
165.100	-15.311	0.100
165.200	-19.085	0.100
165.300	-48.596	0.100
165.400	-5.624	0.100
165.500	-30.069	0.100
165.600	-8.360	0.100
165.700	-11.522	0.100
165.800	-28.581	0.100
165.900	-1.891	0.100
166.000	-32.983	0.100
166.100	-30.492	0.100
166.200	-29.849	0.100
166.300	-22.008	0.100
166.400	-42.462	0.100
166.500	-24.676	0.100
166.600	-2.613	0.100
166.700	-11.383	0.100
166.800	-19.533	0.100
166.900	-1.288	0.100
167.000	-19.507	0.100
167.100	-13.324	0.100
167.200	3.134	0.100
167.300	-45.320	0.100
167.400	-26.779	0.100
167.500	-37.912	0.100
167.600	0.883	0.100
167.700	-6.704	0.100
167.800	-26.888	0.100
167.900	-20.496	0.100
168.000	-24.861	0.100
168.100	-23.401	0.100
168.200	-21.006	0.100
168.300	0.318	0.100
168.400	-28.992	0.100
168.500	-3.236	0.100
168.600	-10.664	0.100
168.700	-39.275	0.100
168.800	-21.346	0.100
168.900	17.858	0.100
169.000	-14.078	0.100
169.100	-2.376	0.100
169.200	-36.849	0.100
169.300	-24.650	0.100
169.400	-35.206	0.100
169.500	-8.535	0.100
169.600	-36.343	0.100
169.700	-34.028	0.100
169.800	-21.936	0.100
169.900	-0.494	0.100
170.000	-18.981	0.100
170.100	-25.774	0.100
170.200	-13.542	0.100
170.300	-32.806	0.100
170.400	5.262	0.100
170.500	-14.937	0.100
170.600	-17.154	0.100
170.700	-12.150	0.100
170.800	-25.346	0.100
170.900	-33.637	0.100
171.000	-30.242	0.100
171.100	7.583	0.100
171.200	-19.629	0.100
171.300	-31.536	0.100
171.400	-31.958	0.100
171.500	-25.421	0.100
171.600	-20.642	0.100
171.700	-3.700	0.100
171.800	-34.128	0.100
171.900	-31.413	0.100
172.000	-18.973	0.100
172.100	-25.300	0.100
172.200	-40.473	0.100
172.300	-14.966	0.100
172.400	-9.578	0.100
172.500	-28.381	0.100
172.600	-39.712	0.100
172.700	-4.691	0.100
172.800	-49.488	0.100
172.900	-7.650	0.100
173.000	-1.448	0.100
173.100	-14.228	0.100
173.200	-52.332	0.100
173.300	-10.006	0.100
173.400	-21.706	0.100
173.500	-8.817	0.100
173.600	-18.012	0.100
173.700	-4.142	0.100
173.800	-30.465	0.100
173.900	-14.995	0.100
174.000	-12.682	0.100
174.100	6.135	0.100
174.200	-62.349	0.100
174.300	-27.944	0.100
174.400	-17.875	0.100
174.500	-9.956	0.100
174.600	-13.913	0.100
174.700	-49.708	0.100
174.800	-33.768	0.100
174.900	-18.725	0.100
175.000	21.468	0.100
175.100	-18.270	0.100
175.200	-26.213	0.100
175.300	-42.640	0.100
175.400	-25.466	0.100
175.500	3.833	0.100
175.600	-6.606	0.100
175.700	-24.259	0.100
175.800	-32.611	0.100
175.900	-13.633	0.100
176.000	-40.508	0.100
176.100	-29.693	0.100
176.200	-27.946	0.100
176.300	-26.159	0.100
176.400	-26.901	0.100
176.500	-18.741	0.100
176.600	-17.543	0.100
176.700	-17.192	0.100
176.800	-18.251	0.100
176.900	-22.375	0.100
177.000	-6.054	0.100
177.100	-22.761	0.100
177.200	-39.463	0.100
177.300	-33.577	0.100
177.400	-27.473	0.100
177.500	-0.183	0.100
177.600	-28.050	0.100
177.700	-26.028	0.100
177.800	-13.912	0.100
177.900	-20.393	0.100
178.000	-17.416	0.100
178.100	-45.009	0.100
178.200	-15.628	0.100
178.300	-19.602	0.100
178.400	-28.351	0.100
178.500	-3.897	0.100
178.600	-22.606	0.100
178.700	-7.072	0.100
178.800	-8.405	0.100
178.900	-12.419	0.100
179.000	-44.486	0.100
179.100	-12.524	0.100
179.200	-7.475	0.100
179.300	-31.734	0.100
179.400	-4.187	0.100
179.500	-19.298	0.100
179.600	-34.108	0.100
179.700	-23.474	0.100
179.800	-25.900	0.100
179.900	-15.879	0.100
180.000	-4.493	0.100
180.100	-5.181	0.100
180.200	-17.463	0.100
180.300	-4.221	0.100
180.400	-19.155	0.100
180.500	-40.429	0.100
180.600	-1.458	0.100
180.700	-17.073	0.100
180.800	-34.319	0.100
180.900	-4.618	0.100
181.000	-23.139	0.100
181.100	7.097	0.100
181.200	-4.390	0.100
181.300	-11.675	0.100
181.400	-9.989	0.100
181.500	-30.786	0.100
181.600	-13.857	0.100
181.700	11.323	0.100
181.800	7.101	0.100
181.900	-12.719	0.100
182.000	-0.665	0.100
182.100	-13.382	0.100
182.200	-27.666	0.100
182.300	17.664	0.100
182.400	-7.638	0.100
182.500	13.251	0.100
182.600	-0.261	0.100
182.700	8.063	0.100
182.800	4.917	0.100
182.900	19.289	0.100
183.000	8.190	0.100
183.100	17.321	0.100
183.200	0.658	0.100
183.300	20.041	0.100
183.400	10.620	0.100
183.500	10.118	0.100
183.600	1.916	0.100
183.700	-3.013	0.100
183.800	15.034	0.100
183.900	2.388	0.100
184.000	2.078	0.100
184.100	2.896	0.100
184.200	23.410	0.100
184.300	20.060	0.100
184.400	-1.525	0.100
184.500	9.911	0.100
184.600	1.391	0.100
184.700	20.126	0.100
184.800	18.753	0.100
184.900	-2.658	0.100
185.000	-8.957	0.100
185.100	31.418	0.100
185.200	20.698	0.100
185.300	24.069	0.100
185.400	-4.473	0.100
185.500	-0.634	0.100
185.600	4.572	0.100
185.700	5.035	0.100
185.800	9.290	0.100
185.900	-2.164	0.100
186.000	17.072	0.100
186.100	-0.231	0.100
186.200	-11.621	0.100
186.300	7.581	0.100
186.400	2.517	0.100
186.500	4.722	0.100
186.600	9.714	0.100
186.700	-2.270	0.100
186.800	7.136	0.100
186.900	8.907	0.100
187.000	7.396	0.100
187.100	5.514	0.100
187.200	-3.394	0.100
187.300	29.514	0.100
187.400	29.537	0.100
187.500	-14.853	0.100
187.600	-31.292	0.100
187.700	21.722	0.100
187.800	29.430	0.100
187.900	14.820	0.100
188.000	18.257	0.100
188.100	12.017	0.100
188.200	1.705	0.100
188.300	12.209	0.100
188.400	19.683	0.100
188.500	17.996	0.100
188.600	22.133	0.100
188.700	14.486	0.100
188.800	9.624	0.100
188.900	-9.918	0.100
189.000	2.085	0.100
189.100	-12.490	0.100
189.200	34.859	0.100
189.300	4.540	0.100
189.400	10.328	0.100
189.500	10.067	0.100
189.600	-4.344	0.100
189.700	21.731	0.100
189.800	-15.364	0.100
189.900	16.154	0.100
190.000	25.437	0.100
190.100	10.597	0.100
190.200	8.813	0.100
190.300	19.063	0.100
190.400	-15.558	0.100
190.500	19.819	0.100
190.600	25.800	0.100
190.700	12.709	0.100
190.800	6.337	0.100
190.900	13.406	0.100
191.000	19.165	0.100
191.100	-11.342	0.100
191.200	11.463	0.100
191.300	20.332	0.100
191.400	24.797	0.100
191.500	11.595	0.100
191.600	12.864	0.100
191.700	16.325	0.100
191.800	33.873	0.100
191.900	20.950	0.100
192.000	-6.380	0.100
192.100	32.006	0.100
192.200	14.359	0.100
192.300	57.574	0.100
192.400	-22.977	0.100
192.500	-0.805	0.100
192.600	7.372	0.100
192.700	14.149	0.100
192.800	24.563	0.100
192.900	1.798	0.100
193.000	30.373	0.100
193.100	-8.674	0.100
193.200	35.113	0.100
193.300	-9.011	0.100
193.400	6.539	0.100
193.500	46.242	0.100
193.600	26.283	0.100
193.700	22.472	0.100
193.800	-6.925	0.100
193.900	-1.204	0.100
194.000	45.268	0.100
194.100	27.150	0.100
194.200	22.388	0.100
194.300	16.435	0.100
194.400	17.873	0.100
194.500	25.376	0.100
194.600	13.669	0.100
194.700	30.103	0.100
194.800	16.857	0.100
194.900	19.902	0.100
195.000	2.224	0.100
195.100	5.424	0.100
195.200	30.806	0.100
195.300	27.648	0.100
195.400	28.137	0.100
195.500	29.694	0.100
195.600	3.846	0.100
195.700	43.384	0.100
195.800	-2.739	0.100
195.900	9.089	0.100
196.000	22.596	0.100
196.100	16.926	0.100
196.200	15.792	0.100
196.300	32.574	0.100
196.400	20.571	0.100
196.500	33.748	0.100
196.600	3.010	0.100
196.700	4.830	0.100
196.800	9.059	0.100
196.900	54.596	0.100
197.000	58.314	0.100
197.100	18.096	0.100
197.200	25.655	0.100
197.300	-0.054	0.100
197.400	27.614	0.100
197.500	7.045	0.100
197.600	43.852	0.100
197.700	34.307	0.100
197.800	27.379	0.100
197.900	31.985	0.100
198.000	29.297	0.100
198.100	25.106	0.100
198.200	14.485	0.100
198.300	42.528	0.100
198.400	14.345	0.100
198.500	32.415	0.100
198.600	29.767	0.100
198.700	13.998	0.100
198.800	48.775	0.100
198.900	11.556	0.100
199.000	14.957	0.100
199.100	64.463	0.100
199.200	26.974	0.100
199.300	24.764	0.100
199.400	21.869	0.100
199.500	25.637	0.100
199.600	11.041	0.100
199.700	22.814	0.100
199.800	-6.209	0.100
199.900	21.808	0.100
200.000	23.927	0.100
200.100	34.775	0.100
200.200	23.591	0.100
200.300	9.693	0.100
200.400	39.607	0.100
200.500	33.052	0.100
200.600	24.039	0.100
200.700	28.007	0.100
200.800	19.771	0.100
200.900	37.228	0.100
201.000	22.290	0.100
201.100	40.434	0.100
201.200	40.187	0.100
201.300	28.833	0.100
201.400	14.339	0.100
201.500	11.225	0.100
201.600	12.187	0.100
201.700	26.737	0.100
201.800	24.355	0.100
201.900	42.897	0.100
202.000	13.863	0.100
202.100	34.833	0.100
202.200	22.506	0.100
202.300	9.724	0.100
202.400	36.227	0.100
202.500	9.617	0.100
202.600	28.346	0.100
202.700	9.507	0.100
202.800	48.138	0.100
202.900	33.432	0.100
203.000	18.643	0.100
203.100	40.166	0.100
203.200	22.721	0.100
203.300	28.833	0.100
203.400	37.467	0.100
203.500	43.593	0.100
203.600	14.332	0.100
203.700	30.422	0.100
203.800	5.291	0.100
203.900	31.832	0.100
204.000	28.300	0.100
204.100	48.989	0.100
204.200	12.364	0.100
204.300	24.228	0.100
204.400	43.154	0.100
204.500	21.199	0.100
204.600	31.191	0.100
204.700	7.952	0.100
204.800	41.184	0.100
204.900	38.169	0.100
205.000	14.400	0.100
205.100	35.533	0.100
205.200	41.760	0.100
205.300	27.707	0.100
205.400	30.332	0.100
205.500	34.520	0.100
205.600	3.715	0.100
205.700	35.842	0.100
205.800	45.396	0.100
205.900	30.358	0.100
206.000	40.027	0.100
206.100	6.691	0.100
206.200	42.761	0.100
206.300	26.176	0.100
206.400	26.495	0.100
206.500	28.935	0.100
206.600	19.620	0.100
206.700	16.261	0.100
206.800	29.396	0.100
206.900	24.932	0.100
207.000	24.379	0.100
207.100	12.558	0.100
207.200	1.077	0.100
207.300	50.927	0.100
207.400	34.414	0.100
207.500	38.376	0.100
207.600	19.602	0.100
207.700	27.471	0.100
207.800	32.445	0.100
207.900	40.775	0.100
208.000	25.364	0.100
208.100	53.650	0.100
208.200	40.953	0.100
208.300	35.374	0.100
208.400	13.066	0.100
208.500	21.457	0.100
208.600	29.075	0.100
208.700	22.345	0.100
208.800	24.051	0.100
208.900	40.841	0.100
209.000	50.637	0.100
209.100	18.695	0.100
209.200	18.203	0.100
209.300	50.244	0.100
209.400	15.003	0.100
209.500	23.849	0.100
209.600	25.643	0.100
209.700	44.004	0.100
209.800	34.731	0.100
209.900	8.405	0.100
210.000	29.014	0.100
210.100	37.653	0.100
210.200	30.042	0.100
210.300	44.023	0.100
210.400	28.158	0.100
210.500	48.434	0.100
210.600	20.980	0.100
210.700	21.269	0.100
210.800	21.221	0.100
210.900	39.124	0.100
211.000	20.277	0.100
211.100	76.314	0.100
211.200	22.963	0.100
211.300	10.269	0.100
211.400	12.439	0.100
211.500	30.136	0.100
211.600	31.137	0.100
211.700	38.377	0.100
211.800	14.807	0.100
211.900	37.391	0.100
212.000	21.348	0.100
212.100	24.398	0.100
212.200	25.802	0.100
212.300	36.081	0.100
212.400	43.218	0.100
212.500	33.880	0.100
212.600	20.825	0.100
212.700	27.553	0.100
212.800	25.889	0.100
212.900	16.925	0.100
213.000	7.398	0.100
213.100	31.612	0.100
213.200	45.925	0.100
213.300	17.149	0.100
213.400	22.882	0.100
213.500	40.091	0.100
213.600	46.107	0.100
213.700	11.759	0.100
213.800	23.437	0.100
213.900	16.991	0.100
214.000	52.417	0.100
214.100	48.671	0.100
214.200	17.917	0.100
214.300	5.557	0.100
214.400	27.214	0.100
214.500	23.616	0.100
214.600	59.596	0.100
214.700	8.118	0.100
214.800	12.090	0.100
214.900	40.692	0.100
215.000	32.667	0.100
215.100	33.758	0.100
215.200	38.401	0.100
215.300	36.506	0.100
215.400	23.977	0.100
215.500	19.216	0.100
215.600	33.037	0.100
215.700	20.841	0.100
215.800	50.029	0.100
215.900	16.808	0.100
216.000	41.495	0.100
216.100	34.480	0.100
216.200	26.128	0.100
216.300	2.300	0.100
216.400	67.844	0.100
216.500	37.076	0.100
216.600	33.625	0.100
216.700	21.009	0.100
216.800	28.297	0.100
216.900	21.966	0.100
217.000	20.987	0.100
217.100	39.276	0.100
217.200	13.610	0.100
217.300	37.864	0.100
217.400	39.890	0.100
217.500	37.063	0.100
217.600	17.187	0.100
217.700	34.559	0.100
217.800	8.953	0.100
217.900	46.310	0.100
218.000	8.979	0.100
218.100	14.666	0.100
218.200	44.338	0.100
218.300	41.449	0.100
218.400	28.419	0.100
218.500	21.323	0.100
218.600	40.689	0.100
218.700	31.835	0.100
218.800	19.470	0.100
218.900	11.138	0.100
219.000	41.408	0.100
219.100	29.612	0.100
219.200	46.514	0.100
219.300	11.925	0.100
219.400	48.983	0.100
219.500	36.976	0.100
219.600	28.713	0.100
219.700	33.333	0.100
219.800	23.240	0.100
219.900	27.787	0.100
220.000	24.328	0.100
220.100	8.629	0.100
220.200	32.431	0.100
220.300	36.599	0.100
220.400	23.956	0.100
220.500	26.711	0.100
220.600	53.929	0.100
220.700	34.891	0.100
220.800	35.451	0.100
220.900	31.975	0.100
221.000	17.788	0.100
221.100	21.423	0.100
221.200	28.759	0.100
221.300	41.228	0.100
221.400	41.020	0.100
221.500	30.665	0.100
221.600	53.777	0.100
221.700	28.097	0.100
221.800	23.935	0.100
221.900	32.055	0.100
222.000	15.477	0.100
222.100	30.760	0.100
222.200	11.079	0.100
222.300	47.026	0.100
222.400	30.519	0.100
222.500	17.957	0.100
222.600	41.441	0.100
222.700	29.898	0.100
222.800	16.211	0.100
222.900	14.207	0.100
223.000	42.244	0.100
223.100	42.142	0.100
223.200	34.057	0.100
223.300	20.537	0.100
223.400	18.980	0.100
223.500	39.196	0.100
223.600	61.634	0.100
223.700	33.661	0.100
223.800	46.523	0.100
223.900	25.459	0.100
224.000	30.697	0.100
224.100	46.093	0.100
224.200	35.675	0.100
224.300	0.082	0.100
224.400	13.479	0.100
224.500	28.760	0.100
224.600	33.339	0.100
224.700	33.883	0.100
224.800	46.194	0.100
224.900	38.022	0.100
225.000	29.683	0.100
225.100	54.453	0.100
225.200	40.253	0.100
225.300	-3.147	0.100
225.400	26.698	0.100
225.500	34.716	0.100
225.600	24.636	0.100
225.700	32.523	0.100
225.800	22.759	0.100
225.900	35.587	0.100
226.000	29.210	0.100
226.100	37.276	0.100
226.200	59.616	0.100
226.300	14.581	0.100
226.400	-12.116	0.100
226.500	41.272	0.100
226.600	20.211	0.100
226.700	57.153	0.100
226.800	37.627	0.100
226.900	29.390	0.100
227.000	30.390	0.100
227.100	35.639	0.100
227.200	27.941	0.100
227.300	49.028	0.100
227.400	26.066	0.100
227.500	31.928	0.100
227.600	25.795	0.100
227.700	23.177	0.100
227.800	36.659	0.100
227.900	32.759	0.100
228.000	-9.558	0.100
228.100	49.084	0.100
228.200	41.789	0.100
228.300	45.030	0.100
228.400	30.219	0.100
228.500	39.770	0.100
228.600	27.779	0.100
228.700	36.866	0.100
228.800	44.985	0.100
228.900	45.214	0.100
229.000	47.724	0.100
229.100	29.796	0.100
229.200	17.936	0.100
229.300	42.596	0.100
229.400	21.801	0.100
229.500	17.896	0.100
229.600	45.458	0.100
229.700	3.177	0.100
229.800	24.358	0.100
229.900	35.212	0.100
230.000	32.843	0.100
230.100	20.991	0.100
230.200	23.297	0.100
230.300	29.300	0.100
230.400	40.825	0.100
230.500	16.691	0.100
230.600	29.282	0.100
230.700	34.653	0.100
230.800	37.477	0.100
230.900	4.195	0.100
231.000	12.875	0.100
231.100	54.043	0.100
231.200	44.101	0.100
231.300	26.535	0.100
231.400	18.077	0.100
231.500	50.932	0.100
231.600	40.984	0.100
231.700	39.821	0.100
231.800	16.455	0.100
231.900	24.477	0.100
232.000	43.915	0.100
232.100	1.266	0.100
232.200	31.482	0.100
232.300	32.546	0.100
232.400	37.415	0.100
232.500	42.075	0.100
232.600	46.381	0.100
232.700	2.356	0.100
232.800	34.348	0.100
232.900	48.916	0.100
233.000	41.296	0.100
233.100	34.281	0.100
233.200	19.739	0.100
233.300	25.545	0.100
233.400	29.552	0.100
233.500	26.837	0.100
233.600	43.396	0.100
233.700	25.527	0.100
233.800	30.864	0.100
233.900	17.088	0.100
234.000	36.178	0.100
234.100	30.073	0.100
234.200	32.041	0.100
234.300	14.987	0.100
234.400	10.002	0.100
234.500	31.962	0.100
234.600	55.178	0.100
234.700	10.181	0.100
234.800	53.003	0.100
234.900	-9.775	0.100
235.000	46.107	0.100
235.100	25.635	0.100
235.200	50.770	0.100
235.300	33.574	0.100
235.400	34.380	0.100
235.500	15.607	0.100
235.600	31.175	0.100
235.700	37.314	0.100
235.800	29.097	0.100
235.900	28.555	0.100
236.000	24.994	0.100
236.100	36.137	0.100
236.200	9.782	0.100
236.300	20.125	0.100
236.400	44.947	0.100
236.500	36.777	0.100
236.600	37.933	0.100
236.700	28.199	0.100
236.800	26.256	0.100
236.900	23.449	0.100
237.000	28.899	0.100
237.100	25.358	0.100
237.200	31.718	0.100
237.300	48.920	0.100
237.400	38.617	0.100
237.500	29.020	0.100
237.600	25.974	0.100
237.700	20.171	0.100
237.800	51.549	0.100
237.900	17.410	0.100
238.000	44.332	0.100
238.100	28.908	0.100
238.200	18.360	0.100
238.300	5.905	0.100
238.400	24.726	0.100
238.500	31.648	0.100
238.600	51.376	0.100
238.700	29.157	0.100
238.800	20.398	0.100
238.900	17.123	0.100
239.000	39.898	0.100
239.100	37.190	0.100
239.200	18.541	0.100
239.300	20.941	0.100
239.400	38.709	0.100
239.500	17.069	0.100
239.600	34.809	0.100
239.700	37.293	0.100
239.800	16.468	0.100
239.900	36.646	0.100
240.000	46.040	0.100
240.100	23.617	0.100
240.200	19.447	0.100
240.300	42.220	0.100
240.400	14.775	0.100
240.500	41.256	0.100
240.600	45.973	0.100
240.700	37.400	0.100
240.800	24.642	0.100
240.900	39.677	0.100
241.000	4.835	0.100
241.100	7.255	0.100
241.200	24.766	0.100
241.300	13.317	0.100
241.400	6.559	0.100
241.500	9.945	0.100
241.600	17.896	0.100
241.700	12.676	0.100
241.800	26.048	0.100
241.900	20.474	0.100
242.000	17.456	0.100
242.100	14.690	0.100
242.200	16.692	0.100
242.300	11.284	0.100
242.400	19.688	0.100
242.500	-12.421	0.100
242.600	-0.586	0.100
242.700	14.777	0.100
242.800	-2.841	0.100
242.900	3.654	0.100
243.000	-8.015	0.100
243.100	-6.248	0.100
243.200	22.411	0.100
243.300	-6.095	0.100
243.400	-36.007	0.100
243.500	-5.796	0.100
243.600	14.879	0.100
243.700	7.663	0.100
243.800	2.445	0.100
243.900	-13.465	0.100
244.000	6.801	0.100
244.100	0.016	0.100
244.200	-22.052	0.100
244.300	-25.738	0.100
244.400	8.970	0.100
244.500	-25.259	0.100
244.600	-3.663	0.100
244.700	1.850	0.100
244.800	6.464	0.100
244.900	-4.149	0.100
245.000	-22.948	0.100
245.100	7.457	0.100
245.200	1.875	0.100
245.300	-15.472	0.100
245.400	-1.956	0.100
245.500	-30.774	0.100
245.600	5.362	0.100
245.700	-2.946	0.100
245.800	-0.523	0.100
245.900	-35.231	0.100
246.000	-16.667	0.100
246.100	-5.997	0.100
246.200	-17.185	0.100
246.300	-11.965	0.100
246.400	-35.925	0.100
246.500	-35.054	0.100
246.600	-38.534	0.100
246.700	-21.239	0.100
246.800	20.043	0.100
246.900	20.465	0.100
247.000	-21.802	0.100
247.100	-26.611	0.100
247.200	-23.328	0.100
247.300	0.027	0.100
247.400	-8.398	0.100
247.500	-22.789	0.100
247.600	-0.976	0.100
247.700	-21.989	0.100
247.800	-14.569	0.100
247.900	-20.601	0.100
248.000	-38.656	0.100
248.100	-14.769	0.100
248.200	20.707	0.100
248.300	-15.957	0.100
248.400	-5.467	0.100
248.500	-21.522	0.100
248.600	-15.322	0.100
248.700	3.790	0.100
248.800	-24.400	0.100
248.900	-5.688	0.100
249.000	10.973	0.100
249.100	-18.926	0.100
249.200	-21.751	0.100
249.300	1.505	0.100
249.400	-0.688	0.100
249.500	-12.368	0.100
249.600	2.388	0.100
249.700	-16.665	0.100
249.800	-32.885	0.100
249.900	10.589	0.100
250.000	0.487	0.100
250.100	-11.568	0.100
250.200	-21.654	0.100
250.300	6.439	0.100
250.400	-20.754	0.100
250.500	-4.754	0.100
250.600	15.249	0.100
250.700	-20.166	0.100
250.800	3.144	0.100
250.900	-11.283	0.100
251.000	-26.516	0.100
251.100	-17.863	0.100
251.200	-11.595	0.100
251.300	-9.811	0.100
251.400	-4.624	0.100
251.500	-41.051	0.100
251.600	-11.950	0.100
251.700	0.877	0.100
251.800	-31.147	0.100
251.900	7.602	0.100
252.000	2.642	0.100
252.100	-22.150	0.100
252.200	8.007	0.100
252.300	-0.045	0.100
252.400	-15.744	0.100
252.500	-9.181	0.100
252.600	-21.501	0.100
252.700	-33.594	0.100
252.800	-2.954	0.100
252.900	5.732	0.100
253.000	-20.719	0.100
253.100	-12.365	0.100
253.200	-22.916	0.100
253.300	-8.247	0.100
253.400	-11.394	0.100
253.500	-2.095	0.100
253.600	-11.583	0.100
253.700	3.472	0.100
253.800	-21.753	0.100
253.900	2.554	0.100
254.000	-7.943	0.100
254.100	-27.279	0.100
254.200	-4.129	0.100
254.300	-6.777	0.100
254.400	16.496	0.100
254.500	-18.334	0.100
254.600	-38.348	0.100
254.700	-42.437	0.100
254.800	-1.889	0.100
254.900	-20.154	0.100
255.000	-28.101	0.100
255.100	-29.833	0.100
255.200	29.190	0.100
255.300	-15.573	0.100
255.400	-19.344	0.100
255.500	5.230	0.100
255.600	-32.076	0.100
255.700	-14.185	0.100
255.800	-27.342	0.100
255.900	13.209	0.100
256.000	-7.262	0.100
256.100	-19.543	0.100
256.200	-27.776	0.100
256.300	-30.456	0.100
256.400	7.863	0.100
256.500	1.268	0.100
256.600	3.474	0.100
256.700	-2.779	0.100
256.800	-7.551	0.100
256.900	-22.438	0.100
257.000	-17.450	0.100
257.100	4.077	0.100
257.200	-18.477	0.100
257.300	-2.942	0.100
257.400	-0.952	0.100
257.500	-0.780	0.100
257.600	-26.310	0.100
257.700	-0.644	0.100
257.800	-8.163	0.100
257.900	12.703	0.100
258.000	-22.271	0.100
258.100	-10.625	0.100
258.200	-27.106	0.100
258.300	-4.349	0.100
258.400	-19.043	0.100
258.500	-14.520	0.100
258.600	-11.612	0.100
258.700	8.766	0.100
258.800	-25.394	0.100
258.900	-7.774	0.100
259.000	-17.813	0.100
259.100	-29.422	0.100
259.200	-5.314	0.100
259.300	-4.991	0.100
259.400	-4.486	0.100
259.500	-19.732	0.100
259.600	-10.899	0.100
259.700	-25.429	0.100
259.800	-1.069	0.100
259.900	-45.701	0.100
260.000	-9.535	0.100
260.100	-39.069	0.100
260.200	-14.284	0.100
260.300	-13.310	0.100
260.400	-12.301	0.100
260.500	2.598	0.100
260.600	-30.402	0.100
260.700	-22.953	0.100
260.800	-10.864	0.100
260.900	-12.655	0.100
261.000	-31.507	0.100
261.100	-1.642	0.100
261.200	-4.321	0.100
261.300	-37.882	0.100
261.400	-21.636	0.100
261.500	4.752	0.100
261.600	-13.358	0.100
261.700	-11.471	0.100
261.800	-14.124	0.100
261.900	-4.891	0.100
262.000	-13.390	0.100
262.100	-22.278	0.100
262.200	-22.981	0.100
262.300	-24.464	0.100
262.400	-19.441	0.100
262.500	-10.816	0.100
262.600	-17.188	0.100
262.700	-22.521	0.100
262.800	-17.435	0.100
262.900	-1.803	0.100
263.000	-18.474	0.100
263.100	-17.037	0.100
263.200	-15.085	0.100
263.300	-18.220	0.100
263.400	-9.274	0.100
263.500	-38.864	0.100
263.600	12.470	0.100
263.700	-34.517	0.100
263.800	-34.846	0.100
263.900	12.566	0.100
264.000	-18.149	0.100
264.100	-19.988	0.100
264.200	-12.378	0.100
264.300	-4.825	0.100
264.400	-33.268	0.100
264.500	-44.105	0.100
264.600	-28.374	0.100
264.700	-7.638	0.100
264.800	-35.673	0.100
264.900	-17.791	0.100
265.000	-12.586	0.100
265.100	-15.136	0.100
265.200	3.596	0.100
265.300	-12.975	0.100
265.400	4.988	0.100
265.500	-14.983	0.100
265.600	-15.013	0.100
265.700	-14.575	0.100
265.800	-45.238	0.100
265.900	-30.188	0.100
266.000	2.841	0.100
266.100	-47.876	0.100
266.200	-4.636	0.100
266.300	3.804	0.100
266.400	-30.514	0.100
266.500	-6.385	0.100
266.600	9.406	0.100
266.700	-21.370	0.100
266.800	-26.214	0.100
266.900	-14.413	0.100
267.000	-22.806	0.100
267.100	-21.010	0.100
267.200	-14.563	0.100
267.300	-32.692	0.100
267.400	-25.982	0.100
267.500	-4.845	0.100
267.600	-21.853	0.100
267.700	-29.201	0.100
267.800	-12.463	0.100
267.900	2.535	0.100
268.000	-24.886	0.100
268.100	-21.913	0.100
268.200	-28.622	0.100
268.300	-23.851	0.100
268.400	-30.427	0.100
268.500	-22.165	0.100
268.600	-27.519	0.100
268.700	-12.190	0.100
268.800	-24.225	0.100
268.900	0.027	0.100
269.000	-24.359	0.100
269.100	-19.163	0.100
269.200	-40.094	0.100
269.300	-18.179	0.100
269.400	-31.430	0.100
269.500	1.616	0.100
269.600	-39.944	0.100
269.700	-20.676	0.100
269.800	-23.208	0.100
269.900	-9.104	0.100
270.000	-9.707	0.100
270.100	-21.844	0.100
270.200	-19.563	0.100
270.300	-38.017	0.100
270.400	-10.017	0.100
270.500	-6.296	0.100
270.600	-22.504	0.100
270.700	-34.815	0.100
270.800	-10.497	0.100
270.900	-27.313	0.100
271.000	-26.660	0.100
271.100	-12.268	0.100
271.200	-14.725	0.100
271.300	-9.468	0.100
271.400	-43.460	0.100
271.500	-21.749	0.100
271.600	-10.262	0.100
271.700	-3.097	0.100
271.800	-26.730	0.100
271.900	-10.615	0.100
272.000	-41.893	0.100
272.100	-24.812	0.100
272.200	-17.894	0.100
272.300	-44.518	0.100
272.400	-17.865	0.100
272.500	-29.415	0.100
272.600	-11.792	0.100
272.700	-16.155	0.100
272.800	-29.573	0.100
272.900	-35.166	0.100
273.000	-23.864	0.100
273.100	0.896	0.100
273.200	-12.471	0.100
273.300	-9.690	0.100
273.400	-20.158	0.100
273.500	-17.672	0.100
273.600	-21.855	0.100
273.700	-32.797	0.100
273.800	-13.625	0.100
273.900	-14.058	0.100
274.000	-11.889	0.100
274.100	-39.747	0.100
274.200	-36.114	0.100
274.300	-21.358	0.100
274.400	-13.916	0.100
274.500	-36.600	0.100
274.600	-24.656	0.100
274.700	-16.780	0.100
274.800	-16.876	0.100
274.900	-11.773	0.100
275.000	-26.614	0.100
275.100	-20.288	0.100
275.200	-9.309	0.100
275.300	-28.022	0.100
275.400	-7.024	0.100
275.500	-17.274	0.100
275.600	-2.577	0.100
275.700	-33.936	0.100
275.800	-51.928	0.100
275.900	-12.305	0.100
276.000	1.918	0.100
276.100	-17.536	0.100
276.200	-12.051	0.100
276.300	-41.882	0.100
276.400	-20.719	0.100
276.500	-18.535	0.100
276.600	-21.518	0.100
276.700	-27.065	0.100
276.800	-46.792	0.100
276.900	-19.722	0.100
277.000	-21.331	0.100
277.100	-20.655	0.100
277.200	-12.314	0.100
277.300	-48.384	0.100
277.400	-34.170	0.100
277.500	-17.563	0.100
277.600	-19.625	0.100
277.700	-19.603	0.100
277.800	-20.366	0.100
277.900	-15.892	0.100
278.000	-17.009	0.100
278.100	-35.402	0.100
278.200	-37.759	0.100
278.300	-5.703	0.100
278.400	-28.323	0.100
278.500	-37.863	0.100
278.600	-37.131	0.100
278.700	-16.834	0.100
278.800	7.526	0.100
278.900	-19.826	0.100
279.000	-45.661	0.100
279.100	-25.778	0.100
279.200	-8.902	0.100
279.300	-30.134	0.100
279.400	-37.275	0.100
279.500	-22.219	0.100
279.600	-8.295	0.100
279.700	-36.960	0.100
279.800	-36.725	0.100
279.900	-17.983	0.100
280.000	-28.471	0.100
280.100	-17.592	0.100
280.200	-19.732	0.100
280.300	-2.025	0.100
280.400	-27.041	0.100
280.500	-24.078	0.100
280.600	-10.000	0.100
280.700	-0.541	0.100
280.800	-13.554	0.100
280.900	-20.214	0.100
281.000	-22.079	0.100
281.100	-34.192	0.100
281.200	-24.904	0.100
281.300	-34.795	0.100
281.400	-19.180	0.100
281.500	-19.139	0.100
281.600	-24.363	0.100
281.700	-27.780	0.100
281.800	-19.512	0.100
281.900	-46.321	0.100
282.000	-36.745	0.100
282.100	-18.011	0.100
282.200	-3.489	0.100
282.300	-30.591	0.100
282.400	-27.389	0.100
282.500	-14.085	0.100
282.600	-15.514	0.100
282.700	-32.890	0.100
282.800	-16.804	0.100
282.900	-36.187	0.100
283.000	-4.522	0.100
283.100	-6.151	0.100
283.200	-11.299	0.100
283.300	-25.508	0.100
283.400	-18.493	0.100
283.500	-44.713	0.100
283.600	-11.858	0.100
283.700	-18.144	0.100
283.800	-9.572	0.100
283.900	-8.240	0.100
284.000	-38.234	0.100
284.100	-27.096	0.100
284.200	-12.909	0.100
284.300	-36.258	0.100
284.400	-28.058	0.100
284.500	-7.169	0.100
284.600	-32.959	0.100
284.700	-29.806	0.100
284.800	-26.102	0.100
284.900	-38.071	0.100
285.000	-9.598	0.100
285.100	-13.954	0.100
285.200	-24.666	0.100
285.300	-20.153	0.100
285.400	-42.750	0.100
285.500	-12.653	0.100
285.600	-19.790	0.100
285.700	-26.940	0.100
285.800	6.458	0.100
285.900	-38.992	0.100
286.000	-51.539	0.100
286.100	-24.028	0.100
286.200	-0.570	0.100
286.300	-35.838	0.100
286.400	-12.120	0.100
286.500	-23.407	0.100
286.600	-22.007	0.100
286.700	-18.470	0.100
286.800	-36.046	0.100
286.900	-32.834	0.100
287.000	-28.559	0.100
287.100	-12.262	0.100
287.200	-25.007	0.100
287.300	-40.669	0.100
287.400	4.098	0.100
287.500	-38.740	0.100
287.600	-29.474	0.100
287.700	-51.526	0.100
287.800	-15.005	0.100
287.900	-30.872	0.100
288.000	-40.243	0.100
288.100	-22.868	0.100
288.200	-24.825	0.100
288.300	-22.773	0.100
288.400	-17.941	0.100
288.500	-17.506	0.100
288.600	-22.810	0.100
288.700	-40.808	0.100
288.800	-20.661	0.100
288.900	-21.234	0.100
289.000	-17.326	0.100
289.100	-63.223	0.100
289.200	-9.460	0.100
289.300	-34.102	0.100
289.400	-31.752	0.100
289.500	-21.542	0.100
289.600	-12.154	0.100
289.700	-24.970	0.100
289.800	-44.970	0.100
289.900	-27.321	0.100
290.000	1.481	0.100
290.100	-28.958	0.100
290.200	-32.506	0.100
290.300	-26.592	0.100
290.400	-27.439	0.100
290.500	-11.587	0.100
290.600	-16.609	0.100
290.700	-9.364	0.100
290.800	-37.402	0.100
290.900	-32.687	0.100
291.000	-4.464	0.100
291.100	-6.077	0.100
291.200	-37.754	0.100
291.300	-26.596	0.100
291.400	-35.214	0.100
291.500	-47.076	0.100
291.600	-16.916	0.100
291.700	-32.711	0.100
291.800	-35.189	0.100
291.900	5.014	0.100
292.000	-20.480	0.100
292.100	-8.983	0.100
292.200	-24.216	0.100
292.300	-25.528	0.100
292.400	-37.626	0.100
292.500	2.185	0.100
292.600	-23.851	0.100
292.700	-7.668	0.100
292.800	-19.634	0.100
292.900	-13.539	0.100
293.000	-28.007	0.100
293.100	-27.010	0.100
293.200	-13.835	0.100
293.300	-42.957	0.100
293.400	-25.931	0.100
293.500	-29.669	0.100
293.600	-29.522	0.100
293.700	-27.638	0.100
293.800	-25.243	0.100
293.900	-32.601	0.100
294.000	-10.542	0.100
294.100	-20.825	0.100
294.200	-22.397	0.100
294.300	-10.619	0.100
294.400	-6.221	0.100
294.500	-39.167	0.100
294.600	-24.823	0.100
294.700	-38.010	0.100
294.800	-12.274	0.100
294.900	-27.545	0.100
295.000	-23.441	0.100
295.100	-32.465	0.100
295.200	-21.230	0.100
295.300	-4.545	0.100
295.400	-48.934	0.100
295.500	-12.504	0.100
295.600	-10.674	0.100
295.700	-20.297	0.100
295.800	-37.205	0.100
295.900	-32.988	0.100
296.000	-17.476	0.100
296.100	-37.593	0.100
296.200	-6.926	0.100
296.300	-19.343	0.100
296.400	-12.418	0.100
296.500	-34.923	0.100
296.600	-27.145	0.100
296.700	-38.111	0.100
296.800	-3.717	0.100
296.900	-29.952	0.100
297.000	-21.847	0.100
297.100	-33.850	0.100
297.200	-37.541	0.100
297.300	-2.063	0.100
297.400	-17.445	0.100
297.500	-6.301	0.100
297.600	-29.862	0.100
297.700	-25.867	0.100
297.800	-29.012	0.100
297.900	-20.809	0.100
298.000	-30.031	0.100
298.100	-19.854	0.100
298.200	-28.974	0.100
298.300	-35.555	0.100
298.400	2.894	0.100
298.500	-16.523	0.100
298.600	-18.080	0.100
298.700	-29.255	0.100
298.800	15.005	0.100
298.900	-58.001	0.100
299.000	-16.507	0.100
299.100	-49.261	0.100
299.200	-42.125	0.100
299.300	-23.541	0.100
299.400	-19.947	0.100
299.500	-19.632	0.100
299.600	-12.917	0.100
299.700	-33.090	0.100
299.800	-24.937	0.100
299.900	-45.938	0.100
300.000	-13.894	0.100
300.100	-44.967	0.100
300.200	-36.552	0.100
300.300	-15.484	0.100
300.400	-8.018	0.100
300.500	-45.845	0.100
300.600	-25.265	0.100
300.700	-14.116	0.100
300.800	-19.732	0.100
300.900	-27.993	0.100
301.000	-17.041	0.100
301.100	-32.214	0.100
301.200	-6.451	0.100
301.300	-42.903	0.100
301.400	-22.374	0.100
301.500	-36.978	0.100
301.600	-14.238	0.100
301.700	-10.053	0.100
301.800	-21.619	0.100
301.900	-21.610	0.100
302.000	-12.016	0.100
302.100	-22.324	0.100
302.200	-30.496	0.100
302.300	-23.608	0.100
302.400	-25.495	0.100
302.500	-10.853	0.100
302.600	-60.402	0.100
302.700	-15.885	0.100
302.800	-25.527	0.100
302.900	-39.426	0.100
303.000	-31.025	0.100
303.100	-3.121	0.100
303.200	-14.048	0.100
303.300	0.129	0.100
303.400	-54.061	0.100
303.500	-2.468	0.100
303.600	-15.488	0.100
303.700	-19.345	0.100
303.800	-48.589	0.100
303.900	-23.702	0.100
304.000	-21.866	0.100
304.100	-4.426	0.100
304.200	-31.724	0.100
304.300	-25.225	0.100
304.400	-29.305	0.100
304.500	-33.680	0.100
304.600	-17.107	0.100
304.700	-25.807	0.100
304.800	-10.046	0.100
304.900	0.074	0.100
305.000	-18.801	0.100
305.100	-17.629	0.100
305.200	-46.519	0.100
305.300	-36.163	0.100
305.400	-16.318	0.100
305.500	-0.133	0.100
305.600	-13.026	0.100
305.700	-26.612	0.100
305.800	-12.279	0.100
305.900	-31.284	0.100
306.000	-10.966	0.100
306.100	-21.687	0.100
306.200	-13.128	0.100
306.300	-22.619	0.100
306.400	-17.271	0.100
306.500	-22.152	0.100
306.600	-17.371	0.100
306.700	-21.756	0.100
306.800	-17.057	0.100
306.900	-24.092	0.100
307.000	-32.863	0.100
307.100	-32.123	0.100
307.200	6.198	0.100
307.300	-23.821	0.100
307.400	-34.951	0.100
307.500	-16.713	0.100
307.600	-26.265	0.100
307.700	-5.833	0.100
307.800	-32.513	0.100
307.900	-39.272	0.100
308.000	-30.881	0.100
308.100	-41.968	0.100
308.200	-21.862	0.100
308.300	-15.642	0.100
308.400	-10.633	0.100
308.500	-23.130	0.100
308.600	-18.780	0.100
308.700	-26.420	0.100
308.800	-7.222	0.100
308.900	-46.236	0.100
309.000	-31.042	0.100
309.100	-7.594	0.100
309.200	-14.341	0.100
309.300	-26.186	0.100
309.400	-13.864	0.100
309.500	-47.040	0.100
309.600	-18.371	0.100
309.700	-19.840	0.100
309.800	-20.643	0.100
309.900	-19.832	0.100
310.000	-26.067	0.100
310.100	-58.199	0.100
310.200	-7.632	0.100
310.300	-21.868	0.100
310.400	-10.998	0.100
310.500	-52.654	0.100
310.600	2.749	0.100
310.700	-31.785	0.100
310.800	-10.499	0.100
310.900	-18.168	0.100
311.000	1.826	0.100
311.100	-39.651	0.100
311.200	-5.677	0.100
311.300	-20.744	0.100
311.400	-42.645	0.100
311.500	-16.084	0.100
311.600	-26.528	0.100
311.700	-28.984	0.100
311.800	3.604	0.100
311.900	-33.316	0.100
312.000	-40.907	0.100
312.100	-7.897	0.100
312.200	-24.101	0.100
312.300	-15.290	0.100
312.400	-13.776	0.100
312.500	-0.835	0.100
312.600	-14.367	0.100
312.700	-25.477	0.100
312.800	-25.310	0.100
312.900	-27.707	0.100
313.000	-21.786	0.100
313.100	-27.628	0.100
313.200	-35.346	0.100
313.300	-15.519	0.100
313.400	-13.723	0.100
313.500	-14.787	0.100
313.600	-21.403	0.100
313.700	-14.151	0.100
313.800	-36.788	0.100
313.900	-6.315	0.100
314.000	-30.517	0.100
314.100	-12.950	0.100
314.200	-29.144	0.100
314.300	-22.515	0.100
314.400	-30.751	0.100
314.500	-46.454	0.100
314.600	-34.666	0.100
314.700	-2.773	0.100
314.800	-25.164	0.100
314.900	-3.891	0.100
315.000	-21.509	0.100
315.100	-51.234	0.100
315.200	-29.776	0.100
315.300	-9.518	0.100
315.400	-11.904	0.100
315.500	-18.003	0.100
315.600	-25.522	0.100
315.700	1.224	0.100
315.800	-10.923	0.100
315.900	-14.503	0.100
316.000	-47.035	0.100
316.100	-15.621	0.100
316.200	-19.635	0.100
316.300	-9.288	0.100
316.400	-23.891	0.100
316.500	-10.028	0.100
316.600	-38.444	0.100
316.700	-23.185	0.100
316.800	6.285	0.100
316.900	-9.490	0.100
317.000	-45.852	0.100
317.100	-7.499	0.100
317.200	-40.834	0.100
317.300	-32.917	0.100
317.400	-8.559	0.100
317.500	-26.935	0.100
317.600	-15.034	0.100
317.700	-38.033	0.100
317.800	-8.436	0.100
317.900	-42.938	0.100
318.000	-9.739	0.100
318.100	-18.972	0.100
318.200	-20.714	0.100
318.300	-28.536	0.100
318.400	-14.666	0.100
318.500	-34.921	0.100
318.600	-32.457	0.100
318.700	-11.363	0.100
318.800	-17.818	0.100
318.900	-22.166	0.100
319.000	-13.573	0.100
319.100	-6.827	0.100
319.200	-15.615	0.100
319.300	-23.891	0.100
319.400	-20.875	0.100
319.500	-19.760	0.100
319.600	-15.437	0.100
319.700	-36.507	0.100
319.800	-36.006	0.100
319.900	1.138	0.100
320.000	-34.366	0.100
320.100	-27.769	0.100
320.200	-30.689	0.100
320.300	-7.140	0.100
320.400	-24.337	0.100
320.500	-9.608	0.100
320.600	-0.647	0.100
320.700	-20.092	0.100
320.800	-63.320	0.100
320.900	0.558	0.100
321.000	-24.630	0.100
321.100	-40.294	0.100
321.200	-36.975	0.100
321.300	-3.230	0.100
321.400	-20.876	0.100
321.500	-25.616	0.100
321.600	-13.643	0.100
321.700	-17.437	0.100
321.800	-25.049	0.100
321.900	-23.912	0.100
322.000	-28.310	0.100
322.100	-19.659	0.100
322.200	-36.071	0.100
322.300	-42.098	0.100
322.400	8.282	0.100
322.500	-0.347	0.100
322.600	-25.968	0.100
322.700	-21.917	0.100
322.800	-29.984	0.100
322.900	-10.626	0.100
323.000	-20.493	0.100
323.100	-21.740	0.100
323.200	-34.495	0.100
323.300	-3.206	0.100
323.400	-30.551	0.100
323.500	-30.674	0.100
323.600	-2.771	0.100
323.700	-21.880	0.100
323.800	-39.579	0.100
323.900	-27.778	0.100
324.000	-19.186	0.100
324.100	-38.753	0.100
324.200	-18.627	0.100
324.300	-22.277	0.100
324.400	-44.266	0.100
324.500	-25.175	0.100
324.600	-25.809	0.100
324.700	-23.376	0.100
324.800	-21.020	0.100
324.900	-19.789	0.100
325.000	-12.266	0.100
325.100	-15.627	0.100
325.200	-34.597	0.100
325.300	-31.785	0.100
325.400	-25.601	0.100
325.500	-30.889	0.100
325.600	-8.987	0.100
325.700	-7.622	0.100
325.800	-21.507	0.100
325.900	-34.918	0.100
326.000	-12.143	0.100
326.100	-22.316	0.100
326.200	-31.270	0.100
326.300	-19.775	0.100
326.400	-21.207	0.100
326.500	-21.218	0.100
326.600	-5.899	0.100
326.700	-21.979	0.100
326.800	-28.168	0.100
326.900	-17.967	0.100
327.000	-20.191	0.100
327.100	-43.274	0.100
327.200	-27.625	0.100
327.300	2.065	0.100
327.400	-20.046	0.100
327.500	-25.833	0.100
327.600	-19.534	0.100
327.700	-34.423	0.100
327.800	-42.121	0.100
327.900	-26.258	0.100
328.000	11.969	0.100
328.100	-8.204	0.100
328.200	-23.455	0.100
328.300	-15.682	0.100
328.400	-26.405	0.100
328.500	-17.796	0.100
328.600	-17.553	0.100
328.700	-40.278	0.100
328.800	-12.771	0.100
328.900	-32.024	0.100
329.000	-19.018	0.100
329.100	-6.070	0.100
329.200	-16.444	0.100
329.300	-25.582	0.100
329.400	-23.911	0.100
329.500	0.237	0.100
329.600	-15.177	0.100
329.700	-41.184	0.100
329.800	-18.365	0.100
329.900	-22.193	0.100
330.000	-35.579	0.100
330.100	-30.346	0.100
330.200	-11.503	0.100
330.300	-28.843	0.100
330.400	-29.728	0.100
330.500	-21.009	0.100
330.600	-28.350	0.100
330.700	3.573	0.100
330.800	-11.208	0.100
330.900	-20.645	0.100
331.000	-16.766	0.100
331.100	-26.382	0.100
331.200	13.289	0.100
331.300	-4.655	0.100
331.400	7.663	0.100
331.500	-6.562	0.100
331.600	10.757	0.100
331.700	-1.778	0.100
331.800	-8.824	0.100
331.900	-1.104	0.100
332.000	10.079	0.100
332.100	-17.357	0.100
332.200	19.653	0.100
332.300	0.196	0.100
332.400	-11.425	0.100
332.500	-12.287	0.100
332.600	15.016	0.100
332.700	25.695	0.100
332.800	4.032	0.100
332.900	15.541	0.100
333.000	14.719	0.100
333.100	23.697	0.100
333.200	26.231	0.100
333.300	0.576	0.100
333.400	29.018	0.100
333.500	34.877	0.100
333.600	8.004	0.100
333.700	6.547	0.100
333.800	-25.814	0.100
333.900	4.826	0.100
334.000	37.565	0.100
334.100	-1.460	0.100
334.200	11.799	0.100
334.300	16.782	0.100
334.400	-11.722	0.100
334.500	19.194	0.100
334.600	19.840	0.100
334.700	-7.132	0.100
334.800	18.045	0.100
334.900	11.431	0.100
335.000	12.005	0.100
335.100	28.145	0.100
335.200	-6.903	0.100
335.300	8.291	0.100
335.400	26.549	0.100
335.500	9.905	0.100
335.600	23.885	0.100
335.700	4.545	0.100
335.800	6.140	0.100
335.900	26.066	0.100
336.000	-3.237	0.100
336.100	18.532	0.100
336.200	0.808	0.100
336.300	20.035	0.100
336.400	4.653	0.100
336.500	7.126	0.100
336.600	4.914	0.100
336.700	13.606	0.100
336.800	6.136	0.100
336.900	14.730	0.100
337.000	12.956	0.100
337.100	22.294	0.100
337.200	2.644	0.100
337.300	5.954	0.100
337.400	-7.111	0.100
337.500	15.628	0.100
337.600	27.134	0.100
337.700	10.865	0.100
337.800	24.265	0.100
337.900	-1.610	0.100
338.000	1.068	0.100
338.100	24.459	0.100
338.200	20.602	0.100
338.300	6.280	0.100
338.400	14.695	0.100
338.500	25.396	0.100
338.600	-0.022	0.100
338.700	27.624	0.100
338.800	15.235	0.100
338.900	-20.568	0.100
339.000	32.371	0.100
339.100	17.362	0.100
339.200	1.619	0.100
339.300	12.989	0.100
339.400	-5.914	0.100
339.500	10.391	0.100
339.600	4.159	0.100
339.700	6.604	0.100
339.800	9.381	0.100
339.900	10.960	0.100
340.000	10.947	0.100
340.100	29.469	0.100
340.200	36.351	0.100
340.300	11.937	0.100
340.400	15.142	0.100
340.500	33.556	0.100
340.600	11.120	0.100
340.700	12.003	0.100
340.800	-12.009	0.100
340.900	27.955	0.100
341.000	17.296	0.100
341.100	23.721	0.100
341.200	21.952	0.100
341.300	18.965	0.100
341.400	30.717	0.100
341.500	9.485	0.100
341.600	2.280	0.100
341.700	10.901	0.100
341.800	-5.797	0.100
341.900	4.780	0.100
342.000	27.472	0.100
342.100	6.272	0.100
342.200	21.107	0.100
342.300	42.318	0.100
342.400	-11.829	0.100
342.500	26.273	0.100
342.600	21.429	0.100
342.700	-1.481	0.100
342.800	-8.664	0.100
342.900	11.110	0.100
343.000	8.349	0.100
343.100	0.914	0.100
343.200	4.302	0.100
343.300	28.409	0.100
343.400	30.725	0.100
343.500	13.029	0.100
343.600	12.924	0.100
343.700	26.844	0.100
343.800	9.044	0.100
343.900	12.608	0.100
344.000	12.469	0.100
344.100	20.250	0.100
344.200	-6.096	0.100
344.300	32.581	0.100
344.400	12.666	0.100
344.500	51.960	0.100
344.600	20.185	0.100
344.700	0.767	0.100
344.800	21.490	0.100
344.900	35.997	0.100
345.000	16.051	0.100
345.100	54.083	0.100
345.200	9.665	0.100
345.300	25.916	0.100
345.400	6.731	0.100
345.500	21.779	0.100
345.600	0.795	0.100
345.700	58.650	0.100
345.800	32.699	0.100
345.900	18.263	0.100
346.000	25.299	0.100
346.100	36.340	0.100
346.200	17.364	0.100
346.300	21.194	0.100
346.400	35.848	0.100
346.500	45.105	0.100
346.600	23.979	0.100
346.700	26.063	0.100
346.800	2.324	0.100
346.900	30.444	0.100
347.000	36.588	0.100
347.100	26.841	0.100
347.200	12.337	0.100
347.300	13.091	0.100
347.400	33.438	0.100
347.500	6.848	0.100
347.600	27.695	0.100
347.700	34.936	0.100
347.800	18.414	0.100
347.900	29.816	0.100
348.000	42.697	0.100
348.100	23.442	0.100
348.200	39.062	0.100
348.300	-1.403	0.100
348.400	17.891	0.100
348.500	29.613	0.100
348.600	28.363	0.100
348.700	34.324	0.100
348.800	40.221	0.100
348.900	37.498	0.100
349.000	24.751	0.100
349.100	21.530	0.100
349.200	8.956	0.100
349.300	31.565	0.100
349.400	60.010	0.100
349.500	52.524	0.100
349.600	-8.826	0.100
349.700	20.048	0.100
349.800	12.329	0.100
349.900	30.308	0.100
350.000	32.466	0.100
350.100	24.604	0.100
350.200	28.904	0.100
350.300	61.565	0.100
350.400	-8.952	0.100
350.500	41.551	0.100
350.600	18.212	0.100
350.700	34.122	0.100
350.800	45.909	0.100
350.900	39.218	0.100
351.000	42.403	0.100
351.100	25.746	0.100
351.200	26.526	0.100
351.300	44.196	0.100
351.400	10.345	0.100
351.500	54.920	0.100
351.600	24.730	0.100
351.700	54.285	0.100
351.800	27.799	0.100
351.900	35.050	0.100
352.000	35.846	0.100
352.100	2.987	0.100
352.200	60.389	0.100
352.300	57.652	0.100
352.400	10.744	0.100
352.500	45.549	0.100
352.600	50.904	0.100
352.700	25.868	0.100
352.800	58.791	0.100
352.900	27.262	0.100
353.000	44.766	0.100
353.100	19.264	0.100
353.200	13.326	0.100
353.300	55.658	0.100
353.400	51.995	0.100
353.500	30.177	0.100
353.600	29.113	0.100
353.700	55.084	0.100
353.800	34.669	0.100
353.900	27.292	0.100
354.000	27.555	0.100
354.100	51.471	0.100
354.200	30.880	0.100
354.300	42.186	0.100
354.400	53.095	0.100
354.500	30.260	0.100
354.600	50.535	0.100
354.700	39.324	0.100
354.800	42.809	0.100
354.900	28.125	0.100
355.000	18.811	0.100
355.100	44.177	0.100
355.200	52.703	0.100
355.300	45.753	0.100
355.400	38.818	0.100
355.500	25.865	0.100
355.600	36.324	0.100
355.700	41.547	0.100
355.800	32.414	0.100
355.900	37.377	0.100
356.000	34.394	0.100
356.100	50.270	0.100
356.200	41.345	0.100
356.300	32.489	0.100
356.400	33.675	0.100
356.500	36.334	0.100
356.600	39.358	0.100
356.700	25.132	0.100
356.800	13.001	0.100
356.900	45.697	0.100
357.000	32.710	0.100
357.100	39.817	0.100
357.200	19.336	0.100
357.300	57.950	0.100
357.400	28.220	0.100
357.500	60.437	0.100
357.600	60.570	0.100
357.700	17.358	0.100
357.800	27.638	0.100
357.900	23.514	0.100
358.000	40.747	0.100
358.100	26.804	0.100
358.200	31.041	0.100
358.300	63.208	0.100
358.400	33.818	0.100
358.500	50.727	0.100
358.600	44.818	0.100
358.700	35.066	0.100
358.800	19.289	0.100
358.900	35.655	0.100
359.000	34.947	0.100
359.100	32.674	0.100
359.200	40.620	0.100
359.300	39.490	0.100
359.400	28.482	0.100
359.500	30.424	0.100
359.600	36.684	0.100
359.700	39.008	0.100
359.800	23.870	0.100
359.900	22.318	0.100
360.000	52.260	0.100
360.100	23.140	0.100
360.200	34.531	0.100
360.300	26.089	0.100
360.400	21.098	0.100
360.500	31.700	0.100
360.600	34.684	0.100
360.700	57.789	0.100
360.800	44.270	0.100
360.900	28.409	0.100
361.000	70.602	0.100
361.100	33.618	0.100
361.200	41.242	0.100
361.300	20.529	0.100
361.400	25.150	0.100
361.500	48.637	0.100
361.600	42.054	0.100
361.700	28.143	0.100
361.800	19.783	0.100
361.900	20.211	0.100
362.000	28.468	0.100
362.100	42.330	0.100
362.200	16.259	0.100
362.300	20.085	0.100
362.400	49.137	0.100
362.500	46.397	0.100
362.600	12.018	0.100
362.700	40.049	0.100
362.800	39.176	0.100
362.900	44.073	0.100
363.000	39.708	0.100
363.100	62.541	0.100
363.200	20.343	0.100
363.300	46.532	0.100
363.400	45.681	0.100
363.500	9.619	0.100
363.600	44.252	0.100
363.700	66.094	0.100
363.800	26.553	0.100
363.900	29.622	0.100
364.000	15.745	0.100
364.100	49.763	0.100
364.200	50.139	0.100
364.300	28.320	0.100
364.400	51.828	0.100
364.500	26.029	0.100
364.600	50.949	0.100
364.700	52.056	0.100
364.800	25.938	0.100
364.900	49.468	0.100
365.000	7.825	0.100
365.100	36.637	0.100
365.200	48.713	0.100
365.300	29.863	0.100
365.400	29.413	0.100
365.500	51.713	0.100
365.600	22.234	0.100
365.700	32.106	0.100
365.800	35.806	0.100
365.900	39.265	0.100
366.000	41.765	0.100
366.100	8.479	0.100
366.200	65.110	0.100
366.300	32.707	0.100
366.400	20.984	0.100
366.500	34.310	0.100
366.600	44.507	0.100
366.700	30.597	0.100
366.800	24.292	0.100
366.900	43.968	0.100
367.000	48.912	0.100
367.100	42.687	0.100
367.200	39.191	0.100
367.300	39.022	0.100
367.400	33.003	0.100
367.500	15.238	0.100
367.600	50.101	0.100
367.700	47.340	0.100
367.800	33.098	0.100
367.900	23.368	0.100
368.000	37.422	0.100
368.100	19.775	0.100
368.200	44.899	0.100
368.300	35.712	0.100
368.400	48.596	0.100
368.500	39.118	0.100
368.600	14.063	0.100
368.700	26.656	0.100
368.800	42.314	0.100
368.900	40.912	0.100
369.000	41.290	0.100
369.100	37.289	0.100
369.200	10.826	0.100
369.300	23.377	0.100
369.400	48.079	0.100
369.500	45.526	0.100
369.600	47.778	0.100
369.700	30.370	0.100
369.800	7.443	0.100
369.900	67.516	0.100
370.000	33.635	0.100
370.100	45.921	0.100
370.200	34.863	0.100
370.300	36.875	0.100
370.400	36.148	0.100
370.500	40.376	0.100
370.600	32.547	0.100
370.700	28.700	0.100
370.800	49.141	0.100
370.900	32.676	0.100
371.000	32.195	0.100
371.100	18.359	0.100
371.200	56.768	0.100
371.300	33.026	0.100
371.400	24.244	0.100
371.500	29.721	0.100
371.600	40.531	0.100
371.700	35.788	0.100
371.800	11.887	0.100
371.900	49.997	0.100
372.000	36.018	0.100
372.100	37.001	0.100
372.200	31.534	0.100
372.300	9.434	0.100
372.400	35.224	0.100
372.500	18.585	0.100
372.600	29.559	0.100
372.700	49.578	0.100
372.800	43.417	0.100
372.900	26.179	0.100
373.000	24.475	0.100
373.100	40.538	0.100
373.200	55.515	0.100
373.300	27.854	0.100
373.400	22.166	0.100
373.500	57.014	0.100
373.600	34.712	0.100
373.700	4.757	0.100
373.800	38.085	0.100
373.900	42.513	0.100
374.000	35.705	0.100
374.100	50.475	0.100
374.200	21.839	0.100
374.300	35.270	0.100
374.400	20.609	0.100
374.500	41.584	0.100
374.600	55.992	0.100
374.700	21.998	0.100
374.800	37.879	0.100
374.900	34.766	0.100
375.000	51.590	0.100
375.100	30.110	0.100
375.200	40.388	0.100
375.300	29.491	0.100
375.400	41.338	0.100
375.500	36.591	0.100
375.600	13.916	0.100
375.700	25.482	0.100
375.800	38.227	0.100
375.900	32.333	0.100
376.000	51.033	0.100
376.100	37.367	0.100
376.200	47.512	0.100
376.300	41.273	0.100
376.400	39.272	0.100
376.500	24.677	0.100
376.600	19.445	0.100
376.700	51.557	0.100
376.800	52.590	0.100
376.900	20.531	0.100
377.000	33.346	0.100
377.100	41.531	0.100
377.200	48.234	0.100
377.300	20.122	0.100
377.400	37.131	0.100
377.500	44.107	0.100
377.600	32.147	0.100
377.700	25.087	0.100
377.800	46.742	0.100
377.900	31.784	0.100
378.000	31.424	0.100
378.100	42.204	0.100
378.200	52.467	0.100
378.300	23.932	0.100
378.400	36.934	0.100
378.500	31.993	0.100
378.600	38.645	0.100
378.700	19.807	0.100
378.800	28.978	0.100
378.900	16.883	0.100
379.000	56.720	0.100
379.100	38.989	0.100
379.200	34.904	0.100
379.300	54.781	0.100
379.400	36.383	0.100
379.500	21.101	0.100
379.600	48.032	0.100
379.700	31.307	0.100
379.800	49.500	0.100
379.900	37.721	0.100
380.000	47.563	0.100
380.100	29.786	0.100
380.200	34.505	0.100
380.300	31.103	0.100
380.400	31.900	0.100
380.500	6.458	0.100
380.600	40.575	0.100
380.700	19.408	0.100
380.800	24.836	0.100
380.900	37.498	0.100
381.000	38.287	0.100
381.100	24.817	0.100
381.200	34.922	0.100
381.300	43.319	0.100
381.400	42.875	0.100
381.500	26.250	0.100
381.600	30.526	0.100
381.700	21.976	0.100
381.800	43.330	0.100
381.900	40.182	0.100
382.000	22.090	0.100
382.100	32.080	0.100
382.200	14.211	0.100
382.300	43.247	0.100
382.400	35.731	0.100
382.500	49.628	0.100
382.600	35.627	0.100
382.700	24.060	0.100
382.800	33.699	0.100
382.900	37.097	0.100
383.000	30.725	0.100
383.100	24.855	0.100
383.200	35.729	0.100
383.300	45.795	0.100
383.400	49.571	0.100
383.500	27.942	0.100
383.600	46.060	0.100
383.700	40.743	0.100
383.800	43.565	0.100
383.900	28.502	0.100
384.000	25.695	0.100
384.100	33.811	0.100
384.200	33.003	0.100
384.300	39.519	0.100
384.400	29.713	0.100
384.500	44.806	0.100
384.600	28.891	0.100
384.700	48.633	0.100
384.800	27.306	0.100
384.900	24.064	0.100
385.000	12.021	0.100
385.100	26.352	0.100
385.200	33.506	0.100
385.300	42.288	0.100
385.400	40.290	0.100
385.500	23.904	0.100
385.600	34.883	0.100
385.700	6.515	0.100
385.800	22.053	0.100
385.900	55.020	0.100
386.000	39.653	0.100
386.100	35.801	0.100
386.200	53.959	0.100
386.300	19.512	0.100
386.400	18.471	0.100
386.500	43.614	0.100
386.600	26.478	0.100
386.700	32.528	0.100
386.800	18.483	0.100
386.900	28.391	0.100
387.000	46.038	0.100
387.100	37.536	0.100
387.200	41.885	0.100
387.300	39.846	0.100
387.400	29.044	0.100
387.500	32.573	0.100
387.600	45.249	0.100
387.700	33.621	0.100
387.800	1.905	0.100
387.900	26.938	0.100
388.000	31.765	0.100
388.100	37.819	0.100
388.200	58.354	0.100
388.300	25.703	0.100
388.400	25.965	0.100
388.500	65.786	0.100
388.600	38.884	0.100
388.700	51.520	0.100
388.800	12.697	0.100
388.900	28.807	0.100
389.000	31.843	0.100
389.100	4.945	0.100
389.200	44.250	0.100
389.300	20.339	0.100
389.400	41.626	0.100
389.500	37.951	0.100
389.600	21.607	0.100
389.700	31.537	0.100
389.800	43.338	0.100
389.900	42.171	0.100
390.000	39.147	0.100
390.100	37.325	0.100
390.200	22.770	0.100
390.300	48.661	0.100
390.400	47.551	0.100
390.500	44.936	0.100
390.600	24.715	0.100
390.700	5.252	0.100
390.800	30.931	0.100
390.900	22.066	0.100
391.000	29.597	0.100
391.100	33.035	0.100
391.200	15.719	0.100
391.300	21.159	0.100
391.400	19.484	0.100
391.500	-0.351	0.100
391.600	44.274	0.100
391.700	24.970	0.100
391.800	-9.302	0.100
391.900	31.880	0.100
392.000	11.506	0.100
392.100	13.791	0.100
392.200	23.159	0.100
392.300	-9.536	0.100
392.400	-11.901	0.100
392.500	30.701	0.100
392.600	4.718	0.100
392.700	3.525	0.100
392.800	9.564	0.100
392.900	12.619	0.100
393.000	-13.807	0.100
393.100	10.996	0.100
393.200	6.074	0.100
393.300	-22.475	0.100
393.400	5.238	0.100
393.500	6.547	0.100
393.600	0.107	0.100
393.700	9.962	0.100
393.800	-11.868	0.100
393.900	-16.801	0.100
394.000	-5.271	0.100
394.100	7.865	0.100
394.200	-21.285	0.100
394.300	13.945	0.100
394.400	-13.071	0.100
394.500	-8.605	0.100
394.600	-16.804	0.100
394.700	-17.369	0.100
394.800	-9.543	0.100
394.900	-7.241	0.100
395.000	-4.350	0.100
395.100	7.654	0.100
395.200	-18.657	0.100
395.300	-34.740	0.100
395.400	-18.711	0.100
395.500	-28.236	0.100
395.600	-33.428	0.100
395.700	-16.775	0.100
395.800	1.166	0.100
395.900	-13.372	0.100
396.000	-11.497	0.100
396.100	-4.286	0.100
396.200	-3.759	0.100
396.300	-24.061	0.100
396.400	-21.860	0.100
396.500	-3.465	0.100
396.600	-23.493	0.100
396.700	1.930	0.100
396.800	6.699	0.100
396.900	-9.867	0.100
397.000	-21.965	0.100
397.100	-9.176	0.100
397.200	-7.735	0.100
397.300	-2.495	0.100
397.400	-10.473	0.100
397.500	-16.165	0.100
397.600	-0.884	0.100
397.700	0.465	0.100
397.800	-20.375	0.100
397.900	-26.508	0.100
398.000	-8.197	0.100
398.100	-29.052	0.100
398.200	-2.499	0.100
398.300	-38.612	0.100
398.400	-14.828	0.100
398.500	-33.538	0.100
398.600	-5.723	0.100
398.700	-12.298	0.100
398.800	1.824	0.100
398.900	-28.827	0.100
399.000	-1.270	0.100
399.100	9.390	0.100
399.200	-12.413	0.100
399.300	-49.679	0.100
399.400	-33.692	0.100
399.500	-22.517	0.100
399.600	-33.982	0.100
399.700	-3.355	0.100
399.800	1.630	0.100
399.900	26.327	0.100
400.000	-4.663	0.100
400.100	-19.109	0.100
400.200	-26.952	0.100
400.300	4.420	0.100
400.400	-5.436	0.100
400.500	-19.592	0.100
400.600	-22.370	0.100
400.700	11.890	0.100
400.800	3.541	0.100
400.900	-11.466	0.100
401.000	-23.571	0.100
401.100	-20.275	0.100
401.200	-29.702	0.100
401.300	-4.262	0.100
401.400	14.157	0.100
401.500	-20.502	0.100
401.600	-1.353	0.100
401.700	-3.561	0.100
401.800	-16.093	0.100
401.900	-8.278	0.100
402.000	-24.190	0.100
402.100	-5.680	0.100
402.200	-13.412	0.100
402.300	-15.257	0.100
402.400	-6.114	0.100
402.500	-19.873	0.100
402.600	-9.369	0.100
402.700	-8.542	0.100
402.800	-18.399	0.100
402.900	-2.800	0.100
403.000	-20.596	0.100
403.100	-7.359	0.100
403.200	-16.480	0.100
403.300	-12.966	0.100
403.400	-10.827	0.100
403.500	1.348	0.100
403.600	-26.133	0.100
403.700	-18.729	0.100
403.800	-17.544	0.100
403.900	-15.849	0.100
404.000	-17.407	0.100
404.100	9.873	0.100
404.200	-24.116	0.100
404.300	-13.786	0.100
404.400	-19.772	0.100
404.500	3.068	0.100
404.600	-25.683	0.100
404.700	-2.847	0.100
404.800	-1.119	0.100
404.900	4.466	0.100
405.000	-18.184	0.100
405.100	-3.510	0.100
405.200	-21.375	0.100
405.300	-13.396	0.100
405.400	-40.487	0.100
405.500	-5.532	0.100
405.600	7.984	0.100
405.700	-35.293	0.100
405.800	-33.145	0.100
405.900	-5.199	0.100
406.000	-19.434	0.100
406.100	-8.955	0.100
406.200	-4.698	0.100
406.300	-18.477	0.100
406.400	-18.555	0.100
406.500	-32.772	0.100
406.600	-5.031	0.100
406.700	4.062	0.100
406.800	-13.961	0.100
406.900	-9.042	0.100
407.000	-12.491	0.100
407.100	-7.793	0.100
407.200	-21.118	0.100
407.300	-8.659	0.100
407.400	-14.895	0.100
407.500	-19.180	0.100
407.600	-38.869	0.100
407.700	-6.184	0.100
407.800	-9.277	0.100
407.900	-12.884	0.100
408.000	-8.045	0.100
408.100	2.881	0.100
408.200	0.748	0.100
408.300	-22.187	0.100
408.400	-10.362	0.100
408.500	-1.099	0.100
408.600	11.612	0.100
408.700	-48.561	0.100
408.800	-16.387	0.100
408.900	-17.067	0.100
409.000	-17.987	0.100
409.100	-2.708	0.100
409.200	5.185	0.100
409.300	-4.805	0.100
409.400	-26.423	0.100
409.500	-18.794	0.100
409.600	-21.771	0.100
409.700	0.032	0.100
409.800	-9.194	0.100
409.900	-10.518	0.100
410.000	-27.372	0.100
410.100	-35.028	0.100
410.200	-24.970	0.100
410.300	-21.629	0.100
410.400	-1.149	0.100
410.500	-9.757	0.100
410.600	-31.034	0.100
410.700	-25.686	0.100
410.800	0.485	0.100
410.900	-19.669	0.100
411.000	-11.470	0.100
411.100	-26.362	0.100
411.200	-11.348	0.100
411.300	-29.490	0.100
411.400	-24.047	0.100
411.500	-16.568	0.100
411.600	-32.295	0.100
411.700	-17.507	0.100
411.800	-26.413	0.100
411.900	-19.484	0.100
412.000	-29.590	0.100
412.100	-25.722	0.100
412.200	-5.147	0.100
412.300	-44.178	0.100
412.400	4.563	0.100
412.500	-11.515	0.100
412.600	-16.707	0.100
412.700	-16.337	0.100
412.800	-9.117	0.100
412.900	-15.830	0.100
413.000	-12.715	0.100
413.100	-27.367	0.100
413.200	-14.138	0.100
413.300	1.363	0.100
413.400	6.394	0.100
413.500	-21.645	0.100
413.600	-19.676	0.100
413.700	-13.762	0.100
413.800	-12.762	0.100
413.900	-17.923	0.100
414.000	-14.844	0.100
414.100	-24.665	0.100
414.200	-16.226	0.100
414.300	-18.360	0.100
414.400	-7.477	0.100
414.500	-21.793	0.100
414.600	-26.297	0.100
414.700	-28.455	0.100
414.800	-12.003	0.100
414.900	-25.058	0.100
415.000	-4.835	0.100
415.100	-21.722	0.100
415.200	4.802	0.100
415.300	-27.952	0.100
415.400	-33.117	0.100
415.500	-25.710	0.100
415.600	-37.994	0.100
415.700	-15.418	0.100
415.800	-35.608	0.100
415.900	-33.306	0.100
416.000	-7.790	0.100
416.100	-19.532	0.100
416.200	-17.510	0.100
416.300	-43.660	0.100
416.400	-16.405	0.100
416.500	9.594	0.100
416.600	-21.064	0.100
416.700	-14.662	0.100
416.800	-40.710	0.100
416.900	-6.960	0.100
417.000	-18.921	0.100
417.100	-22.062	0.100
417.200	-10.739	0.100
417.300	-20.749	0.100
417.400	-33.827	0.100
417.500	-18.153	0.100
417.600	-24.727	0.100
417.700	-55.824	0.100
417.800	3.605	0.100
417.900	-38.048	0.100
418.000	-28.183	0.100
418.100	-4.834	0.100
418.200	-10.007	0.100
418.300	-19.777	0.100
418.400	-35.217	0.100
418.500	-35.154	0.100
418.600	-12.561	0.100
418.700	-32.995	0.100
418.800	-16.073	0.100
418.900	-36.648	0.100
419.000	-14.398	0.100
419.100	-10.776	0.100
419.200	-22.841	0.100
419.300	-37.202	0.100
419.400	-11.026	0.100
419.500	-32.683	0.100
419.600	-26.278	0.100
419.700	15.938	0.100
419.800	-10.010	0.100
419.900	-21.096	0.100
420.000	-15.216	0.100
420.100	-15.407	0.100
420.200	-41.512	0.100
420.300	-21.996	0.100
420.400	-21.575	0.100
420.500	-23.631	0.100
420.600	-16.985	0.100
420.700	-15.206	0.100
420.800	-29.897	0.100
420.900	-21.942	0.100
421.000	0.479	0.100
421.100	-36.000	0.100
421.200	-34.618	0.100
421.300	-23.063	0.100
421.400	0.794	0.100
421.500	-25.633	0.100
421.600	-24.498	0.100
421.700	-18.314	0.100
421.800	-39.923	0.100
421.900	-35.628	0.100
422.000	-19.849	0.100
422.100	-20.529	0.100
422.200	-31.941	0.100
422.300	-19.191	0.100
422.400	-18.792	0.100
422.500	-43.397	0.100
422.600	-30.031	0.100
422.700	-27.537	0.100
422.800	-2.081	0.100
422.900	-15.295	0.100
423.000	-9.177	0.100
423.100	-23.525	0.100
423.200	-37.612	0.100
423.300	-1.967	0.100
423.400	-27.184	0.100
423.500	-30.939	0.100
423.600	-21.298	0.100
423.700	-18.710	0.100
423.800	-20.404	0.100
423.900	-34.398	0.100
424.000	-23.071	0.100
424.100	-28.361	0.100
424.200	-6.193	0.100
424.300	-19.179	0.100
424.400	-27.199	0.100
424.500	-15.051	0.100
424.600	-44.025	0.100
424.700	-12.106	0.100
424.800	-22.628	0.100
424.900	-14.903	0.100
425.000	-7.373	0.100
425.100	-18.854	0.100
425.200	-21.573	0.100
425.300	-14.988	0.100
425.400	-25.038	0.100
425.500	-29.843	0.100
425.600	-23.786	0.100
425.700	-52.337	0.100
425.800	1.324	0.100
425.900	-30.712	0.100
426.000	-13.335	0.100
426.100	-41.043	0.100
426.200	-14.825	0.100
426.300	-20.592	0.100
426.400	-40.125	0.100
426.500	-7.610	0.100
426.600	-27.275	0.100
426.700	-30.596	0.100
426.800	-22.924	0.100
426.900	-25.340	0.100
427.000	-46.242	0.100
427.100	-29.009	0.100
427.200	-17.189	0.100
427.300	-35.897	0.100
427.400	-26.243	0.100
427.500	-14.941	0.100
427.600	-11.930	0.100
427.700	-7.444	0.100
427.800	-21.294	0.100
427.900	-35.085	0.100
428.000	-17.868	0.100
428.100	-38.249	0.100
428.200	-34.911	0.100
428.300	-29.659	0.100
428.400	-13.569	0.100
428.500	-9.547	0.100
428.600	-26.788	0.100
428.700	-25.964	0.100
428.800	-31.575	0.100
428.900	-12.192	0.100
429.000	-20.335	0.100
429.100	-4.978	0.100
429.200	-6.571	0.100
429.300	-32.276	0.100
429.400	-26.905	0.100
429.500	-42.651	0.100
429.600	-17.488	0.100
429.700	-30.282	0.100
429.800	-29.982	0.100
429.900	-40.611	0.100
430.000	-5.843	0.100
430.100	-46.209	0.100
430.200	-29.785	0.100
430.300	-29.775	0.100
430.400	-34.579	0.100
430.500	-15.595	0.100
430.600	-24.070	0.100
430.700	-47.925	0.100
430.800	-23.723	0.100
430.900	-12.561	0.100
431.000	-25.842	0.100
431.100	-32.606	0.100
431.200	-30.336	0.100
431.300	-38.536	0.100
431.400	-21.915	0.100
431.500	-13.172	0.100
431.600	-47.423	0.100
431.700	-4.175	0.100
431.800	6.200	0.100
431.900	-14.342	0.100
432.000	-7.505	0.100
432.100	-22.427	0.100
432.200	-21.713	0.100
432.300	-39.547	0.100
432.400	-52.494	0.100
432.500	-12.222	0.100
432.600	-13.311	0.100
432.700	-38.040	0.100
432.800	-46.652	0.100
432.900	-14.055	0.100
433.000	-22.114	0.100
433.100	-31.402	0.100
433.200	-33.256	0.100
433.300	-8.933	0.100
433.400	-28.593	0.100
433.500	-30.286	0.100
433.600	-35.666	0.100
433.700	-20.899	0.100
433.800	-21.289	0.100
433.900	-30.876	0.100
434.000	-27.258	0.100
434.100	-35.223	0.100
434.200	-35.209	0.100
434.300	-25.417	0.100
434.400	-28.040	0.100
434.500	0.509	0.100
434.600	-24.507	0.100
434.700	-33.887	0.100
434.800	-20.603	0.100
434.900	-36.698	0.100
435.000	-13.494	0.100
435.100	-31.958	0.100
435.200	-18.978	0.100
435.300	-14.883	0.100
435.400	-17.725	0.100
435.500	-32.279	0.100
435.600	-7.156	0.100
435.700	-33.505	0.100
435.800	-53.830	0.100
435.900	-25.100	0.100
436.000	-43.992	0.100
436.100	-23.329	0.100
436.200	-34.314	0.100
436.300	-37.248	0.100
436.400	-34.599	0.100
436.500	-23.919	0.100
436.600	-30.142	0.100
436.700	-32.308	0.100
436.800	-36.022	0.100
436.900	-23.884	0.100
437.000	-12.961	0.100
437.100	-35.387	0.100
437.200	-28.034	0.100
437.300	-8.145	0.100
437.400	-24.510	0.100
437.500	-16.643	0.100
437.600	-36.365	0.100
437.700	-38.742	0.100
437.800	-43.838	0.100
437.900	-18.937	0.100
438.000	-29.562	0.100
438.100	-31.193	0.100
438.200	-57.099	0.100
438.300	-43.131	0.100
438.400	-20.862	0.100
438.500	-26.409	0.100
438.600	-21.118	0.100
438.700	-43.676	0.100
438.800	-31.701	0.100
438.900	-41.366	0.100
439.000	-24.254	0.100
439.100	-31.087	0.100
439.200	-19.609	0.100
439.300	-27.728	0.100
439.400	-41.756	0.100
439.500	-23.677	0.100
439.600	-37.031	0.100
439.700	-13.265	0.100
439.800	-31.308	0.100
439.900	-36.791	0.100
440.000	-20.605	0.100
440.100	-28.428	0.100
440.200	-3.179	0.100
440.300	-36.852	0.100
440.400	-43.797	0.100
440.500	-23.244	0.100
440.600	-17.078	0.100
440.700	-43.848	0.100
440.800	-32.851	0.100
440.900	-14.965	0.100
441.000	-21.524	0.100
441.100	-35.023	0.100
441.200	-24.994	0.100
441.300	-44.746	0.100
441.400	-28.100	0.100
441.500	-37.395	0.100
441.600	-17.010	0.100
441.700	-25.557	0.100
441.800	-17.310	0.100
441.900	-30.988	0.100
442.000	-55.012	0.100
442.100	-2.204	0.100
442.200	-17.776	0.100
442.300	-18.660	0.100
442.400	-37.804	0.100
442.500	-43.306	0.100
442.600	-24.430	0.100
442.700	-28.667	0.100
442.800	-13.666	0.100
442.900	-34.989	0.100
443.000	-29.864	0.100
443.100	-6.855	0.100
443.200	-24.752	0.100
443.300	-30.758	0.100
443.400	-52.665	0.100
443.500	-41.528	0.100
443.600	-45.586	0.100
443.700	-26.199	0.100
443.800	-15.999	0.100
443.900	-27.717	0.100
444.000	-22.853	0.100
444.100	-38.588	0.100
444.200	-19.882	0.100
444.300	-20.982	0.100
444.400	-52.573	0.100
444.500	-33.532	0.100
444.600	-10.170	0.100
444.700	-28.035	0.100
444.800	-13.608	0.100
444.900	-43.781	0.100
445.000	-27.203	0.100
445.100	-32.253	0.100
445.200	-16.575	0.100
445.300	-22.152	0.100
445.400	-18.665	0.100
445.500	-26.470	0.100
445.600	-49.712	0.100
445.700	-34.909	0.100
445.800	-20.847	0.100
445.900	-23.720	0.100
446.000	-34.435	0.100
446.100	-16.506	0.100
446.200	-53.652	0.100
446.300	-24.767	0.100
446.400	-12.172	0.100
446.500	-20.325	0.100
446.600	-24.129	0.100
446.700	-21.968	0.100
446.800	-28.999	0.100
446.900	-30.628	0.100
447.000	-19.147	0.100
447.100	-31.726	0.100
447.200	-7.161	0.100
447.300	-31.191	0.100
447.400	-21.107	0.100
447.500	-23.233	0.100
447.600	-41.956	0.100
447.700	-16.711	0.100
447.800	-14.057	0.100
447.900	-39.496	0.100
448.000	-36.002	0.100
448.100	-35.575	0.100
448.200	2.884	0.100
448.300	-19.963	0.100
448.400	-47.920	0.100
448.500	-31.233	0.100
448.600	-12.086	0.100
448.700	-20.288	0.100
448.800	-38.364	0.100
448.900	-12.960	0.100
449.000	-31.780	0.100
449.100	-24.455	0.100
449.200	-39.335	0.100
449.300	-22.963	0.100
449.400	-24.851	0.100
449.500	-41.614	0.100
449.600	-12.576	0.100
449.700	-26.394	0.100
449.800	-20.094	0.100
449.900	-22.718	0.100
450.000	-1.070	0.100
450.100	-11.539	0.100
450.200	-51.812	0.100
450.300	-34.440	0.100
450.400	-22.464	0.100
450.500	-27.287	0.100
450.600	-11.178	0.100
450.700	-50.436	0.100
450.800	-10.108	0.100
450.900	-34.338	0.100
451.000	-20.344	0.100
451.100	-25.557	0.100
451.200	-33.005	0.100
451.300	-49.591	0.100
451.400	-15.502	0.100
451.500	-5.337	0.100
451.600	-12.099	0.100
451.700	-32.251	0.100
451.800	-25.809	0.100
451.900	-22.684	0.100
452.000	-41.470	0.100
452.100	-30.916	0.100
452.200	-42.210	0.100
452.300	-29.627	0.100
452.400	-30.682	0.100
452.500	-23.151	0.100
452.600	-31.664	0.100
452.700	-19.312	0.100
452.800	-24.686	0.100
452.900	-16.918	0.100
453.000	-31.752	0.100
453.100	-31.379	0.100
453.200	-19.182	0.100
453.300	-18.722	0.100
453.400	-9.186	0.100
453.500	-39.798	0.100
453.600	-13.841	0.100
453.700	-29.890	0.100
453.800	-29.620	0.100
453.900	-12.822	0.100
454.000	-55.276	0.100
454.100	-34.283	0.100
454.200	-12.364	0.100
454.300	-26.904	0.100
454.400	-28.766	0.100
454.500	-31.445	0.100
454.600	-8.085	0.100
454.700	-14.883	0.100
454.800	-47.308	0.100
454.900	-30.490	0.100
455.000	-14.730	0.100
455.100	-28.643	0.100
455.200	-18.896	0.100
455.300	-10.013	0.100
455.400	-11.699	0.100
455.500	-28.785	0.100
455.600	-28.186	0.100
455.700	-33.542	0.100
455.800	-19.279	0.100
455.900	-14.953	0.100
456.000	-15.755	0.100
456.100	-61.750	0.100
456.200	-11.769	0.100
456.300	-14.531	0.100
456.400	-15.421	0.100
456.500	-26.081	0.100
456.600	-23.972	0.100
456.700	-33.748	0.100
456.800	-50.866	0.100
456.900	-32.625	0.100
457.000	-14.871	0.100
457.100	-19.759	0.100
457.200	-20.861	0.100
457.300	-26.027	0.100
457.400	-39.556	0.100
457.500	-36.817	0.100
457.600	-29.479	0.100
457.700	-32.950	0.100
457.800	-30.252	0.100
457.900	-33.544	0.100
458.000	-29.730	0.100
458.100	-30.701	0.100
458.200	-26.399	0.100
458.300	-25.164	0.100
458.400	-22.469	0.100
458.500	-21.174	0.100
458.600	-19.897	0.100
458.700	-34.237	0.100
458.800	-36.808	0.100
458.900	-11.212	0.100
459.000	-24.244	0.100
459.100	-24.873	0.100
459.200	-14.173	0.100
459.300	-35.528	0.100
459.400	-25.517	0.100
459.500	-9.884	0.100
459.600	-23.378	0.100
459.700	-4.563	0.100
459.800	-40.098	0.100
459.900	-27.904	0.100
460.000	-22.319	0.100
460.100	-35.111	0.100
460.200	-16.811	0.100
460.300	-9.690	0.100
460.400	-18.328	0.100
460.500	-27.234	0.100
460.600	-30.917	0.100
460.700	-27.941	0.100
460.800	-37.348	0.100
460.900	-14.877	0.100
461.000	-37.294	0.100
461.100	-40.229	0.100
461.200	-4.511	0.100
461.300	-5.971	0.100
461.400	-25.000	0.100
461.500	-21.998	0.100
461.600	-33.525	0.100
461.700	-19.278	0.100
461.800	-55.354	0.100
461.900	-19.995	0.100
462.000	-26.279	0.100
462.100	-14.256	0.100
462.200	8.667	0.100
462.300	-45.446	0.100
462.400	-36.868	0.100
462.500	-31.530	0.100
462.600	-24.977	0.100
462.700	-37.401	0.100
462.800	-31.465	0.100
462.900	-11.460	0.100
463.000	-34.790	0.100
463.100	-39.354	0.100
463.200	-26.208	0.100
463.300	-13.342	0.100
463.400	-30.977	0.100
463.500	-25.277	0.100
463.600	-26.452	0.100
463.700	-27.121	0.100
463.800	-5.148	0.100
463.900	-26.980	0.100
464.000	-26.977	0.100
464.100	-24.555	0.100
464.200	-10.711	0.100
464.300	-34.122	0.100
464.400	-30.597	0.100
464.500	-47.464	0.100
464.600	-2.418	0.100
464.700	-44.771	0.100
464.800	-26.762	0.100
464.900	-29.600	0.100
465.000	-10.515	0.100
465.100	-34.620	0.100
465.200	-28.351	0.100
465.300	-18.747	0.100
465.400	-15.634	0.100
465.500	-50.151	0.100
465.600	-14.482	0.100
465.700	-18.355	0.100
465.800	-12.137	0.100
465.900	-16.320	0.100
466.000	-31.724	0.100
466.100	-28.824	0.100
466.200	-31.531	0.100
466.300	-39.133	0.100
466.400	-14.037	0.100
466.500	-8.896	0.100
466.600	-33.516	0.100
466.700	-36.011	0.100
466.800	-9.697	0.100
466.900	-32.449	0.100
467.000	-35.589	0.100
467.100	-32.057	0.100
467.200	-30.386	0.100
467.300	-63.271	0.099
467.400	-25.007	0.099
467.500	-23.531	0.100
467.600	-24.178	0.099
467.700	-9.745	0.099
467.800	-9.156	0.099
467.900	-4.997	0.099
468.000	-35.815	0.099
468.100	-20.121	0.099
468.200	-32.642	0.099
468.300	-13.410	0.099
468.400	-47.208	0.099
468.500	-5.728	0.099
468.600	-22.831	0.099
468.700	-59.665	0.099
468.800	-8.293	0.099
468.900	-4.848	0.099
469.000	-13.084	0.099
469.100	-16.397	0.099
469.200	-32.496	0.099
469.300	-29.696	0.099
469.400	-35.455	0.099
469.500	-30.889	0.099
469.600	-18.060	0.099
469.700	-27.075	0.099
469.800	-19.739	0.099
469.900	-12.055	0.099
470.000	-23.522	0.099
470.100	-44.939	0.099
470.200	-36.724	0.099
470.300	-39.834	0.099
470.400	0.247	0.099
470.500	-18.495	0.099
470.600	-11.261	0.099
470.700	-22.012	0.099
470.800	2.552	0.099
470.900	-31.794	0.099
471.000	-38.399	0.099
471.100	-10.687	0.099
471.200	-32.926	0.099
471.300	-32.841	0.099
471.400	-22.000	0.099
471.500	-9.564	0.099
471.600	-28.670	0.099
471.700	-32.663	0.099
471.800	-26.241	0.099
471.900	-37.505	0.099
472.000	-19.588	0.099
472.100	-13.408	0.099
472.200	-26.555	0.099
472.300	-51.768	0.099
472.400	-6.123	0.099
472.500	-30.764	0.099
472.600	-14.612	0.099
472.700	-29.262	0.099
472.800	-8.770	0.099
472.900	-31.826	0.099
473.000	-21.348	0.099
473.100	-4.578	0.099
473.200	-35.233	0.099
473.300	-31.337	0.099
473.400	-17.047	0.099
473.500	-13.763	0.099
473.600	-39.703	0.099
473.700	-29.556	0.099
473.800	-43.187	0.099
473.900	-25.976	0.099
474.000	-34.340	0.099
474.100	-38.198	0.099
474.200	-22.140	0.099
474.300	-16.728	0.099
474.400	-25.617	0.099
474.500	-16.194	0.099
474.600	-4.313	0.099
474.700	-14.868	0.099
474.800	-13.862	0.099
474.900	-19.166	0.099
475.000	-18.636	0.099
475.100	-38.931	0.099
475.200	-13.548	0.099
475.300	-16.751	0.099
475.400	-6.797	0.099
475.500	-28.987	0.099
475.600	-22.127	0.099
475.700	-24.126	0.099
475.800	-12.109	0.099
475.900	-23.233	0.099
476.000	-42.094	0.099
476.100	-7.241	0.099
476.200	-41.421	0.099
476.300	-45.234	0.099
476.400	-30.715	0.099
476.500	-19.465	0.099
476.600	-18.915	0.099
476.700	-24.214	0.099
476.800	-28.226	0.099
476.900	-30.219	0.099
477.000	-34.079	0.099
477.100	-25.573	0.099
477.200	-3.115	0.099
477.300	-27.485	0.099
477.400	-37.535	0.099
477.500	-12.270	0.099
477.600	-28.905	0.099
477.700	-16.338	0.099
477.800	-27.610	0.099
477.900	-40.752	0.099
478.000	-43.398	0.099
478.100	-14.603	0.099
478.200	-6.744	0.099
478.300	-27.822	0.099
478.400	-7.221	0.099
478.500	-23.020	0.099
478.600	-27.479	0.099
478.700	-41.527	0.099
478.800	-32.452	0.099
478.900	-5.095	0.099
479.000	-12.335	0.099
479.100	-27.948	0.099
479.200	14.203	0.099
479.300	-51.310	0.099
479.400	-38.361	0.099
479.500	-8.171	0.099
479.600	-20.235	0.099
479.700	-24.025	0.099
479.800	-45.291	0.099
479.900	-25.662	0.099
480.000	-31.118	0.099
480.100	-11.466	0.099
480.200	-47.467	0.099
480.300	-11.812	0.099
480.400	-29.857	0.099
480.500	-37.908	0.099
480.600	-14.986	0.099
480.700	-19.292	0.099
480.800	-22.609	0.099
480.900	-3.720	0.099
481.000	-16.484	0.099
481.100	-21.620	0.099
481.200	-8.746	0.099
481.300	0.708	0.099
481.400	-16.641	0.099
481.500	-3.288	0.099
481.600	-0.549	0.099
481.700	-17.867	0.099
481.800	8.621	0.099
481.900	-12.868	0.099
482.000	2.292	0.099
482.100	-20.401	0.099
482.200	2.665	0.099
482.300	24.659	0.099
482.400	19.087	0.099
482.500	-7.393	0.099
482.600	-10.910	0.099
482.700	5.237	0.099
482.800	-4.672	0.099
482.900	-11.678	0.099
483.000	17.491	0.099
483.100	-17.977	0.099
483.200	28.658	0.099
483.300	24.095	0.099
483.400	15.012	0.099
483.500	-1.225	0.099
483.600	-3.651	0.099
483.700	13.590	0.099
483.800	35.076	0.099
483.900	-21.838	0.099
484.000	-18.724	0.099
484.100	10.874	0.099
484.200	17.176	0.099
484.300	8.708	0.099
484.400	19.248	0.100
484.500	10.467	0.100
484.600	25.070	0.100
484.700	-8.562	0.100
484.800	9.667	0.100
484.900	20.133	0.100
485.000	9.293	0.100
485.100	31.515	0.100
485.200	13.022	0.100
485.300	22.709	0.100
485.400	2.894	0.100
485.500	6.012	0.100
485.600	22.301	0.100
485.700	-0.159	0.100
485.800	-9.711	0.100
485.900	19.271	0.100
486.000	1.449	0.100
486.100	15.135	0.100
486.200	8.585	0.100
486.300	13.934	0.100
486.400	28.283	0.100
486.500	-18.174	0.100
486.600	9.194	0.100
486.700	23.367	0.100
486.800	26.187	0.100
486.900	4.404	0.100
487.000	-16.175	0.100
487.100	-23.499	0.100
487.200	19.723	0.100
487.300	32.725	0.100
487.400	16.599	0.100
487.500	-3.363	0.100
487.600	-6.394	0.100
487.700	6.905	0.100
487.800	23.630	0.100
487.900	-9.482	0.100
488.000	-9.220	0.100
488.100	6.342	0.100
488.200	24.440	0.100
488.300	14.666	0.100
488.400	22.400	0.100
488.500	3.835	0.100
488.600	11.450	0.100
488.700	29.244	0.100
488.800	3.258	0.100
488.900	13.989	0.100
489.000	-9.304	0.100
489.100	18.781	0.100
489.200	26.048	0.100
489.300	-12.906	0.100
489.400	7.759	0.100
489.500	-28.375	0.100
489.600	71.259	0.100
489.700	-12.051	0.100
489.800	26.450	0.100
489.900	3.558	0.100
490.000	28.952	0.100
490.100	20.856	0.100
490.200	3.763	0.100
490.300	21.309	0.100
490.400	22.486	0.100
490.500	16.070	0.100
490.600	7.131	0.100
490.700	18.058	0.100
490.800	9.363	0.100
490.900	13.854	0.100
491.000	-9.124	0.100
491.100	37.604	0.100
491.200	14.119	0.100
491.300	27.199	0.100
491.400	-14.978	0.100
491.500	26.257	0.100
491.600	10.122	0.100
491.700	-6.244	0.100
491.800	34.682	0.100
491.900	27.857	0.100
492.000	19.660	0.100
492.100	9.118	0.100
492.200	8.733	0.100
492.300	-12.647	0.100
492.400	13.804	0.100
492.500	30.063	0.100
492.600	20.044	0.100
492.700	8.693	0.100
492.800	26.802	0.100
492.900	45.682	0.100
493.000	12.230	0.100
493.100	-1.621	0.100
493.200	21.445	0.100
493.300	17.170	0.100
493.400	29.151	0.100
493.500	8.876	0.100
493.600	39.379	0.100
493.700	33.512	0.100
493.800	-7.240	0.100
493.900	-6.035	0.100
494.000	32.179	0.100
494.100	19.905	0.100
494.200	5.093	0.100
494.300	15.995	0.100
494.400	3.847	0.100
494.500	16.944	0.100
494.600	27.582	0.100
494.700	-3.952	0.100
494.800	39.375	0.100
494.900	41.888	0.100
495.000	33.695	0.100
495.100	5.118	0.100
495.200	8.708	0.100
495.300	31.813	0.100
495.400	15.636	0.100
495.500	19.858	0.100
495.600	25.417	0.100
495.700	28.805	0.100
495.800	-10.602	0.100
495.900	36.988	0.100
496.000	34.811	0.100
496.100	8.085	0.100
496.200	29.886	0.100
496.300	11.881	0.100
496.400	27.623	0.100
496.500	-3.984	0.100
496.600	37.729	0.100
496.700	18.039	0.100
496.800	-4.211	0.100
496.900	26.273	0.100
497.000	22.585	0.100
497.100	34.093	0.100
497.200	30.411	0.100
497.300	14.146	0.100
497.400	37.414	0.100
497.500	19.845	0.100
497.600	42.696	0.100
497.700	24.038	0.100
497.800	24.103	0.100
497.900	39.537	0.100
498.000	28.452	0.100
498.100	46.846	0.100
498.200	20.728	0.100
498.300	8.563	0.100
498.400	24.132	0.100
498.500	27.827	0.100
498.600	11.828	0.100
498.700	40.355	0.100
498.800	42.399	0.100
498.900	30.115	0.100
499.000	1.479	0.100
499.100	27.125	0.100
499.200	31.781	0.100
499.300	33.236	0.100
499.400	44.825	0.100
499.500	36.974	0.100
499.600	23.046	0.100
499.700	28.944	0.100
499.800	25.179	0.100
499.900	35.936	0.100
500.000	25.089	0.100
500.100	4.518	0.100
500.200	40.576	0.100
500.300	31.600	0.100
500.400	57.799	0.100
500.500	37.516	0.100
500.600	32.835	0.100
500.700	23.681	0.100
500.800	18.086	0.100
500.900	12.139	0.100
501.000	15.206	0.100
501.100	37.344	0.100
501.200	50.122	0.100
501.300	55.847	0.100
501.400	34.591	0.100
501.500	3.111	0.100
501.600	38.029	0.100
501.700	49.761	0.100
501.800	30.181	0.100
501.900	44.639	0.100
502.000	37.276	0.100
502.100	13.139	0.100
502.200	23.752	0.100
502.300	62.749	0.100
502.400	31.893	0.100
502.500	17.003	0.100
502.600	47.025	0.100
502.700	21.731	0.100
502.800	20.228	0.100
502.900	46.212	0.100
503.000	47.632	0.100
503.100	32.898	0.100
503.200	21.614	0.100
503.300	35.694	0.100
503.400	23.741	0.100
503.500	19.108	0.100
503.600	47.620	0.100
503.700	63.112	0.100
503.800	27.389	0.100
503.900	41.873	0.100
504.000	33.563	0.100
504.100	16.180	0.100
504.200	44.853	0.100
504.300	33.350	0.100
504.400	28.183	0.100
504.500	32.798	0.100
504.600	30.916	0.100
504.700	34.682	0.100
504.800	28.068	0.100
504.900	25.141	0.100
505.000	54.095	0.100
505.100	35.322	0.100
505.200	41.920	0.100
505.300	8.518	0.100
505.400	21.979	0.100
505.500	53.473	0.100
505.600	26.317	0.100
505.700	46.385	0.100
505.800	27.947	0.100
505.900	18.034	0.100
506.000	55.789	0.100
506.100	47.996	0.100
506.200	26.443	0.100
506.300	24.075	0.100
506.400	51.787	0.100
506.500	14.947	0.100
506.600	36.441	0.100
506.700	29.286	0.100
506.800	36.898	0.100
506.900	35.978	0.100
507.000	15.989	0.100
507.100	44.258	0.100
507.200	25.081	0.100
507.300	54.362	0.100
507.400	31.164	0.100
507.500	48.888	0.100
507.600	50.997	0.100
507.700	45.219	0.100
507.800	41.520	0.100
507.900	38.673	0.100
508.000	22.597	0.100
508.100	24.857	0.100
508.200	8.391	0.100
508.300	42.964	0.100
508.400	40.911	0.100
508.500	19.483	0.100
508.600	46.423	0.100
508.700	45.571	0.100
508.800	37.750	0.100
508.900	38.906	0.100
509.000	26.906	0.100
509.100	20.712	0.100
509.200	57.689	0.100
509.300	36.154	0.100
509.400	40.186	0.100
509.500	40.663	0.100
509.600	21.377	0.100
509.700	36.296	0.100
509.800	42.621	0.100
509.900	30.268	0.100
510.000	42.135	0.100
510.100	32.781	0.100
510.200	33.190	0.100
510.300	54.315	0.100
510.400	5.340	0.100
510.500	36.836	0.100
510.600	48.477	0.100
510.700	48.687	0.100
510.800	41.853	0.100
510.900	39.286	0.100
511.000	33.074	0.100
511.100	34.549	0.100
511.200	23.720	0.100
511.300	42.942	0.100
511.400	43.570	0.100
511.500	52.600	0.100
511.600	26.047	0.100
511.700	22.559	0.100
511.800	45.397	0.100
511.900	27.046	0.100
512.000	1.810	0.100
512.100	33.344	0.100
512.200	45.779	0.100
512.300	32.498	0.100
512.400	60.223	0.100
512.500	43.520	0.100
512.600	28.317	0.100
512.700	40.181	0.100
512.800	36.155	0.100
512.900	32.078	0.100
513.000	58.882	0.100
513.100	36.535	0.100
513.200	42.666	0.100
513.300	51.329	0.100
513.400	27.239	0.100
513.500	37.207	0.100
513.600	40.894	0.100
513.700	51.675	0.100
513.800	38.724	0.100
513.900	22.104	0.100
514.000	24.057	0.100
514.100	58.263	0.100
514.200	61.695	0.100
514.300	13.800	0.100
514.400	29.041	0.100
514.500	33.948	0.100
514.600	28.448	0.100
514.700	30.958	0.100
514.800	39.097	0.100
514.900	34.166	0.100
515.000	36.579	0.100
515.100	29.812	0.100
515.200	21.613	0.100
515.300	39.030	0.100
515.400	37.861	0.100
515.500	42.202	0.100
515.600	39.224	0.100
515.700	36.756	0.100
515.800	23.021	0.100
515.900	20.227	0.100
516.000	30.788	0.100
516.100	61.360	0.100
516.200	35.459	0.100
516.300	25.943	0.100
516.400	51.186	0.100
516.500	17.721	0.100
516.600	52.814	0.100
516.700	32.773	0.100
516.800	20.166	0.100
516.900	35.966	0.100
517.000	42.905	0.100
517.100	17.888	0.100
517.200	15.441	0.100
517.300	46.166	0.100
517.400	49.414	0.100
517.500	16.240	0.100
517.600	25.346	0.100
517.700	25.360	0.100
517.800	36.342	0.100
517.900	24.335	0.100
518.000	47.999	0.100
518.100	46.218	0.100
518.200	35.819	0.100
518.300	38.919	0.100
518.400	46.143	0.100
518.500	32.564	0.100
518.600	49.556	0.100
518.700	19.569	0.100
518.800	44.649	0.100
518.900	30.965	0.100
519.000	38.603	0.100
519.100	34.904	0.100
519.200	30.374	0.100
519.300	50.774	0.100
519.400	37.600	0.100
519.500	37.894	0.100
519.600	47.095	0.100
519.700	37.551	0.100
519.800	20.359	0.100
519.900	43.190	0.100
520.000	42.251	0.100
520.100	56.790	0.100
520.200	38.945	0.100
520.300	43.317	0.100
520.400	35.440	0.100
520.500	30.955	0.100
520.600	24.124	0.100
520.700	55.687	0.100
520.800	43.709	0.100
520.900	23.558	0.100
521.000	36.155	0.100
521.100	35.871	0.100
521.200	50.189	0.100
521.300	39.614	0.100
521.400	30.220	0.100
521.500	7.010	0.100
521.600	35.363	0.100
521.700	43.795	0.100
521.800	61.674	0.100
521.900	43.994	0.100
522.000	34.477	0.100
522.100	46.216	0.100
522.200	33.827	0.100
522.300	30.265	0.100
522.400	55.599	0.100
522.500	38.140	0.100
522.600	42.401	0.100
522.700	52.546	0.100
522.800	63.073	0.100
522.900	47.779	0.100
523.000	44.433	0.100
523.100	39.262	0.100
523.200	37.830	0.100
523.300	37.590	0.100
523.400	25.033	0.100
523.500	19.951	0.100
523.600	44.409	0.100
523.700	49.508	0.100
523.800	15.644	0.100
523.900	29.821	0.100
524.000	47.191	0.100
524.100	30.652	0.100
524.200	33.322	0.100
524.300	41.700	0.100
524.400	33.560	0.100
524.500	46.197	0.100
524.600	36.626	0.100
524.700	21.092	0.100
524.800	21.320	0.100
524.900	31.218	0.100
525.000	41.626	0.100
525.100	32.190	0.100
525.200	34.064	0.100
525.300	63.452	0.100
525.400	31.753	0.100
525.500	29.787	0.100
525.600	35.709	0.100
525.700	39.486	0.100
525.800	32.383	0.100
525.900	41.405	0.100
526.000	36.072	0.100
526.100	30.222	0.100
526.200	32.283	0.100
526.300	29.105	0.100
526.400	46.366	0.100
526.500	13.368	0.100
526.600	19.154	0.100
526.700	49.906	0.100
526.800	50.072	0.100
526.900	50.129	0.100
527.000	55.224	0.100
527.100	37.637	0.100
527.200	35.205	0.100
527.300	26.759	0.100
527.400	16.721	0.100
527.500	28.431	0.100
527.600	35.703	0.100
527.700	50.747	0.100
527.800	35.384	0.100
527.900	46.515	0.100
528.000	37.290	0.100
528.100	47.116	0.100
528.200	44.581	0.100
528.300	35.188	0.100
528.400	54.703	0.100
528.500	57.828	0.100
528.600	29.119	0.100
528.700	2.861	0.100
528.800	55.368	0.100
528.900	42.056	0.100
529.000	39.304	0.100
529.100	42.911	0.100
529.200	36.622	0.100
529.300	22.463	0.100
529.400	36.688	0.100
529.500	16.665	0.100
529.600	26.151	0.100
529.700	53.698	0.100
529.800	48.726	0.100
529.900	27.276	0.100
530.000	50.557	0.100
530.100	8.611	0.100
530.200	43.634	0.100
530.300	46.031	0.100
530.400	21.144	0.100
530.500	24.440	0.100
530.600	36.509	0.100
530.700	40.229	0.100
530.800	37.782	0.100
530.900	53.678	0.100
531.000	33.773	0.100
531.100	35.139	0.100
531.200	34.413	0.100
531.300	28.057	0.100
531.400	44.926	0.100
531.500	33.790	0.100
531.600	28.913	0.100
531.700	39.081	0.100
531.800	9.809	0.100
531.900	47.538	0.100
532.000	23.314	0.100
532.100	34.879	0.100
532.200	37.229	0.100
532.300	14.543	0.100
532.400	69.006	0.100
532.500	35.630	0.100
532.600	23.179	0.100
532.700	37.135	0.100
532.800	30.890	0.100
532.900	29.970	0.100
533.000	31.985	0.100
533.100	40.346	0.100
533.200	59.510	0.100
533.300	16.789	0.100
533.400	41.901	0.100
533.500	38.724	0.100
533.600	53.475	0.100
533.700	20.894	0.100
533.800	39.635	0.100
533.900	58.867	0.100
534.000	23.248	0.100
534.100	27.414	0.100
534.200	31.937	0.100
534.300	43.795	0.100
534.400	47.397	0.100
534.500	36.150	0.100
534.600	42.960	0.100
534.700	9.288	0.100
534.800	13.877	0.100
534.900	36.825	0.100
535.000	43.389	0.100
535.100	31.283	0.100
535.200	29.733	0.100
535.300	44.884	0.100
535.400	60.840	0.100
535.500	28.369	0.100
535.600	33.336	0.100
535.700	13.515	0.100
535.800	49.457	0.100
535.900	39.228	0.100
536.000	36.228	0.100
536.100	41.483	0.100
536.200	20.243	0.100
536.300	46.991	0.100
536.400	44.738	0.100
536.500	32.170	0.100
536.600	36.953	0.100
536.700	29.564	0.100
536.800	12.220	0.100
536.900	39.998	0.100
537.000	18.521	0.100
537.100	44.840	0.100
537.200	40.327	0.100
537.300	61.028	0.100
537.400	48.929	0.100
537.500	49.015	0.100
537.600	19.216	0.100
537.700	41.198	0.100
537.800	38.764	0.100
537.900	19.291	0.100
538.000	43.802	0.100
538.100	36.638	0.100
538.200	28.535	0.100
538.300	8.727	0.100
538.400	46.091	0.100
538.500	35.969	0.100
538.600	38.780	0.100
538.700	21.764	0.100
538.800	35.400	0.100
538.900	46.996	0.100
539.000	38.445	0.100
539.100	42.782	0.100
539.200	36.627	0.100
539.300	18.743	0.100
539.400	35.791	0.100
539.500	32.140	0.100
539.600	46.115	0.100
539.700	45.521	0.100
539.800	42.031	0.100
539.900	27.372	0.100
540.000	36.401	0.100
540.100	48.623	0.100
540.200	29.356	0.100
540.300	34.333	0.100
540.400	33.692	0.100
540.500	37.033	0.100
540.600	25.296	0.100
540.700	37.885	0.100
540.800	39.967	0.100
540.900	26.440	0.100
541.000	31.451	0.100
541.100	33.490	0.100
541.200	46.991	0.100
541.300	33.427	0.100
541.400	38.441	0.100
541.500	29.701	0.100
541.600	22.404	0.100
541.700	17.201	0.100
541.800	6.639	0.100
541.900	16.421	0.100
542.000	3.047	0.100
542.100	23.328	0.100
542.200	20.067	0.100
542.300	26.571	0.100
542.400	-22.587	0.100
542.500	5.733	0.100
542.600	20.522	0.100
542.700	13.896	0.100
542.800	12.000	0.100
542.900	-5.012	0.100
543.000	8.439	0.100
543.100	-12.687	0.100
543.200	4.550	0.100
543.300	-14.484	0.100
543.400	-12.019	0.100
543.500	13.725	0.100
543.600	-5.050	0.100
543.700	8.494	0.100
543.800	-27.554	0.100
543.900	-22.467	0.100
544.000	3.616	0.100
544.100	-13.886	0.100
544.200	-10.486	0.100
544.300	-6.696	0.100
544.400	-8.160	0.100
544.500	-9.004	0.100
544.600	-0.072	0.100
544.700	-7.307	0.100
544.800	5.632	0.100
544.900	-12.373	0.100
545.000	-1.566	0.100
545.100	-2.553	0.100
545.200	-26.316	0.100
545.300	-14.146	0.100
545.400	-19.765	0.100
545.500	-16.609	0.100
545.600	-22.591	0.100
545.700	0.287	0.100
545.800	-6.809	0.100
545.900	-31.063	0.100
546.000	4.554	0.100
546.100	-3.955	0.100
546.200	-30.687	0.100
546.300	-3.739	0.100
546.400	0.571	0.100
546.500	-4.613	0.100
546.600	13.794	0.100
546.700	-19.245	0.100
546.800	-16.158	0.100
546.900	-18.225	0.100
547.000	-16.633	0.100
547.100	-3.915	0.100
547.200	-20.713	0.100
547.300	-19.695	0.100
547.400	-7.263	0.100
547.500	-4.146	0.100
547.600	-9.761	0.100
547.700	-25.401	0.100
547.800	-24.415	0.100
547.900	-29.982	0.100
548.000	-7.665	0.100
548.100	-8.230	0.100
548.200	0.053	0.100
548.300	-4.091	0.100
548.400	-28.525	0.100
548.500	-45.744	0.100
548.600	-7.510	0.100
548.700	-20.856	0.100
548.800	-2.147	0.100
548.900	-20.374	0.100
549.000	6.438	0.100
549.100	24.957	0.100
549.200	-4.806	0.100
549.300	-22.065	0.100
549.400	-27.890	0.100
549.500	-1.318	0.100
549.600	0.974	0.100
549.700	-8.593	0.100
549.800	-25.021	0.100
549.900	-9.808	0.100
550.000	-16.858	0.100
550.100	-7.424	0.100
550.200	-29.177	0.100
550.300	-7.410	0.100
550.400	0.182	0.100
550.500	-0.604	0.100
550.600	-4.385	0.100
550.700	-5.761	0.100
550.800	-6.808	0.100
550.900	8.921	0.100
551.000	-13.165	0.100
551.100	-22.029	0.100
551.200	-29.359	0.100
551.300	-5.958	0.100
551.400	-22.047	0.100
551.500	-3.958	0.100
551.600	-20.929	0.100
551.700	-6.461	0.100
551.800	-6.172	0.100
551.900	-7.582	0.100
552.000	4.301	0.100
552.100	-28.592	0.100
552.200	1.026	0.100
552.300	0.191	0.100
552.400	-30.474	0.100
552.500	-44.298	0.100
552.600	-9.195	0.100
552.700	3.648	0.100
552.800	-30.266	0.100
552.900	-7.658	0.100
553.000	-1.480	0.100
553.100	-18.491	0.100
553.200	-32.215	0.100
553.300	-3.203	0.100
553.400	6.504	0.100
553.500	-9.955	0.100
553.600	-18.082	0.100
553.700	-22.834	0.100
553.800	-0.608	0.100
553.900	-11.841	0.100
554.000	-3.444	0.100
554.100	-10.764	0.100
554.200	-20.287	0.100
554.300	-15.528	0.100
554.400	-1.191	0.100
554.500	-24.233	0.100
554.600	-23.902	0.100
554.700	-5.238	0.100
554.800	-9.141	0.100
554.900	-9.716	0.100
555.000	-8.095	0.100
555.100	-40.682	0.100
555.200	-12.629	0.100
555.300	-7.226	0.100
555.400	-3.326	0.100
555.500	-31.025	0.100
555.600	-13.282	0.100
555.700	-16.713	0.100
555.800	-9.616	0.100
555.900	2.635	0.100
556.000	-15.247	0.100
556.100	-11.872	0.100
556.200	1.591	0.100
556.300	-19.216	0.100
556.400	-27.085	0.100
556.500	-7.750	0.100
556.600	-22.826	0.100
556.700	-11.443	0.100
556.800	-16.457	0.100
556.900	-22.404	0.100
557.000	-31.460	0.100
557.100	19.362	0.100
557.200	3.042	0.100
557.300	-29.056	0.100
557.400	4.236	0.100
557.500	-35.246	0.100
557.600	-35.803	0.100
557.700	-19.184	0.100
557.800	-17.090	0.100
557.900	-24.459	0.100
558.000	-17.300	0.100
558.100	-14.232	0.100
558.200	-3.826	0.100
558.300	-4.440	0.100
558.400	-23.594	0.100
558.500	-9.014	0.100
558.600	-19.065	0.100
558.700	2.391	0.100
558.800	-16.163	0.100
558.900	-4.009	0.100
559.000	-25.488	0.100
559.100	-7.180	0.100
559.200	-22.225	0.100
559.300	-15.128	0.100
559.400	-17.151	0.100
559.500	2.879	0.100
559.600	-21.533	0.100
559.700	-2.087	0.100
559.800	-25.837	0.100
559.900	-26.415	0.100
560.000	-35.206	0.100
560.100	-2.263	0.100
560.200	-25.697	0.100
560.300	-11.734	0.100
560.400	-15.911	0.100
560.500	-10.675	0.100
560.600	-27.590	0.100
560.700	-26.638	0.100
560.800	4.288	0.100
560.900	-8.615	0.100
561.000	-14.106	0.100
561.100	-13.125	0.100
561.200	-10.674	0.100
561.300	-25.903	0.100
561.400	-39.608	0.100
561.500	-4.802	0.100
561.600	-32.020	0.100
561.700	8.067	0.100
561.800	-7.052	0.100
561.900	-21.119	0.100
562.000	-1.631	0.100
562.100	-6.697	0.100
562.200	-33.671	0.100
562.300	-17.602	0.100
562.400	-16.484	0.100
562.500	7.478	0.100
562.600	-27.172	0.100
562.700	-18.340	0.100
562.800	-19.981	0.100
562.900	-30.807	0.100
563.000	-1.627	0.100
563.100	-15.307	0.100
563.200	-26.692	0.100
563.300	-36.915	0.100
563.400	-20.729	0.100
563.500	-21.388	0.100
563.600	-25.246	0.100
563.700	-31.751	0.100
563.800	-11.835	0.100
563.900	-25.922	0.100
564.000	-23.444	0.100
564.100	23.859	0.100
564.200	-20.369	0.100
564.300	-15.780	0.100
564.400	-12.007	0.100
564.500	-21.483	0.100
564.600	-50.324	0.100
564.700	19.898	0.100
564.800	-40.122	0.100
564.900	-33.614	0.100
565.000	-5.969	0.100
565.100	-24.014	0.100
565.200	-19.150	0.100
565.300	-34.338	0.100
565.400	-7.395	0.100
565.500	-41.044	0.100
565.600	-16.173	0.100
565.700	1.662	0.100
565.800	-18.720	0.100
565.900	-24.805	0.100
566.000	-18.680	0.100
566.100	-1.654	0.100
566.200	-41.666	0.100
566.300	-18.559	0.100
566.400	-5.339	0.100
566.500	-18.150	0.100
566.600	-6.725	0.100
566.700	-12.444	0.100
566.800	-30.107	0.100
566.900	-33.741	0.100
567.000	-12.903	0.100
567.100	-4.587	0.100
567.200	-3.669	0.100
567.300	-38.998	0.100
567.400	-16.656	0.100
567.500	-28.554	0.100
567.600	-16.491	0.100
567.700	-18.548	0.100
567.800	-9.754	0.100
567.900	-14.739	0.100
568.000	-22.905	0.100
568.100	-9.562	0.100
568.200	-36.352	0.100
568.300	-7.971	0.100
568.400	-21.758	0.100
568.500	-6.192	0.100
568.600	-13.864	0.100
568.700	-30.981	0.100
568.800	-4.282	0.100
568.900	-20.098	0.100
569.000	7.136	0.100
569.100	-38.214	0.100
569.200	-21.754	0.100
569.300	-28.635	0.100
569.400	-15.052	0.100
569.500	-5.369	0.100
569.600	-49.331	0.100
569.700	-6.303	0.100
569.800	-17.269	0.100
569.900	-52.134	0.100
570.000	-15.832	0.100
570.100	-18.206	0.100
570.200	-25.978	0.100
570.300	-9.590	0.100
570.400	-32.575	0.100
570.500	-15.630	0.100
570.600	-15.683	0.100
570.700	-11.930	0.100
570.800	-8.105	0.100
570.900	-17.871	0.100
571.000	-22.749	0.100
571.100	-24.035	0.100
571.200	-35.083	0.100
571.300	-40.722	0.100
571.400	-19.085	0.100
571.500	-16.531	0.100
571.600	-18.546	0.100
571.700	-3.159	0.100
571.800	-9.646	0.100
571.900	-18.907	0.100
572.000	-9.712	0.100
572.100	-22.553	0.100
572.200	-42.155	0.100
572.300	-17.454	0.100
572.400	-24.566	0.100
572.500	-35.990	0.100
572.600	-15.532	0.100
572.700	-21.210	0.100
572.800	-16.744	0.100
572.900	-10.074	0.100
573.000	-26.454	0.100
573.100	-6.960	0.100
573.200	-33.467	0.100
573.300	-7.909	0.100
573.400	-15.177	0.100
573.500	-25.894	0.100
573.600	-9.199	0.100
573.700	-30.824	0.100
573.800	-34.005	0.100
573.900	-19.557	0.100
574.000	-41.336	0.100
574.100	-27.834	0.100
574.200	-30.125	0.100
574.300	-26.528	0.100
574.400	-24.938	0.100
574.500	-28.015	0.100
574.600	-31.420	0.100
574.700	-25.676	0.100
574.800	-23.839	0.100
574.900	-11.392	0.100
575.000	-31.048	0.100
575.100	-16.216	0.100
575.200	-36.523	0.100
575.300	-25.371	0.100
575.400	-25.426	0.100
575.500	-18.895	0.100
575.600	-30.055	0.100
575.700	-7.400	0.100
575.800	-24.623	0.100
575.900	-13.067	0.100
576.000	-27.963	0.100
576.100	-35.601	0.100
576.200	-18.317	0.100
576.300	-11.938	0.100
576.400	-18.071	0.100
576.500	-33.604	0.100
576.600	-22.786	0.100
576.700	-27.734	0.100
576.800	-14.371	0.100
576.900	-23.794	0.100
577.000	-19.343	0.100
577.100	-20.030	0.100
577.200	-28.982	0.100
577.300	-41.750	0.100
577.400	-45.048	0.100
577.500	-23.535	0.100
577.600	-4.143	0.100
577.700	-11.893	0.100
577.800	-31.517	0.100
577.900	-25.265	0.100
578.000	-27.175	0.100
578.100	-14.314	0.100
578.200	-16.058	0.100
578.300	-32.604	0.100
578.400	-17.463	0.100
578.500	-32.526	0.100
578.600	-20.439	0.100
578.700	-33.927	0.100
578.800	-54.208	0.100
578.900	-13.267	0.100
579.000	-17.550	0.100
579.100	-14.704	0.100
579.200	-38.088	0.100
579.300	-17.952	0.100
579.400	-33.049	0.100
579.500	-17.444	0.100
579.600	-18.214	0.100
579.700	-13.820	0.100
579.800	-26.894	0.100
579.900	-31.250	0.100
580.000	-24.066	0.100
580.100	-29.605	0.100
580.200	-23.617	0.100
580.300	-24.279	0.100
580.400	-31.205	0.100
580.500	-24.508	0.100
580.600	-25.740	0.100
580.700	-24.106	0.100
580.800	-27.000	0.100
580.900	-46.231	0.100
581.000	-14.995	0.100
581.100	-18.967	0.100
581.200	-16.993	0.100
581.300	-16.177	0.100
581.400	-30.762	0.100
581.500	-33.068	0.100
581.600	4.050	0.100
581.700	-24.311	0.100
581.800	-30.148	0.100
581.900	-46.345	0.100
582.000	-37.524	0.100
582.100	-22.512	0.100
582.200	-8.050	0.100
582.300	-20.992	0.100
582.400	-51.498	0.100
582.500	-38.084	0.100
582.600	-18.665	0.100
582.700	-28.441	0.100
582.800	-39.572	0.100
582.900	-32.234	0.100
583.000	-10.931	0.100
583.100	-50.711	0.100
583.200	-29.894	0.100
583.300	-13.554	0.100
583.400	-34.714	0.100
583.500	-15.020	0.100
583.600	-33.070	0.100
583.700	-17.408	0.100
583.800	-30.407	0.100
583.900	-24.958	0.100
584.000	-16.658	0.100
584.100	-31.858	0.100
584.200	-28.036	0.100
584.300	-34.173	0.100
584.400	-20.118	0.100
584.500	-4.291	0.100
584.600	-34.053	0.100
584.700	-25.852	0.100
584.800	-7.908	0.100
584.900	-20.918	0.100
585.000	-31.912	0.100
585.100	-25.800	0.100
585.200	-26.200	0.100
585.300	-25.712	0.100
585.400	-43.328	0.100
585.500	-16.147	0.100
585.600	-24.855	0.100
585.700	-40.654	0.100
585.800	-41.261	0.100
585.900	-25.713	0.100
586.000	-33.048	0.100
586.100	-45.210	0.100
586.200	-21.537	0.100
586.300	-25.786	0.100
586.400	-26.308	0.100
586.500	-28.755	0.100
586.600	-35.370	0.100
586.700	-23.412	0.100
586.800	-48.936	0.100
586.900	-10.969	0.100
587.000	-40.148	0.100
587.100	-19.855	0.100
587.200	-14.036	0.100
587.300	-32.197	0.100
587.400	-20.652	0.100
587.500	-26.589	0.100
587.600	-24.728	0.100
587.700	-29.425	0.100
587.800	-31.125	0.100
587.900	-52.072	0.100
588.000	-24.839	0.100
588.100	-23.109	0.100
588.200	-25.938	0.100
588.300	-29.048	0.100
588.400	-14.090	0.100
588.500	-14.661	0.100
588.600	-7.885	0.100
588.700	-6.736	0.100
588.800	-34.086	0.100
588.900	-29.690	0.100
589.000	-28.039	0.100
589.100	-35.790	0.100
589.200	-30.188	0.100
589.300	-25.840	0.100
589.400	-31.969	0.100
589.500	-8.131	0.100
589.600	-11.694	0.100
589.700	-48.995	0.100
589.800	-20.965	0.100
589.900	-23.451	0.100
590.000	-24.243	0.100
590.100	-26.151	0.100
590.200	-49.656	0.100
590.300	-43.087	0.100
590.400	-22.210	0.100
590.500	-44.068	0.100
590.600	-16.170	0.100
590.700	-4.755	0.100
590.800	-22.913	0.100
590.900	-52.358	0.100
591.000	-23.617	0.100
591.100	-23.150	0.100
591.200	-24.851	0.100
591.300	-10.506	0.100
591.400	-25.545	0.100
591.500	-25.637	0.100
591.600	-0.823	0.100
591.700	-41.288	0.100
591.800	-38.165	0.100
591.900	-16.118	0.100
592.000	-9.029	0.100
592.100	-29.290	0.100
592.200	-44.679	0.100
592.300	-35.640	0.100
592.400	-18.753	0.100
592.500	-35.313	0.100
592.600	-34.402	0.100
592.700	-33.532	0.100
592.800	-25.564	0.100
592.900	-7.701	0.100
593.000	-53.003	0.100
593.100	-8.587	0.100
593.200	-20.822	0.100
593.300	-42.766	0.100
593.400	-4.580	0.100
593.500	-31.527	0.100
593.600	-28.691	0.100
593.700	-42.750	0.100
593.800	-17.098	0.100
593.900	-17.332	0.100
594.000	-23.474	0.100
594.100	-23.049	0.100
594.200	-41.117	0.100
594.300	-17.982	0.100
594.400	-40.932	0.100
594.500	-8.407	0.100
594.600	-22.139	0.100
594.700	-26.123	0.100
594.800	-25.657	0.100
594.900	-37.969	0.100
595.000	-24.460	0.100
595.100	-7.064	0.100
595.200	-27.089	0.100
595.300	-20.983	0.100
595.400	-34.559	0.100
595.500	-23.101	0.100
595.600	-15.019	0.100
595.700	-27.366	0.100
595.800	-31.156	0.100
595.900	-16.441	0.100
596.000	-47.992	0.100
596.100	-37.717	0.100
596.200	0.477	0.100
596.300	-19.815	0.100
596.400	-25.693	0.100
596.500	-33.645	0.100
596.600	-8.732	0.100
596.700	-27.610	0.100
596.800	-14.869	0.100
596.900	-45.616	0.100
597.000	-17.346	0.100
597.100	-17.350	0.100
597.200	-17.490	0.100
597.300	-21.205	0.100
597.400	-22.825	0.100
597.500	-40.944	0.100
597.600	-39.049	0.100
597.700	-21.311	0.100
597.800	-23.381	0.100
597.900	-7.485	0.100
598.000	-27.943	0.100
598.100	-24.982	0.100
598.200	-25.439	0.100
598.300	-18.207	0.100
598.400	-38.386	0.100
598.500	-42.851	0.100
598.600	-27.109	0.100
598.700	-13.802	0.100
598.800	-24.790	0.100
598.900	-35.841	0.100
599.000	-28.670	0.100
599.100	-9.266	0.100
599.200	-16.840	0.100
599.300	-29.137	0.100
599.400	-54.905	0.100
599.500	-27.857	0.100
599.600	-10.781	0.100
599.700	-18.953	0.100
599.800	-1.561	0.100
599.900	-20.660	0.100
600.000	-49.015	0.100
600.100	-16.141	0.100
600.200	-14.898	0.100
600.300	-22.141	0.100
600.400	-21.597	0.100
600.500	3.981	0.100
600.600	-18.831	0.100
600.700	-14.359	0.100
600.800	-53.538	0.100
600.900	-33.708	0.100
601.000	-37.311	0.100
601.100	-23.887	0.100
601.200	-50.419	0.100
601.300	-21.185	0.100
601.400	-16.173	0.100
601.500	-33.632	0.100
601.600	-26.101	0.100
601.700	-28.802	0.100
601.800	-23.014	0.100
601.900	-9.894	0.100
602.000	-23.363	0.100
602.100	-30.262	0.100
602.200	-38.682	0.100
602.300	-50.004	0.100
602.400	-35.765	0.100
602.500	-41.846	0.100
602.600	-17.013	0.100
602.700	-35.745	0.100
602.800	-12.886	0.100
602.900	-30.826	0.100
603.000	-5.619	0.100
603.100	-51.423	0.100
603.200	-40.618	0.100
603.300	-65.057	0.100
603.400	-40.527	0.100
603.500	-27.088	0.100
603.600	-41.206	0.100
603.700	-20.682	0.100
603.800	-17.914	0.100
603.900	-14.203	0.100
604.000	-26.256	0.100
604.100	-22.522	0.100
604.200	-3.902	0.100
604.300	-34.177	0.100
604.400	-14.850	0.100
604.500	-18.934	0.100
604.600	-51.137	0.100
604.700	-25.698	0.100
604.800	-24.989	0.100
604.900	-39.535	0.100
605.000	-28.768	0.100
605.100	-10.681	0.100
605.200	-34.173	0.100
605.300	5.431	0.100
605.400	-4.320	0.100
605.500	-29.571	0.100
605.600	-26.755	0.100
605.700	-27.559	0.100
605.800	-18.460	0.100
605.900	-26.528	0.100
606.000	-17.538	0.100
606.100	-22.128	0.100
606.200	-7.740	0.100
606.300	-13.240	0.100
606.400	-29.698	0.100
606.500	-20.552	0.100
606.600	-16.795	0.100
606.700	-37.082	0.100
606.800	-45.150	0.100
606.900	-33.254	0.100
607.000	-21.017	0.100
607.100	-29.699	0.100
607.200	-20.651	0.100
607.300	-28.085	0.100
607.400	-28.055	0.100
607.500	-34.589	0.100
607.600	-34.533	0.100
607.700	-19.427	0.100
607.800	-33.262	0.100
607.900	-31.682	0.100
608.000	-17.696	0.100
608.100	-36.219	0.100
608.200	-12.447	0.100
608.300	-14.220	0.100
608.400	-51.490	0.100
608.500	-22.704	0.100
608.600	-9.064	0.100
608.700	-28.598	0.100
608.800	-21.394	0.100
608.900	-29.404	0.100
609.000	-41.797	0.100
609.100	-17.773	0.100
609.200	-9.707	0.100
609.300	-27.530	0.100
609.400	-36.620	0.100
609.500	-34.294	0.100
609.600	-33.529	0.100
609.700	-27.693	0.100
609.800	-40.352	0.100
609.900	-24.478	0.100
610.000	-33.477	0.100
610.100	-18.632	0.100
610.200	-13.749	0.100
610.300	-53.233	0.100
610.400	-28.953	0.100
610.500	-7.410	0.100
610.600	-25.835	0.100
610.700	-0.570	0.100
610.800	-38.343	0.100
610.900	-29.118	0.100
611.000	-24.795	0.100
611.100	-20.323	0.100
611.200	-16.620	0.100
611.300	-10.734	0.100
611.400	-22.622	0.100
611.500	-26.453	0.100
611.600	-42.643	0.100
611.700	-23.444	0.100
611.800	-7.338	0.100
611.900	-49.856	0.100
612.000	-13.520	0.100
612.100	-24.682	0.100
612.200	-31.394	0.100
612.300	-22.150	0.100
612.400	-21.954	0.100
612.500	-7.592	0.100
612.600	-21.957	0.100
612.700	-21.121	0.100
612.800	-17.889	0.100
612.900	-40.197	0.100
613.000	-12.270	0.100
613.100	-24.449	0.100
613.200	-30.273	0.100
613.300	-13.289	0.100
613.400	-16.220	0.100
613.500	-16.437	0.100
613.600	-27.009	0.100
613.700	-12.718	0.100
613.800	-23.504	0.100
613.900	-9.688	0.100
614.000	-32.882	0.100
614.100	-44.410	0.100
614.200	-18.745	0.100
614.300	-12.413	0.100
614.400	-12.717	0.100
614.500	-37.467	0.100
614.600	-21.350	0.100
614.700	-65.583	0.100
614.800	-12.373	0.100
614.900	-24.176	0.100
615.000	-13.469	0.100
615.100	-32.390	0.100
615.200	-24.922	0.100
615.300	-3.388	0.100
615.400	-15.553	0.100
615.500	-25.714	0.100
615.600	-31.009	0.100
615.700	-30.172	0.100
615.800	-30.530	0.100
615.900	-8.337	0.100
616.000	-17.308	0.100
616.100	-11.421	0.100
616.200	-30.971	0.100
616.300	-26.052	0.100
616.400	-29.450	0.100
616.500	-1.360	0.100
616.600	-21.480	0.100
616.700	-35.174	0.100
616.800	-31.304	0.100
616.900	-16.607	0.100
617.000	-27.476	0.100
617.100	-14.890	0.100
617.200	-19.784	0.100
617.300	-31.899	0.100
617.400	-59.213	0.100
617.500	-28.218	0.100
617.600	-16.077	0.100
617.700	-11.050	0.100
617.800	-26.564	0.100
617.900	-36.859	0.100
618.000	-13.992	0.100
618.100	-16.405	0.100
618.200	-32.708	0.100
618.300	-36.251	0.100
618.400	-35.738	0.100
618.500	-11.238	0.100
618.600	-6.658	0.100
618.700	-19.101	0.100
618.800	-17.138	0.100
618.900	-42.993	0.100
619.000	-44.053	0.100
619.100	-30.145	0.100
619.200	-9.451	0.100
619.300	-10.735	0.100
619.400	-11.753	0.100
619.500	-37.762	0.100
619.600	-55.495	0.100
619.700	-6.348	0.100
619.800	-18.295	0.100
619.900	-19.875	0.100
620.000	-36.712	0.100
620.100	-20.432	0.100
620.200	-7.657	0.100
620.300	-16.304	0.100
620.400	-50.223	0.100
620.500	-11.581	0.100
620.600	-1.472	0.100
620.700	-44.925	0.100
620.800	-31.283	0.100
620.900	-26.505	0.100
621.000	-26.024	0.100
621.100	-14.770	0.100
621.200	-36.794	0.100
621.300	-16.957	0.100
621.400	-33.246	0.100
621.500	-31.619	0.100
621.600	-22.570	0.100
621.700	-32.530	0.100
621.800	-8.025	0.100
621.900	-47.674	0.100
622.000	-8.772	0.100
622.100	-18.948	0.100
622.200	-7.685	0.100
622.300	-22.111	0.100
622.400	-17.121	0.100
622.500	-25.779	0.100
622.600	-12.292	0.100
622.700	-6.975	0.100
622.800	-17.706	0.100
622.900	-41.850	0.100
623.000	-26.107	0.100
623.100	-37.025	0.100
623.200	-16.984	0.100
623.300	-0.598	0.100
623.400	-17.856	0.100
623.500	-13.725	0.100
623.600	-33.936	0.100
623.700	-35.691	0.100
623.800	-45.997	0.100
623.900	-37.450	0.100
624.000	-29.996	0.100
624.100	-16.233	0.100
624.200	-5.565	0.100
624.300	-13.772	0.100
624.400	-10.684	0.100
624.500	-10.390	0.100
624.600	-13.446	0.100
624.700	-12.945	0.100
624.800	-20.918	0.100
624.900	-14.932	0.100
625.000	-19.050	0.100
625.100	-11.601	0.100
625.200	-32.913	0.100
625.300	-33.744	0.100
625.400	-18.286	0.100
625.500	-33.306	0.100
625.600	-33.421	0.100
625.700	-6.072	0.100
625.800	-20.074	0.100
625.900	-25.365	0.100
626.000	-21.158	0.100
626.100	-18.337	0.100
626.200	-0.112	0.100
626.300	-31.983	0.100
626.400	-30.007	0.100
626.500	-32.054	0.100
626.600	-31.811	0.100
626.700	8.912	0.100
626.800	-34.924	0.100
626.900	-0.137	0.100
627.000	-40.465	0.100
627.100	-9.675	0.100
627.200	-41.792	0.100
627.300	-3.916	0.100
627.400	-32.224	0.100
627.500	-8.494	0.100
627.600	-7.727	0.100
627.700	-37.047	0.100
627.800	-12.321	0.100
627.900	0.038	0.100
628.000	-24.580	0.100
628.100	-15.862	0.100
628.200	-9.450	0.100
628.300	-35.175	0.100
628.400	-4.751	0.100
628.500	-15.589	0.100
628.600	-13.195	0.100
628.700	-27.487	0.100
628.800	-9.156	0.100
628.900	-2.086	0.100
629.000	-5.178	0.100
629.100	-18.546	0.100
629.200	12.663	0.100
629.300	-13.773	0.100
629.400	-29.174	0.100
629.500	-32.274	0.100
629.600	-41.662	0.100
629.700	-11.904	0.100
629.800	-5.594	0.100
629.900	-12.506	0.100
630.000	-3.709	0.100
630.100	-2.475	0.100
630.200	-21.057	0.100
630.300	-7.181	0.100
630.400	-27.847	0.100
630.500	-14.206	0.100
630.600	-30.151	0.100
630.700	-25.762	0.100
630.800	-13.275	0.100
630.900	-6.196	0.100
631.000	-17.540	0.100
631.100	-27.824	0.100
631.200	-36.025	0.100
631.300	25.058	0.100
631.400	6.212	0.100
631.500	-13.045	0.100
631.600	-8.266	0.100
631.700	-17.546	0.100
631.800	-4.102	0.100
631.900	-6.349	0.100
632.000	-14.712	0.100
632.100	-1.388	0.100
632.200	1.587	0.100
632.300	-2.282	0.100
632.400	-3.154	0.100
632.500	11.775	0.100
632.600	20.493	0.100
632.700	18.914	0.100
632.800	3.789	0.100
632.900	6.918	0.100
633.000	-0.796	0.100
633.100	7.390	0.100
633.200	23.923	0.100
633.300	22.798	0.100
633.400	20.572	0.100
633.500	-8.958	0.100
633.600	24.808	0.100
633.700	-19.694	0.100
633.800	9.577	0.100
633.900	-18.964	0.100
634.000	20.604	0.100
634.100	23.359	0.100
634.200	24.133	0.100
634.300	15.924	0.100
634.400	3.842	0.100
634.500	20.467	0.100
634.600	13.305	0.100
634.700	30.645	0.100
634.800	10.636	0.100
634.900	20.057	0.100
635.000	8.694	0.100
635.100	1.842	0.100
635.200	-3.173	0.100
635.300	22.538	0.100
635.400	28.940	0.100
635.500	-4.864	0.100
635.600	16.258	0.100
635.700	11.673	0.100
635.800	0.559	0.100
635.900	19.689	0.100
636.000	27.043	0.100
636.100	23.919	0.100
636.200	-6.700	0.100
636.300	-1.265	0.100
636.400	34.548	0.100
636.500	24.939	0.100
636.600	33.475	0.100
636.700	25.400	0.100
636.800	4.802	0.100
636.900	10.468	0.100
637.000	3.551	0.100
637.100	16.540	0.100
637.200	26.673	0.100
637.300	-1.234	0.100
637.400	17.578	0.100
637.500	14.661	0.100
637.600	20.730	0.100
637.700	18.838	0.100
637.800	12.605	0.100
637.900	9.639	0.100
638.000	14.624	0.100
638.100	24.065	0.100
638.200	4.636	0.100
638.300	5.235	0.100
638.400	2.876	0.100
638.500	10.914	0.100
638.600	7.364	0.100
638.700	23.018	0.100
638.800	17.378	0.100
638.900	6.608	0.100
639.000	-0.756	0.100
639.100	15.360	0.100
639.200	15.368	0.100
639.300	20.861	0.100
639.400	15.618	0.100
639.500	-2.212	0.100
639.600	20.190	0.100
639.700	22.816	0.100
639.800	1.606	0.100
639.900	11.869	0.100
640.000	9.860	0.100
640.100	22.862	0.100
640.200	20.072	0.100
640.300	5.493	0.100
640.400	39.149	0.100
640.500	23.201	0.100
640.600	8.211	0.100
640.700	30.861	0.100
640.800	23.796	0.100
640.900	18.183	0.100
641.000	18.153	0.100
641.100	20.044	0.100
641.200	33.871	0.100
641.300	-6.596	0.100
641.400	-9.171	0.100
641.500	3.332	0.100
641.600	30.847	0.100
641.700	16.190	0.100
641.800	16.507	0.100
641.900	7.523	0.100
642.000	14.837	0.100
642.100	15.971	0.100
642.200	19.379	0.100
642.300	7.114	0.100
642.400	21.995	0.100
642.500	7.353	0.100
642.600	4.440	0.100
642.700	-7.646	0.100
642.800	45.143	0.100
642.900	15.681	0.100
643.000	25.863	0.100
643.100	24.965	0.100
643.200	28.260	0.100
643.300	8.234	0.100
643.400	26.331	0.100
643.500	35.343	0.100
643.600	31.043	0.100
643.700	12.636	0.100
643.800	29.815	0.100
643.900	2.018	0.100
644.000	13.516	0.100
644.100	33.251	0.100
644.200	38.830	0.100
644.300	23.542	0.100
644.400	22.668	0.100
644.500	17.430	0.100
644.600	39.606	0.100
644.700	11.450	0.100
644.800	18.984	0.100
644.900	17.038	0.100
645.000	6.830	0.100
645.100	5.509	0.100
645.200	11.804	0.100
645.300	48.658	0.100
645.400	40.166	0.100
645.500	11.201	0.100
645.600	9.533	0.100
645.700	32.885	0.100
645.800	36.088	0.100
645.900	38.394	0.100
646.000	18.814	0.100
646.100	24.324	0.100
646.200	24.444	0.100
646.300	27.791	0.100
646.400	16.147	0.100
646.500	10.899	0.100
646.600	0.795	0.100
646.700	49.439	0.100
646.800	-12.510	0.100
646.900	25.228	0.100
647.000	24.543	0.100
647.100	35.989	0.100
647.200	35.202	0.100
647.300	8.746	0.100
647.400	40.007	0.100
647.500	43.519	0.100
647.600	-9.210	0.100
647.700	28.371	0.100
647.800	32.477	0.100
647.900	42.194	0.100
648.000	32.083	0.100
648.100	25.431	0.100
648.200	-2.616	0.100
648.300	43.600	0.100
648.400	47.132	0.100
648.500	23.536	0.100
648.600	20.077	0.100
648.700	25.650	0.100
648.800	56.867	0.100
648.900	25.103	0.100
649.000	30.402	0.100
649.100	32.543	0.100
649.200	20.067	0.100
649.300	4.996	0.100
649.400	27.276	0.100
649.500	32.254	0.100
649.600	13.995	0.100
649.700	2.078	0.100
649.800	22.612	0.100
649.900	11.293	0.100
650.000	39.564	0.100
650.100	50.863	0.100
650.200	30.655	0.100
650.300	53.088	0.100
650.400	25.634	0.100
650.500	29.280	0.100
650.600	16.703	0.100
650.700	12.910	0.100
650.800	46.586	0.100
650.900	50.391	0.100
651.000	42.794	0.100
651.100	21.611	0.100
651.200	20.109	0.100
651.300	39.877	0.100
651.400	38.267	0.100
651.500	51.361	0.100
651.600	20.017	0.100
651.700	24.146	0.100
651.800	41.954	0.100
651.900	27.525	0.100
652.000	60.276	0.100
652.100	58.600	0.100
652.200	35.027	0.100
652.300	35.485	0.100
652.400	21.861	0.100
652.500	41.303	0.100
652.600	65.695	0.100
652.700	40.039	0.100
652.800	27.411	0.100
652.900	64.716	0.100
653.000	34.645	0.100
653.100	34.279	0.100
653.200	14.495	0.100
653.300	40.542	0.100
653.400	58.073	0.100
653.500	37.719	0.100
653.600	34.141	0.100
653.700	35.147	0.100
653.800	36.133	0.100
653.900	46.303	0.100
654.000	61.573	0.100
654.100	51.594	0.100
654.200	26.761	0.100
654.300	37.233	0.100
654.400	46.572	0.100
654.500	35.602	0.100
654.600	11.810	0.100
654.700	43.509	0.100
654.800	51.028	0.100
654.900	31.256	0.100
655.000	39.837	0.100
655.100	31.575	0.100
655.200	36.288	0.100
655.300	33.673	0.100
655.400	26.394	0.100
655.500	39.311	0.100
655.600	35.952	0.100
655.700	42.440	0.100
655.800	46.166	0.100
655.900	17.263	0.100
656.000	41.049	0.100
656.100	44.267	0.100
656.200	37.494	0.100
656.300	27.806	0.100
656.400	45.331	0.100
656.500	61.803	0.100
656.600	38.737	0.100
656.700	32.348	0.100
656.800	63.167	0.100
656.900	38.708	0.100
657.000	24.417	0.100
657.100	16.917	0.100
657.200	57.910	0.100
657.300	36.115	0.100
657.400	31.763	0.100
657.500	14.543	0.100
657.600	33.808	0.100
657.700	16.060	0.100
657.800	35.288	0.100
657.900	30.926	0.100
658.000	43.887	0.100
658.100	43.279	0.100
658.200	48.494	0.100
658.300	30.026	0.100
658.400	36.007	0.100
658.500	26.819	0.100
658.600	40.693	0.100
658.700	58.932	0.100
658.800	28.208	0.100
658.900	49.433	0.100
659.000	42.724	0.100
659.100	32.044	0.100
659.200	24.265	0.100
659.300	43.998	0.100
659.400	55.366	0.100
659.500	39.292	0.100
659.600	26.067	0.100
659.700	50.539	0.100
659.800	40.025	0.100
659.900	27.098	0.100
660.000	51.905	0.100
660.100	22.139	0.100
660.200	57.282	0.100
660.300	25.364	0.100
660.400	51.767	0.100
660.500	54.579	0.100
660.600	28.874	0.100
660.700	44.150	0.100
660.800	17.703	0.100
660.900	41.397	0.100
661.000	59.485	0.100
661.100	46.079	0.100
661.200	32.042	0.100
661.300	50.092	0.100
661.400	47.193	0.100
661.500	28.922	0.100
661.600	40.700	0.100
661.700	44.139	0.100
661.800	30.476	0.100
661.900	25.470	0.100
662.000	27.115	0.100
662.100	49.166	0.100
662.200	58.030	0.100
662.300	35.519	0.100
662.400	52.191	0.100
662.500	41.743	0.100
662.600	26.108	0.100
662.700	35.547	0.100
662.800	55.487	0.100
662.900	54.724	0.100
663.000	65.684	0.100
663.100	34.434	0.100
663.200	24.600	0.100
663.300	45.920	0.100
663.400	58.212	0.100
663.500	37.081	0.100
663.600	23.413	0.100
663.700	60.613	0.100
663.800	50.464	0.100
663.900	58.250	0.100
664.000	33.323	0.100
664.100	32.152	0.100
664.200	20.161	0.100
664.300	24.144	0.100
664.400	21.097	0.100
664.500	65.538	0.100
664.600	39.780	0.100
664.700	21.665	0.100
664.800	45.035	0.100
664.900	22.925	0.100
665.000	39.915	0.100
665.100	49.230	0.100
665.200	39.346	0.100
665.300	41.872	0.100
665.400	49.835	0.100
665.500	57.101	0.100
665.600	42.212	0.100
665.700	54.578	0.100
665.800	56.424	0.100
665.900	47.871	0.100
666.000	29.590	0.100
666.100	41.624	0.100
666.200	37.032	0.100
666.300	49.176	0.100
666.400	46.559	0.100
666.500	35.659	0.100
666.600	30.115	0.100
666.700	46.511	0.100
666.800	30.221	0.100
666.900	35.751	0.100
667.000	32.525	0.100
667.100	45.096	0.100
667.200	42.796	0.100
667.300	30.631	0.100
667.400	29.984	0.100
667.500	32.818	0.100
667.600	60.853	0.100
667.700	51.178	0.100
667.800	28.316	0.100
667.900	29.461	0.100
668.000	32.135	0.100
668.100	80.614	0.100
668.200	42.403	0.100
668.300	30.288	0.100
668.400	34.254	0.100
668.500	25.088	0.100
668.600	36.003	0.100
668.700	46.275	0.100
668.800	43.353	0.100
668.900	31.102	0.100
669.000	43.685	0.100
669.100	56.870	0.100
669.200	44.519	0.100
669.300	37.046	0.100
669.400	41.454	0.100
669.500	77.099	0.100
669.600	47.248	0.100
669.700	53.091	0.100
669.800	0.679	0.100
669.900	17.215	0.100
670.000	22.675	0.100
670.100	50.784	0.100
670.200	25.518	0.100
670.300	40.609	0.100
670.400	48.067	0.100
670.500	40.121	0.100
670.600	21.259	0.100
670.700	69.297	0.100
670.800	9.069	0.100
670.900	29.364	0.100
671.000	59.574	0.100
671.100	31.643	0.100
671.200	26.630	0.100
671.300	22.932	0.100
671.400	54.761	0.100
671.500	50.698	0.100
671.600	18.554	0.100
671.700	37.642	0.100
671.800	27.808	0.100
671.900	30.290	0.100
672.000	41.865	0.100
672.100	20.540	0.100
672.200	45.160	0.100
672.300	42.023	0.100
672.400	37.948	0.100
672.500	45.826	0.100
672.600	32.759	0.100
672.700	22.820	0.100
672.800	31.088	0.100
672.900	68.762	0.100
673.000	45.931	0.100
673.100	49.036	0.100
673.200	28.264	0.100
673.300	63.531	0.100
673.400	35.724	0.100
673.500	42.470	0.100
673.600	42.860	0.100
673.700	18.656	0.100
673.800	68.949	0.100
673.900	51.760	0.100
674.000	42.568	0.100
674.100	16.883	0.100
674.200	35.115	0.100
674.300	40.777	0.100
674.400	29.260	0.100
674.500	41.163	0.100
674.600	41.401	0.100
674.700	39.492	0.100
674.800	27.237	0.100
674.900	62.796	0.100
675.000	27.623	0.100
675.100	83.945	0.100
675.200	29.562	0.100
675.300	33.013	0.100
675.400	52.517	0.100
675.500	45.555	0.100
675.600	25.201	0.100
675.700	50.847	0.100
675.800	37.314	0.100
675.900	28.755	0.100
676.000	21.880	0.100
676.100	43.201	0.100
676.200	35.950	0.100
676.300	34.811	0.100
676.400	37.592	0.100
676.500	50.343	0.100
676.600	55.082	0.100
676.700	23.134	0.100
676.800	35.400	0.100
676.900	22.911	0.100
677.000	64.452	0.100
677.100	41.961	0.100
677.200	11.969	0.100
677.300	45.287	0.100
677.400	46.792	0.100
677.500	48.857	0.100
677.600	46.355	0.100
677.700	40.128	0.100
677.800	59.105	0.100
677.900	26.534	0.100
678.000	45.723	0.100
678.100	35.437	0.100
678.200	31.058	0.100
678.300	17.285	0.100
678.400	39.277	0.100
678.500	35.238	0.100
678.600	55.537	0.100
678.700	54.819	0.100
678.800	39.727	0.100
678.900	22.350	0.100
679.000	59.887	0.100
679.100	33.665	0.100
679.200	25.803	0.100
679.300	54.049	0.100
679.400	52.805	0.100
679.500	24.274	0.100
679.600	50.238	0.100
679.700	24.489	0.100
679.800	38.048	0.100
679.900	57.836	0.100
680.000	31.354	0.100
680.100	39.171	0.100
680.200	46.926	0.100
680.300	39.024	0.100
680.400	25.513	0.100
680.500	34.543	0.100
680.600	22.080	0.100
680.700	41.761	0.100
680.800	37.869	0.100
680.900	22.922	0.100
681.000	35.321	0.100
681.100	56.864	0.100
681.200	58.207	0.100
681.300	56.627	0.100
681.400	26.245	0.100
681.500	33.729	0.100
681.600	15.664	0.100
681.700	42.365	0.100
681.800	34.627	0.100
681.900	62.528	0.100
682.000	5.232	0.100
682.100	43.149	0.100
682.200	29.480	0.100
682.300	28.800	0.100
682.400	26.509	0.100
682.500	48.252	0.100
682.600	32.369	0.100
682.700	39.645	0.100
682.800	24.331	0.100
682.900	23.162	0.100
683.000	47.808	0.100
683.100	58.657	0.100
683.200	31.939	0.100
683.300	18.838	0.100
683.400	63.323	0.100
683.500	49.821	0.100
683.600	28.676	0.100
683.700	31.247	0.100
683.800	39.240	0.100
683.900	38.340	0.100
684.000	49.063	0.100
684.100	43.639	0.100
684.200	3.590	0.100
684.300	51.286	0.100
684.400	25.780	0.100
684.500	57.202	0.100
684.600	30.623	0.100
684.700	24.496	0.100
684.800	46.371	0.100
684.900	25.622	0.100
685.000	42.092	0.100
685.100	38.994	0.100
685.200	33.205	0.100
685.300	39.091	0.100
685.400	50.732	0.100
685.500	29.210	0.100
685.600	32.108	0.100
685.700	21.264	0.100
685.800	41.350	0.100
685.900	44.560	0.100
686.000	58.230	0.100
686.100	51.251	0.100
686.200	42.812	0.100
686.300	33.486	0.100
686.400	48.014	0.100
686.500	34.686	0.100
686.600	42.757	0.100
686.700	13.629	0.100
686.800	15.718	0.100
686.900	29.675	0.100
687.000	53.862	0.100
687.100	24.887	0.100
687.200	44.730	0.100
687.300	46.509	0.100
687.400	49.136	0.100
687.500	55.854	0.100
687.600	51.476	0.100
687.700	14.849	0.100
687.800	40.571	0.100
687.900	54.187	0.100
688.000	20.903	0.100
688.100	54.455	0.100
688.200	42.031	0.100
688.300	40.863	0.100
688.400	42.477	0.100
688.500	18.625	0.100
688.600	41.620	0.100
688.700	31.444	0.100
688.800	46.032	0.100
688.900	48.075	0.100
689.000	39.315	0.100
689.100	27.618	0.100
689.200	36.813	0.100
689.300	47.493	0.100
689.400	44.010	0.100
689.500	28.552	0.100
689.600	30.120	0.100
689.700	52.854	0.100
689.800	16.096	0.100
689.900	31.410	0.100
690.000	59.522	0.100
690.100	46.012	0.100
690.200	21.231	0.100
690.300	16.379	0.100
690.400	42.063	0.100
690.500	46.431	0.100
690.600	50.597	0.100
690.700	44.006	0.100
690.800	36.705	0.100
690.900	-1.133	0.100
691.000	31.872	0.100
691.100	32.194	0.100
691.200	19.582	0.100
691.300	26.705	0.100
691.400	43.275	0.100
691.500	22.446	0.100
691.600	16.187	0.100
691.700	16.503	0.100
691.800	13.605	0.100
691.900	-17.456	0.100
692.000	12.094	0.100
692.100	36.610	0.100
692.200	-6.472	0.100
692.300	5.471	0.100
692.400	11.445	0.100
692.500	40.997	0.100
692.600	26.927	0.100
692.700	3.173	0.100
692.800	-11.790	0.100
692.900	7.221	0.100
693.000	17.639	0.100
693.100	-0.096	0.100
693.200	-11.168	0.100
693.300	-4.817	0.100
693.400	11.811	0.100
693.500	-5.056	0.100
693.600	2.374	0.100
693.700	-2.404	0.100
693.800	2.890	0.100
693.900	-3.059	0.100
694.000	-10.498	0.100
694.100	-5.841	0.100
694.200	-12.913	0.100
694.300	-12.438	0.100
694.400	-1.766	0.100
694.500	4.203	0.100
694.600	-24.816	0.100
694.700	-14.915	0.100
694.800	2.739	0.100
694.900	-19.021	0.100
695.000	-27.628	0.100
695.100	-10.257	0.100
695.200	2.389	0.100
695.300	3.193	0.100
695.400	-27.018	0.100
695.500	-8.687	0.100
695.600	-30.078	0.100
695.700	-15.607	0.100
695.800	-42.155	0.100
695.900	-4.097	0.100
696.000	0.828	0.100
696.100	-41.528	0.100
696.200	-10.203	0.100
696.300	-10.853	0.100
696.400	0.914	0.100
696.500	-5.679	0.100
696.600	-32.560	0.100
696.700	-20.486	0.100
696.800	3.686	0.100
696.900	-7.602	0.100
697.000	-7.748	0.100
697.100	4.797	0.100
697.200	-33.158	0.100
697.300	-16.848	0.100
697.400	-5.583	0.100
697.500	-8.754	0.100
697.600	-9.257	0.100
697.700	-9.491	0.100
697.800	-14.763	0.100
697.900	-25.947	0.100
698.000	1.012	0.100
698.100	16.877	0.100
698.200	-31.353	0.100
698.300	-2.123	0.100
698.400	-1.524	0.100
698.500	-17.383	0.100
698.600	-23.507	0.100
698.700	0.201	0.100
698.800	-7.907	0.100
698.900	-13.507	0.100
699.000	-27.639	0.100
699.100	3.668	0.100
699.200	-6.570	0.100
699.300	-12.134	0.100
699.400	-13.015	0.100
699.500	-22.546	0.100
699.600	-13.240	0.100
699.700	-2.784	0.100
699.800	-29.971	0.100
699.900	-11.214	0.100
700.000	-25.182	0.100
700.100	-9.984	0.100
700.200	-0.304	0.100
700.300	-16.278	0.100
700.400	-8.768	0.100
700.500	-16.227	0.100
700.600	-20.338	0.100
700.700	-18.468	0.100
700.800	-25.547	0.100
700.900	-0.409	0.100
701.000	4.992	0.100
701.100	15.153	0.100
701.200	4.291	0.100
701.300	-12.992	0.100
701.400	-8.069	0.100
701.500	-11.142	0.100
701.600	-14.006	0.100
701.700	-2.699	0.100
701.800	-6.483	0.100
701.900	-13.133	0.100
702.000	-5.769	0.100
702.100	-19.956	0.100
702.200	-24.211	0.100
702.300	-24.346	0.100
702.400	12.735	0.100
702.500	-6.156	0.100
702.600	-5.399	0.100
702.700	0.468	0.100
702.800	-6.370	0.100
702.900	-29.746	0.100
703.000	-28.069	0.100
703.100	-10.029	0.100
703.200	16.811	0.100
703.300	-24.014	0.100
703.400	1.522	0.100
703.500	-6.727	0.100
703.600	-20.947	0.100
703.700	-14.478	0.100
703.800	-12.340	0.100
703.900	-19.959	0.100
704.000	-4.735	0.100
704.100	-12.647	0.100
704.200	-6.593	0.100
704.300	-9.045	0.100
704.400	-14.692	0.100
704.500	-24.123	0.100
704.600	-6.016	0.100
704.700	-4.674	0.100
704.800	-10.744	0.100
704.900	-13.537	0.100
705.000	-6.862	0.100
705.100	3.131	0.100
705.200	16.877	0.100
705.300	-44.546	0.100
705.400	-2.671	0.100
705.500	-9.699	0.100
705.600	-8.926	0.100
705.700	-29.355	0.100
705.800	-0.481	0.100
705.900	-5.611	0.100
706.000	6.614	0.100
706.100	-17.025	0.100
706.200	-21.053	0.100
706.300	-3.176	0.100
706.400	-16.036	0.100
706.500	-38.670	0.100
706.600	-21.241	0.100
706.700	17.493	0.100
706.800	13.539	0.100
706.900	-23.695	0.100
707.000	-12.066	0.100
707.100	-26.341	0.100
707.200	-13.709	0.100
707.300	-30.182	0.100
707.400	-10.114	0.100
707.500	-10.369	0.100
707.600	2.157	0.100
707.700	-13.850	0.100
707.800	9.858	0.100
707.900	-11.279	0.100
708.000	-33.277	0.100
708.100	0.089	0.100
708.200	-13.407	0.100
708.300	-36.334	0.100
708.400	1.238	0.100
708.500	2.635	0.100
708.600	-22.599	0.100
708.700	5.535	0.100
708.800	-11.121	0.100
708.900	-18.650	0.100
709.000	-18.949	0.100
709.100	3.531	0.100
709.200	-10.017	0.100
709.300	-22.487	0.100
709.400	1.532	0.100
709.500	-41.542	0.100
709.600	-20.325	0.100
709.700	-33.390	0.100
709.800	2.514	0.100
709.900	2.770	0.100
710.000	-15.080	0.100
710.100	-26.725	0.100
710.200	-27.289	0.100
710.300	-10.260	0.100
710.400	-14.226	0.100
710.500	-24.307	0.100
710.600	1.935	0.100
710.700	-3.473	0.100
710.800	-16.268	0.100
710.900	-13.139	0.100
711.000	-14.683	0.100
711.100	-5.639	0.100
711.200	-12.841	0.100
711.300	-15.333	0.100
711.400	3.217	0.100
711.500	25.910	0.100
711.600	-7.472	0.100
711.700	-19.919	0.100
711.800	-26.183	0.100
711.900	0.219	0.100
712.000	-39.143	0.100
712.100	-13.661	0.100
712.200	0.110	0.100
712.300	-9.939	0.100
712.400	-1.449	0.100
712.500	0.976	0.100
712.600	-0.592	0.100
712.700	-19.997	0.100
712.800	-20.739	0.100
712.900	2.145	0.100
713.000	-14.624	0.100
713.100	-12.465	0.100
713.200	-14.549	0.100
713.300	-36.726	0.100
713.400	-15.229	0.100
713.500	-3.881	0.100
713.600	-15.322	0.100
713.700	-4.539	0.100
713.800	-12.226	0.100
713.900	-11.486	0.100
714.000	-14.672	0.100
714.100	-18.910	0.100
714.200	-24.332	0.100
714.300	1.559	0.100
714.400	-18.713	0.100
714.500	-17.990	0.100
714.600	-22.474	0.100
714.700	-22.833	0.100
714.800	-10.435	0.100
714.900	-11.240	0.100
715.000	-34.891	0.100
715.100	-8.388	0.100
715.200	-21.079	0.100
715.300	-12.279	0.100
715.400	-29.017	0.100
715.500	-15.503	0.100
715.600	5.842	0.100
715.700	-14.705	0.100
715.800	-33.971	0.100
715.900	-43.233	0.100
716.000	-8.009	0.100
716.100	-12.909	0.100
716.200	-35.727	0.100
716.300	-9.543	0.100
716.400	-10.685	0.100
716.500	-13.924	0.100
716.600	15.721	0.100
716.700	-16.126	0.100
716.800	-32.520	0.100
716.900	-17.293	0.100
717.000	-10.363	0.100
717.100	7.983	0.100
717.200	-6.704	0.100
717.300	-19.819	0.100
717.400	-33.716	0.100
717.500	-32.904	0.100
717.600	-18.840	0.100
717.700	-23.541	0.100
717.800	-22.365	0.100
717.900	-28.853	0.100
718.000	-12.777	0.100
718.100	-39.376	0.100
718.200	-10.149	0.100
718.300	-32.873	0.100
718.400	-5.705	0.100
718.500	-17.818	0.100
718.600	-21.966	0.100
718.700	6.315	0.100
718.800	-17.736	0.100
718.900	-23.124	0.100
719.000	-21.185	0.100
719.100	-1.609	0.100
719.200	-19.588	0.100
719.300	-11.701	0.100
719.400	-23.625	0.100
719.500	-8.208	0.100
719.600	-17.148	0.100
719.700	-24.703	0.100
719.800	-39.243	0.100
719.900	-16.823	0.100
720.000	-18.535	0.100
720.100	-23.635	0.100
720.200	-14.043	0.100
720.300	-22.086	0.100
720.400	-30.211	0.100
720.500	-9.320	0.100
720.600	8.296	0.100
720.700	-20.305	0.100
720.800	-38.562	0.100
720.900	-31.315	0.100
721.000	-7.119	0.100
721.100	-12.714	0.100
721.200	-16.037	0.100
721.300	-19.220	0.100
721.400	-12.770	0.100
721.500	-5.810	0.100
721.600	-21.617	0.100
721.700	-25.810	0.100
721.800	-18.281	0.100
721.900	-6.201	0.100
722.000	-37.401	0.100
722.100	1.314	0.100
722.200	2.355	0.100
722.300	-62.864	0.100
722.400	-35.120	0.100
722.500	-16.624	0.100
722.600	-15.823	0.100
722.700	-41.623	0.100
722.800	-20.582	0.100
722.900	-14.671	0.100
723.000	-25.344	0.100
723.100	-12.903	0.100
723.200	-11.467	0.100
723.300	-31.217	0.100
723.400	-31.595	0.100
723.500	-7.630	0.100
723.600	-9.527	0.100
723.700	-39.689	0.100
723.800	-17.591	0.100
723.900	-32.262	0.100
724.000	-16.747	0.100
724.100	-41.789	0.100
724.200	-12.807	0.100
724.300	-4.363	0.100
724.400	-8.837	0.100
724.500	-34.755	0.100
724.600	4.726	0.100
724.700	-23.331	0.100
724.800	-27.596	0.100
724.900	2.993	0.100
725.000	-9.324	0.100
725.100	-5.832	0.100
725.200	-22.324	0.100
725.300	-1.746	0.100
725.400	-25.375	0.100
725.500	-28.724	0.100
725.600	-11.114	0.100
725.700	-27.309	0.100
725.800	-23.781	0.100
725.900	-21.921	0.100
726.000	-19.811	0.100
726.100	-24.797	0.100
726.200	2.841	0.100
726.300	-26.228	0.100
726.400	-23.339	0.100
726.500	-43.181	0.100
726.600	-30.294	0.100
726.700	-12.193	0.100
726.800	-17.879	0.100
726.900	-11.454	0.100
727.000	-21.263	0.100
727.100	-17.988	0.100
727.200	-32.302	0.100
727.300	-24.762	0.100
727.400	-7.588	0.100
727.500	-29.159	0.100
727.600	-31.405	0.100
727.700	-28.745	0.100
727.800	-24.513	0.100
727.900	-15.245	0.100
728.000	-13.711	0.100
728.100	-25.754	0.100
728.200	-14.542	0.100
728.300	-15.871	0.100
728.400	-26.603	0.100
728.500	-22.541	0.100
728.600	-10.977	0.100
728.700	-16.995	0.100
728.800	-32.178	0.100
728.900	-24.222	0.100
729.000	-21.283	0.100
729.100	-28.057	0.100
729.200	-17.120	0.100
729.300	-18.080	0.100
729.400	-35.082	0.100
729.500	-14.122	0.100
729.600	-21.241	0.100
729.700	-19.250	0.100
729.800	-29.964	0.100
729.900	-14.890	0.100
730.000	-49.416	0.100
730.100	-34.579	0.100
730.200	-29.985	0.100
730.300	-14.473	0.100
730.400	-13.804	0.100
730.500	-52.166	0.100
730.600	-12.782	0.100
730.700	-29.530	0.100
730.800	-6.974	0.100
730.900	-37.815	0.100
731.000	-18.364	0.100
731.100	-9.954	0.100
731.200	-26.645	0.100
731.300	-25.065	0.100
731.400	-8.087	0.100
731.500	-32.277	0.100
731.600	-48.315	0.100
731.700	-30.410	0.100
731.800	-23.417	0.100
731.900	-11.603	0.100
732.000	-15.333	0.100
732.100	-38.988	0.100
732.200	-21.223	0.100
732.300	-21.436	0.100
732.400	-35.253	0.100
732.500	-31.421	0.100
732.600	-30.320	0.100
732.700	-33.276	0.100
732.800	-30.368	0.100
732.900	4.393	0.100
733.000	-16.265	0.100
733.100	-9.930	0.100
733.200	-33.587	0.100
733.300	-38.104	0.100
733.400	-33.603	0.100
733.500	-47.302	0.100
733.600	-26.730	0.100
733.700	-48.271	0.100
733.800	-23.002	0.100
733.900	-27.929	0.100
734.000	-43.100	0.100
734.100	-7.731	0.100
734.200	-29.090	0.100
734.300	-30.508	0.100
734.400	-33.782	0.100
734.500	-28.406	0.100
734.600	-39.230	0.100
734.700	-28.423	0.100
734.800	-26.318	0.100
734.900	-3.585	0.100
735.000	-26.720	0.100
735.100	-29.084	0.100
735.200	-21.269	0.100
735.300	-7.053	0.100
735.400	-26.797	0.100
735.500	-24.829	0.100
735.600	-21.555	0.100
735.700	-31.111	0.100
735.800	-51.940	0.100
735.900	-27.697	0.100
736.000	-16.081	0.100
736.100	-32.752	0.100
736.200	-22.527	0.100
736.300	-48.917	0.100
736.400	-24.191	0.100
736.500	-34.444	0.100
736.600	-14.544	0.100
736.700	-18.609	0.100
736.800	-40.907	0.100
736.900	-29.835	0.100
737.000	-18.870	0.100
737.100	-26.111	0.100
737.200	-19.264	0.100
737.300	-27.512	0.100
737.400	-27.620	0.100
737.500	-29.463	0.100
737.600	-41.238	0.100
737.700	-35.109	0.100
737.800	-39.090	0.100
737.900	-22.564	0.100
738.000	-28.966	0.100
738.100	-15.693	0.100
738.200	-32.952	0.100
738.300	-45.301	0.100
738.400	-28.130	0.100
738.500	-6.962	0.100
738.600	-28.330	0.100
738.700	-13.705	0.100
738.800	-18.147	0.100
738.900	-17.089	0.100
739.000	-21.011	0.100
739.100	-25.096	0.100
739.200	-13.306	0.100
739.300	-37.063	0.100
739.400	-21.925	0.100
739.500	-16.643	0.100
739.600	-23.395	0.100
739.700	-33.843	0.100
739.800	-34.757	0.100
739.900	-24.877	0.100
740.000	-25.433	0.100
740.100	-34.450	0.100
740.200	-27.747	0.100
740.300	-3.401	0.100
740.400	-32.916	0.100
740.500	-29.537	0.100
740.600	-18.222	0.100
740.700	-5.436	0.100
740.800	-27.255	0.100
740.900	-40.494	0.100
741.000	-25.831	0.100
741.100	-26.855	0.100
741.200	1.650	0.100
741.300	-30.961	0.100
741.400	-19.645	0.100
741.500	-43.219	0.100
741.600	-37.323	0.100
741.700	-12.895	0.100
741.800	-19.910	0.100
741.900	-30.504	0.100
742.000	-4.728	0.100
742.100	-37.130	0.100
742.200	-39.322	0.100
742.300	-20.917	0.100
742.400	-20.334	0.100
742.500	-35.320	0.100
742.600	-19.448	0.100
742.700	-29.832	0.100
742.800	-32.412	0.100
742.900	-11.833	0.100
743.000	-52.024	0.100
743.100	0.233	0.100
743.200	-38.372	0.100
743.300	-14.048	0.100
743.400	-23.296	0.100
743.500	-42.746	0.100
743.600	-15.120	0.100
743.700	-12.985	0.100
743.800	-34.567	0.100
743.900	-28.291	0.100
744.000	-37.128	0.100
744.100	-13.894	0.100
744.200	-32.932	0.100
744.300	-6.898	0.100
744.400	-8.223	0.100
744.500	-27.454	0.100
744.600	-33.260	0.100
744.700	-15.949	0.100
744.800	-14.148	0.100
744.900	-32.983	0.100
745.000	-19.490	0.100
745.100	5.645	0.100
745.200	-19.758	0.100
745.300	-40.433	0.100
745.400	-18.765	0.100
745.500	-39.690	0.100
745.600	-25.011	0.100
745.700	-43.426	0.100
745.800	-8.376	0.100
745.900	-27.622	0.100
746.000	-14.188	0.100
746.100	-35.888	0.100
746.200	-25.496	0.100
746.300	-21.626	0.100
746.400	-35.183	0.100
746.500	-18.907	0.100
746.600	-36.932	0.100
746.700	-32.714	0.100
746.800	-41.422	0.100
746.900	-20.400	0.100
747.000	-36.158	0.100
747.100	-9.529	0.100
747.200	-25.864	0.100
747.300	-15.752	0.100
747.400	-19.309	0.100
747.500	-30.203	0.100
747.600	-16.435	0.100
747.700	-18.015	0.100
747.800	-22.246	0.100
747.900	-15.839	0.100
748.000	-23.891	0.100
748.100	-16.744	0.100
748.200	-36.459	0.100
748.300	-29.871	0.100
748.400	-25.771	0.100
748.500	-47.859	0.100
748.600	-26.758	0.100
748.700	-33.670	0.100
748.800	0.575	0.100
748.900	-34.242	0.100
749.000	-31.084	0.100
749.100	-26.118	0.100
749.200	-24.963	0.100
749.300	-33.947	0.100
749.400	-29.637	0.100
749.500	-27.067	0.100
749.600	-25.143	0.100
749.700	-12.047	0.100
749.800	-37.684	0.100
749.900	-26.113	0.100
750.000	-31.075	0.100
750.100	-12.040	0.100
750.200	-27.283	0.100
750.300	-45.289	0.100
750.400	-31.533	0.100
750.500	-23.606	0.100
750.600	-47.234	0.100
750.700	-17.976	0.100
750.800	-5.350	0.100
750.900	-22.699	0.100
751.000	-29.108	0.100
751.100	-15.659	0.100
751.200	-46.036	0.100
751.300	-41.278	0.100
751.400	-1.027	0.100
751.500	-28.763	0.100
751.600	-19.325	0.100
751.700	-43.717	0.100
751.800	-16.207	0.100
751.900	-8.302	0.100
752.000	-68.461	0.100
752.100	-32.576	0.100
752.200	-9.027	0.100
752.300	-14.499	0.100
752.400	-8.734	0.100
752.500	-21.595	0.100
752.600	-35.512	0.100
752.700	-16.683	0.100
752.800	-45.125	0.100
752.900	-39.947	0.100
753.000	-20.587	0.100
753.100	-34.396	0.100
753.200	-29.124	0.100
753.300	-23.835	0.100
753.400	-12.361	0.100
753.500	-27.798	0.100
753.600	-11.060	0.100
753.700	-5.276	0.100
753.800	-37.412	0.100
753.900	-33.672	0.100
754.000	-30.649	0.100
754.100	-41.471	0.100
754.200	-19.971	0.100
754.300	-18.979	0.100
754.400	-8.698	0.100
754.500	-19.543	0.100
754.600	-24.413	0.100
754.700	-15.411	0.100
754.800	-18.131	0.100
754.900	-4.883	0.100
755.000	-47.911	0.100
755.100	-36.307	0.100
755.200	-14.323	0.100
755.300	-14.537	0.100
755.400	-36.778	0.100
755.500	-34.130	0.100
755.600	-3.358	0.100
755.700	-36.752	0.100
755.800	-26.253	0.100
755.900	-2.842	0.100
756.000	-18.511	0.100
756.100	-33.966	0.100
756.200	9.098	0.100
756.300	-28.412	0.100
756.400	-30.468	0.100
756.500	-24.975	0.100
756.600	-28.024	0.100
756.700	-30.975	0.100
756.800	-5.134	0.100
756.900	-39.531	0.100
757.000	-36.548	0.100
757.100	-20.474	0.100
757.200	-17.310	0.100
757.300	-18.272	0.100
757.400	-35.276	0.100
757.500	-21.048	0.100
757.600	-20.937	0.100
757.700	-43.353	0.100
757.800	-21.501	0.100
757.900	-31.640	0.100
758.000	-39.893	0.100
758.100	-42.942	0.100
758.200	-17.159	0.100
758.300	-29.996	0.100
758.400	-23.579	0.100
758.500	-30.124	0.100
758.600	-30.575	0.100
758.700	-43.027	0.100
758.800	-10.456	0.100
758.900	-27.375	0.100
759.000	-38.119	0.100
759.100	-23.434	0.100
759.200	-24.041	0.100
759.300	-40.026	0.100
759.400	-30.656	0.100
759.500	-43.878	0.100
759.600	6.306	0.100
759.700	-17.232	0.100
759.800	-29.656	0.100
759.900	-25.814	0.100
760.000	-10.834	0.100
760.100	-38.977	0.100
760.200	-8.644	0.100
760.300	-23.055	0.100
760.400	-42.054	0.100
760.500	-45.381	0.100
760.600	-15.881	0.100
760.700	-26.194	0.100
760.800	-47.751	0.100
760.900	-35.426	0.100
761.000	-7.009	0.100
761.100	-34.380	0.100
761.200	-25.898	0.100
761.300	-24.439	0.100
761.400	-4.143	0.100
761.500	-29.290	0.100
761.600	-18.299	0.100
761.700	-28.301	0.100
761.800	-13.066	0.100
761.900	-16.673	0.100
762.000	-11.313	0.100
762.100	-24.220	0.100
762.200	-19.245	0.100
762.300	-5.357	0.100
762.400	-15.723	0.100
762.500	-53.388	0.100
762.600	-30.401	0.100
762.700	-32.042	0.100
762.800	-26.548	0.100
762.900	-16.808	0.100
763.000	-25.117	0.100
763.100	-18.020	0.100
763.200	-20.766	0.100
763.300	-0.760	0.100
763.400	-3.316	0.100
763.500	-57.309	0.100
763.600	-22.608	0.100
763.700	-45.896	0.100
763.800	-9.075	0.100
763.900	-18.524	0.100
764.000	-3.995	0.100
764.100	-25.532	0.100
764.200	-37.428	0.100
764.300	-9.361	0.100
764.400	-17.964	0.100
764.500	9.864	0.100
764.600	-30.056	0.100
764.700	-37.960	0.100
764.800	-21.730	0.100
764.900	-22.866	0.100
765.000	-27.645	0.100
765.100	-8.846	0.100
765.200	-26.723	0.100
765.300	-24.898	0.100
765.400	-13.147	0.100
765.500	-22.402	0.100
765.600	-31.738	0.100
765.700	-37.772	0.100
765.800	-23.062	0.100
765.900	-24.795	0.100
766.000	-9.504	0.100
766.100	-20.051	0.100
766.200	-20.685	0.100
766.300	-21.801	0.100
766.400	-27.469	0.100
766.500	-27.063	0.100
766.600	-26.104	0.100
766.700	-9.514	0.100
766.800	-26.328	0.100
766.900	-27.231	0.100
767.000	-12.946	0.100
767.100	-40.546	0.100
767.200	-6.495	0.100
767.300	-21.789	0.100
767.400	-15.500	0.100
767.500	-9.885	0.100
767.600	-29.167	0.100
767.700	-19.871	0.100
767.800	-27.034	0.100
767.900	-25.011	0.100
768.000	-6.331	0.100
768.100	-40.069	0.100
768.200	-20.618	0.100
768.300	-22.500	0.100
768.400	-6.755	0.100
768.500	-39.204	0.100
768.600	-21.975	0.100
768.700	-26.969	0.100
768.800	-34.991	0.100
768.900	-30.468	0.100
769.000	-19.038	0.100
769.100	-24.652	0.100
769.200	-17.934	0.100
769.300	-42.447	0.100
769.400	-4.996	0.100
769.500	-22.425	0.100
769.600	-33.029	0.100
769.700	-29.072	0.100
769.800	11.588	0.100
769.900	-16.285	0.100
770.000	-19.488	0.100
770.100	-18.171	0.100
770.200	-25.393	0.100
770.300	-19.222	0.100
770.400	-8.223	0.100
770.500	-38.208	0.100
770.600	-48.382	0.100
770.700	-6.815	0.100
770.800	-31.820	0.100
770.900	-16.634	0.100
771.000	-9.976	0.100
771.100	-7.278	0.100
771.200	-12.276	0.100
771.300	-23.100	0.100
771.400	-17.947	0.100
771.500	-22.229	0.100
771.600	-17.750	0.100
771.700	-29.775	0.100
771.800	-8.556	0.100
771.900	-48.955	0.100
772.000	-32.655	0.100
772.100	6.146	0.100
772.200	7.470	0.100
772.300	-17.459	0.100
772.400	-28.160	0.100
772.500	-23.325	0.100
772.600	-27.494	0.100
772.700	-20.504	0.100
772.800	-38.994	0.100
772.900	-39.688	0.100
773.000	-18.146	0.100
773.100	-57.356	0.100
773.200	-13.007	0.100
773.300	-18.642	0.100
773.400	-22.693	0.100
773.500	-19.553	0.100
773.600	-32.832	0.100
773.700	-33.422	0.100
773.800	-27.693	0.100
773.900	-15.937	0.100
774.000	-17.865	0.100
774.100	-48.023	0.100
774.200	-13.499	0.100
774.300	-8.894	0.100
774.400	-50.258	0.100
774.500	-17.653	0.100
774.600	-22.161	0.100
774.700	-28.261	0.100
774.800	-10.641	0.100
774.900	-13.100	0.100
775.000	-42.038	0.100
775.100	-49.002	0.100
775.200	-18.883	0.100
775.300	0.723	0.100
775.400	-17.755	0.100
775.500	-41.475	0.100
775.600	-18.315	0.100
775.700	-48.323	0.100
775.800	-15.501	0.100
775.900	5.719	0.100
776.000	-20.206	0.100
776.100	-17.124	0.100
776.200	-21.512	0.100
776.300	-17.771	0.100
776.400	-14.412	0.100
776.500	-20.048	0.100
776.600	-11.427	0.100
776.700	-31.291	0.100
776.800	-35.654	0.100
776.900	-38.388	0.100
777.000	-19.598	0.100
777.100	-23.661	0.100
777.200	-13.441	0.100
777.300	-23.101	0.100
777.400	-25.036	0.100
777.500	-19.296	0.100
777.600	-38.642	0.100
777.700	-5.602	0.100
777.800	-2.332	0.100
777.900	-7.398	0.100
778.000	-6.551	0.100
778.100	-9.029	0.100
778.200	-25.476	0.100
778.300	-7.475	0.100
778.400	-29.743	0.100
778.500	-32.650	0.100
778.600	-24.245	0.100
778.700	-21.692	0.100
778.800	-20.690	0.100
778.900	-12.088	0.100
779.000	-16.159	0.100
779.100	-12.280	0.100
779.200	-21.390	0.100
779.300	-2.650	0.100
779.400	-6.327	0.100
779.500	-28.471	0.100
779.600	-41.324	0.100
779.700	-12.793	0.100
779.800	-23.371	0.100
779.900	-35.852	0.100
780.000	-21.864	0.100
780.100	-9.985	0.100
780.200	-42.529	0.100
780.300	-1.612	0.100
780.400	-19.202	0.100
780.500	-25.869	0.100
780.600	-13.108	0.100
780.700	-18.841	0.100
780.800	-39.074	0.100
780.900	-28.993	0.100
781.000	-12.432	0.100
781.100	-5.237	0.100
781.200	-8.536	0.100
781.300	5.677	0.100
781.400	-1.808	0.100
781.500	13.639	0.100
781.600	-7.285	0.100
781.700	-25.422	0.100
781.800	-3.475	0.100
781.900	-2.945	0.100
782.000	-14.057	0.100
782.100	14.414	0.100
782.200	-11.429	0.100
782.300	0.084	0.100
782.400	2.249	0.100
782.500	6.652	0.100
782.600	8.466	0.100
782.700	5.278	0.100
782.800	21.767	0.100
782.900	27.775	0.100
783.000	12.764	0.100
783.100	34.497	0.100
783.200	-0.359	0.100
783.300	-7.232	0.100
783.400	-10.221	0.100
783.500	29.580	0.100
783.600	7.095	0.100
783.700	13.458	0.100
783.800	10.316	0.100
783.900	1.698	0.100
784.000	-4.034	0.100
784.100	27.239	0.100
784.200	43.065	0.100
784.300	9.228	0.100
784.400	3.550	0.100
784.500	-5.779	0.100
784.600	17.275	0.100
784.700	17.970	0.100
784.800	25.349	0.100
784.900	23.855	0.100
785.000	18.431	0.100
785.100	9.096	0.100
785.200	25.597	0.100
785.300	19.832	0.100
785.400	-0.511	0.100
785.500	20.574	0.100
785.600	-2.326	0.100
785.700	23.995	0.100
785.800	32.111	0.100
785.900	3.814	0.100
786.000	-5.456	0.100
786.100	10.534	0.100
786.200	31.007	0.100
786.300	17.087	0.100
786.400	28.769	0.100
786.500	26.499	0.100
786.600	16.416	0.100
786.700	3.073	0.100
786.800	13.414	0.100
786.900	27.802	0.100
787.000	22.210	0.100
787.100	17.326	0.100
787.200	-1.451	0.100
787.300	5.347	0.100
787.400	16.547	0.100
787.500	20.808	0.100
787.600	-0.401	0.100
787.700	6.819	0.100
787.800	34.748	0.100
787.900	4.121	0.100
788.000	-6.384	0.100
788.100	28.544	0.100
788.200	-0.712	0.100
788.300	7.791	0.100
788.400	-18.781	0.100
788.500	20.515	0.100
788.600	17.411	0.100
788.700	9.765	0.100
788.800	12.388	0.100
788.900	0.753	0.100
789.000	16.768	0.100
789.100	33.919	0.100
789.200	29.065	0.100
789.300	17.801	0.100
789.400	8.882	0.100
789.500	29.481	0.100
789.600	16.531	0.100
789.700	31.617	0.100
789.800	26.640	0.100
789.900	7.286	0.100
790.000	10.721	0.100
790.100	23.920	0.100
790.200	-8.412	0.100
790.300	30.373	0.100
790.400	40.687	0.100
790.500	14.726	0.100
790.600	34.190	0.100
790.700	23.823	0.100
790.800	17.137	0.100
790.900	12.040	0.100
791.000	13.305	0.100
791.100	17.276	0.100
791.200	3.645	0.100
791.300	31.906	0.100
791.400	24.440	0.100
791.500	22.461	0.100
791.600	-12.747	0.100
791.700	24.906	0.100
791.800	25.154	0.100
791.900	40.918	0.100
792.000	27.571	0.100
792.100	7.536	0.100
792.200	17.832	0.100
792.300	1.313	0.100
792.400	26.195	0.100
792.500	12.161	0.100
792.600	11.058	0.100
792.700	44.816	0.100
792.800	39.512	0.100
792.900	21.030	0.100
793.000	7.016	0.100
793.100	4.453	0.100
793.200	27.652	0.100
793.300	14.216	0.100
793.400	2.104	0.100
793.500	26.248	0.100
793.600	3.332	0.100
793.700	30.002	0.100
793.800	35.501	0.100
793.900	31.315	0.100
794.000	29.333	0.100
794.100	30.275	0.100
794.200	-3.072	0.100
794.300	11.224	0.100
794.400	35.335	0.100
794.500	8.770	0.100
794.600	6.049	0.100
794.700	35.655	0.100
794.800	5.422	0.100
794.900	16.576	0.100
795.000	35.276	0.100
795.100	33.388	0.100
795.200	7.950	0.100
795.300	52.133	0.100
795.400	19.891	0.100
795.500	20.165	0.100
795.600	32.074	0.100
795.700	24.399	0.100
795.800	41.057	0.100
795.900	28.510	0.100
796.000	23.101	0.100
796.100	5.740	0.100
796.200	22.056	0.100
796.300	11.580	0.100
796.400	47.329	0.100
796.500	34.814	0.100
796.600	18.414	0.100
796.700	13.969	0.100
796.800	7.539	0.100
796.900	13.570	0.100
797.000	28.204	0.100
797.100	29.961	0.100
797.200	28.650	0.100
797.300	21.049	0.100
797.400	36.900	0.100
797.500	38.373	0.100
797.600	27.851	0.100
797.700	22.579	0.100
797.800	16.990	0.100
797.900	11.939	0.100
798.000	21.382	0.100
798.100	44.206	0.100
798.200	16.352	0.100
798.300	35.810	0.100
798.400	12.615	0.100
798.500	17.284	0.100
798.600	30.929	0.100
798.700	27.074	0.100
798.800	51.152	0.100
798.900	24.065	0.100
799.000	41.761	0.100
799.100	15.746	0.100
799.200	10.891	0.100
799.300	38.333	0.100
799.400	20.734	0.100
799.500	35.327	0.100
799.600	38.143	0.100
799.700	24.802	0.100
799.800	23.411	0.100
799.900	27.133	0.100
800.000	27.169	0.100
