time /s	I /nA	E /V
0.100	-32.875	0.100
0.200	-10.822	0.100
0.300	-34.472	0.100
0.400	17.416	0.100
0.500	-42.253	0.100
0.600	-18.600	0.100
0.700	-9.651	0.100
0.800	-41.564	0.100
0.900	-4.896	0.100
1.000	-29.213	0.100
1.100	-8.822	0.100
1.200	-19.241	0.100
1.300	8.257	0.100
1.400	-34.891	0.100
1.500	-9.486	0.100
1.600	-12.515	0.100
1.700	-34.469	0.100
1.800	-29.925	0.100
1.900	-4.777	0.100
2.000	20.676	0.100
2.100	14.838	0.100
2.200	-8.931	0.100
2.300	-11.151	0.100
2.400	-24.273	0.100
2.500	-15.436	0.100
2.600	-0.679	0.100
2.700	-15.832	0.100
2.800	-1.569	0.100
2.900	-42.502	0.100
3.000	-23.039	0.100
3.100	-3.722	0.100
3.200	-1.436	0.100
3.300	-8.447	0.100
3.400	-35.231	0.100
3.500	-22.459	0.100
3.600	-23.518	0.100
3.700	-0.605	0.100
3.800	-31.717	0.100
3.900	6.628	0.100
4.000	-25.636	0.100
4.100	0.137	0.100
4.200	-25.128	0.100
4.300	-32.430	0.100
4.400	-3.081	0.100
4.500	-1.445	0.100
4.600	-37.319	0.100
4.700	-19.569	0.100
4.800	-24.132	0.100
4.900	-2.066	0.100
5.000	-25.507	0.100
5.100	-1.918	0.100
5.200	-8.903	0.100
5.300	-44.246	0.100
5.400	3.531	0.100
5.500	2.013	0.100
5.600	-6.211	0.100
5.700	-18.282	0.100
5.800	-16.091	0.100
5.900	-24.199	0.100
6.000	-15.354	0.100
6.100	-29.731	0.100
6.200	-13.712	0.100
6.300	-15.759	0.100
6.400	-0.943	0.100
6.500	-11.915	0.100
6.600	-13.036	0.100
6.700	7.848	0.100
6.800	-24.564	0.100
6.900	10.366	0.100
7.000	-20.600	0.100
7.100	-20.127	0.100
7.200	-40.939	0.100
7.300	-14.723	0.100
7.400	-9.477	0.100
7.500	-19.236	0.100
7.600	-13.811	0.100
7.700	-23.847	0.100
7.800	-17.147	0.100
7.900	-16.048	0.100
8.000	-13.987	0.100
8.100	-32.815	0.100
8.200	-12.216	0.100
8.300	-3.743	0.100
8.400	-15.827	0.100
8.500	-32.262	0.100
8.600	16.345	0.100
8.700	-14.834	0.100
8.800	-17.142	0.100
8.900	-27.773	0.100
9.000	10.131	0.100
9.100	-14.193	0.100
9.200	0.734	0.100
9.300	3.385	0.100
9.400	-19.143	0.100
9.500	-33.648	0.100
9.600	5.350	0.100
9.700	-26.912	0.100
9.800	-17.430	0.100
9.900	-0.382	0.100
10.000	-20.509	0.100
10.100	-33.681	0.100
10.200	-10.587	0.100
10.300	-28.277	0.100
10.400	-21.021	0.100
10.500	-14.319	0.100
10.600	-14.261	0.100
10.700	-11.176	0.100
10.800	-11.483	0.100
10.900	-5.548	0.100
11.000	-4.858	0.100
11.100	-24.306	0.100
11.200	-10.720	0.100
11.300	-21.892	0.100
11.400	-17.199	0.100
11.500	-21.010	0.100
11.600	-20.439	0.100
11.700	-20.301	0.100
11.800	-11.016	0.100
11.900	-20.384	0.100
12.000	-12.274	0.100
12.100	-14.020	0.100
12.200	-14.707	0.100
12.300	-28.574	0.100
12.400	-7.902	0.100
12.500	-28.295	0.100
12.600	-30.462	0.100
12.700	-6.513	0.100
12.800	7.697	0.100
12.900	-9.584	0.100
13.000	8.420	0.100
13.100	-16.535	0.100
13.200	1.909	0.100
13.300	-31.567	0.100
13.400	-8.362	0.100
13.500	-11.775	0.100
13.600	-5.944	0.100
13.700	-9.508	0.100
13.800	-25.157	0.100
13.900	-9.625	0.100
14.000	-18.167	0.100
14.100	-14.462	0.100
14.200	-18.683	0.100
14.300	-24.626	0.100
14.400	-6.030	0.100
14.500	-13.940	0.100
14.600	-14.596	0.100
14.700	-42.580	0.100
14.800	-24.120	0.100
14.900	-10.436	0.100
15.000	-21.571	0.100
15.100	-4.746	0.100
15.200	-18.340	0.100
15.300	7.082	0.100
15.400	-37.227	0.100
15.500	1.325	0.100
15.600	2.261	0.100
15.700	-17.713	0.100
15.800	-6.564	0.100
15.900	-10.845	0.100
16.000	-3.493	0.100
16.100	-24.351	0.100
16.200	-2.700	0.100
16.300	-45.369	0.100
16.400	2.710	0.100
16.500	1.337	0.100
16.600	-4.234	0.100
16.700	-27.860	0.100
16.800	-2.218	0.100
16.900	-18.805	0.100
17.000	-15.759	0.100
17.100	-9.178	0.100
17.200	-5.079	0.100
17.300	1.427	0.100
17.400	3.874	0.100
17.500	-24.277	0.100
17.600	-19.722	0.100
17.700	-15.613	0.100
17.800	-15.166	0.100
17.900	-5.660	0.100
18.000	-21.657	0.100
18.100	-15.890	0.100
18.200	-25.145	0.100
18.300	-13.211	0.100
18.400	-20.749	0.100
18.500	-20.204	0.100
18.600	-22.924	0.100
18.700	-26.904	0.100
18.800	-8.075	0.100
18.900	-22.799	0.100
19.000	-36.720	0.100
19.100	-5.444	0.100
19.200	-15.063	0.100
19.300	-0.307	0.100
19.400	-5.177	0.100
19.500	-17.273	0.100
19.600	2.166	0.100
19.700	-10.077	0.100
19.800	-8.936	0.100
19.900	-10.097	0.100
20.000	-32.626	0.100
20.100	3.173	0.100
20.200	-24.573	0.100
20.300	-26.586	0.100
20.400	-8.696	0.100
20.500	-9.080	0.100
20.600	-13.987	0.100
20.700	-36.369	0.100
20.800	-24.762	0.100
20.900	-9.520	0.100
21.000	-9.267	0.100
21.100	-9.725	0.100
21.200	-28.717	0.100
21.300	-6.017	0.100
21.400	-26.325	0.100
21.500	-8.381	0.100
21.600	-3.842	0.100
21.700	-10.178	0.100
21.800	-31.554	0.100
21.900	11.067	0.100
22.000	-16.255	0.100
22.100	-13.763	0.100
22.200	-15.895	0.100
22.300	-21.871	0.100
22.400	-46.320	0.100
22.500	-11.172	0.100
22.600	-27.500	0.100
22.700	-4.802	0.100
22.800	-15.937	0.100
22.900	7.912	0.100
23.000	10.585	0.100
23.100	-27.962	0.100
23.200	8.275	0.100
23.300	-29.183	0.100
23.400	-0.874	0.100
23.500	-12.234	0.100
23.600	1.165	0.100
23.700	-12.992	0.100
23.800	-12.187	0.100
23.900	-23.476	0.100
24.000	-17.382	0.100
24.100	-3.158	0.100
24.200	-1.472	0.100
24.300	-34.793	0.100
24.400	-13.889	0.100
24.500	-36.799	0.100
24.600	-6.776	0.100
24.700	-42.407	0.100
24.800	12.942	0.100
24.900	-20.918	0.100
25.000	-2.879	0.100
25.100	-7.032	0.100
25.200	-1.519	0.100
25.300	-20.379	0.100
25.400	-17.110	0.100
25.500	-33.596	0.100
25.600	-2.394	0.100
25.700	-13.222	0.100
25.800	-35.066	0.100
25.900	6.646	0.100
26.000	-4.280	0.100
26.100	-19.195	0.100
26.200	-20.266	0.100
26.300	-9.986	0.100
26.400	-35.933	0.100
26.500	-11.833	0.100
26.600	-13.010	0.100
26.700	-12.222	0.100
26.800	-18.011	0.100
26.900	-17.184	0.100
27.000	-6.148	0.100
27.100	-25.306	0.100
27.200	10.691	0.100
27.300	-19.326	0.100
27.400	-31.779	0.100
27.500	-0.579	0.100
27.600	-6.953	0.100
27.700	-7.428	0.100
27.800	-9.579	0.100
27.900	-12.916	0.100
28.000	-26.631	0.100
28.100	-19.201	0.100
28.200	-9.771	0.100
28.300	-31.206	0.100
28.400	-1.786	0.100
28.500	-14.256	0.100
28.600	-24.251	0.100
28.700	-27.392	0.100
28.800	-20.779	0.100
28.900	-14.968	0.100
29.000	-7.887	0.100
29.100	-7.887	0.100
29.200	-13.299	0.100
29.300	3.881	0.100
29.400	-9.139	0.100
29.500	-9.833	0.100
29.600	-27.141	0.100
29.700	-12.285	0.100
29.800	-3.014	0.100
29.900	-15.379	0.100
30.000	-3.488	0.100
30.100	4.194	0.100
30.200	-19.767	0.100
30.300	-3.235	0.100
30.400	-22.621	0.100
30.500	-24.406	0.100
30.600	-4.447	0.100
30.700	2.838	0.100
30.800	-4.880	0.100
30.900	-7.035	0.100
31.000	-9.680	0.100
31.100	-19.739	0.100
31.200	6.019	0.100
31.300	6.170	0.100
31.400	3.827	0.100
31.500	25.371	0.100
31.600	7.263	0.100
31.700	10.539	0.100
31.800	-0.990	0.100
31.900	4.344	0.100
32.000	22.475	0.100
32.100	-0.355	0.100
32.200	-3.328	0.100
32.300	23.219	0.100
32.400	20.355	0.100
32.500	17.950	0.100
32.600	-0.728	0.100
32.700	15.480	0.100
32.800	9.827	0.100
32.900	8.212	0.100
33.000	49.389	0.100
33.100	8.608	0.100
33.200	6.234	0.100
33.300	30.125	0.100
33.400	13.218	0.100
33.500	4.119	0.100
33.600	16.802	0.100
33.700	4.888	0.100
33.800	12.994	0.100
33.900	20.864	0.100
34.000	14.663	0.100
34.100	27.281	0.100
34.200	12.041	0.100
34.300	19.503	0.100
34.400	44.797	0.100
34.500	15.866	0.100
34.600	25.060	0.100
34.700	27.201	0.100
34.800	11.496	0.100
34.900	21.024	0.100
35.000	29.014	0.100
35.100	27.320	0.100
35.200	8.712	0.100
35.300	36.384	0.100
35.400	5.981	0.100
35.500	-8.628	0.100
35.600	17.885	0.100
35.700	22.383	0.100
35.800	-9.494	0.100
35.900	25.092	0.100
36.000	19.062	0.100
36.100	-13.642	0.100
36.200	23.588	0.100
36.300	0.416	0.100
36.400	-9.091	0.100
36.500	35.590	0.100
36.600	38.556	0.100
36.700	19.371	0.100
36.800	19.401	0.100
36.900	14.576	0.100
37.000	42.528	0.100
37.100	-9.501	0.100
37.200	18.492	0.100
37.300	19.936	0.100
37.400	22.741	0.100
37.500	-14.531	0.100
37.600	13.874	0.100
37.700	13.942	0.100
37.800	-3.934	0.100
37.900	3.775	0.100
38.000	10.266	0.100
38.100	17.050	0.100
38.200	20.294	0.100
38.300	21.765	0.100
38.400	0.021	0.100
38.500	11.757	0.100
38.600	6.500	0.100
38.700	29.311	0.100
38.800	15.428	0.100
38.900	13.512	0.100
39.000	-7.742	0.100
39.100	18.824	0.100
39.200	21.168	0.100
39.300	-1.039	0.100
39.400	36.583	0.100
39.500	40.179	0.100
39.600	4.891	0.100
39.700	15.165	0.100
39.800	14.891	0.100
39.900	18.185	0.100
40.000	11.978	0.100
40.100	8.214	0.100
40.200	13.794	0.100
40.300	22.888	0.100
40.400	6.311	0.100
40.500	15.726	0.100
40.600	18.077	0.100
40.700	19.077	0.100
40.800	8.963	0.100
40.900	-11.637	0.100
41.000	4.586	0.100
41.100	18.546	0.100
41.200	17.714	0.100
41.300	-1.967	0.100
41.400	32.614	0.100
41.500	21.010	0.100
41.600	12.965	0.100
41.700	24.234	0.100
41.800	8.811	0.100
41.900	9.987	0.100
42.000	-11.758	0.100
42.100	0.454	0.100
42.200	37.661	0.100
42.300	26.049	0.100
42.400	26.777	0.100
42.500	5.963	0.100
42.600	-15.615	0.100
42.700	22.230	0.100
42.800	24.395	0.100
42.900	29.341	0.100
43.000	33.942	0.100
43.100	22.239	0.100
43.200	5.692	0.100
43.300	-12.393	0.100
43.400	-11.861	0.100
43.500	36.923	0.100
43.600	25.744	0.100
43.700	13.288	0.100
43.800	28.956	0.100
43.900	46.035	0.100
44.000	12.078	0.100
44.100	4.505	0.100
44.200	-9.785	0.100
44.300	21.454	0.100
44.400	5.622	0.100
44.500	33.944	0.100
44.600	-5.898	0.100
44.700	21.167	0.100
44.800	-9.317	0.100
44.900	10.047	0.100
45.000	6.059	0.100
45.100	17.408	0.100
45.200	6.829	0.100
45.300	13.736	0.100
45.400	14.234	0.100
45.500	9.078	0.100
45.600	5.867	0.100
45.700	25.187	0.100
45.800	30.134	0.100
45.900	11.294	0.100
46.000	12.259	0.100
46.100	32.363	0.100
46.200	19.824	0.100
46.300	13.426	0.100
46.400	13.954	0.100
46.500	-0.504	0.100
46.600	13.864	0.100
46.700	28.090	0.100
46.800	10.067	0.100
46.900	19.158	0.100
47.000	9.929	0.100
47.100	19.398	0.100
47.200	15.066	0.100
47.300	24.059	0.100
47.400	17.692	0.100
47.500	8.779	0.100
47.600	2.697	0.100
47.700	9.893	0.100
47.800	4.893	0.100
47.900	16.677	0.100
48.000	41.554	0.100
48.100	27.319	0.100
48.200	21.309	0.100
48.300	16.904	0.100
48.400	27.851	0.100
48.500	3.067	0.100
48.600	22.462	0.100
48.700	21.609	0.100
48.800	7.944	0.100
48.900	30.324	0.100
49.000	14.755	0.100
49.100	18.741	0.100
49.200	20.427	0.100
49.300	19.872	0.100
49.400	42.903	0.100
49.500	-11.847	0.100
49.600	15.157	0.100
49.700	14.758	0.100
49.800	22.849	0.100
49.900	24.841	0.100
50.000	3.410	0.100
50.100	20.785	0.100
50.200	7.586	0.100
50.300	31.689	0.100
50.400	23.892	0.100
50.500	27.673	0.100
50.600	7.880	0.100
50.700	18.067	0.100
50.800	22.393	0.100
50.900	11.479	0.100
51.000	10.962	0.100
51.100	37.069	0.100
51.200	22.160	0.100
51.300	14.616	0.100
51.400	6.583	0.100
51.500	18.203	0.100
51.600	34.565	0.100
51.700	29.818	0.100
51.800	22.028	0.100
51.900	18.167	0.100
52.000	25.984	0.100
52.100	19.845	0.100
52.200	6.486	0.100
52.300	31.145	0.100
52.400	26.100	0.100
52.500	22.502	0.100
52.600	20.719	0.100
52.700	15.343	0.100
52.800	0.066	0.100
52.900	32.924	0.100
53.000	22.214	0.100
53.100	25.419	0.100
53.200	16.874	0.100
53.300	19.923	0.100
53.400	12.384	0.100
53.500	50.153	0.100
53.600	29.970	0.100
53.700	19.904	0.100
53.800	17.244	0.100
53.900	29.246	0.100
54.000	20.363	0.100
54.100	25.218	0.100
54.200	12.459	0.100
54.300	21.318	0.100
54.400	25.268	0.100
54.500	17.961	0.100
54.600	28.216	0.100
54.700	25.226	0.100
54.800	-16.399	0.100
54.900	30.761	0.100
55.000	45.023	0.100
55.100	43.760	0.100
55.200	33.559	0.100
55.300	6.900	0.100
55.400	29.874	0.100
55.500	26.248	0.100
55.600	6.885	0.100
55.700	33.819	0.100
55.800	26.491	0.100
55.900	15.415	0.100
56.000	31.596	0.100
56.100	21.427	0.100
56.200	44.298	0.100
56.300	29.941	0.100
56.400	24.768	0.100
56.500	0.430	0.100
56.600	41.618	0.100
56.700	37.305	0.100
56.800	-5.552	0.100
56.900	13.700	0.100
57.000	42.731	0.100
57.100	22.016	0.100
57.200	62.848	0.100
57.300	21.032	0.100
57.400	22.929	0.100
57.500	12.292	0.100
57.600	19.031	0.100
57.700	43.698	0.100
57.800	20.968	0.100
57.900	50.078	0.100
58.000	17.711	0.100
58.100	25.448	0.100
58.200	2.224	0.100
58.300	39.780	0.100
58.400	25.409	0.100
58.500	45.607	0.100
58.600	19.680	0.100
58.700	31.762	0.100
58.800	8.140	0.100
58.900	15.870	0.100
59.000	42.679	0.100
59.100	22.124	0.100
59.200	43.027	0.100
59.300	17.483	0.100
59.400	34.371	0.100
59.500	12.991	0.100
59.600	32.335	0.100
59.700	38.248	0.100
59.800	26.981	0.100
59.900	-5.866	0.100
60.000	55.052	0.100
60.100	35.213	0.100
60.200	28.277	0.100
60.300	11.781	0.100
60.400	42.100	0.100
60.500	28.861	0.100
60.600	10.043	0.100
60.700	5.504	0.100
60.800	34.193	0.100
60.900	35.989	0.100
61.000	22.454	0.100
61.100	41.493	0.100
61.200	18.230	0.100
61.300	51.286	0.100
61.400	54.289	0.100
61.500	20.585	0.100
61.600	29.980	0.100
61.700	32.837	0.100
61.800	12.958	0.100
61.900	23.589	0.100
62.000	30.200	0.100
62.100	65.917	0.100
62.200	39.876	0.100
62.300	33.735	0.100
62.400	25.928	0.100
62.500	22.043	0.100
62.600	46.456	0.100
62.700	16.420	0.100
62.800	37.155	0.100
62.900	23.965	0.100
63.000	30.374	0.100
63.100	17.321	0.100
63.200	35.220	0.100
63.300	30.534	0.100
63.400	28.444	0.100
63.500	40.124	0.100
63.600	27.907	0.100
63.700	23.382	0.100
63.800	28.390	0.100
63.900	52.312	0.100
64.000	9.116	0.100
64.100	24.190	0.100
64.200	42.746	0.100
64.300	35.699	0.100
64.400	42.518	0.100
64.500	11.517	0.100
64.600	53.506	0.100
64.700	26.655	0.100
64.800	14.817	0.100
64.900	35.923	0.100
65.000	26.481	0.100
65.100	31.853	0.100
65.200	36.237	0.100
65.300	49.036	0.100
65.400	-10.121	0.100
65.500	49.062	0.100
65.600	38.405	0.100
65.700	34.238	0.100
65.800	-8.250	0.100
65.900	56.976	0.100
66.000	33.522	0.100
66.100	40.271	0.100
66.200	37.951	0.100
66.300	14.881	0.100
66.400	56.818	0.100
66.500	37.899	0.100
66.600	18.993	0.100
66.700	31.344	0.100
66.800	33.188	0.100
66.900	70.258	0.100
67.000	39.209	0.100
67.100	26.855	0.100
67.200	38.954	0.100
67.300	42.057	0.100
67.400	48.234	0.100
67.500	20.614	0.100
67.600	39.165	0.100
67.700	37.985	0.100
67.800	49.057	0.100
67.900	42.789	0.100
68.000	26.574	0.100
68.100	-3.809	0.100
68.200	22.117	0.100
68.300	12.005	0.100
68.400	50.608	0.100
68.500	43.240	0.100
68.600	35.027	0.100
68.700	20.618	0.100
68.800	64.209	0.100
68.900	27.832	0.100
69.000	46.871	0.100
69.100	37.278	0.100
69.200	39.542	0.100
69.300	17.751	0.100
69.400	35.323	0.100
69.500	29.784	0.100
69.600	39.285	0.100
69.700	29.076	0.100
69.800	65.447	0.100
69.900	40.600	0.100
70.000	24.343	0.100
70.100	34.542	0.100
70.200	24.903	0.100
70.300	20.965	0.100
70.400	76.063	0.100
70.500	49.340	0.100
70.600	32.555	0.100
70.700	30.984	0.100
70.800	46.618	0.100
70.900	34.706	0.100
71.000	31.711	0.100
71.100	46.526	0.100
71.200	37.338	0.100
71.300	42.060	0.100
71.400	27.880	0.100
71.500	33.151	0.100
71.600	28.738	0.100
71.700	29.845	0.100
71.800	47.901	0.100
71.900	42.552	0.100
72.000	39.230	0.100
72.100	29.169	0.100
72.200	30.836	0.100
72.300	24.411	0.100
72.400	28.991	0.100
72.500	29.263	0.100
72.600	46.982	0.100
72.700	41.011	0.100
72.800	34.879	0.100
72.900	48.419	0.100
73.000	32.038	0.100
73.100	42.308	0.100
73.200	37.216	0.100
73.300	37.541	0.100
73.400	16.351	0.100
73.500	43.939	0.100
73.600	36.774	0.100
73.700	54.834	0.100
73.800	39.258	0.100
73.900	42.138	0.100
74.000	28.621	0.100
74.100	14.349	0.100
74.200	45.936	0.100
74.300	13.271	0.100
74.400	62.426	0.100
74.500	24.689	0.100
74.600	59.197	0.100
74.700	43.131	0.100
74.800	47.913	0.100
74.900	18.006	0.100
75.000	20.715	0.100
75.100	53.249	0.100
75.200	28.779	0.100
75.300	32.081	0.100
75.400	7.410	0.100
75.500	44.404	0.100
75.600	33.248	0.100
75.700	33.506	0.100
75.800	50.673	0.100
75.900	43.171	0.100
76.000	35.727	0.100
76.100	39.525	0.100
76.200	45.487	0.100
76.300	34.103	0.100
76.400	15.269	0.100
76.500	35.787	0.100
76.600	39.766	0.100
76.700	39.090	0.100
76.800	13.912	0.100
76.900	36.404	0.100
77.000	57.811	0.100
77.100	46.186	0.100
77.200	45.882	0.100
77.300	39.763	0.100
77.400	42.185	0.100
77.500	19.785	0.100
77.600	34.497	0.100
77.700	48.851	0.100
77.800	44.867	0.100
77.900	26.328	0.100
78.000	44.780	0.100
78.100	12.780	0.100
78.200	39.913	0.100
78.300	19.536	0.100
78.400	39.710	0.100
78.500	34.218	0.100
78.600	31.029	0.100
78.700	54.688	0.100
78.800	34.661	0.100
78.900	43.920	0.100
79.000	30.699	0.100
79.100	35.655	0.100
79.200	33.287	0.100
79.300	43.014	0.100
79.400	53.679	0.100
79.500	20.852	0.100
79.600	29.808	0.100
79.700	40.164	0.100
79.800	49.044	0.100
79.900	29.668	0.100
80.000	28.467	0.100
80.100	45.083	0.100
80.200	33.645	0.100
80.300	34.482	0.100
80.400	46.776	0.100
80.500	37.206	0.100
80.600	14.071	0.100
80.700	33.406	0.100
80.800	50.046	0.100
80.900	39.836	0.100
81.000	24.589	0.100
81.100	24.803	0.100
81.200	55.660	0.100
81.300	26.910	0.100
81.400	40.315	0.100
81.500	21.657	0.100
81.600	46.982	0.100
81.700	75.179	0.100
81.800	33.469	0.100
81.900	19.762	0.100
82.000	30.601	0.100
82.100	34.543	0.100
82.200	32.288	0.100
82.300	34.602	0.100
82.400	41.149	0.100
82.500	30.717	0.100
82.600	46.090	0.100
82.700	40.326	0.100
82.800	43.435	0.100
82.900	18.793	0.100
83.000	42.445	0.100
83.100	46.823	0.100
83.200	29.603	0.100
83.300	60.672	0.100
83.400	41.252	0.100
83.500	36.861	0.100
83.600	50.394	0.100
83.700	46.475	0.100
83.800	26.047	0.100
83.900	41.165	0.100
84.000	61.526	0.100
84.100	25.340	0.100
84.200	47.671	0.100
84.300	34.574	0.100
84.400	43.496	0.100
84.500	19.799	0.100
84.600	56.833	0.100
84.700	31.860	0.100
84.800	47.943	0.100
84.900	27.991	0.100
85.000	48.645	0.100
85.100	50.081	0.100
85.200	25.864	0.100
85.300	49.599	0.100
85.400	36.554	0.100
85.500	47.735	0.100
85.600	39.141	0.100
85.700	35.095	0.100
85.800	27.037	0.100
85.900	52.032	0.100
86.000	42.816	0.100
86.100	38.087	0.100
86.200	30.325	0.100
86.300	43.627	0.100
86.400	30.814	0.100
86.500	36.297	0.100
86.600	54.241	0.100
86.700	28.047	0.100
86.800	57.642	0.100
86.900	28.682	0.100
87.000	39.701	0.100
87.100	49.042	0.100
87.200	22.487	0.100
87.300	34.767	0.100
87.400	57.050	0.100
87.500	34.197	0.100
87.600	22.925	0.100
87.700	46.349	0.100
87.800	56.903	0.100
87.900	45.589	0.100
88.000	34.566	0.100
88.100	22.184	0.100
88.200	41.148	0.100
88.300	41.336	0.100
88.400	59.179	0.100
88.500	23.749	0.100
88.600	42.329	0.100
88.700	52.852	0.100
88.800	32.027	0.100
88.900	50.920	0.100
89.000	51.550	0.100
89.100	22.860	0.100
89.200	39.513	0.100
89.300	40.175	0.100
89.400	21.694	0.100
89.500	40.474	0.100
89.600	19.120	0.100
89.700	33.479	0.100
89.800	60.162	0.100
89.900	48.055	0.100
90.000	29.659	0.100
90.100	44.347	0.100
90.200	61.002	0.100
90.300	24.943	0.100
90.400	25.804	0.100
90.500	39.350	0.100
90.600	27.703	0.100
90.700	28.756	0.100
90.800	29.609	0.100
90.900	55.457	0.100
91.000	17.719	0.100
91.100	34.745	0.100
91.200	21.794	0.100
91.300	33.789	0.100
91.400	22.539	0.100
91.500	36.254	0.100
91.600	17.712	0.100
91.700	27.622	0.100
91.800	18.373	0.100
91.900	5.175	0.100
92.000	24.983	0.100
92.100	32.774	0.100
92.200	37.520	0.100
92.300	-3.859	0.100
92.400	11.839	0.100
92.500	-1.759	0.100
92.600	33.938	0.100
92.700	33.257	0.100
92.800	17.000	0.100
92.900	11.476	0.100
93.000	12.541	0.100
93.100	-4.143	0.100
93.200	0.797	0.100
93.300	12.571	0.100
93.400	12.913	0.100
93.500	16.676	0.100
93.600	7.444	0.100
93.700	9.859	0.100
93.800	18.524	0.100
93.900	2.372	0.100
94.000	28.148	0.100
94.100	-13.663	0.100
94.200	3.862	0.100
94.300	11.896	0.100
94.400	3.214	0.100
94.500	4.748	0.100
94.600	26.649	0.100
94.700	0.649	0.100
94.800	-13.464	0.100
94.900	19.032	0.100
95.000	-18.219	0.100
95.100	-8.943	0.100
95.200	9.617	0.100
95.300	-8.244	0.100
95.400	11.948	0.100
95.500	-0.124	0.100
95.600	9.702	0.100
95.700	3.672	0.100
95.800	-21.394	0.100
95.900	-21.252	0.100
96.000	-4.084	0.100
96.100	32.836	0.100
96.200	-2.668	0.100
96.300	-0.234	0.100
96.400	-4.379	0.100
96.500	-5.785	0.100
96.600	-27.320	0.100
96.700	10.784	0.100
96.800	-22.140	0.100
96.900	10.929	0.100
97.000	9.671	0.100
97.100	18.753	0.100
97.200	-9.445	0.100
97.300	-26.636	0.100
97.400	2.403	0.100
97.500	-0.492	0.100
97.600	18.804	0.100
97.700	-3.485	0.100
97.800	4.931	0.100
97.900	-8.031	0.100
98.000	0.009	0.100
98.100	22.177	0.100
98.200	11.782	0.100
98.300	1.826	0.100
98.400	-21.009	0.100
98.500	22.602	0.100
98.600	8.242	0.100
98.700	11.004	0.100
98.800	14.652	0.100
98.900	3.068	0.100
99.000	0.670	0.100
99.100	6.341	0.100
99.200	-8.999	0.100
99.300	12.776	0.100
99.400	-26.091	0.100
99.500	1.095	0.100
99.600	20.389	0.100
99.700	-4.818	0.100
99.800	-27.083	0.100
99.900	-0.500	0.100
100.000	15.801	0.100
100.100	5.823	0.100
100.200	1.342	0.100
100.300	14.561	0.100
100.400	-6.109	0.100
100.500	8.757	0.100
100.600	3.741	0.100
100.700	8.677	0.100
100.800	9.630	0.100
100.900	6.517	0.100
101.000	-9.772	0.100
101.100	10.713	0.100
101.200	13.707	0.100
101.300	16.188	0.100
101.400	-14.360	0.100
101.500	10.354	0.100
101.600	6.737	0.100
101.700	6.705	0.100
101.800	6.680	0.100
101.900	-14.864	0.100
102.000	5.234	0.100
102.100	6.722	0.100
102.200	1.627	0.100
102.300	-6.262	0.100
102.400	-9.771	0.100
102.500	-11.091	0.100
102.600	15.351	0.100
102.700	0.380	0.100
102.800	8.507	0.100
102.900	-6.969	0.100
103.000	-0.623	0.100
103.100	-26.434	0.100
103.200	8.033	0.100
103.300	-6.478	0.100
103.400	-9.244	0.100
103.500	24.599	0.100
103.600	-0.105	0.100
103.700	9.337	0.100
103.800	4.236	0.100
103.900	-7.176	0.100
104.000	-0.382	0.100
104.100	-8.012	0.100
104.200	-19.013	0.100
104.300	1.597	0.100
104.400	-1.725	0.100
104.500	-11.911	0.100
104.600	-9.035	0.100
104.700	17.028	0.100
104.800	16.294	0.100
104.900	-10.188	0.100
105.000	-41.342	0.100
105.100	-3.706	0.100
105.200	3.219	0.100
105.300	-1.596	0.100
105.400	2.468	0.100
105.500	4.247	0.100
105.600	13.735	0.100
105.700	-24.680	0.100
105.800	15.595	0.100
105.900	10.735	0.100
106.000	4.248	0.100
106.100	-26.519	0.100
106.200	13.910	0.100
106.300	7.751	0.100
106.400	9.134	0.100
106.500	-0.942	0.100
106.600	-4.644	0.100
106.700	3.899	0.100
106.800	10.808	0.100
106.900	16.314	0.100
107.000	-14.321	0.100
107.100	-8.087	0.100
107.200	7.337	0.100
107.300	-2.431	0.100
107.400	20.191	0.100
107.500	-0.021	0.100
107.600	3.624	0.100
107.700	-20.013	0.100
107.800	12.322	0.100
107.900	-17.793	0.100
108.000	10.457	0.100
108.100	5.695	0.100
108.200	0.617	0.100
108.300	4.830	0.100
108.400	-12.439	0.100
108.500	-4.362	0.100
108.600	22.131	0.100
108.700	9.679	0.100
108.800	6.353	0.100
108.900	-1.328	0.100
109.000	-8.501	0.100
109.100	-4.843	0.100
109.200	-12.604	0.100
109.300	8.983	0.100
109.400	3.032	0.100
109.500	8.996	0.100
109.600	7.672	0.100
109.700	-8.518	0.100
109.800	11.746	0.100
109.900	-12.171	0.100
110.000	-31.315	0.100
110.100	-5.692	0.100
110.200	-9.006	0.100
110.300	-3.938	0.100
110.400	6.668	0.100
110.500	-5.592	0.100
110.600	0.258	0.100
110.700	-11.346	0.100
110.800	15.199	0.100
110.900	-9.795	0.100
111.000	7.116	0.100
111.100	-2.524	0.100
111.200	-5.149	0.100
111.300	-21.676	0.100
111.400	-16.584	0.100
111.500	-3.783	0.100
111.600	-33.498	0.100
111.700	0.261	0.100
111.800	-2.822	0.100
111.900	-2.143	0.100
112.000	-8.216	0.100
112.100	-5.605	0.100
112.200	-6.491	0.100
112.300	25.609	0.100
112.400	11.598	0.100
112.500	15.524	0.100
112.600	-23.829	0.100
112.700	-10.942	0.100
112.800	6.788	0.100
112.900	9.772	0.100
113.000	-12.703	0.100
113.100	-12.889	0.100
113.200	-17.168	0.100
113.300	-10.099	0.100
113.400	10.463	0.100
113.500	-10.873	0.100
113.600	-3.037	0.100
113.700	-4.839	0.100
113.800	-1.392	0.100
113.900	-7.455	0.100
114.000	-19.125	0.100
114.100	6.354	0.100
114.200	25.723	0.100
114.300	-10.320	0.100
114.400	-22.363	0.100
114.500	-19.588	0.100
114.600	0.156	0.100
114.700	2.535	0.100
114.800	-15.232	0.100
114.900	0.297	0.100
115.000	4.191	0.100
115.100	-6.429	0.100
115.200	-15.643	0.100
115.300	-10.062	0.100
115.400	3.316	0.100
115.500	-11.586	0.100
115.600	-10.890	0.100
115.700	-22.842	0.100
115.800	16.317	0.100
115.900	0.864	0.100
116.000	3.963	0.100
116.100	-13.006	0.100
116.200	-18.615	0.100
116.300	12.129	0.100
116.400	-2.538	0.100
116.500	-15.902	0.100
116.600	-26.411	0.100
116.700	4.387	0.100
116.800	-8.359	0.100
116.900	-17.057	0.100
117.000	14.462	0.100
117.100	-11.350	0.100
117.200	-1.932	0.100
117.300	1.962	0.100
117.400	4.598	0.100
117.500	-19.630	0.100
117.600	3.616	0.100
117.700	-8.563	0.100
117.800	-11.225	0.100
117.900	-37.233	0.100
118.000	-38.098	0.100
118.100	-1.641	0.100
118.200	-0.784	0.100
118.300	13.843	0.100
118.400	11.096	0.100
118.500	1.425	0.100
118.600	-5.687	0.100
118.700	-8.953	0.100
118.800	-2.067	0.100
118.900	-35.844	0.100
119.000	-10.524	0.100
119.100	-22.206	0.100
119.200	-25.923	0.100
119.300	20.839	0.100
119.400	-7.396	0.100
119.500	0.191	0.100
119.600	-9.005	0.100
119.700	-23.417	0.100
119.800	-15.458	0.100
119.900	-5.895	0.100
120.000	-4.792	0.100
120.100	-21.836	0.100
120.200	-0.488	0.100
120.300	-12.764	0.100
120.400	-33.946	0.100
120.500	9.995	0.100
120.600	-1.229	0.100
120.700	-22.785	0.100
120.800	-11.767	0.100
120.900	-13.749	0.100
121.000	-13.006	0.100
121.100	2.092	0.100
121.200	-6.280	0.100
121.300	-0.004	0.100
121.400	-1.391	0.100
121.500	-10.281	0.100
121.600	-20.854	0.100
121.700	-7.723	0.100
121.800	-21.669	0.100
121.900	17.125	0.100
122.000	-7.258	0.100
122.100	-34.364	0.100
122.200	-11.720	0.100
122.300	-7.639	0.100
122.400	10.721	0.100
122.500	-3.886	0.100
122.600	-5.073	0.100
122.700	-27.683	0.100
122.800	-9.826	0.100
122.900	-33.184	0.100
123.000	1.776	0.100
123.100	17.637	0.100
123.200	-3.312	0.100
123.300	-18.321	0.100
123.400	-16.479	0.100
123.500	-10.234	0.100
123.600	-15.896	0.100
123.700	-15.176	0.100
123.800	2.069	0.100
123.900	0.648	0.100
124.000	-24.416	0.100
124.100	-16.516	0.100
124.200	-3.633	0.100
124.300	-7.555	0.100
124.400	-6.308	0.100
124.500	-11.382	0.100
124.600	-10.527	0.100
124.700	-4.705	0.100
124.800	-12.602	0.100
124.900	-20.214	0.100
125.000	-18.002	0.100
125.100	-1.585	0.100
125.200	2.690	0.100
125.300	-13.094	0.100
125.400	12.434	0.100
125.500	-2.017	0.100
125.600	-10.966	0.100
125.700	-24.903	0.100
125.800	-18.145	0.100
125.900	-17.955	0.100
126.000	-21.101	0.100
126.100	-19.087	0.100
126.200	0.563	0.100
126.300	-5.555	0.100
126.400	-12.797	0.100
126.500	-11.700	0.100
126.600	-8.413	0.100
126.700	-13.093	0.100
126.800	1.808	0.100
126.900	-20.638	0.100
127.000	-14.658	0.100
127.100	-19.652	0.100
127.200	-12.075	0.100
127.300	0.029	0.100
127.400	-30.008	0.100
127.500	6.529	0.100
127.600	-12.158	0.100
127.700	-24.713	0.100
127.800	-14.709	0.100
127.900	6.701	0.100
128.000	-14.533	0.100
128.100	-2.120	0.100
128.200	-29.485	0.100
128.300	-17.046	0.100
128.400	7.926	0.100
128.500	-3.485	0.100
128.600	-5.322	0.100
128.700	-17.557	0.100
128.800	-16.374	0.100
128.900	-17.237	0.100
129.000	-14.952	0.100
129.100	-8.956	0.100
129.200	-17.661	0.100
129.300	-21.044	0.100
129.400	-10.283	0.100
129.500	-2.495	0.100
129.600	-3.745	0.100
129.700	-4.221	0.100
129.800	-28.467	0.100
129.900	9.248	0.100
130.000	-8.861	0.100
130.100	-0.599	0.100
130.200	1.277	0.100
130.300	-22.106	0.100
130.400	-23.892	0.100
130.500	-10.546	0.100
130.600	-19.710	0.100
130.700	-22.338	0.100
130.800	-10.647	0.100
130.900	-18.508	0.100
131.000	-0.990	0.100
131.100	-31.303	0.100
131.200	-1.069	0.100
131.300	-12.150	0.100
131.400	-6.185	0.100
131.500	-15.560	0.100
131.600	-32.501	0.100
131.700	5.542	0.100
131.800	-29.947	0.100
131.900	-10.954	0.100
132.000	-13.662	0.100
132.100	7.943	0.100
132.200	-37.541	0.100
132.300	-18.074	0.100
132.400	15.519	0.100
132.500	-19.936	0.100
132.600	-14.221	0.100
132.700	-22.992	0.100
132.800	0.765	0.100
132.900	1.219	0.100
133.000	-26.061	0.100
133.100	3.780	0.100
133.200	-27.193	0.100
133.300	-9.859	0.100
133.400	-27.644	0.100
133.500	-11.191	0.100
133.600	-7.674	0.100
133.700	-11.690	0.100
133.800	-26.137	0.100
133.900	-16.376	0.100
134.000	-25.242	0.100
134.100	-13.093	0.100
134.200	-17.765	0.100
134.300	-23.158	0.100
134.400	0.461	0.100
134.500	-25.844	0.100
134.600	-10.868	0.100
134.700	-45.551	0.100
134.800	-11.213	0.100
134.900	-15.522	0.100
135.000	-13.557	0.100
135.100	-15.157	0.100
135.200	-15.175	0.100
135.300	6.553	0.100
135.400	-36.770	0.100
135.500	-25.648	0.100
135.600	6.238	0.100
135.700	-14.457	0.100
135.800	-21.154	0.100
135.900	-14.547	0.100
136.000	-17.334	0.100
136.100	-15.589	0.100
136.200	-24.032	0.100
136.300	-7.712	0.100
136.400	-0.007	0.100
136.500	-38.416	0.100
136.600	-17.724	0.100
136.700	-15.539	0.100
136.800	-16.493	0.100
136.900	-12.567	0.100
137.000	-8.997	0.100
137.100	-10.810	0.100
137.200	-25.358	0.100
137.300	-16.359	0.100
137.400	-31.396	0.100
137.500	-5.571	0.100
137.600	-13.020	0.100
137.700	-12.310	0.100
137.800	10.217	0.100
137.900	-13.827	0.100
138.000	-10.716	0.100
138.100	-31.106	0.100
138.200	-30.311	0.100
138.300	-10.857	0.100
138.400	-13.276	0.100
138.500	-20.874	0.100
138.600	-25.570	0.100
138.700	-16.601	0.100
138.800	-17.055	0.100
138.900	9.722	0.100
139.000	-19.987	0.100
139.100	-21.098	0.100
139.200	-16.693	0.100
139.300	4.840	0.100
139.400	-16.208	0.100
139.500	-31.485	0.100
139.600	-38.488	0.100
139.700	-19.747	0.100
139.800	-2.876	0.100
139.900	-15.514	0.100
140.000	-18.050	0.100
140.100	-26.137	0.100
140.200	-14.796	0.100
140.300	-17.793	0.100
140.400	-23.393	0.100
140.500	-16.858	0.100
140.600	-23.151	0.100
140.700	-18.241	0.100
140.800	-9.003	0.100
140.900	-10.256	0.100
141.000	-20.707	0.100
141.100	-14.726	0.100
141.200	-6.909	0.100
141.300	-24.178	0.100
141.400	-21.831	0.100
141.500	-3.598	0.100
141.600	-13.976	0.100
141.700	-3.429	0.100
141.800	-3.103	0.100
141.900	-11.764	0.100
142.000	-21.999	0.100
142.100	-27.907	0.100
142.200	-29.529	0.100
142.300	-5.054	0.100
142.400	-22.106	0.100
142.500	-20.066	0.100
142.600	-12.093	0.100
142.700	-21.982	0.100
142.800	-25.764	0.100
142.900	-15.793	0.100
143.000	-22.274	0.100
143.100	-3.144	0.100
143.200	-16.662	0.100
143.300	-27.285	0.100
143.400	-17.906	0.100
143.500	-14.514	0.100
143.600	-45.460	0.100
143.700	-29.342	0.100
143.800	3.015	0.100
143.900	-6.669	0.100
144.000	-29.707	0.100
144.100	-29.420	0.100
144.200	-9.882	0.100
144.300	-9.018	0.100
144.400	-18.332	0.100
144.500	-27.082	0.100
144.600	-13.172	0.100
144.700	-21.971	0.100
144.800	-17.044	0.100
144.900	-8.026	0.100
145.000	-16.199	0.100
145.100	-3.967	0.100
145.200	-25.710	0.100
145.300	-24.985	0.100
145.400	-15.023	0.100
145.500	-21.273	0.100
145.600	-22.467	0.100
145.700	-8.402	0.100
145.800	7.416	0.100
145.900	-1.177	0.100
146.000	-39.250	0.100
146.100	-32.343	0.100
146.200	-10.684	0.100
146.300	-15.211	0.100
146.400	-14.758	0.100
146.500	-24.212	0.100
146.600	-27.470	0.100
146.700	-46.534	0.100
146.800	-23.941	0.100
146.900	-9.703	0.100
147.000	-13.040	0.100
147.100	-24.166	0.100
147.200	-14.104	0.100
147.300	-32.568	0.100
147.400	-10.749	0.100
147.500	0.817	0.100
147.600	-31.205	0.100
147.700	-39.933	0.100
147.800	2.768	0.100
147.900	-0.003	0.100
148.000	-25.751	0.100
148.100	-0.977	0.100
148.200	-31.050	0.100
148.300	-5.615	0.100
148.400	-11.514	0.100
148.500	-2.483	0.100
148.600	-6.313	0.100
148.700	-4.082	0.100
148.800	-14.725	0.100
148.900	-57.132	0.100
149.000	-12.756	0.100
149.100	-14.917	0.100
149.200	-25.297	0.100
149.300	-9.456	0.100
149.400	-1.241	0.100
149.500	-17.900	0.100
149.600	-21.502	0.100
149.700	-23.492	0.100
149.800	-23.688	0.100
149.900	-14.752	0.100
150.000	-8.838	0.100
150.100	-21.835	0.100
150.200	-38.010	0.100
150.300	-16.851	0.100
150.400	-15.478	0.100
150.500	4.363	0.100
150.600	-25.751	0.100
150.700	-55.946	0.100
150.800	-21.287	0.100
150.900	-9.507	0.100
151.000	-8.612	0.100
151.100	-29.894	0.100
151.200	-26.755	0.100
151.300	-34.526	0.100
151.400	-2.588	0.100
151.500	-3.129	0.100
151.600	-16.923	0.100
151.700	-28.851	0.100
151.800	-25.997	0.100
151.900	4.004	0.100
152.000	-11.195	0.100
152.100	-0.428	0.100
152.200	-29.966	0.100
152.300	-16.382	0.100
152.400	-5.849	0.100
152.500	-40.869	0.100
152.600	-15.224	0.100
152.700	-25.552	0.100
152.800	-0.405	0.100
152.900	-28.574	0.100
153.000	-0.879	0.100
153.100	-30.895	0.100
153.200	-22.509	0.100
153.300	-20.335	0.100
153.400	-52.675	0.100
153.500	6.106	0.100
153.600	-8.934	0.100
153.700	-17.839	0.100
153.800	-26.569	0.100
153.900	-19.111	0.100
154.000	0.026	0.100
154.100	-19.063	0.100
154.200	-26.779	0.100
154.300	-17.443	0.100
154.400	-1.161	0.100
154.500	-18.596	0.100
154.600	-17.548	0.100
154.700	-13.078	0.100
154.800	-49.250	0.100
154.900	-33.932	0.100
155.000	-30.377	0.100
155.100	7.033	0.100
155.200	-32.381	0.100
155.300	-24.891	0.100
155.400	-18.474	0.100
155.500	-25.558	0.100
155.600	-23.042	0.100
155.700	-5.347	0.100
155.800	-14.690	0.100
155.900	-21.279	0.100
156.000	-27.952	0.100
156.100	-11.098	0.100
156.200	-10.253	0.100
156.300	1.945	0.100
156.400	-9.271	0.100
156.500	-42.025	0.100
156.600	6.904	0.100
156.700	-27.815	0.100
156.800	-16.801	0.100
156.900	-32.200	0.100
157.000	4.812	0.100
157.100	-6.532	0.100
157.200	-15.583	0.100
157.300	-13.367	0.100
157.400	-23.618	0.100
157.500	-14.895	0.100
157.600	-23.836	0.100
157.700	-21.960	0.100
157.800	-14.226	0.100
157.900	-14.223	0.100
158.000	-9.692	0.100
158.100	-21.378	0.100
158.200	-7.767	0.100
158.300	-17.409	0.100
158.400	-17.552	0.100
158.500	-5.101	0.100
158.600	-4.441	0.100
158.700	-10.740	0.100
158.800	-25.573	0.100
158.900	-32.489	0.100
159.000	-29.853	0.100
159.100	-13.453	0.100
159.200	-15.153	0.100
159.300	-11.822	0.100
159.400	-25.444	0.100
159.500	-42.644	0.100
159.600	-25.782	0.100
159.700	-10.423	0.100
159.800	4.004	0.100
159.900	-28.579	0.100
160.000	-24.128	0.100
160.100	-12.462	0.100
160.200	0.735	0.100
160.300	-7.527	0.100
160.400	-12.608	0.100
160.500	-19.295	0.100
160.600	-8.404	0.100
160.700	-11.330	0.100
160.800	-18.527	0.100
160.900	-7.595	0.100
161.000	-19.521	0.100
161.100	-8.747	0.100
161.200	-13.501	0.100
161.300	-19.012	0.100
161.400	-9.503	0.100
161.500	-16.484	0.100
161.600	-15.842	0.100
161.700	-16.450	0.100
161.800	-25.685	0.100
161.900	-14.302	0.100
162.000	17.765	0.100
162.100	-27.721	0.100
162.200	1.001	0.100
162.300	-30.608	0.100
162.400	-19.357	0.100
162.500	-28.189	0.100
162.600	-24.860	0.100
162.700	-1.307	0.100
162.800	-9.800	0.100
162.900	-21.721	0.100
163.000	-15.501	0.100
163.100	-17.488	0.100
163.200	-10.255	0.100
163.300	-11.927	0.100
163.400	-42.373	0.100
163.500	-40.675	0.100
163.600	-22.757	0.100
163.700	9.716	0.100
163.800	-8.984	0.100
163.900	-23.987	0.100
164.000	-8.728	0.100
164.100	-21.174	0.100
164.200	-38.775	0.100
164.300	-15.061	0.100
164.400	-29.428	0.100
164.500	-16.690	0.100
164.600	-20.877	0.100
164.700	-6.800	0.100
164.800	-5.752	0.100
164.900	-4.853	0.100
165.000	-18.480	0.100
165.100	-3.815	0.100
165.200	-25.110	0.100
165.300	-25.659	0.100
165.400	-0.102	0.100
165.500	-20.705	0.100
165.600	-1.872	0.100
165.700	-4.594	0.100
165.800	-36.084	0.100
165.900	-32.920	0.100
166.000	-3.499	0.100
166.100	-12.739	0.100
166.200	-26.101	0.100
166.300	-3.264	0.100
166.400	-29.173	0.100
166.500	-48.312	0.100
166.600	4.011	0.100
166.700	-40.892	0.100
166.800	-26.990	0.100
166.900	-6.586	0.100
167.000	-28.035	0.100
167.100	-40.453	0.100
167.200	-7.007	0.100
167.300	-10.737	0.100
167.400	2.266	0.100
167.500	-22.203	0.100
167.600	-18.057	0.100
167.700	-44.818	0.100
167.800	-20.540	0.100
167.900	-23.262	0.100
168.000	-6.232	0.100
168.100	10.945	0.100
168.200	-7.920	0.100
168.300	-15.616	0.100
168.400	-22.574	0.100
168.500	-19.138	0.100
168.600	-2.158	0.100
168.700	-24.249	0.100
168.800	-15.120	0.100
168.900	-1.285	0.100
169.000	1.090	0.100
169.100	-34.068	0.100
169.200	-18.090	0.100
169.300	2.191	0.100
169.400	-5.791	0.100
169.500	-18.003	0.100
169.600	-23.215	0.100
169.700	-28.921	0.100
169.800	-9.731	0.100
169.900	-30.921	0.100
170.000	-20.818	0.100
170.100	-29.923	0.100
170.200	-17.285	0.100
170.300	-25.958	0.100
170.400	2.364	0.100
170.500	-17.403	0.100
170.600	-20.190	0.100
170.700	-20.900	0.100
170.800	-20.664	0.100
170.900	-11.340	0.100
171.000	-30.662	0.100
171.100	-12.722	0.100
171.200	-11.728	0.100
171.300	-35.607	0.100
171.400	-0.125	0.100
171.500	-7.457	0.100
171.600	4.648	0.100
171.700	-33.737	0.100
171.800	-18.934	0.100
171.900	-7.318	0.100
172.000	-27.252	0.100
172.100	-8.961	0.100
172.200	-11.636	0.100
172.300	-31.595	0.100
172.400	0.837	0.100
172.500	-28.811	0.100
172.600	-28.214	0.100
172.700	-1.378	0.100
172.800	-18.040	0.100
172.900	-20.637	0.100
173.000	-12.566	0.100
173.100	-15.516	0.100
173.200	-11.543	0.100
173.300	-22.204	0.100
173.400	-7.670	0.100
173.500	-22.633	0.100
173.600	-6.849	0.100
173.700	-23.562	0.100
173.800	0.647	0.100
173.900	-10.617	0.100
174.000	-13.803	0.100
174.100	-30.696	0.100
174.200	-19.847	0.100
174.300	-15.242	0.100
174.400	-5.197	0.100
174.500	-11.718	0.100
174.600	-1.131	0.100
174.700	-3.470	0.100
174.800	-30.122	0.100
174.900	-8.639	0.100
175.000	9.584	0.100
175.100	-42.310	0.100
175.200	-27.696	0.100
175.300	-14.408	0.100
175.400	4.054	0.100
175.500	-20.185	0.100
175.600	-56.135	0.100
175.700	-0.921	0.100
175.800	1.649	0.100
175.900	-12.306	0.100
176.000	-19.540	0.100
176.100	-18.710	0.100
176.200	-21.395	0.100
176.300	-12.227	0.100
176.400	-26.302	0.100
176.500	-13.683	0.100
176.600	-20.306	0.100
176.700	-9.285	0.100
176.800	-24.813	0.100
176.900	-17.897	0.100
177.000	-16.031	0.100
177.100	-23.137	0.100
177.200	-0.014	0.100
177.300	-24.258	0.100
177.400	-2.071	0.100
177.500	-20.594	0.100
177.600	-8.332	0.100
177.700	-20.065	0.100
177.800	-31.835	0.100
177.900	-25.526	0.100
178.000	-19.341	0.100
178.100	-7.619	0.100
178.200	-9.937	0.100
178.300	-25.473	0.100
178.400	-3.209	0.100
178.500	-9.455	0.100
178.600	-21.989	0.100
178.700	-22.391	0.100
178.800	-8.682	0.100
178.900	-37.334	0.100
179.000	-21.072	0.100
179.100	-16.222	0.100
179.200	-9.618	0.100
179.300	-19.469	0.100
179.400	-17.076	0.100
179.500	-27.859	0.100
179.600	-21.014	0.100
179.700	-30.191	0.100
179.800	-12.964	0.100
179.900	5.739	0.100
180.000	6.853	0.100
180.100	-27.487	0.100
180.200	-22.451	0.100
180.300	-36.966	0.100
180.400	-8.476	0.100
180.500	-12.361	0.100
180.600	-11.528	0.100
180.700	-11.027	0.100
180.800	-29.558	0.100
180.900	-9.530	0.100
181.000	-3.578	0.100
181.100	-1.566	0.100
181.200	-5.565	0.100
181.300	-3.529	0.100
181.400	12.847	0.100
181.500	8.809	0.100
181.600	-2.044	0.100
181.700	-5.188	0.100
181.800	7.712	0.100
181.900	-15.190	0.100
182.000	18.288	0.100
182.100	-8.692	0.100
182.200	-2.431	0.100
182.300	-15.961	0.100
182.400	16.592	0.100
182.500	-3.372	0.100
182.600	-16.944	0.100
182.700	25.839	0.100
182.800	-17.784	0.100
182.900	1.599	0.100
183.000	4.651	0.100
183.100	34.587	0.100
183.200	0.025	0.100
183.300	-8.083	0.100
183.400	24.971	0.100
183.500	8.378	0.100
183.600	28.020	0.100
183.700	10.367	0.100
183.800	24.208	0.100
183.900	0.766	0.100
184.000	18.088	0.100
184.100	18.994	0.100
184.200	10.637	0.100
184.300	21.169	0.100
184.400	28.917	0.100
184.500	13.320	0.100
184.600	27.192	0.100
184.700	29.374	0.100
184.800	19.324	0.100
184.900	27.054	0.100
185.000	29.991	0.100
185.100	2.333	0.100
185.200	33.052	0.100
185.300	10.653	0.100
185.400	34.524	0.100
185.500	7.745	0.100
185.600	23.525	0.100
185.700	25.228	0.100
185.800	29.587	0.100
185.900	38.023	0.100
186.000	5.208	0.100
186.100	17.765	0.100
186.200	23.975	0.100
186.300	23.643	0.100
186.400	7.321	0.100
186.500	16.198	0.100
186.600	-2.676	0.100
186.700	42.169	0.100
186.800	19.170	0.100
186.900	26.599	0.100
187.000	16.978	0.100
187.100	14.076	0.100
187.200	14.335	0.100
187.300	24.277	0.100
187.400	7.177	0.100
187.500	2.850	0.100
187.600	16.536	0.100
187.700	37.996	0.100
187.800	37.297	0.100
187.900	4.643	0.100
188.000	11.956	0.100
188.100	26.204	0.100
188.200	21.071	0.100
188.300	25.211	0.100
188.400	29.606	0.100
188.500	-5.356	0.100
188.600	41.090	0.100
188.700	28.719	0.100
188.800	-12.130	0.100
188.900	16.327	0.100
189.000	22.703	0.100
189.100	12.109	0.100
189.200	14.715	0.100
189.300	-11.307	0.100
189.400	16.537	0.100
189.500	27.876	0.100
189.600	34.619	0.100
189.700	18.303	0.100
189.800	18.805	0.100
189.900	24.182	0.100
190.000	16.977	0.100
190.100	20.862	0.100
190.200	17.503	0.100
190.300	14.143	0.100
190.400	19.857	0.100
190.500	21.472	0.100
190.600	18.890	0.100
190.700	25.496	0.100
190.800	21.751	0.100
190.900	25.290	0.100
191.000	5.435	0.100
191.100	48.255	0.100
191.200	13.588	0.100
191.300	18.106	0.100
191.400	15.516	0.100
191.500	28.934	0.100
191.600	-11.130	0.100
191.700	30.642	0.100
191.800	16.312	0.100
191.900	14.184	0.100
192.000	4.917	0.100
192.100	26.245	0.100
192.200	5.029	0.100
192.300	15.564	0.100
192.400	9.107	0.100
192.500	39.442	0.100
192.600	13.242	0.100
192.700	-4.472	0.100
192.800	46.383	0.100
192.900	16.791	0.100
193.000	30.228	0.100
193.100	9.695	0.100
193.200	12.516	0.100
193.300	28.812	0.100
193.400	9.816	0.100
193.500	13.827	0.100
193.600	10.091	0.100
193.700	17.575	0.100
193.800	27.322	0.100
193.900	19.434	0.100
194.000	18.732	0.100
194.100	42.717	0.100
194.200	18.594	0.100
194.300	-2.870	0.100
194.400	11.436	0.100
194.500	15.438	0.100
194.600	19.154	0.100
194.700	27.296	0.100
194.800	-1.084	0.100
194.900	1.520	0.100
195.000	47.966	0.100
195.100	33.482	0.100
195.200	18.705	0.100
195.300	11.840	0.100
195.400	22.548	0.100
195.500	26.845	0.100
195.600	32.366	0.100
195.700	39.635	0.100
195.800	19.892	0.100
195.900	35.219	0.100
196.000	28.791	0.100
196.100	29.792	0.100
196.200	13.172	0.100
196.300	43.982	0.100
196.400	-1.350	0.100
196.500	1.560	0.100
196.600	14.224	0.100
196.700	41.837	0.100
196.800	20.324	0.100
196.900	8.118	0.100
197.000	-6.151	0.100
197.100	33.506	0.100
197.200	24.463	0.100
197.300	14.870	0.100
197.400	26.285	0.100
197.500	15.615	0.100
197.600	14.454	0.100
197.700	15.023	0.100
197.800	-13.714	0.100
197.900	41.381	0.100
198.000	16.836	0.100
198.100	22.479	0.100
198.200	18.984	0.100
198.300	2.014	0.100
198.400	42.967	0.100
198.500	36.877	0.100
198.600	15.829	0.100
198.700	-6.099	0.100
198.800	13.549	0.100
198.900	27.935	0.100
199.000	42.742	0.100
199.100	23.994	0.100
199.200	17.350	0.100
199.300	27.295	0.100
199.400	13.736	0.100
199.500	31.087	0.100
199.600	36.822	0.100
199.700	16.738	0.100
199.800	28.658	0.100
199.900	9.862	0.100
200.000	18.769	0.100
200.100	15.427	0.100
200.200	29.367	0.100
200.300	30.470	0.100
200.400	34.932	0.100
200.500	7.468	0.100
200.600	25.904	0.100
200.700	14.153	0.100
200.800	12.864	0.100
200.900	32.207	0.100
201.000	25.869	0.100
201.100	28.321	0.100
201.200	24.631	0.100
201.300	29.136	0.100
201.400	19.902	0.100
201.500	36.685	0.100
201.600	22.975	0.100
201.700	29.935	0.100
201.800	37.531	0.100
201.900	20.198	0.100
202.000	33.586	0.100
202.100	34.871	0.100
202.200	34.351	0.100
202.300	0.116	0.100
202.400	23.600	0.100
202.500	37.628	0.100
202.600	44.578	0.100
202.700	56.033	0.100
202.800	23.126	0.100
202.900	18.459	0.100
203.000	19.167	0.100
203.100	29.347	0.100
203.200	30.204	0.100
203.300	31.780	0.100
203.400	18.985	0.100
203.500	14.400	0.100
203.600	3.357	0.100
203.700	36.588	0.100
203.800	47.389	0.100
203.900	45.072	0.100
204.000	23.654	0.100
204.100	32.781	0.100
204.200	35.242	0.100
204.300	34.239	0.100
204.400	40.544	0.100
204.500	31.236	0.100
204.600	13.972	0.100
204.700	47.791	0.100
204.800	44.556	0.100
204.900	34.904	0.100
205.000	23.777	0.100
205.100	26.065	0.100
205.200	31.351	0.100
205.300	20.379	0.100
205.400	43.703	0.100
205.500	19.496	0.100
205.600	15.571	0.100
205.700	50.810	0.100
205.800	29.677	0.100
205.900	30.304	0.100
206.000	37.515	0.100
206.100	2.985	0.100
206.200	36.049	0.100
206.300	32.949	0.100
206.400	42.575	0.100
206.500	37.989	0.100
206.600	22.455	0.100
206.700	29.981	0.100
206.800	19.291	0.100
206.900	37.306	0.100
207.000	41.333	0.100
207.100	34.533	0.100
207.200	46.492	0.100
207.300	19.239	0.100
207.400	42.598	0.100
207.500	24.517	0.100
207.600	10.471	0.100
207.700	28.897	0.100
207.800	61.895	0.100
207.900	15.563	0.100
208.000	53.879	0.100
208.100	28.969	0.100
208.200	30.031	0.100
208.300	30.969	0.100
208.400	13.083	0.100
208.500	33.544	0.100
208.600	38.732	0.100
208.700	44.372	0.100
208.800	19.450	0.100
208.900	32.399	0.100
209.000	21.953	0.100
209.100	49.121	0.100
209.200	33.948	0.100
209.300	35.160	0.100
209.400	54.546	0.100
209.500	31.088	0.100
209.600	11.848	0.100
209.700	42.639	0.100
209.800	52.433	0.100
209.900	28.752	0.100
210.000	40.756	0.100
210.100	34.210	0.100
210.200	29.396	0.100
210.300	39.634	0.100
210.400	43.060	0.100
210.500	39.708	0.100
210.600	55.590	0.100
210.700	40.796	0.100
210.800	22.712	0.100
210.900	37.923	0.100
211.000	52.068	0.100
211.100	25.134	0.100
211.200	44.381	0.100
211.300	40.803	0.100
211.400	28.316	0.100
211.500	26.106	0.100
211.600	21.813	0.100
211.700	46.446	0.100
211.800	40.681	0.100
211.900	37.098	0.100
212.000	7.895	0.100
212.100	44.429	0.100
212.200	14.586	0.100
212.300	40.520	0.100
212.400	50.135	0.100
212.500	30.641	0.100
212.600	55.768	0.100
212.700	48.846	0.100
212.800	25.020	0.100
212.900	42.901	0.100
213.000	19.137	0.100
213.100	38.298	0.100
213.200	48.421	0.100
213.300	41.767	0.100
213.400	32.276	0.100
213.500	37.997	0.100
213.600	28.503	0.100
213.700	10.156	0.100
213.800	43.762	0.100
213.900	38.584	0.100
214.000	50.049	0.100
214.100	27.391	0.100
214.200	42.656	0.100
214.300	35.281	0.100
214.400	27.956	0.100
214.500	45.863	0.100
214.600	35.203	0.100
214.700	15.813	0.100
214.800	38.194	0.100
214.900	47.786	0.100
215.000	41.303	0.100
215.100	49.069	0.100
215.200	52.812	0.100
215.300	33.756	0.100
215.400	22.565	0.100
215.500	67.019	0.100
215.600	52.601	0.100
215.700	9.012	0.100
215.800	46.171	0.100
215.900	55.635	0.100
216.000	34.538	0.100
216.100	39.364	0.100
216.200	37.066	0.100
216.300	41.114	0.100
216.400	36.259	0.100
216.500	28.215	0.100
216.600	58.734	0.100
216.700	48.687	0.100
216.800	46.006	0.100
216.900	41.277	0.100
217.000	48.065	0.100
217.100	21.238	0.100
217.200	55.676	0.100
217.300	51.241	0.100
217.400	44.624	0.100
217.500	21.166	0.100
217.600	55.246	0.100
217.700	34.967	0.100
217.800	47.457	0.100
217.900	40.236	0.100
218.000	32.378	0.100
218.100	13.614	0.100
218.200	49.848	0.100
218.300	27.072	0.100
218.400	41.846	0.100
218.500	38.349	0.100
218.600	44.079	0.100
218.700	35.241	0.100
218.800	35.091	0.100
218.900	23.667	0.100
219.000	30.784	0.100
219.100	41.144	0.100
219.200	35.409	0.100
219.300	33.645	0.100
219.400	51.196	0.100
219.500	41.879	0.100
219.600	35.482	0.100
219.700	37.168	0.100
219.800	22.170	0.100
219.900	51.121	0.100
220.000	54.572	0.100
220.100	22.373	0.100
220.200	33.114	0.100
220.300	48.710	0.100
220.400	46.152	0.100
220.500	51.237	0.100
220.600	46.415	0.100
220.700	35.567	0.100
220.800	20.960	0.100
220.900	51.533	0.100
221.000	9.349	0.100
221.100	17.450	0.100
221.200	50.814	0.100
221.300	47.129	0.100
221.400	40.948	0.100
221.500	48.656	0.100
221.600	39.080	0.100
221.700	40.797	0.100
221.800	46.639	0.100
221.900	47.347	0.100
222.000	71.067	0.100
222.100	41.661	0.100
222.200	30.845	0.100
222.300	35.895	0.100
222.400	35.996	0.100
222.500	38.356	0.100
222.600	37.243	0.100
222.700	21.528	0.100
222.800	40.869	0.100
222.900	50.703	0.100
223.000	55.672	0.100
223.100	34.871	0.100
223.200	40.565	0.100
223.300	38.709	0.100
223.400	64.144	0.100
223.500	12.732	0.100
223.600	57.085	0.100
223.700	48.956	0.100
223.800	49.147	0.100
223.900	32.957	0.100
224.000	12.842	0.100
224.100	52.273	0.100
224.200	45.879	0.100
224.300	36.528	0.100
224.400	37.859	0.100
224.500	41.378	0.100
224.600	38.783	0.100
224.700	35.106	0.100
224.800	44.651	0.100
224.900	33.516	0.100
225.000	66.759	0.100
225.100	59.891	0.100
225.200	19.947	0.100
225.300	42.670	0.100
225.400	31.000	0.100
225.500	39.539	0.100
225.600	55.790	0.100
225.700	45.088	0.100
225.800	15.321	0.100
225.900	19.585	0.100
226.000	55.485	0.100
226.100	47.839	0.100
226.200	48.127	0.100
226.300	56.455	0.100
226.400	23.744	0.100
226.500	46.264	0.100
226.600	48.687	0.100
226.700	44.578	0.100
226.800	17.811	0.100
226.900	48.398	0.100
227.000	30.312	0.100
227.100	50.357	0.100
227.200	42.406	0.100
227.300	56.857	0.100
227.400	46.851	0.100
227.500	12.876	0.100
227.600	49.585	0.100
227.700	61.718	0.100
227.800	53.123	0.100
227.900	41.439	0.100
228.000	26.257	0.100
228.100	31.543	0.100
228.200	54.755	0.100
228.300	38.456	0.100
228.400	39.199	0.100
228.500	60.311	0.100
228.600	32.850	0.100
228.700	48.268	0.100
228.800	44.989	0.100
228.900	43.034	0.100
229.000	8.279	0.100
229.100	56.201	0.100
229.200	41.879	0.100
229.300	64.716	0.100
229.400	19.473	0.100
229.500	22.523	0.100
229.600	51.974	0.100
229.700	46.956	0.100
229.800	28.615	0.100
229.900	28.361	0.100
230.000	50.070	0.100
230.100	25.769	0.100
230.200	27.820	0.100
230.300	58.055	0.100
230.400	67.988	0.100
230.500	41.659	0.100
230.600	23.919	0.100
230.700	29.286	0.100
230.800	60.060	0.100
230.900	45.145	0.100
231.000	47.222	0.100
231.100	29.809	0.100
231.200	39.831	0.100
231.300	51.275	0.100
231.400	29.009	0.100
231.500	45.309	0.100
231.600	52.545	0.100
231.700	45.531	0.100
231.800	26.582	0.100
231.900	44.537	0.100
232.000	45.602	0.100
232.100	29.759	0.100
232.200	24.445	0.100
232.300	47.254	0.100
232.400	18.152	0.100
232.500	53.439	0.100
232.600	47.495	0.100
232.700	62.052	0.100
232.800	46.427	0.100
232.900	28.146	0.100
233.000	38.247	0.100
233.100	28.877	0.100
233.200	22.964	0.100
233.300	62.373	0.100
233.400	48.675	0.100
233.500	36.664	0.100
233.600	27.128	0.100
233.700	34.534	0.100
233.800	29.397	0.100
233.900	68.674	0.100
234.000	25.281	0.100
234.100	43.789	0.100
234.200	43.069	0.100
234.300	26.838	0.100
234.400	65.391	0.100
234.500	59.202	0.100
234.600	39.625	0.100
234.700	47.601	0.100
234.800	42.635	0.100
234.900	42.071	0.100
235.000	22.916	0.100
235.100	35.805	0.100
235.200	45.202	0.100
235.300	37.416	0.100
235.400	54.005	0.100
235.500	23.033	0.100
235.600	36.000	0.100
235.700	21.614	0.100
235.800	28.561	0.100
235.900	18.876	0.100
236.000	44.516	0.100
236.100	54.942	0.100
236.200	23.249	0.100
236.300	37.116	0.100
236.400	41.242	0.100
236.500	27.645	0.100
236.600	44.025	0.100
236.700	42.198	0.100
236.800	48.655	0.100
236.900	42.837	0.100
237.000	50.960	0.100
237.100	46.636	0.100
237.200	28.937	0.100
237.300	65.373	0.100
237.400	34.813	0.100
237.500	47.273	0.100
237.600	42.268	0.100
237.700	45.531	0.100
237.800	23.447	0.100
237.900	41.361	0.100
238.000	41.474	0.100
238.100	46.449	0.100
238.200	50.327	0.100
238.300	52.396	0.100
238.400	33.769	0.100
238.500	36.456	0.100
238.600	44.607	0.100
238.700	37.093	0.100
238.800	46.423	0.100
238.900	35.357	0.100
239.000	57.971	0.100
239.100	55.212	0.100
239.200	26.884	0.100
239.300	50.934	0.100
239.400	45.939	0.100
239.500	40.961	0.100
239.600	51.937	0.100
239.700	31.169	0.100
239.800	15.006	0.100
239.900	26.477	0.100
240.000	51.787	0.100
240.100	13.412	0.100
240.200	54.235	0.100
240.300	65.712	0.100
240.400	48.559	0.100
240.500	36.116	0.100
240.600	23.871	0.100
240.700	29.944	0.100
240.800	50.150	0.100
240.900	27.449	0.100
241.000	15.228	0.100
241.100	39.892	0.100
241.200	33.813	0.100
241.300	15.572	0.100
241.400	37.311	0.100
241.500	26.175	0.100
241.600	39.403	0.100
241.700	16.183	0.100
241.800	17.256	0.100
241.900	32.561	0.100
242.000	8.835	0.100
242.100	32.603	0.100
242.200	32.042	0.100
242.300	42.609	0.100
242.400	-8.823	0.100
242.500	7.452	0.100
242.600	-3.378	0.100
242.700	15.340	0.100
242.800	-5.071	0.100
242.900	32.224	0.100
243.000	-11.812	0.100
243.100	34.146	0.100
243.200	2.645	0.100
243.300	20.500	0.100
243.400	6.767	0.100
243.500	7.000	0.100
243.600	9.629	0.100
243.700	1.618	0.100
243.800	-3.879	0.100
243.900	22.289	0.100
244.000	16.826	0.100
244.100	3.086	0.100
244.200	-17.444	0.100
244.300	-9.517	0.100
244.400	8.508	0.100
244.500	35.489	0.100
244.600	-18.018	0.100
244.700	-12.193	0.100
244.800	17.758	0.100
244.900	-15.858	0.100
245.000	-9.077	0.100
245.100	8.926	0.100
245.200	-1.441	0.100
245.300	-12.737	0.100
245.400	-1.626	0.100
245.500	13.139	0.100
245.600	6.023	0.100
245.700	-9.968	0.100
245.800	17.913	0.100
245.900	18.710	0.100
246.000	7.953	0.100
246.100	17.573	0.100
246.200	-5.013	0.100
246.300	-8.517	0.100
246.400	12.043	0.100
246.500	6.291	0.100
246.600	1.174	0.100
246.700	-26.205	0.100
246.800	-7.249	0.100
246.900	-20.170	0.100
247.000	22.871	0.100
247.100	-20.218	0.100
247.200	-9.415	0.100
247.300	7.270	0.100
247.400	-4.041	0.100
247.500	4.957	0.100
247.600	6.117	0.100
247.700	-7.471	0.100
247.800	-16.472	0.100
247.900	21.824	0.100
248.000	1.750	0.100
248.100	3.197	0.100
248.200	-2.346	0.100
248.300	0.821	0.100
248.400	4.847	0.100
248.500	-12.876	0.100
248.600	-19.964	0.100
248.700	17.755	0.100
248.800	6.468	0.100
248.900	21.426	0.100
249.000	-12.072	0.100
249.100	7.050	0.100
249.200	-19.407	0.100
249.300	35.375	0.100
249.400	-5.986	0.100
249.500	-2.209	0.100
249.600	-11.384	0.100
249.700	15.757	0.100
249.800	-35.545	0.100
249.900	4.826	0.100
250.000	2.424	0.100
250.100	7.113	0.100
250.200	11.831	0.100
250.300	26.320	0.100
250.400	-6.878	0.100
250.500	0.480	0.100
250.600	5.565	0.100
250.700	8.532	0.100
250.800	0.217	0.100
250.900	-2.501	0.100
251.000	-15.738	0.100
251.100	-10.296	0.100
251.200	30.857	0.100
251.300	7.265	0.100
251.400	-15.718	0.100
251.500	-12.104	0.100
251.600	0.453	0.100
251.700	17.202	0.100
251.800	-16.467	0.100
251.900	-12.093	0.100
252.000	-2.253	0.100
252.100	21.836	0.100
252.200	-25.205	0.100
252.300	7.240	0.100
252.400	6.877	0.100
252.500	-9.383	0.100
252.600	4.607	0.100
252.700	8.576	0.100
252.800	-18.556	0.100
252.900	6.510	0.100
253.000	-14.339	0.100
253.100	6.174	0.100
253.200	21.725	0.100
253.300	-8.929	0.100
253.400	14.367	0.100
253.500	-4.593	0.100
253.600	-4.180	0.100
253.700	0.219	0.100
253.800	-23.456	0.100
253.900	-10.371	0.100
254.000	15.598	0.100
254.100	12.332	0.100
254.200	10.234	0.100
254.300	-7.672	0.100
254.400	11.039	0.100
254.500	-0.570	0.100
254.600	-19.584	0.100
254.700	-16.824	0.100
254.800	4.804	0.100
254.900	9.191	0.100
255.000	-2.454	0.100
255.100	-5.660	0.100
255.200	-16.849	0.100
255.300	-14.871	0.100
255.400	23.145	0.100
255.500	-1.290	0.100
255.600	2.428	0.100
255.700	-4.017	0.100
255.800	11.692	0.100
255.900	-21.924	0.100
256.000	-8.212	0.100
256.100	-12.026	0.100
256.200	13.657	0.100
256.300	-4.288	0.100
256.400	-4.953	0.100
256.500	13.097	0.100
256.600	-11.624	0.100
256.700	-5.272	0.100
256.800	14.313	0.100
256.900	-18.309	0.100
257.000	16.677	0.100
257.100	-30.668	0.100
257.200	6.561	0.100
257.300	13.035	0.100
257.400	1.311	0.100
257.500	-4.193	0.100
257.600	-15.208	0.100
257.700	-1.391	0.100
257.800	-6.464	0.100
257.900	2.858	0.100
258.000	-6.195	0.100
258.100	-8.567	0.100
258.200	-9.611	0.100
258.300	-2.675	0.100
258.400	5.033	0.100
258.500	0.402	0.100
258.600	-8.895	0.100
258.700	-12.224	0.100
258.800	-3.527	0.100
258.900	6.166	0.100
259.000	-4.102	0.100
259.100	-9.253	0.100
259.200	-23.432	0.100
259.300	6.291	0.100
259.400	4.164	0.100
259.500	-3.812	0.100
259.600	0.032	0.100
259.700	-11.826	0.100
259.800	7.032	0.100
259.900	-9.400	0.100
260.000	-17.553	0.100
260.100	-26.774	0.100
260.200	-8.777	0.100
260.300	-21.661	0.100
260.400	6.205	0.100
260.500	-6.229	0.100
260.600	-1.623	0.100
260.700	-10.063	0.100
260.800	-13.928	0.100
260.900	-4.654	0.100
261.000	3.473	0.100
261.100	4.433	0.100
261.200	5.474	0.100
261.300	11.295	0.100
261.400	-18.503	0.100
261.500	-11.830	0.100
261.600	-21.318	0.100
261.700	0.484	0.100
261.800	-19.087	0.100
261.900	-8.419	0.100
262.000	7.580	0.100
262.100	-2.184	0.100
262.200	-13.463	0.100
262.300	15.619	0.100
262.400	-23.610	0.100
262.500	-7.634	0.100
262.600	-9.605	0.100
262.700	7.036	0.100
262.800	-8.097	0.100
262.900	13.891	0.100
263.000	-10.368	0.100
263.100	-23.047	0.100
263.200	-0.062	0.100
263.300	-18.177	0.100
263.400	-12.231	0.100
263.500	0.331	0.100
263.600	-17.996	0.100
263.700	0.911	0.100
263.800	-4.279	0.100
263.900	-28.413	0.100
264.000	-7.826	0.100
264.100	6.633	0.100
264.200	-23.452	0.100
264.300	-27.426	0.100
264.400	-1.473	0.100
264.500	0.409	0.100
264.600	-12.025	0.100
264.700	9.655	0.100
264.800	-11.458	0.100
264.900	-7.336	0.100
265.000	-13.810	0.100
265.100	-6.634	0.100
265.200	-24.701	0.100
265.300	12.246	0.100
265.400	0.761	0.100
265.500	7.536	0.100
265.600	-21.170	0.100
265.700	-28.231	0.100
265.800	6.822	0.100
265.900	-9.895	0.100
266.000	-7.615	0.100
266.100	-27.741	0.100
266.200	-19.112	0.100
266.300	-1.615	0.100
266.400	-10.979	0.100
266.500	-19.049	0.100
266.600	-27.035	0.100
266.700	3.135	0.100
266.800	-18.806	0.100
266.900	3.456	0.100
267.000	-7.519	0.100
267.100	-3.930	0.100
267.200	-7.233	0.100
267.300	-29.623	0.100
267.400	6.326	0.100
267.500	-19.275	0.100
267.600	-13.738	0.100
267.700	-15.759	0.100
267.800	-22.533	0.100
267.900	-3.828	0.100
268.000	-11.823	0.100
268.100	-27.233	0.100
268.200	9.785	0.100
268.300	-20.626	0.100
268.400	-11.097	0.100
268.500	4.148	0.100
268.600	-9.925	0.100
268.700	-2.456	0.100
268.800	-26.525	0.100
268.900	-11.820	0.100
269.000	-21.853	0.100
269.100	16.077	0.100
269.200	-25.616	0.100
269.300	-23.250	0.100
269.400	-33.198	0.100
269.500	5.810	0.100
269.600	-11.414	0.100
269.700	-5.117	0.100
269.800	-28.908	0.100
269.900	8.370	0.100
270.000	-3.556	0.100
270.100	0.732	0.100
270.200	-13.671	0.100
270.300	-5.324	0.100
270.400	-45.069	0.100
270.500	-14.982	0.100
270.600	-1.023	0.100
270.700	-29.293	0.100
270.800	-11.014	0.100
270.900	-0.599	0.100
271.000	-25.558	0.100
271.100	-22.574	0.100
271.200	-30.418	0.100
271.300	4.086	0.100
271.400	-18.454	0.100
271.500	-23.267	0.100
271.600	-35.585	0.100
271.700	-5.300	0.100
271.800	5.391	0.100
271.900	-5.674	0.100
272.000	-8.410	0.100
272.100	-0.714	0.100
272.200	-2.597	0.100
272.300	-30.592	0.100
272.400	-37.157	0.100
272.500	-14.010	0.100
272.600	-27.084	0.100
272.700	-10.615	0.100
272.800	6.873	0.100
272.900	-7.632	0.100
273.000	-14.103	0.100
273.100	-27.084	0.100
273.200	2.425	0.100
273.300	-7.631	0.100
273.400	-18.250	0.100
273.500	-15.242	0.100
273.600	-58.305	0.100
273.700	3.087	0.100
273.800	14.802	0.100
273.900	-30.637	0.100
274.000	-25.567	0.100
274.100	-1.284	0.100
274.200	-25.844	0.100
274.300	15.655	0.100
274.400	-38.131	0.100
274.500	-23.416	0.100
274.600	15.396	0.100
274.700	-11.808	0.100
274.800	-0.518	0.100
274.900	-50.776	0.100
275.000	-14.143	0.100
275.100	-7.824	0.100
275.200	-0.737	0.100
275.300	-15.341	0.100
275.400	-14.106	0.100
275.500	-12.175	0.100
275.600	-45.195	0.100
275.700	-26.762	0.100
275.800	-8.649	0.100
275.900	-43.759	0.100
276.000	-13.898	0.100
276.100	-2.371	0.100
276.200	-15.103	0.100
276.300	-7.991	0.100
276.400	-16.252	0.100
276.500	-6.380	0.100
276.600	-4.389	0.100
276.700	7.844	0.100
276.800	-36.299	0.100
276.900	-33.570	0.100
277.000	-15.819	0.100
277.100	-30.459	0.100
277.200	11.811	0.100
277.300	-26.007	0.100
277.400	-8.524	0.100
277.500	-9.600	0.100
277.600	-23.501	0.100
277.700	-16.972	0.100
277.800	-7.568	0.100
277.900	-30.561	0.100
278.000	-36.111	0.100
278.100	-19.073	0.100
278.200	-15.985	0.100
278.300	-7.363	0.100
278.400	-31.245	0.100
278.500	-7.630	0.100
278.600	-14.472	0.100
278.700	3.649	0.100
278.800	-9.666	0.100
278.900	-23.975	0.100
279.000	2.018	0.100
279.100	-22.951	0.100
279.200	-11.573	0.100
279.300	-27.511	0.100
279.400	-18.045	0.100
279.500	-14.209	0.100
279.600	-11.958	0.100
279.700	0.183	0.100
279.800	-37.813	0.100
279.900	-23.546	0.100
280.000	-14.664	0.100
280.100	-8.706	0.100
280.200	-23.784	0.100
280.300	3.052	0.100
280.400	-1.008	0.100
280.500	-30.178	0.100
280.600	-18.118	0.100
280.700	-31.135	0.100
280.800	-18.060	0.100
280.900	-8.080	0.100
281.000	-31.944	0.100
281.100	-15.817	0.100
281.200	-18.924	0.100
281.300	-26.528	0.100
281.400	-11.298	0.100
281.500	-29.700	0.100
281.600	-21.956	0.100
281.700	-14.768	0.100
281.800	-28.815	0.100
281.900	-19.124	0.100
282.000	-33.626	0.100
282.100	-33.877	0.100
282.200	11.766	0.100
282.300	-23.376	0.100
282.400	-19.545	0.100
282.500	5.662	0.100
282.600	-30.705	0.100
282.700	-2.596	0.100
282.800	-40.102	0.100
282.900	-20.684	0.100
283.000	-20.024	0.100
283.100	-8.786	0.100
283.200	-36.266	0.100
283.300	-33.764	0.100
283.400	-20.766	0.100
283.500	-32.674	0.100
283.600	-15.970	0.100
283.700	-10.351	0.100
283.800	-40.473	0.100
283.900	-9.518	0.100
284.000	5.254	0.100
284.100	-20.774	0.100
284.200	-28.737	0.100
284.300	-3.154	0.100
284.400	-20.666	0.100
284.500	-27.777	0.100
284.600	-26.858	0.100
284.700	-2.569	0.100
284.800	-18.519	0.100
284.900	-12.584	0.100
285.000	-34.033	0.100
285.100	-21.257	0.100
285.200	-23.527	0.100
285.300	-36.801	0.100
285.400	-19.218	0.100
285.500	-20.701	0.100
285.600	-11.044	0.100
285.700	-37.788	0.100
285.800	-15.434	0.100
285.900	-25.770	0.100
286.000	-28.142	0.100
286.100	-21.186	0.100
286.200	3.363	0.100
286.300	-7.862	0.100
286.400	-51.708	0.100
286.500	-11.960	0.100
286.600	-23.870	0.100
286.700	-25.401	0.100
286.800	-14.311	0.100
286.900	-16.223	0.100
287.000	-14.565	0.100
287.100	-14.384	0.100
287.200	-24.816	0.100
287.300	-21.611	0.100
287.400	-24.828	0.100
287.500	-1.662	0.100
287.600	-33.403	0.100
287.700	-23.893	0.100
287.800	4.406	0.100
287.900	5.646	0.100
288.000	-47.765	0.100
288.100	-16.073	0.100
288.200	-22.767	0.100
288.300	-17.903	0.100
288.400	-14.453	0.100
288.500	-9.016	0.100
288.600	-26.899	0.100
288.700	-19.402	0.100
288.800	-30.289	0.100
288.900	0.219	0.100
289.000	-11.222	0.100
289.100	-25.321	0.100
289.200	-16.335	0.100
289.300	-4.824	0.100
289.400	-38.802	0.100
289.500	-27.671	0.100
289.600	-20.577	0.100
289.700	-16.682	0.100
289.800	-19.909	0.100
289.900	-14.647	0.100
290.000	-14.013	0.100
290.100	-46.771	0.100
290.200	-39.030	0.100
290.300	-11.267	0.100
290.400	-18.843	0.100
290.500	-24.729	0.100
290.600	-11.050	0.100
290.700	-19.541	0.100
290.800	-3.927	0.100
290.900	-18.150	0.100
291.000	-14.468	0.100
291.100	-16.194	0.100
291.200	-42.606	0.100
291.300	-6.496	0.100
291.400	-17.254	0.100
291.500	-5.945	0.100
291.600	-25.516	0.100
291.700	-13.749	0.100
291.800	-19.587	0.100
291.900	-39.624	0.100
292.000	-11.291	0.100
292.100	-6.168	0.100
292.200	-12.878	0.100
292.300	-21.997	0.100
292.400	-16.350	0.100
292.500	-31.354	0.100
292.600	-21.166	0.100
292.700	-26.436	0.100
292.800	-21.221	0.100
292.900	-12.381	0.100
293.000	-33.066	0.100
293.100	-3.391	0.100
293.200	-34.948	0.100
293.300	-18.890	0.100
293.400	-38.256	0.100
293.500	-39.733	0.100
293.600	-5.817	0.100
293.700	-7.799	0.100
293.800	-30.598	0.100
293.900	-28.869	0.100
294.000	-22.668	0.100
294.100	-27.653	0.100
294.200	-14.877	0.100
294.300	-12.797	0.100
294.400	-1.962	0.100
294.500	-37.227	0.100
294.600	-19.971	0.100
294.700	-3.438	0.100
294.800	-26.135	0.100
294.900	-31.465	0.100
295.000	-29.949	0.100
295.100	-36.801	0.100
295.200	-7.513	0.100
295.300	-26.862	0.100
295.400	-29.520	0.100
295.500	-21.789	0.100
295.600	-21.148	0.100
295.700	-5.872	0.100
295.800	-16.662	0.100
295.900	-41.800	0.100
296.000	-8.581	0.100
296.100	-28.375	0.100
296.200	-13.764	0.100
296.300	-43.082	0.100
296.400	-28.070	0.100
296.500	3.091	0.100
296.600	-16.203	0.100
296.700	-12.369	0.100
296.800	-20.270	0.100
296.900	-17.868	0.100
297.000	8.603	0.100
297.100	-3.854	0.100
297.200	-33.299	0.100
297.300	-48.511	0.100
297.400	-25.366	0.100
297.500	-34.046	0.100
297.600	-3.252	0.100
297.700	-18.785	0.100
297.800	-42.563	0.100
297.900	-0.662	0.100
298.000	-23.555	0.100
298.100	-5.803	0.100
298.200	-47.385	0.100
298.300	-27.357	0.100
298.400	2.148	0.100
298.500	-10.850	0.100
298.600	-17.522	0.100
298.700	-38.857	0.100
298.800	-28.414	0.100
298.900	-36.948	0.100
299.000	3.910	0.100
299.100	-19.973	0.100
299.200	-30.542	0.100
299.300	-26.524	0.100
299.400	-27.712	0.100
299.500	-22.658	0.100
299.600	-27.777	0.100
299.700	-28.315	0.100
299.800	-24.736	0.100
299.900	-22.475	0.100
300.000	-33.079	0.100
300.100	-2.096	0.100
300.200	-5.356	0.100
300.300	-23.073	0.100
300.400	-28.229	0.100
300.500	-33.940	0.100
300.600	-21.786	0.100
300.700	-2.712	0.100
300.800	-28.769	0.100
300.900	-22.105	0.100
301.000	-21.376	0.100
301.100	-16.478	0.100
301.200	-16.272	0.100
301.300	-26.996	0.100
301.400	-31.612	0.100
301.500	-7.843	0.100
301.600	-12.087	0.100
301.700	-17.156	0.100
301.800	-13.232	0.100
301.900	-39.062	0.100
302.000	-26.880	0.100
302.100	-19.419	0.100
302.200	-21.172	0.100
302.300	-23.988	0.100
302.400	-34.195	0.100
302.500	-28.825	0.100
302.600	-19.978	0.100
302.700	-42.219	0.100
302.800	-27.219	0.100
302.900	-18.994	0.100
303.000	20.419	0.100
303.100	-18.464	0.100
303.200	-27.197	0.100
303.300	-36.732	0.100
303.400	-0.837	0.100
303.500	-13.274	0.100
303.600	-15.343	0.100
303.700	-0.789	0.100
303.800	-5.683	0.100
303.900	-25.361	0.100
304.000	-5.772	0.100
304.100	-21.567	0.100
304.200	-24.817	0.100
304.300	-21.437	0.100
304.400	-20.604	0.100
304.500	-16.958	0.100
304.600	-16.250	0.100
304.700	-14.999	0.100
304.800	-30.531	0.100
304.900	-23.794	0.100
305.000	-4.540	0.100
305.100	-22.503	0.100
305.200	-9.082	0.100
305.300	-32.869	0.100
305.400	-33.546	0.100
305.500	-41.178	0.100
305.600	-10.567	0.100
305.700	-11.362	0.100
305.800	2.812	0.100
305.900	-7.397	0.100
306.000	-27.877	0.100
306.100	-1.091	0.100
306.200	-28.467	0.100
306.300	-32.025	0.100
306.400	-5.346	0.100
306.500	-16.854	0.100
306.600	-25.347	0.100
306.700	10.378	0.100
306.800	-15.735	0.100
306.900	-24.669	0.100
307.000	-7.088	0.100
307.100	-12.443	0.100
307.200	-34.467	0.100
307.300	-5.766	0.100
307.400	-5.217	0.100
307.500	-35.018	0.100
307.600	-7.433	0.100
307.700	-10.213	0.100
307.800	-49.603	0.100
307.900	-10.773	0.100
308.000	-25.574	0.100
308.100	-15.943	0.100
308.200	-28.549	0.100
308.300	-27.950	0.100
308.400	-44.037	0.100
308.500	-2.682	0.100
308.600	-6.758	0.100
308.700	-32.900	0.100
308.800	-41.228	0.100
308.900	-8.022	0.100
309.000	-5.666	0.100
309.100	-25.554	0.100
309.200	-47.540	0.100
309.300	-13.214	0.100
309.400	-23.049	0.100
309.500	-14.362	0.100
309.600	-16.561	0.100
309.700	9.592	0.100
309.800	-30.426	0.100
309.900	-6.556	0.100
310.000	-33.292	0.100
310.100	-42.260	0.100
310.200	1.286	0.100
310.300	-25.772	0.100
310.400	-27.721	0.100
310.500	1.513	0.100
310.600	-28.090	0.100
310.700	-7.990	0.100
310.800	-17.039	0.100
310.900	-18.584	0.100
311.000	-30.037	0.100
311.100	-14.149	0.100
311.200	-14.526	0.100
311.300	-12.207	0.100
311.400	-17.112	0.100
311.500	-13.124	0.100
311.600	-26.943	0.100
311.700	-4.854	0.100
311.800	-29.199	0.100
311.900	-24.339	0.100
312.000	-18.734	0.100
312.100	-21.582	0.100
312.200	-11.711	0.100
312.300	-13.531	0.100
312.400	-17.451	0.100
312.500	-39.545	0.100
312.600	-41.923	0.100
312.700	18.379	0.100
312.800	-5.172	0.100
312.900	-17.552	0.100
313.000	-14.411	0.100
313.100	-39.681	0.100
313.200	-18.828	0.100
313.300	-17.523	0.100
313.400	-3.974	0.100
313.500	-25.161	0.100
313.600	-22.991	0.100
313.700	-18.111	0.100
313.800	-22.747	0.100
313.900	-13.586	0.100
314.000	-17.772	0.100
314.100	-12.296	0.100
314.200	-18.916	0.100
314.300	-15.832	0.100
314.400	6.907	0.100
314.500	-8.979	0.100
314.600	-30.133	0.100
314.700	-28.080	0.100
314.800	-41.810	0.100
314.900	-19.171	0.100
315.000	-3.324	0.100
315.100	-27.435	0.100
315.200	9.071	0.100
315.300	-23.776	0.100
315.400	-34.059	0.100
315.500	-11.901	0.100
315.600	-27.366	0.100
315.700	-27.812	0.100
315.800	-19.994	0.100
315.900	-16.107	0.100
316.000	-23.619	0.100
316.100	-21.095	0.100
316.200	-39.646	0.100
316.300	-7.627	0.100
316.400	-28.913	0.100
316.500	-35.320	0.100
316.600	-15.273	0.100
316.700	-20.683	0.100
316.800	-27.509	0.100
316.900	-13.725	0.100
317.000	-17.173	0.100
317.100	-1.082	0.100
317.200	-32.871	0.100
317.300	-20.291	0.100
317.400	-12.413	0.100
317.500	-14.936	0.100
317.600	-8.322	0.100
317.700	-5.076	0.100
317.800	-39.713	0.100
317.900	-23.131	0.100
318.000	-33.630	0.100
318.100	-19.491	0.100
318.200	-22.264	0.100
318.300	-2.184	0.100
318.400	-35.846	0.100
318.500	-26.817	0.100
318.600	-26.109	0.100
318.700	-22.717	0.100
318.800	-1.203	0.100
318.900	-32.241	0.100
319.000	-9.813	0.100
319.100	-30.393	0.100
319.200	-44.184	0.100
319.300	5.889	0.100
319.400	-27.825	0.100
319.500	-36.979	0.100
319.600	-0.495	0.100
319.700	-21.239	0.100
319.800	2.084	0.100
319.900	-38.537	0.100
320.000	10.019	0.100
320.100	-8.697	0.100
320.200	-23.655	0.100
320.300	-17.295	0.100
320.400	-14.327	0.100
320.500	-22.126	0.100
320.600	-24.333	0.100
320.700	-36.049	0.100
320.800	9.129	0.100
320.900	-14.900	0.100
321.000	7.797	0.100
321.100	-22.326	0.100
321.200	-26.039	0.100
321.300	-26.727	0.100
321.400	-13.063	0.100
321.500	-33.193	0.100
321.600	-27.308	0.100
321.700	-33.786	0.100
321.800	-27.597	0.100
321.900	16.696	0.100
322.000	-49.924	0.100
322.100	-32.676	0.100
322.200	-3.358	0.100
322.300	-33.623	0.100
322.400	-17.985	0.100
322.500	-5.651	0.100
322.600	-21.447	0.100
322.700	-24.197	0.100
322.800	-19.569	0.100
322.900	-15.313	0.100
323.000	-6.761	0.100
323.100	-23.670	0.100
323.200	-27.292	0.100
323.300	-21.690	0.100
323.400	-12.032	0.100
323.500	-5.295	0.100
323.600	-17.638	0.100
323.700	-8.217	0.100
323.800	-38.498	0.100
323.900	-12.038	0.100
324.000	-2.927	0.100
324.100	7.266	0.100
324.200	-19.245	0.100
324.300	-15.300	0.100
324.400	-46.979	0.100
324.500	-14.974	0.100
324.600	-30.626	0.100
324.700	-7.596	0.100
324.800	-24.667	0.100
324.900	-22.396	0.100
325.000	-10.467	0.100
325.100	-8.402	0.100
325.200	-52.185	0.100
325.300	-10.583	0.100
325.400	-11.370	0.100
325.500	-8.447	0.100
325.600	-24.190	0.100
325.700	-15.802	0.100
325.800	-6.528	0.100
325.900	-37.534	0.100
326.000	-38.821	0.100
326.100	-15.483	0.100
326.200	-24.743	0.100
326.300	1.862	0.100
326.400	-5.328	0.100
326.500	-46.486	0.100
326.600	-16.265	0.100
326.700	-22.363	0.100
326.800	-15.537	0.100
326.900	-6.481	0.100
327.000	-14.684	0.100
327.100	-35.264	0.100
327.200	-9.711	0.100
327.300	-19.696	0.100
327.400	-13.083	0.100
327.500	-29.769	0.100
327.600	-18.888	0.100
327.700	-25.648	0.100
327.800	-11.235	0.100
327.900	-20.237	0.100
328.000	-28.464	0.100
328.100	-26.383	0.100
328.200	-18.085	0.100
328.300	-15.376	0.100
328.400	-25.894	0.100
328.500	-12.749	0.100
328.600	-14.501	0.100
328.700	-13.815	0.100
328.800	4.149	0.100
328.900	-21.660	0.100
329.000	-22.458	0.100
329.100	-12.954	0.100
329.200	-18.789	0.100
329.300	-27.782	0.100
329.400	-24.454	0.100
329.500	-3.002	0.100
329.600	-6.851	0.100
329.700	-8.360	0.100
329.800	-29.113	0.100
329.900	-24.249	0.100
330.000	-12.880	0.100
330.100	-33.815	0.100
330.200	-13.579	0.100
330.300	-29.938	0.100
330.400	-32.779	0.100
330.500	-0.999	0.100
330.600	-13.347	0.100
330.700	4.228	0.100
330.800	-34.845	0.100
330.900	-22.878	0.100
331.000	7.053	0.100
331.100	-21.993	0.100
331.200	5.675	0.100
331.300	-3.727	0.100
331.400	1.421	0.100
331.500	3.054	0.100
331.600	22.199	0.100
331.700	19.581	0.100
331.800	-1.129	0.100
331.900	-4.212	0.100
332.000	4.977	0.100
332.100	26.360	0.100
332.200	-1.957	0.100
332.300	2.457	0.100
332.400	18.856	0.100
332.500	-12.981	0.100
332.600	23.561	0.100
332.700	10.095	0.100
332.800	8.962	0.100
332.900	18.407	0.100
333.000	15.401	0.100
333.100	12.857	0.100
333.200	5.273	0.100
333.300	23.166	0.100
333.400	-4.317	0.100
333.500	-9.974	0.100
333.600	28.437	0.100
333.700	31.794	0.100
333.800	-5.252	0.100
333.900	26.839	0.100
334.000	25.469	0.100
334.100	7.573	0.100
334.200	42.635	0.100
334.300	5.916	0.100
334.400	-3.080	0.100
334.500	42.801	0.100
334.600	3.354	0.100
334.700	40.790	0.100
334.800	11.513	0.100
334.900	9.530	0.100
335.000	24.518	0.100
335.100	18.184	0.100
335.200	8.912	0.100
335.300	0.018	0.100
335.400	31.695	0.100
335.500	27.387	0.100
335.600	6.138	0.100
335.700	3.747	0.100
335.800	8.049	0.100
335.900	39.152	0.100
336.000	-0.234	0.100
336.100	25.583	0.100
336.200	32.096	0.100
336.300	42.097	0.100
336.400	3.590	0.100
336.500	17.646	0.100
336.600	34.503	0.100
336.700	-3.210	0.100
336.800	17.784	0.100
336.900	25.615	0.100
337.000	0.055	0.100
337.100	8.807	0.100
337.200	18.801	0.100
337.300	32.862	0.100
337.400	18.738	0.100
337.500	28.871	0.100
337.600	22.648	0.100
337.700	16.661	0.100
337.800	4.444	0.100
337.900	11.805	0.100
338.000	35.197	0.100
338.100	29.214	0.100
338.200	-15.339	0.100
338.300	32.096	0.100
338.400	22.404	0.100
338.500	-6.231	0.100
338.600	20.671	0.100
338.700	14.923	0.100
338.800	25.287	0.100
338.900	9.282	0.100
339.000	32.809	0.100
339.100	4.013	0.100
339.200	33.129	0.100
339.300	17.387	0.100
339.400	21.496	0.100
339.500	24.700	0.100
339.600	34.707	0.100
339.700	41.276	0.100
339.800	25.635	0.100
339.900	11.082	0.100
340.000	25.592	0.100
340.100	10.160	0.100
340.200	8.636	0.100
340.300	40.895	0.100
340.400	4.754	0.100
340.500	-2.897	0.100
340.600	37.516	0.100
340.700	31.040	0.100
340.800	16.113	0.100
340.900	36.414	0.100
341.000	-2.396	0.100
341.100	26.185	0.100
341.200	4.115	0.100
341.300	16.753	0.100
341.400	11.758	0.100
341.500	17.020	0.100
341.600	-17.322	0.100
341.700	19.284	0.100
341.800	4.702	0.100
341.900	33.779	0.100
342.000	19.670	0.100
342.100	39.798	0.100
342.200	-1.910	0.100
342.300	6.064	0.100
342.400	22.840	0.100
342.500	-8.798	0.100
342.600	39.954	0.100
342.700	45.280	0.100
342.800	5.021	0.100
342.900	11.625	0.100
343.000	42.991	0.100
343.100	27.900	0.100
343.200	7.853	0.100
343.300	5.025	0.100
343.400	18.249	0.100
343.500	45.680	0.100
343.600	12.151	0.100
343.700	-5.783	0.100
343.800	6.038	0.100
343.900	40.983	0.100
344.000	15.373	0.100
344.100	21.905	0.100
344.200	14.019	0.100
344.300	27.318	0.100
344.400	4.813	0.100
344.500	7.275	0.100
344.600	18.639	0.100
344.700	34.627	0.100
344.800	29.098	0.100
344.900	25.471	0.100
345.000	4.923	0.100
345.100	29.796	0.100
345.200	3.417	0.100
345.300	24.601	0.100
345.400	14.419	0.100
345.500	39.411	0.100
345.600	24.912	0.100
345.700	10.152	0.100
345.800	41.182	0.100
345.900	-9.553	0.100
346.000	8.558	0.100
346.100	27.559	0.100
346.200	26.869	0.100
346.300	25.770	0.100
346.400	24.514	0.100
346.500	6.723	0.100
346.600	-19.148	0.100
346.700	6.446	0.100
346.800	26.323	0.100
346.900	15.593	0.100
347.000	16.643	0.100
347.100	14.350	0.100
347.200	16.992	0.100
347.300	17.233	0.100
347.400	21.773	0.100
347.500	21.236	0.100
347.600	9.549	0.100
347.700	30.721	0.100
347.800	10.538	0.100
347.900	32.450	0.100
348.000	-11.291	0.100
348.100	24.488	0.100
348.200	23.933	0.100
348.300	28.190	0.100
348.400	29.948	0.100
348.500	22.092	0.100
348.600	18.658	0.100
348.700	23.589	0.100
348.800	40.613	0.100
348.900	22.326	0.100
349.000	-0.157	0.100
349.100	25.653	0.100
349.200	6.666	0.100
349.300	38.181	0.100
349.400	37.860	0.100
349.500	29.470	0.100
349.600	15.301	0.100
349.700	16.697	0.100
349.800	21.040	0.100
349.900	21.772	0.100
350.000	14.148	0.100
350.100	15.149	0.100
350.200	23.172	0.100
350.300	20.778	0.100
350.400	35.677	0.100
350.500	18.613	0.100
350.600	34.518	0.100
350.700	17.654	0.100
350.800	44.786	0.100
350.900	27.892	0.100
351.000	20.777	0.100
351.100	-12.034	0.100
351.200	28.164	0.100
351.300	33.425	0.100
351.400	9.932	0.100
351.500	32.125	0.100
351.600	10.687	0.100
351.700	39.490	0.100
351.800	22.880	0.100
351.900	47.858	0.100
352.000	3.873	0.100
352.100	22.718	0.100
352.200	-3.173	0.100
352.300	39.759	0.100
352.400	11.488	0.100
352.500	26.352	0.100
352.600	38.116	0.100
352.700	27.412	0.100
352.800	17.116	0.100
352.900	18.915	0.100
353.000	45.465	0.100
353.100	33.737	0.100
353.200	13.870	0.100
353.300	43.211	0.100
353.400	38.727	0.100
353.500	28.544	0.100
353.600	40.129	0.100
353.700	30.355	0.100
353.800	22.462	0.100
353.900	28.173	0.100
354.000	34.489	0.100
354.100	36.719	0.100
354.200	27.238	0.100
354.300	47.528	0.100
354.400	31.281	0.100
354.500	2.382	0.100
354.600	37.061	0.100
354.700	8.188	0.100
354.800	26.191	0.100
354.900	19.265	0.100
355.000	42.221	0.100
355.100	48.777	0.100
355.200	33.000	0.100
355.300	10.479	0.100
355.400	35.178	0.100
355.500	41.708	0.100
355.600	32.888	0.100
355.700	46.091	0.100
355.800	25.789	0.100
355.900	23.575	0.100
356.000	36.013	0.100
356.100	32.355	0.100
356.200	20.484	0.100
356.300	34.153	0.100
356.400	17.105	0.100
356.500	13.743	0.100
356.600	39.146	0.100
356.700	30.606	0.100
356.800	34.950	0.100
356.900	46.093	0.100
357.000	22.307	0.100
357.100	39.663	0.100
357.200	41.028	0.100
357.300	34.158	0.100
357.400	61.062	0.100
357.500	43.403	0.100
357.600	21.606	0.100
357.700	21.273	0.100
357.800	35.253	0.100
357.900	40.208	0.100
358.000	30.069	0.100
358.100	31.766	0.100
358.200	25.042	0.100
358.300	40.429	0.100
358.400	36.223	0.100
358.500	32.822	0.100
358.600	37.439	0.100
358.700	36.406	0.100
358.800	43.168	0.100
358.900	23.798	0.100
359.000	25.798	0.100
359.100	57.705	0.100
359.200	62.365	0.100
359.300	45.370	0.100
359.400	41.060	0.100
359.500	28.105	0.100
359.600	40.352	0.100
359.700	22.769	0.100
359.800	26.816	0.100
359.900	45.035	0.100
360.000	62.727	0.100
360.100	35.684	0.100
360.200	29.448	0.100
360.300	54.374	0.100
360.400	32.189	0.100
360.500	40.350	0.100
360.600	31.671	0.100
360.700	60.981	0.100
360.800	42.606	0.100
360.900	17.806	0.100
361.000	20.212	0.100
361.100	28.370	0.100
361.200	44.788	0.100
361.300	59.024	0.100
361.400	51.609	0.100
361.500	26.422	0.100
361.600	38.384	0.100
361.700	40.272	0.100
361.800	53.540	0.100
361.900	38.397	0.100
362.000	49.676	0.100
362.100	37.056	0.100
362.200	32.149	0.100
362.300	39.683	0.100
362.400	53.755	0.100
362.500	27.428	0.100
362.600	15.173	0.100
362.700	55.739	0.100
362.800	46.136	0.100
362.900	62.352	0.100
363.000	47.079	0.100
363.100	44.166	0.100
363.200	21.703	0.100
363.300	51.912	0.100
363.400	34.766	0.100
363.500	43.673	0.100
363.600	59.322	0.100
363.700	47.119	0.100
363.800	44.074	0.100
363.900	39.360	0.100
364.000	20.409	0.100
364.100	42.722	0.100
364.200	40.604	0.100
364.300	46.854	0.100
364.400	40.417	0.100
364.500	33.603	0.100
364.600	36.585	0.100
364.700	51.607	0.100
364.800	39.875	0.100
364.900	39.405	0.100
365.000	28.152	0.100
365.100	37.741	0.100
365.200	18.910	0.100
365.300	72.815	0.100
365.400	55.330	0.100
365.500	45.285	0.100
365.600	49.967	0.100
365.700	56.379	0.100
365.800	37.618	0.100
365.900	15.647	0.100
366.000	-4.118	0.100
366.100	43.581	0.100
366.200	56.999	0.100
366.300	45.437	0.100
366.400	36.117	0.100
366.500	31.757	0.100
366.600	31.149	0.100
366.700	46.826	0.100
366.800	67.392	0.100
366.900	47.374	0.100
367.000	30.888	0.100
367.100	32.972	0.100
367.200	52.707	0.100
367.300	55.513	0.100
367.400	46.184	0.100
367.500	51.976	0.100
367.600	52.123	0.100
367.700	41.970	0.100
367.800	36.101	0.100
367.900	28.533	0.100
368.000	38.514	0.100
368.100	43.562	0.100
368.200	48.042	0.100
368.300	30.581	0.100
368.400	45.845	0.100
368.500	43.657	0.100
368.600	42.120	0.100
368.700	47.299	0.100
368.800	42.423	0.100
368.900	36.344	0.100
369.000	54.638	0.100
369.100	64.463	0.100
369.200	47.965	0.100
369.300	53.496	0.100
369.400	30.267	0.100
369.500	37.124	0.100
369.600	39.017	0.100
369.700	35.162	0.100
369.800	57.225	0.100
369.900	44.539	0.100
370.000	27.396	0.100
370.100	63.394	0.100
370.200	56.772	0.100
370.300	21.491	0.100
370.400	41.537	0.100
370.500	24.601	0.100
370.600	33.965	0.100
370.700	34.248	0.100
370.800	75.503	0.100
370.900	22.458	0.100
371.000	36.355	0.100
371.100	24.511	0.100
371.200	51.938	0.100
371.300	43.135	0.100
371.400	40.431	0.100
371.500	23.979	0.100
371.600	35.382	0.100
371.700	41.589	0.100
371.800	44.796	0.100
371.900	28.552	0.100
372.000	40.661	0.100
372.100	62.091	0.100
372.200	35.920	0.100
372.300	40.022	0.100
372.400	49.664	0.100
372.500	52.858	0.100
372.600	37.463	0.100
372.700	32.999	0.100
372.800	16.430	0.100
372.900	27.617	0.100
373.000	44.395	0.100
373.100	73.761	0.100
373.200	52.578	0.100
373.300	26.810	0.100
373.400	21.259	0.100
373.500	56.671	0.100
373.600	28.632	0.100
373.700	27.003	0.100
373.800	21.944	0.100
373.900	41.857	0.100
374.000	58.784	0.100
374.100	40.190	0.100
374.200	41.760	0.100
374.300	56.690	0.100
374.400	49.440	0.100
374.500	41.762	0.100
374.600	43.221	0.100
374.700	47.327	0.100
374.800	49.003	0.100
374.900	28.357	0.100
375.000	34.479	0.100
375.100	31.664	0.100
375.200	47.040	0.100
375.300	41.938	0.100
375.400	68.208	0.100
375.500	48.423	0.100
375.600	31.678	0.100
375.700	41.349	0.100
375.800	20.690	0.100
375.900	24.122	0.100
376.000	49.120	0.100
376.100	37.946	0.100
376.200	57.161	0.100
376.300	56.220	0.100
376.400	62.483	0.100
376.500	46.489	0.100
376.600	52.054	0.100
376.700	63.744	0.100
376.800	33.296	0.100
376.900	30.461	0.100
377.000	33.981	0.100
377.100	49.100	0.100
377.200	56.188	0.100
377.300	30.262	0.100
377.400	48.573	0.100
377.500	28.664	0.100
377.600	27.143	0.100
377.700	36.300	0.100
377.800	39.186	0.100
377.900	34.742	0.100
378.000	52.826	0.100
378.100	28.003	0.100
378.200	35.627	0.100
378.300	52.927	0.100
378.400	60.993	0.100
378.500	43.659	0.100
378.600	49.883	0.100
378.700	51.740	0.100
378.800	52.492	0.100
378.900	13.648	0.100
379.000	29.621	0.100
379.100	9.853	0.100
379.200	85.156	0.100
379.300	8.354	0.100
379.400	49.691	0.100
379.500	35.748	0.100
379.600	32.768	0.100
379.700	50.174	0.100
379.800	29.081	0.100
379.900	47.765	0.100
380.000	54.603	0.100
380.100	27.193	0.100
380.200	32.193	0.100
380.300	57.569	0.100
380.400	23.268	0.100
380.500	49.741	0.100
380.600	46.265	0.100
380.700	53.231	0.100
380.800	35.114	0.100
380.900	25.430	0.100
381.000	36.127	0.100
381.100	56.533	0.100
381.200	63.625	0.100
381.300	48.267	0.100
381.400	49.827	0.100
381.500	35.101	0.100
381.600	47.485	0.100
381.700	27.155	0.100
381.800	39.313	0.100
381.900	20.848	0.100
382.000	43.171	0.100
382.100	40.406	0.100
382.200	39.090	0.100
382.300	37.174	0.100
382.400	47.794	0.100
382.500	36.669	0.100
382.600	45.881	0.100
382.700	36.607	0.100
382.800	35.147	0.100
382.900	44.722	0.100
383.000	22.937	0.100
383.100	58.703	0.100
383.200	42.145	0.100
383.300	49.158	0.100
383.400	53.494	0.100
383.500	43.574	0.100
383.600	35.536	0.100
383.700	39.806	0.100
383.800	27.326	0.100
383.900	42.495	0.100
384.000	42.837	0.100
384.100	54.502	0.100
384.200	37.468	0.100
384.300	33.733	0.100
384.400	52.972	0.100
384.500	19.269	0.100
384.600	22.613	0.100
384.700	3.846	0.100
384.800	42.915	0.100
384.900	66.198	0.100
385.000	36.728	0.100
385.100	67.118	0.100
385.200	44.183	0.100
385.300	51.814	0.100
385.400	25.198	0.100
385.500	29.457	0.100
385.600	20.638	0.100
385.700	45.972	0.100
385.800	50.006	0.100
385.900	44.868	0.100
386.000	25.846	0.100
386.100	70.898	0.100
386.200	20.572	0.100
386.300	60.556	0.100
386.400	34.654	0.100
386.500	34.267	0.100
386.600	41.914	0.100
386.700	40.999	0.100
386.800	41.633	0.100
386.900	38.070	0.100
387.000	49.763	0.100
387.100	54.394	0.100
387.200	42.786	0.100
387.300	28.476	0.100
387.400	29.228	0.100
387.500	36.445	0.100
387.600	41.306	0.100
387.700	54.267	0.100
387.800	42.730	0.100
387.900	56.671	0.100
388.000	52.479	0.100
388.100	33.433	0.100
388.200	55.558	0.100
388.300	33.194	0.100
388.400	45.682	0.100
388.500	49.043	0.100
388.600	31.436	0.100
388.700	32.492	0.100
388.800	35.258	0.100
388.900	24.528	0.100
389.000	42.633	0.100
389.100	31.142	0.100
389.200	47.710	0.100
389.300	56.982	0.100
389.400	62.292	0.100
389.500	20.202	0.100
389.600	65.056	0.100
389.700	51.573	0.100
389.800	40.315	0.100
389.900	44.782	0.100
390.000	39.749	0.100
390.100	48.691	0.100
390.200	36.757	0.100
390.300	36.168	0.100
390.400	39.895	0.100
390.500	35.736	0.100
390.600	21.187	0.100
390.700	39.547	0.100
390.800	53.598	0.100
390.900	8.841	0.100
391.000	40.149	0.100
391.100	53.107	0.100
391.200	34.799	0.100
391.300	34.474	0.100
391.400	9.484	0.100
391.500	25.313	0.100
391.600	45.218	0.100
391.700	22.435	0.100
391.800	21.993	0.100
391.900	33.276	0.100
392.000	27.414	0.100
392.100	22.592	0.100
392.200	-6.537	0.100
392.300	17.378	0.100
392.400	28.813	0.100
392.500	24.567	0.100
392.600	15.695	0.100
392.700	-5.389	0.100
392.800	17.729	0.100
392.900	-6.540	0.100
393.000	4.583	0.100
393.100	17.472	0.100
393.200	9.248	0.100
393.300	13.050	0.100
393.400	-0.482	0.100
393.500	11.885	0.100
393.600	9.124	0.100
393.700	14.652	0.100
393.800	18.062	0.100
393.900	8.272	0.100
394.000	-13.315	0.100
394.100	2.569	0.100
394.200	11.559	0.100
394.300	1.749	0.100
394.400	-22.110	0.100
394.500	14.497	0.100
394.600	-3.655	0.100
394.700	10.334	0.100
394.800	-6.336	0.100
394.900	9.653	0.100
395.000	-15.732	0.100
395.100	12.226	0.100
395.200	13.897	0.100
395.300	17.029	0.100
395.400	3.663	0.100
395.500	-15.406	0.100
395.600	-1.543	0.100
395.700	25.884	0.100
395.800	-4.773	0.100
395.900	0.703	0.100
396.000	-7.004	0.100
396.100	7.946	0.100
396.200	-11.841	0.100
396.300	11.592	0.100
396.400	-0.735	0.100
396.500	-2.571	0.100
396.600	-0.194	0.100
396.700	-10.145	0.100
396.800	-10.107	0.100
396.900	16.902	0.100
397.000	1.970	0.100
397.100	4.806	0.100
397.200	6.903	0.100
397.300	-9.025	0.100
397.400	16.467	0.100
397.500	-7.993	0.100
397.600	-10.979	0.100
397.700	3.805	0.100
397.800	8.815	0.100
397.900	11.461	0.100
398.000	-3.795	0.100
398.100	9.639	0.100
398.200	-6.009	0.100
398.300	12.575	0.100
398.400	8.781	0.100
398.500	-3.163	0.100
398.600	2.175	0.100
398.700	5.068	0.100
398.800	-14.576	0.100
398.900	-11.832	0.100
399.000	3.475	0.100
399.100	-11.378	0.100
399.200	-0.360	0.100
399.300	1.223	0.100
399.400	-13.073	0.100
399.500	-18.066	0.100
399.600	-21.227	0.100
399.700	19.683	0.100
399.800	-10.517	0.100
399.900	-0.274	0.100
400.000	-13.378	0.100
400.100	12.425	0.100
400.200	7.889	0.100
400.300	-3.376	0.100
400.400	-10.641	0.100
400.500	21.370	0.100
400.600	11.379	0.100
400.700	-36.739	0.100
400.800	-4.342	0.100
400.900	9.453	0.100
401.000	7.938	0.100
401.100	22.113	0.100
401.200	12.352	0.100
401.300	6.839	0.100
401.400	-12.809	0.100
401.500	-2.065	0.100
401.600	-7.251	0.100
401.700	21.736	0.100
401.800	-1.998	0.100
401.900	11.417	0.100
402.000	-18.253	0.100
402.100	-19.365	0.100
402.200	-8.972	0.100
402.300	11.498	0.100
402.400	34.300	0.100
402.500	-17.650	0.100
402.600	-9.076	0.100
402.700	-3.369	0.100
402.800	19.119	0.100
402.900	-1.910	0.100
403.000	5.517	0.100
403.100	10.989	0.100
403.200	2.563	0.100
403.300	-24.327	0.100
403.400	23.228	0.100
403.500	-25.899	0.100
403.600	1.749	0.100
403.700	14.555	0.100
403.800	-1.485	0.100
403.900	-7.654	0.100
404.000	7.782	0.100
404.100	-12.396	0.100
404.200	-18.719	0.100
404.300	-16.972	0.100
404.400	-4.508	0.100
404.500	12.492	0.100
404.600	31.063	0.100
404.700	14.914	0.100
404.800	-26.965	0.100
404.900	-21.500	0.100
405.000	-5.372	0.100
405.100	21.208	0.100
405.200	-3.699	0.100
405.300	-12.252	0.100
405.400	1.046	0.100
405.500	0.704	0.100
405.600	7.022	0.100
405.700	-4.578	0.100
405.800	-23.986	0.100
405.900	1.053	0.100
406.000	-1.621	0.100
406.100	6.072	0.100
406.200	-2.711	0.100
406.300	15.831	0.100
406.400	-34.025	0.100
406.500	-5.722	0.100
406.600	-8.992	0.100
406.700	-5.315	0.100
406.800	-18.196	0.100
406.900	-5.668	0.100
407.000	9.350	0.100
407.100	-16.916	0.100
407.200	-7.951	0.100
407.300	17.379	0.100
407.400	4.400	0.100
407.500	15.750	0.100
407.600	0.505	0.100
407.700	-13.647	0.100
407.800	-4.972	0.100
407.900	-7.366	0.100
408.000	-10.250	0.100
408.100	-13.836	0.100
408.200	5.560	0.100
408.300	-8.126	0.100
408.400	-9.474	0.100
408.500	-8.643	0.100
408.600	-1.548	0.100
408.700	11.180	0.100
408.800	-1.089	0.100
408.900	-15.514	0.100
409.000	-13.130	0.100
409.100	-14.712	0.100
409.200	-20.123	0.100
409.300	20.633	0.100
409.400	-1.420	0.100
409.500	-12.386	0.100
409.600	1.619	0.100
409.700	-18.413	0.100
409.800	-10.004	0.100
409.900	-15.957	0.100
410.000	5.886	0.100
410.100	26.372	0.100
410.200	-9.269	0.100
410.300	-2.792	0.100
410.400	0.578	0.100
410.500	23.032	0.100
410.600	-14.643	0.100
410.700	-18.912	0.100
410.800	-21.867	0.100
410.900	9.357	0.100
411.000	-24.356	0.100
411.100	-36.672	0.100
411.200	-4.758	0.100
411.300	-28.666	0.100
411.400	6.234	0.100
411.500	16.034	0.100
411.600	-4.116	0.100
411.700	-8.209	0.100
411.800	-23.234	0.100
411.900	-33.287	0.100
412.000	-15.418	0.100
412.100	6.909	0.100
412.200	1.792	0.100
412.300	-14.974	0.100
412.400	-15.595	0.100
412.500	-14.666	0.100
412.600	-20.467	0.100
412.700	-9.910	0.100
412.800	-15.298	0.100
412.900	-15.326	0.100
413.000	-23.567	0.100
413.100	2.102	0.100
413.200	1.707	0.100
413.300	-1.469	0.100
413.400	-13.897	0.100
413.500	-10.797	0.100
413.600	-14.921	0.100
413.700	3.594	0.100
413.800	-1.717	0.100
413.900	-10.598	0.100
414.000	-8.695	0.100
414.100	-6.407	0.100
414.200	-12.472	0.100
414.300	-17.364	0.100
414.400	-28.450	0.100
414.500	-18.418	0.100
414.600	-13.211	0.100
414.700	7.269	0.100
414.800	-8.875	0.100
414.900	-2.779	0.100
415.000	-22.085	0.100
415.100	-5.015	0.100
415.200	5.032	0.100
415.300	-26.633	0.100
415.400	-18.084	0.100
415.500	-9.989	0.100
415.600	-10.195	0.100
415.700	-7.892	0.100
415.800	-12.166	0.100
415.900	20.865	0.100
416.000	-8.618	0.100
416.100	-26.180	0.100
416.200	-2.244	0.100
416.300	10.444	0.100
416.400	-12.425	0.100
416.500	-26.818	0.100
416.600	-13.141	0.100
416.700	-23.949	0.100
416.800	-32.978	0.100
416.900	-17.314	0.100
417.000	23.137	0.100
417.100	-17.719	0.100
417.200	-22.593	0.100
417.300	-11.761	0.100
417.400	-26.000	0.100
417.500	-8.496	0.100
417.600	-4.601	0.100
417.700	-33.942	0.100
417.800	11.513	0.100
417.900	3.761	0.100
418.000	-32.744	0.100
418.100	-16.511	0.100
418.200	-16.023	0.100
418.300	-18.320	0.100
418.400	2.314	0.100
418.500	-14.633	0.100
418.600	-11.866	0.100
418.700	-9.970	0.100
418.800	-7.826	0.100
418.900	2.854	0.100
419.000	-40.574	0.100
419.100	7.112	0.100
419.200	-14.352	0.100
419.300	-26.841	0.100
419.400	8.449	0.100
419.500	-9.679	0.100
419.600	-24.270	0.100
419.700	-37.814	0.100
419.800	3.224	0.100
419.900	-11.234	0.100
420.000	-16.220	0.100
420.100	-7.175	0.100
420.200	-14.961	0.100
420.300	-10.177	0.100
420.400	-20.943	0.100
420.500	-4.231	0.100
420.600	-17.915	0.100
420.700	-3.351	0.100
420.800	-23.182	0.100
420.900	-33.140	0.100
421.000	6.143	0.100
421.100	1.831	0.100
421.200	-9.311	0.100
421.300	-11.974	0.100
421.400	-0.257	0.100
421.500	-23.543	0.100
421.600	-16.743	0.100
421.700	-10.730	0.100
421.800	16.243	0.100
421.900	11.561	0.100
422.000	-9.037	0.100
422.100	-30.307	0.100
422.200	-7.175	0.100
422.300	-16.296	0.100
422.400	-18.554	0.100
422.500	-8.412	0.100
422.600	8.306	0.100
422.700	-9.614	0.100
422.800	-19.671	0.100
422.900	-2.356	0.100
423.000	-24.765	0.100
423.100	-1.802	0.100
423.200	-26.577	0.100
423.300	-14.881	0.100
423.400	-10.488	0.100
423.500	-0.790	0.100
423.600	-13.223	0.100
423.700	-6.444	0.100
423.800	-18.585	0.100
423.900	-28.747	0.100
424.000	-4.977	0.100
424.100	-24.927	0.100
424.200	-20.438	0.100
424.300	-18.488	0.100
424.400	-6.529	0.100
424.500	-11.115	0.100
424.600	-0.107	0.100
424.700	-7.870	0.100
424.800	-7.003	0.100
424.900	-22.337	0.100
425.000	2.865	0.100
425.100	-26.661	0.100
425.200	4.769	0.100
425.300	-28.488	0.100
425.400	-24.117	0.100
425.500	-32.055	0.100
425.600	-15.095	0.100
425.700	-24.176	0.100
425.800	-11.444	0.100
425.900	-27.840	0.100
426.000	5.124	0.100
426.100	-13.561	0.100
426.200	-35.338	0.100
426.300	-20.536	0.100
426.400	-9.223	0.100
426.500	-21.508	0.100
426.600	-16.964	0.100
426.700	-56.928	0.100
426.800	10.642	0.100
426.900	-11.930	0.100
427.000	-22.779	0.100
427.100	-24.615	0.100
427.200	-32.519	0.100
427.300	-3.453	0.100
427.400	-5.868	0.100
427.500	-14.749	0.100
427.600	-23.289	0.100
427.700	3.110	0.100
427.800	-30.703	0.100
427.900	-21.073	0.100
428.000	-23.852	0.100
428.100	-1.261	0.100
428.200	-32.814	0.100
428.300	-2.468	0.100
428.400	-12.028	0.100
428.500	-20.850	0.100
428.600	-37.407	0.100
428.700	-33.235	0.100
428.800	-15.849	0.100
428.900	-19.269	0.100
429.000	-10.850	0.100
429.100	-24.731	0.100
429.200	-10.663	0.100
429.300	-11.587	0.100
429.400	-33.643	0.100
429.500	-40.125	0.100
429.600	-15.185	0.100
429.700	-36.656	0.100
429.800	3.856	0.100
429.900	-19.480	0.100
430.000	-35.872	0.100
430.100	-29.655	0.100
430.200	6.607	0.100
430.300	-25.417	0.100
430.400	-21.882	0.100
430.500	-33.864	0.100
430.600	6.466	0.100
430.700	-8.470	0.100
430.800	-36.151	0.100
430.900	-19.470	0.100
431.000	-1.359	0.100
431.100	-3.263	0.100
431.200	-17.029	0.100
431.300	-35.593	0.100
431.400	-16.472	0.100
431.500	-15.715	0.100
431.600	-14.310	0.100
431.700	-15.591	0.100
431.800	-37.359	0.100
431.900	-20.027	0.100
432.000	0.865	0.100
432.100	-6.679	0.100
432.200	-17.992	0.100
432.300	-31.366	0.100
432.400	-15.812	0.100
432.500	-28.612	0.100
432.600	-13.648	0.100
432.700	-51.943	0.100
432.800	-21.611	0.100
432.900	-0.333	0.100
433.000	-1.883	0.100
433.100	-24.578	0.100
433.200	-3.446	0.100
433.300	2.066	0.100
433.400	-5.860	0.100
433.500	-47.381	0.100
433.600	-43.053	0.100
433.700	-29.331	0.100
433.800	-21.565	0.100
433.900	-7.836	0.100
434.000	-14.359	0.100
434.100	-14.185	0.100
434.200	-31.191	0.100
434.300	-49.367	0.100
434.400	-1.158	0.100
434.500	-11.760	0.100
434.600	-31.964	0.100
434.700	-26.181	0.100
434.800	-3.609	0.100
434.900	-27.053	0.100
435.000	-7.921	0.100
435.100	-11.627	0.100
435.200	-27.245	0.100
435.300	-37.297	0.100
435.400	-30.465	0.100
435.500	-34.519	0.100
435.600	-31.263	0.100
435.700	-19.653	0.100
435.800	-4.686	0.100
435.900	-21.569	0.100
436.000	-5.614	0.100
436.100	-13.607	0.100
436.200	-32.443	0.100
436.300	-21.254	0.100
436.400	-37.962	0.100
436.500	-18.445	0.100
436.600	-28.063	0.100
436.700	-14.834	0.100
436.800	-11.934	0.100
436.900	-16.109	0.100
437.000	-8.526	0.100
437.100	-9.550	0.100
437.200	-24.679	0.100
437.300	-4.596	0.100
437.400	-23.474	0.100
437.500	-24.655	0.100
437.600	-24.321	0.100
437.700	-15.767	0.100
437.800	-7.815	0.100
437.900	-24.512	0.100
438.000	-39.434	0.100
438.100	-12.663	0.100
438.200	5.196	0.100
438.300	-22.193	0.100
438.400	-12.564	0.100
438.500	-37.580	0.100
438.600	-26.888	0.100
438.700	-15.815	0.100
438.800	-8.119	0.100
438.900	-20.789	0.100
439.000	-19.494	0.100
439.100	-55.097	0.100
439.200	-15.693	0.100
439.300	-10.177	0.100
439.400	-4.551	0.100
439.500	-21.055	0.100
439.600	-25.124	0.100
439.700	-24.167	0.100
439.800	-30.640	0.100
439.900	-23.831	0.100
440.000	-19.287	0.100
440.100	-15.798	0.100
440.200	-11.606	0.100
440.300	-32.671	0.100
440.400	-29.204	0.100
440.500	-3.454	0.100
440.600	-33.975	0.100
440.700	-13.556	0.100
440.800	-34.325	0.100
440.900	-27.365	0.100
441.000	-10.098	0.100
441.100	-17.154	0.100
441.200	-9.198	0.100
441.300	-41.299	0.100
441.400	-3.697	0.100
441.500	-30.164	0.100
441.600	-42.571	0.100
441.700	-20.176	0.100
441.800	-13.285	0.100
441.900	-29.811	0.100
442.000	-27.954	0.100
442.100	-33.845	0.100
442.200	13.328	0.100
442.300	-21.590	0.100
442.400	-28.876	0.100
442.500	-18.889	0.100
442.600	-15.800	0.100
442.700	-19.514	0.100
442.800	-38.782	0.100
442.900	-13.079	0.100
443.000	-16.588	0.100
443.100	-40.906	0.100
443.200	-15.498	0.100
443.300	-21.671	0.100
443.400	-9.938	0.100
443.500	-23.317	0.100
443.600	-5.651	0.100
443.700	-27.071	0.100
443.800	-2.495	0.100
443.900	-18.377	0.100
444.000	-27.866	0.100
444.100	-41.444	0.100
444.200	8.980	0.100
444.300	-23.270	0.100
444.400	-23.374	0.100
444.500	-14.948	0.100
444.600	-7.210	0.100
444.700	-15.536	0.100
444.800	-36.941	0.100
444.900	-15.983	0.100
445.000	-20.357	0.100
445.100	-1.242	0.100
445.200	-20.296	0.100
445.300	-27.810	0.100
445.400	-13.887	0.100
445.500	-32.680	0.100
445.600	-7.708	0.100
445.700	-36.390	0.100
445.800	-8.596	0.100
445.900	-22.182	0.100
446.000	-23.277	0.100
446.100	-30.830	0.100
446.200	-28.328	0.100
446.300	-23.895	0.100
446.400	-28.670	0.100
446.500	-19.220	0.100
446.600	-26.965	0.100
446.700	-6.073	0.100
446.800	-21.388	0.100
446.900	-9.956	0.100
447.000	-33.480	0.100
447.100	-22.469	0.100
447.200	-16.015	0.100
447.300	-20.685	0.100
447.400	-29.610	0.100
447.500	-12.924	0.100
447.600	-25.209	0.100
447.700	-31.695	0.100
447.800	-26.988	0.100
447.900	-19.514	0.100
448.000	-3.972	0.100
448.100	-16.651	0.100
448.200	-16.732	0.100
448.300	-18.183	0.100
448.400	-45.643	0.100
448.500	-25.663	0.100
448.600	-38.470	0.100
448.700	-7.008	0.100
448.800	-23.543	0.100
448.900	-12.059	0.100
449.000	-23.654	0.100
449.100	-8.868	0.100
449.200	-23.211	0.100
449.300	-11.363	0.100
449.400	-30.358	0.100
449.500	-17.146	0.100
449.600	-30.152	0.100
449.700	-24.443	0.100
449.800	-6.581	0.100
449.900	-11.359	0.100
450.000	-15.036	0.100
450.100	-31.681	0.100
450.200	-19.563	0.100
450.300	-10.820	0.100
450.400	-40.638	0.100
450.500	-40.178	0.100
450.600	-7.258	0.100
450.700	4.088	0.100
450.800	-28.862	0.100
450.900	-5.179	0.100
451.000	-27.662	0.100
451.100	0.114	0.100
451.200	-17.783	0.100
451.300	-14.033	0.100
451.400	-29.076	0.100
451.500	-35.025	0.100
451.600	-30.537	0.100
451.700	-35.186	0.100
451.800	-14.958	0.100
451.900	-19.795	0.100
452.000	-31.674	0.100
452.100	-10.094	0.100
452.200	-21.211	0.100
452.300	-37.102	0.100
452.400	-13.455	0.100
452.500	-11.067	0.100
452.600	-7.025	0.100
452.700	-11.793	0.100
452.800	-31.418	0.100
452.900	-27.792	0.100
453.000	-11.605	0.100
453.100	-7.441	0.100
453.200	-23.703	0.100
453.300	-27.697	0.100
453.400	-29.623	0.100
453.500	-5.377	0.100
453.600	-17.075	0.100
453.700	-32.320	0.100
453.800	-21.779	0.100
453.900	-7.848	0.100
454.000	-21.106	0.100
454.100	-33.056	0.100
454.200	-18.724	0.100
454.300	-7.151	0.100
454.400	-20.671	0.100
454.500	-60.372	0.100
454.600	-7.822	0.100
454.700	-35.984	0.100
454.800	-2.438	0.100
454.900	-17.150	0.100
455.000	-37.177	0.100
455.100	-10.867	0.100
455.200	-17.114	0.100
455.300	-38.376	0.100
455.400	-60.434	0.100
455.500	-23.685	0.100
455.600	-24.233	0.100
455.700	-30.921	0.100
455.800	-4.901	0.100
455.900	-17.822	0.100
456.000	-20.825	0.100
456.100	-20.504	0.100
456.200	-16.295	0.100
456.300	-2.832	0.100
456.400	-4.748	0.100
456.500	-29.656	0.100
456.600	-34.325	0.100
456.700	-24.149	0.100
456.800	-25.113	0.100
456.900	-11.504	0.100
457.000	-24.789	0.100
457.100	-7.656	0.100
457.200	-24.907	0.100
457.300	-23.996	0.100
457.400	-18.584	0.100
457.500	-18.337	0.100
457.600	-14.017	0.100
457.700	-33.841	0.100
457.800	-35.988	0.100
457.900	-36.060	0.100
458.000	-5.446	0.100
458.100	-27.186	0.100
458.200	-23.839	0.100
458.300	-16.165	0.100
458.400	-33.594	0.100
458.500	-20.062	0.100
458.600	-21.468	0.100
458.700	-17.131	0.100
458.800	-31.769	0.100
458.900	-27.561	0.100
459.000	-35.018	0.100
459.100	-3.311	0.100
459.200	-9.728	0.100
459.300	-29.500	0.100
459.400	-27.701	0.100
459.500	-22.984	0.100
459.600	-21.180	0.100
459.700	-13.771	0.100
459.800	-14.807	0.100
459.900	-23.984	0.100
460.000	-42.563	0.100
460.100	5.338	0.100
460.200	-8.787	0.100
460.300	-30.200	0.100
460.400	-24.233	0.100
460.500	-46.747	0.100
460.600	-6.513	0.100
460.700	-4.821	0.100
460.800	-15.244	0.100
460.900	-24.288	0.100
461.000	-6.783	0.100
461.100	-24.428	0.100
461.200	-22.552	0.100
461.300	-15.431	0.100
461.400	-8.212	0.100
461.500	-4.040	0.100
461.600	-19.490	0.100
461.700	-36.857	0.100
461.800	-15.324	0.100
461.900	-30.362	0.100
462.000	7.466	0.100
462.100	-17.061	0.100
462.200	-15.087	0.100
462.300	-37.234	0.100
462.400	-25.544	0.100
462.500	-38.241	0.100
462.600	-26.615	0.100
462.700	-15.296	0.100
462.800	-25.060	0.100
462.900	-25.750	0.100
463.000	-14.619	0.100
463.100	-15.800	0.100
463.200	-24.747	0.100
463.300	-26.330	0.100
463.400	-29.763	0.100
463.500	-9.800	0.100
463.600	-33.299	0.100
463.700	-22.470	0.100
463.800	-13.707	0.100
463.900	-0.654	0.100
464.000	-23.807	0.100
464.100	-14.241	0.100
464.200	-20.037	0.100
464.300	-9.314	0.100
464.400	-24.684	0.100
464.500	-2.059	0.100
464.600	-7.136	0.100
464.700	-26.818	0.100
464.800	-16.235	0.100
464.900	-36.148	0.100
465.000	13.445	0.100
465.100	-6.343	0.100
465.200	-15.009	0.100
465.300	-28.994	0.100
465.400	-13.584	0.100
465.500	-18.057	0.100
465.600	-35.026	0.100
465.700	-37.011	0.100
465.800	-51.966	0.100
465.900	-29.537	0.100
466.000	-24.079	0.100
466.100	-25.638	0.100
466.200	-8.612	0.100
466.300	-26.779	0.100
466.400	-15.872	0.100
466.500	-10.675	0.100
466.600	-16.376	0.100
466.700	-6.955	0.100
466.800	-25.604	0.100
466.900	-17.660	0.100
467.000	-20.756	0.100
467.100	8.422	0.100
467.200	-42.704	0.100
467.300	-27.481	0.100
467.400	-22.719	0.100
467.500	3.588	0.100
467.600	-9.762	0.100
467.700	-26.823	0.100
467.800	-20.234	0.100
467.900	-3.858	0.100
468.000	-14.516	0.100
468.100	-27.955	0.100
468.200	-35.169	0.100
468.300	-11.711	0.100
468.400	-9.804	0.100
468.500	-24.993	0.100
468.600	-18.692	0.100
468.700	-24.521	0.100
468.800	-14.460	0.100
468.900	-12.667	0.100
469.000	-23.335	0.100
469.100	-24.798	0.100
469.200	-34.125	0.100
469.300	-14.482	0.100
469.400	-13.846	0.100
469.500	-14.563	0.100
469.600	-18.861	0.100
469.700	-29.428	0.100
469.800	-18.684	0.100
469.900	-10.387	0.100
470.000	-6.840	0.100
470.100	-43.782	0.100
470.200	-21.656	0.100
470.300	-0.848	0.100
470.400	-26.772	0.100
470.500	-13.858	0.100
470.600	-28.516	0.100
470.700	-19.266	0.100
470.800	-6.589	0.100
470.900	-16.599	0.100
471.000	-0.949	0.100
471.100	-35.119	0.100
471.200	-23.649	0.100
471.300	-25.471	0.100
471.400	-12.295	0.100
471.500	-25.110	0.100
471.600	-39.122	0.100
471.700	-16.551	0.100
471.800	-16.208	0.100
471.900	-21.488	0.100
472.000	-36.129	0.100
472.100	-8.046	0.100
472.200	-11.989	0.100
472.300	-32.529	0.100
472.400	-24.109	0.100
472.500	5.920	0.100
472.600	-6.520	0.100
472.700	-26.417	0.100
472.800	-29.309	0.100
472.900	-16.428	0.100
473.000	-1.575	0.100
473.100	-33.559	0.100
473.200	1.700	0.100
473.300	-24.036	0.100
473.400	-36.123	0.100
473.500	-20.578	0.100
473.600	-21.580	0.100
473.700	-8.129	0.100
473.800	-20.885	0.100
473.900	-22.966	0.100
474.000	-23.631	0.100
474.100	-18.871	0.100
474.200	-23.894	0.100
474.300	-14.779	0.100
474.400	-10.773	0.100
474.500	-25.767	0.100
474.600	-18.593	0.100
474.700	-23.406	0.100
474.800	-23.652	0.100
474.900	-16.521	0.100
475.000	-57.581	0.100
475.100	-26.687	0.100
475.200	3.957	0.100
475.300	-15.382	0.100
475.400	-22.965	0.100
475.500	-35.620	0.100
475.600	-13.417	0.100
475.700	-35.416	0.100
475.800	-0.242	0.100
475.900	-18.304	0.100
476.000	-27.343	0.100
476.100	-29.529	0.100
476.200	-11.679	0.100
476.300	-24.832	0.100
476.400	-18.839	0.100
476.500	-25.101	0.100
476.600	-6.235	0.100
476.700	-13.897	0.100
476.800	-34.029	0.100
476.900	-21.391	0.100
477.000	-2.578	0.100
477.100	-9.777	0.100
477.200	-17.746	0.100
477.300	-38.042	0.100
477.400	-13.993	0.100
477.500	-5.284	0.100
477.600	-26.904	0.100
477.700	-33.697	0.100
477.800	-28.656	0.100
477.900	8.859	0.100
478.000	-11.527	0.100
478.100	-34.980	0.100
478.200	-18.622	0.100
478.300	-15.815	0.100
478.400	-28.817	0.100
478.500	-26.777	0.100
478.600	-38.826	0.100
478.700	-3.298	0.100
478.800	-0.562	0.100
478.900	-18.069	0.100
479.000	-23.270	0.100
479.100	-18.763	0.100
479.200	-13.778	0.100
479.300	-0.876	0.100
479.400	-35.101	0.100
479.500	-16.210	0.100
479.600	-19.712	0.100
479.700	-8.696	0.100
479.800	-17.178	0.100
479.900	-35.786	0.100
480.000	-26.330	0.100
480.100	-2.656	0.100
480.200	-37.574	0.100
480.300	-22.952	0.100
480.400	-3.893	0.100
480.500	-27.119	0.100
480.600	-19.694	0.100
480.700	0.585	0.100
480.800	-5.611	0.100
480.900	-28.589	0.100
481.000	-10.232	0.100
481.100	-27.040	0.100
481.200	-34.518	0.100
481.300	0.338	0.100
481.400	11.520	0.100
481.500	-11.998	0.100
481.600	1.148	0.100
481.700	3.312	0.100
481.800	-2.742	0.100
481.900	21.332	0.100
482.000	-22.192	0.100
482.100	14.401	0.100
482.200	-5.907	0.100
482.300	36.205	0.100
482.400	2.456	0.100
482.500	-18.214	0.100
482.600	-0.750	0.100
482.700	40.891	0.100
482.800	-12.864	0.100
482.900	36.101	0.100
483.000	39.508	0.100
483.100	31.928	0.100
483.200	-0.561	0.100
483.300	2.742	0.100
483.400	28.059	0.100
483.500	-0.851	0.100
483.600	14.721	0.100
483.700	17.937	0.100
483.800	22.845	0.100
483.900	17.615	0.100
484.000	15.189	0.100
484.100	-0.074	0.100
484.200	7.012	0.100
484.300	18.243	0.100
484.400	-5.130	0.100
484.500	36.579	0.100
484.600	21.360	0.100
484.700	21.794	0.100
484.800	27.719	0.100
484.900	31.149	0.100
485.000	27.940	0.100
485.100	10.110	0.100
485.200	29.852	0.100
485.300	25.103	0.100
485.400	6.111	0.100
485.500	41.160	0.100
485.600	26.646	0.100
485.700	6.844	0.100
485.800	15.663	0.100
485.900	9.848	0.100
486.000	28.230	0.100
486.100	26.310	0.100
486.200	27.142	0.100
486.300	7.217	0.100
486.400	14.530	0.100
486.500	27.300	0.100
486.600	16.465	0.100
486.700	10.454	0.100
486.800	34.703	0.100
486.900	14.378	0.100
487.000	20.792	0.100
487.100	18.030	0.100
487.200	4.146	0.100
487.300	8.123	0.100
487.400	14.881	0.100
487.500	24.766	0.100
487.600	21.197	0.100
487.700	12.815	0.100
487.800	33.174	0.100
487.900	35.292	0.100
488.000	11.477	0.100
488.100	21.619	0.100
488.200	21.402	0.100
488.300	13.387	0.100
488.400	4.785	0.100
488.500	17.880	0.100
488.600	22.084	0.100
488.700	11.527	0.100
488.800	25.378	0.100
488.900	34.617	0.100
489.000	17.074	0.100
489.100	16.784	0.100
489.200	13.748	0.100
489.300	11.141	0.100
489.400	-0.438	0.100
489.500	28.252	0.100
489.600	7.265	0.100
489.700	39.535	0.100
489.800	6.928	0.100
489.900	21.961	0.100
490.000	30.942	0.100
490.100	5.905	0.100
490.200	22.669	0.100
490.300	-13.366	0.100
490.400	35.684	0.100
490.500	29.654	0.100
490.600	20.765	0.100
490.700	21.821	0.100
490.800	19.920	0.100
490.900	1.077	0.100
491.000	5.495	0.100
491.100	40.691	0.100
491.200	21.086	0.100
491.300	45.079	0.100
491.400	22.754	0.100
491.500	11.054	0.100
491.600	35.170	0.100
491.700	16.837	0.100
491.800	20.979	0.100
491.900	19.002	0.100
492.000	10.243	0.100
492.100	19.381	0.100
492.200	12.723	0.100
492.300	32.748	0.100
492.400	25.389	0.100
492.500	19.103	0.100
492.600	19.048	0.100
492.700	12.880	0.100
492.800	35.820	0.100
492.900	19.307	0.100
493.000	5.432	0.100
493.100	14.215	0.100
493.200	11.278	0.100
493.300	9.249	0.100
493.400	23.438	0.100
493.500	40.593	0.100
493.600	13.132	0.100
493.700	-25.689	0.100
493.800	23.022	0.100
493.900	11.392	0.100
494.000	14.694	0.100
494.100	33.009	0.100
494.200	32.726	0.100
494.300	14.125	0.100
494.400	12.721	0.100
494.500	29.404	0.100
494.600	17.664	0.100
494.700	11.640	0.100
494.800	19.196	0.100
494.900	9.859	0.100
495.000	4.020	0.100
495.100	8.760	0.100
495.200	41.114	0.100
495.300	26.933	0.100
495.400	-2.037	0.100
495.500	22.723	0.100
495.600	-7.587	0.100
495.700	19.695	0.100
495.800	39.746	0.100
495.900	-5.049	0.100
496.000	16.700	0.100
496.100	12.220	0.100
496.200	34.781	0.100
496.300	6.926	0.100
496.400	11.856	0.100
496.500	-5.445	0.100
496.600	45.745	0.100
496.700	18.680	0.100
496.800	21.412	0.100
496.900	21.210	0.100
497.000	2.642	0.100
497.100	-2.926	0.100
497.200	25.184	0.100
497.300	26.498	0.100
497.400	6.906	0.100
497.500	38.217	0.100
497.600	16.012	0.100
497.700	19.201	0.100
497.800	12.594	0.100
497.900	28.149	0.100
498.000	14.748	0.100
498.100	14.874	0.100
498.200	2.706	0.100
498.300	12.670	0.100
498.400	48.208	0.100
498.500	35.278	0.100
498.600	18.401	0.100
498.700	36.141	0.100
498.800	4.718	0.100
498.900	0.738	0.100
499.000	30.539	0.100
499.100	25.479	0.100
499.200	33.183	0.100
499.300	15.355	0.100
499.400	41.683	0.100
499.500	1.752	0.100
499.600	18.015	0.100
499.700	-2.986	0.100
499.800	25.734	0.100
499.900	17.465	0.100
500.000	25.946	0.100
500.100	9.386	0.100
500.200	35.355	0.100
500.300	30.781	0.100
500.400	30.242	0.100
500.500	10.484	0.100
500.600	1.133	0.100
500.700	5.124	0.100
500.800	38.412	0.100
500.900	31.760	0.100
501.000	21.790	0.100
501.100	29.193	0.100
501.200	29.975	0.100
501.300	22.536	0.100
501.400	16.170	0.100
501.500	27.043	0.100
501.600	28.001	0.100
501.700	36.498	0.100
501.800	15.788	0.100
501.900	11.969	0.100
502.000	21.263	0.100
502.100	38.549	0.100
502.200	22.258	0.100
502.300	12.693	0.100
502.400	21.702	0.100
502.500	52.112	0.100
502.600	25.770	0.100
502.700	35.793	0.100
502.800	38.414	0.100
502.900	36.492	0.100
503.000	0.300	0.100
503.100	31.356	0.100
503.200	38.677	0.100
503.300	32.125	0.100
503.400	13.990	0.100
503.500	28.484	0.100
503.600	45.925	0.100
503.700	21.994	0.100
503.800	14.091	0.100
503.900	24.103	0.100
504.000	21.650	0.100
504.100	24.418	0.100
504.200	39.548	0.100
504.300	43.206	0.100
504.400	39.876	0.100
504.500	21.362	0.100
504.600	43.420	0.100
504.700	38.743	0.100
504.800	19.800	0.100
504.900	21.575	0.100
505.000	29.473	0.100
505.100	46.073	0.100
505.200	22.489	0.100
505.300	25.812	0.100
505.400	64.235	0.100
505.500	14.989	0.100
505.600	30.199	0.100
505.700	53.556	0.100
505.800	31.264	0.100
505.900	18.701	0.100
506.000	24.896	0.100
506.100	41.863	0.100
506.200	20.761	0.100
506.300	3.421	0.100
506.400	40.909	0.100
506.500	28.057	0.100
506.600	41.268	0.100
506.700	31.654	0.100
506.800	35.962	0.100
506.900	45.341	0.100
507.000	6.975	0.100
507.100	32.444	0.100
507.200	18.179	0.100
507.300	53.031	0.100
507.400	48.256	0.100
507.500	29.148	0.100
507.600	36.920	0.100
507.700	23.937	0.100
507.800	55.204	0.100
507.900	60.315	0.100
508.000	36.638	0.100
508.100	38.313	0.100
508.200	45.125	0.100
508.300	35.737	0.100
508.400	26.815	0.100
508.500	55.381	0.100
508.600	44.104	0.100
508.700	49.902	0.100
508.800	37.216	0.100
508.900	57.139	0.100
509.000	28.966	0.100
509.100	39.705	0.100
509.200	32.403	0.100
509.300	43.504	0.100
509.400	44.277	0.100
509.500	37.207	0.100
509.600	41.348	0.100
509.700	30.762	0.100
509.800	28.184	0.100
509.900	57.619	0.100
510.000	46.597	0.100
510.100	44.936	0.100
510.200	13.580	0.100
510.300	48.104	0.100
510.400	37.573	0.100
510.500	22.679	0.100
510.600	41.924	0.100
510.700	43.880	0.100
510.800	40.177	0.100
510.900	50.196	0.100
511.000	58.517	0.100
511.100	40.600	0.100
511.200	29.366	0.100
511.300	43.362	0.100
511.400	41.954	0.100
511.500	30.376	0.100
511.600	61.659	0.100
511.700	41.515	0.100
511.800	26.953	0.100
511.900	18.301	0.099
512.000	51.249	0.099
512.100	61.528	0.100
512.200	43.313	0.099
512.300	27.537	0.099
512.400	41.626	0.099
512.500	25.583	0.099
512.600	33.611	0.099
512.700	51.814	0.099
512.800	37.543	0.099
512.900	43.356	0.099
513.000	23.094	0.099
513.100	43.969	0.099
513.200	31.321	0.099
513.300	49.725	0.099
513.400	43.627	0.099
513.500	33.393	0.099
513.600	66.833	0.099
513.700	39.135	0.099
513.800	38.039	0.099
513.900	54.824	0.099
514.000	46.644	0.099
514.100	45.439	0.099
514.200	33.484	0.099
514.300	23.996	0.099
514.400	29.592	0.099
514.500	50.553	0.099
514.600	23.383	0.099
514.700	12.691	0.099
514.800	49.614	0.099
514.900	34.647	0.099
515.000	30.791	0.099
515.100	39.243	0.099
515.200	55.361	0.099
515.300	45.736	0.099
515.400	8.102	0.099
515.500	39.675	0.099
515.600	52.549	0.099
515.700	59.862	0.099
515.800	36.130	0.099
515.900	33.030	0.099
516.000	32.697	0.099
516.100	59.065	0.099
516.200	43.906	0.099
516.300	25.076	0.099
516.400	48.018	0.099
516.500	59.617	0.099
516.600	57.604	0.099
516.700	25.154	0.099
516.800	17.149	0.099
516.900	52.868	0.099
517.000	54.603	0.099
517.100	39.308	0.099
517.200	36.723	0.099
517.300	30.644	0.099
517.400	38.833	0.099
517.500	33.405	0.099
517.600	43.985	0.099
517.700	32.238	0.099
517.800	50.389	0.099
517.900	51.595	0.099
518.000	47.227	0.099
518.100	34.252	0.099
518.200	42.098	0.099
518.300	32.266	0.099
518.400	37.608	0.099
518.500	54.688	0.099
518.600	47.506	0.099
518.700	35.958	0.099
518.800	36.950	0.099
518.900	34.102	0.099
519.000	36.048	0.099
519.100	39.000	0.099
519.200	51.900	0.099
519.300	45.565	0.099
519.400	44.138	0.099
519.500	17.861	0.099
519.600	31.159	0.099
519.700	44.169	0.099
519.800	37.716	0.099
519.900	58.846	0.099
520.000	41.054	0.099
520.100	56.319	0.099
520.200	63.542	0.099
520.300	47.577	0.099
520.400	42.742	0.099
520.500	53.259	0.099
520.600	52.699	0.099
520.700	30.535	0.099
520.800	30.766	0.099
520.900	36.103	0.099
521.000	29.944	0.099
521.100	39.890	0.099
521.200	79.147	0.099
521.300	39.213	0.099
521.400	39.285	0.099
521.500	64.467	0.099
521.600	33.620	0.099
521.700	41.693	0.099
521.800	7.112	0.099
521.900	16.935	0.099
522.000	47.455	0.099
522.100	22.018	0.099
522.200	43.178	0.099
522.300	46.712	0.099
522.400	36.884	0.099
522.500	58.687	0.099
522.600	26.415	0.099
522.700	57.727	0.099
522.800	43.460	0.099
522.900	39.021	0.099
523.000	22.417	0.099
523.100	11.948	0.099
523.200	46.666	0.099
523.300	23.334	0.099
523.400	50.942	0.099
523.500	51.364	0.099
523.600	48.897	0.099
523.700	28.596	0.099
523.800	62.167	0.099
523.900	21.462	0.099
524.000	33.423	0.099
524.100	61.621	0.099
524.200	51.896	0.099
524.300	41.654	0.099
524.400	21.545	0.099
524.500	31.502	0.099
524.600	34.015	0.099
524.700	37.243	0.099
524.800	47.585	0.099
524.900	71.044	0.099
525.000	35.903	0.099
525.100	39.899	0.099
525.200	17.497	0.099
525.300	63.030	0.099
525.400	30.424	0.099
525.500	39.377	0.099
525.600	55.481	0.099
525.700	28.394	0.099
525.800	11.339	0.099
525.900	40.565	0.099
526.000	52.294	0.099
526.100	21.532	0.099
526.200	65.457	0.099
526.300	45.170	0.099
526.400	34.624	0.099
526.500	48.375	0.099
526.600	28.381	0.099
526.700	44.811	0.099
526.800	42.116	0.099
526.900	46.889	0.099
527.000	42.424	0.099
527.100	21.256	0.099
527.200	41.904	0.099
527.300	43.150	0.099
527.400	56.345	0.099
527.500	38.147	0.099
527.600	47.542	0.099
527.700	58.868	0.099
527.800	19.474	0.099
527.900	25.856	0.099
528.000	56.209	0.099
528.100	34.822	0.099
528.200	35.182	0.099
528.300	25.724	0.099
528.400	42.712	0.099
528.500	19.377	0.099
528.600	25.313	0.099
528.700	45.952	0.099
528.800	46.824	0.099
528.900	53.134	0.099
529.000	46.053	0.100
529.100	46.831	0.100
529.200	39.878	0.100
529.300	37.170	0.100
529.400	49.297	0.100
529.500	47.929	0.100
529.600	53.420	0.100
529.700	23.679	0.100
529.800	50.790	0.100
529.900	42.136	0.100
530.000	47.302	0.100
530.100	50.505	0.100
530.200	15.348	0.100
530.300	23.124	0.100
530.400	54.357	0.100
530.500	24.268	0.100
530.600	38.506	0.100
530.700	61.927	0.100
530.800	64.491	0.100
530.900	49.094	0.100
531.000	70.212	0.100
531.100	24.171	0.100
531.200	43.774	0.100
531.300	20.028	0.100
531.400	48.979	0.100
531.500	47.475	0.100
531.600	26.719	0.100
531.700	45.687	0.100
531.800	42.079	0.100
531.900	57.757	0.100
532.000	11.596	0.100
532.100	58.748	0.100
532.200	50.885	0.100
532.300	52.431	0.100
532.400	46.120	0.100
532.500	51.447	0.100
532.600	29.639	0.100
532.700	39.467	0.100
532.800	54.661	0.100
532.900	46.172	0.100
533.000	28.693	0.100
533.100	53.947	0.100
533.200	50.488	0.100
533.300	42.287	0.100
533.400	42.227	0.100
533.500	40.833	0.100
533.600	59.904	0.100
533.700	38.106	0.100
533.800	29.551	0.100
533.900	38.468	0.100
534.000	39.283	0.100
534.100	24.204	0.100
534.200	61.529	0.100
534.300	29.157	0.100
534.400	53.729	0.100
534.500	30.749	0.100
534.600	50.886	0.100
534.700	43.074	0.100
534.800	7.550	0.100
534.900	22.003	0.100
535.000	30.066	0.100
535.100	45.534	0.100
535.200	48.382	0.100
535.300	51.184	0.100
535.400	28.501	0.100
535.500	52.655	0.100
535.600	35.708	0.100
535.700	35.893	0.100
535.800	47.455	0.100
535.900	50.120	0.100
536.000	21.342	0.100
536.100	23.899	0.100
536.200	66.527	0.100
536.300	41.898	0.100
536.400	46.934	0.100
536.500	44.298	0.100
536.600	55.717	0.100
536.700	22.228	0.100
536.800	47.680	0.100
536.900	38.415	0.100
537.000	43.092	0.100
537.100	34.919	0.100
537.200	50.171	0.100
537.300	46.695	0.100
537.400	29.219	0.100
537.500	39.562	0.100
537.600	51.127	0.100
537.700	50.319	0.100
537.800	49.165	0.100
537.900	26.423	0.100
538.000	47.788	0.100
538.100	36.926	0.100
538.200	46.944	0.100
538.300	49.018	0.100
538.400	38.677	0.100
538.500	51.944	0.100
538.600	42.033	0.100
538.700	44.519	0.100
538.800	49.943	0.100
538.900	31.169	0.100
539.000	43.838	0.100
539.100	54.357	0.100
539.200	41.462	0.100
539.300	49.440	0.100
539.400	40.735	0.100
539.500	37.188	0.100
539.600	24.458	0.100
539.700	36.545	0.100
539.800	29.056	0.100
539.900	65.334	0.100
540.000	31.782	0.100
540.100	46.973	0.100
540.200	37.539	0.100
540.300	37.146	0.100
540.400	15.741	0.100
540.500	57.307	0.100
540.600	47.851	0.100
540.700	62.214	0.100
540.800	39.826	0.100
540.900	19.874	0.100
541.000	48.401	0.100
541.100	31.647	0.100
541.200	39.162	0.100
541.300	49.327	0.100
541.400	25.167	0.100
541.500	27.912	0.100
541.600	40.016	0.100
541.700	23.967	0.100
541.800	23.417	0.100
541.900	28.915	0.100
542.000	40.559	0.100
542.100	10.860	0.100
542.200	4.702	0.100
542.300	23.764	0.100
542.400	23.241	0.100
542.500	29.075	0.100
542.600	-3.702	0.100
542.700	28.893	0.100
542.800	4.600	0.100
542.900	6.340	0.100
543.000	13.374	0.100
543.100	12.992	0.100
543.200	2.418	0.100
543.300	13.056	0.100
543.400	5.280	0.100
543.500	23.697	0.100
543.600	7.078	0.100
543.700	15.739	0.100
543.800	1.849	0.100
543.900	3.851	0.100
544.000	-3.989	0.100
544.100	-21.653	0.100
544.200	25.142	0.100
544.300	9.604	0.100
544.400	8.306	0.100
544.500	10.503	0.100
544.600	-3.386	0.100
544.700	-29.142	0.100
544.800	-8.050	0.100
544.900	0.775	0.100
545.000	-7.810	0.100
545.100	-7.264	0.100
545.200	3.515	0.100
545.300	-15.295	0.100
545.400	-7.137	0.100
545.500	-1.982	0.100
545.600	12.043	0.100
545.700	29.974	0.100
545.800	-20.015	0.100
545.900	1.761	0.100
546.000	-3.667	0.100
546.100	3.526	0.100
546.200	0.514	0.100
546.300	12.471	0.100
546.400	-15.669	0.100
546.500	-23.953	0.100
546.600	6.682	0.100
546.700	21.424	0.100
546.800	-19.602	0.100
546.900	14.515	0.100
547.000	-10.127	0.100
547.100	-6.461	0.100
547.200	9.050	0.100
547.300	-4.538	0.100
547.400	6.074	0.100
547.500	6.167	0.100
547.600	2.906	0.100
547.700	-17.103	0.100
547.800	16.641	0.100
547.900	-7.338	0.100
548.000	0.614	0.100
548.100	5.782	0.100
548.200	27.199	0.100
548.300	-6.070	0.100
548.400	-16.135	0.100
548.500	7.058	0.100
548.600	-14.369	0.100
548.700	-6.335	0.100
548.800	-8.051	0.100
548.900	-5.218	0.100
549.000	4.765	0.100
549.100	0.870	0.100
549.200	14.476	0.100
549.300	2.219	0.100
549.400	7.505	0.100
549.500	19.661	0.100
549.600	-13.989	0.100
549.700	-6.990	0.100
549.800	-22.897	0.100
549.900	-3.831	0.100
550.000	16.705	0.100
550.100	2.556	0.100
550.200	8.699	0.100
550.300	-0.769	0.100
550.400	5.554	0.100
550.500	-17.087	0.100
550.600	-9.163	0.100
550.700	5.917	0.100
550.800	-31.484	0.100
550.900	-8.928	0.100
551.000	11.203	0.100
551.100	-1.001	0.100
551.200	-5.249	0.100
551.300	-3.291	0.100
551.400	7.999	0.100
551.500	6.312	0.100
551.600	-3.295	0.100
551.700	14.116	0.100
551.800	10.820	0.100
551.900	13.203	0.100
552.000	-4.222	0.100
552.100	1.912	0.100
552.200	1.542	0.100
552.300	-10.167	0.100
552.400	2.182	0.100
552.500	-5.311	0.100
552.600	2.938	0.100
552.700	12.679	0.100
552.800	24.283	0.100
552.900	25.678	0.100
553.000	-8.939	0.100
553.100	18.430	0.100
553.200	-14.269	0.100
553.300	-28.579	0.100
553.400	-4.845	0.100
553.500	7.310	0.100
553.600	10.268	0.100
553.700	-18.200	0.100
553.800	-2.717	0.100
553.900	17.312	0.100
554.000	16.897	0.100
554.100	-8.220	0.100
554.200	-13.487	0.100
554.300	10.981	0.100
554.400	0.992	0.100
554.500	-9.522	0.100
554.600	-7.369	0.100
554.700	-24.655	0.100
554.800	14.997	0.100
554.900	12.507	0.100
555.000	-2.991	0.100
555.100	-13.354	0.100
555.200	11.998	0.100
555.300	6.012	0.100
555.400	3.735	0.100
555.500	-7.928	0.100
555.600	-5.772	0.100
555.700	-3.329	0.100
555.800	-33.543	0.100
555.900	16.282	0.100
556.000	5.654	0.100
556.100	-8.115	0.100
556.200	5.158	0.100
556.300	-28.469	0.100
556.400	10.507	0.100
556.500	3.253	0.100
556.600	-6.201	0.100
556.700	-8.346	0.100
556.800	-3.819	0.100
556.900	9.131	0.100
557.000	-1.617	0.100
557.100	-7.119	0.100
557.200	-11.557	0.100
557.300	-29.452	0.100
557.400	0.536	0.100
557.500	-20.426	0.100
557.600	1.687	0.100
557.700	-14.555	0.100
557.800	-7.923	0.100
557.900	-5.549	0.100
558.000	0.056	0.100
558.100	-7.966	0.100
558.200	9.008	0.100
558.300	12.979	0.100
558.400	-47.214	0.100
558.500	0.888	0.100
558.600	1.253	0.100
558.700	10.832	0.100
558.800	5.026	0.100
558.900	-19.482	0.100
559.000	-3.135	0.100
559.100	-8.924	0.100
559.200	-4.465	0.100
559.300	-7.487	0.100
559.400	-9.728	0.100
559.500	-8.306	0.100
559.600	-22.189	0.100
559.700	-21.667	0.100
559.800	3.557	0.100
559.900	-5.516	0.100
560.000	1.051	0.100
560.100	-11.193	0.100
560.200	-14.152	0.100
560.300	20.212	0.100
560.400	2.626	0.100
560.500	-1.021	0.100
560.600	-20.505	0.100
560.700	-1.814	0.100
560.800	0.297	0.100
560.900	-21.397	0.100
561.000	4.691	0.100
561.100	-16.590	0.100
561.200	-30.648	0.100
561.300	0.437	0.100
561.400	7.972	0.100
561.500	-5.319	0.100
561.600	-22.918	0.100
561.700	15.880	0.100
561.800	23.513	0.100
561.900	-1.163	0.100
562.000	-17.812	0.100
562.100	-3.226	0.100
562.200	-27.472	0.100
562.300	0.407	0.100
562.400	-31.553	0.100
562.500	-7.620	0.100
562.600	-10.857	0.100
562.700	3.405	0.100
562.800	-28.424	0.100
562.900	3.328	0.100
563.000	-3.157	0.100
563.100	-26.665	0.100
563.200	3.318	0.100
563.300	-7.978	0.100
563.400	-18.318	0.100
563.500	-21.348	0.100
563.600	-14.121	0.100
563.700	7.916	0.100
563.800	-36.314	0.100
563.900	6.625	0.100
564.000	-11.167	0.100
564.100	-9.739	0.100
564.200	6.637	0.100
564.300	-11.187	0.100
564.400	-10.494	0.100
564.500	-12.549	0.100
564.600	-16.657	0.100
564.700	-13.834	0.100
564.800	-10.919	0.100
564.900	-4.411	0.100
565.000	10.388	0.100
565.100	-7.808	0.100
565.200	-31.013	0.100
565.300	-12.563	0.100
565.400	-27.852	0.100
565.500	-18.528	0.100
565.600	-8.236	0.100
565.700	-18.431	0.100
565.800	-1.840	0.100
565.900	-0.503	0.100
566.000	-30.286	0.100
566.100	0.660	0.100
566.200	2.432	0.100
566.300	1.360	0.100
566.400	-14.094	0.100
566.500	-28.382	0.100
566.600	-18.089	0.100
566.700	-6.933	0.100
566.800	-1.352	0.100
566.900	-5.105	0.100
567.000	-27.911	0.100
567.100	-5.357	0.100
567.200	3.546	0.100
567.300	-18.592	0.100
567.400	-21.915	0.100
567.500	-10.997	0.100
567.600	-32.479	0.100
567.700	-33.147	0.100
567.800	2.671	0.100
567.900	-20.678	0.100
568.000	-10.088	0.100
568.100	-10.588	0.100
568.200	-8.138	0.100
568.300	1.577	0.100
568.400	-25.608	0.100
568.500	-0.539	0.100
568.600	-13.504	0.100
568.700	-19.050	0.100
568.800	-12.444	0.100
568.900	-0.468	0.100
569.000	-45.983	0.100
569.100	1.891	0.100
569.200	-16.923	0.100
569.300	-13.015	0.100
569.400	-11.199	0.100
569.500	-17.671	0.100
569.600	-19.218	0.100
569.700	-10.198	0.100
569.800	-17.272	0.100
569.900	-8.056	0.100
570.000	5.135	0.100
570.100	-13.306	0.100
570.200	-17.165	0.100
570.300	-17.417	0.100
570.400	-25.655	0.100
570.500	-13.552	0.100
570.600	-20.386	0.100
570.700	-2.072	0.100
570.800	-14.026	0.100
570.900	-13.735	0.100
571.000	-39.984	0.100
571.100	-6.530	0.100
571.200	-15.378	0.100
571.300	-40.374	0.100
571.400	-9.742	0.100
571.500	11.717	0.100
571.600	1.551	0.100
571.700	-23.681	0.100
571.800	-4.923	0.100
571.900	-11.457	0.100
572.000	-25.276	0.100
572.100	-25.227	0.100
572.200	-29.289	0.100
572.300	-24.831	0.100
572.400	1.514	0.100
572.500	-4.103	0.100
572.600	-42.007	0.100
572.700	3.137	0.100
572.800	-36.145	0.100
572.900	-33.995	0.100
573.000	-10.646	0.100
573.100	-4.540	0.100
573.200	-10.417	0.100
573.300	-21.677	0.100
573.400	-23.468	0.100
573.500	-8.313	0.100
573.600	-24.919	0.100
573.700	-12.625	0.100
573.800	-5.776	0.100
573.900	-14.742	0.100
574.000	-47.811	0.100
574.100	0.803	0.100
574.200	-6.639	0.100
574.300	-43.923	0.100
574.400	-8.310	0.100
574.500	-9.902	0.100
574.600	-16.918	0.100
574.700	-10.374	0.100
574.800	-10.452	0.100
574.900	-53.396	0.100
575.000	-7.550	0.100
575.100	-6.100	0.100
575.200	2.649	0.100
575.300	-9.450	0.100
575.400	-11.692	0.100
575.500	-7.041	0.100
575.600	-34.634	0.100
575.700	-30.030	0.100
575.800	-4.970	0.100
575.900	-10.971	0.100
576.000	-16.149	0.100
576.100	-30.938	0.100
576.200	-14.742	0.100
576.300	-13.946	0.100
576.400	-7.791	0.100
576.500	-27.072	0.100
576.600	-7.401	0.100
576.700	-10.286	0.100
576.800	-36.741	0.100
576.900	-17.551	0.100
577.000	4.497	0.100
577.100	-40.956	0.100
577.200	-12.918	0.100
577.300	-14.775	0.100
577.400	-31.879	0.100
577.500	-17.925	0.100
577.600	-6.240	0.100
577.700	-19.348	0.100
577.800	4.550	0.100
577.900	-20.986	0.100
578.000	6.373	0.100
578.100	-13.752	0.100
578.200	-40.953	0.100
578.300	-27.558	0.100
578.400	-4.880	0.100
578.500	-9.282	0.100
578.600	-4.759	0.100
578.700	-28.905	0.100
578.800	1.317	0.100
578.900	-12.186	0.100
579.000	-7.020	0.100
579.100	-14.687	0.100
579.200	-14.360	0.100
579.300	-13.572	0.100
579.400	18.068	0.100
579.500	-10.291	0.100
579.600	-24.131	0.100
579.700	-33.757	0.100
579.800	-19.088	0.100
579.900	-8.063	0.100
580.000	-27.548	0.100
580.100	-37.745	0.100
580.200	-50.714	0.100
580.300	-27.943	0.100
580.400	-20.789	0.100
580.500	10.836	0.100
580.600	-36.039	0.100
580.700	27.128	0.100
580.800	-13.544	0.100
580.900	-38.122	0.100
581.000	-32.680	0.100
581.100	-16.383	0.100
581.200	-30.580	0.100
581.300	-16.449	0.100
581.400	-12.369	0.100
581.500	-26.378	0.100
581.600	-18.592	0.100
581.700	-22.913	0.100
581.800	-33.441	0.100
581.900	-34.306	0.100
582.000	-7.859	0.100
582.100	-7.157	0.100
582.200	-5.343	0.100
582.300	-29.780	0.100
582.400	-24.468	0.100
582.500	-30.669	0.100
582.600	-13.389	0.100
582.700	-26.411	0.100
582.800	-20.919	0.100
582.900	-4.471	0.100
583.000	-8.583	0.100
583.100	-43.724	0.100
583.200	-18.726	0.100
583.300	-23.796	0.100
583.400	-35.669	0.100
583.500	-3.604	0.100
583.600	-22.743	0.100
583.700	-8.867	0.100
583.800	-11.242	0.100
583.900	-15.066	0.100
584.000	-5.992	0.100
584.100	-13.281	0.100
584.200	-14.098	0.100
584.300	-19.083	0.100
584.400	-47.366	0.100
584.500	7.204	0.100
584.600	-33.808	0.100
584.700	-18.326	0.100
584.800	-22.114	0.100
584.900	-24.080	0.100
585.000	-11.616	0.100
585.100	-31.284	0.100
585.200	-4.311	0.100
585.300	-14.087	0.100
585.400	-34.949	0.100
585.500	-25.933	0.100
585.600	-0.977	0.100
585.700	-25.953	0.100
585.800	-31.404	0.100
585.900	-27.911	0.100
586.000	-2.309	0.100
586.100	-31.620	0.100
586.200	-17.262	0.100
586.300	-39.860	0.100
586.400	-10.907	0.100
586.500	-28.107	0.100
586.600	-43.505	0.100
586.700	-3.436	0.100
586.800	-25.120	0.100
586.900	-21.781	0.100
587.000	-54.527	0.100
587.100	15.826	0.100
587.200	-21.359	0.100
587.300	-18.256	0.100
587.400	-35.827	0.100
587.500	-18.762	0.100
587.600	-14.728	0.100
587.700	-27.956	0.100
587.800	-39.290	0.100
587.900	-11.607	0.100
588.000	-18.818	0.100
588.100	-35.987	0.100
588.200	-20.838	0.100
588.300	-27.783	0.100
588.400	-4.988	0.100
588.500	-27.255	0.100
588.600	-20.471	0.100
588.700	-17.049	0.100
588.800	-18.443	0.100
588.900	-23.106	0.100
589.000	-9.206	0.100
589.100	-7.266	0.100
589.200	-8.603	0.100
589.300	-34.756	0.100
589.400	-27.947	0.100
589.500	-24.519	0.100
589.600	-16.380	0.100
589.700	-45.188	0.100
589.800	-33.712	0.100
589.900	8.947	0.100
590.000	-26.732	0.100
590.100	-18.570	0.100
590.200	-16.610	0.100
590.300	-18.376	0.100
590.400	-16.819	0.100
590.500	-14.985	0.100
590.600	-11.972	0.100
590.700	-33.829	0.100
590.800	-19.792	0.100
590.900	-30.211	0.100
591.000	-14.401	0.100
591.100	-32.503	0.100
591.200	-40.105	0.100
591.300	-28.674	0.100
591.400	-33.016	0.100
591.500	-15.052	0.100
591.600	-20.282	0.100
591.700	-20.693	0.100
591.800	-24.660	0.100
591.900	-39.292	0.100
592.000	-32.977	0.100
592.100	-25.683	0.100
592.200	-25.058	0.100
592.300	-26.080	0.100
592.400	-15.590	0.100
592.500	-15.533	0.100
592.600	-23.073	0.100
592.700	-27.025	0.100
592.800	-25.057	0.100
592.900	-30.666	0.100
593.000	-32.789	0.100
593.100	18.467	0.100
593.200	-41.564	0.100
593.300	-48.814	0.100
593.400	-33.296	0.100
593.500	-11.239	0.100
593.600	-29.118	0.100
593.700	-19.398	0.100
593.800	-7.175	0.100
593.900	-36.588	0.100
594.000	-23.659	0.100
594.100	-19.353	0.100
594.200	-0.302	0.100
594.300	-32.370	0.100
594.400	-33.305	0.100
594.500	-45.996	0.100
594.600	-33.069	0.100
594.700	-28.272	0.100
594.800	-25.023	0.100
594.900	-28.272	0.100
595.000	-21.967	0.100
595.100	-40.398	0.100
595.200	-23.375	0.100
595.300	-19.067	0.100
595.400	-28.360	0.100
595.500	-9.656	0.100
595.600	-39.875	0.100
595.700	-30.993	0.100
595.800	-28.745	0.100
595.900	-22.856	0.100
596.000	-22.807	0.100
596.100	-4.146	0.100
596.200	-12.809	0.100
596.300	-28.001	0.100
596.400	-25.958	0.100
596.500	-12.019	0.100
596.600	-26.507	0.100
596.700	-33.030	0.100
596.800	-10.016	0.100
596.900	-20.237	0.100
597.000	-35.959	0.100
597.100	-4.136	0.100
597.200	-29.034	0.100
597.300	-25.425	0.100
597.400	-46.197	0.100
597.500	5.862	0.100
597.600	-18.249	0.100
597.700	-19.168	0.100
597.800	-28.126	0.100
597.900	-41.666	0.100
598.000	-20.175	0.100
598.100	-38.823	0.100
598.200	-31.689	0.100
598.300	-2.930	0.100
598.400	-35.298	0.100
598.500	-0.175	0.100
598.600	-29.988	0.100
598.700	-18.289	0.100
598.800	1.965	0.100
598.900	-34.925	0.100
599.000	-20.724	0.100
599.100	-7.314	0.100
599.200	-52.694	0.100
599.300	-13.251	0.100
599.400	-40.367	0.100
599.500	-19.476	0.100
599.600	-24.287	0.100
599.700	-42.942	0.100
599.800	-13.407	0.100
599.900	-12.479	0.100
600.000	-4.722	0.100
600.100	-13.407	0.100
600.200	-44.654	0.100
600.300	-12.507	0.100
600.400	-25.905	0.100
600.500	-24.311	0.100
600.600	-1.211	0.100
600.700	-25.238	0.100
600.800	-51.973	0.100
600.900	-27.241	0.100
601.000	-14.689	0.100
601.100	-15.731	0.100
601.200	-39.881	0.100
601.300	-22.514	0.100
601.400	-10.229	0.100
601.500	-34.748	0.100
601.600	-43.390	0.100
601.700	-18.377	0.100
601.800	-17.173	0.100
601.900	-8.690	0.100
602.000	-38.229	0.100
602.100	-27.072	0.100
602.200	-28.668	0.100
602.300	-26.181	0.100
602.400	-5.416	0.100
602.500	-21.734	0.100
602.600	-18.844	0.100
602.700	-12.869	0.100
602.800	-35.695	0.100
602.900	-6.179	0.100
603.000	-20.964	0.100
603.100	-18.741	0.100
603.200	-38.515	0.100
603.300	-27.808	0.100
603.400	-18.645	0.100
603.500	-10.364	0.100
603.600	-7.379	0.100
603.700	-34.449	0.100
603.800	-9.307	0.100
603.900	-17.151	0.100
604.000	-2.562	0.100
604.100	-24.686	0.100
604.200	-28.018	0.100
604.300	-35.093	0.100
604.400	-1.619	0.100
604.500	-33.749	0.100
604.600	-15.429	0.100
604.700	-16.644	0.100
604.800	-22.738	0.100
604.900	-9.253	0.100
605.000	-14.254	0.100
605.100	-27.714	0.100
605.200	-16.768	0.100
605.300	-26.191	0.100
605.400	-16.682	0.100
605.500	-9.931	0.100
605.600	-16.577	0.100
605.700	-23.974	0.100
605.800	-38.383	0.100
605.900	-20.229	0.100
606.000	-14.170	0.100
606.100	-24.474	0.100
606.200	-13.692	0.100
606.300	-27.039	0.100
606.400	-9.054	0.100
606.500	-9.633	0.100
606.600	-16.737	0.100
606.700	-28.756	0.100
606.800	-37.981	0.100
606.900	-34.646	0.100
607.000	2.052	0.100
607.100	-7.677	0.100
607.200	-38.795	0.100
607.300	-33.926	0.100
607.400	-12.832	0.100
607.500	-28.987	0.100
607.600	-10.140	0.100
607.700	-39.410	0.100
607.800	-5.613	0.100
607.900	-49.224	0.100
608.000	7.889	0.100
608.100	-25.010	0.100
608.200	-5.589	0.100
608.300	-2.724	0.100
608.400	-40.101	0.100
608.500	-36.607	0.100
608.600	-6.899	0.100
608.700	-5.370	0.100
608.800	-15.950	0.100
608.900	-4.123	0.100
609.000	-29.795	0.100
609.100	-39.979	0.100
609.200	-23.839	0.100
609.300	-8.901	0.100
609.400	-26.030	0.100
609.500	-10.236	0.100
609.600	-30.648	0.100
609.700	-29.318	0.100
609.800	-3.680	0.100
609.900	-22.914	0.100
610.000	-22.383	0.100
610.100	-17.768	0.100
610.200	-28.476	0.100
610.300	-17.282	0.100
610.400	-22.472	0.100
610.500	-37.601	0.100
610.600	-11.335	0.100
610.700	-36.199	0.100
610.800	-26.574	0.100
610.900	-22.350	0.100
611.000	-20.827	0.100
611.100	-2.626	0.100
611.200	-14.459	0.100
611.300	-37.692	0.100
611.400	-13.409	0.100
611.500	-30.981	0.100
611.600	-44.318	0.100
611.700	-27.249	0.100
611.800	-28.562	0.100
611.900	-17.063	0.100
612.000	-8.992	0.100
612.100	-16.577	0.100
612.200	-30.282	0.100
612.300	-12.385	0.100
612.400	-42.554	0.100
612.500	-0.571	0.100
612.600	-3.738	0.100
612.700	-7.200	0.100
612.800	-16.190	0.100
612.900	-24.361	0.100
613.000	-1.762	0.100
613.100	-20.155	0.100
613.200	-17.785	0.100
613.300	-32.493	0.100
613.400	-30.858	0.100
613.500	-18.511	0.100
613.600	-18.787	0.100
613.700	-46.366	0.100
613.800	-10.383	0.100
613.900	1.972	0.100
614.000	-18.094	0.100
614.100	-42.598	0.100
614.200	-29.376	0.100
614.300	-14.693	0.100
614.400	-23.799	0.100
614.500	-15.954	0.100
614.600	-25.494	0.100
614.700	-7.900	0.100
614.800	-6.994	0.100
614.900	-30.981	0.100
615.000	-6.936	0.100
615.100	-30.349	0.100
615.200	-45.181	0.100
615.300	-26.441	0.100
615.400	-2.238	0.100
615.500	-8.630	0.100
615.600	-9.603	0.100
615.700	-19.493	0.100
615.800	-36.153	0.100
615.900	-26.442	0.100
616.000	-33.712	0.100
616.100	-37.346	0.100
616.200	10.368	0.100
616.300	-16.297	0.100
616.400	-30.789	0.100
616.500	-41.719	0.100
616.600	-7.144	0.100
616.700	-15.002	0.100
616.800	-7.889	0.100
616.900	-30.586	0.100
617.000	-16.629	0.100
617.100	-34.813	0.100
617.200	-10.379	0.100
617.300	-38.958	0.100
617.400	-9.503	0.100
617.500	-33.700	0.100
617.600	-3.658	0.100
617.700	-16.952	0.100
617.800	-22.027	0.100
617.900	-22.338	0.100
618.000	-7.683	0.100
618.100	-3.731	0.100
618.200	-21.026	0.100
618.300	-9.091	0.100
618.400	-10.135	0.100
618.500	-31.456	0.100
618.600	-15.299	0.100
618.700	-6.472	0.100
618.800	-31.748	0.100
618.900	-24.916	0.100
619.000	-8.662	0.100
619.100	-16.873	0.100
619.200	3.842	0.100
619.300	-22.845	0.100
619.400	-24.437	0.100
619.500	-17.663	0.100
619.600	-3.793	0.100
619.700	-39.183	0.100
619.800	-25.901	0.100
619.900	-34.475	0.100
620.000	-10.571	0.100
620.100	-19.248	0.100
620.200	-24.652	0.100
620.300	-29.688	0.100
620.400	-15.663	0.100
620.500	-13.812	0.100
620.600	-28.789	0.100
620.700	-10.344	0.100
620.800	-26.099	0.100
620.900	-41.720	0.100
621.000	-31.571	0.100
621.100	-2.337	0.100
621.200	-11.707	0.100
621.300	-28.189	0.100
621.400	-16.926	0.100
621.500	-38.772	0.100
621.600	-26.761	0.100
621.700	-2.342	0.100
621.800	-2.509	0.100
621.900	-27.017	0.100
622.000	-16.658	0.100
622.100	1.020	0.100
622.200	-2.461	0.100
622.300	-28.098	0.100
622.400	-13.197	0.100
622.500	-47.971	0.100
622.600	-35.097	0.100
622.700	0.029	0.100
622.800	2.148	0.100
622.900	-56.774	0.100
623.000	-0.225	0.100
623.100	-10.376	0.100
623.200	-13.951	0.100
623.300	-41.687	0.100
623.400	-26.566	0.100
623.500	-27.341	0.100
623.600	-28.612	0.100
623.700	-11.582	0.100
623.800	-7.173	0.100
623.900	-17.927	0.100
624.000	-22.105	0.100
624.100	-3.294	0.100
624.200	-1.621	0.100
624.300	-46.417	0.100
624.400	-0.856	0.100
624.500	-17.907	0.100
624.600	0.062	0.100
624.700	-10.780	0.100
624.800	-39.786	0.100
624.900	-24.770	0.100
625.000	-28.611	0.100
625.100	-8.530	0.100
625.200	-18.111	0.100
625.300	-12.437	0.100
625.400	-9.113	0.100
625.500	-44.024	0.100
625.600	-5.678	0.100
625.700	-28.559	0.100
625.800	-26.817	0.100
625.900	11.348	0.100
626.000	-40.578	0.100
626.100	-9.717	0.100
626.200	-19.316	0.100
626.300	-8.677	0.100
626.400	-16.466	0.100
626.500	-27.258	0.100
626.600	-4.137	0.100
626.700	-5.210	0.100
626.800	-20.664	0.100
626.900	-30.841	0.100
627.000	-1.620	0.100
627.100	-20.885	0.100
627.200	-22.863	0.100
627.300	-25.952	0.100
627.400	2.208	0.100
627.500	-20.755	0.100
627.600	-14.554	0.100
627.700	-8.326	0.100
627.800	-26.473	0.100
627.900	-22.316	0.100
628.000	-33.461	0.100
628.100	-39.314	0.100
628.200	-14.711	0.100
628.300	6.017	0.100
628.400	-16.922	0.100
628.500	-22.344	0.100
628.600	-9.663	0.100
628.700	-31.129	0.100
628.800	-32.413	0.100
628.900	-12.781	0.100
629.000	-11.606	0.100
629.100	-27.949	0.100
629.200	4.350	0.100
629.300	-13.851	0.100
629.400	-16.086	0.100
629.500	-12.940	0.100
629.600	-16.983	0.100
629.700	-21.307	0.100
629.800	-16.192	0.100
629.900	-26.412	0.100
630.000	10.286	0.100
630.100	-25.535	0.100
630.200	-13.160	0.100
630.300	-18.507	0.100
630.400	-29.885	0.100
630.500	-6.350	0.100
630.600	-36.236	0.100
630.700	-27.806	0.100
630.800	9.442	0.100
630.900	-24.321	0.100
631.000	-0.596	0.100
631.100	-16.483	0.100
631.200	-22.197	0.100
631.300	13.962	0.100
631.400	-2.427	0.100
631.500	-7.778	0.100
631.600	-6.467	0.100
631.700	-10.593	0.100
631.800	-13.548	0.100
631.900	-2.607	0.100
632.000	2.141	0.100
632.100	15.737	0.100
632.200	22.812	0.100
632.300	16.465	0.100
632.400	0.671	0.100
632.500	10.406	0.100
632.600	14.746	0.100
632.700	-9.314	0.100
632.800	6.070	0.100
632.900	29.100	0.100
633.000	43.715	0.100
633.100	2.103	0.100
633.200	23.970	0.100
633.300	6.361	0.100
633.400	11.710	0.100
633.500	16.035	0.100
633.600	38.698	0.100
633.700	-7.399	0.100
633.800	8.645	0.100
633.900	18.684	0.100
634.000	47.416	0.100
634.100	20.369	0.100
634.200	8.076	0.100
634.300	2.478	0.100
634.400	24.137	0.100
634.500	16.944	0.100
634.600	33.978	0.100
634.700	26.294	0.100
634.800	16.196	0.100
634.900	28.308	0.100
635.000	18.080	0.100
635.100	12.982	0.100
635.200	-3.196	0.100
635.300	49.112	0.100
635.400	2.845	0.100
635.500	-0.654	0.100
635.600	39.549	0.100
635.700	11.378	0.100
635.800	31.499	0.100
635.900	17.986	0.100
636.000	35.263	0.100
636.100	9.937	0.100
636.200	11.240	0.100
636.300	19.640	0.100
636.400	15.867	0.100
636.500	18.781	0.100
636.600	40.211	0.100
636.700	14.848	0.100
636.800	17.501	0.100
636.900	8.431	0.100
637.000	0.321	0.100
637.100	29.517	0.100
637.200	16.538	0.100
637.300	29.307	0.100
637.400	3.307	0.100
637.500	17.853	0.100
637.600	19.368	0.100
637.700	9.787	0.100
637.800	2.362	0.100
637.900	23.481	0.100
638.000	7.073	0.100
638.100	9.033	0.100
638.200	42.241	0.100
638.300	34.694	0.100
638.400	2.253	0.100
638.500	19.076	0.100
638.600	13.839	0.100
638.700	40.778	0.100
638.800	-12.488	0.100
638.900	29.885	0.100
639.000	12.504	0.100
639.100	2.515	0.100
639.200	11.929	0.100
639.300	43.251	0.100
639.400	26.979	0.100
639.500	19.752	0.100
639.600	27.342	0.100
639.700	28.276	0.100
639.800	-0.977	0.100
639.900	25.598	0.100
640.000	30.787	0.100
640.100	9.991	0.100
640.200	10.706	0.100
640.300	30.877	0.100
640.400	19.036	0.100
640.500	6.223	0.100
640.600	2.676	0.100
640.700	14.185	0.100
640.800	19.044	0.100
640.900	16.635	0.100
641.000	28.262	0.100
641.100	24.561	0.100
641.200	17.367	0.100
641.300	14.212	0.100
641.400	7.337	0.100
641.500	30.770	0.100
641.600	5.886	0.100
641.700	9.561	0.100
641.800	20.104	0.100
641.900	23.413	0.100
642.000	24.387	0.100
642.100	31.500	0.100
642.200	33.117	0.100
642.300	-0.956	0.100
642.400	21.924	0.100
642.500	18.379	0.100
642.600	0.376	0.100
642.700	50.116	0.100
642.800	19.826	0.100
642.900	2.336	0.100
643.000	37.083	0.100
643.100	35.811	0.100
643.200	26.233	0.100
643.300	7.078	0.100
643.400	11.700	0.100
643.500	17.272	0.100
643.600	17.537	0.100
643.700	8.102	0.100
643.800	26.199	0.100
643.900	32.134	0.100
644.000	18.854	0.100
644.100	-1.925	0.100
644.200	33.130	0.100
644.300	33.568	0.100
644.400	7.167	0.100
644.500	17.077	0.100
644.600	14.478	0.100
644.700	23.962	0.100
644.800	36.541	0.100
644.900	33.004	0.100
645.000	14.685	0.100
645.100	27.573	0.100
645.200	31.733	0.100
645.300	20.074	0.100
645.400	25.815	0.100
645.500	22.652	0.100
645.600	20.185	0.100
645.700	-10.450	0.100
645.800	30.300	0.100
645.900	11.520	0.100
646.000	10.861	0.100
646.100	32.099	0.100
646.200	19.960	0.100
646.300	2.597	0.100
646.400	-3.486	0.100
646.500	43.532	0.100
646.600	29.335	0.100
646.700	27.259	0.100
646.800	20.837	0.100
646.900	8.140	0.100
647.000	6.048	0.100
647.100	32.060	0.100
647.200	9.791	0.100
647.300	10.240	0.100
647.400	2.296	0.100
647.500	17.880	0.100
647.600	23.692	0.100
647.700	24.729	0.100
647.800	40.207	0.100
647.900	19.592	0.100
648.000	11.517	0.100
648.100	21.053	0.100
648.200	3.240	0.100
648.300	22.860	0.100
648.400	11.993	0.100
648.500	36.447	0.100
648.600	19.228	0.100
648.700	20.458	0.100
648.800	24.767	0.100
648.900	45.385	0.100
649.000	2.637	0.100
649.100	6.114	0.100
649.200	26.458	0.100
649.300	23.508	0.100
649.400	21.441	0.100
649.500	4.775	0.100
649.600	43.854	0.100
649.700	29.585	0.100
649.800	40.026	0.100
649.900	-9.247	0.100
650.000	30.710	0.100
650.100	24.894	0.100
650.200	11.887	0.100
650.300	30.391	0.100
650.400	18.978	0.100
650.500	10.065	0.100
650.600	1.671	0.100
650.700	14.875	0.100
650.800	25.992	0.100
650.900	40.937	0.100
651.000	37.971	0.100
651.100	35.139	0.100
651.200	14.368	0.100
651.300	40.238	0.100
651.400	47.536	0.100
651.500	5.749	0.100
651.600	14.065	0.100
651.700	41.164	0.100
651.800	16.646	0.100
651.900	42.149	0.100
652.000	32.155	0.100
652.100	47.170	0.100
652.200	11.735	0.100
652.300	19.378	0.100
652.400	23.477	0.100
652.500	22.386	0.100
652.600	23.725	0.100
652.700	20.578	0.100
652.800	32.163	0.100
652.900	19.106	0.100
653.000	27.897	0.100
653.100	14.567	0.100
653.200	29.185	0.100
653.300	48.026	0.100
653.400	17.755	0.100
653.500	34.779	0.100
653.600	53.408	0.100
653.700	10.028	0.100
653.800	29.251	0.100
653.900	18.113	0.100
654.000	26.357	0.100
654.100	15.445	0.100
654.200	36.266	0.100
654.300	28.177	0.100
654.400	51.214	0.100
654.500	19.190	0.100
654.600	17.498	0.100
654.700	27.467	0.100
654.800	47.995	0.100
654.900	47.382	0.100
655.000	12.749	0.100
655.100	20.075	0.100
655.200	41.667	0.100
655.300	38.415	0.100
655.400	25.467	0.100
655.500	54.908	0.100
655.600	28.844	0.100
655.700	41.777	0.100
655.800	30.364	0.100
655.900	22.981	0.100
656.000	40.419	0.100
656.100	46.614	0.100
656.200	49.597	0.100
656.300	34.151	0.100
656.400	36.827	0.100
656.500	45.296	0.100
656.600	41.757	0.100
656.700	19.257	0.100
656.800	31.197	0.100
656.900	43.110	0.100
657.000	43.748	0.100
657.100	45.055	0.100
657.200	17.713	0.100
657.300	27.201	0.100
657.400	21.050	0.100
657.500	44.379	0.100
657.600	24.128	0.100
657.700	39.122	0.100
657.800	38.164	0.100
657.900	25.428	0.100
658.000	49.571	0.100
658.100	20.241	0.100
658.200	24.655	0.100
658.300	57.276	0.100
658.400	23.964	0.100
658.500	47.831	0.100
658.600	50.663	0.100
658.700	23.535	0.100
658.800	36.559	0.100
658.900	47.473	0.100
659.000	54.940	0.100
659.100	40.125	0.100
659.200	13.552	0.100
659.300	39.294	0.100
659.400	32.267	0.100
659.500	40.532	0.100
659.600	32.682	0.100
659.700	42.168	0.100
659.800	11.541	0.100
659.900	38.197	0.100
660.000	46.119	0.100
660.100	55.311	0.100
660.200	54.599	0.100
660.300	36.889	0.100
660.400	38.281	0.100
660.500	31.525	0.100
660.600	22.206	0.100
660.700	38.050	0.100
660.800	27.020	0.100
660.900	28.537	0.100
661.000	30.288	0.100
661.100	68.390	0.100
661.200	44.926	0.100
661.300	46.232	0.100
661.400	49.580	0.100
661.500	21.697	0.100
661.600	28.903	0.100
661.700	41.228	0.100
661.800	55.982	0.100
661.900	49.212	0.100
662.000	28.416	0.100
662.100	54.558	0.100
662.200	38.464	0.100
662.300	47.856	0.100
662.400	31.071	0.100
662.500	41.798	0.100
662.600	41.464	0.100
662.700	27.946	0.100
662.800	43.782	0.100
662.900	25.006	0.100
663.000	38.249	0.100
663.100	25.351	0.100
663.200	53.978	0.100
663.300	78.443	0.100
663.400	30.365	0.100
663.500	34.152	0.100
663.600	52.882	0.100
663.700	48.043	0.100
663.800	45.092	0.100
663.900	36.266	0.100
664.000	43.626	0.100
664.100	19.250	0.100
664.200	32.774	0.100
664.300	44.042	0.100
664.400	43.009	0.100
664.500	42.329	0.100
664.600	56.340	0.100
664.700	15.637	0.100
664.800	63.864	0.100
664.900	32.840	0.100
665.000	38.943	0.100
665.100	41.220	0.100
665.200	54.242	0.100
665.300	27.946	0.100
665.400	49.713	0.100
665.500	53.327	0.100
665.600	45.278	0.100
665.700	34.008	0.100
665.800	42.118	0.100
665.900	28.416	0.100
666.000	18.382	0.100
666.100	55.123	0.100
666.200	26.054	0.100
666.300	47.766	0.100
666.400	28.746	0.100
666.500	44.825	0.100
666.600	39.398	0.100
666.700	23.407	0.100
666.800	39.204	0.100
666.900	75.053	0.100
667.000	50.195	0.100
667.100	36.643	0.100
667.200	34.861	0.100
667.300	48.505	0.100
667.400	47.876	0.100
667.500	23.985	0.100
667.600	36.719	0.100
667.700	60.431	0.100
667.800	45.592	0.100
667.900	28.756	0.100
668.000	50.381	0.100
668.100	41.981	0.100
668.200	27.005	0.100
668.300	45.467	0.100
668.400	44.672	0.100
668.500	47.913	0.100
668.600	56.006	0.100
668.700	50.488	0.100
668.800	32.563	0.100
668.900	49.102	0.100
669.000	49.399	0.100
669.100	42.106	0.100
669.200	44.386	0.100
669.300	45.594	0.100
669.400	58.964	0.100
669.500	48.471	0.100
669.600	23.111	0.100
669.700	55.274	0.100
669.800	39.539	0.100
669.900	31.168	0.100
670.000	35.839	0.100
670.100	32.639	0.100
670.200	44.444	0.100
670.300	41.936	0.100
670.400	50.634	0.100
670.500	28.032	0.100
670.600	37.302	0.100
670.700	60.337	0.100
670.800	47.923	0.100
670.900	59.036	0.100
671.000	18.035	0.100
671.100	40.222	0.100
671.200	54.664	0.100
671.300	41.037	0.100
671.400	43.315	0.100
671.500	27.536	0.100
671.600	6.696	0.100
671.700	59.905	0.100
671.800	46.265	0.100
671.900	25.127	0.100
672.000	56.647	0.100
672.100	63.875	0.100
672.200	45.803	0.100
672.300	52.178	0.100
672.400	38.211	0.100
672.500	45.807	0.100
672.600	43.854	0.100
672.700	36.678	0.100
672.800	45.993	0.100
672.900	37.012	0.100
673.000	58.618	0.100
673.100	37.792	0.100
673.200	38.052	0.100
673.300	46.240	0.100
673.400	35.549	0.100
673.500	37.250	0.100
673.600	31.385	0.100
673.700	38.334	0.100
673.800	53.782	0.100
673.900	27.746	0.100
674.000	33.900	0.100
674.100	54.074	0.100
674.200	16.717	0.100
674.300	41.385	0.100
674.400	44.652	0.100
674.500	62.477	0.100
674.600	39.719	0.100
674.700	44.479	0.100
674.800	59.443	0.100
674.900	44.240	0.100
675.000	45.623	0.100
675.100	41.280	0.100
675.200	35.649	0.100
675.300	41.935	0.100
675.400	31.038	0.100
675.500	37.851	0.100
675.600	50.031	0.100
675.700	49.672	0.100
675.800	33.962	0.100
675.900	42.959	0.100
676.000	46.632	0.100
676.100	42.645	0.100
676.200	22.964	0.100
676.300	45.403	0.100
676.400	33.973	0.100
676.500	41.416	0.100
676.600	49.275	0.100
676.700	48.782	0.100
676.800	51.517	0.100
676.900	36.922	0.100
677.000	38.194	0.100
677.100	22.330	0.100
677.200	34.207	0.100
677.300	38.586	0.100
677.400	28.268	0.100
677.500	34.997	0.100
677.600	45.817	0.100
677.700	34.425	0.100
677.800	58.672	0.100
677.900	30.059	0.100
678.000	17.491	0.100
678.100	41.546	0.100
678.200	47.803	0.100
678.300	58.050	0.100
678.400	35.179	0.100
678.500	46.737	0.100
678.600	33.029	0.100
678.700	46.542	0.100
678.800	33.278	0.100
678.900	50.915	0.100
679.000	48.383	0.100
679.100	41.132	0.100
679.200	33.008	0.100
679.300	35.222	0.100
679.400	53.492	0.100
679.500	30.439	0.100
679.600	52.553	0.100
679.700	46.697	0.100
679.800	41.819	0.100
679.900	33.410	0.100
680.000	54.144	0.100
680.100	26.751	0.100
680.200	41.738	0.100
680.300	50.442	0.100
680.400	57.353	0.100
680.500	18.545	0.100
680.600	32.051	0.100
680.700	38.822	0.100
680.800	35.556	0.100
680.900	34.477	0.100
681.000	26.711	0.100
681.100	49.874	0.100
681.200	35.705	0.100
681.300	33.831	0.100
681.400	36.585	0.100
681.500	35.654	0.100
681.600	26.586	0.100
681.700	56.703	0.100
681.800	30.745	0.100
681.900	36.016	0.100
682.000	46.612	0.100
682.100	60.493	0.100
682.200	26.363	0.100
682.300	50.092	0.100
682.400	31.286	0.100
682.500	39.760	0.100
682.600	48.260	0.100
682.700	30.783	0.100
682.800	33.807	0.100
682.900	40.498	0.100
683.000	47.652	0.100
683.100	43.316	0.100
683.200	46.121	0.100
683.300	51.401	0.100
683.400	60.140	0.100
683.500	30.749	0.100
683.600	26.683	0.100
683.700	18.767	0.100
683.800	46.881	0.100
683.900	36.582	0.100
684.000	68.091	0.100
684.100	40.666	0.100
684.200	50.510	0.100
684.300	40.230	0.100
684.400	35.458	0.100
684.500	42.963	0.100
684.600	76.800	0.100
684.700	27.327	0.100
684.800	32.404	0.100
684.900	43.103	0.100
685.000	40.944	0.100
685.100	54.848	0.100
685.200	40.722	0.100
685.300	32.790	0.100
685.400	21.060	0.100
685.500	65.348	0.100
685.600	35.659	0.100
685.700	54.768	0.100
685.800	50.812	0.100
685.900	36.970	0.100
686.000	51.173	0.100
686.100	47.334	0.100
686.200	39.413	0.100
686.300	51.544	0.100
686.400	43.046	0.100
686.500	32.031	0.100
686.600	38.946	0.100
686.700	40.106	0.100
686.800	34.043	0.100
686.900	65.096	0.100
687.000	63.389	0.100
687.100	6.081	0.100
687.200	40.645	0.100
687.300	52.816	0.100
687.400	43.174	0.100
687.500	34.052	0.100
687.600	50.353	0.100
687.700	41.214	0.100
687.800	28.978	0.100
687.900	27.652	0.100
688.000	33.549	0.100
688.100	47.569	0.100
688.200	37.104	0.100
688.300	31.481	0.100
688.400	75.878	0.100
688.500	52.690	0.100
688.600	27.190	0.100
688.700	30.561	0.100
688.800	41.314	0.100
688.900	48.391	0.100
689.000	42.905	0.100
689.100	37.195	0.100
689.200	42.102	0.100
689.300	28.338	0.100
689.400	62.890	0.100
689.500	43.776	0.100
689.600	26.643	0.100
689.700	45.932	0.100
689.800	44.379	0.100
689.900	55.912	0.100
690.000	53.912	0.100
690.100	38.662	0.100
690.200	29.912	0.100
690.300	46.424	0.100
690.400	19.529	0.100
690.500	48.939	0.100
690.600	31.469	0.100
690.700	34.621	0.100
690.800	30.836	0.100
690.900	39.240	0.100
691.000	39.791	0.100
691.100	30.157	0.100
691.200	60.755	0.100
691.300	23.332	0.100
691.400	25.097	0.100
691.500	28.686	0.100
691.600	29.816	0.100
691.700	27.779	0.100
691.800	-13.632	0.100
691.900	37.205	0.100
692.000	5.996	0.100
692.100	13.033	0.100
692.200	13.422	0.100
692.300	9.120	0.100
692.400	19.333	0.100
692.500	27.066	0.100
692.600	21.300	0.100
692.700	-3.877	0.100
692.800	8.746	0.100
692.900	15.864	0.100
693.000	6.154	0.100
693.100	-4.915	0.100
693.200	5.802	0.100
693.300	8.947	0.100
693.400	3.920	0.100
693.500	5.081	0.100
693.600	13.438	0.100
693.700	-3.051	0.100
693.800	25.985	0.100
693.900	6.083	0.100
694.000	-7.673	0.100
694.100	16.088	0.100
694.200	-6.770	0.100
694.300	21.309	0.100
694.400	7.792	0.100
694.500	19.059	0.100
694.600	12.573	0.100
694.700	-3.100	0.100
694.800	20.335	0.100
694.900	-7.509	0.100
695.000	6.518	0.100
695.100	-5.402	0.100
695.200	2.534	0.100
695.300	-7.455	0.100
695.400	-23.271	0.100
695.500	-7.622	0.100
695.600	8.056	0.100
695.700	-8.434	0.100
695.800	6.209	0.100
695.900	-35.424	0.100
696.000	-6.265	0.100
696.100	-3.844	0.100
696.200	21.486	0.100
696.300	-9.699	0.100
696.400	-16.425	0.100
696.500	6.948	0.100
696.600	1.815	0.100
696.700	-10.018	0.100
696.800	-3.679	0.100
696.900	-8.715	0.100
697.000	4.985	0.100
697.100	-8.788	0.100
697.200	10.935	0.100
697.300	5.955	0.100
697.400	-1.143	0.100
697.500	-5.174	0.100
697.600	6.947	0.100
697.700	2.288	0.100
697.800	1.159	0.100
697.900	0.909	0.100
698.000	-14.439	0.100
698.100	2.341	0.100
698.200	3.578	0.100
698.300	-6.315	0.100
698.400	-7.434	0.100
698.500	19.184	0.100
698.600	-3.543	0.100
698.700	2.579	0.100
698.800	6.468	0.100
698.900	-22.646	0.100
699.000	-18.189	0.100
699.100	24.492	0.100
699.200	3.899	0.100
699.300	10.856	0.100
699.400	14.464	0.100
699.500	2.320	0.100
699.600	-22.448	0.100
699.700	0.002	0.100
699.800	-13.272	0.100
699.900	8.162	0.100
700.000	-23.726	0.100
700.100	9.425	0.100
700.200	14.769	0.100
700.300	-17.453	0.100
700.400	-2.842	0.100
700.500	3.460	0.100
700.600	4.892	0.100
700.700	-15.799	0.100
700.800	0.189	0.100
700.900	-4.682	0.100
701.000	-14.794	0.100
701.100	18.550	0.100
701.200	-9.010	0.100
701.300	-14.566	0.100
701.400	10.042	0.100
701.500	25.469	0.100
701.600	-8.136	0.100
701.700	-10.666	0.100
701.800	10.630	0.100
701.900	-5.083	0.100
702.000	1.882	0.100
702.100	4.370	0.100
702.200	-6.515	0.100
702.300	8.237	0.100
702.400	2.860	0.100
702.500	9.394	0.100
702.600	17.019	0.100
702.700	-8.886	0.100
702.800	-0.183	0.100
702.900	6.083	0.100
703.000	-16.063	0.100
703.100	13.328	0.100
703.200	-21.982	0.100
703.300	-8.460	0.100
703.400	-30.554	0.100
703.500	8.966	0.100
703.600	-9.158	0.100
703.700	8.975	0.100
703.800	21.129	0.100
703.900	-20.238	0.100
704.000	-3.567	0.100
704.100	-1.798	0.100
704.200	-2.237	0.100
704.300	-6.860	0.100
704.400	-8.746	0.100
704.500	0.053	0.100
704.600	1.190	0.100
704.700	-15.910	0.100
704.800	6.047	0.100
704.900	-12.310	0.100
705.000	-14.997	0.100
705.100	2.611	0.100
705.200	8.931	0.100
705.300	6.690	0.100
705.400	-21.784	0.100
705.500	-4.857	0.100
705.600	-8.560	0.100
705.700	32.959	0.100
705.800	-10.113	0.100
705.900	-17.646	0.100
706.000	15.132	0.100
706.100	-30.853	0.100
706.200	-12.674	0.100
706.300	-2.898	0.100
706.400	17.804	0.100
706.500	-5.697	0.100
706.600	-11.286	0.100
706.700	-10.415	0.100
706.800	-32.938	0.100
706.900	0.401	0.100
707.000	2.156	0.100
707.100	-21.400	0.100
707.200	18.590	0.100
707.300	-17.474	0.100
707.400	9.019	0.100
707.500	-16.127	0.100
707.600	-23.938	0.100
707.700	-7.333	0.100
707.800	-19.669	0.100
707.900	-3.573	0.100
708.000	-10.875	0.100
708.100	13.491	0.100
708.200	-46.405	0.100
708.300	15.921	0.100
708.400	-20.444	0.100
708.500	17.740	0.100
708.600	-7.121	0.100
708.700	-1.484	0.100
708.800	-10.653	0.100
708.900	-12.599	0.100
709.000	10.151	0.100
709.100	11.186	0.100
709.200	4.793	0.100
709.300	-20.645	0.100
709.400	9.626	0.100
709.500	5.785	0.100
709.600	-17.965	0.100
709.700	17.625	0.100
709.800	-7.052	0.100
709.900	0.235	0.100
710.000	-16.668	0.100
710.100	-3.868	0.100
710.200	-14.586	0.100
710.300	16.607	0.100
710.400	-16.082	0.100
710.500	-19.003	0.100
710.600	-27.701	0.100
710.700	20.079	0.100
710.800	2.429	0.100
710.900	-17.995	0.100
711.000	-33.264	0.100
711.100	6.455	0.100
711.200	-12.396	0.100
711.300	-0.974	0.100
711.400	-10.716	0.100
711.500	-0.787	0.100
711.600	-12.170	0.100
711.700	1.889	0.100
711.800	-4.803	0.100
711.900	-14.100	0.100
712.000	-18.877	0.100
712.100	-19.593	0.100
712.200	-27.204	0.100
712.300	-2.954	0.100
712.400	-13.971	0.100
712.500	-12.812	0.100
712.600	-15.334	0.100
712.700	3.125	0.100
712.800	-2.193	0.100
712.900	-28.472	0.100
713.000	9.770	0.100
713.100	-17.213	0.100
713.200	-1.686	0.100
713.300	-1.517	0.100
713.400	-23.951	0.100
713.500	-7.166	0.100
713.600	-32.972	0.100
713.700	-1.959	0.100
713.800	-9.161	0.100
713.900	-18.103	0.100
714.000	-7.480	0.100
714.100	-22.752	0.100
714.200	-5.350	0.100
714.300	2.912	0.100
714.400	4.996	0.100
714.500	-9.928	0.100
714.600	-37.175	0.100
714.700	20.699	0.100
714.800	-17.024	0.100
714.900	-24.601	0.100
715.000	-8.146	0.100
715.100	-9.807	0.100
715.200	-12.928	0.100
715.300	-25.049	0.100
715.400	-17.401	0.100
715.500	-17.978	0.100
715.600	-4.701	0.100
715.700	-11.432	0.100
715.800	-16.908	0.100
715.900	0.607	0.100
716.000	-8.212	0.100
716.100	-12.825	0.100
716.200	-8.394	0.100
716.300	-20.736	0.100
716.400	-8.344	0.100
716.500	-27.856	0.100
716.600	-25.159	0.100
716.700	-9.087	0.100
716.800	-11.624	0.100
716.900	-25.571	0.100
717.000	-9.198	0.100
717.100	-37.798	0.100
717.200	-26.964	0.100
717.300	-21.074	0.100
717.400	3.454	0.100
717.500	-22.842	0.100
717.600	-7.716	0.100
717.700	-16.181	0.100
717.800	-23.087	0.100
717.900	20.761	0.100
718.000	-6.514	0.100
718.100	-8.570	0.100
718.200	-22.261	0.100
718.300	-13.062	0.100
718.400	-13.031	0.100
718.500	-28.916	0.100
718.600	-17.471	0.100
718.700	-24.369	0.100
718.800	-31.907	0.100
718.900	23.081	0.100
719.000	-11.313	0.100
719.100	-3.939	0.100
719.200	-15.798	0.100
719.300	-14.281	0.100
719.400	-11.751	0.100
719.500	-2.105	0.100
719.600	-9.344	0.100
719.700	-17.757	0.100
719.800	-15.144	0.100
719.900	-40.423	0.100
720.000	-12.024	0.100
720.100	-10.433	0.100
720.200	-2.439	0.100
720.300	1.808	0.100
720.400	4.916	0.100
720.500	-28.509	0.100
720.600	-0.638	0.100
720.700	-22.737	0.100
720.800	-21.477	0.100
720.900	2.723	0.100
721.000	-29.437	0.100
721.100	-4.829	0.100
721.200	-17.494	0.100
721.300	-29.198	0.100
721.400	-0.335	0.100
721.500	-22.628	0.100
721.600	-4.085	0.100
721.700	-15.189	0.100
721.800	-37.721	0.100
721.900	-21.105	0.100
722.000	-29.245	0.100
722.100	-6.596	0.100
722.200	-5.350	0.100
722.300	-25.377	0.100
722.400	-24.951	0.100
722.500	-9.300	0.100
722.600	1.396	0.100
722.700	-10.993	0.100
722.800	-12.021	0.100
722.900	-25.754	0.100
723.000	-14.454	0.100
723.100	-6.879	0.100
723.200	-15.643	0.100
723.300	-20.752	0.100
723.400	-16.676	0.100
723.500	-24.418	0.100
723.600	-8.178	0.100
723.700	-40.603	0.100
723.800	-22.065	0.100
723.900	-21.060	0.100
724.000	-10.031	0.100
724.100	3.849	0.100
724.200	-14.005	0.100
724.300	-24.609	0.100
724.400	-13.658	0.100
724.500	-22.155	0.100
724.600	-31.489	0.100
724.700	-7.153	0.100
724.800	-19.284	0.100
724.900	-18.692	0.100
725.000	-18.916	0.100
725.100	-21.741	0.100
725.200	-20.138	0.100
725.300	-15.270	0.100
725.400	3.027	0.100
725.500	-38.082	0.100
725.600	-24.867	0.100
725.700	-23.586	0.100
725.800	-29.628	0.100
725.900	-14.285	0.100
726.000	4.359	0.100
726.100	-28.620	0.100
726.200	-24.293	0.100
726.300	-26.672	0.100
726.400	-20.716	0.100
726.500	5.084	0.100
726.600	-19.311	0.100
726.700	-14.973	0.100
726.800	-26.012	0.100
726.900	-10.722	0.100
727.000	-15.563	0.100
727.100	-16.623	0.100
727.200	-20.215	0.100
727.300	3.856	0.100
727.400	-16.519	0.100
727.500	-6.709	0.100
727.600	-14.604	0.100
727.700	5.376	0.100
727.800	-33.243	0.100
727.900	-42.162	0.100
728.000	-18.287	0.100
728.100	-36.672	0.100
728.200	-13.378	0.100
728.300	-11.435	0.100
728.400	-19.975	0.100
728.500	-9.593	0.100
728.600	-14.515	0.100
728.700	-28.472	0.100
728.800	-42.279	0.100
728.900	-29.015	0.100
729.000	4.035	0.100
729.100	-42.218	0.100
729.200	-9.978	0.100
729.300	-32.461	0.100
729.400	-9.976	0.100
729.500	-30.712	0.100
729.600	-12.104	0.100
729.700	-26.799	0.100
729.800	-29.908	0.100
729.900	-40.970	0.100
730.000	-4.992	0.100
730.100	-33.921	0.100
730.200	-25.758	0.100
730.300	-10.992	0.100
730.400	-22.442	0.100
730.500	-10.850	0.100
730.600	-33.165	0.100
730.700	-6.940	0.100
730.800	-17.140	0.100
730.900	-12.669	0.100
731.000	-16.607	0.100
731.100	-10.191	0.100
731.200	-23.775	0.100
731.300	-20.449	0.100
731.400	-8.048	0.100
731.500	-17.358	0.100
731.600	-20.317	0.100
731.700	-5.597	0.100
731.800	-28.404	0.100
731.900	-8.652	0.100
732.000	2.773	0.100
732.100	-59.579	0.100
732.200	-21.970	0.100
732.300	-7.993	0.100
732.400	-21.454	0.100
732.500	-16.846	0.100
732.600	-31.756	0.100
732.700	-36.633	0.100
732.800	4.634	0.100
732.900	-31.336	0.100
733.000	-23.819	0.100
733.100	-26.559	0.100
733.200	-3.990	0.100
733.300	-41.244	0.100
733.400	-12.648	0.100
733.500	-17.855	0.100
733.600	-9.989	0.100
733.700	-29.058	0.100
733.800	-14.768	0.100
733.900	-14.879	0.100
734.000	-13.328	0.100
734.100	-9.322	0.100
734.200	-30.771	0.100
734.300	-39.207	0.100
734.400	-10.315	0.100
734.500	-19.832	0.100
734.600	-13.232	0.100
734.700	-35.087	0.100
734.800	-14.880	0.100
734.900	-13.287	0.100
735.000	-41.474	0.100
735.100	-8.179	0.100
735.200	-47.121	0.100
735.300	-28.689	0.100
735.400	-21.666	0.100
735.500	-24.132	0.100
735.600	-40.921	0.100
735.700	-24.633	0.100
735.800	-24.235	0.100
735.900	-7.456	0.100
736.000	4.679	0.100
736.100	-27.133	0.100
736.200	-25.103	0.100
736.300	-24.757	0.100
736.400	-20.741	0.100
736.500	-37.671	0.100
736.600	-16.491	0.100
736.700	-9.673	0.100
736.800	-27.712	0.100
736.900	-2.450	0.100
737.000	-34.711	0.100
737.100	-16.639	0.100
737.200	-34.959	0.100
737.300	-16.945	0.100
737.400	-31.097	0.100
737.500	-25.482	0.100
737.600	-43.927	0.100
737.700	-22.764	0.100
737.800	-22.428	0.100
737.900	-13.535	0.100
738.000	-35.821	0.100
738.100	-39.038	0.100
738.200	-18.438	0.100
738.300	-10.688	0.100
738.400	-36.457	0.100
738.500	-14.861	0.100
738.600	-3.039	0.100
738.700	-17.091	0.100
738.800	-2.717	0.100
738.900	-52.631	0.100
739.000	-23.455	0.100
739.100	-31.060	0.100
739.200	-27.356	0.100
739.300	-34.511	0.100
739.400	-20.837	0.100
739.500	-9.360	0.100
739.600	-20.032	0.100
739.700	-4.652	0.100
739.800	-11.861	0.100
739.900	-32.099	0.100
740.000	-17.676	0.100
740.100	-11.007	0.100
740.200	-10.822	0.100
740.300	-9.037	0.100
740.400	-28.310	0.100
740.500	-21.175	0.100
740.600	-17.086	0.100
740.700	-15.610	0.100
740.800	-12.076	0.100
740.900	-19.340	0.100
741.000	-14.248	0.100
741.100	-34.614	0.100
741.200	-19.841	0.100
741.300	-18.781	0.100
741.400	-17.323	0.100
741.500	-38.635	0.100
741.600	-25.806	0.100
741.700	-26.574	0.100
741.800	-22.406	0.100
741.900	-18.514	0.100
742.000	-14.905	0.100
742.100	-20.284	0.100
742.200	-7.244	0.100
742.300	-25.337	0.100
742.400	-30.636	0.100
742.500	-36.450	0.100
742.600	-28.079	0.100
742.700	-25.805	0.100
742.800	-32.735	0.100
742.900	-8.055	0.100
743.000	-37.114	0.100
743.100	-23.358	0.100
743.200	6.047	0.100
743.300	-17.221	0.100
743.400	4.294	0.100
743.500	-33.285	0.100
743.600	-20.287	0.100
743.700	-33.256	0.100
743.800	-31.541	0.100
743.900	-50.661	0.100
744.000	-25.276	0.100
744.100	1.766	0.100
744.200	-7.700	0.100
744.300	-25.793	0.100
744.400	-8.994	0.100
744.500	-35.043	0.100
744.600	-27.231	0.100
744.700	-37.714	0.100
744.800	-22.653	0.100
744.900	-5.689	0.100
745.000	-10.214	0.100
745.100	-34.143	0.100
745.200	-15.762	0.100
745.300	-30.293	0.100
745.400	-44.276	0.100
745.500	-6.391	0.100
745.600	-30.432	0.100
745.700	-39.818	0.100
745.800	5.896	0.100
745.900	-22.955	0.100
746.000	-34.465	0.100
746.100	-29.842	0.100
746.200	-13.644	0.100
746.300	-23.020	0.100
746.400	12.656	0.100
746.500	-19.670	0.100
746.600	-20.650	0.100
746.700	-39.445	0.100
746.800	-27.633	0.100
746.900	-6.851	0.100
747.000	-15.635	0.100
747.100	-14.882	0.100
747.200	-23.470	0.100
747.300	-42.553	0.100
747.400	-33.729	0.100
747.500	11.659	0.100
747.600	-23.373	0.100
747.700	-27.017	0.100
747.800	-7.232	0.100
747.900	-24.415	0.100
748.000	-27.955	0.100
748.100	-15.048	0.100
748.200	-37.656	0.100
748.300	-11.538	0.100
748.400	-38.661	0.100
748.500	-61.681	0.100
748.600	-14.215	0.100
748.700	-20.149	0.100
748.800	-12.414	0.100
748.900	-26.302	0.100
749.000	-18.457	0.100
749.100	-15.492	0.100
749.200	-20.758	0.100
749.300	-17.245	0.100
749.400	-16.117	0.100
749.500	-24.149	0.100
749.600	-27.211	0.100
749.700	-27.650	0.100
749.800	-19.692	0.100
749.900	-8.603	0.100
750.000	-32.966	0.100
750.100	-17.304	0.100
750.200	-18.511	0.100
750.300	-22.901	0.100
750.400	-13.735	0.100
750.500	-31.952	0.100
750.600	-18.444	0.100
750.700	-26.189	0.100
750.800	-28.910	0.100
750.900	-19.155	0.100
751.000	-36.247	0.100
751.100	-11.774	0.100
751.200	-38.621	0.100
751.300	-27.654	0.100
751.400	-22.923	0.100
751.500	-27.274	0.100
751.600	-0.221	0.100
751.700	-7.599	0.100
751.800	-45.115	0.100
751.900	-24.526	0.100
752.000	-8.785	0.100
752.100	5.421	0.100
752.200	-47.468	0.100
752.300	-14.353	0.100
752.400	-34.043	0.100
752.500	-17.608	0.100
752.600	-48.337	0.100
752.700	2.843	0.100
752.800	-20.916	0.100
752.900	-4.573	0.100
753.000	-36.491	0.100
753.100	-27.227	0.100
753.200	-34.500	0.100
753.300	-31.996	0.100
753.400	-16.871	0.100
753.500	-13.111	0.100
753.600	-40.166	0.100
753.700	-23.237	0.100
753.800	-40.895	0.100
753.900	-6.511	0.100
754.000	-1.820	0.100
754.100	-23.899	0.100
754.200	-25.400	0.100
754.300	4.033	0.100
754.400	-42.080	0.100
754.500	-25.170	0.100
754.600	-24.276	0.100
754.700	-34.053	0.100
754.800	-10.990	0.100
754.900	-27.962	0.100
755.000	-33.528	0.100
755.100	-26.453	0.100
755.200	-8.485	0.100
755.300	-17.591	0.100
755.400	-16.509	0.100
755.500	-24.330	0.100
755.600	-34.189	0.100
755.700	-17.704	0.100
755.800	-3.389	0.100
755.900	-1.813	0.100
756.000	-25.477	0.100
756.100	-17.354	0.100
756.200	-32.103	0.100
756.300	-22.923	0.100
756.400	-17.597	0.100
756.500	-26.240	0.100
756.600	-35.940	0.100
756.700	-28.860	0.100
756.800	-12.181	0.100
756.900	-42.659	0.100
757.000	-37.738	0.100
757.100	-5.042	0.100
757.200	-20.304	0.100
757.300	-26.780	0.100
757.400	-4.496	0.100
757.500	3.659	0.100
757.600	-14.757	0.100
757.700	-29.970	0.100
757.800	-47.607	0.100
757.900	-16.311	0.100
758.000	-15.939	0.100
758.100	-20.825	0.100
758.200	-24.804	0.100
758.300	-3.485	0.100
758.400	-19.093	0.100
758.500	-5.675	0.100
758.600	-51.599	0.100
758.700	-11.607	0.100
758.800	-21.609	0.100
758.900	-29.475	0.100
759.000	-25.747	0.100
759.100	-27.345	0.100
759.200	-8.914	0.100
759.300	-32.759	0.100
759.400	-23.991	0.100
759.500	-15.815	0.100
759.600	-17.852	0.100
759.700	-27.755	0.100
759.800	-18.210	0.100
759.900	-20.859	0.100
760.000	-4.553	0.100
760.100	-18.835	0.100
760.200	-19.467	0.100
760.300	-26.515	0.100
760.400	-31.060	0.100
760.500	-24.733	0.100
760.600	-24.749	0.100
760.700	-11.635	0.100
760.800	-4.375	0.100
760.900	-24.910	0.100
761.000	-22.695	0.100
761.100	-17.112	0.100
761.200	-35.541	0.100
761.300	-32.710	0.100
761.400	-28.741	0.100
761.500	-37.497	0.100
761.600	16.798	0.100
761.700	-22.532	0.100
761.800	-21.947	0.100
761.900	-26.082	0.100
762.000	-32.519	0.100
762.100	-30.173	0.100
762.200	-22.968	0.100
762.300	-26.211	0.100
762.400	-17.176	0.100
762.500	-6.599	0.100
762.600	0.651	0.100
762.700	-8.759	0.100
762.800	-17.645	0.100
762.900	-32.345	0.100
763.000	-10.979	0.100
763.100	-38.025	0.100
763.200	-27.200	0.100
763.300	-34.646	0.100
763.400	-21.986	0.100
763.500	-17.293	0.100
763.600	-8.896	0.100
763.700	-9.315	0.100
763.800	-41.737	0.100
763.900	-6.166	0.100
764.000	-17.219	0.100
764.100	-48.598	0.100
764.200	-9.177	0.100
764.300	-16.374	0.100
764.400	-14.532	0.100
764.500	-21.407	0.100
764.600	-19.220	0.100
764.700	-31.226	0.100
764.800	-44.058	0.100
764.900	-34.845	0.100
765.000	-3.730	0.100
765.100	5.314	0.100
765.200	-26.730	0.100
765.300	-20.468	0.100
765.400	-7.283	0.100
765.500	-23.672	0.100
765.600	-18.605	0.100
765.700	-17.581	0.100
765.800	-40.698	0.100
765.900	-5.779	0.100
766.000	-16.617	0.100
766.100	-6.452	0.100
766.200	-20.914	0.100
766.300	-30.793	0.100
766.400	-29.389	0.100
766.500	-25.044	0.100
766.600	-8.786	0.100
766.700	-11.220	0.100
766.800	-23.271	0.100
766.900	-16.932	0.100
767.000	-24.338	0.100
767.100	-34.228	0.100
767.200	-37.002	0.100
767.300	-10.539	0.100
767.400	-22.433	0.100
767.500	-5.457	0.100
767.600	-18.096	0.100
767.700	-21.105	0.100
767.800	-4.045	0.100
767.900	-35.843	0.100
768.000	-27.318	0.100
768.100	-25.971	0.100
768.200	-1.903	0.100
768.300	-21.832	0.100
768.400	-10.168	0.100
768.500	-30.268	0.100
768.600	-31.710	0.100
768.700	-10.043	0.100
768.800	-25.468	0.100
768.900	-44.411	0.100
769.000	-26.022	0.100
769.100	-8.139	0.100
769.200	-19.019	0.100
769.300	-6.296	0.100
769.400	-20.101	0.100
769.500	-17.321	0.100
769.600	-14.995	0.100
769.700	-26.515	0.100
769.800	-20.799	0.100
769.900	-24.037	0.100
770.000	-4.759	0.100
770.100	-2.801	0.100
770.200	-12.687	0.100
770.300	-10.656	0.100
770.400	-19.797	0.100
770.500	-28.924	0.100
770.600	-45.462	0.100
770.700	-20.055	0.100
770.800	-20.567	0.100
770.900	-13.589	0.100
771.000	-14.568	0.100
771.100	-14.540	0.100
771.200	-10.304	0.100
771.300	-5.558	0.100
771.400	-23.077	0.100
771.500	-21.660	0.100
771.600	-18.602	0.100
771.700	-37.715	0.100
771.800	-4.933	0.100
771.900	-13.405	0.100
772.000	-6.924	0.100
772.100	-25.225	0.100
772.200	-8.722	0.100
772.300	1.154	0.100
772.400	-32.017	0.100
772.500	-21.168	0.100
772.600	-34.204	0.100
772.700	-20.586	0.100
772.800	-15.455	0.100
772.900	-17.087	0.100
773.000	-22.078	0.100
773.100	-41.281	0.100
773.200	-15.110	0.100
773.300	-20.449	0.100
773.400	-9.650	0.100
773.500	-16.915	0.100
773.600	-28.957	0.100
773.700	-40.639	0.100
773.800	-25.617	0.100
773.900	-5.993	0.100
774.000	-41.346	0.100
774.100	-10.992	0.100
774.200	-26.999	0.100
774.300	5.304	0.100
774.400	-3.168	0.100
774.500	-13.586	0.100
774.600	-26.017	0.100
774.700	-33.979	0.100
774.800	-36.605	0.100
774.900	-11.734	0.100
775.000	-24.443	0.100
775.100	-28.206	0.100
775.200	-17.306	0.100
775.300	-14.083	0.100
775.400	-7.154	0.100
775.500	-46.893	0.100
775.600	-8.983	0.100
775.700	-12.734	0.100
775.800	-2.999	0.100
775.900	-26.920	0.100
776.000	-33.254	0.100
776.100	-15.761	0.100
776.200	-21.316	0.100
776.300	-22.127	0.100
776.400	-25.471	0.100
776.500	-8.756	0.100
776.600	-26.844	0.100
776.700	-37.090	0.100
776.800	-35.762	0.100
776.900	-22.356	0.100
777.000	-29.204	0.100
777.100	-12.882	0.100
777.200	-15.866	0.100
777.300	-16.761	0.100
777.400	-11.057	0.100
777.500	0.176	0.100
777.600	-13.923	0.100
777.700	-30.589	0.100
777.800	-17.464	0.100
777.900	-22.271	0.100
778.000	-21.835	0.100
778.100	-13.014	0.100
778.200	-19.630	0.100
778.300	-4.886	0.100
778.400	-29.280	0.100
778.500	-34.916	0.100
778.600	-20.526	0.100
778.700	-14.907	0.100
778.800	-23.012	0.100
778.900	-18.066	0.100
779.000	-19.842	0.100
779.100	-23.214	0.100
779.200	-27.546	0.100
779.300	-33.876	0.100
779.400	-3.573	0.100
779.500	-4.816	0.100
779.600	1.730	0.100
779.700	-33.235	0.100
779.800	-12.084	0.100
779.900	-47.157	0.100
780.000	-43.206	0.100
780.100	-17.734	0.100
780.200	-41.964	0.100
780.300	-14.204	0.100
780.400	-22.732	0.100
780.500	-8.259	0.100
780.600	-35.205	0.100
780.700	1.088	0.100
780.800	-12.103	0.100
780.900	-35.896	0.100
781.000	1.414	0.100
781.100	-3.138	0.100
781.200	-16.477	0.100
781.300	-0.838	0.100
781.400	-31.109	0.100
781.500	12.359	0.100
781.600	17.020	0.100
781.700	-11.903	0.100
781.800	3.576	0.100
781.900	-0.028	0.100
782.000	-21.803	0.100
782.100	16.184	0.100
782.200	16.286	0.100
782.300	-36.188	0.100
782.400	7.785	0.100
782.500	0.288	0.100
782.600	27.898	0.100
782.700	-7.379	0.100
782.800	1.351	0.100
782.900	28.621	0.100
783.000	23.362	0.100
783.100	14.618	0.100
783.200	4.404	0.100
783.300	-24.415	0.100
783.400	6.684	0.100
783.500	20.245	0.100
783.600	14.364	0.100
783.700	21.297	0.100
783.800	12.514	0.100
783.900	39.067	0.100
784.000	15.351	0.100
784.100	24.986	0.100
784.200	17.202	0.100
784.300	-9.175	0.100
784.400	-10.300	0.100
784.500	18.490	0.100
784.600	-3.965	0.100
784.700	-6.885	0.100
784.800	11.958	0.100
784.900	35.815	0.100
785.000	35.863	0.100
785.100	21.213	0.100
785.200	35.180	0.100
785.300	28.611	0.100
785.400	23.222	0.100
785.500	18.416	0.100
785.600	35.734	0.100
785.700	2.336	0.100
785.800	30.666	0.100
785.900	29.040	0.100
786.000	-0.441	0.100
786.100	2.456	0.100
786.200	24.523	0.100
786.300	24.918	0.100
786.400	22.831	0.100
786.500	44.455	0.100
786.600	18.412	0.100
786.700	8.827	0.100
786.800	33.879	0.100
786.900	18.909	0.100
787.000	34.312	0.100
787.100	29.276	0.100
787.200	-16.527	0.100
787.300	17.644	0.100
787.400	44.927	0.100
787.500	17.434	0.100
787.600	40.164	0.100
787.700	15.231	0.100
787.800	24.328	0.100
787.900	0.548	0.100
788.000	33.879	0.100
788.100	29.675	0.100
788.200	29.798	0.100
788.300	9.492	0.100
788.400	-9.417	0.100
788.500	32.119	0.100
788.600	14.267	0.100
788.700	22.447	0.100
788.800	25.471	0.100
788.900	16.393	0.100
789.000	-2.464	0.100
789.100	18.918	0.100
789.200	7.402	0.100
789.300	20.445	0.100
789.400	35.031	0.100
789.500	29.423	0.100
789.600	26.883	0.100
789.700	4.084	0.100
789.800	16.745	0.100
789.900	42.636	0.100
790.000	25.383	0.100
790.100	39.665	0.100
790.200	18.305	0.100
790.300	11.458	0.100
790.400	6.401	0.100
790.500	21.404	0.100
790.600	11.167	0.100
790.700	30.666	0.100
790.800	20.919	0.100
790.900	15.265	0.100
791.000	17.100	0.100
791.100	28.600	0.100
791.200	10.760	0.100
791.300	19.429	0.100
791.400	18.915	0.100
791.500	11.129	0.100
791.600	6.759	0.100
791.700	13.912	0.100
791.800	43.813	0.100
791.900	17.778	0.100
792.000	12.381	0.100
792.100	17.076	0.100
792.200	14.563	0.100
792.300	9.176	0.100
792.400	34.187	0.100
792.500	34.677	0.100
792.600	11.036	0.100
792.700	26.693	0.100
792.800	4.252	0.100
792.900	23.505	0.100
793.000	24.697	0.100
793.100	17.636	0.100
793.200	-8.322	0.100
793.300	-2.295	0.100
793.400	35.792	0.100
793.500	9.344	0.100
793.600	24.408	0.100
793.700	22.958	0.100
793.800	14.014	0.100
793.900	18.091	0.100
794.000	22.516	0.100
794.100	4.203	0.100
794.200	17.002	0.100
794.300	44.791	0.100
794.400	6.149	0.100
794.500	18.922	0.100
794.600	28.930	0.100
794.700	21.121	0.100
794.800	35.905	0.100
794.900	23.987	0.100
795.000	0.165	0.100
795.100	-8.213	0.100
795.200	43.244	0.100
795.300	19.199	0.100
795.400	42.720	0.100
795.500	30.252	0.100
795.600	34.673	0.100
795.700	12.178	0.100
795.800	-3.359	0.100
795.900	2.348	0.100
796.000	24.127	0.100
796.100	22.001	0.100
796.200	11.527	0.100
796.300	12.074	0.100
796.400	10.559	0.100
796.500	43.736	0.100
796.600	13.351	0.100
796.700	40.814	0.100
796.800	20.136	0.100
796.900	10.306	0.100
797.000	-3.149	0.100
797.100	13.234	0.100
797.200	22.752	0.100
797.300	31.042	0.100
797.400	38.716	0.100
797.500	6.302	0.100
797.600	10.671	0.100
797.700	26.645	0.100
797.800	19.119	0.100
797.900	30.337	0.100
798.000	21.809	0.100
798.100	29.782	0.100
798.200	11.891	0.100
798.300	6.229	0.100
798.400	17.242	0.100
798.500	20.914	0.100
798.600	40.369	0.100
798.700	22.169	0.100
798.800	18.553	0.100
798.900	32.728	0.100
799.000	19.697	0.100
799.100	1.737	0.100
799.200	33.837	0.100
799.300	14.528	0.100
799.400	-1.145	0.100
799.500	12.741	0.100
799.600	41.034	0.100
799.700	23.009	0.100
799.800	19.579	0.100
799.900	43.057	0.100
800.000	18.293	0.100
