time /s	I /nA	E /V
0.100	-27.115	0.100
0.200	-9.049	0.100
0.300	19.273	0.100
0.400	7.012	0.100
0.500	-14.531	0.100
0.600	-12.128	0.100
0.700	-9.354	0.100
0.800	-22.671	0.100
0.900	-16.152	0.100
1.000	-36.539	0.100
1.100	-8.719	0.100
1.200	-42.515	0.100
1.300	-1.543	0.100
1.400	-27.624	0.100
1.500	-16.402	0.100
1.600	2.063	0.100
1.700	-23.171	0.100
1.800	-5.273	0.100
1.900	-2.117	0.100
2.000	-35.702	0.100
2.100	-14.883	0.100
2.200	-12.630	0.100
2.300	-11.881	0.100
2.400	-53.523	0.100
2.500	-43.583	0.100
2.600	-1.330	0.100
2.700	0.752	0.100
2.800	-11.774	0.100
2.900	5.624	0.100
3.000	-24.591	0.100
3.100	-12.852	0.100
3.200	-7.041	0.100
3.300	-43.587	0.100
3.400	6.180	0.100
3.500	3.749	0.100
3.600	-19.067	0.100
3.700	-23.331	0.100
3.800	-16.893	0.100
3.900	9.715	0.100
4.000	-3.547	0.100
4.100	-17.523	0.100
4.200	-23.785	0.100
4.300	-19.699	0.100
4.400	6.779	0.100
4.500	-34.442	0.100
4.600	-30.279	0.100
4.700	-8.857	0.100
4.800	-28.621	0.100
4.900	-10.153	0.100
5.000	6.404	0.100
5.100	-11.361	0.100
5.200	0.614	0.100
5.300	-9.779	0.100
5.400	-28.362	0.100
5.500	-1.676	0.100
5.600	-18.313	0.100
5.700	-43.116	0.100
5.800	-9.323	0.100
5.900	1.931	0.100
6.000	-17.525	0.100
6.100	-27.635	0.100
6.200	-14.359	0.100
6.300	1.957	0.100
6.400	-1.886	0.100
6.500	-28.297	0.100
6.600	-32.621	0.100
6.700	-25.717	0.100
6.800	7.815	0.100
6.900	-12.490	0.100
7.000	-10.145	0.100
7.100	-19.670	0.100
7.200	-4.180	0.100
7.300	-31.809	0.100
7.400	-17.408	0.100
7.500	-27.941	0.100
7.600	-16.069	0.100
7.700	-15.712	0.100
7.800	-15.888	0.100
7.900	-8.242	0.100
8.000	-39.439	0.100
8.100	20.689	0.100
8.200	-11.650	0.100
8.300	-16.970	0.100
8.400	-33.398	0.100
8.500	0.849	0.100
8.600	-10.881	0.100
8.700	-11.617	0.100
8.800	-1.904	0.100
8.900	-21.824	0.100
9.000	-17.224	0.100
9.100	-9.456	0.100
9.200	5.097	0.100
9.300	-7.821	0.100
9.400	-28.478	0.100
9.500	-1.593	0.100
9.600	-23.523	0.100
9.700	-40.913	0.100
9.800	-0.385	0.100
9.900	-29.929	0.100
10.000	-20.173	0.100
10.100	-1.367	0.100
10.200	-8.134	0.100
10.300	-1.625	0.100
10.400	1.014	0.100
10.500	-7.850	0.100
10.600	-16.493	0.100
10.700	-4.935	0.100
10.800	-16.679	0.100
10.900	-33.612	0.100
11.000	-17.627	0.100
11.100	1.668	0.100
11.200	-17.444	0.100
11.300	-40.034	0.100
11.400	-12.560	0.100
11.500	-23.154	0.100
11.600	-6.441	0.100
11.700	-38.175	0.100
11.800	-18.080	0.100
11.900	-8.970	0.100
12.000	-0.670	0.100
12.100	-12.679	0.100
12.200	-22.331	0.100
12.300	-10.354	0.100
12.400	17.953	0.100
12.500	-22.612	0.100
12.600	-3.829	0.100
12.700	-5.404	0.100
12.800	-16.989	0.100
12.900	-29.946	0.100
13.000	-34.043	0.100
13.100	-21.345	0.100
13.200	-9.379	0.100
13.300	-20.923	0.100
13.400	-16.031	0.100
13.500	6.733	0.100
13.600	-20.022	0.100
13.700	-2.070	0.100
13.800	-8.197	0.100
13.900	-12.444	0.100
14.000	-19.337	0.100
14.100	-17.563	0.100
14.200	-42.334	0.100
14.300	-17.812	0.100
14.400	-2.982	0.100
14.500	-3.225	0.100
14.600	-27.029	0.100
14.700	-12.864	0.100
14.800	-26.492	0.100
14.900	-26.540	0.100
15.000	-23.277	0.100
15.100	-4.393	0.100
15.200	5.587	0.100
15.300	-34.759	0.100
15.400	6.402	0.100
15.500	-26.861	0.100
15.600	-14.784	0.100
15.700	-19.833	0.100
15.800	-9.036	0.100
15.900	-24.518	0.100
16.000	-16.071	0.100
16.100	-56.392	0.100
16.200	8.720	0.100
16.300	-16.090	0.100
16.400	-17.039	0.100
16.500	-0.253	0.100
16.600	-1.551	0.100
16.700	-15.515	0.100
16.800	-34.024	0.100
16.900	-1.064	0.100
17.000	-13.097	0.100
17.100	-21.676	0.100
17.200	-9.629	0.100
17.300	-26.350	0.100
17.400	-29.331	0.100
17.500	-10.838	0.100
17.600	-7.813	0.100
17.700	-31.790	0.100
17.800	-12.138	0.100
17.900	-33.430	0.100
18.000	-18.431	0.100
18.100	-14.820	0.100
18.200	-6.802	0.100
18.300	10.474	0.100
18.400	-43.476	0.100
18.500	-15.985	0.100
18.600	3.982	0.100
18.700	-11.103	0.100
18.800	4.153	0.100
18.900	-18.109	0.100
19.000	-7.312	0.100
19.100	-27.182	0.100
19.200	1.820	0.100
19.300	-26.414	0.100
19.400	-13.383	0.100
19.500	-11.208	0.100
19.600	4.151	0.100
19.700	-12.337	0.100
19.800	-27.313	0.100
19.900	-7.915	0.100
20.000	-30.237	0.100
20.100	2.768	0.100
20.200	-5.871	0.100
20.300	-18.423	0.100
20.400	-29.841	0.100
20.500	-14.880	0.100
20.600	6.219	0.100
20.700	-9.350	0.100
20.800	-16.863	0.100
20.900	-16.296	0.100
21.000	-8.578	0.100
21.100	-12.166	0.100
21.200	5.262	0.100
21.300	-7.335	0.100
21.400	-25.324	0.100
21.500	-9.713	0.100
21.600	-21.574	0.100
21.700	-35.427	0.100
21.800	-1.513	0.100
21.900	-17.013	0.100
22.000	-15.289	0.100
22.100	-2.956	0.100
22.200	1.022	0.100
22.300	-18.152	0.100
22.400	-30.200	0.100
22.500	-37.259	0.100
22.600	-13.418	0.100
22.700	-13.187	0.100
22.800	0.147	0.100
22.900	-9.510	0.100
23.000	-12.575	0.100
23.100	-27.607	0.100
23.200	0.198	0.100
23.300	-24.436	0.100
23.400	-3.014	0.100
23.500	18.775	0.100
23.600	-20.773	0.100
23.700	-2.200	0.100
23.800	-11.456	0.100
23.900	-18.565	0.100
24.000	-14.103	0.100
24.100	-12.433	0.100
24.200	2.841	0.100
24.300	-11.744	0.100
24.400	-20.854	0.100
24.500	1.404	0.100
24.600	-8.677	0.100
24.700	-16.986	0.100
24.800	-5.356	0.100
24.900	-30.076	0.100
25.000	-18.120	0.100
25.100	-0.400	0.100
25.200	-15.870	0.100
25.300	-31.330	0.100
25.400	-32.557	0.100
25.500	-0.692	0.100
25.600	4.034	0.100
25.700	-14.658	0.100
25.800	-25.376	0.100
25.900	-3.693	0.100
26.000	9.593	0.100
26.100	-17.947	0.100
26.200	-18.965	0.100
26.300	-15.208	0.100
26.400	-3.929	0.100
26.500	-8.648	0.100
26.600	-3.962	0.100
26.700	-29.944	0.100
26.800	-20.165	0.100
26.900	-4.305	0.100
27.000	5.987	0.100
27.100	3.935	0.100
27.200	-12.474	0.100
27.300	-15.856	0.100
27.400	-19.326	0.100
27.500	-46.448	0.100
27.600	-7.305	0.100
27.700	-17.423	0.100
27.800	-13.871	0.100
27.900	3.269	0.100
28.000	5.434	0.100
28.100	-30.117	0.100
28.200	-14.831	0.100
28.300	8.379	0.100
28.400	-10.131	0.100
28.500	-21.087	0.100
28.600	-19.272	0.100
28.700	-10.703	0.100
28.800	-6.856	0.100
28.900	-12.425	0.100
29.000	-19.624	0.100
29.100	-21.460	0.100
29.200	-1.341	0.100
29.300	-27.864	0.100
29.400	-19.726	0.100
29.500	-6.657	0.100
29.600	14.415	0.100
29.700	-10.388	0.100
29.800	-13.600	0.100
29.900	-9.571	0.100
30.000	-2.203	0.100
30.100	-7.923	0.100
30.200	-6.922	0.100
30.300	-15.384	0.100
30.400	-12.182	0.100
30.500	-15.434	0.100
30.600	-21.617	0.100
30.700	-4.145	0.100
30.800	-8.791	0.100
30.900	5.105	0.100
31.000	12.535	0.100
31.100	12.277	0.100
31.200	9.360	0.100
31.300	-8.181	0.100
31.400	-7.297	0.100
31.500	18.982	0.100
31.600	6.508	0.100
31.700	-15.283	0.100
31.800	5.322	0.100
31.900	25.616	0.100
32.000	22.199	0.100
32.100	-1.356	0.100
32.200	14.440	0.100
32.300	36.899	0.100
32.400	-3.037	0.100
32.500	17.454	0.100
32.600	30.047	0.100
32.700	29.978	0.100
32.800	5.076	0.100
32.900	31.816	0.100
33.000	-5.035	0.100
33.100	34.141	0.100
33.200	20.084	0.100
33.300	8.904	0.100
33.400	11.662	0.100
33.500	30.885	0.100
33.600	19.574	0.100
33.700	-7.161	0.100
33.800	14.671	0.100
33.900	21.046	0.100
34.000	13.598	0.100
34.100	23.281	0.100
34.200	24.195	0.100
34.300	6.329	0.100
34.400	17.344	0.100
34.500	2.326	0.100
34.600	25.850	0.100
34.700	26.185	0.100
34.800	39.795	0.100
34.900	31.510	0.100
35.000	23.666	0.100
35.100	16.990	0.100
35.200	14.519	0.100
35.300	4.670	0.100
35.400	12.618	0.100
35.500	27.521	0.100
35.600	20.832	0.100
35.700	31.284	0.100
35.800	16.320	0.100
35.900	12.674	0.100
36.000	10.346	0.100
36.100	12.389	0.100
36.200	9.213	0.100
36.300	26.321	0.100
36.400	11.092	0.100
36.500	13.957	0.100
36.600	21.236	0.100
36.700	0.282	0.100
36.800	17.717	0.100
36.900	15.400	0.100
37.000	8.917	0.100
37.100	17.329	0.100
37.200	-21.895	0.100
37.300	11.009	0.100
37.400	25.435	0.100
37.500	18.272	0.100
37.600	1.400	0.100
37.700	24.981	0.100
37.800	6.281	0.100
37.900	15.106	0.100
38.000	-17.063	0.100
38.100	35.980	0.100
38.200	10.906	0.100
38.300	8.877	0.100
38.400	5.432	0.100
38.500	14.311	0.100
38.600	23.867	0.100
38.700	23.517	0.100
38.800	19.678	0.100
38.900	6.975	0.100
39.000	9.549	0.100
39.100	-15.921	0.099
39.200	17.026	0.100
39.300	19.186	0.100
39.400	22.915	0.100
39.500	18.405	0.100
39.600	9.164	0.100
39.700	9.418	0.100
39.800	21.386	0.100
39.900	18.376	0.100
40.000	4.518	0.100
40.100	3.472	0.100
40.200	11.290	0.100
40.300	14.714	0.100
40.400	6.369	0.100
40.500	20.465	0.100
40.600	4.985	0.100
40.700	24.597	0.100
40.800	22.235	0.100
40.900	11.383	0.100
41.000	6.216	0.100
41.100	7.256	0.099
41.200	-5.797	0.100
41.300	43.446	0.100
41.400	23.389	0.100
41.500	8.235	0.100
41.600	1.760	0.100
41.700	35.357	0.100
41.800	12.978	0.100
41.900	35.729	0.100
42.000	5.344	0.100
42.100	-12.105	0.100
42.200	22.293	0.100
42.300	4.477	0.100
42.400	30.944	0.100
42.500	11.056	0.099
42.600	32.561	0.100
42.700	5.449	0.100
42.800	-8.547	0.099
42.900	11.304	0.100
43.000	28.414	0.100
43.100	27.386	0.100
43.200	1.485	0.100
43.300	5.887	0.100
43.400	24.320	0.099
43.500	-6.484	0.099
43.600	5.265	0.099
43.700	19.887	0.099
43.800	33.841	0.099
43.900	2.356	0.099
44.000	20.093	0.099
44.100	16.440	0.099
44.200	8.044	0.099
44.300	36.338	0.100
44.400	24.763	0.099
44.500	-2.861	0.100
44.600	15.542	0.099
44.700	34.913	0.100
44.800	16.245	0.099
44.900	6.848	0.099
45.000	32.040	0.099
45.100	31.773	0.099
45.200	16.467	0.099
45.300	29.698	0.099
45.400	9.664	0.099
45.500	16.475	0.099
45.600	-7.376	0.099
45.700	31.973	0.099
45.800	45.566	0.099
45.900	12.564	0.099
46.000	14.410	0.099
46.100	0.628	0.099
46.200	19.061	0.099
46.300	25.237	0.099
46.400	0.545	0.099
46.500	19.809	0.099
46.600	17.387	0.099
46.700	3.071	0.099
46.800	16.534	0.099
46.900	34.729	0.099
47.000	9.489	0.100
47.100	53.638	0.100
47.200	16.400	0.099
47.300	25.305	0.099
47.400	21.179	0.099
47.500	-5.957	0.099
47.600	28.436	0.099
47.700	8.914	0.099
47.800	18.864	0.099
47.900	18.817	0.099
48.000	17.745	0.099
48.100	20.436	0.099
48.200	29.969	0.099
48.300	17.490	0.099
48.400	14.414	0.099
48.500	15.253	0.099
48.600	21.230	0.099
48.700	31.511	0.099
48.800	23.758	0.099
48.900	41.900	0.099
49.000	4.528	0.099
49.100	6.516	0.099
49.200	15.230	0.099
49.300	46.053	0.099
49.400	27.524	0.099
49.500	21.497	0.100
49.600	26.470	0.099
49.700	12.198	0.099
49.800	27.374	0.099
49.900	23.989	0.099
50.000	26.671	0.099
50.100	13.826	0.099
50.200	30.592	0.099
50.300	8.474	0.099
50.400	9.936	0.099
50.500	24.407	0.099
50.600	45.919	0.099
50.700	29.700	0.099
50.800	13.559	0.099
50.900	20.972	0.099
51.000	27.143	0.099
51.100	34.068	0.099
51.200	38.935	0.099
51.300	27.597	0.099
51.400	9.061	0.099
51.500	38.888	0.099
51.600	18.807	0.099
51.700	52.860	0.099
51.800	9.350	0.099
51.900	5.415	0.099
52.000	38.690	0.099
52.100	22.305	0.099
52.200	37.695	0.099
52.300	26.387	0.099
52.400	28.139	0.099
52.500	9.261	0.099
52.600	11.305	0.099
52.700	49.579	0.099
52.800	30.546	0.099
52.900	37.545	0.099
53.000	22.760	0.099
53.100	1.772	0.099
53.200	41.266	0.099
53.300	13.020	0.099
53.400	21.987	0.099
53.500	43.313	0.099
53.600	20.963	0.099
53.700	26.772	0.099
53.800	18.898	0.099
53.900	37.446	0.099
54.000	49.699	0.099
54.100	36.585	0.099
54.200	27.182	0.099
54.300	49.121	0.099
54.400	12.861	0.099
54.500	61.143	0.099
54.600	16.019	0.099
54.700	32.321	0.099
54.800	2.877	0.099
54.900	14.678	0.099
55.000	25.832	0.099
55.100	14.974	0.099
55.200	37.317	0.099
55.300	45.612	0.099
55.400	29.269	0.099
55.500	31.238	0.099
55.600	19.458	0.099
55.700	32.228	0.099
55.800	29.079	0.099
55.900	15.087	0.099
56.000	38.127	0.099
56.100	54.959	0.099
56.200	24.646	0.099
56.300	23.772	0.099
56.400	3.661	0.099
56.500	26.502	0.099
56.600	45.728	0.099
56.700	26.465	0.099
56.800	43.243	0.099
56.900	10.735	0.099
57.000	27.153	0.099
57.100	29.026	0.099
57.200	40.091	0.099
57.300	29.729	0.099
57.400	41.017	0.099
57.500	50.002	0.099
57.600	31.272	0.099
57.700	21.609	0.099
57.800	33.844	0.099
57.900	23.418	0.099
58.000	28.053	0.099
58.100	54.455	0.099
58.200	47.569	0.099
58.300	31.991	0.099
58.400	39.778	0.099
58.500	49.380	0.099
58.600	30.995	0.099
58.700	31.327	0.099
58.800	41.653	0.099
58.900	20.317	0.099
59.000	19.988	0.099
59.100	43.204	0.099
59.200	43.294	0.099
59.300	32.989	0.099
59.400	14.686	0.099
59.500	32.112	0.099
59.600	33.580	0.099
59.700	41.593	0.099
59.800	49.604	0.099
59.900	53.829	0.099
60.000	29.587	0.099
60.100	45.524	0.099
60.200	37.477	0.099
60.300	37.173	0.099
60.400	26.612	0.099
60.500	42.894	0.099
60.600	21.400	0.099
60.700	32.386	0.099
60.800	25.223	0.099
60.900	47.996	0.099
61.000	37.549	0.099
61.100	42.696	0.099
61.200	54.595	0.099
61.300	29.939	0.099
61.400	22.445	0.099
61.500	10.411	0.099
61.600	40.887	0.099
61.700	50.133	0.099
61.800	40.981	0.099
61.900	58.893	0.099
62.000	27.218	0.099
62.100	26.683	0.099
62.200	52.028	0.099
62.300	39.216	0.099
62.400	42.807	0.099
62.500	47.438	0.099
62.600	55.234	0.099
62.700	40.362	0.099
62.800	33.895	0.099
62.900	27.598	0.099
63.000	37.369	0.099
63.100	46.675	0.099
63.200	50.001	0.099
63.300	42.125	0.099
63.400	41.091	0.099
63.500	29.971	0.099
63.600	19.746	0.099
63.700	30.725	0.099
63.800	57.019	0.099
63.900	18.938	0.099
64.000	51.577	0.099
64.100	52.467	0.099
64.200	60.931	0.099
64.300	42.324	0.099
64.400	0.474	0.099
64.500	50.684	0.099
64.600	63.099	0.099
64.700	20.817	0.099
64.800	41.275	0.099
64.900	31.174	0.099
65.000	37.753	0.099
65.100	37.188	0.099
65.200	17.155	0.099
65.300	30.761	0.099
65.400	52.974	0.099
65.500	35.581	0.099
65.600	48.325	0.099
65.700	49.581	0.099
65.800	55.398	0.099
65.900	15.992	0.099
66.000	40.318	0.099
66.100	61.091	0.099
66.200	34.801	0.099
66.300	55.085	0.099
66.400	42.326	0.099
66.500	56.323	0.099
66.600	45.535	0.099
66.700	28.778	0.099
66.800	41.098	0.099
66.900	31.774	0.099
67.000	27.374	0.099
67.100	29.113	0.099
67.200	41.399	0.099
67.300	56.361	0.099
67.400	35.389	0.099
67.500	31.697	0.099
67.600	35.964	0.099
67.700	45.268	0.099
67.800	41.781	0.099
67.900	42.635	0.099
68.000	53.189	0.099
68.100	41.936	0.099
68.200	53.854	0.099
68.300	21.752	0.099
68.400	52.877	0.099
68.500	42.441	0.099
68.600	47.115	0.099
68.700	20.901	0.099
68.800	29.961	0.099
68.900	54.012	0.099
69.000	43.119	0.099
69.100	40.610	0.099
69.200	28.329	0.099
69.300	35.509	0.099
69.400	29.004	0.099
69.500	55.119	0.099
69.600	23.271	0.099
69.700	36.919	0.099
69.800	35.115	0.099
69.900	50.917	0.099
70.000	53.742	0.099
70.100	39.106	0.099
70.200	16.640	0.099
70.300	32.275	0.099
70.400	38.465	0.099
70.500	38.213	0.099
70.600	45.920	0.099
70.700	30.855	0.099
70.800	35.053	0.099
70.900	32.034	0.099
71.000	44.770	0.099
71.100	45.048	0.099
71.200	40.915	0.099
71.300	40.426	0.099
71.400	46.849	0.099
71.500	27.375	0.099
71.600	36.811	0.099
71.700	34.710	0.099
71.800	37.471	0.099
71.900	14.191	0.099
72.000	61.721	0.099
72.100	45.328	0.099
72.200	15.289	0.099
72.300	42.172	0.099
72.400	41.031	0.099
72.500	-5.607	0.099
72.600	45.808	0.099
72.700	22.734	0.099
72.800	31.462	0.099
72.900	63.731	0.099
73.000	40.773	0.099
73.100	32.726	0.099
73.200	27.702	0.099
73.300	38.175	0.099
73.400	43.713	0.099
73.500	43.560	0.099
73.600	26.677	0.099
73.700	64.790	0.099
73.800	23.580	0.099
73.900	33.612	0.099
74.000	55.129	0.099
74.100	28.928	0.099
74.200	41.733	0.099
74.300	43.120	0.099
74.400	32.967	0.099
74.500	38.608	0.099
74.600	43.186	0.099
74.700	27.876	0.099
74.800	57.022	0.099
74.900	27.097	0.099
75.000	46.560	0.099
75.100	24.494	0.099
75.200	56.659	0.099
75.300	13.636	0.099
75.400	64.591	0.099
75.500	23.270	0.099
75.600	34.673	0.099
75.700	34.275	0.099
75.800	34.895	0.099
75.900	32.058	0.099
76.000	42.402	0.099
76.100	60.644	0.099
76.200	30.995	0.099
76.300	35.752	0.099
76.400	46.715	0.099
76.500	28.350	0.099
76.600	40.372	0.099
76.700	47.312	0.099
76.800	21.335	0.099
76.900	74.726	0.099
77.000	33.191	0.099
77.100	55.541	0.099
77.200	35.194	0.099
77.300	30.286	0.099
77.400	30.503	0.099
77.500	32.142	0.099
77.600	33.820	0.099
77.700	20.791	0.099
77.800	39.959	0.099
77.900	39.767	0.099
78.000	46.090	0.099
78.100	7.138	0.099
78.200	35.715	0.099
78.300	39.811	0.099
78.400	23.366	0.099
78.500	37.629	0.099
78.600	11.829	0.099
78.700	38.600	0.099
78.800	31.631	0.099
78.900	23.251	0.099
79.000	16.053	0.099
79.100	34.236	0.099
79.200	64.298	0.099
79.300	43.321	0.099
79.400	35.348	0.099
79.500	31.117	0.099
79.600	49.324	0.099
79.700	33.700	0.099
79.800	34.581	0.099
79.900	66.000	0.099
80.000	40.020	0.099
80.100	12.251	0.099
80.200	-1.644	0.099
80.300	28.220	0.099
80.400	64.413	0.099
80.500	38.752	0.099
80.600	37.302	0.099
80.700	28.153	0.099
80.800	30.637	0.099
80.900	37.433	0.099
81.000	31.650	0.099
81.100	12.235	0.099
81.200	56.710	0.099
81.300	51.884	0.099
81.400	39.767	0.099
81.500	37.784	0.099
81.600	41.428	0.099
81.700	31.005	0.099
81.800	44.830	0.099
81.900	24.236	0.099
82.000	52.218	0.099
82.100	57.158	0.099
82.200	25.639	0.099
82.300	47.111	0.099
82.400	44.907	0.099
82.500	15.512	0.099
82.600	38.440	0.099
82.700	54.679	0.099
82.800	25.471	0.099
82.900	2.733	0.099
83.000	36.541	0.099
83.100	45.604	0.099
83.200	44.637	0.099
83.300	2.872	0.099
83.400	31.373	0.099
83.500	56.800	0.099
83.600	53.519	0.099
83.700	50.311	0.099
83.800	36.868	0.099
83.900	17.368	0.099
84.000	32.732	0.099
84.100	47.371	0.099
84.200	55.435	0.099
84.300	35.266	0.099
84.400	42.668	0.099
84.500	32.796	0.099
84.600	-5.908	0.099
84.700	47.998	0.099
84.800	47.036	0.099
84.900	40.570	0.099
85.000	26.618	0.099
85.100	21.516	0.099
85.200	10.194	0.099
85.300	40.878	0.099
85.400	45.027	0.099
85.500	29.557	0.099
85.600	26.014	0.099
85.700	35.629	0.099
85.800	23.415	0.099
85.900	29.153	0.099
86.000	49.623	0.099
86.100	44.927	0.099
86.200	25.361	0.099
86.300	50.309	0.099
86.400	23.548	0.099
86.500	35.255	0.099
86.600	29.227	0.099
86.700	37.311	0.099
86.800	37.840	0.099
86.900	38.416	0.099
87.000	43.436	0.099
87.100	38.240	0.099
87.200	37.886	0.099
87.300	32.769	0.099
87.400	29.801	0.099
87.500	25.367	0.099
87.600	29.125	0.099
87.700	46.667	0.099
87.800	31.598	0.099
87.900	40.965	0.099
88.000	21.863	0.099
88.100	49.863	0.099
88.200	58.255	0.099
88.300	43.400	0.099
88.400	38.500	0.099
88.500	19.472	0.099
88.600	30.202	0.099
88.700	22.172	0.099
88.800	38.871	0.099
88.900	24.349	0.099
89.000	62.719	0.099
89.100	48.496	0.099
89.200	39.956	0.099
89.300	25.626	0.099
89.400	37.063	0.099
89.500	21.625	0.099
89.600	47.049	0.099
89.700	27.313	0.099
89.800	33.524	0.099
89.900	26.287	0.099
90.000	67.139	0.099
90.100	45.182	0.099
90.200	20.045	0.099
90.300	33.215	0.099
90.400	42.543	0.099
90.500	17.402	0.099
90.600	21.643	0.099
90.700	31.410	0.099
90.800	22.074	0.099
90.900	11.758	0.099
91.000	36.158	0.099
91.100	24.983	0.099
91.200	18.362	0.099
91.300	17.328	0.099
91.400	17.502	0.100
91.500	7.565	0.099
91.600	18.719	0.100
91.700	7.267	0.100
91.800	-7.991	0.099
91.900	1.568	0.100
92.000	8.455	0.100
92.100	17.766	0.100
92.200	3.439	0.100
92.300	22.403	0.100
92.400	5.824	0.100
92.500	-9.390	0.100
92.600	-1.275	0.100
92.700	-20.031	0.100
92.800	29.756	0.100
92.900	3.834	0.100
93.000	38.156	0.100
93.100	-6.716	0.100
93.200	-3.660	0.100
93.300	-12.803	0.100
93.400	-2.686	0.100
93.500	-4.025	0.100
93.600	6.895	0.100
93.700	-7.773	0.100
93.800	4.803	0.100
93.900	2.706	0.100
94.000	-18.578	0.100
94.100	-8.988	0.100
94.200	12.308	0.100
94.300	9.144	0.100
94.400	-16.813	0.100
94.500	10.383	0.100
94.600	2.263	0.100
94.700	-14.826	0.100
94.800	-5.420	0.100
94.900	-19.442	0.100
95.000	4.736	0.100
95.100	-1.898	0.100
95.200	-2.365	0.100
95.300	2.538	0.100
95.400	7.175	0.100
95.500	-8.610	0.100
95.600	-28.990	0.100
95.700	-4.291	0.100
95.800	-3.905	0.100
95.900	-8.287	0.100
96.000	-5.738	0.100
96.100	10.235	0.100
96.200	1.033	0.100
96.300	-4.438	0.100
96.400	-15.245	0.100
96.500	-3.169	0.100
96.600	14.188	0.100
96.700	-4.032	0.100
96.800	-34.974	0.100
96.900	-21.630	0.100
97.000	14.136	0.100
97.100	19.013	0.100
97.200	-0.464	0.100
97.300	6.462	0.100
97.400	6.938	0.100
97.500	0.424	0.100
97.600	-3.085	0.100
97.700	-20.892	0.100
97.800	-9.764	0.100
97.900	9.456	0.100
98.000	-12.942	0.100
98.100	2.053	0.100
98.200	-11.529	0.100
98.300	-27.440	0.100
98.400	14.964	0.100
98.500	-10.784	0.100
98.600	19.137	0.100
98.700	-23.418	0.100
98.800	-8.820	0.100
98.900	-13.117	0.100
99.000	10.710	0.100
99.100	34.013	0.100
99.200	-15.941	0.100
99.300	-5.865	0.100
99.400	3.888	0.100
99.500	12.134	0.100
99.600	-2.841	0.100
99.700	-3.117	0.100
99.800	12.071	0.100
99.900	1.323	0.100
100.000	-5.664	0.100
100.100	10.552	0.100
100.200	8.784	0.100
100.300	-11.946	0.100
100.400	1.573	0.100
100.500	-10.247	0.100
100.600	3.673	0.100
100.700	-6.595	0.100
100.800	-7.019	0.100
100.900	-8.529	0.100
101.000	-8.410	0.100
101.100	-3.671	0.100
101.200	13.769	0.100
101.300	-3.470	0.100
101.400	-14.445	0.100
101.500	-7.338	0.100
101.600	5.768	0.100
101.700	15.974	0.100
101.800	-0.038	0.100
101.900	6.396	0.100
102.000	-3.678	0.100
102.100	11.068	0.100
102.200	2.997	0.100
102.300	-9.867	0.100
102.400	3.819	0.100
102.500	-10.336	0.100
102.600	7.280	0.100
102.700	-5.143	0.100
102.800	-10.118	0.100
102.900	8.544	0.100
103.000	-2.755	0.100
103.100	-12.919	0.100
103.200	-13.940	0.100
103.300	-7.541	0.100
103.400	-0.299	0.100
103.500	5.940	0.100
103.600	2.068	0.100
103.700	-3.522	0.100
103.800	10.927	0.100
103.900	0.123	0.100
104.000	2.416	0.100
104.100	18.377	0.100
104.200	8.244	0.100
104.300	28.275	0.100
104.400	5.731	0.100
104.500	-7.527	0.100
104.600	13.562	0.100
104.700	-25.956	0.100
104.800	-4.005	0.100
104.900	18.507	0.100
105.000	15.480	0.100
105.100	-20.882	0.100
105.200	-28.464	0.100
105.300	4.683	0.100
105.400	1.810	0.100
105.500	37.083	0.100
105.600	2.989	0.100
105.700	-2.245	0.100
105.800	13.867	0.100
105.900	5.170	0.100
106.000	-21.521	0.100
106.100	-0.479	0.100
106.200	-6.426	0.100
106.300	7.409	0.100
106.400	2.014	0.100
106.500	-8.359	0.100
106.600	13.267	0.100
106.700	-9.513	0.100
106.800	15.484	0.100
106.900	6.830	0.100
107.000	-17.231	0.100
107.100	-24.466	0.100
107.200	10.241	0.100
107.300	14.977	0.100
107.400	-20.411	0.100
107.500	-11.765	0.100
107.600	13.535	0.100
107.700	-18.261	0.100
107.800	3.759	0.100
107.900	-7.543	0.100
108.000	12.740	0.100
108.100	-4.436	0.100
108.200	15.257	0.100
108.300	-15.143	0.100
108.400	-1.756	0.100
108.500	12.444	0.100
108.600	-17.176	0.100
108.700	-18.336	0.100
108.800	-14.351	0.100
108.900	16.574	0.100
109.000	-10.796	0.100
109.100	-9.283	0.100
109.200	-10.306	0.100
109.300	-8.712	0.100
109.400	-38.126	0.100
109.500	5.279	0.100
109.600	13.046	0.100
109.700	1.810	0.100
109.800	-28.231	0.100
109.900	1.654	0.100
110.000	-4.257	0.100
110.100	4.998	0.100
110.200	-3.479	0.100
110.300	-9.909	0.100
110.400	1.276	0.100
110.500	-8.655	0.100
110.600	-7.284	0.100
110.700	-7.625	0.100
110.800	-1.772	0.100
110.900	-3.129	0.100
111.000	-5.776	0.100
111.100	-17.884	0.100
111.200	5.259	0.100
111.300	-22.287	0.100
111.400	9.002	0.100
111.500	-4.497	0.100
111.600	-8.253	0.100
111.700	-20.794	0.100
111.800	-0.329	0.100
111.900	-11.454	0.100
112.000	-18.517	0.100
112.100	-0.453	0.100
112.200	6.279	0.100
112.300	-3.822	0.100
112.400	-41.603	0.100
112.500	19.390	0.100
112.600	8.936	0.100
112.700	12.640	0.100
112.800	-20.939	0.100
112.900	14.880	0.100
113.000	3.107	0.100
113.100	-14.245	0.100
113.200	-9.138	0.100
113.300	-6.783	0.100
113.400	-16.052	0.100
113.500	7.726	0.100
113.600	-5.540	0.100
113.700	-43.953	0.100
113.800	-10.764	0.100
113.900	-22.654	0.100
114.000	-31.483	0.100
114.100	-2.649	0.100
114.200	12.854	0.100
114.300	-10.877	0.100
114.400	-10.219	0.100
114.500	-2.330	0.100
114.600	0.859	0.100
114.700	1.096	0.100
114.800	7.808	0.100
114.900	-28.733	0.100
115.000	0.981	0.100
115.100	-20.394	0.100
115.200	-5.694	0.100
115.300	12.315	0.100
115.400	8.280	0.100
115.500	-11.151	0.100
115.600	5.680	0.100
115.700	-28.821	0.100
115.800	-23.723	0.100
115.900	-13.349	0.100
116.000	8.012	0.100
116.100	-22.900	0.100
116.200	-7.802	0.100
116.300	-16.778	0.100
116.400	-24.841	0.100
116.500	-3.795	0.100
116.600	-35.953	0.100
116.700	-5.804	0.100
116.800	-3.868	0.100
116.900	23.548	0.100
117.000	-11.625	0.100
117.100	-10.443	0.100
117.200	-34.869	0.100
117.300	-10.467	0.100
117.400	-1.171	0.100
117.500	-11.261	0.100
117.600	1.532	0.100
117.700	3.920	0.100
117.800	16.444	0.100
117.900	-10.280	0.100
118.000	-30.805	0.100
118.100	-1.678	0.100
118.200	0.486	0.100
118.300	-19.793	0.100
118.400	-23.988	0.100
118.500	-11.068	0.100
118.600	-8.029	0.100
118.700	-3.679	0.100
118.800	-27.187	0.100
118.900	-12.212	0.100
119.000	-10.542	0.100
119.100	-5.197	0.100
119.200	-18.659	0.100
119.300	-19.061	0.100
119.400	-27.003	0.100
119.500	-17.011	0.100
119.600	-7.261	0.100
119.700	-33.199	0.100
119.800	14.305	0.100
119.900	-15.852	0.100
120.000	-12.568	0.100
120.100	-21.127	0.100
120.200	-4.239	0.100
120.300	-15.025	0.100
120.400	-8.724	0.100
120.500	-12.544	0.100
120.600	4.463	0.100
120.700	-17.831	0.100
120.800	11.706	0.100
120.900	-15.273	0.100
121.000	4.269	0.100
121.100	-37.178	0.100
121.200	-15.173	0.100
121.300	-8.680	0.100
121.400	-13.804	0.100
121.500	-6.776	0.100
121.600	15.021	0.100
121.700	-37.778	0.100
121.800	0.048	0.100
121.900	0.628	0.100
122.000	-16.307	0.100
122.100	12.572	0.100
122.200	-0.145	0.100
122.300	-33.452	0.100
122.400	-11.842	0.100
122.500	-29.959	0.100
122.600	2.066	0.100
122.700	-8.989	0.100
122.800	-14.925	0.100
122.900	-41.363	0.100
123.000	15.491	0.100
123.100	-11.230	0.100
123.200	-6.654	0.100
123.300	4.157	0.100
123.400	-9.486	0.100
123.500	-15.110	0.100
123.600	-10.596	0.100
123.700	-41.597	0.100
123.800	-14.643	0.100
123.900	-8.471	0.100
124.000	17.121	0.100
124.100	-0.304	0.100
124.200	-37.893	0.100
124.300	-2.364	0.100
124.400	-15.798	0.100
124.500	-9.850	0.100
124.600	-23.642	0.100
124.700	-16.137	0.100
124.800	-3.997	0.100
124.900	-30.450	0.100
125.000	-13.196	0.100
125.100	-10.721	0.100
125.200	-9.145	0.100
125.300	-3.293	0.100
125.400	-26.992	0.100
125.500	-16.051	0.100
125.600	-5.114	0.100
125.700	-13.428	0.100
125.800	-6.536	0.100
125.900	-5.734	0.100
126.000	-36.604	0.100
126.100	-4.575	0.100
126.200	-12.752	0.100
126.300	9.015	0.100
126.400	-29.942	0.100
126.500	-27.471	0.100
126.600	-2.386	0.100
126.700	8.492	0.100
126.800	-36.174	0.100
126.900	-6.866	0.100
127.000	9.032	0.100
127.100	-2.168	0.100
127.200	-14.871	0.100
127.300	-21.602	0.100
127.400	-23.684	0.100
127.500	-18.677	0.100
127.600	-3.115	0.100
127.700	-4.847	0.100
127.800	-12.843	0.100
127.900	-17.524	0.100
128.000	-8.637	0.100
128.100	-10.972	0.100
128.200	-4.924	0.100
128.300	-32.017	0.100
128.400	-7.349	0.100
128.500	-11.491	0.100
128.600	1.887	0.100
128.700	0.349	0.100
128.800	-2.039	0.100
128.900	-24.191	0.100
129.000	-24.482	0.100
129.100	-17.931	0.100
129.200	-7.838	0.100
129.300	-37.927	0.100
129.400	9.814	0.100
129.500	-39.879	0.100
129.600	-8.902	0.100
129.700	-42.793	0.100
129.800	-10.872	0.100
129.900	-7.226	0.100
130.000	-16.176	0.100
130.100	-12.181	0.100
130.200	-6.241	0.100
130.300	-21.133	0.100
130.400	-21.329	0.100
130.500	-3.981	0.100
130.600	-40.588	0.100
130.700	-32.575	0.100
130.800	2.830	0.100
130.900	-10.865	0.100
131.000	-20.948	0.100
131.100	-19.082	0.100
131.200	-27.872	0.100
131.300	-23.567	0.100
131.400	-33.894	0.100
131.500	7.455	0.100
131.600	-41.435	0.100
131.700	-21.673	0.100
131.800	-6.773	0.100
131.900	-6.829	0.100
132.000	0.151	0.100
132.100	-26.483	0.100
132.200	-24.047	0.100
132.300	-12.240	0.100
132.400	-19.328	0.100
132.500	-15.860	0.100
132.600	-26.968	0.100
132.700	-17.308	0.100
132.800	-25.804	0.100
132.900	-3.889	0.100
133.000	-28.218	0.100
133.100	-13.291	0.100
133.200	-11.073	0.100
133.300	-13.792	0.100
133.400	-7.571	0.100
133.500	-17.741	0.100
133.600	-23.944	0.100
133.700	-22.156	0.100
133.800	-13.052	0.100
133.900	-17.657	0.100
134.000	-10.485	0.100
134.100	-48.199	0.100
134.200	-18.173	0.100
134.300	-23.668	0.100
134.400	-9.691	0.100
134.500	-12.438	0.100
134.600	-11.145	0.100
134.700	-12.200	0.100
134.800	-45.730	0.100
134.900	4.159	0.100
135.000	-34.555	0.100
135.100	-19.356	0.100
135.200	-17.944	0.100
135.300	-15.793	0.100
135.400	-3.488	0.100
135.500	-5.749	0.100
135.600	-18.836	0.100
135.700	-17.194	0.100
135.800	-3.097	0.100
135.900	-4.590	0.100
136.000	-13.331	0.100
136.100	-7.919	0.100
136.200	-19.398	0.100
136.300	-60.295	0.100
136.400	-13.979	0.100
136.500	-5.391	0.100
136.600	-13.037	0.100
136.700	-16.590	0.100
136.800	-6.340	0.100
136.900	-8.169	0.100
137.000	-32.396	0.100
137.100	-26.186	0.100
137.200	4.529	0.100
137.300	-14.693	0.100
137.400	-32.964	0.100
137.500	2.328	0.100
137.600	-25.158	0.100
137.700	-15.788	0.100
137.800	-18.621	0.100
137.900	-1.299	0.100
138.000	-14.148	0.100
138.100	-2.275	0.100
138.200	-15.201	0.100
138.300	-13.122	0.100
138.400	0.274	0.100
138.500	-26.605	0.100
138.600	5.630	0.100
138.700	-15.487	0.100
138.800	-8.973	0.100
138.900	-26.353	0.100
139.000	-2.958	0.100
139.100	-12.333	0.100
139.200	-15.056	0.100
139.300	-25.572	0.100
139.400	-26.998	0.100
139.500	-12.672	0.100
139.600	-48.043	0.100
139.700	-20.641	0.100
139.800	-34.586	0.100
139.900	-7.488	0.100
140.000	-10.918	0.100
140.100	-5.940	0.100
140.200	-23.536	0.100
140.300	-19.147	0.100
140.400	-18.758	0.100
140.500	-20.477	0.100
140.600	-19.821	0.100
140.700	-11.258	0.100
140.800	-4.871	0.100
140.900	-21.808	0.100
141.000	-27.715	0.100
141.100	-37.244	0.100
141.200	-16.484	0.100
141.300	-31.054	0.100
141.400	-5.957	0.100
141.500	-37.694	0.100
141.600	-21.579	0.100
141.700	-22.134	0.100
141.800	0.654	0.100
141.900	-41.974	0.100
142.000	3.362	0.100
142.100	-16.980	0.100
142.200	-8.633	0.100
142.300	-12.160	0.100
142.400	-33.760	0.100
142.500	-17.444	0.100
142.600	-21.903	0.100
142.700	-3.088	0.100
142.800	-20.538	0.100
142.900	-34.810	0.100
143.000	-12.039	0.100
143.100	-18.825	0.100
143.200	-8.510	0.100
143.300	-14.269	0.100
143.400	-24.572	0.100
143.500	-23.177	0.100
143.600	-6.901	0.100
143.700	-14.150	0.100
143.800	-25.250	0.100
143.900	-51.462	0.100
144.000	-11.640	0.100
144.100	-16.249	0.100
144.200	-13.101	0.100
144.300	-8.195	0.100
144.400	-29.024	0.100
144.500	-23.597	0.100
144.600	-14.856	0.100
144.700	-30.393	0.100
144.800	-19.476	0.100
144.900	-31.945	0.100
145.000	-33.117	0.100
145.100	-18.172	0.100
145.200	-14.096	0.100
145.300	-8.028	0.100
145.400	-30.992	0.100
145.500	4.346	0.100
145.600	-37.213	0.100
145.700	-57.674	0.100
145.800	-15.087	0.100
145.900	-11.941	0.100
146.000	-37.105	0.100
146.100	1.164	0.100
146.200	-13.403	0.100
146.300	-24.258	0.100
146.400	-13.734	0.100
146.500	-11.882	0.100
146.600	-22.117	0.100
146.700	-21.720	0.100
146.800	-20.173	0.100
146.900	-32.873	0.100
147.000	-15.921	0.100
147.100	-20.843	0.100
147.200	-15.894	0.100
147.300	-21.398	0.100
147.400	-19.308	0.100
147.500	-16.789	0.100
147.600	-38.846	0.100
147.700	-6.557	0.100
147.800	-14.252	0.100
147.900	-25.004	0.100
148.000	-19.246	0.100
148.100	-4.950	0.100
148.200	-17.360	0.100
148.300	-20.862	0.100
148.400	-36.945	0.100
148.500	-26.377	0.100
148.600	-12.659	0.100
148.700	-20.259	0.100
148.800	-6.580	0.100
148.900	-26.665	0.100
149.000	-0.892	0.100
149.100	-36.992	0.100
149.200	-32.136	0.100
149.300	-8.406	0.100
149.400	-41.237	0.100
149.500	-1.158	0.100
149.600	-15.558	0.100
149.700	-15.222	0.100
149.800	-12.991	0.100
149.900	-7.303	0.100
150.000	-16.971	0.100
150.100	-16.100	0.100
150.200	-21.866	0.100
150.300	-24.625	0.100
150.400	-9.117	0.100
150.500	-26.331	0.100
150.600	-21.588	0.100
150.700	-16.094	0.100
150.800	-30.552	0.100
150.900	-22.380	0.100
151.000	2.034	0.100
151.100	-9.454	0.100
151.200	-35.160	0.100
151.300	-17.124	0.100
151.400	16.962	0.100
151.500	-33.528	0.100
151.600	6.371	0.100
151.700	-30.507	0.100
151.800	-54.412	0.100
151.900	-37.713	0.100
152.000	-25.898	0.100
152.100	-31.254	0.100
152.200	-21.762	0.100
152.300	-25.871	0.100
152.400	-16.812	0.100
152.500	0.123	0.100
152.600	-16.014	0.100
152.700	1.695	0.100
152.800	-24.828	0.100
152.900	-2.620	0.100
153.000	-40.810	0.100
153.100	-40.184	0.100
153.200	-33.923	0.100
153.300	-39.089	0.100
153.400	-13.128	0.100
153.500	-39.159	0.100
153.600	-20.166	0.100
153.700	-20.572	0.100
153.800	-34.123	0.100
153.900	-6.430	0.100
154.000	-36.538	0.100
154.100	-9.866	0.100
154.200	-37.688	0.100
154.300	-36.032	0.100
154.400	-15.223	0.100
154.500	-18.252	0.100
154.600	-9.834	0.100
154.700	-28.008	0.100
154.800	-19.706	0.100
154.900	-17.781	0.100
155.000	-13.553	0.100
155.100	-37.894	0.100
155.200	-0.639	0.100
155.300	-20.021	0.100
155.400	-13.515	0.100
155.500	-16.182	0.100
155.600	-55.680	0.100
155.700	-27.090	0.100
155.800	-14.227	0.100
155.900	-41.086	0.100
156.000	-7.248	0.100
156.100	6.832	0.100
156.200	-39.660	0.100
156.300	-23.757	0.100
156.400	-17.080	0.100
156.500	-41.407	0.100
156.600	-16.255	0.100
156.700	-19.884	0.100
156.800	-21.070	0.100
156.900	-32.973	0.100
157.000	-20.109	0.100
157.100	-25.348	0.100
157.200	13.292	0.100
157.300	-14.509	0.100
157.400	-10.307	0.100
157.500	-25.706	0.100
157.600	-20.378	0.100
157.700	-32.112	0.100
157.800	-25.991	0.100
157.900	-5.174	0.100
158.000	-8.431	0.100
158.100	-4.308	0.100
158.200	-23.610	0.100
158.300	-42.718	0.100
158.400	-21.885	0.100
158.500	-23.352	0.100
158.600	-12.869	0.100
158.700	-20.247	0.100
158.800	-16.552	0.100
158.900	-21.711	0.100
159.000	-25.291	0.100
159.100	-37.308	0.100
159.200	-38.717	0.100
159.300	4.936	0.100
159.400	3.502	0.100
159.500	-22.656	0.100
159.600	-5.912	0.100
159.700	-34.419	0.100
159.800	-24.377	0.100
159.900	-18.562	0.100
160.000	4.839	0.100
160.100	-17.221	0.100
160.200	-16.072	0.100
160.300	-17.110	0.100
160.400	-12.868	0.100
160.500	-28.889	0.100
160.600	-23.142	0.100
160.700	6.615	0.100
160.800	-37.675	0.100
160.900	-30.041	0.100
161.000	-32.318	0.100
161.100	-7.556	0.100
161.200	-18.071	0.100
161.300	-40.211	0.100
161.400	-5.840	0.100
161.500	-29.595	0.100
161.600	2.372	0.100
161.700	-20.168	0.100
161.800	-41.556	0.100
161.900	-41.969	0.100
162.000	-5.110	0.100
162.100	-19.077	0.100
162.200	-19.533	0.100
162.300	-27.406	0.100
162.400	-9.654	0.100
162.500	23.635	0.100
162.600	-36.390	0.100
162.700	-3.780	0.100
162.800	-16.070	0.100
162.900	-14.599	0.100
163.000	-6.823	0.100
163.100	-20.874	0.100
163.200	-12.744	0.100
163.300	-20.674	0.100
163.400	-17.840	0.100
163.500	-21.336	0.100
163.600	-22.333	0.100
163.700	-25.318	0.100
163.800	-14.289	0.100
163.900	-10.147	0.100
164.000	-5.210	0.100
164.100	-18.612	0.100
164.200	-17.521	0.100
164.300	-35.197	0.100
164.400	-1.587	0.100
164.500	-5.773	0.100
164.600	-44.333	0.100
164.700	-29.838	0.100
164.800	5.591	0.100
164.900	-23.484	0.100
165.000	-24.052	0.100
165.100	-23.937	0.100
165.200	-4.724	0.100
165.300	-20.695	0.100
165.400	-46.704	0.100
165.500	-16.386	0.100
165.600	-25.493	0.100
165.700	0.539	0.100
165.800	-23.314	0.100
165.900	-46.990	0.100
166.000	-33.585	0.100
166.100	1.835	0.100
166.200	-20.907	0.100
166.300	-17.897	0.100
166.400	-15.547	0.100
166.500	-12.575	0.100
166.600	-15.909	0.100
166.700	-30.825	0.100
166.800	-4.588	0.100
166.900	-13.310	0.100
167.000	-45.763	0.100
167.100	-21.329	0.100
167.200	-39.703	0.100
167.300	-14.948	0.100
167.400	-19.991	0.100
167.500	-2.217	0.100
167.600	-23.972	0.100
167.700	-7.342	0.100
167.800	-18.831	0.100
167.900	-7.537	0.100
168.000	-20.194	0.100
168.100	-29.191	0.100
168.200	3.115	0.100
168.300	-24.630	0.100
168.400	-34.007	0.100
168.500	-11.034	0.100
168.600	-11.451	0.100
168.700	-1.750	0.100
168.800	-33.004	0.100
168.900	-22.272	0.100
169.000	-24.560	0.100
169.100	-11.842	0.100
169.200	-24.991	0.100
169.300	-12.661	0.100
169.400	-8.368	0.100
169.500	-14.692	0.100
169.600	-25.165	0.100
169.700	-23.184	0.100
169.800	-28.628	0.100
169.900	-13.928	0.100
170.000	-26.670	0.100
170.100	-8.363	0.100
170.200	-53.866	0.100
170.300	-12.722	0.100
170.400	-5.450	0.100
170.500	-28.680	0.100
170.600	18.017	0.100
170.700	-32.195	0.100
170.800	-8.598	0.100
170.900	-31.298	0.100
171.000	-2.295	0.100
171.100	-6.815	0.100
171.200	-12.882	0.100
171.300	-5.344	0.100
171.400	-26.276	0.100
171.500	-4.334	0.100
171.600	-48.291	0.100
171.700	-10.021	0.100
171.800	-32.749	0.100
171.900	-27.824	0.100
172.000	-5.550	0.100
172.100	-3.141	0.100
172.200	-16.316	0.100
172.300	-15.898	0.100
172.400	-10.264	0.100
172.500	-42.190	0.100
172.600	-16.456	0.100
172.700	-11.333	0.100
172.800	-19.740	0.100
172.900	-29.098	0.100
173.000	9.324	0.100
173.100	-5.625	0.100
173.200	-43.358	0.100
173.300	-11.811	0.100
173.400	-10.416	0.100
173.500	-33.343	0.100
173.600	-16.150	0.100
173.700	-18.188	0.100
173.800	-28.696	0.100
173.900	-24.012	0.100
174.000	-28.438	0.100
174.100	-8.435	0.100
174.200	-9.228	0.100
174.300	-9.231	0.100
174.400	-30.691	0.100
174.500	-28.009	0.100
174.600	-9.689	0.100
174.700	-21.489	0.100
174.800	-14.129	0.100
174.900	-12.454	0.100
175.000	-24.443	0.100
175.100	-23.484	0.100
175.200	-26.522	0.100
175.300	-33.616	0.100
175.400	-5.020	0.100
175.500	-13.463	0.100
175.600	-12.736	0.100
175.700	0.014	0.100
175.800	-31.055	0.100
175.900	-13.065	0.100
176.000	-10.650	0.100
176.100	-16.541	0.100
176.200	-6.409	0.100
176.300	-7.773	0.100
176.400	-27.356	0.100
176.500	-17.896	0.100
176.600	-31.777	0.100
176.700	-13.563	0.100
176.800	10.104	0.100
176.900	-16.249	0.100
177.000	-28.295	0.100
177.100	-24.315	0.100
177.200	-39.418	0.100
177.300	2.450	0.100
177.400	-20.892	0.100
177.500	-19.600	0.100
177.600	-8.935	0.100
177.700	-21.047	0.100
177.800	-10.033	0.100
177.900	-16.996	0.100
178.000	-33.816	0.100
178.100	9.260	0.100
178.200	3.061	0.100
178.300	-24.616	0.100
178.400	-2.279	0.100
178.500	-8.327	0.100
178.600	-29.635	0.100
178.700	-26.125	0.100
178.800	-11.565	0.100
178.900	-9.343	0.100
179.000	-39.308	0.100
179.100	-18.411	0.100
179.200	-6.336	0.100
179.300	-26.166	0.100
179.400	-4.638	0.100
179.500	-24.917	0.100
179.600	2.704	0.100
179.700	-2.846	0.100
179.800	-3.958	0.100
179.900	-11.180	0.100
180.000	-34.509	0.100
180.100	7.652	0.100
180.200	-8.480	0.100
180.300	-6.887	0.100
180.400	7.980	0.100
180.500	-5.846	0.100
180.600	7.792	0.100
180.700	-1.320	0.100
180.800	-0.242	0.100
180.900	-5.418	0.100
181.000	-4.111	0.100
181.100	-3.179	0.100
181.200	15.596	0.100
181.300	12.001	0.100
181.400	-35.400	0.100
181.500	9.658	0.100
181.600	34.094	0.100
181.700	-11.414	0.100
181.800	22.881	0.100
181.900	-9.826	0.100
182.000	1.006	0.100
182.100	-11.730	0.100
182.200	-11.091	0.100
182.300	-0.722	0.100
182.400	11.679	0.100
182.500	11.916	0.100
182.600	30.232	0.100
182.700	-3.034	0.100
182.800	12.338	0.100
182.900	30.158	0.100
183.000	28.386	0.100
183.100	-26.169	0.100
183.200	2.530	0.100
183.300	8.230	0.100
183.400	13.309	0.100
183.500	11.911	0.100
183.600	5.289	0.100
183.700	14.711	0.100
183.800	28.019	0.100
183.900	20.047	0.100
184.000	18.728	0.100
184.100	13.082	0.100
184.200	21.563	0.100
184.300	14.615	0.100
184.400	10.322	0.100
184.500	13.841	0.100
184.600	29.257	0.100
184.700	41.474	0.100
184.800	25.733	0.100
184.900	36.011	0.100
185.000	21.647	0.100
185.100	1.329	0.100
185.200	13.676	0.100
185.300	16.940	0.100
185.400	31.820	0.100
185.500	33.250	0.100
185.600	20.808	0.100
185.700	15.505	0.100
185.800	10.865	0.100
185.900	-0.315	0.100
186.000	28.782	0.100
186.100	17.284	0.100
186.200	30.070	0.100
186.300	18.779	0.100
186.400	9.637	0.100
186.500	32.655	0.100
186.600	30.455	0.100
186.700	15.092	0.100
186.800	31.496	0.100
186.900	17.862	0.100
187.000	6.270	0.100
187.100	9.388	0.100
187.200	8.672	0.100
187.300	0.858	0.100
187.400	27.202	0.100
187.500	36.228	0.100
187.600	-13.546	0.100
187.700	21.598	0.100
187.800	26.378	0.100
187.900	13.538	0.100
188.000	37.191	0.100
188.100	18.462	0.100
188.200	14.507	0.100
188.300	6.226	0.100
188.400	14.283	0.100
188.500	14.664	0.100
188.600	40.103	0.100
188.700	24.687	0.100
188.800	8.323	0.100
188.900	17.904	0.100
189.000	6.420	0.100
189.100	20.865	0.100
189.200	17.768	0.100
189.300	24.358	0.100
189.400	28.201	0.100
189.500	7.470	0.100
189.600	39.272	0.100
189.700	10.250	0.100
189.800	20.593	0.100
189.900	22.575	0.100
190.000	24.951	0.100
190.100	15.124	0.100
190.200	43.986	0.100
190.300	21.980	0.100
190.400	13.811	0.100
190.500	33.531	0.100
190.600	11.508	0.100
190.700	16.446	0.100
190.800	15.692	0.100
190.900	31.596	0.100
191.000	15.725	0.100
191.100	15.972	0.100
191.200	20.609	0.100
191.300	42.681	0.100
191.400	2.345	0.100
191.500	23.674	0.100
191.600	7.489	0.100
191.700	41.454	0.100
191.800	17.213	0.100
191.900	24.636	0.100
192.000	18.294	0.100
192.100	22.253	0.100
192.200	33.931	0.100
192.300	15.354	0.100
192.400	42.190	0.100
192.500	16.747	0.100
192.600	-8.946	0.100
192.700	28.142	0.100
192.800	35.867	0.100
192.900	17.060	0.100
193.000	26.133	0.100
193.100	18.386	0.100
193.200	-5.686	0.100
193.300	8.870	0.100
193.400	-0.610	0.100
193.500	20.897	0.100
193.600	0.129	0.100
193.700	28.879	0.100
193.800	46.239	0.100
193.900	29.839	0.100
194.000	26.193	0.100
194.100	25.102	0.100
194.200	28.205	0.100
194.300	7.853	0.100
194.400	24.177	0.100
194.500	14.413	0.100
194.600	8.240	0.100
194.700	6.199	0.100
194.800	41.368	0.100
194.900	37.615	0.100
195.000	10.799	0.100
195.100	31.554	0.100
195.200	24.707	0.100
195.300	32.056	0.100
195.400	7.062	0.100
195.500	23.120	0.100
195.600	23.974	0.100
195.700	31.436	0.100
195.800	11.512	0.100
195.900	24.179	0.100
196.000	16.289	0.100
196.100	34.610	0.100
196.200	17.816	0.100
196.300	44.816	0.100
196.400	8.510	0.100
196.500	33.490	0.100
196.600	41.001	0.100
196.700	16.233	0.100
196.800	22.317	0.100
196.900	16.464	0.100
197.000	1.013	0.100
197.100	43.378	0.100
197.200	25.029	0.100
197.300	30.567	0.100
197.400	18.408	0.100
197.500	25.530	0.100
197.600	0.681	0.100
197.700	52.102	0.100
197.800	16.563	0.100
197.900	13.992	0.100
198.000	4.324	0.100
198.100	30.613	0.100
198.200	44.798	0.100
198.300	15.589	0.100
198.400	9.529	0.100
198.500	28.523	0.100
198.600	19.775	0.100
198.700	35.136	0.100
198.800	33.122	0.100
198.900	23.471	0.100
199.000	34.949	0.100
199.100	28.113	0.100
199.200	55.627	0.100
199.300	6.742	0.100
199.400	16.387	0.100
199.500	32.325	0.100
199.600	20.996	0.100
199.700	5.505	0.100
199.800	32.844	0.100
199.900	38.536	0.100
200.000	33.052	0.100
200.100	26.752	0.100
200.200	30.015	0.100
200.300	27.457	0.100
200.400	53.128	0.100
200.500	42.047	0.100
200.600	44.969	0.100
200.700	17.874	0.100
200.800	30.613	0.100
200.900	40.526	0.100
201.000	34.089	0.100
201.100	23.072	0.100
201.200	42.233	0.100
201.300	53.078	0.100
201.400	24.152	0.100
201.500	19.294	0.100
201.600	11.567	0.100
201.700	37.057	0.100
201.800	20.530	0.100
201.900	38.717	0.100
202.000	46.720	0.100
202.100	49.882	0.100
202.200	36.081	0.100
202.300	24.180	0.100
202.400	21.428	0.100
202.500	38.474	0.100
202.600	34.397	0.100
202.700	29.575	0.100
202.800	52.820	0.100
202.900	47.103	0.100
203.000	38.420	0.100
203.100	33.446	0.100
203.200	29.998	0.100
203.300	32.656	0.100
203.400	28.511	0.100
203.500	24.724	0.100
203.600	36.519	0.100
203.700	44.808	0.100
203.800	50.770	0.100
203.900	45.493	0.100
204.000	46.384	0.100
204.100	18.292	0.100
204.200	17.698	0.100
204.300	25.423	0.100
204.400	34.146	0.100
204.500	21.285	0.100
204.600	28.593	0.100
204.700	28.234	0.100
204.800	45.813	0.100
204.900	48.582	0.100
205.000	36.314	0.100
205.100	33.298	0.100
205.200	46.049	0.100
205.300	44.972	0.100
205.400	29.612	0.100
205.500	7.188	0.100
205.600	-0.182	0.100
205.700	32.949	0.100
205.800	68.685	0.100
205.900	23.954	0.100
206.000	70.882	0.100
206.100	38.108	0.100
206.200	45.292	0.100
206.300	61.814	0.100
206.400	53.168	0.100
206.500	26.840	0.100
206.600	40.448	0.100
206.700	40.935	0.100
206.800	37.195	0.100
206.900	33.129	0.100
207.000	40.285	0.100
207.100	4.738	0.100
207.200	40.805	0.100
207.300	63.691	0.100
207.400	40.771	0.100
207.500	31.687	0.100
207.600	44.697	0.100
207.700	25.976	0.100
207.800	27.929	0.100
207.900	44.505	0.100
208.000	32.209	0.100
208.100	33.958	0.100
208.200	21.427	0.100
208.300	49.707	0.100
208.400	22.901	0.100
208.500	35.702	0.100
208.600	38.178	0.100
208.700	52.244	0.100
208.800	31.629	0.100
208.900	32.722	0.100
209.000	17.494	0.100
209.100	49.883	0.100
209.200	40.690	0.100
209.300	40.685	0.100
209.400	35.204	0.100
209.500	45.699	0.100
209.600	41.794	0.100
209.700	43.854	0.100
209.800	55.645	0.100
209.900	44.407	0.100
210.000	34.392	0.100
210.100	44.402	0.100
210.200	38.023	0.100
210.300	38.187	0.100
210.400	42.601	0.100
210.500	36.555	0.100
210.600	64.222	0.100
210.700	44.364	0.100
210.800	23.134	0.100
210.900	33.323	0.100
211.000	47.652	0.100
211.100	28.187	0.100
211.200	45.578	0.100
211.300	46.370	0.100
211.400	37.397	0.100
211.500	46.075	0.100
211.600	35.293	0.100
211.700	36.751	0.100
211.800	37.403	0.100
211.900	47.268	0.100
212.000	41.127	0.100
212.100	51.397	0.100
212.200	42.592	0.100
212.300	49.717	0.100
212.400	33.858	0.100
212.500	39.049	0.100
212.600	64.995	0.100
212.700	41.573	0.100
212.800	54.601	0.100
212.900	43.458	0.100
213.000	33.186	0.100
213.100	37.863	0.100
213.200	21.427	0.100
213.300	52.764	0.100
213.400	32.806	0.100
213.500	27.649	0.100
213.600	42.966	0.100
213.700	51.723	0.100
213.800	34.189	0.100
213.900	47.344	0.100
214.000	56.304	0.100
214.100	51.429	0.100
214.200	23.984	0.100
214.300	22.470	0.100
214.400	54.342	0.100
214.500	58.682	0.100
214.600	32.891	0.100
214.700	31.356	0.100
214.800	80.516	0.100
214.900	43.394	0.100
215.000	40.130	0.100
215.100	34.167	0.100
215.200	31.112	0.100
215.300	37.030	0.100
215.400	35.855	0.100
215.500	51.235	0.100
215.600	37.889	0.100
215.700	40.289	0.100
215.800	30.640	0.100
215.900	27.199	0.100
216.000	59.839	0.100
216.100	48.854	0.100
216.200	64.675	0.100
216.300	62.089	0.100
216.400	41.090	0.100
216.500	56.881	0.100
216.600	28.322	0.100
216.700	32.990	0.100
216.800	61.919	0.100
216.900	47.363	0.100
217.000	50.646	0.100
217.100	48.707	0.100
217.200	42.765	0.100
217.300	39.445	0.100
217.400	43.783	0.100
217.500	25.404	0.100
217.600	53.630	0.100
217.700	62.189	0.100
217.800	40.703	0.100
217.900	25.901	0.100
218.000	45.284	0.100
218.100	8.991	0.100
218.200	51.257	0.100
218.300	20.834	0.100
218.400	73.896	0.100
218.500	42.009	0.100
218.600	51.107	0.100
218.700	38.703	0.100
218.800	37.180	0.100
218.900	27.472	0.100
219.000	63.970	0.100
219.100	42.406	0.100
219.200	34.521	0.100
219.300	24.803	0.100
219.400	54.091	0.100
219.500	58.212	0.100
219.600	44.074	0.100
219.700	36.540	0.100
219.800	68.634	0.100
219.900	16.898	0.100
220.000	22.924	0.100
220.100	34.394	0.100
220.200	48.627	0.100
220.300	50.502	0.100
220.400	20.363	0.100
220.500	22.415	0.100
220.600	35.526	0.100
220.700	49.651	0.100
220.800	48.161	0.100
220.900	35.961	0.100
221.000	47.899	0.100
221.100	48.781	0.100
221.200	36.626	0.100
221.300	48.214	0.100
221.400	27.114	0.100
221.500	55.882	0.100
221.600	28.407	0.100
221.700	58.545	0.100
221.800	25.022	0.100
221.900	26.847	0.100
222.000	41.006	0.100
222.100	28.403	0.100
222.200	47.466	0.100
222.300	37.489	0.100
222.400	41.411	0.100
222.500	35.949	0.100
222.600	34.030	0.100
222.700	34.439	0.100
222.800	39.121	0.100
222.900	53.038	0.100
223.000	45.227	0.100
223.100	40.101	0.100
223.200	28.964	0.100
223.300	51.661	0.100
223.400	29.081	0.100
223.500	37.876	0.100
223.600	55.202	0.100
223.700	47.081	0.100
223.800	25.423	0.100
223.900	19.271	0.100
224.000	66.141	0.100
224.100	47.152	0.100
224.200	30.193	0.100
224.300	34.958	0.100
224.400	45.150	0.100
224.500	38.380	0.100
224.600	25.835	0.100
224.700	45.385	0.100
224.800	73.424	0.100
224.900	39.848	0.100
225.000	30.272	0.100
225.100	28.732	0.100
225.200	47.036	0.100
225.300	48.561	0.100
225.400	45.004	0.100
225.500	28.866	0.100
225.600	42.551	0.100
225.700	49.090	0.100
225.800	46.544	0.100
225.900	22.067	0.100
226.000	46.306	0.100
226.100	5.317	0.100
226.200	48.072	0.100
226.300	62.877	0.100
226.400	27.782	0.100
226.500	19.956	0.100
226.600	22.408	0.100
226.700	65.597	0.100
226.800	41.535	0.100
226.900	39.395	0.100
227.000	42.059	0.100
227.100	31.245	0.100
227.200	-4.131	0.100
227.300	52.145	0.100
227.400	81.843	0.100
227.500	19.791	0.100
227.600	35.517	0.100
227.700	54.513	0.100
227.800	46.693	0.100
227.900	29.692	0.100
228.000	53.474	0.100
228.100	62.096	0.100
228.200	62.843	0.100
228.300	33.080	0.100
228.400	16.341	0.100
228.500	36.107	0.100
228.600	35.947	0.100
228.700	50.842	0.100
228.800	50.455	0.100
228.900	44.562	0.100
229.000	15.324	0.100
229.100	55.078	0.100
229.200	40.433	0.100
229.300	37.757	0.100
229.400	45.578	0.100
229.500	27.549	0.100
229.600	46.180	0.100
229.700	36.467	0.100
229.800	41.405	0.100
229.900	28.284	0.100
230.000	58.259	0.100
230.100	31.992	0.100
230.200	32.291	0.100
230.300	46.706	0.100
230.400	49.619	0.100
230.500	35.721	0.100
230.600	44.246	0.100
230.700	46.769	0.100
230.800	19.383	0.100
230.900	45.130	0.100
231.000	42.461	0.100
231.100	30.555	0.100
231.200	54.637	0.100
231.300	41.212	0.100
231.400	37.832	0.100
231.500	15.725	0.100
231.600	52.873	0.100
231.700	51.399	0.100
231.800	49.216	0.100
231.900	53.131	0.100
232.000	48.763	0.100
232.100	31.001	0.100
232.200	52.396	0.100
232.300	17.588	0.100
232.400	44.809	0.100
232.500	28.190	0.100
232.600	34.952	0.100
232.700	34.982	0.100
232.800	37.872	0.100
232.900	26.227	0.100
233.000	49.019	0.100
233.100	54.657	0.100
233.200	32.072	0.100
233.300	39.536	0.100
233.400	53.213	0.100
233.500	41.711	0.100
233.600	35.742	0.100
233.700	30.976	0.100
233.800	37.797	0.100
233.900	62.806	0.100
234.000	41.900	0.100
234.100	50.640	0.100
234.200	32.069	0.100
234.300	42.573	0.100
234.400	31.147	0.100
234.500	36.283	0.100
234.600	61.649	0.100
234.700	35.366	0.100
234.800	45.923	0.100
234.900	55.429	0.100
235.000	25.026	0.100
235.100	50.916	0.100
235.200	18.928	0.100
235.300	33.024	0.100
235.400	44.563	0.100
235.500	44.253	0.100
235.600	47.002	0.100
235.700	57.543	0.100
235.800	33.009	0.100
235.900	33.446	0.100
236.000	23.500	0.100
236.100	36.514	0.100
236.200	34.543	0.100
236.300	43.272	0.100
236.400	17.621	0.100
236.500	50.167	0.100
236.600	23.872	0.100
236.700	44.170	0.100
236.800	54.420	0.100
236.900	39.013	0.100
237.000	23.240	0.100
237.100	47.635	0.100
237.200	21.016	0.100
237.300	53.598	0.100
237.400	58.452	0.100
237.500	54.760	0.100
237.600	22.820	0.100
237.700	46.298	0.100
237.800	31.853	0.100
237.900	44.424	0.100
238.000	40.449	0.100
238.100	44.895	0.100
238.200	46.409	0.100
238.300	35.101	0.100
238.400	61.059	0.100
238.500	39.759	0.100
238.600	34.193	0.100
238.700	24.082	0.100
238.800	29.930	0.100
238.900	41.474	0.100
239.000	47.147	0.100
239.100	39.023	0.100
239.200	36.142	0.100
239.300	47.730	0.100
239.400	42.369	0.100
239.500	54.947	0.100
239.600	28.795	0.100
239.700	15.545	0.100
239.800	60.126	0.100
239.900	41.762	0.100
240.000	22.933	0.100
240.100	14.877	0.100
240.200	40.966	0.100
240.300	60.576	0.100
240.400	51.156	0.100
240.500	23.912	0.100
240.600	16.149	0.100
240.700	54.127	0.100
240.800	23.499	0.100
240.900	44.178	0.100
241.000	42.907	0.100
241.100	14.529	0.100
241.200	19.078	0.100
241.300	27.490	0.100
241.400	29.507	0.100
241.500	4.600	0.100
241.600	24.466	0.100
241.700	14.466	0.100
241.800	12.986	0.100
241.900	16.153	0.100
242.000	25.090	0.100
242.100	15.890	0.100
242.200	24.511	0.100
242.300	13.488	0.100
242.400	-7.578	0.100
242.500	2.725	0.100
242.600	25.570	0.100
242.700	-0.785	0.100
242.800	-19.430	0.100
242.900	9.689	0.100
243.000	-11.937	0.100
243.100	-30.826	0.100
243.200	8.209	0.100
243.300	12.046	0.100
243.400	10.403	0.100
243.500	30.797	0.100
243.600	1.011	0.100
243.700	10.329	0.100
243.800	19.107	0.100
243.900	-20.162	0.100
244.000	-3.455	0.100
244.100	-3.368	0.100
244.200	-9.596	0.100
244.300	-0.082	0.100
244.400	-34.140	0.100
244.500	7.258	0.100
244.600	9.159	0.100
244.700	-27.604	0.100
244.800	-2.607	0.100
244.900	-7.963	0.100
245.000	4.615	0.100
245.100	-7.444	0.100
245.200	-5.366	0.100
245.300	-1.251	0.100
245.400	-34.845	0.100
245.500	3.179	0.100
245.600	13.081	0.100
245.700	5.946	0.100
245.800	-12.161	0.100
245.900	23.872	0.100
246.000	-17.929	0.100
246.100	-12.902	0.100
246.200	8.285	0.100
246.300	-2.891	0.100
246.400	1.182	0.100
246.500	-3.723	0.100
246.600	13.651	0.100
246.700	-17.064	0.100
246.800	-18.725	0.100
246.900	0.817	0.100
247.000	-14.140	0.100
247.100	-7.357	0.100
247.200	16.272	0.100
247.300	-5.622	0.100
247.400	-5.063	0.100
247.500	-0.953	0.100
247.600	-16.394	0.100
247.700	6.940	0.100
247.800	1.967	0.100
247.900	-0.889	0.100
248.000	20.218	0.100
248.100	2.593	0.100
248.200	-19.584	0.100
248.300	13.528	0.100
248.400	-7.886	0.100
248.500	10.791	0.100
248.600	2.654	0.100
248.700	-16.155	0.100
248.800	12.723	0.100
248.900	-0.327	0.100
249.000	-18.419	0.100
249.100	-22.204	0.100
249.200	-19.953	0.100
249.300	19.596	0.100
249.400	-7.290	0.100
249.500	4.709	0.100
249.600	-4.153	0.100
249.700	-9.894	0.100
249.800	19.489	0.100
249.900	-3.386	0.100
250.000	0.421	0.100
250.100	-13.358	0.100
250.200	1.896	0.100
250.300	12.120	0.100
250.400	-14.610	0.100
250.500	11.845	0.100
250.600	-5.853	0.100
250.700	23.040	0.100
250.800	10.234	0.100
250.900	-12.063	0.100
251.000	-23.610	0.100
251.100	3.673	0.100
251.200	-11.352	0.100
251.300	-6.999	0.100
251.400	6.390	0.100
251.500	2.285	0.100
251.600	-1.065	0.100
251.700	-22.155	0.100
251.800	-14.626	0.100
251.900	-8.624	0.100
252.000	2.515	0.100
252.100	-23.927	0.100
252.200	9.849	0.100
252.300	-2.627	0.100
252.400	-16.040	0.100
252.500	-13.604	0.100
252.600	-22.502	0.100
252.700	-18.213	0.100
252.800	19.222	0.100
252.900	-8.049	0.100
253.000	1.131	0.100
253.100	-6.066	0.100
253.200	2.455	0.100
253.300	4.696	0.100
253.400	-29.327	0.100
253.500	-16.656	0.100
253.600	-4.807	0.100
253.700	3.956	0.100
253.800	-11.883	0.100
253.900	8.485	0.100
254.000	17.990	0.100
254.100	-4.248	0.100
254.200	1.219	0.100
254.300	-3.662	0.100
254.400	-8.368	0.100
254.500	2.652	0.100
254.600	-18.685	0.100
254.700	8.190	0.100
254.800	-20.051	0.100
254.900	4.062	0.100
255.000	2.356	0.100
255.100	-32.990	0.100
255.200	18.130	0.100
255.300	-25.057	0.100
255.400	-13.504	0.100
255.500	-7.879	0.100
255.600	4.970	0.100
255.700	4.533	0.100
255.800	2.177	0.100
255.900	-16.222	0.100
256.000	6.785	0.100
256.100	-21.857	0.100
256.200	-4.072	0.100
256.300	-27.982	0.100
256.400	19.101	0.100
256.500	6.485	0.100
256.600	-6.462	0.100
256.700	-0.222	0.100
256.800	-8.258	0.100
256.900	-17.017	0.100
257.000	-14.410	0.100
257.100	2.284	0.100
257.200	-21.667	0.100
257.300	-7.577	0.100
257.400	-10.137	0.100
257.500	-22.045	0.100
257.600	-6.683	0.100
257.700	9.589	0.100
257.800	-8.836	0.100
257.900	8.027	0.100
258.000	-12.516	0.100
258.100	5.092	0.100
258.200	3.661	0.100
258.300	3.166	0.100
258.400	-8.817	0.100
258.500	7.350	0.100
258.600	-19.106	0.100
258.700	-4.000	0.100
258.800	-0.601	0.100
258.900	-2.932	0.100
259.000	-6.099	0.100
259.100	7.815	0.100
259.200	-16.227	0.100
259.300	-21.510	0.100
259.400	0.725	0.100
259.500	-38.733	0.100
259.600	-3.415	0.100
259.700	0.666	0.100
259.800	-21.141	0.100
259.900	-6.804	0.100
260.000	-22.288	0.100
260.100	19.032	0.100
260.200	12.968	0.100
260.300	-8.335	0.100
260.400	-10.037	0.100
260.500	-18.240	0.100
260.600	-14.278	0.100
260.700	-18.671	0.100
260.800	-4.435	0.100
260.900	2.768	0.100
261.000	4.327	0.100
261.100	-2.261	0.100
261.200	-3.625	0.100
261.300	-12.326	0.100
261.400	-17.471	0.100
261.500	-1.274	0.100
261.600	-13.793	0.100
261.700	-23.163	0.100
261.800	-4.028	0.100
261.900	-9.219	0.100
262.000	-15.789	0.100
262.100	-27.665	0.100
262.200	10.723	0.100
262.300	-6.035	0.100
262.400	-0.260	0.100
262.500	-4.685	0.100
262.600	-9.587	0.100
262.700	-32.136	0.100
262.800	-17.908	0.100
262.900	5.115	0.100
263.000	-6.536	0.100
263.100	-6.623	0.100
263.200	-7.090	0.100
263.300	-18.489	0.100
263.400	-12.902	0.100
263.500	-6.856	0.100
263.600	-18.894	0.100
263.700	19.512	0.100
263.800	-3.593	0.100
263.900	-12.872	0.100
264.000	-5.719	0.100
264.100	-6.854	0.100
264.200	1.900	0.100
264.300	8.303	0.100
264.400	1.487	0.100
264.500	-30.979	0.100
264.600	-12.215	0.100
264.700	-19.360	0.100
264.800	-18.808	0.100
264.900	-18.053	0.100
265.000	-27.435	0.100
265.100	-1.827	0.100
265.200	-8.044	0.100
265.300	-21.273	0.100
265.400	-8.669	0.100
265.500	-19.995	0.100
265.600	-10.862	0.100
265.700	-13.086	0.100
265.800	-14.118	0.100
265.900	-42.889	0.100
266.000	16.124	0.100
266.100	1.378	0.100
266.200	-23.032	0.100
266.300	-13.303	0.100
266.400	-1.651	0.100
266.500	-18.554	0.100
266.600	-31.719	0.100
266.700	-12.120	0.100
266.800	10.857	0.100
266.900	2.207	0.100
267.000	-30.675	0.100
267.100	-32.075	0.100
267.200	-13.567	0.100
267.300	16.314	0.100
267.400	-25.964	0.100
267.500	-20.418	0.100
267.600	16.367	0.100
267.700	-20.514	0.100
267.800	0.779	0.100
267.900	-6.412	0.100
268.000	-10.541	0.100
268.100	-26.097	0.100
268.200	0.765	0.100
268.300	1.658	0.100
268.400	-20.490	0.100
268.500	-16.336	0.100
268.600	7.266	0.100
268.700	16.159	0.100
268.800	-16.229	0.100
268.900	-13.509	0.100
269.000	-3.648	0.100
269.100	-16.362	0.100
269.200	-5.336	0.100
269.300	-6.385	0.100
269.400	-7.075	0.100
269.500	-30.419	0.100
269.600	-8.872	0.100
269.700	-12.134	0.100
269.800	-18.168	0.100
269.900	-12.139	0.100
270.000	-19.944	0.100
270.100	-6.078	0.100
270.200	6.487	0.100
270.300	-37.806	0.100
270.400	-5.808	0.100
270.500	-24.475	0.100
270.600	-7.454	0.100
270.700	-9.557	0.100
270.800	-11.078	0.100
270.900	-1.471	0.100
271.000	-26.432	0.100
271.100	-29.395	0.100
271.200	-25.581	0.100
271.300	8.058	0.100
271.400	-16.181	0.100
271.500	-13.147	0.100
271.600	-23.912	0.100
271.700	-24.478	0.100
271.800	-10.910	0.100
271.900	-1.235	0.100
272.000	-20.095	0.100
272.100	-31.812	0.100
272.200	4.329	0.100
272.300	-29.315	0.100
272.400	-30.382	0.100
272.500	-21.190	0.100
272.600	-4.011	0.100
272.700	-13.354	0.100
272.800	1.612	0.100
272.900	-12.817	0.100
273.000	-14.062	0.100
273.100	-21.882	0.100
273.200	-12.992	0.100
273.300	-26.681	0.100
273.400	-8.714	0.100
273.500	-29.541	0.100
273.600	-5.054	0.100
273.700	-38.438	0.100
273.800	-38.592	0.100
273.900	12.127	0.100
274.000	-6.277	0.100
274.100	-5.148	0.100
274.200	-11.628	0.100
274.300	-21.735	0.100
274.400	-2.370	0.100
274.500	-19.243	0.100
274.600	-30.037	0.100
274.700	-21.604	0.100
274.800	-6.789	0.100
274.900	-34.866	0.100
275.000	-11.177	0.100
275.100	-28.195	0.100
275.200	-10.054	0.100
275.300	-14.614	0.100
275.400	-25.321	0.100
275.500	-4.707	0.100
275.600	-23.330	0.100
275.700	-17.042	0.100
275.800	3.862	0.100
275.900	-21.984	0.100
276.000	-15.305	0.100
276.100	-40.327	0.100
276.200	-13.910	0.100
276.300	-5.465	0.100
276.400	-24.366	0.100
276.500	-21.524	0.100
276.600	-27.305	0.100
276.700	-19.980	0.100
276.800	-19.721	0.100
276.900	-4.960	0.100
277.000	-38.972	0.100
277.100	-14.513	0.100
277.200	-16.747	0.100
277.300	-3.855	0.100
277.400	-12.086	0.100
277.500	-35.827	0.100
277.600	-21.741	0.100
277.700	-14.198	0.100
277.800	-7.236	0.100
277.900	-22.128	0.100
278.000	-33.529	0.100
278.100	-23.119	0.100
278.200	-3.572	0.100
278.300	-33.023	0.100
278.400	-21.809	0.100
278.500	7.935	0.100
278.600	-15.865	0.100
278.700	-14.950	0.100
278.800	-22.728	0.100
278.900	-19.898	0.100
279.000	-10.341	0.100
279.100	-28.006	0.100
279.200	-5.603	0.100
279.300	-23.948	0.100
279.400	-12.690	0.100
279.500	-13.883	0.100
279.600	-26.788	0.100
279.700	-20.419	0.100
279.800	-19.989	0.100
279.900	-30.307	0.100
280.000	-14.140	0.100
280.100	-45.614	0.100
280.200	-13.948	0.100
280.300	-1.418	0.100
280.400	-9.880	0.100
280.500	-14.793	0.100
280.600	-15.791	0.100
280.700	-2.605	0.100
280.800	-29.612	0.100
280.900	-30.977	0.100
281.000	-13.022	0.100
281.100	-4.623	0.100
281.200	-23.189	0.100
281.300	-25.689	0.100
281.400	-18.436	0.100
281.500	-14.365	0.100
281.600	-21.120	0.100
281.700	-6.466	0.100
281.800	-19.767	0.100
281.900	-19.387	0.100
282.000	-23.026	0.100
282.100	-18.699	0.100
282.200	-15.446	0.100
282.300	-31.244	0.100
282.400	-8.775	0.100
282.500	-14.833	0.100
282.600	-2.721	0.100
282.700	-6.081	0.100
282.800	-22.464	0.100
282.900	-34.450	0.100
283.000	-19.157	0.100
283.100	-26.027	0.100
283.200	8.889	0.100
283.300	-27.575	0.100
283.400	-28.854	0.100
283.500	-37.171	0.100
283.600	-27.485	0.100
283.700	-19.320	0.100
283.800	-7.884	0.100
283.900	-25.421	0.100
284.000	-12.156	0.100
284.100	-42.611	0.100
284.200	-4.127	0.100
284.300	-13.457	0.100
284.400	-12.183	0.100
284.500	-23.733	0.100
284.600	-22.968	0.100
284.700	16.346	0.100
284.800	-25.870	0.100
284.900	-36.026	0.100
285.000	5.727	0.100
285.100	-17.179	0.100
285.200	-11.763	0.100
285.300	-13.614	0.100
285.400	-24.430	0.100
285.500	-17.275	0.100
285.600	-26.578	0.100
285.700	-38.495	0.100
285.800	-30.000	0.100
285.900	1.040	0.100
286.000	-31.193	0.100
286.100	-14.984	0.100
286.200	-24.091	0.100
286.300	-25.392	0.100
286.400	-12.855	0.100
286.500	-32.143	0.100
286.600	-7.411	0.100
286.700	-39.930	0.100
286.800	-12.793	0.100
286.900	-4.982	0.100
287.000	-19.173	0.100
287.100	-21.979	0.100
287.200	-23.513	0.100
287.300	-28.974	0.100
287.400	-10.837	0.100
287.500	-16.870	0.100
287.600	-33.103	0.100
287.700	-31.289	0.100
287.800	-34.623	0.100
287.900	-16.819	0.100
288.000	-26.833	0.100
288.100	-29.996	0.100
288.200	-6.548	0.100
288.300	-21.687	0.100
288.400	-11.780	0.100
288.500	-19.361	0.100
288.600	-14.787	0.100
288.700	-26.577	0.100
288.800	-18.422	0.100
288.900	-34.182	0.100
289.000	-18.291	0.100
289.100	-17.156	0.100
289.200	-11.433	0.100
289.300	-42.880	0.100
289.400	-10.874	0.100
289.500	-22.490	0.100
289.600	-23.800	0.100
289.700	-43.650	0.100
289.800	-7.345	0.100
289.900	-20.054	0.100
290.000	-32.150	0.100
290.100	-29.922	0.100
290.200	-14.386	0.100
290.300	-34.019	0.100
290.400	-34.059	0.100
290.500	-10.964	0.100
290.600	-15.861	0.100
290.700	-32.105	0.100
290.800	-37.595	0.100
290.900	10.963	0.100
291.000	-2.360	0.100
291.100	-37.406	0.100
291.200	-25.157	0.100
291.300	-20.453	0.100
291.400	-28.415	0.100
291.500	-2.890	0.100
291.600	-30.211	0.100
291.700	-15.864	0.100
291.800	-19.954	0.100
291.900	-34.125	0.100
292.000	-55.040	0.100
292.100	-26.268	0.100
292.200	-5.146	0.100
292.300	-24.984	0.100
292.400	-1.874	0.100
292.500	-16.679	0.100
292.600	-7.168	0.100
292.700	-22.093	0.100
292.800	-27.237	0.100
292.900	-22.709	0.100
293.000	-14.168	0.100
293.100	-27.859	0.100
293.200	-18.952	0.100
293.300	-32.607	0.100
293.400	-21.078	0.100
293.500	-14.262	0.100
293.600	-8.663	0.100
293.700	-23.333	0.100
293.800	-23.648	0.100
293.900	-12.206	0.100
294.000	-21.051	0.100
294.100	-37.189	0.100
294.200	-22.058	0.100
294.300	-38.247	0.100
294.400	-15.276	0.100
294.500	-9.702	0.100
294.600	-45.973	0.100
294.700	-31.206	0.100
294.800	-28.484	0.100
294.900	-29.918	0.100
295.000	-12.632	0.100
295.100	-15.072	0.100
295.200	-22.015	0.100
295.300	-19.115	0.100
295.400	-34.048	0.100
295.500	-41.205	0.100
295.600	-14.530	0.100
295.700	-9.095	0.100
295.800	-7.244	0.100
295.900	-33.933	0.100
296.000	-3.761	0.100
296.100	-22.399	0.100
296.200	-35.664	0.100
296.300	-27.028	0.100
296.400	-20.602	0.100
296.500	-54.291	0.100
296.600	-10.613	0.100
296.700	-5.190	0.100
296.800	-22.073	0.100
296.900	-31.304	0.100
297.000	-9.751	0.100
297.100	-27.689	0.100
297.200	-26.148	0.100
297.300	-15.663	0.100
297.400	-14.646	0.100
297.500	-61.081	0.100
297.600	-32.370	0.100
297.700	-17.644	0.100
297.800	-0.649	0.100
297.900	-32.312	0.100
298.000	1.329	0.100
298.100	-26.760	0.100
298.200	-1.890	0.100
298.300	-24.097	0.100
298.400	-15.980	0.100
298.500	-31.851	0.100
298.600	-6.892	0.100
298.700	-54.948	0.100
298.800	-15.025	0.100
298.900	-50.744	0.100
299.000	-13.126	0.100
299.100	-21.866	0.100
299.200	-18.294	0.100
299.300	-14.045	0.100
299.400	-25.922	0.100
299.500	-26.310	0.100
299.600	-33.128	0.100
299.700	-37.419	0.100
299.800	-20.971	0.100
299.900	-12.310	0.100
300.000	-29.718	0.100
300.100	-26.524	0.100
300.200	-36.143	0.100
300.300	-36.605	0.100
300.400	-30.836	0.100
300.500	-21.910	0.100
300.600	-4.581	0.100
300.700	-9.281	0.100
300.800	-31.241	0.100
300.900	10.619	0.100
301.000	-47.327	0.100
301.100	-18.523	0.100
301.200	-29.719	0.100
301.300	-17.814	0.100
301.400	-26.657	0.100
301.500	-17.824	0.100
301.600	-34.527	0.100
301.700	-29.050	0.100
301.800	-4.078	0.100
301.900	-12.488	0.100
302.000	-21.972	0.100
302.100	-38.088	0.100
302.200	-23.896	0.100
302.300	-1.668	0.100
302.400	-32.727	0.100
302.500	-34.641	0.100
302.600	-17.071	0.100
302.700	-22.670	0.100
302.800	-19.859	0.100
302.900	-17.179	0.100
303.000	-18.686	0.100
303.100	-25.765	0.100
303.200	-32.432	0.100
303.300	-20.678	0.100
303.400	-25.360	0.100
303.500	-21.705	0.100
303.600	-13.934	0.100
303.700	-29.927	0.100
303.800	-26.744	0.100
303.900	0.937	0.100
304.000	-27.266	0.100
304.100	-19.566	0.100
304.200	-19.015	0.100
304.300	-31.070	0.100
304.400	-17.371	0.100
304.500	-5.714	0.100
304.600	-20.862	0.100
304.700	-30.903	0.100
304.800	-27.403	0.100
304.900	-39.895	0.100
305.000	-13.884	0.100
305.100	-22.045	0.100
305.200	-15.698	0.100
305.300	-27.568	0.100
305.400	-29.531	0.100
305.500	-24.477	0.100
305.600	-19.620	0.100
305.700	-29.633	0.100
305.800	-18.466	0.100
305.900	5.475	0.100
306.000	-31.519	0.100
306.100	-33.103	0.100
306.200	-34.290	0.100
306.300	-39.504	0.100
306.400	-23.150	0.100
306.500	-20.172	0.100
306.600	-41.358	0.100
306.700	-18.561	0.100
306.800	-12.807	0.100
306.900	-28.184	0.100
307.000	-17.781	0.100
307.100	-40.780	0.100
307.200	-15.850	0.100
307.300	-15.579	0.100
307.400	-20.058	0.100
307.500	-30.061	0.100
307.600	-2.019	0.100
307.700	-10.712	0.100
307.800	-3.966	0.100
307.900	-23.621	0.100
308.000	-13.646	0.100
308.100	-22.875	0.100
308.200	-2.156	0.100
308.300	-41.492	0.100
308.400	-23.996	0.100
308.500	-4.352	0.100
308.600	-24.950	0.100
308.700	-34.745	0.100
308.800	-20.087	0.100
308.900	-21.618	0.100
309.000	-7.976	0.100
309.100	-26.176	0.100
309.200	-7.489	0.100
309.300	-16.667	0.100
309.400	-22.793	0.100
309.500	-16.441	0.100
309.600	-22.866	0.100
309.700	-25.904	0.100
309.800	-30.233	0.100
309.900	-15.492	0.100
310.000	-36.166	0.100
310.100	-27.105	0.100
310.200	-26.136	0.100
310.300	-15.385	0.100
310.400	-23.359	0.100
310.500	-14.136	0.100
310.600	-30.813	0.100
310.700	-28.963	0.100
310.800	-53.577	0.100
310.900	-9.213	0.100
311.000	-16.040	0.100
311.100	-17.745	0.100
311.200	-28.493	0.100
311.300	-12.646	0.100
311.400	-16.278	0.100
311.500	-49.490	0.100
311.600	0.323	0.100
311.700	-24.794	0.100
311.800	-26.525	0.100
311.900	-9.061	0.100
312.000	-35.949	0.100
312.100	-12.926	0.100
312.200	-31.317	0.100
312.300	-9.002	0.100
312.400	-7.492	0.100
312.500	-21.554	0.100
312.600	-32.243	0.100
312.700	-27.824	0.100
312.800	-13.787	0.100
312.900	-7.636	0.100
313.000	-23.475	0.100
313.100	-37.114	0.100
313.200	-16.165	0.100
313.300	-14.727	0.100
313.400	-13.077	0.100
313.500	-8.969	0.100
313.600	-31.825	0.100
313.700	-30.157	0.100
313.800	-41.998	0.100
313.900	-25.557	0.100
314.000	-6.833	0.100
314.100	-9.689	0.100
314.200	-26.229	0.100
314.300	-9.050	0.100
314.400	-29.915	0.100
314.500	-27.173	0.100
314.600	-28.497	0.100
314.700	-8.831	0.100
314.800	-12.629	0.100
314.900	-15.728	0.100
315.000	-38.196	0.100
315.100	-22.587	0.100
315.200	-1.608	0.100
315.300	-8.185	0.100
315.400	-19.035	0.100
315.500	-16.426	0.100
315.600	-5.187	0.100
315.700	-28.880	0.100
315.800	-29.870	0.100
315.900	-12.807	0.100
316.000	-26.734	0.100
316.100	-13.327	0.100
316.200	-27.395	0.100
316.300	-4.014	0.100
316.400	-34.496	0.100
316.500	-8.119	0.100
316.600	-36.176	0.100
316.700	-28.019	0.100
316.800	-9.956	0.100
316.900	0.289	0.100
317.000	-28.181	0.100
317.100	-26.692	0.100
317.200	-17.839	0.100
317.300	-57.645	0.100
317.400	-17.423	0.100
317.500	-30.032	0.100
317.600	-11.033	0.100
317.700	-14.282	0.100
317.800	-11.020	0.100
317.900	-14.276	0.100
318.000	-9.800	0.100
318.100	-18.834	0.100
318.200	-20.977	0.100
318.300	-0.394	0.100
318.400	-8.134	0.100
318.500	-50.544	0.100
318.600	-9.982	0.100
318.700	-20.008	0.100
318.800	1.723	0.100
318.900	-29.195	0.100
319.000	-17.674	0.100
319.100	-20.305	0.100
319.200	-20.459	0.100
319.300	-17.000	0.100
319.400	-9.523	0.100
319.500	-27.315	0.100
319.600	-20.700	0.100
319.700	-0.160	0.100
319.800	-22.961	0.100
319.900	-18.936	0.100
320.000	-12.122	0.100
320.100	-32.370	0.100
320.200	-19.995	0.100
320.300	-12.721	0.100
320.400	2.125	0.100
320.500	-6.963	0.100
320.600	-1.020	0.100
320.700	9.988	0.100
320.800	-24.707	0.100
320.900	-11.113	0.100
321.000	-52.429	0.100
321.100	-20.413	0.100
321.200	-21.856	0.100
321.300	-22.081	0.100
321.400	-6.321	0.100
321.500	-24.708	0.100
321.600	-11.485	0.100
321.700	-37.934	0.100
321.800	-22.832	0.100
321.900	-4.396	0.100
322.000	-12.297	0.100
322.100	-18.593	0.100
322.200	-21.323	0.100
322.300	12.053	0.100
322.400	-43.878	0.100
322.500	-43.639	0.100
322.600	-8.677	0.100
322.700	-24.299	0.100
322.800	-36.866	0.100
322.900	-36.198	0.100
323.000	3.357	0.100
323.100	-32.348	0.100
323.200	-40.900	0.100
323.300	-12.403	0.100
323.400	-33.565	0.100
323.500	-13.351	0.100
323.600	-5.460	0.100
323.700	-15.756	0.100
323.800	-15.749	0.100
323.900	-1.276	0.100
324.000	-15.243	0.100
324.100	-25.784	0.100
324.200	-20.726	0.100
324.300	-32.873	0.100
324.400	-24.379	0.100
324.500	-19.953	0.100
324.600	1.247	0.100
324.700	-13.023	0.100
324.800	-28.997	0.100
324.900	-12.396	0.100
325.000	-19.920	0.100
325.100	-13.212	0.100
325.200	-16.553	0.100
325.300	-22.060	0.100
325.400	-12.476	0.100
325.500	-17.036	0.100
325.600	-20.721	0.100
325.700	-39.368	0.100
325.800	-15.788	0.100
325.900	11.157	0.100
326.000	-18.429	0.100
326.100	-25.728	0.100
326.200	-43.166	0.100
326.300	-27.862	0.100
326.400	-9.810	0.100
326.500	1.996	0.100
326.600	-27.176	0.100
326.700	-22.392	0.100
326.800	-6.925	0.100
326.900	-16.898	0.100
327.000	-19.138	0.100
327.100	-45.609	0.100
327.200	-18.515	0.100
327.300	-16.052	0.100
327.400	-26.440	0.100
327.500	-13.769	0.100
327.600	-18.476	0.100
327.700	-18.216	0.100
327.800	-35.465	0.100
327.900	-28.572	0.100
328.000	-5.311	0.100
328.100	-10.151	0.100
328.200	-22.571	0.100
328.300	-24.941	0.100
328.400	2.669	0.100
328.500	-26.171	0.100
328.600	-27.528	0.100
328.700	-9.729	0.100
328.800	-20.539	0.100
328.900	-23.233	0.100
329.000	-20.065	0.100
329.100	-9.855	0.100
329.200	3.185	0.100
329.300	-7.313	0.100
329.400	-16.440	0.100
329.500	-23.404	0.100
329.600	-25.260	0.100
329.700	-22.405	0.100
329.800	-32.979	0.100
329.900	6.911	0.100
330.000	-13.878	0.100
330.100	-4.414	0.100
330.200	-6.571	0.100
330.300	-5.947	0.100
330.400	-39.335	0.100
330.500	6.253	0.100
330.600	3.610	0.100
330.700	-5.786	0.100
330.800	8.345	0.100
330.900	-6.003	0.100
331.000	4.784	0.100
331.100	0.303	0.100
331.200	3.940	0.100
331.300	2.335	0.100
331.400	5.982	0.100
331.500	9.545	0.100
331.600	17.586	0.100
331.700	13.147	0.100
331.800	8.481	0.100
331.900	2.001	0.100
332.000	1.417	0.100
332.100	10.358	0.100
332.200	23.887	0.100
332.300	-1.169	0.100
332.400	0.182	0.100
332.500	-1.977	0.100
332.600	19.374	0.100
332.700	20.442	0.100
332.800	15.472	0.100
332.900	11.361	0.100
333.000	5.832	0.100
333.100	10.621	0.100
333.200	-3.947	0.100
333.300	16.935	0.100
333.400	29.487	0.100
333.500	9.029	0.100
333.600	22.896	0.100
333.700	38.932	0.100
333.800	23.350	0.100
333.900	-6.878	0.100
334.000	19.274	0.100
334.100	47.255	0.100
334.200	12.289	0.100
334.300	-2.084	0.100
334.400	14.049	0.100
334.500	35.474	0.100
334.600	17.900	0.100
334.700	16.593	0.100
334.800	11.081	0.100
334.900	31.246	0.100
335.000	22.672	0.100
335.100	36.350	0.100
335.200	9.055	0.100
335.300	27.479	0.100
335.400	13.550	0.100
335.500	36.338	0.100
335.600	-15.193	0.100
335.700	34.604	0.100
335.800	35.923	0.100
335.900	24.783	0.100
336.000	2.703	0.100
336.100	-0.480	0.100
336.200	10.960	0.100
336.300	18.790	0.100
336.400	2.058	0.100
336.500	40.746	0.100
336.600	-10.032	0.100
336.700	15.862	0.100
336.800	25.958	0.100
336.900	12.926	0.100
337.000	-4.501	0.100
337.100	3.810	0.100
337.200	21.068	0.100
337.300	31.713	0.100
337.400	26.466	0.100
337.500	35.386	0.100
337.600	5.469	0.100
337.700	36.044	0.100
337.800	0.456	0.100
337.900	9.802	0.100
338.000	16.119	0.100
338.100	10.638	0.100
338.200	39.819	0.100
338.300	14.088	0.100
338.400	-14.684	0.100
338.500	-1.740	0.100
338.600	11.794	0.100
338.700	13.089	0.100
338.800	20.759	0.100
338.900	36.098	0.100
339.000	2.377	0.100
339.100	22.400	0.100
339.200	-5.745	0.100
339.300	22.439	0.100
339.400	22.925	0.100
339.500	36.489	0.100
339.600	8.356	0.100
339.700	19.903	0.100
339.800	11.810	0.100
339.900	31.396	0.100
340.000	14.523	0.100
340.100	12.679	0.100
340.200	-1.492	0.100
340.300	30.363	0.100
340.400	12.166	0.100
340.500	19.639	0.100
340.600	25.360	0.100
340.700	36.713	0.100
340.800	15.354	0.100
340.900	28.119	0.100
341.000	32.308	0.100
341.100	4.386	0.100
341.200	11.405	0.100
341.300	5.733	0.100
341.400	32.949	0.100
341.500	31.047	0.100
341.600	18.535	0.100
341.700	16.272	0.100
341.800	35.830	0.100
341.900	6.355	0.100
342.000	23.427	0.100
342.100	18.549	0.100
342.200	6.591	0.100
342.300	10.013	0.100
342.400	14.171	0.100
342.500	6.393	0.100
342.600	20.925	0.100
342.700	35.447	0.100
342.800	24.980	0.100
342.900	21.773	0.100
343.000	2.168	0.100
343.100	56.276	0.100
343.200	23.509	0.100
343.300	16.455	0.100
343.400	23.022	0.100
343.500	17.156	0.100
343.600	28.255	0.100
343.700	8.120	0.100
343.800	26.161	0.100
343.900	45.317	0.100
344.000	22.221	0.100
344.100	32.475	0.100
344.200	23.279	0.100
344.300	26.263	0.100
344.400	-6.651	0.100
344.500	38.993	0.100
344.600	16.094	0.100
344.700	19.456	0.100
344.800	17.983	0.100
344.900	15.063	0.100
345.000	38.286	0.100
345.100	12.716	0.100
345.200	5.041	0.100
345.300	31.885	0.100
345.400	28.788	0.100
345.500	25.002	0.100
345.600	41.229	0.100
345.700	18.448	0.100
345.800	18.994	0.100
345.900	1.640	0.100
346.000	13.514	0.100
346.100	38.307	0.100
346.200	-1.736	0.100
346.300	10.813	0.100
346.400	23.665	0.100
346.500	9.912	0.100
346.600	-15.979	0.100
346.700	37.919	0.100
346.800	17.131	0.100
346.900	45.206	0.100
347.000	47.334	0.100
347.100	22.722	0.100
347.200	22.533	0.100
347.300	26.577	0.100
347.400	40.052	0.100
347.500	31.293	0.100
347.600	38.236	0.100
347.700	23.024	0.100
347.800	2.424	0.100
347.900	22.290	0.100
348.000	16.018	0.100
348.100	40.106	0.100
348.200	24.133	0.100
348.300	17.090	0.100
348.400	22.024	0.100
348.500	23.955	0.100
348.600	34.024	0.100
348.700	36.496	0.100
348.800	17.490	0.100
348.900	46.885	0.100
349.000	18.145	0.100
349.100	28.196	0.100
349.200	24.621	0.100
349.300	31.288	0.100
349.400	36.938	0.100
349.500	10.033	0.100
349.600	24.880	0.100
349.700	39.625	0.100
349.800	41.472	0.100
349.900	5.455	0.100
350.000	36.823	0.100
350.100	36.382	0.100
350.200	27.604	0.100
350.300	39.843	0.100
350.400	12.994	0.100
350.500	24.373	0.100
350.600	46.852	0.100
350.700	31.703	0.100
350.800	-4.555	0.100
350.900	54.735	0.100
351.000	11.289	0.100
351.100	36.875	0.100
351.200	42.629	0.100
351.300	37.268	0.100
351.400	25.244	0.100
351.500	42.701	0.100
351.600	46.426	0.100
351.700	14.044	0.100
351.800	18.710	0.100
351.900	25.294	0.100
352.000	26.991	0.100
352.100	10.432	0.100
352.200	22.713	0.100
352.300	27.803	0.100
352.400	49.851	0.100
352.500	38.190	0.100
352.600	59.109	0.100
352.700	37.263	0.100
352.800	22.553	0.100
352.900	40.200	0.100
353.000	26.823	0.100
353.100	35.643	0.100
353.200	36.955	0.100
353.300	41.373	0.100
353.400	30.021	0.100
353.500	13.288	0.100
353.600	38.959	0.100
353.700	38.770	0.100
353.800	38.820	0.100
353.900	32.007	0.100
354.000	44.496	0.100
354.100	21.889	0.100
354.200	50.393	0.100
354.300	31.077	0.100
354.400	44.239	0.100
354.500	51.191	0.100
354.600	42.107	0.100
354.700	30.177	0.100
354.800	44.758	0.100
354.900	0.972	0.100
355.000	69.813	0.100
355.100	56.030	0.100
355.200	27.509	0.100
355.300	27.361	0.100
355.400	38.067	0.100
355.500	33.196	0.100
355.600	38.407	0.100
355.700	41.295	0.100
355.800	44.079	0.100
355.900	56.025	0.100
356.000	43.731	0.100
356.100	21.584	0.100
356.200	21.623	0.100
356.300	40.884	0.100
356.400	52.925	0.100
356.500	30.598	0.100
356.600	49.224	0.100
356.700	21.215	0.100
356.800	33.507	0.100
356.900	37.492	0.100
357.000	55.957	0.100
357.100	27.445	0.100
357.200	42.339	0.100
357.300	52.119	0.100
357.400	49.377	0.100
357.500	37.496	0.100
357.600	39.706	0.100
357.700	24.531	0.100
357.800	45.448	0.100
357.900	38.998	0.100
358.000	39.272	0.100
358.100	63.166	0.100
358.200	33.289	0.100
358.300	27.915	0.100
358.400	32.199	0.100
358.500	56.976	0.100
358.600	51.949	0.100
358.700	36.273	0.100
358.800	58.383	0.100
358.900	52.238	0.100
359.000	50.861	0.100
359.100	-7.202	0.100
359.200	25.701	0.100
359.300	54.424	0.100
359.400	28.705	0.100
359.500	54.308	0.100
359.600	34.352	0.100
359.700	54.154	0.100
359.800	36.712	0.100
359.900	32.746	0.100
360.000	52.653	0.100
360.100	65.863	0.100
360.200	23.520	0.100
360.300	52.933	0.100
360.400	34.889	0.100
360.500	64.225	0.100
360.600	27.094	0.100
360.700	39.063	0.100
360.800	50.613	0.100
360.900	41.342	0.100
361.000	28.295	0.100
361.100	48.813	0.100
361.200	39.066	0.100
361.300	33.355	0.100
361.400	17.261	0.100
361.500	33.999	0.100
361.600	48.886	0.100
361.700	42.436	0.100
361.800	40.780	0.100
361.900	30.538	0.100
362.000	66.361	0.100
362.100	59.240	0.100
362.200	41.784	0.100
362.300	47.041	0.100
362.400	35.734	0.100
362.500	49.299	0.100
362.600	54.474	0.100
362.700	51.355	0.100
362.800	47.104	0.100
362.900	29.496	0.100
363.000	54.873	0.100
363.100	31.510	0.100
363.200	37.468	0.100
363.300	53.246	0.100
363.400	54.400	0.100
363.500	26.379	0.100
363.600	48.415	0.100
363.700	27.492	0.100
363.800	46.219	0.100
363.900	45.331	0.100
364.000	67.186	0.100
364.100	51.304	0.100
364.200	38.067	0.100
364.300	47.114	0.100
364.400	37.706	0.100
364.500	35.203	0.100
364.600	29.769	0.100
364.700	44.440	0.100
364.800	41.554	0.100
364.900	47.858	0.100
365.000	44.910	0.100
365.100	45.924	0.100
365.200	37.937	0.100
365.300	40.336	0.100
365.400	27.999	0.100
365.500	34.788	0.100
365.600	33.246	0.100
365.700	45.931	0.100
365.800	47.916	0.100
365.900	56.747	0.100
366.000	63.640	0.100
366.100	17.727	0.100
366.200	37.004	0.100
366.300	44.201	0.100
366.400	38.583	0.100
366.500	51.436	0.100
366.600	18.243	0.100
366.700	36.064	0.100
366.800	30.728	0.100
366.900	76.581	0.100
367.000	41.767	0.100
367.100	51.195	0.100
367.200	56.217	0.100
367.300	15.948	0.100
367.400	47.155	0.100
367.500	19.186	0.100
367.600	50.784	0.100
367.700	37.390	0.100
367.800	47.373	0.100
367.900	22.850	0.100
368.000	47.273	0.100
368.100	40.929	0.100
368.200	55.462	0.100
368.300	47.266	0.100
368.400	48.199	0.100
368.500	33.127	0.100
368.600	29.634	0.100
368.700	64.366	0.100
368.800	31.589	0.100
368.900	43.832	0.100
369.000	36.106	0.100
369.100	47.524	0.100
369.200	32.404	0.100
369.300	55.268	0.100
369.400	36.896	0.100
369.500	40.376	0.100
369.600	33.231	0.100
369.700	46.815	0.100
369.800	28.503	0.100
369.900	47.311	0.100
370.000	34.463	0.100
370.100	42.092	0.100
370.200	45.123	0.100
370.300	39.957	0.100
370.400	44.204	0.100
370.500	51.133	0.100
370.600	47.605	0.100
370.700	44.959	0.100
370.800	40.565	0.100
370.900	24.046	0.100
371.000	36.166	0.100
371.100	53.177	0.100
371.200	35.772	0.100
371.300	48.940	0.100
371.400	32.900	0.100
371.500	30.167	0.100
371.600	55.158	0.100
371.700	49.711	0.100
371.800	29.672	0.100
371.900	42.614	0.100
372.000	38.883	0.100
372.100	39.026	0.100
372.200	53.232	0.100
372.300	28.463	0.100
372.400	39.054	0.100
372.500	44.802	0.100
372.600	54.264	0.100
372.700	49.400	0.100
372.800	8.507	0.100
372.900	33.049	0.100
373.000	37.250	0.100
373.100	60.914	0.100
373.200	21.712	0.100
373.300	50.668	0.100
373.400	26.928	0.100
373.500	29.184	0.100
373.600	38.902	0.100
373.700	37.200	0.100
373.800	35.813	0.100
373.900	56.369	0.100
374.000	50.657	0.100
374.100	59.107	0.100
374.200	23.904	0.100
374.300	46.618	0.100
374.400	45.362	0.100
374.500	33.815	0.100
374.600	18.908	0.100
374.700	49.646	0.100
374.800	49.469	0.100
374.900	15.579	0.100
375.000	11.096	0.100
375.100	41.384	0.100
375.200	51.347	0.100
375.300	67.712	0.100
375.400	14.689	0.100
375.500	51.111	0.100
375.600	50.103	0.100
375.700	31.619	0.100
375.800	29.608	0.100
375.900	44.371	0.100
376.000	50.828	0.100
376.100	22.005	0.100
376.200	59.271	0.100
376.300	41.620	0.100
376.400	54.141	0.100
376.500	41.393	0.100
376.600	45.846	0.100
376.700	50.853	0.100
376.800	36.840	0.100
376.900	20.795	0.100
377.000	43.103	0.100
377.100	40.966	0.100
377.200	30.176	0.100
377.300	54.319	0.100
377.400	53.482	0.100
377.500	40.018	0.100
377.600	49.023	0.100
377.700	41.108	0.100
377.800	32.662	0.100
377.900	23.395	0.100
378.000	51.132	0.100
378.100	38.790	0.100
378.200	54.335	0.100
378.300	39.436	0.100
378.400	31.271	0.100
378.500	44.634	0.100
378.600	45.835	0.100
378.700	38.829	0.100
378.800	48.453	0.100
378.900	17.053	0.100
379.000	50.167	0.100
379.100	43.480	0.100
379.200	50.459	0.100
379.300	46.613	0.100
379.400	37.039	0.100
379.500	48.139	0.100
379.600	45.318	0.100
379.700	51.619	0.100
379.800	42.830	0.100
379.900	57.465	0.100
380.000	34.524	0.100
380.100	43.814	0.100
380.200	41.214	0.100
380.300	34.398	0.100
380.400	44.340	0.100
380.500	42.662	0.100
380.600	50.374	0.100
380.700	39.895	0.100
380.800	40.137	0.100
380.900	47.875	0.100
381.000	31.272	0.100
381.100	54.431	0.100
381.200	50.702	0.100
381.300	34.731	0.100
381.400	11.400	0.100
381.500	30.677	0.100
381.600	40.804	0.100
381.700	50.438	0.100
381.800	55.896	0.100
381.900	49.857	0.100
382.000	47.316	0.100
382.100	42.539	0.100
382.200	36.838	0.100
382.300	34.274	0.100
382.400	52.556	0.100
382.500	53.691	0.100
382.600	38.755	0.100
382.700	24.264	0.100
382.800	68.933	0.100
382.900	45.015	0.100
383.000	33.549	0.100
383.100	43.926	0.100
383.200	29.596	0.100
383.300	45.909	0.100
383.400	50.947	0.100
383.500	51.283	0.100
383.600	46.383	0.100
383.700	50.146	0.100
383.800	10.235	0.100
383.900	51.266	0.100
384.000	29.034	0.100
384.100	66.583	0.100
384.200	51.554	0.100
384.300	13.838	0.100
384.400	44.360	0.100
384.500	63.295	0.100
384.600	60.473	0.100
384.700	40.443	0.100
384.800	12.827	0.100
384.900	40.813	0.100
385.000	52.859	0.100
385.100	33.799	0.100
385.200	18.700	0.100
385.300	46.074	0.100
385.400	52.494	0.100
385.500	25.951	0.100
385.600	38.269	0.100
385.700	36.972	0.100
385.800	53.995	0.100
385.900	52.328	0.100
386.000	61.318	0.100
386.100	41.198	0.100
386.200	29.413	0.100
386.300	44.258	0.100
386.400	6.029	0.100
386.500	60.969	0.100
386.600	19.217	0.100
386.700	40.285	0.100
386.800	12.985	0.100
386.900	36.174	0.100
387.000	32.935	0.100
387.100	49.360	0.100
387.200	41.839	0.100
387.300	41.927	0.100
387.400	65.655	0.100
387.500	35.105	0.100
387.600	37.972	0.100
387.700	59.998	0.100
387.800	33.601	0.100
387.900	24.861	0.100
388.000	47.194	0.100
388.100	52.314	0.100
388.200	39.209	0.100
388.300	35.910	0.100
388.400	62.825	0.100
388.500	45.331	0.100
388.600	23.693	0.100
388.700	55.617	0.100
388.800	43.735	0.100
388.900	13.181	0.100
389.000	27.737	0.100
389.100	30.060	0.100
389.200	37.271	0.100
389.300	44.501	0.100
389.400	39.589	0.100
389.500	51.413	0.100
389.600	31.527	0.100
389.700	22.334	0.100
389.800	27.407	0.100
389.900	49.043	0.100
390.000	38.871	0.100
390.100	45.020	0.100
390.200	18.308	0.100
390.300	40.657	0.100
390.400	41.814	0.100
390.500	28.415	0.100
390.600	39.493	0.100
390.700	39.157	0.100
390.800	23.150	0.100
390.900	45.397	0.100
391.000	14.530	0.100
391.100	15.044	0.100
391.200	33.397	0.100
391.300	37.164	0.100
391.400	14.991	0.100
391.500	17.716	0.100
391.600	9.820	0.100
391.700	21.373	0.100
391.800	23.179	0.100
391.900	24.657	0.100
392.000	16.674	0.100
392.100	27.562	0.100
392.200	22.511	0.100
392.300	15.654	0.100
392.400	-8.344	0.100
392.500	6.506	0.100
392.600	7.203	0.100
392.700	3.231	0.100
392.800	-1.711	0.100
392.900	-8.248	0.100
393.000	-6.005	0.100
393.100	0.831	0.100
393.200	-14.119	0.100
393.300	-9.096	0.100
393.400	13.438	0.100
393.500	-5.892	0.100
393.600	-15.828	0.100
393.700	0.813	0.100
393.800	3.894	0.100
393.900	-14.750	0.100
394.000	-2.206	0.100
394.100	-0.040	0.100
394.200	-10.451	0.100
394.300	5.689	0.100
394.400	10.029	0.100
394.500	-30.372	0.100
394.600	5.390	0.100
394.700	-1.938	0.100
394.800	25.421	0.100
394.900	-11.891	0.100
395.000	-3.809	0.100
395.100	-8.534	0.100
395.200	-0.356	0.100
395.300	-7.121	0.100
395.400	-0.840	0.100
395.500	15.545	0.100
395.600	-22.776	0.100
395.700	-10.837	0.100
395.800	-12.217	0.100
395.900	-5.929	0.100
396.000	-18.001	0.100
396.100	23.481	0.100
396.200	-17.697	0.100
396.300	-1.884	0.100
396.400	1.796	0.100
396.500	10.877	0.100
396.600	-16.367	0.100
396.700	-3.478	0.100
396.800	-15.587	0.100
396.900	1.927	0.100
397.000	3.119	0.100
397.100	3.758	0.100
397.200	-1.444	0.100
397.300	-22.238	0.100
397.400	1.536	0.100
397.500	-5.129	0.100
397.600	-10.323	0.100
397.700	-17.881	0.100
397.800	6.170	0.100
397.900	-14.652	0.100
398.000	9.845	0.100
398.100	6.651	0.100
398.200	-11.044	0.100
398.300	5.116	0.100
398.400	6.840	0.100
398.500	5.309	0.100
398.600	-14.492	0.100
398.700	3.722	0.100
398.800	-22.791	0.100
398.900	15.654	0.100
399.000	-1.072	0.100
399.100	0.450	0.100
399.200	-23.066	0.100
399.300	-9.774	0.100
399.400	-26.918	0.100
399.500	-20.043	0.100
399.600	18.376	0.100
399.700	-14.454	0.100
399.800	17.038	0.100
399.900	13.856	0.100
400.000	-3.056	0.100
400.100	-33.069	0.100
400.200	10.005	0.100
400.300	7.344	0.100
400.400	-9.933	0.100
400.500	9.734	0.100
400.600	2.877	0.100
400.700	-6.299	0.100
400.800	-19.184	0.100
400.900	-11.959	0.100
401.000	10.943	0.100
401.100	-1.775	0.100
401.200	-26.771	0.100
401.300	7.433	0.100
401.400	-1.969	0.100
401.500	12.843	0.100
401.600	-32.813	0.100
401.700	0.073	0.100
401.800	2.575	0.100
401.900	-0.778	0.100
402.000	20.823	0.100
402.100	-6.057	0.100
402.200	1.636	0.100
402.300	2.211	0.100
402.400	-15.882	0.100
402.500	2.367	0.100
402.600	15.561	0.100
402.700	-18.017	0.100
402.800	-12.607	0.100
402.900	9.409	0.100
403.000	-20.993	0.100
403.100	6.866	0.100
403.200	15.234	0.100
403.300	-7.742	0.100
403.400	-5.888	0.100
403.500	19.960	0.100
403.600	-7.377	0.100
403.700	-18.353	0.100
403.800	25.928	0.100
403.900	-4.463	0.100
404.000	-21.925	0.100
404.100	2.305	0.100
404.200	-10.871	0.100
404.300	-1.476	0.100
404.400	9.002	0.100
404.500	4.433	0.100
404.600	-3.693	0.100
404.700	4.687	0.100
404.800	-40.859	0.100
404.900	-7.240	0.100
405.000	16.479	0.100
405.100	-1.883	0.100
405.200	-6.913	0.100
405.300	-46.483	0.100
405.400	-22.478	0.100
405.500	3.157	0.100
405.600	3.235	0.100
405.700	1.632	0.100
405.800	-16.772	0.100
405.900	2.935	0.100
406.000	-17.123	0.100
406.100	-35.462	0.100
406.200	17.499	0.100
406.300	2.795	0.100
406.400	-32.649	0.100
406.500	2.900	0.100
406.600	-13.875	0.100
406.700	3.510	0.100
406.800	-2.071	0.100
406.900	-28.347	0.100
407.000	-13.868	0.100
407.100	-7.302	0.100
407.200	-36.427	0.100
407.300	7.576	0.100
407.400	-3.831	0.100
407.500	-9.995	0.100
407.600	12.412	0.100
407.700	-10.473	0.100
407.800	-16.633	0.100
407.900	-4.608	0.100
408.000	-3.246	0.100
408.100	19.778	0.100
408.200	-45.234	0.100
408.300	-3.937	0.100
408.400	-3.034	0.100
408.500	-1.452	0.100
408.600	3.562	0.100
408.700	0.296	0.100
408.800	4.915	0.100
408.900	-27.705	0.100
409.000	-19.124	0.100
409.100	-5.897	0.100
409.200	-17.178	0.100
409.300	-12.907	0.100
409.400	-13.421	0.100
409.500	-17.897	0.100
409.600	-26.220	0.100
409.700	-10.878	0.100
409.800	-3.688	0.100
409.900	-26.286	0.100
410.000	9.523	0.100
410.100	-14.367	0.100
410.200	25.582	0.100
410.300	1.347	0.100
410.400	1.733	0.100
410.500	-25.055	0.100
410.600	10.155	0.100
410.700	-10.652	0.100
410.800	-20.325	0.100
410.900	-12.446	0.100
411.000	-25.450	0.100
411.100	7.900	0.100
411.200	14.297	0.100
411.300	-13.701	0.100
411.400	-5.861	0.100
411.500	-32.472	0.100
411.600	-5.313	0.100
411.700	-15.372	0.100
411.800	-34.148	0.100
411.900	-1.870	0.100
412.000	-0.986	0.100
412.100	9.215	0.100
412.200	-0.665	0.100
412.300	-13.303	0.100
412.400	-14.233	0.100
412.500	-15.429	0.100
412.600	-10.071	0.100
412.700	-11.888	0.100
412.800	-15.860	0.100
412.900	-10.568	0.100
413.000	-6.892	0.100
413.100	-4.533	0.100
413.200	-21.590	0.100
413.300	-25.602	0.100
413.400	-13.238	0.100
413.500	-5.947	0.100
413.600	-6.317	0.100
413.700	-13.974	0.100
413.800	-31.329	0.100
413.900	7.712	0.100
414.000	-2.044	0.100
414.100	-13.495	0.100
414.200	-2.085	0.100
414.300	-14.424	0.100
414.400	-2.578	0.100
414.500	-17.546	0.100
414.600	-14.530	0.100
414.700	-36.835	0.100
414.800	-8.871	0.100
414.900	-1.380	0.100
415.000	-27.845	0.100
415.100	-6.583	0.100
415.200	-8.727	0.100
415.300	-21.166	0.100
415.400	-17.738	0.100
415.500	-10.216	0.100
415.600	-24.471	0.100
415.700	-20.762	0.100
415.800	-6.839	0.100
415.900	-7.630	0.100
416.000	-19.249	0.100
416.100	-17.943	0.100
416.200	-3.608	0.100
416.300	-17.751	0.100
416.400	-45.508	0.100
416.500	-23.806	0.100
416.600	-0.419	0.100
416.700	1.357	0.100
416.800	-0.435	0.100
416.900	-19.086	0.100
417.000	-32.114	0.100
417.100	-38.153	0.100
417.200	0.656	0.100
417.300	-5.238	0.100
417.400	-5.503	0.100
417.500	-24.705	0.100
417.600	-20.283	0.100
417.700	-1.334	0.100
417.800	-9.630	0.100
417.900	-30.803	0.100
418.000	-13.756	0.100
418.100	-8.718	0.100
418.200	-29.729	0.100
418.300	-0.775	0.100
418.400	-15.940	0.100
418.500	-2.447	0.100
418.600	-4.498	0.100
418.700	-16.300	0.100
418.800	-36.372	0.100
418.900	1.835	0.100
419.000	-5.188	0.100
419.100	-12.647	0.100
419.200	-13.699	0.100
419.300	-14.996	0.100
419.400	-16.511	0.100
419.500	-4.763	0.100
419.600	-22.273	0.100
419.700	-18.667	0.100
419.800	-1.646	0.100
419.900	-27.624	0.100
420.000	-4.752	0.100
420.100	7.342	0.100
420.200	-13.738	0.100
420.300	-17.602	0.100
420.400	-4.048	0.100
420.500	-29.430	0.100
420.600	-27.456	0.100
420.700	-14.357	0.100
420.800	-23.461	0.100
420.900	-18.645	0.100
421.000	-5.917	0.100
421.100	-19.459	0.100
421.200	-31.839	0.100
421.300	-24.873	0.100
421.400	-24.719	0.100
421.500	-3.313	0.100
421.600	-24.944	0.100
421.700	-20.921	0.100
421.800	-23.240	0.100
421.900	-27.782	0.100
422.000	-30.484	0.100
422.100	-11.603	0.100
422.200	-10.163	0.100
422.300	-28.174	0.100
422.400	-10.290	0.100
422.500	-21.087	0.100
422.600	-10.466	0.100
422.700	1.953	0.100
422.800	-4.410	0.100
422.900	-18.491	0.100
423.000	-6.755	0.100
423.100	-16.101	0.100
423.200	-14.486	0.100
423.300	-30.386	0.100
423.400	-13.665	0.100
423.500	-2.262	0.100
423.600	-16.203	0.100
423.700	-45.382	0.100
423.800	-8.692	0.100
423.900	1.766	0.100
424.000	-8.257	0.100
424.100	-12.706	0.100
424.200	-14.122	0.100
424.300	-14.283	0.100
424.400	14.948	0.100
424.500	-18.580	0.100
424.600	-41.302	0.100
424.700	-13.700	0.100
424.800	-47.451	0.100
424.900	-24.382	0.100
425.000	-24.556	0.100
425.100	-3.987	0.100
425.200	-12.386	0.100
425.300	-34.087	0.100
425.400	0.335	0.100
425.500	-20.424	0.100
425.600	-2.884	0.100
425.700	-23.167	0.100
425.800	-13.086	0.100
425.900	-6.749	0.100
426.000	-17.686	0.100
426.100	-17.141	0.100
426.200	-26.591	0.100
426.300	-23.780	0.100
426.400	-20.963	0.100
426.500	-4.224	0.100
426.600	-27.010	0.100
426.700	-25.067	0.100
426.800	-6.066	0.100
426.900	-27.013	0.100
427.000	-19.965	0.100
427.100	-19.480	0.100
427.200	-13.432	0.100
427.300	-35.363	0.100
427.400	-1.526	0.100
427.500	-21.563	0.100
427.600	-34.740	0.100
427.700	-3.885	0.100
427.800	-14.115	0.100
427.900	-10.802	0.100
428.000	-29.677	0.100
428.100	-17.982	0.100
428.200	-28.027	0.100
428.300	-19.785	0.100
428.400	-24.398	0.100
428.500	-20.148	0.100
428.600	-17.787	0.100
428.700	-30.280	0.100
428.800	-28.645	0.100
428.900	-22.403	0.100
429.000	-3.296	0.100
429.100	-23.956	0.100
429.200	-17.923	0.100
429.300	-16.010	0.100
429.400	-11.712	0.100
429.500	-33.242	0.100
429.600	-21.189	0.100
429.700	-28.959	0.100
429.800	-26.958	0.100
429.900	-14.971	0.100
430.000	-17.456	0.100
430.100	-7.855	0.100
430.200	-13.871	0.100
430.300	-16.298	0.100
430.400	-13.219	0.100
430.500	-56.989	0.100
430.600	-19.623	0.100
430.700	-21.630	0.100
430.800	-6.845	0.100
430.900	-10.116	0.100
431.000	-17.402	0.100
431.100	-44.813	0.100
431.200	-15.401	0.100
431.300	-15.331	0.100
431.400	-26.166	0.100
431.500	-19.701	0.100
431.600	-22.896	0.100
431.700	-22.089	0.100
431.800	-21.410	0.100
431.900	-24.504	0.100
432.000	-3.281	0.100
432.100	7.788	0.100
432.200	-27.481	0.100
432.300	-46.989	0.100
432.400	-29.673	0.100
432.500	-21.837	0.100
432.600	-13.037	0.100
432.700	-3.242	0.100
432.800	10.233	0.100
432.900	-19.860	0.100
433.000	-14.620	0.100
433.100	-35.088	0.100
433.200	-29.351	0.100
433.300	-19.524	0.100
433.400	-33.427	0.100
433.500	-37.924	0.100
433.600	-17.962	0.100
433.700	-5.706	0.100
433.800	-11.278	0.100
433.900	-32.263	0.100
434.000	-12.971	0.100
434.100	-6.620	0.100
434.200	-19.539	0.100
434.300	-18.551	0.100
434.400	-16.294	0.100
434.500	-45.943	0.100
434.600	-11.498	0.100
434.700	-35.034	0.100
434.800	-4.975	0.100
434.900	-28.108	0.100
435.000	-33.027	0.100
435.100	6.559	0.100
435.200	-38.827	0.100
435.300	-31.420	0.100
435.400	-32.118	0.100
435.500	-0.516	0.100
435.600	-7.966	0.100
435.700	-43.003	0.100
435.800	-22.743	0.100
435.900	-13.548	0.100
436.000	-17.217	0.100
436.100	-32.586	0.100
436.200	-36.369	0.100
436.300	-5.447	0.100
436.400	-30.324	0.100
436.500	-28.868	0.100
436.600	-34.900	0.100
436.700	-5.186	0.100
436.800	-14.454	0.100
436.900	-23.235	0.100
437.000	-20.501	0.100
437.100	-7.738	0.100
437.200	-37.294	0.100
437.300	-12.459	0.100
437.400	-45.297	0.100
437.500	-30.831	0.100
437.600	-1.240	0.100
437.700	-13.438	0.100
437.800	-14.259	0.100
437.900	-46.486	0.100
438.000	-18.194	0.100
438.100	-18.353	0.100
438.200	-14.687	0.100
438.300	-15.307	0.100
438.400	-26.973	0.100
438.500	-39.150	0.100
438.600	-37.705	0.100
438.700	-20.697	0.100
438.800	-12.526	0.100
438.900	-22.063	0.100
439.000	-29.292	0.100
439.100	-47.545	0.100
439.200	-19.075	0.100
439.300	-44.283	0.100
439.400	1.779	0.100
439.500	-39.675	0.100
439.600	-24.213	0.100
439.700	5.762	0.100
439.800	-38.373	0.100
439.900	2.783	0.100
440.000	-15.452	0.100
440.100	-10.458	0.100
440.200	-22.601	0.100
440.300	-18.953	0.100
440.400	-30.918	0.100
440.500	-18.742	0.100
440.600	-7.664	0.100
440.700	-11.211	0.100
440.800	-34.770	0.100
440.900	-14.035	0.100
441.000	-8.663	0.100
441.100	-32.153	0.100
441.200	-10.221	0.100
441.300	-20.534	0.100
441.400	-44.676	0.100
441.500	-37.044	0.100
441.600	-1.169	0.100
441.700	-38.670	0.100
441.800	-28.323	0.100
441.900	-25.206	0.100
442.000	-26.441	0.100
442.100	-41.567	0.100
442.200	-3.763	0.100
442.300	-19.707	0.100
442.400	-36.275	0.100
442.500	-11.732	0.100
442.600	-36.990	0.100
442.700	-8.624	0.100
442.800	-13.469	0.100
442.900	-31.068	0.100
443.000	-1.449	0.100
443.100	-48.059	0.100
443.200	-35.243	0.100
443.300	0.246	0.100
443.400	-14.610	0.100
443.500	-28.228	0.100
443.600	-31.583	0.100
443.700	-15.746	0.100
443.800	-37.749	0.100
443.900	0.025	0.100
444.000	-4.922	0.100
444.100	-36.322	0.100
444.200	-25.271	0.100
444.300	-32.873	0.100
444.400	-26.656	0.100
444.500	-22.076	0.100
444.600	-18.176	0.100
444.700	-25.191	0.100
444.800	-0.423	0.100
444.900	-24.030	0.100
445.000	-20.182	0.100
445.100	-21.889	0.100
445.200	5.080	0.100
445.300	-12.487	0.100
445.400	-36.770	0.100
445.500	-21.240	0.100
445.600	-23.548	0.100
445.700	-32.876	0.100
445.800	-51.474	0.100
445.900	-27.218	0.100
446.000	-11.361	0.100
446.100	-32.287	0.100
446.200	-18.047	0.100
446.300	-33.246	0.100
446.400	-14.031	0.100
446.500	-29.917	0.100
446.600	-31.943	0.100
446.700	-13.621	0.100
446.800	-24.958	0.100
446.900	-11.013	0.100
447.000	-29.313	0.100
447.100	-30.814	0.100
447.200	-1.323	0.100
447.300	-26.345	0.100
447.400	-33.248	0.100
447.500	-14.700	0.100
447.600	-24.678	0.100
447.700	-42.659	0.100
447.800	-29.323	0.100
447.900	-29.181	0.100
448.000	-20.741	0.100
448.100	-12.170	0.100
448.200	-10.874	0.100
448.300	-23.534	0.100
448.400	-29.614	0.100
448.500	-8.550	0.100
448.600	-30.169	0.100
448.700	-23.237	0.100
448.800	-13.481	0.100
448.900	-16.942	0.100
449.000	-30.652	0.100
449.100	-24.391	0.100
449.200	-7.429	0.100
449.300	-28.505	0.100
449.400	-28.696	0.100
449.500	-31.586	0.100
449.600	-17.832	0.100
449.700	-40.343	0.100
449.800	-32.020	0.100
449.900	-21.894	0.100
450.000	-17.671	0.100
450.100	-1.647	0.100
450.200	-27.652	0.100
450.300	-35.906	0.100
450.400	8.792	0.100
450.500	-9.742	0.100
450.600	-13.462	0.100
450.700	-25.963	0.100
450.800	-28.531	0.100
450.900	-50.358	0.100
451.000	1.680	0.100
451.100	-45.668	0.100
451.200	-40.477	0.100
451.300	-8.433	0.100
451.400	-9.125	0.100
451.500	-26.950	0.100
451.600	-25.873	0.100
451.700	-26.287	0.100
451.800	-25.532	0.100
451.900	-21.757	0.100
452.000	-5.752	0.100
452.100	-37.790	0.100
452.200	-19.227	0.100
452.300	-18.684	0.100
452.400	-4.036	0.100
452.500	-26.042	0.100
452.600	-4.209	0.100
452.700	-32.383	0.100
452.800	-63.306	0.100
452.900	-33.171	0.100
453.000	-2.260	0.100
453.100	-11.724	0.100
453.200	-30.970	0.100
453.300	-20.471	0.100
453.400	-22.525	0.100
453.500	-16.501	0.100
453.600	-20.584	0.100
453.700	-33.617	0.100
453.800	-7.948	0.100
453.900	-13.357	0.100
454.000	-49.378	0.100
454.100	-32.646	0.100
454.200	19.145	0.100
454.300	-8.348	0.100
454.400	-4.829	0.100
454.500	-6.161	0.100
454.600	-15.691	0.100
454.700	-26.894	0.100
454.800	-36.089	0.100
454.900	-19.170	0.100
455.000	6.000	0.100
455.100	-3.769	0.100
455.200	-22.469	0.100
455.300	-14.514	0.100
455.400	-59.097	0.100
455.500	-33.093	0.100
455.600	-11.935	0.100
455.700	-6.772	0.100
455.800	-26.919	0.100
455.900	-22.066	0.100
456.000	-20.376	0.100
456.100	-18.580	0.100
456.200	-20.203	0.100
456.300	-26.341	0.100
456.400	-22.800	0.100
456.500	2.950	0.100
456.600	-19.108	0.100
456.700	-22.875	0.100
456.800	-19.784	0.100
456.900	-36.471	0.100
457.000	-9.599	0.100
457.100	-36.167	0.100
457.200	-7.504	0.100
457.300	-34.651	0.100
457.400	-39.635	0.100
457.500	-39.020	0.100
457.600	-18.433	0.100
457.700	-9.833	0.100
457.800	-10.287	0.100
457.900	-3.395	0.100
458.000	-44.797	0.100
458.100	-9.920	0.100
458.200	-13.335	0.100
458.300	-28.646	0.100
458.400	-13.271	0.100
458.500	-32.891	0.100
458.600	0.105	0.100
458.700	-23.996	0.100
458.800	-29.320	0.100
458.900	-15.995	0.100
459.000	-13.091	0.100
459.100	-22.594	0.100
459.200	-24.963	0.100
459.300	-29.445	0.100
459.400	-35.976	0.100
459.500	8.550	0.100
459.600	-10.964	0.100
459.700	-26.889	0.100
459.800	-43.748	0.100
459.900	-10.499	0.100
460.000	-16.489	0.100
460.100	3.286	0.100
460.200	4.954	0.100
460.300	-33.368	0.100
460.400	-54.423	0.100
460.500	-6.782	0.100
460.600	-23.806	0.100
460.700	-38.251	0.100
460.800	-15.605	0.100
460.900	-27.297	0.100
461.000	-8.328	0.100
461.100	-24.671	0.100
461.200	-40.312	0.100
461.300	-17.845	0.100
461.400	-17.640	0.100
461.500	-26.891	0.100
461.600	-26.772	0.100
461.700	-34.822	0.100
461.800	-24.711	0.100
461.900	-13.016	0.100
462.000	-27.961	0.100
462.100	-22.748	0.100
462.200	-34.542	0.100
462.300	-38.141	0.100
462.400	-5.616	0.100
462.500	-22.793	0.100
462.600	-10.027	0.100
462.700	-14.668	0.100
462.800	-10.835	0.100
462.900	-11.618	0.100
463.000	-27.344	0.100
463.100	-29.878	0.100
463.200	2.852	0.100
463.300	-18.704	0.100
463.400	-30.076	0.100
463.500	-23.956	0.100
463.600	-14.292	0.100
463.700	4.581	0.100
463.800	-1.163	0.100
463.900	-40.416	0.100
464.000	-33.268	0.100
464.100	-34.847	0.100
464.200	-25.137	0.100
464.300	-34.143	0.100
464.400	-15.423	0.100
464.500	-1.941	0.100
464.600	-12.786	0.100
464.700	-36.635	0.100
464.800	-24.981	0.100
464.900	-26.654	0.100
465.000	-20.053	0.100
465.100	-14.562	0.100
465.200	-46.234	0.100
465.300	-15.837	0.100
465.400	-17.352	0.100
465.500	-17.877	0.100
465.600	-40.137	0.100
465.700	-18.450	0.100
465.800	-24.315	0.100
465.900	-18.554	0.100
466.000	-11.501	0.100
466.100	-2.924	0.100
466.200	-15.591	0.100
466.300	-20.779	0.100
466.400	-17.905	0.100
466.500	-2.443	0.100
466.600	-25.081	0.100
466.700	-32.535	0.100
466.800	-32.286	0.100
466.900	-12.183	0.100
467.000	0.820	0.100
467.100	-27.464	0.100
467.200	-44.093	0.100
467.300	-20.566	0.100
467.400	11.597	0.100
467.500	-31.870	0.100
467.600	-34.831	0.100
467.700	-19.774	0.100
467.800	-32.687	0.100
467.900	-17.222	0.100
468.000	-10.202	0.100
468.100	4.436	0.100
468.200	-30.883	0.100
468.300	-28.591	0.100
468.400	-35.406	0.100
468.500	-12.313	0.100
468.600	-20.629	0.100
468.700	2.688	0.100
468.800	-38.503	0.100
468.900	-27.319	0.100
469.000	-4.750	0.100
469.100	-0.529	0.100
469.200	-1.400	0.100
469.300	-20.875	0.100
469.400	-15.691	0.100
469.500	-31.067	0.100
469.600	-4.659	0.100
469.700	-31.559	0.100
469.800	-12.991	0.100
469.900	16.668	0.100
470.000	-24.087	0.100
470.100	-23.389	0.100
470.200	-48.213	0.100
470.300	-12.457	0.100
470.400	-10.126	0.100
470.500	-2.500	0.100
470.600	-23.101	0.100
470.700	-6.966	0.100
470.800	-20.922	0.100
470.900	-30.246	0.100
471.000	-20.016	0.100
471.100	0.608	0.100
471.200	-27.679	0.100
471.300	-14.239	0.100
471.400	-30.630	0.100
471.500	-15.733	0.100
471.600	-29.941	0.100
471.700	-16.969	0.100
471.800	-40.577	0.100
471.900	-8.366	0.100
472.000	-4.211	0.100
472.100	-32.642	0.100
472.200	-35.904	0.100
472.300	-23.992	0.100
472.400	-37.440	0.100
472.500	5.854	0.100
472.600	-17.977	0.100
472.700	-6.800	0.100
472.800	-24.091	0.100
472.900	-23.908	0.100
473.000	3.037	0.100
473.100	-15.360	0.100
473.200	-22.070	0.100
473.300	-20.618	0.100
473.400	-16.645	0.100
473.500	-18.218	0.100
473.600	-27.435	0.100
473.700	-23.588	0.100
473.800	-9.975	0.100
473.900	-29.401	0.100
474.000	-24.692	0.100
474.100	-9.721	0.100
474.200	-29.800	0.100
474.300	-22.814	0.100
474.400	-23.841	0.100
474.500	-7.667	0.100
474.600	-20.332	0.100
474.700	-20.249	0.100
474.800	-35.580	0.100
474.900	-15.585	0.100
475.000	-12.427	0.100
475.100	-7.539	0.100
475.200	-39.131	0.100
475.300	7.028	0.100
475.400	-27.541	0.100
475.500	-27.153	0.100
475.600	-15.542	0.100
475.700	-38.720	0.100
475.800	-17.217	0.100
475.900	-25.688	0.100
476.000	20.473	0.100
476.100	-39.602	0.100
476.200	-22.948	0.100
476.300	-13.404	0.100
476.400	-43.315	0.100
476.500	-6.850	0.100
476.600	-16.028	0.100
476.700	14.335	0.100
476.800	-48.001	0.100
476.900	-25.010	0.100
477.000	-6.294	0.100
477.100	-24.840	0.100
477.200	-25.975	0.100
477.300	3.220	0.100
477.400	-14.274	0.100
477.500	3.377	0.100
477.600	-27.438	0.100
477.700	-25.149	0.100
477.800	-32.528	0.100
477.900	-29.382	0.100
478.000	-27.042	0.100
478.100	-23.161	0.100
478.200	-3.209	0.100
478.300	-19.018	0.100
478.400	-45.531	0.100
478.500	-14.086	0.100
478.600	4.097	0.100
478.700	-20.163	0.100
478.800	-38.202	0.100
478.900	-8.104	0.100
479.000	-8.972	0.100
479.100	-16.473	0.100
479.200	-43.786	0.100
479.300	-8.187	0.100
479.400	-28.750	0.100
479.500	-35.066	0.100
479.600	-16.430	0.100
479.700	12.254	0.100
479.800	-17.065	0.100
479.900	-12.773	0.100
480.000	9.449	0.100
480.100	-3.113	0.100
480.200	-10.422	0.100
480.300	-31.336	0.100
480.400	-11.892	0.100
480.500	-2.269	0.100
480.600	-24.449	0.100
480.700	-19.557	0.100
480.800	-19.432	0.100
480.900	-15.732	0.100
481.000	4.720	0.100
481.100	20.863	0.100
481.200	8.651	0.100
481.300	-11.029	0.100
481.400	14.298	0.100
481.500	-5.055	0.100
481.600	10.549	0.100
481.700	33.553	0.100
481.800	1.914	0.100
481.900	13.222	0.100
482.000	9.801	0.100
482.100	16.750	0.100
482.200	21.776	0.100
482.300	-0.871	0.100
482.400	0.505	0.100
482.500	3.549	0.100
482.600	21.286	0.100
482.700	25.095	0.100
482.800	4.647	0.100
482.900	7.160	0.100
483.000	9.530	0.100
483.100	13.009	0.100
483.200	-0.253	0.100
483.300	22.063	0.100
483.400	9.262	0.100
483.500	21.269	0.100
483.600	25.900	0.100
483.700	7.995	0.100
483.800	23.456	0.100
483.900	28.371	0.100
484.000	17.054	0.100
484.100	10.940	0.100
484.200	45.264	0.100
484.300	43.341	0.100
484.400	22.071	0.100
484.500	32.560	0.100
484.600	13.445	0.100
484.700	4.904	0.100
484.800	23.671	0.100
484.900	41.589	0.100
485.000	-0.276	0.100
485.100	24.366	0.100
485.200	7.211	0.100
485.300	18.695	0.100
485.400	12.331	0.100
485.500	24.007	0.100
485.600	8.734	0.100
485.700	8.389	0.100
485.800	13.482	0.100
485.900	23.184	0.100
486.000	37.300	0.100
486.100	27.956	0.100
486.200	12.118	0.100
486.300	22.801	0.100
486.400	34.601	0.100
486.500	-11.175	0.100
486.600	7.282	0.100
486.700	6.071	0.100
486.800	18.184	0.100
486.900	16.069	0.100
487.000	24.968	0.100
487.100	24.669	0.100
487.200	41.424	0.100
487.300	4.611	0.100
487.400	20.857	0.100
487.500	27.069	0.100
487.600	9.595	0.100
487.700	9.889	0.100
487.800	6.093	0.100
487.900	36.443	0.100
488.000	23.883	0.100
488.100	12.390	0.100
488.200	25.713	0.100
488.300	1.202	0.100
488.400	41.569	0.100
488.500	-3.525	0.100
488.600	14.082	0.100
488.700	7.029	0.100
488.800	7.892	0.100
488.900	12.753	0.100
489.000	8.652	0.100
489.100	39.174	0.100
489.200	28.766	0.100
489.300	24.323	0.100
489.400	9.018	0.100
489.500	9.932	0.100
489.600	41.053	0.100
489.700	29.585	0.100
489.800	19.541	0.100
489.900	38.520	0.100
490.000	7.709	0.100
490.100	31.760	0.100
490.200	23.095	0.100
490.300	-12.054	0.100
490.400	25.486	0.100
490.500	25.850	0.100
490.600	24.434	0.100
490.700	22.768	0.100
490.800	13.125	0.100
490.900	11.709	0.100
491.000	26.192	0.100
491.100	14.538	0.100
491.200	22.801	0.100
491.300	16.728	0.100
491.400	28.288	0.100
491.500	1.420	0.100
491.600	25.087	0.100
491.700	28.905	0.100
491.800	26.969	0.100
491.900	17.402	0.100
492.000	20.967	0.100
492.100	34.359	0.100
492.200	15.382	0.100
492.300	40.788	0.100
492.400	-0.649	0.100
492.500	7.084	0.100
492.600	9.356	0.100
492.700	47.036	0.100
492.800	19.177	0.100
492.900	8.310	0.100
493.000	6.507	0.100
493.100	27.126	0.100
493.200	27.693	0.100
493.300	16.475	0.100
493.400	28.839	0.100
493.500	29.628	0.100
493.600	9.412	0.100
493.700	28.279	0.100
493.800	32.885	0.100
493.900	-4.202	0.100
494.000	-3.110	0.100
494.100	25.532	0.100
494.200	45.357	0.100
494.300	15.417	0.100
494.400	22.872	0.100
494.500	-1.523	0.100
494.600	23.189	0.100
494.700	16.672	0.100
494.800	4.117	0.100
494.900	25.458	0.100
495.000	21.786	0.100
495.100	15.522	0.100
495.200	33.536	0.100
495.300	11.690	0.100
495.400	25.203	0.100
495.500	33.024	0.100
495.600	19.766	0.100
495.700	9.809	0.100
495.800	18.256	0.100
495.900	24.166	0.100
496.000	30.005	0.100
496.100	19.188	0.100
496.200	-2.696	0.100
496.300	34.856	0.100
496.400	20.314	0.100
496.500	14.831	0.100
496.600	31.210	0.100
496.700	2.800	0.100
496.800	15.129	0.100
496.900	47.034	0.100
497.000	34.744	0.100
497.100	29.433	0.100
497.200	16.110	0.100
497.300	16.738	0.100
497.400	13.998	0.100
497.500	25.609	0.100
497.600	26.675	0.100
497.700	11.808	0.100
497.800	25.667	0.100
497.900	46.106	0.100
498.000	32.184	0.100
498.100	34.635	0.100
498.200	-2.671	0.100
498.300	3.426	0.100
498.400	46.550	0.100
498.500	40.404	0.100
498.600	34.327	0.100
498.700	-1.374	0.100
498.800	24.475	0.100
498.900	20.909	0.100
499.000	27.506	0.100
499.100	4.365	0.100
499.200	25.990	0.100
499.300	42.490	0.100
499.400	2.503	0.100
499.500	14.367	0.100
499.600	29.704	0.100
499.700	23.123	0.100
499.800	22.197	0.100
499.900	23.643	0.100
500.000	30.072	0.100
500.100	21.095	0.100
500.200	18.810	0.100
500.300	25.814	0.100
500.400	27.586	0.100
500.500	30.088	0.100
500.600	23.552	0.100
500.700	20.252	0.100
500.800	45.059	0.100
500.900	5.250	0.100
501.000	38.259	0.100
501.100	47.616	0.100
501.200	30.284	0.100
501.300	23.692	0.100
501.400	23.144	0.100
501.500	27.103	0.100
501.600	58.987	0.100
501.700	19.107	0.100
501.800	41.741	0.100
501.900	39.222	0.100
502.000	20.637	0.100
502.100	47.474	0.100
502.200	58.103	0.100
502.300	20.952	0.100
502.400	26.961	0.100
502.500	36.484	0.100
502.600	12.880	0.100
502.700	28.946	0.100
502.800	43.594	0.100
502.900	39.005	0.100
503.000	21.965	0.100
503.100	33.108	0.100
503.200	23.587	0.100
503.300	23.317	0.100
503.400	34.693	0.100
503.500	47.169	0.100
503.600	28.767	0.100
503.700	74.732	0.100
503.800	30.471	0.100
503.900	12.349	0.100
504.000	0.925	0.100
504.100	49.348	0.100
504.200	49.272	0.100
504.300	7.964	0.100
504.400	30.115	0.100
504.500	42.283	0.100
504.600	44.672	0.100
504.700	35.863	0.100
504.800	39.196	0.100
504.900	51.931	0.100
505.000	46.388	0.100
505.100	14.062	0.100
505.200	31.363	0.100
505.300	20.835	0.100
505.400	36.527	0.100
505.500	52.989	0.100
505.600	32.069	0.100
505.700	14.390	0.100
505.800	55.403	0.100
505.900	47.723	0.100
506.000	49.874	0.100
506.100	-1.145	0.100
506.200	69.553	0.100
506.300	48.956	0.100
506.400	43.426	0.100
506.500	43.629	0.100
506.600	19.430	0.100
506.700	33.355	0.100
506.800	41.898	0.100
506.900	36.341	0.100
507.000	30.415	0.100
507.100	55.815	0.100
507.200	43.816	0.100
507.300	34.508	0.100
507.400	44.378	0.100
507.500	48.748	0.100
507.600	28.722	0.100
507.700	43.957	0.100
507.800	38.516	0.100
507.900	31.947	0.100
508.000	27.096	0.100
508.100	63.756	0.100
508.200	46.071	0.100
508.300	45.855	0.100
508.400	38.506	0.100
508.500	48.969	0.100
508.600	34.907	0.100
508.700	44.491	0.100
508.800	21.247	0.100
508.900	56.111	0.100
509.000	62.474	0.100
509.100	41.597	0.100
509.200	31.901	0.100
509.300	13.273	0.100
509.400	22.588	0.100
509.500	44.799	0.100
509.600	56.101	0.100
509.700	64.454	0.100
509.800	49.636	0.100
509.900	51.968	0.100
510.000	25.607	0.100
510.100	30.689	0.100
510.200	38.908	0.100
510.300	32.190	0.100
510.400	53.704	0.100
510.500	56.564	0.100
510.600	39.088	0.100
510.700	45.394	0.100
510.800	39.547	0.100
510.900	42.650	0.100
511.000	47.653	0.100
511.100	62.762	0.100
511.200	65.925	0.100
511.300	28.742	0.100
511.400	36.541	0.100
511.500	32.517	0.100
511.600	36.209	0.100
511.700	32.168	0.100
511.800	26.231	0.100
511.900	32.168	0.100
512.000	62.178	0.100
512.100	67.224	0.100
512.200	20.456	0.100
512.300	33.965	0.100
512.400	51.844	0.100
512.500	48.639	0.100
512.600	45.171	0.100
512.700	45.531	0.100
512.800	51.632	0.100
512.900	33.753	0.100
513.000	60.369	0.100
513.100	36.798	0.100
513.200	38.166	0.100
513.300	42.870	0.100
513.400	46.319	0.100
513.500	32.314	0.100
513.600	17.888	0.100
513.700	50.464	0.100
513.800	42.232	0.100
513.900	45.560	0.100
514.000	43.320	0.100
514.100	56.195	0.100
514.200	30.798	0.100
514.300	5.294	0.100
514.400	68.164	0.100
514.500	39.901	0.100
514.600	34.800	0.100
514.700	37.345	0.100
514.800	47.010	0.100
514.900	53.018	0.100
515.000	45.674	0.100
515.100	45.422	0.100
515.200	26.309	0.100
515.300	59.820	0.100
515.400	51.060	0.100
515.500	35.997	0.100
515.600	47.558	0.100
515.700	28.566	0.100
515.800	30.277	0.100
515.900	54.937	0.100
516.000	67.019	0.100
516.100	32.886	0.100
516.200	39.008	0.100
516.300	43.592	0.100
516.400	55.854	0.100
516.500	32.141	0.100
516.600	18.010	0.100
516.700	52.150	0.100
516.800	28.453	0.100
516.900	83.389	0.100
517.000	42.415	0.100
517.100	56.056	0.100
517.200	11.737	0.100
517.300	38.855	0.100
517.400	51.331	0.100
517.500	67.497	0.100
517.600	39.740	0.100
517.700	46.168	0.100
517.800	28.468	0.100
517.900	36.618	0.100
518.000	38.049	0.100
518.100	42.081	0.100
518.200	42.932	0.100
518.300	27.852	0.100
518.400	43.080	0.100
518.500	39.573	0.100
518.600	46.492	0.100
518.700	43.157	0.100
518.800	37.767	0.100
518.900	27.515	0.100
519.000	38.877	0.100
519.100	35.459	0.100
519.200	51.043	0.100
519.300	43.487	0.100
519.400	40.193	0.100
519.500	43.315	0.100
519.600	37.145	0.100
519.700	27.675	0.100
519.800	60.282	0.100
519.900	50.231	0.100
520.000	34.240	0.100
520.100	39.443	0.100
520.200	42.137	0.100
520.300	73.175	0.100
520.400	57.760	0.100
520.500	21.057	0.100
520.600	48.419	0.100
520.700	43.232	0.100
520.800	49.061	0.100
520.900	24.656	0.100
521.000	51.397	0.100
521.100	27.688	0.100
521.200	21.325	0.100
521.300	41.373	0.100
521.400	74.391	0.100
521.500	55.163	0.100
521.600	43.436	0.100
521.700	20.095	0.100
521.800	35.004	0.100
521.900	25.930	0.100
522.000	44.685	0.100
522.100	57.148	0.100
522.200	65.001	0.100
522.300	31.073	0.100
522.400	38.039	0.100
522.500	27.385	0.100
522.600	47.702	0.100
522.700	26.087	0.100
522.800	52.895	0.100
522.900	39.488	0.100
523.000	45.837	0.100
523.100	42.107	0.100
523.200	35.050	0.100
523.300	65.887	0.100
523.400	37.061	0.100
523.500	37.618	0.100
523.600	37.875	0.100
523.700	51.748	0.100
523.800	32.457	0.100
523.900	37.252	0.100
524.000	42.667	0.100
524.100	45.151	0.100
524.200	44.051	0.100
524.300	42.242	0.100
524.400	43.543	0.100
524.500	31.478	0.100
524.600	24.949	0.100
524.700	60.116	0.100
524.800	46.079	0.100
524.900	60.463	0.100
525.000	43.192	0.100
525.100	48.200	0.100
525.200	30.232	0.100
525.300	23.418	0.100
525.400	33.134	0.100
525.500	42.263	0.100
525.600	44.345	0.100
525.700	34.261	0.100
525.800	58.787	0.100
525.900	55.053	0.100
526.000	37.771	0.100
526.100	50.895	0.100
526.200	35.404	0.100
526.300	43.614	0.100
526.400	37.329	0.100
526.500	47.138	0.100
526.600	57.320	0.100
526.700	27.651	0.100
526.800	14.470	0.100
526.900	36.003	0.100
527.000	67.404	0.100
527.100	49.153	0.100
527.200	41.063	0.100
527.300	25.000	0.100
527.400	50.857	0.100
527.500	41.716	0.100
527.600	50.971	0.100
527.700	35.152	0.100
527.800	50.593	0.100
527.900	55.291	0.100
528.000	41.798	0.100
528.100	7.117	0.100
528.200	29.489	0.100
528.300	58.531	0.100
528.400	33.102	0.100
528.500	51.563	0.100
528.600	40.464	0.100
528.700	16.375	0.100
528.800	48.264	0.100
528.900	33.186	0.100
529.000	52.497	0.100
529.100	30.075	0.100
529.200	33.151	0.100
529.300	73.827	0.100
529.400	35.066	0.100
529.500	39.476	0.100
529.600	26.374	0.100
529.700	48.279	0.100
529.800	17.993	0.100
529.900	49.646	0.100
530.000	47.512	0.100
530.100	31.105	0.100
530.200	41.831	0.100
530.300	35.663	0.100
530.400	41.799	0.100
530.500	48.376	0.100
530.600	57.455	0.100
530.700	46.027	0.100
530.800	40.124	0.100
530.900	19.808	0.100
531.000	39.904	0.100
531.100	69.015	0.100
531.200	40.982	0.100
531.300	19.967	0.100
531.400	43.386	0.100
531.500	44.161	0.100
531.600	39.086	0.100
531.700	43.229	0.100
531.800	51.455	0.100
531.900	49.294	0.100
532.000	27.842	0.100
532.100	51.197	0.100
532.200	46.079	0.100
532.300	55.523	0.100
532.400	39.905	0.100
532.500	32.845	0.100
532.600	47.575	0.100
532.700	18.719	0.100
532.800	42.061	0.100
532.900	42.179	0.100
533.000	41.851	0.100
533.100	18.630	0.100
533.200	51.108	0.100
533.300	50.439	0.100
533.400	68.693	0.100
533.500	36.913	0.100
533.600	41.562	0.100
533.700	26.656	0.100
533.800	20.215	0.100
533.900	37.648	0.100
534.000	66.312	0.100
534.100	39.355	0.100
534.200	42.496	0.100
534.300	26.308	0.100
534.400	27.302	0.100
534.500	58.976	0.100
534.600	55.435	0.100
534.700	23.300	0.100
534.800	60.805	0.100
534.900	54.483	0.100
535.000	40.076	0.100
535.100	36.846	0.100
535.200	26.608	0.100
535.300	75.434	0.100
535.400	33.193	0.100
535.500	32.377	0.100
535.600	45.949	0.100
535.700	29.478	0.100
535.800	41.038	0.100
535.900	50.660	0.100
536.000	32.469	0.100
536.100	57.556	0.100
536.200	56.342	0.100
536.300	42.047	0.100
536.400	39.056	0.100
536.500	24.792	0.100
536.600	36.030	0.100
536.700	55.269	0.100
536.800	42.410	0.100
536.900	51.457	0.100
537.000	36.623	0.100
537.100	51.729	0.100
537.200	50.044	0.100
537.300	51.255	0.100
537.400	41.098	0.100
537.500	29.808	0.100
537.600	18.607	0.100
537.700	53.860	0.100
537.800	46.922	0.100
537.900	51.736	0.100
538.000	36.073	0.100
538.100	47.265	0.100
538.200	23.252	0.100
538.300	46.843	0.100
538.400	46.871	0.100
538.500	44.948	0.100
538.600	33.163	0.100
538.700	54.142	0.100
538.800	37.833	0.100
538.900	16.848	0.100
539.000	31.534	0.100
539.100	53.117	0.100
539.200	51.666	0.100
539.300	17.981	0.100
539.400	44.336	0.100
539.500	61.860	0.100
539.600	26.806	0.100
539.700	61.174	0.100
539.800	49.499	0.100
539.900	47.787	0.100
540.000	26.038	0.100
540.100	55.741	0.100
540.200	34.414	0.100
540.300	30.104	0.100
540.400	49.308	0.100
540.500	18.450	0.100
540.600	34.537	0.100
540.700	24.743	0.100
540.800	41.475	0.100
540.900	50.133	0.100
541.000	10.346	0.100
541.100	37.363	0.100
541.200	33.526	0.100
541.300	23.071	0.100
541.400	20.587	0.100
541.500	7.297	0.100
541.600	23.327	0.100
541.700	11.275	0.100
541.800	7.643	0.100
541.900	22.616	0.100
542.000	6.526	0.100
542.100	24.065	0.100
542.200	12.012	0.100
542.300	27.748	0.100
542.400	9.167	0.100
542.500	3.027	0.100
542.600	-2.619	0.100
542.700	23.533	0.100
542.800	9.905	0.100
542.900	-12.322	0.100
543.000	-1.864	0.100
543.100	15.014	0.100
543.200	-4.588	0.100
543.300	-20.100	0.100
543.400	5.761	0.100
543.500	4.473	0.100
543.600	10.731	0.100
543.700	-14.405	0.100
543.800	-15.690	0.100
543.900	-17.978	0.100
544.000	4.267	0.100
544.100	-8.895	0.100
544.200	-2.594	0.100
544.300	-17.611	0.100
544.400	-2.157	0.100
544.500	6.997	0.100
544.600	-11.358	0.100
544.700	16.220	0.100
544.800	6.602	0.100
544.900	-4.061	0.100
545.000	-25.564	0.100
545.100	-3.406	0.100
545.200	28.572	0.100
545.300	0.460	0.100
545.400	-2.896	0.100
545.500	-21.006	0.100
545.600	-21.885	0.100
545.700	6.022	0.100
545.800	24.714	0.100
545.900	-7.811	0.100
546.000	-15.438	0.100
546.100	-20.857	0.100
546.200	3.017	0.100
546.300	-17.552	0.100
546.400	0.644	0.100
546.500	13.338	0.100
546.600	-2.077	0.100
546.700	5.750	0.100
546.800	-3.023	0.100
546.900	-6.478	0.100
547.000	6.601	0.100
547.100	-7.654	0.100
547.200	-46.046	0.100
547.300	-5.551	0.100
547.400	11.619	0.100
547.500	11.541	0.100
547.600	-19.879	0.100
547.700	-23.592	0.100
547.800	-6.672	0.100
547.900	8.006	0.100
548.000	2.379	0.100
548.100	-11.719	0.100
548.200	2.426	0.100
548.300	-13.816	0.100
548.400	-1.703	0.100
548.500	2.037	0.100
548.600	7.937	0.100
548.700	0.682	0.100
548.800	-5.020	0.100
548.900	-0.723	0.100
549.000	-36.231	0.100
549.100	6.447	0.100
549.200	6.459	0.100
549.300	-2.102	0.100
549.400	-4.507	0.100
549.500	-0.763	0.100
549.600	5.176	0.100
549.700	7.738	0.100
549.800	1.365	0.100
549.900	-11.512	0.100
550.000	2.340	0.100
550.100	-3.869	0.100
550.200	-3.772	0.100
550.300	3.008	0.100
550.400	0.395	0.100
550.500	0.617	0.100
550.600	1.347	0.100
550.700	-14.329	0.100
550.800	5.970	0.100
550.900	-7.440	0.100
551.000	5.251	0.100
551.100	-11.276	0.100
551.200	-1.072	0.100
551.300	3.382	0.100
551.400	10.678	0.100
551.500	-1.432	0.100
551.600	3.946	0.100
551.700	-10.372	0.100
551.800	10.766	0.100
551.900	6.725	0.100
552.000	18.821	0.100
552.100	-20.415	0.100
552.200	6.628	0.100
552.300	4.235	0.100
552.400	5.365	0.100
552.500	-8.274	0.100
552.600	9.081	0.100
552.700	-23.414	0.100
552.800	14.367	0.100
552.900	-1.636	0.100
553.000	-3.814	0.100
553.100	-18.357	0.100
553.200	-17.140	0.100
553.300	-5.503	0.100
553.400	12.971	0.100
553.500	-5.738	0.100
553.600	-30.950	0.100
553.700	-5.971	0.100
553.800	4.700	0.100
553.900	-11.456	0.100
554.000	15.453	0.100
554.100	-12.627	0.100
554.200	8.163	0.100
554.300	-36.474	0.100
554.400	2.275	0.100
554.500	-1.479	0.100
554.600	-16.700	0.100
554.700	-4.072	0.100
554.800	-12.524	0.100
554.900	-11.657	0.100
555.000	-1.086	0.100
555.100	1.328	0.100
555.200	-14.767	0.100
555.300	-23.934	0.100
555.400	-2.596	0.100
555.500	-22.464	0.100
555.600	16.783	0.100
555.700	-17.822	0.100
555.800	-22.558	0.100
555.900	2.875	0.100
556.000	-1.131	0.100
556.100	5.694	0.100
556.200	-24.408	0.100
556.300	7.490	0.100
556.400	-20.135	0.100
556.500	-9.052	0.100
556.600	-14.970	0.100
556.700	-1.197	0.100
556.800	-14.478	0.100
556.900	6.102	0.100
557.000	-16.894	0.100
557.100	-14.306	0.100
557.200	-44.372	0.100
557.300	-9.736	0.100
557.400	-6.570	0.100
557.500	26.180	0.100
557.600	0.173	0.100
557.700	-2.681	0.100
557.800	13.228	0.100
557.900	-28.450	0.100
558.000	-30.860	0.100
558.100	-26.125	0.100
558.200	-25.563	0.100
558.300	-30.444	0.100
558.400	14.507	0.100
558.500	0.069	0.100
558.600	11.537	0.100
558.700	-13.232	0.100
558.800	13.553	0.100
558.900	-34.435	0.100
559.000	-9.065	0.100
559.100	11.900	0.100
559.200	-9.651	0.100
559.300	-7.994	0.100
559.400	1.789	0.100
559.500	-12.639	0.100
559.600	6.423	0.100
559.700	-3.238	0.100
559.800	3.885	0.100
559.900	-9.620	0.100
560.000	-19.156	0.100
560.100	-4.664	0.100
560.200	-12.256	0.100
560.300	-28.729	0.100
560.400	-1.337	0.100
560.500	-13.759	0.100
560.600	6.616	0.100
560.700	-16.887	0.100
560.800	-0.516	0.100
560.900	-1.430	0.100
561.000	-30.934	0.100
561.100	-6.754	0.100
561.200	3.439	0.100
561.300	-19.936	0.100
561.400	3.937	0.100
561.500	-30.444	0.100
561.600	-5.161	0.100
561.700	1.499	0.100
561.800	-25.993	0.100
561.900	-19.255	0.100
562.000	3.764	0.100
562.100	-6.221	0.100
562.200	-17.782	0.100
562.300	-18.650	0.100
562.400	-26.661	0.100
562.500	-9.499	0.100
562.600	6.063	0.100
562.700	-41.114	0.100
562.800	7.779	0.100
562.900	4.904	0.100
563.000	-4.121	0.100
563.100	-13.865	0.100
563.200	-14.531	0.100
563.300	-12.596	0.100
563.400	-18.142	0.100
563.500	-7.337	0.100
563.600	-16.491	0.100
563.700	-27.995	0.100
563.800	-16.698	0.100
563.900	-24.651	0.100
564.000	-14.673	0.100
564.100	-17.906	0.100
564.200	-19.218	0.100
564.300	-2.106	0.100
564.400	-3.694	0.100
564.500	-35.573	0.100
564.600	3.958	0.100
564.700	-24.783	0.100
564.800	-0.256	0.100
564.900	-13.744	0.100
565.000	3.548	0.100
565.100	6.860	0.100
565.200	-18.056	0.100
565.300	-24.655	0.100
565.400	-11.548	0.100
565.500	-11.153	0.100
565.600	-22.050	0.100
565.700	-16.812	0.100
565.800	-26.054	0.100
565.900	-23.822	0.100
566.000	-42.290	0.100
566.100	-25.219	0.100
566.200	9.227	0.100
566.300	-33.602	0.100
566.400	-16.550	0.100
566.500	-18.674	0.100
566.600	-10.481	0.100
566.700	3.089	0.100
566.800	-15.857	0.100
566.900	-7.609	0.100
567.000	-25.168	0.100
567.100	-6.809	0.100
567.200	-19.140	0.100
567.300	-11.832	0.100
567.400	-36.253	0.100
567.500	-3.809	0.100
567.600	-5.090	0.100
567.700	-24.132	0.100
567.800	-9.083	0.100
567.900	-15.161	0.100
568.000	-45.315	0.100
568.100	-26.282	0.100
568.200	12.343	0.100
568.300	-24.360	0.100
568.400	-11.454	0.100
568.500	-9.615	0.100
568.600	-12.172	0.100
568.700	-29.150	0.100
568.800	-13.770	0.100
568.900	-22.064	0.100
569.000	-10.599	0.100
569.100	-16.918	0.100
569.200	-29.263	0.100
569.300	-4.082	0.100
569.400	-8.526	0.100
569.500	-5.716	0.100
569.600	-1.526	0.100
569.700	-14.551	0.100
569.800	3.179	0.100
569.900	-29.544	0.100
570.000	-13.830	0.100
570.100	-27.818	0.100
570.200	-26.274	0.100
570.300	-23.980	0.100
570.400	-1.259	0.100
570.500	4.145	0.100
570.600	-16.059	0.100
570.700	-15.199	0.100
570.800	8.142	0.100
570.900	-22.533	0.100
571.000	-11.786	0.100
571.100	0.099	0.100
571.200	-26.261	0.100
571.300	-42.557	0.100
571.400	-11.818	0.100
571.500	-21.378	0.100
571.600	-0.385	0.100
571.700	-9.722	0.100
571.800	-10.541	0.100
571.900	-4.176	0.100
572.000	-23.149	0.100
572.100	-11.914	0.100
572.200	-1.273	0.100
572.300	-5.709	0.100
572.400	-35.650	0.100
572.500	-12.607	0.100
572.600	-13.411	0.100
572.700	-1.949	0.100
572.800	-24.786	0.100
572.900	-9.094	0.100
573.000	-20.969	0.100
573.100	-0.228	0.100
573.200	-23.133	0.100
573.300	-15.878	0.100
573.400	-34.663	0.100
573.500	-30.975	0.100
573.600	-40.702	0.100
573.700	-21.419	0.100
573.800	-13.260	0.100
573.900	-1.188	0.100
574.000	-6.331	0.100
574.100	-23.044	0.100
574.200	-42.676	0.100
574.300	11.954	0.100
574.400	-1.321	0.100
574.500	-10.477	0.100
574.600	-23.424	0.100
574.700	-20.082	0.100
574.800	-0.831	0.100
574.900	-14.095	0.100
575.000	-18.481	0.100
575.100	-5.216	0.100
575.200	-9.353	0.100
575.300	-32.517	0.100
575.400	-3.383	0.100
575.500	-26.559	0.100
575.600	-31.136	0.100
575.700	6.776	0.100
575.800	-26.375	0.100
575.900	-9.136	0.100
576.000	-15.653	0.100
576.100	-0.974	0.100
576.200	-19.014	0.100
576.300	-26.087	0.100
576.400	-11.459	0.100
576.500	-31.041	0.100
576.600	-7.650	0.100
576.700	11.456	0.100
576.800	-2.268	0.100
576.900	-22.066	0.100
577.000	-28.465	0.100
577.100	-39.978	0.100
577.200	-12.936	0.100
577.300	-8.949	0.100
577.400	-34.601	0.100
577.500	-12.251	0.100
577.600	-2.480	0.100
577.700	-2.957	0.100
577.800	-18.325	0.100
577.900	-35.930	0.100
578.000	-21.809	0.100
578.100	-56.066	0.100
578.200	-26.482	0.100
578.300	-7.315	0.100
578.400	10.529	0.100
578.500	-21.213	0.100
578.600	-21.248	0.100
578.700	-13.162	0.100
578.800	-32.964	0.100
578.900	-6.070	0.100
579.000	-42.593	0.100
579.100	-21.876	0.100
579.200	-13.719	0.100
579.300	-25.725	0.100
579.400	-17.066	0.100
579.500	-21.021	0.100
579.600	-30.971	0.100
579.700	-37.623	0.100
579.800	-39.148	0.100
579.900	-26.705	0.100
580.000	-24.370	0.100
580.100	-13.514	0.100
580.200	-14.737	0.100
580.300	-23.047	0.100
580.400	-5.654	0.100
580.500	-19.704	0.100
580.600	-27.408	0.100
580.700	-37.632	0.100
580.800	-14.670	0.100
580.900	-27.455	0.100
581.000	-8.481	0.100
581.100	-27.546	0.100
581.200	-26.147	0.100
581.300	-26.980	0.100
581.400	-19.496	0.100
581.500	-25.792	0.100
581.600	-19.859	0.100
581.700	-15.640	0.100
581.800	-13.846	0.100
581.900	-13.259	0.100
582.000	-11.937	0.100
582.100	-38.146	0.100
582.200	-23.524	0.100
582.300	-17.871	0.100
582.400	-7.439	0.100
582.500	-6.666	0.100
582.600	-11.735	0.100
582.700	-24.202	0.100
582.800	-21.606	0.100
582.900	-30.588	0.100
583.000	-20.201	0.100
583.100	-24.827	0.100
583.200	-47.864	0.100
583.300	-23.710	0.100
583.400	-4.937	0.100
583.500	-13.675	0.100
583.600	-32.091	0.100
583.700	-20.153	0.100
583.800	-28.945	0.100
583.900	-16.325	0.100
584.000	3.684	0.100
584.100	-31.185	0.100
584.200	-22.997	0.100
584.300	-8.438	0.100
584.400	-13.254	0.100
584.500	-25.935	0.100
584.600	-34.054	0.100
584.700	-29.133	0.100
584.800	-21.330	0.100
584.900	-15.290	0.100
585.000	-33.261	0.100
585.100	-12.975	0.100
585.200	-17.128	0.100
585.300	-25.255	0.100
585.400	-20.794	0.100
585.500	-21.275	0.100
585.600	-16.729	0.100
585.700	-10.811	0.100
585.800	-56.341	0.100
585.900	-18.630	0.100
586.000	-12.230	0.100
586.100	-30.459	0.100
586.200	-21.020	0.100
586.300	-27.183	0.100
586.400	-24.319	0.100
586.500	-2.179	0.100
586.600	-12.970	0.100
586.700	-26.134	0.100
586.800	-39.145	0.100
586.900	-17.190	0.100
587.000	-13.265	0.100
587.100	-39.683	0.100
587.200	-21.814	0.100
587.300	-15.381	0.100
587.400	-36.477	0.100
587.500	-13.642	0.100
587.600	-11.353	0.100
587.700	-27.885	0.100
587.800	-40.352	0.100
587.900	-28.982	0.100
588.000	-5.860	0.100
588.100	-8.084	0.100
588.200	-32.483	0.100
588.300	-50.608	0.100
588.400	-34.322	0.100
588.500	-30.935	0.100
588.600	-11.786	0.100
588.700	-28.823	0.100
588.800	-27.406	0.100
588.900	-18.673	0.100
589.000	-21.353	0.100
589.100	-26.637	0.100
589.200	-4.870	0.100
589.300	-30.324	0.100
589.400	-37.182	0.100
589.500	-21.487	0.100
589.600	-48.127	0.100
589.700	-17.333	0.100
589.800	-31.221	0.100
589.900	-8.497	0.100
590.000	-31.944	0.100
590.100	-12.695	0.100
590.200	-5.240	0.100
590.300	-61.525	0.100
590.400	-9.125	0.100
590.500	-26.568	0.100
590.600	-19.932	0.100
590.700	-7.246	0.100
590.800	5.820	0.100
590.900	-30.342	0.100
591.000	-4.598	0.099
591.100	-33.188	0.100
591.200	-30.611	0.100
591.300	-24.359	0.099
591.400	-21.329	0.099
591.500	-26.797	0.099
591.600	-21.907	0.099
591.700	-46.690	0.099
591.800	-11.681	0.099
591.900	-44.942	0.099
592.000	-29.573	0.099
592.100	12.927	0.099
592.200	-27.807	0.099
592.300	-23.885	0.099
592.400	-15.426	0.099
592.500	-29.235	0.099
592.600	-24.001	0.099
592.700	-9.977	0.099
592.800	-20.045	0.099
592.900	-25.756	0.099
593.000	-37.169	0.099
593.100	-11.205	0.099
593.200	-34.994	0.099
593.300	-34.181	0.099
593.400	-26.941	0.099
593.500	-16.416	0.099
593.600	-50.237	0.099
593.700	-20.526	0.099
593.800	-18.046	0.099
593.900	-28.265	0.099
594.000	-23.627	0.099
594.100	-19.849	0.099
594.200	-24.889	0.099
594.300	-7.351	0.099
594.400	-8.680	0.099
594.500	-38.913	0.099
594.600	-29.686	0.099
594.700	-11.462	0.099
594.800	2.375	0.099
594.900	-18.937	0.099
595.000	-26.323	0.099
595.100	-28.002	0.099
595.200	-14.831	0.099
595.300	-52.967	0.099
595.400	-10.949	0.099
595.500	-11.448	0.099
595.600	-6.686	0.099
595.700	-28.169	0.099
595.800	-32.650	0.099
595.900	-12.517	0.099
596.000	-18.435	0.099
596.100	-14.044	0.099
596.200	-22.992	0.099
596.300	-17.590	0.099
596.400	-11.280	0.099
596.500	-74.204	0.099
596.600	-51.067	0.099
596.700	-37.595	0.099
596.800	-6.842	0.099
596.900	-24.184	0.099
597.000	1.621	0.099
597.100	-17.931	0.099
597.200	-15.156	0.099
597.300	-20.236	0.099
597.400	-53.215	0.099
597.500	-24.110	0.099
597.600	-10.655	0.099
597.700	-20.325	0.099
597.800	-33.630	0.099
597.900	3.732	0.099
598.000	-29.278	0.099
598.100	-17.080	0.099
598.200	-47.829	0.099
598.300	-21.715	0.099
598.400	-24.705	0.099
598.500	-34.325	0.099
598.600	-6.708	0.099
598.700	-34.947	0.099
598.800	-22.129	0.099
598.900	-34.715	0.099
599.000	-32.683	0.099
599.100	-11.641	0.099
599.200	-10.340	0.099
599.300	-23.817	0.099
599.400	-41.139	0.099
599.500	-34.618	0.099
599.600	-8.124	0.099
599.700	-38.824	0.099
599.800	-15.406	0.099
599.900	-33.505	0.099
600.000	-15.514	0.099
600.100	-22.607	0.099
600.200	-14.470	0.099
600.300	-21.758	0.099
600.400	-37.355	0.099
600.500	-12.739	0.099
600.600	-14.274	0.099
600.700	-32.333	0.099
600.800	-23.553	0.099
600.900	-29.353	0.099
601.000	-26.693	0.099
601.100	-20.310	0.099
601.200	-5.591	0.099
601.300	-25.141	0.099
601.400	-34.621	0.099
601.500	-36.400	0.099
601.600	-23.986	0.099
601.700	-28.581	0.099
601.800	-17.050	0.099
601.900	-25.140	0.099
602.000	-29.217	0.099
602.100	-54.027	0.099
602.200	-17.427	0.099
602.300	-17.015	0.099
602.400	-6.654	0.099
602.500	-27.138	0.099
602.600	-32.241	0.099
602.700	-12.115	0.099
602.800	-29.906	0.099
602.900	-18.208	0.099
603.000	-18.613	0.099
603.100	-27.598	0.099
603.200	-40.063	0.099
603.300	14.310	0.099
603.400	-50.001	0.099
603.500	-18.961	0.099
603.600	-27.585	0.099
603.700	-24.531	0.099
603.800	-29.246	0.099
603.900	-20.252	0.099
604.000	-38.537	0.099
604.100	11.819	0.099
604.200	-13.842	0.099
604.300	-14.826	0.099
604.400	-50.703	0.099
604.500	-25.592	0.099
604.600	-28.208	0.099
604.700	-38.293	0.099
604.800	-28.409	0.099
604.900	-6.201	0.099
605.000	-50.155	0.099
605.100	-18.422	0.099
605.200	-10.921	0.099
605.300	-27.888	0.099
605.400	-37.338	0.099
605.500	-20.852	0.099
605.600	-19.727	0.099
605.700	-24.992	0.099
605.800	-4.103	0.099
605.900	-15.506	0.099
606.000	-26.473	0.099
606.100	-35.246	0.099
606.200	-1.224	0.099
606.300	-15.127	0.099
606.400	-11.103	0.099
606.500	-29.473	0.099
606.600	-18.575	0.099
606.700	-24.683	0.099
606.800	-26.449	0.099
606.900	-35.074	0.099
607.000	-39.849	0.099
607.100	-15.931	0.099
607.200	-19.655	0.099
607.300	-26.609	0.099
607.400	-14.589	0.099
607.500	-17.956	0.099
607.600	-29.046	0.099
607.700	-30.793	0.099
607.800	-40.287	0.099
607.900	-14.292	0.099
608.000	-15.857	0.099
608.100	-40.200	0.100
608.200	-13.067	0.100
608.300	-40.777	0.100
608.400	-26.966	0.100
608.500	-12.896	0.100
608.600	-21.640	0.100
608.700	-11.074	0.100
608.800	-14.043	0.100
608.900	-10.132	0.100
609.000	-28.790	0.100
609.100	-33.220	0.100
609.200	-30.339	0.100
609.300	-43.240	0.100
609.400	-29.726	0.100
609.500	-15.796	0.100
609.600	-23.717	0.100
609.700	-17.442	0.100
609.800	-18.932	0.100
609.900	-48.030	0.100
610.000	5.983	0.100
610.100	-25.398	0.100
610.200	-28.615	0.100
610.300	-27.788	0.100
610.400	2.397	0.100
610.500	-16.853	0.100
610.600	-34.587	0.100
610.700	5.992	0.100
610.800	-39.327	0.100
610.900	-18.864	0.100
611.000	-21.082	0.100
611.100	-21.231	0.100
611.200	-18.207	0.100
611.300	-17.369	0.100
611.400	-15.625	0.100
611.500	-32.504	0.100
611.600	-10.550	0.100
611.700	-17.085	0.100
611.800	-23.333	0.100
611.900	-16.832	0.100
612.000	-16.778	0.100
612.100	-15.546	0.100
612.200	-26.670	0.100
612.300	-50.879	0.100
612.400	-5.807	0.100
612.500	-8.248	0.100
612.600	-23.993	0.100
612.700	-35.076	0.100
612.800	-16.965	0.100
612.900	-17.222	0.100
613.000	-18.357	0.100
613.100	-21.882	0.100
613.200	-33.878	0.100
613.300	-6.906	0.100
613.400	-21.169	0.100
613.500	-6.946	0.100
613.600	-37.748	0.100
613.700	-0.768	0.100
613.800	-17.594	0.100
613.900	-14.627	0.100
614.000	-29.523	0.100
614.100	-24.739	0.100
614.200	-27.779	0.100
614.300	3.527	0.100
614.400	4.077	0.100
614.500	-24.875	0.100
614.600	-29.195	0.100
614.700	0.092	0.100
614.800	-12.890	0.100
614.900	-38.528	0.100
615.000	-13.928	0.100
615.100	-31.534	0.100
615.200	2.389	0.100
615.300	-27.474	0.100
615.400	-34.876	0.100
615.500	-11.821	0.100
615.600	-20.764	0.100
615.700	-23.328	0.100
615.800	-12.138	0.100
615.900	-55.074	0.100
616.000	-19.657	0.100
616.100	-10.031	0.100
616.200	-38.084	0.100
616.300	-2.235	0.100
616.400	-18.834	0.100
616.500	-11.620	0.100
616.600	2.653	0.100
616.700	-16.249	0.100
616.800	-26.316	0.100
616.900	-35.589	0.100
617.000	-25.987	0.100
617.100	-1.817	0.100
617.200	-32.914	0.100
617.300	-29.598	0.100
617.400	-34.860	0.100
617.500	-3.132	0.100
617.600	-32.228	0.100
617.700	-10.383	0.100
617.800	-30.600	0.100
617.900	-41.631	0.100
618.000	-24.146	0.100
618.100	1.936	0.100
618.200	-8.292	0.100
618.300	-21.534	0.100
618.400	-18.115	0.100
618.500	-0.868	0.100
618.600	-32.055	0.100
618.700	-18.518	0.100
618.800	-11.808	0.100
618.900	-26.670	0.100
619.000	-42.128	0.100
619.100	0.954	0.100
619.200	-20.940	0.100
619.300	-22.133	0.100
619.400	-19.414	0.100
619.500	-13.487	0.100
619.600	-33.824	0.100
619.700	-20.211	0.100
619.800	-40.783	0.100
619.900	-20.689	0.100
620.000	-10.579	0.100
620.100	-13.285	0.100
620.200	10.560	0.100
620.300	-25.335	0.100
620.400	-15.995	0.100
620.500	-17.239	0.100
620.600	-25.052	0.100
620.700	-0.330	0.100
620.800	-23.109	0.100
620.900	-19.653	0.100
621.000	-10.504	0.100
621.100	-34.377	0.100
621.200	-12.812	0.100
621.300	-20.584	0.100
621.400	-16.071	0.100
621.500	-11.353	0.100
621.600	-24.505	0.100
621.700	-28.572	0.100
621.800	2.727	0.100
621.900	-34.624	0.100
622.000	13.096	0.100
622.100	-36.050	0.100
622.200	-34.894	0.100
622.300	-9.597	0.100
622.400	-11.766	0.100
622.500	-39.840	0.100
622.600	-23.441	0.100
622.700	-19.186	0.100
622.800	-13.810	0.100
622.900	-43.429	0.100
623.000	-17.364	0.100
623.100	-16.755	0.100
623.200	-37.772	0.100
623.300	0.820	0.100
623.400	-36.079	0.100
623.500	-21.041	0.100
623.600	-6.759	0.100
623.700	0.100	0.100
623.800	-17.153	0.100
623.900	-18.481	0.100
624.000	1.522	0.100
624.100	-45.910	0.100
624.200	-44.189	0.100
624.300	-4.281	0.100
624.400	-17.536	0.100
624.500	-4.771	0.100
624.600	-33.260	0.100
624.700	-12.201	0.100
624.800	-33.244	0.100
624.900	-9.664	0.100
625.000	-28.416	0.100
625.100	-11.025	0.100
625.200	-18.748	0.100
625.300	-44.593	0.100
625.400	-28.850	0.100
625.500	-21.966	0.100
625.600	10.165	0.100
625.700	-11.975	0.100
625.800	-19.894	0.100
625.900	-19.561	0.100
626.000	-48.073	0.100
626.100	-16.293	0.100
626.200	-26.000	0.100
626.300	-19.580	0.100
626.400	-22.218	0.100
626.500	-6.800	0.100
626.600	-23.685	0.100
626.700	-26.450	0.100
626.800	-17.137	0.100
626.900	-8.686	0.100
627.000	-16.896	0.100
627.100	-24.378	0.100
627.200	-16.031	0.100
627.300	-39.755	0.100
627.400	-13.952	0.100
627.500	-32.248	0.100
627.600	-10.583	0.100
627.700	-20.678	0.100
627.800	-32.667	0.100
627.900	-6.414	0.100
628.000	-27.797	0.100
628.100	-33.915	0.100
628.200	-30.802	0.100
628.300	-35.954	0.100
628.400	-13.589	0.100
628.500	-15.607	0.100
628.600	-22.782	0.100
628.700	-39.615	0.100
628.800	-19.413	0.100
628.900	-24.682	0.100
629.000	-13.225	0.100
629.100	2.966	0.100
629.200	6.627	0.100
629.300	-24.599	0.100
629.400	-34.084	0.100
629.500	-21.628	0.100
629.600	-28.524	0.100
629.700	-17.219	0.100
629.800	-34.812	0.100
629.900	-14.923	0.100
630.000	-35.808	0.100
630.100	-10.071	0.100
630.200	-25.623	0.100
630.300	-2.004	0.100
630.400	-11.813	0.100
630.500	1.958	0.100
630.600	-28.758	0.100
630.700	-30.542	0.100
630.800	-0.401	0.100
630.900	-11.803	0.100
631.000	1.055	0.100
631.100	4.305	0.100
631.200	9.565	0.100
631.300	-18.024	0.100
631.400	-4.762	0.100
631.500	-1.961	0.100
631.600	1.637	0.100
631.700	-5.827	0.100
631.800	23.275	0.100
631.900	3.581	0.100
632.000	4.447	0.100
632.100	18.724	0.100
632.200	-1.273	0.100
632.300	27.490	0.100
632.400	3.519	0.100
632.500	18.300	0.100
632.600	-2.070	0.100
632.700	2.128	0.100
632.800	10.230	0.100
632.900	3.509	0.100
633.000	23.085	0.100
633.100	18.029	0.100
633.200	25.545	0.100
633.300	9.333	0.100
633.400	7.621	0.100
633.500	4.998	0.100
633.600	24.776	0.100
633.700	12.318	0.100
633.800	5.470	0.100
633.900	17.192	0.100
634.000	-6.468	0.100
634.100	25.687	0.100
634.200	40.896	0.100
634.300	24.949	0.100
634.400	31.377	0.100
634.500	-1.063	0.100
634.600	9.723	0.100
634.700	37.947	0.100
634.800	37.263	0.100
634.900	14.516	0.100
635.000	2.728	0.100
635.100	-0.142	0.100
635.200	8.842	0.100
635.300	45.781	0.100
635.400	-17.945	0.100
635.500	24.596	0.100
635.600	36.090	0.100
635.700	18.802	0.100
635.800	19.453	0.100
635.900	22.269	0.100
636.000	11.853	0.100
636.100	9.600	0.100
636.200	16.381	0.100
636.300	20.030	0.100
636.400	13.043	0.100
636.500	33.000	0.099
636.600	7.409	0.100
636.700	11.014	0.100
636.800	22.663	0.100
636.900	47.101	0.100
637.000	11.887	0.100
637.100	15.650	0.100
637.200	22.703	0.100
637.300	16.708	0.100
637.400	16.591	0.100
637.500	20.827	0.100
637.600	5.086	0.100
637.700	4.090	0.100
637.800	36.024	0.100
637.900	40.028	0.100
638.000	5.147	0.100
638.100	16.383	0.100
638.200	8.746	0.100
638.300	9.693	0.100
638.400	0.984	0.100
638.500	26.964	0.100
638.600	29.218	0.100
638.700	9.856	0.100
638.800	9.543	0.100
638.900	12.413	0.100
639.000	27.876	0.099
639.100	36.115	0.100
639.200	25.299	0.100
639.300	26.426	0.100
639.400	5.702	0.100
639.500	23.728	0.100
639.600	23.345	0.100
639.700	33.339	0.100
639.800	11.821	0.100
639.900	31.275	0.100
640.000	16.491	0.100
640.100	8.197	0.100
640.200	20.253	0.100
640.300	-15.133	0.100
640.400	24.303	0.100
640.500	-6.825	0.100
640.600	11.701	0.100
640.700	19.433	0.100
640.800	36.596	0.100
640.900	17.534	0.100
641.000	10.927	0.099
641.100	32.093	0.100
641.200	17.542	0.100
641.300	13.115	0.100
641.400	9.458	0.100
641.500	28.270	0.100
641.600	16.301	0.100
641.700	11.905	0.100
641.800	32.547	0.100
641.900	12.373	0.100
642.000	7.610	0.100
642.100	35.178	0.100
642.200	26.082	0.100
642.300	41.831	0.100
642.400	18.083	0.100
642.500	10.772	0.100
642.600	2.389	0.100
642.700	25.949	0.100
642.800	26.759	0.100
642.900	29.360	0.100
643.000	25.303	0.100
643.100	32.641	0.100
643.200	14.152	0.100
643.300	-1.066	0.100
643.400	4.963	0.100
643.500	-5.466	0.100
643.600	25.561	0.100
643.700	28.355	0.100
643.800	0.841	0.100
643.900	-1.681	0.100
644.000	39.238	0.100
644.100	43.794	0.100
644.200	33.989	0.100
644.300	27.900	0.100
644.400	13.357	0.100
644.500	17.788	0.100
644.600	13.696	0.100
644.700	-1.365	0.100
644.800	47.119	0.100
644.900	22.068	0.100
645.000	28.024	0.100
645.100	23.826	0.100
645.200	37.516	0.100
645.300	-4.190	0.100
645.400	26.239	0.100
645.500	8.482	0.100
645.600	1.688	0.100
645.700	17.318	0.100
645.800	28.666	0.100
645.900	18.821	0.100
646.000	12.113	0.100
646.100	17.313	0.100
646.200	17.224	0.100
646.300	8.337	0.100
646.400	22.492	0.100
646.500	21.784	0.100
646.600	21.846	0.100
646.700	13.873	0.100
646.800	34.649	0.100
646.900	16.255	0.100
647.000	13.968	0.100
647.100	-9.912	0.100
647.200	21.691	0.100
647.300	31.881	0.100
647.400	60.805	0.100
647.500	21.715	0.100
647.600	11.837	0.100
647.700	5.306	0.100
647.800	37.397	0.100
647.900	33.923	0.100
648.000	8.007	0.100
648.100	20.073	0.100
648.200	40.992	0.100
648.300	19.495	0.100
648.400	25.180	0.100
648.500	33.284	0.100
648.600	13.305	0.100
648.700	16.674	0.100
648.800	32.890	0.100
648.900	60.933	0.100
649.000	15.694	0.100
649.100	8.508	0.100
649.200	32.528	0.100
649.300	26.972	0.100
649.400	24.125	0.100
649.500	20.098	0.100
649.600	56.273	0.100
649.700	12.833	0.100
649.800	14.114	0.100
649.900	10.812	0.100
650.000	29.180	0.100
650.100	36.954	0.100
650.200	19.262	0.100
650.300	33.922	0.100
650.400	41.648	0.100
650.500	27.190	0.100
650.600	28.517	0.100
650.700	16.470	0.100
650.800	24.935	0.100
650.900	36.567	0.100
651.000	27.430	0.100
651.100	38.656	0.100
651.200	20.562	0.100
651.300	35.689	0.100
651.400	26.068	0.100
651.500	56.182	0.100
651.600	35.047	0.100
651.700	40.719	0.100
651.800	36.743	0.100
651.900	25.536	0.100
652.000	23.911	0.100
652.100	15.922	0.100
652.200	33.953	0.100
652.300	51.650	0.100
652.400	14.925	0.100
652.500	23.236	0.100
652.600	29.355	0.100
652.700	38.016	0.100
652.800	38.707	0.100
652.900	32.398	0.100
653.000	25.886	0.100
653.100	39.476	0.100
653.200	13.999	0.100
653.300	44.030	0.100
653.400	11.362	0.100
653.500	49.949	0.100
653.600	27.350	0.100
653.700	33.112	0.100
653.800	50.377	0.100
653.900	33.953	0.100
654.000	37.845	0.100
654.100	29.333	0.100
654.200	53.404	0.100
654.300	52.818	0.100
654.400	21.071	0.100
654.500	17.949	0.100
654.600	25.730	0.099
654.700	45.961	0.100
654.800	33.336	0.100
654.900	46.744	0.100
655.000	21.129	0.100
655.100	31.731	0.100
655.200	36.376	0.100
655.300	16.164	0.100
655.400	28.835	0.099
655.500	12.846	0.100
655.600	40.017	0.100
655.700	49.986	0.099
655.800	46.286	0.099
655.900	6.926	0.100
656.000	40.013	0.100
656.100	48.206	0.099
656.200	34.533	0.099
656.300	40.310	0.100
656.400	49.455	0.100
656.500	36.077	0.100
656.600	46.904	0.100
656.700	28.022	0.100
656.800	42.068	0.100
656.900	24.659	0.099
657.000	51.403	0.099
657.100	12.969	0.100
657.200	53.493	0.099
657.300	28.379	0.100
657.400	43.614	0.100
657.500	33.836	0.100
657.600	52.255	0.099
657.700	42.190	0.100
657.800	40.628	0.099
657.900	55.417	0.100
658.000	26.050	0.100
658.100	34.491	0.099
658.200	25.957	0.099
658.300	35.517	0.099
658.400	57.869	0.099
658.500	30.245	0.099
658.600	42.330	0.099
658.700	40.980	0.099
658.800	40.669	0.099
658.900	21.982	0.099
659.000	44.195	0.099
659.100	58.078	0.099
659.200	34.995	0.099
659.300	50.255	0.099
659.400	25.976	0.099
659.500	34.241	0.099
659.600	21.106	0.099
659.700	37.867	0.099
659.800	55.132	0.099
659.900	50.889	0.099
660.000	38.347	0.099
660.100	24.612	0.099
660.200	38.227	0.099
660.300	37.266	0.099
660.400	34.092	0.099
660.500	27.085	0.099
660.600	8.677	0.099
660.700	63.613	0.099
660.800	39.748	0.099
660.900	59.401	0.099
661.000	21.056	0.099
661.100	57.009	0.099
661.200	18.592	0.099
661.300	59.194	0.099
661.400	54.222	0.099
661.500	22.452	0.099
661.600	44.899	0.099
661.700	41.162	0.099
661.800	54.292	0.099
661.900	33.229	0.099
662.000	43.673	0.099
662.100	38.867	0.099
662.200	42.966	0.099
662.300	45.586	0.099
662.400	27.616	0.099
662.500	30.860	0.099
662.600	55.425	0.099
662.700	25.995	0.099
662.800	51.394	0.099
662.900	23.777	0.099
663.000	65.553	0.099
663.100	47.102	0.099
663.200	42.090	0.099
663.300	25.369	0.099
663.400	51.728	0.099
663.500	48.845	0.099
663.600	47.250	0.099
663.700	37.755	0.099
663.800	49.379	0.099
663.900	26.943	0.099
664.000	40.692	0.099
664.100	22.054	0.099
664.200	26.401	0.099
664.300	55.913	0.099
664.400	43.662	0.099
664.500	36.534	0.099
664.600	38.826	0.099
664.700	44.229	0.099
664.800	55.467	0.099
664.900	45.172	0.099
665.000	50.675	0.099
665.100	38.646	0.099
665.200	57.337	0.099
665.300	21.085	0.099
665.400	47.883	0.099
665.500	42.176	0.099
665.600	32.335	0.099
665.700	32.798	0.099
665.800	14.137	0.099
665.900	46.899	0.099
666.000	26.521	0.099
666.100	35.628	0.099
666.200	40.028	0.099
666.300	30.966	0.099
666.400	44.329	0.099
666.500	55.288	0.099
666.600	38.172	0.099
666.700	41.916	0.099
666.800	36.087	0.099
666.900	35.116	0.099
667.000	46.145	0.099
667.100	44.067	0.099
667.200	31.822	0.099
667.300	41.454	0.099
667.400	53.212	0.099
667.500	29.817	0.099
667.600	25.894	0.099
667.700	57.175	0.099
667.800	43.158	0.099
667.900	25.042	0.099
668.000	39.270	0.099
668.100	45.082	0.099
668.200	32.716	0.099
668.300	44.069	0.099
668.400	50.235	0.099
668.500	50.106	0.099
668.600	48.749	0.099
668.700	20.974	0.099
668.800	49.611	0.099
668.900	36.709	0.099
669.000	56.351	0.099
669.100	47.175	0.099
669.200	44.527	0.099
669.300	39.637	0.100
669.400	38.542	0.100
669.500	23.920	0.099
669.600	61.503	0.100
669.700	41.856	0.100
669.800	40.054	0.100
669.900	62.521	0.099
670.000	43.720	0.099
670.100	53.791	0.100
670.200	58.140	0.099
670.300	43.248	0.099
670.400	41.518	0.099
670.500	23.901	0.100
670.600	45.669	0.099
670.700	41.163	0.100
670.800	46.180	0.100
670.900	38.612	0.100
671.000	63.112	0.099
671.100	23.722	0.099
671.200	46.320	0.100
671.300	30.804	0.100
671.400	69.626	0.100
671.500	41.780	0.100
671.600	12.973	0.100
671.700	47.000	0.100
671.800	53.035	0.100
671.900	56.630	0.099
672.000	20.793	0.100
672.100	62.223	0.099
672.200	43.083	0.099
672.300	42.766	0.099
672.400	30.284	0.100
672.500	32.812	0.099
672.600	47.850	0.099
672.700	40.087	0.099
672.800	28.540	0.099
672.900	31.459	0.099
673.000	19.511	0.100
673.100	55.174	0.100
673.200	31.693	0.100
673.300	62.916	0.099
673.400	20.135	0.100
673.500	43.948	0.099
673.600	43.114	0.099
673.700	20.393	0.100
673.800	32.781	0.099
673.900	47.676	0.099
674.000	29.923	0.100
674.100	34.920	0.099
674.200	40.535	0.099
674.300	36.341	0.100
674.400	37.157	0.099
674.500	52.199	0.099
674.600	43.514	0.099
674.700	45.055	0.099
674.800	35.535	0.099
674.900	32.027	0.100
675.000	21.653	0.100
675.100	26.462	0.100
675.200	57.826	0.100
675.300	52.821	0.100
675.400	55.770	0.100
675.500	49.292	0.100
675.600	39.210	0.100
675.700	36.828	0.100
675.800	36.288	0.100
675.900	37.977	0.100
676.000	45.955	0.100
676.100	24.055	0.100
676.200	54.174	0.100
676.300	44.264	0.100
676.400	22.056	0.100
676.500	27.494	0.100
676.600	40.899	0.100
676.700	40.884	0.100
676.800	51.714	0.100
676.900	55.844	0.100
677.000	45.367	0.100
677.100	37.091	0.100
677.200	42.667	0.100
677.300	50.649	0.100
677.400	40.253	0.100
677.500	43.620	0.100
677.600	65.237	0.100
677.700	25.619	0.100
677.800	29.271	0.100
677.900	33.661	0.100
678.000	50.766	0.100
678.100	39.575	0.100
678.200	30.373	0.100
678.300	61.280	0.100
678.400	43.569	0.100
678.500	28.215	0.100
678.600	28.167	0.100
678.700	45.033	0.100
678.800	21.271	0.100
678.900	61.587	0.100
679.000	33.243	0.100
679.100	46.730	0.100
679.200	31.535	0.100
679.300	45.907	0.100
679.400	30.451	0.100
679.500	22.730	0.100
679.600	48.680	0.100
679.700	55.737	0.100
679.800	41.701	0.100
679.900	43.462	0.100
680.000	21.083	0.100
680.100	24.572	0.100
680.200	56.687	0.100
680.300	44.993	0.100
680.400	54.695	0.100
680.500	44.878	0.100
680.600	38.324	0.100
680.700	35.569	0.100
680.800	48.393	0.099
680.900	40.174	0.100
681.000	34.148	0.099
681.100	38.324	0.100
681.200	41.352	0.100
681.300	47.511	0.100
681.400	9.768	0.100
681.500	46.853	0.100
681.600	57.856	0.099
681.700	40.995	0.100
681.800	36.234	0.100
681.900	40.944	0.100
682.000	42.456	0.100
682.100	41.014	0.100
682.200	34.183	0.100
682.300	57.522	0.099
682.400	44.099	0.100
682.500	38.586	0.100
682.600	32.908	0.100
682.700	36.704	0.100
682.800	55.103	0.099
682.900	32.471	0.099
683.000	18.377	0.099
683.100	40.531	0.100
683.200	50.965	0.099
683.300	39.612	0.100
683.400	42.756	0.100
683.500	31.526	0.099
683.600	44.816	0.099
683.700	47.000	0.100
683.800	37.244	0.099
683.900	30.114	0.099
684.000	53.349	0.099
684.100	43.867	0.100
684.200	35.504	0.100
684.300	67.378	0.099
684.400	31.394	0.099
684.500	36.442	0.100
684.600	70.695	0.099
684.700	16.914	0.099
684.800	34.738	0.100
684.900	23.508	0.099
685.000	72.475	0.099
685.100	33.167	0.099
685.200	34.603	0.099
685.300	28.001	0.099
685.400	48.661	0.100
685.500	55.556	0.099
685.600	47.136	0.100
685.700	25.857	0.099
685.800	33.492	0.099
685.900	23.964	0.099
686.000	41.017	0.100
686.100	40.609	0.099
686.200	58.082	0.099
686.300	60.579	0.099
686.400	56.148	0.099
686.500	44.704	0.099
686.600	16.222	0.099
686.700	65.585	0.099
686.800	45.398	0.099
686.900	43.489	0.099
687.000	24.962	0.099
687.100	49.411	0.099
687.200	42.604	0.099
687.300	60.952	0.099
687.400	32.646	0.099
687.500	30.378	0.099
687.600	31.925	0.099
687.700	12.918	0.099
687.800	32.879	0.099
687.900	35.110	0.099
688.000	44.131	0.099
688.100	38.318	0.099
688.200	40.804	0.099
688.300	29.819	0.099
688.400	39.402	0.099
688.500	17.208	0.099
688.600	61.278	0.099
688.700	41.434	0.099
688.800	53.239	0.099
688.900	23.618	0.099
689.000	38.757	0.099
689.100	51.256	0.099
689.200	53.231	0.099
689.300	35.595	0.099
689.400	31.101	0.099
689.500	56.206	0.099
689.600	38.330	0.099
689.700	39.614	0.099
689.800	35.302	0.099
689.900	51.391	0.099
690.000	24.795	0.099
690.100	47.356	0.099
690.200	31.896	0.099
690.300	43.069	0.099
690.400	24.479	0.099
690.500	37.801	0.099
690.600	43.514	0.099
690.700	32.854	0.099
690.800	30.022	0.099
690.900	9.540	0.099
691.000	4.831	0.099
691.100	1.165	0.099
691.200	26.047	0.099
691.300	59.914	0.099
691.400	33.450	0.099
691.500	1.769	0.099
691.600	28.106	0.099
691.700	22.920	0.099
691.800	7.344	0.099
691.900	13.037	0.099
692.000	10.195	0.099
692.100	7.292	0.099
692.200	2.661	0.099
692.300	9.462	0.099
692.400	18.974	0.099
692.500	23.024	0.099
692.600	15.121	0.099
692.700	4.664	0.099
692.800	-0.739	0.099
692.900	-2.744	0.099
693.000	-0.661	0.099
693.100	-13.884	0.099
693.200	11.798	0.099
693.300	-30.689	0.099
693.400	-1.100	0.099
693.500	1.247	0.099
693.600	-12.371	0.099
693.700	22.418	0.099
693.800	4.404	0.099
693.900	-9.167	0.099
694.000	-8.633	0.099
694.100	-7.953	0.099
694.200	6.504	0.099
694.300	-2.799	0.099
694.400	-1.960	0.099
694.500	-3.378	0.099
694.600	-4.015	0.099
694.700	4.080	0.099
694.800	-1.431	0.099
694.900	-6.291	0.099
695.000	-9.614	0.099
695.100	3.475	0.099
695.200	-9.370	0.099
695.300	-3.149	0.099
695.400	-4.438	0.099
695.500	8.358	0.099
695.600	-6.304	0.099
695.700	10.335	0.099
695.800	23.757	0.099
695.900	1.147	0.099
696.000	-16.381	0.099
696.100	-7.332	0.099
696.200	-9.452	0.099
696.300	-15.755	0.099
696.400	-0.198	0.099
696.500	4.303	0.099
696.600	-13.044	0.099
696.700	7.012	0.099
696.800	3.579	0.099
696.900	11.125	0.099
697.000	-0.654	0.099
697.100	-8.621	0.099
697.200	10.279	0.099
697.300	-17.275	0.099
697.400	-28.665	0.099
697.500	-22.890	0.099
697.600	31.713	0.100
697.700	-29.100	0.099
697.800	-11.044	0.100
697.900	12.844	0.100
698.000	-15.187	0.100
698.100	-2.020	0.100
698.200	-15.549	0.100
698.300	11.506	0.100
698.400	-12.678	0.100
698.500	5.404	0.100
698.600	2.067	0.100
698.700	1.052	0.100
698.800	9.698	0.100
698.900	-8.106	0.100
699.000	-22.266	0.100
699.100	7.309	0.100
699.200	0.137	0.100
699.300	-8.250	0.100
699.400	4.793	0.100
699.500	-2.690	0.100
699.600	-7.635	0.100
699.700	4.277	0.100
699.800	-13.567	0.100
699.900	-18.639	0.100
700.000	1.702	0.100
700.100	-1.433	0.100
700.200	-23.439	0.099
700.300	-14.250	0.100
700.400	-10.142	0.100
700.500	-5.154	0.100
700.600	6.021	0.100
700.700	-15.984	0.100
700.800	-1.267	0.100
700.900	14.772	0.100
701.000	-39.509	0.099
701.100	16.064	0.100
701.200	4.803	0.100
701.300	-34.702	0.099
701.400	7.704	0.100
701.500	-8.738	0.100
701.600	-15.435	0.100
701.700	-7.353	0.100
701.800	12.383	0.100
701.900	6.988	0.100
702.000	-17.099	0.099
702.100	-17.943	0.099
702.200	-8.527	0.100
702.300	1.687	0.100
702.400	-4.151	0.100
702.500	-23.238	0.099
702.600	-2.855	0.100
702.700	6.235	0.100
702.800	-4.715	0.100
702.900	-13.642	0.100
703.000	23.470	0.100
703.100	-18.783	0.100
703.200	-14.789	0.100
703.300	1.163	0.100
703.400	-13.159	0.100
703.500	-12.357	0.100
703.600	10.530	0.100
703.700	-5.968	0.100
703.800	-2.144	0.100
703.900	-20.655	0.100
704.000	24.729	0.100
704.100	-16.888	0.100
704.200	6.846	0.100
704.300	-8.057	0.100
704.400	-8.096	0.100
704.500	-0.923	0.100
704.600	5.119	0.100
704.700	-9.554	0.100
704.800	-1.159	0.100
704.900	-6.258	0.100
705.000	-12.220	0.100
705.100	3.590	0.100
705.200	18.115	0.100
705.300	2.879	0.100
705.400	-5.198	0.100
705.500	1.903	0.100
705.600	-8.661	0.100
705.700	-12.797	0.100
705.800	-25.475	0.100
705.900	11.274	0.100
706.000	-18.551	0.100
706.100	-13.165	0.100
706.200	-16.401	0.100
706.300	10.604	0.100
706.400	-8.461	0.100
706.500	-6.894	0.100
706.600	-7.861	0.100
706.700	-7.760	0.100
706.800	-7.375	0.100
706.900	-11.598	0.100
707.000	-7.117	0.100
707.100	-3.419	0.100
707.200	-2.723	0.100
707.300	-6.583	0.100
707.400	-15.072	0.100
707.500	-14.303	0.100
707.600	-32.517	0.100
707.700	4.577	0.100
707.800	-6.450	0.100
707.900	-4.326	0.100
708.000	-8.783	0.100
708.100	-24.046	0.100
708.200	-1.727	0.100
708.300	-2.495	0.100
708.400	-1.083	0.099
708.500	8.682	0.099
708.600	5.281	0.100
708.700	-2.895	0.100
708.800	-21.557	0.099
708.900	-29.375	0.099
709.000	-17.207	0.099
709.100	-27.711	0.099
709.200	-1.637	0.099
709.300	-17.056	0.099
709.400	15.558	0.099
709.500	22.821	0.099
709.600	-6.882	0.099
709.700	11.968	0.099
709.800	-6.193	0.099
709.900	-28.457	0.099
710.000	-17.042	0.099
710.100	-33.504	0.099
710.200	16.242	0.099
710.300	-45.166	0.099
710.400	-6.482	0.099
710.500	-1.171	0.099
710.600	-34.688	0.099
710.700	-18.085	0.099
710.800	-1.905	0.099
710.900	-0.466	0.099
711.000	-27.919	0.099
711.100	-27.418	0.099
711.200	26.762	0.099
711.300	-0.173	0.099
711.400	-34.557	0.099
711.500	2.130	0.099
711.600	-24.540	0.099
711.700	6.775	0.099
711.800	-19.624	0.099
711.900	-10.274	0.099
712.000	-15.910	0.099
712.100	-25.944	0.099
712.200	-4.197	0.099
712.300	-14.411	0.099
712.400	-3.852	0.099
712.500	-0.716	0.099
712.600	-24.052	0.099
712.700	-16.914	0.099
712.800	-13.421	0.099
712.900	-25.582	0.099
713.000	7.891	0.099
713.100	9.799	0.099
713.200	-6.604	0.099
713.300	-15.225	0.099
713.400	-24.255	0.099
713.500	-6.050	0.099
713.600	-15.598	0.099
713.700	-14.093	0.099
713.800	2.009	0.099
713.900	4.044	0.099
714.000	-3.974	0.099
714.100	-16.208	0.099
714.200	-13.436	0.099
714.300	-22.787	0.099
714.400	6.388	0.099
714.500	-15.491	0.099
714.600	-3.761	0.099
714.700	-17.700	0.099
714.800	-27.219	0.099
714.900	-37.066	0.099
715.000	-19.227	0.099
715.100	-2.296	0.099
715.200	-10.996	0.099
715.300	-0.483	0.099
715.400	-1.433	0.099
715.500	-21.184	0.099
715.600	-12.114	0.099
715.700	-25.331	0.099
715.800	-17.324	0.099
715.900	10.822	0.099
716.000	-16.851	0.099
716.100	-1.880	0.099
716.200	-37.859	0.099
716.300	-28.615	0.099
716.400	-9.052	0.099
716.500	-11.533	0.099
716.600	-43.776	0.099
716.700	-25.585	0.099
716.800	-10.194	0.099
716.900	-21.348	0.099
717.000	-10.222	0.099
717.100	-18.983	0.099
717.200	-9.321	0.099
717.300	-22.274	0.099
717.400	-12.849	0.099
717.500	-18.690	0.099
717.600	-27.007	0.099
717.700	-4.082	0.099
717.800	-20.598	0.099
717.900	-2.084	0.099
718.000	-37.579	0.099
718.100	-15.876	0.099
718.200	-10.343	0.099
718.300	-21.030	0.099
718.400	-38.193	0.099
718.500	-13.239	0.099
718.600	4.215	0.099
718.700	-14.403	0.099
718.800	-22.788	0.099
718.900	-23.951	0.099
719.000	-12.394	0.099
719.100	-7.088	0.099
719.200	-27.086	0.099
719.300	-29.816	0.099
719.400	-3.881	0.099
719.500	-13.968	0.099
719.600	-8.204	0.099
719.700	-0.655	0.099
719.800	-18.127	0.099
719.900	-17.774	0.099
720.000	-21.132	0.099
720.100	-21.330	0.099
720.200	-16.447	0.099
720.300	-23.544	0.099
720.400	-27.554	0.099
720.500	-2.649	0.099
720.600	-29.962	0.099
720.700	-8.002	0.099
720.800	-14.699	0.099
720.900	-18.743	0.099
721.000	5.841	0.099
721.100	-22.061	0.099
721.200	-16.734	0.099
721.300	-23.245	0.099
721.400	-24.364	0.099
721.500	4.968	0.099
721.600	-33.108	0.099
721.700	-30.381	0.099
721.800	-27.432	0.099
721.900	-16.056	0.099
722.000	-14.390	0.099
722.100	-5.167	0.099
722.200	-8.121	0.099
722.300	-38.735	0.099
722.400	-17.487	0.099
722.500	-13.144	0.099
722.600	-2.156	0.099
722.700	-14.563	0.099
722.800	-8.954	0.099
722.900	-43.255	0.099
723.000	-20.047	0.099
723.100	-0.342	0.099
723.200	-21.207	0.099
723.300	-10.350	0.099
723.400	-17.308	0.099
723.500	5.909	0.099
723.600	-12.675	0.099
723.700	-32.519	0.099
723.800	-16.297	0.099
723.900	-14.078	0.099
724.000	-18.311	0.099
724.100	-11.293	0.099
724.200	-29.344	0.099
724.300	-24.456	0.099
724.400	-8.784	0.099
724.500	-27.762	0.099
724.600	-27.256	0.099
724.700	-29.196	0.099
724.800	-8.193	0.099
724.900	-10.947	0.099
725.000	-14.312	0.099
725.100	-24.119	0.099
725.200	-21.187	0.100
725.300	-43.044	0.100
725.400	-2.811	0.100
725.500	-11.085	0.100
725.600	-21.217	0.100
725.700	-11.826	0.100
725.800	-23.057	0.100
725.900	-22.256	0.100
726.000	-5.565	0.100
726.100	-30.374	0.100
726.200	11.819	0.100
726.300	-7.880	0.100
726.400	12.087	0.100
726.500	-18.157	0.100
726.600	-31.220	0.100
726.700	-38.554	0.100
726.800	-28.475	0.100
726.900	-18.508	0.100
727.000	-11.040	0.100
727.100	-33.423	0.100
727.200	-21.911	0.100
727.300	-6.917	0.100
727.400	-22.772	0.100
727.500	-43.459	0.100
727.600	-29.906	0.100
727.700	-7.140	0.100
727.800	-22.366	0.100
727.900	-26.841	0.100
728.000	-22.699	0.100
728.100	-30.165	0.100
728.200	-22.767	0.100
728.300	-22.207	0.100
728.400	-25.186	0.100
728.500	-4.095	0.100
728.600	-2.673	0.100
728.700	-2.705	0.100
728.800	-22.000	0.100
728.900	-26.372	0.100
729.000	-1.493	0.100
729.100	-24.154	0.100
729.200	-33.697	0.100
729.300	-10.704	0.100
729.400	-9.893	0.100
729.500	-14.596	0.100
729.600	-8.930	0.100
729.700	-16.504	0.100
729.800	-32.241	0.100
729.900	-24.315	0.100
730.000	-10.172	0.100
730.100	-23.658	0.100
730.200	-31.248	0.100
730.300	-39.327	0.100
730.400	-34.101	0.100
730.500	-8.591	0.100
730.600	-1.634	0.100
730.700	-22.868	0.100
730.800	-15.381	0.100
730.900	-36.696	0.100
731.000	4.485	0.100
731.100	-17.652	0.100
731.200	-21.352	0.100
731.300	-27.915	0.100
731.400	-26.462	0.100
731.500	-27.084	0.100
731.600	-46.151	0.100
731.700	-25.247	0.100
731.800	8.320	0.100
731.900	-21.712	0.100
732.000	-25.548	0.100
732.100	-25.545	0.100
732.200	-34.416	0.100
732.300	-29.202	0.100
732.400	-14.595	0.100
732.500	-9.912	0.100
732.600	-6.727	0.100
732.700	-24.761	0.100
732.800	-25.300	0.100
732.900	-21.612	0.100
733.000	-33.615	0.100
733.100	-22.834	0.100
733.200	-6.080	0.100
733.300	-27.775	0.100
733.400	-34.553	0.100
733.500	-13.635	0.100
733.600	-19.516	0.100
733.700	-18.224	0.100
733.800	-37.415	0.100
733.900	-22.949	0.100
734.000	-49.678	0.100
734.100	-27.158	0.100
734.200	-13.146	0.100
734.300	-21.205	0.100
734.400	-0.951	0.100
734.500	-21.217	0.100
734.600	-23.551	0.100
734.700	-21.578	0.100
734.800	-21.238	0.100
734.900	-23.879	0.100
735.000	-26.927	0.100
735.100	-25.134	0.100
735.200	-12.463	0.100
735.300	-14.840	0.100
735.400	-17.977	0.100
735.500	-22.783	0.100
735.600	-29.882	0.100
735.700	-14.096	0.100
735.800	-31.861	0.100
735.900	-15.773	0.100
736.000	-13.415	0.100
736.100	0.096	0.100
736.200	-28.611	0.100
736.300	-15.893	0.100
736.400	-22.167	0.100
736.500	-36.493	0.100
736.600	3.114	0.100
736.700	-24.584	0.100
736.800	-9.697	0.100
736.900	-17.145	0.100
737.000	-16.595	0.100
737.100	-36.446	0.100
737.200	-24.439	0.100
737.300	-18.678	0.100
737.400	-12.855	0.100
737.500	-9.201	0.100
737.600	-22.555	0.100
737.700	-12.034	0.100
737.800	-15.072	0.100
737.900	-52.150	0.100
738.000	-16.969	0.100
738.100	-30.112	0.100
738.200	-27.918	0.100
738.300	-43.484	0.100
738.400	-9.502	0.100
738.500	-26.986	0.100
738.600	-32.971	0.100
738.700	-11.211	0.100
738.800	-22.032	0.100
738.900	-57.662	0.100
739.000	-10.386	0.100
739.100	-20.889	0.100
739.200	-4.588	0.100
739.300	-22.540	0.100
739.400	-21.029	0.100
739.500	-19.789	0.100
739.600	-38.670	0.100
739.700	-29.681	0.100
739.800	-6.148	0.100
739.900	-37.603	0.100
740.000	-24.719	0.100
740.100	-16.230	0.100
740.200	-28.227	0.100
740.300	-25.706	0.100
740.400	-35.152	0.100
740.500	-0.387	0.100
740.600	-27.768	0.100
740.700	-19.088	0.100
740.800	-10.779	0.100
740.900	-48.496	0.100
741.000	-7.808	0.100
741.100	-28.588	0.100
741.200	-21.219	0.100
741.300	-25.758	0.100
741.400	-18.951	0.100
741.500	-19.604	0.100
741.600	-26.664	0.100
741.700	-49.289	0.100
741.800	-0.455	0.100
741.900	-24.224	0.100
742.000	-11.753	0.100
742.100	-19.134	0.100
742.200	-32.733	0.100
742.300	-27.094	0.100
742.400	-33.460	0.100
742.500	-29.642	0.100
742.600	-12.711	0.100
742.700	-54.240	0.100
742.800	-16.176	0.100
742.900	-6.947	0.100
743.000	-27.244	0.100
743.100	-2.483	0.100
743.200	-24.072	0.100
743.300	-12.292	0.100
743.400	-44.980	0.100
743.500	-21.861	0.100
743.600	-28.916	0.100
743.700	-10.738	0.100
743.800	-12.840	0.100
743.900	-28.646	0.100
744.000	-17.506	0.100
744.100	-16.541	0.100
744.200	-14.660	0.100
744.300	-24.191	0.100
744.400	-34.039	0.100
744.500	-21.939	0.100
744.600	5.386	0.100
744.700	-21.767	0.100
744.800	-23.539	0.100
744.900	-40.340	0.100
745.000	-33.997	0.100
745.100	-11.232	0.100
745.200	-39.679	0.100
745.300	-10.955	0.100
745.400	-2.104	0.100
745.500	-14.032	0.100
745.600	-32.882	0.100
745.700	-41.038	0.100
745.800	-3.956	0.100
745.900	-31.122	0.100
746.000	-6.182	0.100
746.100	-32.991	0.100
746.200	-18.622	0.100
746.300	-22.358	0.100
746.400	-20.584	0.100
746.500	-19.808	0.100
746.600	-9.540	0.100
746.700	-41.219	0.100
746.800	-9.581	0.100
746.900	-33.117	0.100
747.000	-31.234	0.100
747.100	-39.154	0.100
747.200	-25.965	0.100
747.300	-3.021	0.100
747.400	-9.355	0.100
747.500	-35.331	0.100
747.600	-35.427	0.100
747.700	-37.514	0.100
747.800	-41.437	0.100
747.900	-5.870	0.100
748.000	-14.241	0.100
748.100	-20.805	0.100
748.200	-17.233	0.100
748.300	-30.597	0.100
748.400	-32.877	0.100
748.500	-25.943	0.100
748.600	-8.040	0.100
748.700	-28.687	0.100
748.800	-16.319	0.100
748.900	-21.338	0.100
749.000	-28.214	0.100
749.100	-3.864	0.100
749.200	-45.832	0.100
749.300	-12.660	0.100
749.400	-21.368	0.100
749.500	-15.228	0.100
749.600	-45.862	0.100
749.700	-42.612	0.100
749.800	-9.682	0.100
749.900	-23.587	0.100
750.000	1.316	0.100
750.100	-12.863	0.100
750.200	-24.347	0.100
750.300	-28.105	0.100
750.400	-46.115	0.100
750.500	-28.694	0.100
750.600	-26.643	0.100
750.700	-31.334	0.100
750.800	-23.265	0.100
750.900	-15.873	0.100
751.000	-37.450	0.100
751.100	-47.124	0.100
751.200	-51.136	0.100
751.300	-23.291	0.100
751.400	-21.916	0.100
751.500	-26.668	0.100
751.600	0.140	0.100
751.700	-3.392	0.100
751.800	-23.451	0.100
751.900	-38.029	0.100
752.000	-24.799	0.100
752.100	3.851	0.100
752.200	-40.900	0.100
752.300	-28.221	0.100
752.400	-24.363	0.100
752.500	-22.027	0.100
752.600	-18.392	0.100
752.700	-11.598	0.100
752.800	5.882	0.100
752.900	-52.822	0.100
753.000	-14.379	0.100
753.100	-32.856	0.100
753.200	-14.583	0.100
753.300	-12.880	0.100
753.400	-25.036	0.100
753.500	-37.919	0.100
753.600	-21.269	0.100
753.700	-31.663	0.100
753.800	-5.715	0.100
753.900	-19.970	0.100
754.000	-18.174	0.100
754.100	-13.829	0.100
754.200	-24.552	0.100
754.300	-21.059	0.100
754.400	-43.154	0.100
754.500	-36.167	0.100
754.600	-38.045	0.100
754.700	-6.103	0.100
754.800	-15.299	0.100
754.900	-21.760	0.100
755.000	-26.557	0.100
755.100	-8.682	0.100
755.200	-50.057	0.100
755.300	-18.993	0.100
755.400	-29.631	0.100
755.500	-14.695	0.100
755.600	-36.805	0.100
755.700	-23.619	0.100
755.800	-27.609	0.100
755.900	-30.572	0.100
756.000	-24.296	0.100
756.100	-5.444	0.100
756.200	-10.760	0.100
756.300	-35.915	0.100
756.400	-1.173	0.100
756.500	-31.300	0.100
756.600	-7.638	0.100
756.700	-14.656	0.100
756.800	-43.379	0.100
756.900	-14.370	0.100
757.000	-50.014	0.100
757.100	-17.083	0.100
757.200	-13.093	0.100
757.300	-42.222	0.100
757.400	-18.202	0.100
757.500	-31.261	0.100
757.600	-34.253	0.100
757.700	-10.723	0.100
757.800	-24.042	0.100
757.900	-2.807	0.100
758.000	-27.239	0.100
758.100	-17.502	0.100
758.200	-23.903	0.100
758.300	-13.732	0.100
758.400	-16.372	0.100
758.500	-39.531	0.100
758.600	-14.447	0.100
758.700	-38.583	0.100
758.800	-16.773	0.100
758.900	-29.431	0.100
759.000	-23.693	0.100
759.100	-23.619	0.100
759.200	-34.766	0.100
759.300	-12.446	0.100
759.400	-13.253	0.100
759.500	-28.489	0.100
759.600	-24.585	0.100
759.700	-25.622	0.100
759.800	-22.593	0.100
759.900	-31.272	0.100
760.000	-39.052	0.100
760.100	-5.840	0.100
760.200	-34.751	0.100
760.300	-21.334	0.100
760.400	-13.795	0.100
760.500	-30.089	0.100
760.600	-27.561	0.100
760.700	-13.966	0.100
760.800	-21.619	0.100
760.900	-19.476	0.100
761.000	-16.359	0.100
761.100	-51.706	0.100
761.200	-19.896	0.100
761.300	-15.680	0.100
761.400	-8.764	0.100
761.500	-22.539	0.100
761.600	-40.560	0.100
761.700	-23.105	0.100
761.800	-18.701	0.100
761.900	9.602	0.100
762.000	-46.666	0.100
762.100	-6.338	0.100
762.200	-25.324	0.100
762.300	-13.287	0.100
762.400	-42.588	0.100
762.500	-16.533	0.100
762.600	-16.382	0.100
762.700	-31.394	0.100
762.800	-8.823	0.100
762.900	-21.946	0.100
763.000	-29.567	0.100
763.100	-46.265	0.100
763.200	-19.726	0.100
763.300	-3.587	0.100
763.400	-0.671	0.100
763.500	-47.184	0.100
763.600	-25.537	0.100
763.700	-36.359	0.100
763.800	-17.848	0.100
763.900	-17.496	0.100
764.000	1.726	0.100
764.100	-14.827	0.100
764.200	-21.839	0.100
764.300	-9.390	0.100
764.400	-11.866	0.100
764.500	-27.955	0.100
764.600	-45.767	0.100
764.700	3.901	0.100
764.800	-18.624	0.100
764.900	-22.101	0.100
765.000	-26.411	0.100
765.100	-10.201	0.100
765.200	-28.357	0.100
765.300	-25.136	0.100
765.400	-15.702	0.100
765.500	-21.189	0.100
765.600	-13.823	0.100
765.700	-25.847	0.100
765.800	-37.295	0.100
765.900	-2.780	0.100
766.000	7.937	0.100
766.100	-20.915	0.100
766.200	-40.574	0.100
766.300	-21.186	0.100
766.400	-13.076	0.100
766.500	-24.896	0.100
766.600	0.453	0.100
766.700	-7.066	0.100
766.800	-55.739	0.100
766.900	-30.831	0.100
767.000	-28.670	0.100
767.100	-27.535	0.100
767.200	-27.169	0.100
767.300	-24.185	0.100
767.400	-8.606	0.100
767.500	-9.094	0.100
767.600	-37.127	0.100
767.700	-21.224	0.100
767.800	-26.133	0.100
767.900	-18.104	0.100
768.000	-33.306	0.100
768.100	-11.311	0.100
768.200	-0.090	0.100
768.300	-19.618	0.100
768.400	-17.102	0.100
768.500	-30.957	0.100
768.600	-15.570	0.100
768.700	-26.386	0.100
768.800	-32.963	0.100
768.900	-13.793	0.100
769.000	-41.278	0.100
769.100	-15.922	0.100
769.200	-18.085	0.100
769.300	-26.549	0.100
769.400	-14.255	0.100
769.500	-28.854	0.100
769.600	-43.501	0.100
769.700	-23.360	0.100
769.800	-13.742	0.100
769.900	-22.846	0.100
770.000	-48.326	0.100
770.100	-6.866	0.100
770.200	9.665	0.100
770.300	-29.799	0.100
770.400	-27.930	0.100
770.500	-9.241	0.100
770.600	-29.643	0.100
770.700	-34.344	0.100
770.800	3.227	0.100
770.900	-18.294	0.100
771.000	-44.842	0.100
771.100	-20.600	0.100
771.200	-5.967	0.100
771.300	-23.870	0.100
771.400	-25.512	0.100
771.500	-23.814	0.100
771.600	-20.369	0.100
771.700	-38.362	0.100
771.800	-26.769	0.100
771.900	-40.544	0.100
772.000	0.672	0.100
772.100	-35.014	0.100
772.200	-23.568	0.100
772.300	-25.238	0.100
772.400	-22.559	0.100
772.500	-8.169	0.100
772.600	-27.435	0.100
772.700	-16.993	0.100
772.800	-22.825	0.100
772.900	-9.912	0.100
773.000	-24.012	0.100
773.100	-24.166	0.100
773.200	-30.870	0.100
773.300	-36.814	0.100
773.400	-30.420	0.100
773.500	5.022	0.100
773.600	-25.311	0.100
773.700	-24.083	0.100
773.800	-35.815	0.100
773.900	-8.486	0.100
774.000	-29.677	0.100
774.100	-37.264	0.100
774.200	-10.638	0.100
774.300	-22.061	0.100
774.400	-37.822	0.100
774.500	-16.818	0.100
774.600	-14.827	0.100
774.700	-15.899	0.100
774.800	-11.436	0.100
774.900	-13.296	0.100
775.000	-15.293	0.100
775.100	-28.176	0.100
775.200	-20.301	0.100
775.300	-6.230	0.100
775.400	-12.208	0.100
775.500	-17.574	0.100
775.600	-34.807	0.100
775.700	-43.891	0.100
775.800	-19.302	0.100
775.900	-40.901	0.100
776.000	-5.797	0.100
776.100	-26.561	0.100
776.200	-10.241	0.100
776.300	-16.998	0.100
776.400	-32.060	0.100
776.500	-30.738	0.100
776.600	-12.522	0.100
776.700	-9.192	0.100
776.800	-28.222	0.100
776.900	-28.295	0.100
777.000	-20.448	0.100
777.100	-11.614	0.100
777.200	-35.072	0.100
777.300	-10.518	0.100
777.400	-24.276	0.100
777.500	-16.265	0.100
777.600	-16.474	0.100
777.700	-25.014	0.100
777.800	-22.778	0.100
777.900	-28.436	0.100
778.000	-28.306	0.100
778.100	-22.263	0.100
778.200	-32.500	0.100
778.300	-14.345	0.100
778.400	-41.097	0.100
778.500	0.562	0.100
778.600	-2.444	0.100
778.700	-30.600	0.100
778.800	-17.081	0.100
778.900	-47.831	0.100
779.000	-5.228	0.100
779.100	-6.448	0.100
779.200	-2.220	0.100
779.300	-2.179	0.100
779.400	-13.771	0.100
779.500	-43.308	0.100
779.600	-24.460	0.100
779.700	-17.096	0.100
779.800	-16.557	0.100
779.900	-2.547	0.100
780.000	-23.262	0.100
780.100	-13.011	0.100
780.200	-7.038	0.100
780.300	0.861	0.100
780.400	-34.814	0.100
780.500	-19.198	0.100
780.600	-1.723	0.100
780.700	-2.997	0.100
780.800	-29.464	0.100
780.900	-8.084	0.100
781.000	0.244	0.100
781.100	18.854	0.100
781.200	-14.890	0.100
781.300	-2.023	0.100
781.400	-24.451	0.100
781.500	-12.932	0.100
781.600	16.200	0.100
781.700	-7.125	0.100
781.800	-2.475	0.100
781.900	-0.093	0.100
782.000	6.461	0.100
782.100	37.148	0.100
782.200	0.030	0.100
782.300	-23.823	0.100
782.400	5.090	0.100
782.500	27.737	0.100
782.600	13.478	0.100
782.700	17.374	0.100
782.800	23.816	0.100
782.900	-7.014	0.100
783.000	19.588	0.100
783.100	5.547	0.100
783.200	42.717	0.100
783.300	-1.040	0.100
783.400	11.054	0.100
783.500	11.046	0.100
783.600	-8.311	0.100
783.700	7.487	0.100
783.800	13.761	0.100
783.900	15.634	0.100
784.000	49.855	0.100
784.100	22.065	0.100
784.200	5.730	0.100
784.300	25.264	0.100
784.400	17.540	0.100
784.500	17.418	0.100
784.600	4.923	0.100
784.700	26.500	0.100
784.800	4.731	0.100
784.900	38.843	0.100
785.000	19.014	0.100
785.100	17.454	0.100
785.200	1.696	0.100
785.300	32.727	0.100
785.400	31.959	0.100
785.500	15.907	0.100
785.600	-16.544	0.100
785.700	-14.572	0.100
785.800	18.907	0.100
785.900	43.597	0.100
786.000	23.927	0.100
786.100	15.159	0.100
786.200	39.657	0.100
786.300	9.902	0.100
786.400	16.836	0.100
786.500	14.940	0.100
786.600	43.798	0.100
786.700	3.376	0.100
786.800	9.874	0.100
786.900	24.515	0.100
787.000	27.060	0.100
787.100	0.316	0.100
787.200	15.613	0.100
787.300	11.968	0.100
787.400	1.444	0.100
787.500	25.224	0.100
787.600	-0.771	0.100
787.700	15.150	0.100
787.800	56.331	0.100
787.900	18.886	0.100
788.000	5.343	0.100
788.100	29.303	0.100
788.200	-12.947	0.100
788.300	22.933	0.100
788.400	-0.449	0.100
788.500	28.072	0.100
788.600	10.649	0.100
788.700	18.727	0.100
788.800	28.850	0.100
788.900	53.511	0.100
789.000	10.035	0.100
789.100	11.593	0.100
789.200	7.904	0.100
789.300	26.007	0.100
789.400	11.434	0.100
789.500	6.988	0.100
789.600	27.367	0.100
789.700	15.261	0.100
789.800	20.983	0.100
789.900	7.690	0.100
790.000	34.679	0.100
790.100	41.622	0.100
790.200	19.605	0.100
790.300	25.002	0.100
790.400	8.236	0.100
790.500	20.059	0.100
790.600	8.434	0.100
790.700	2.841	0.100
790.800	24.933	0.100
790.900	30.052	0.100
791.000	5.318	0.100
791.100	18.980	0.100
791.200	28.675	0.100
791.300	25.140	0.100
791.400	5.923	0.100
791.500	28.787	0.100
791.600	38.697	0.100
791.700	-0.673	0.100
791.800	20.280	0.100
791.900	25.507	0.100
792.000	22.197	0.100
792.100	24.417	0.100
792.200	-3.474	0.100
792.300	16.873	0.100
792.400	25.377	0.100
792.500	22.506	0.100
792.600	25.628	0.100
792.700	17.677	0.100
792.800	31.005	0.100
792.900	22.440	0.100
793.000	23.012	0.100
793.100	4.401	0.100
793.200	18.139	0.100
793.300	27.501	0.100
793.400	13.371	0.100
793.500	11.890	0.100
793.600	13.922	0.100
793.700	31.330	0.100
793.800	8.755	0.100
793.900	28.230	0.100
794.000	-3.528	0.100
794.100	1.026	0.100
794.200	-2.609	0.100
794.300	46.224	0.100
794.400	22.994	0.100
794.500	27.191	0.100
794.600	13.645	0.100
794.700	5.504	0.100
794.800	20.117	0.100
794.900	30.266	0.100
795.000	37.796	0.100
795.100	32.927	0.100
795.200	19.550	0.100
795.300	21.887	0.100
795.400	12.679	0.100
795.500	9.278	0.100
795.600	20.564	0.100
795.700	38.546	0.100
795.800	33.709	0.100
795.900	8.363	0.100
796.000	14.563	0.100
796.100	34.431	0.100
796.200	19.892	0.100
796.300	-4.785	0.100
796.400	27.651	0.100
796.500	2.894	0.100
796.600	3.580	0.100
796.700	38.646	0.100
796.800	13.113	0.100
796.900	10.463	0.100
797.000	13.335	0.100
797.100	24.576	0.100
797.200	36.852	0.100
797.300	26.512	0.100
797.400	21.174	0.100
797.500	10.529	0.100
797.600	12.700	0.100
797.700	21.366	0.100
797.800	28.103	0.100
797.900	25.695	0.100
798.000	27.624	0.100
798.100	-7.738	0.100
798.200	6.106	0.100
798.300	38.130	0.100
798.400	13.577	0.100
798.500	24.583	0.100
798.600	45.014	0.100
798.700	14.101	0.100
798.800	11.144	0.100
798.900	2.662	0.100
799.000	25.805	0.100
799.100	43.008	0.100
799.200	32.969	0.100
799.300	-14.461	0.100
799.400	46.358	0.100
799.500	28.034	0.100
799.600	40.072	0.100
799.700	40.305	0.100
799.800	6.403	0.100
799.900	20.627	0.100
800.000	35.555	0.100
