time /s	I /nA	E /V
0.100	-20.901	0.101
0.200	-5.359	0.101
0.300	-17.944	0.101
0.400	-12.417	0.101
0.500	-9.791	0.101
0.600	-6.612	0.101
0.700	-5.846	0.101
0.800	-4.432	0.101
0.900	-6.654	0.101
1.000	-1.362	0.101
1.100	-7.057	0.101
1.200	-5.147	0.101
1.300	-10.172	0.101
1.400	-19.484	0.101
1.500	-17.647	0.101
1.600	-11.236	0.101
1.700	-9.760	0.101
1.800	-18.483	0.101
1.900	-9.327	0.101
2.000	-13.022	0.101
2.100	-9.949	0.101
2.200	-5.731	0.101
2.300	1.408	0.101
2.400	-9.699	0.101
2.500	-6.288	0.101
2.600	-16.711	0.101
2.700	-19.186	0.101
2.800	-9.356	0.101
2.900	-2.213	0.101
3.000	-8.435	0.101
3.100	-7.563	0.101
3.200	-9.964	0.101
3.300	-16.377	0.101
3.400	-7.366	0.101
3.500	-17.524	0.101
3.600	-14.323	0.101
3.700	-1.265	0.101
3.800	2.571	0.101
3.900	-7.829	0.101
4.000	-23.237	0.101
4.100	-9.128	0.101
4.200	-2.419	0.101
4.300	-16.978	0.101
4.400	-21.975	0.101
4.500	-9.759	0.101
4.600	-3.134	0.101
4.700	-11.837	0.101
4.800	-13.638	0.101
4.900	-10.597	0.101
5.000	-10.582	0.101
5.100	-7.995	0.101
5.200	-19.030	0.101
5.300	-15.736	0.101
5.400	-15.610	0.101
5.500	-8.338	0.101
5.600	-4.407	0.101
5.700	-2.609	0.101
5.800	2.789	0.101
5.900	-9.841	0.101
6.000	-17.269	0.101
6.100	-13.832	0.101
6.200	-12.543	0.101
6.300	-7.067	0.101
6.400	-6.681	0.101
6.500	-5.542	0.101
6.600	-14.516	0.101
6.700	-12.305	0.101
6.800	-23.280	0.101
6.900	1.934	0.101
7.000	-14.255	0.101
7.100	-14.735	0.101
7.200	-7.743	0.101
7.300	-12.430	0.101
7.400	-9.751	0.101
7.500	-15.180	0.101
7.600	-13.912	0.101
7.700	1.197	0.101
7.800	-18.725	0.101
7.900	-11.677	0.101
8.000	1.196	0.101
8.100	1.713	0.101
8.200	-12.847	0.101
8.300	-10.278	0.101
8.400	-18.781	0.101
8.500	-5.268	0.101
8.600	-9.696	0.101
8.700	-1.948	0.101
8.800	-12.164	0.101
8.900	-8.208	0.101
9.000	-13.374	0.101
9.100	-14.001	0.101
9.200	-20.279	0.101
9.300	-8.243	0.101
9.400	-12.867	0.101
9.500	-11.455	0.101
9.600	-15.755	0.101
9.700	-11.363	0.101
9.800	-14.153	0.101
9.900	-8.777	0.101
10.000	-2.172	0.101
10.100	-0.352	0.101
10.200	-7.755	0.101
10.300	-9.235	0.101
10.400	-13.132	0.101
10.500	-9.211	0.101
10.600	-12.661	0.101
10.700	-1.242	0.101
10.800	-5.842	0.101
10.900	-16.323	0.101
11.000	-21.682	0.101
11.100	-3.354	0.101
11.200	-24.845	0.101
11.300	-17.763	0.101
11.400	-8.995	0.101
11.500	-11.969	0.101
11.600	-19.156	0.101
11.700	-8.061	0.101
11.800	-8.673	0.101
11.900	-6.922	0.101
12.000	-17.355	0.101
12.100	-5.533	0.101
12.200	-2.120	0.101
12.300	-8.518	0.101
12.400	-3.954	0.101
12.500	-8.606	0.101
12.600	-8.845	0.101
12.700	-20.284	0.101
12.800	-12.979	0.101
12.900	-8.608	0.101
13.000	-2.587	0.101
13.100	-7.330	0.101
13.200	-15.925	0.101
13.300	-5.351	0.101
13.400	-22.591	0.101
13.500	-13.593	0.101
13.600	-13.551	0.101
13.700	-5.719	0.101
13.800	-1.297	0.101
13.900	-2.049	0.101
14.000	-9.693	0.101
14.100	-13.584	0.101
14.200	-10.940	0.101
14.300	-4.685	0.101
14.400	-10.546	0.101
14.500	-14.365	0.101
14.600	-8.106	0.101
14.700	-6.531	0.101
14.800	-12.937	0.101
14.900	-8.355	0.101
15.000	-10.236	0.101
15.100	-0.661	0.101
15.200	-10.275	0.101
15.300	-26.645	0.101
15.400	-11.628	0.101
15.500	-6.767	0.101
15.600	-4.770	0.101
15.700	-15.843	0.101
15.800	-25.520	0.101
15.900	-4.776	0.101
16.000	-12.201	0.101
16.100	-5.713	0.101
16.200	-1.565	0.101
16.300	-15.690	0.101
16.400	-7.840	0.101
16.500	-6.840	0.101
16.600	-12.113	0.101
16.700	-4.641	0.101
16.800	-1.470	0.101
16.900	-4.043	0.101
17.000	-5.807	0.101
17.100	-20.346	0.101
17.200	-11.713	0.101
17.300	-23.290	0.101
17.400	-6.883	0.101
17.500	-1.963	0.101
17.600	-9.557	0.101
17.700	-13.270	0.101
17.800	-4.383	0.101
17.900	1.865	0.101
18.000	-23.674	0.101
18.100	-18.409	0.101
18.200	-13.495	0.101
18.300	-12.299	0.101
18.400	-6.283	0.101
18.500	-3.355	0.101
18.600	-4.985	0.101
18.700	-2.610	0.101
18.800	-2.563	0.101
18.900	-10.330	0.101
19.000	-8.147	0.101
19.100	-0.804	0.101
19.200	-10.862	0.101
19.300	-2.684	0.101
19.400	-14.292	0.101
19.500	-17.316	0.101
19.600	-11.223	0.101
19.700	-17.669	0.101
19.800	-7.150	0.101
19.900	-19.177	0.101
20.000	-9.232	0.101
20.100	-8.958	0.101
20.200	-8.603	0.101
20.300	-2.096	0.101
20.400	-11.920	0.101
20.500	-9.046	0.101
20.600	-12.061	0.101
20.700	-1.525	0.101
20.800	-18.799	0.101
20.900	-8.014	0.101
21.000	-9.774	0.101
21.100	-1.954	0.101
21.200	-5.716	0.101
21.300	-6.131	0.101
21.400	-8.690	0.101
21.500	-9.412	0.101
21.600	-10.687	0.101
21.700	-4.786	0.101
21.800	-9.240	0.101
21.900	-1.007	0.101
22.000	-16.967	0.101
22.100	-17.276	0.101
22.200	-10.894	0.101
22.300	-6.962	0.101
22.400	-8.868	0.101
22.500	-4.771	0.101
22.600	-14.340	0.101
22.700	-14.604	0.101
22.800	-12.259	0.101
22.900	-15.101	0.101
23.000	-5.118	0.101
23.100	-5.345	0.101
23.200	-14.932	0.101
23.300	-9.555	0.101
23.400	-8.224	0.101
23.500	-1.829	0.101
23.600	-5.859	0.101
23.700	-9.754	0.101
23.800	-18.700	0.101
23.900	-6.652	0.101
24.000	-13.941	0.101
24.100	-2.152	0.101
24.200	-3.897	0.101
24.300	-14.635	0.101
24.400	-10.790	0.101
24.500	-15.300	0.101
24.600	-12.637	0.101
24.700	-18.878	0.101
24.800	-11.013	0.101
24.900	-14.134	0.101
25.000	-2.764	0.101
25.100	-4.221	0.101
25.200	-11.490	0.101
25.300	-6.350	0.101
25.400	-15.053	0.101
25.500	1.097	0.101
25.600	-12.802	0.101
25.700	-1.154	0.101
25.800	-5.796	0.101
25.900	-7.855	0.101
26.000	-5.838	0.101
26.100	-5.720	0.101
26.200	-8.270	0.101
26.300	-8.447	0.101
26.400	-21.350	0.101
26.500	-4.047	0.101
26.600	-8.059	0.101
26.700	-9.500	0.101
26.800	-11.416	0.101
26.900	-14.127	0.101
27.000	-9.508	0.101
27.100	-12.010	0.101
27.200	-8.828	0.101
27.300	-12.423	0.101
27.400	-0.339	0.101
27.500	-7.661	0.101
27.600	-11.249	0.101
27.700	-8.018	0.101
27.800	-13.010	0.101
27.900	-9.526	0.101
28.000	-14.424	0.101
28.100	-16.903	0.101
28.200	-8.110	0.101
28.300	-4.701	0.101
28.400	-6.316	0.101
28.500	-14.143	0.101
28.600	-10.553	0.101
28.700	-11.178	0.101
28.800	-3.432	0.101
28.900	-14.627	0.101
29.000	-5.370	0.101
29.100	-3.766	0.101
29.200	-11.440	0.101
29.300	-9.565	0.101
29.400	-1.999	0.101
29.500	-14.697	0.101
29.600	-15.324	0.101
29.700	-9.181	0.101
29.800	-7.137	0.101
29.900	-15.150	0.101
30.000	2.431	0.101
30.100	-8.590	0.101
30.200	-2.205	0.101
30.300	1.733	0.101
30.400	2.735	0.101
30.500	-2.096	0.101
30.600	0.351	0.101
30.700	22.316	0.101
30.800	5.150	0.101
30.900	10.548	0.101
31.000	11.056	0.101
31.100	16.032	0.101
31.200	16.385	0.101
31.300	16.584	0.101
31.400	24.204	0.101
31.500	21.258	0.101
31.600	22.639	0.101
31.700	18.097	0.101
31.800	19.596	0.101
31.900	16.535	0.101
32.000	21.488	0.101
32.100	26.496	0.101
32.200	21.227	0.101
32.300	27.304	0.101
32.400	32.045	0.101
32.500	19.432	0.101
32.600	17.083	0.101
32.700	24.448	0.101
32.800	29.381	0.101
32.900	25.464	0.101
33.000	25.361	0.101
33.100	15.248	0.101
33.200	23.497	0.101
33.300	24.653	0.101
33.400	28.483	0.101
33.500	26.219	0.101
33.600	26.414	0.101
33.700	16.068	0.101
33.800	25.077	0.101
33.900	25.777	0.101
34.000	30.069	0.101
34.100	20.540	0.101
34.200	23.877	0.101
34.300	17.445	0.101
34.400	13.110	0.101
34.500	15.821	0.101
34.600	8.428	0.101
34.700	10.434	0.101
34.800	17.862	0.101
34.900	9.395	0.101
35.000	10.815	0.101
35.100	9.350	0.101
35.200	22.154	0.101
35.300	17.519	0.101
35.400	12.842	0.101
35.500	8.603	0.101
35.600	25.318	0.101
35.700	11.128	0.101
35.800	18.045	0.101
35.900	20.821	0.101
36.000	13.104	0.101
36.100	-3.202	0.101
36.200	5.541	0.101
36.300	17.931	0.101
36.400	11.422	0.101
36.500	18.734	0.101
36.600	16.733	0.101
36.700	14.402	0.101
36.800	15.905	0.101
36.900	15.970	0.101
37.000	16.701	0.101
37.100	0.913	0.101
37.200	2.927	0.101
37.300	14.296	0.101
37.400	6.391	0.101
37.500	9.945	0.101
37.600	3.217	0.101
37.700	10.641	0.101
37.800	21.209	0.101
37.900	7.649	0.101
38.000	8.960	0.101
38.100	10.970	0.101
38.200	11.697	0.101
38.300	5.756	0.101
38.400	7.659	0.101
38.500	6.747	0.101
38.600	12.646	0.101
38.700	19.114	0.101
38.800	5.109	0.101
38.900	10.005	0.101
39.000	4.510	0.101
39.100	2.540	0.101
39.200	13.053	0.101
39.300	9.592	0.101
39.400	13.644	0.101
39.500	6.720	0.101
39.600	20.758	0.101
39.700	3.634	0.101
39.800	17.456	0.101
39.900	5.666	0.101
40.000	10.108	0.101
40.100	13.741	0.101
40.200	10.268	0.101
40.300	5.889	0.101
40.400	20.583	0.101
40.500	1.710	0.101
40.600	3.031	0.101
40.700	8.499	0.101
40.800	16.557	0.101
40.900	7.012	0.101
41.000	4.975	0.101
41.100	7.592	0.101
41.200	19.539	0.101
41.300	10.835	0.101
41.400	18.924	0.101
41.500	17.648	0.101
41.600	0.930	0.101
41.700	7.807	0.101
41.800	16.884	0.101
41.900	21.413	0.101
42.000	18.628	0.101
42.100	7.418	0.101
42.200	16.878	0.101
42.300	20.810	0.101
42.400	16.758	0.101
42.500	0.576	0.101
42.600	10.884	0.101
42.700	18.358	0.101
42.800	12.374	0.101
42.900	12.972	0.101
43.000	27.072	0.101
43.100	7.641	0.101
43.200	12.209	0.101
43.300	11.358	0.101
43.400	16.600	0.101
43.500	13.260	0.101
43.600	14.733	0.101
43.700	2.908	0.101
43.800	18.198	0.101
43.900	13.849	0.101
44.000	18.023	0.101
44.100	20.682	0.101
44.200	16.713	0.101
44.300	7.649	0.101
44.400	8.200	0.101
44.500	14.252	0.101
44.600	17.653	0.101
44.700	16.933	0.101
44.800	17.549	0.101
44.900	12.869	0.101
45.000	11.085	0.101
45.100	17.889	0.101
45.200	21.804	0.101
45.300	24.640	0.101
45.400	24.992	0.101
45.500	13.763	0.101
45.600	14.913	0.101
45.700	18.821	0.101
45.800	23.839	0.101
45.900	6.959	0.101
46.000	18.159	0.101
46.100	20.506	0.101
46.200	12.447	0.101
46.300	20.310	0.101
46.400	22.719	0.101
46.500	21.622	0.101
46.600	16.350	0.101
46.700	15.952	0.101
46.800	13.392	0.101
46.900	16.533	0.101
47.000	21.085	0.101
47.100	18.469	0.101
47.200	11.834	0.101
47.300	15.153	0.101
47.400	15.725	0.101
47.500	17.238	0.101
47.600	18.522	0.101
47.700	18.852	0.101
47.800	27.889	0.101
47.900	13.125	0.101
48.000	23.338	0.101
48.100	18.580	0.101
48.200	19.771	0.101
48.300	20.121	0.101
48.400	21.899	0.101
48.500	23.864	0.101
48.600	21.660	0.101
48.700	14.202	0.101
48.800	15.751	0.101
48.900	18.231	0.101
49.000	19.613	0.101
49.100	10.012	0.101
49.200	16.240	0.101
49.300	28.475	0.101
49.400	28.311	0.101
49.500	23.014	0.101
49.600	23.211	0.101
49.700	18.204	0.101
49.800	29.587	0.101
49.900	14.248	0.101
50.000	22.171	0.101
50.100	19.873	0.101
50.200	26.579	0.101
50.300	21.206	0.101
50.400	21.263	0.101
50.500	19.407	0.101
50.600	26.591	0.101
50.700	15.460	0.101
50.800	23.459	0.101
50.900	24.309	0.101
51.000	25.806	0.101
51.100	19.695	0.101
51.200	19.487	0.101
51.300	11.951	0.101
51.400	17.228	0.101
51.500	16.068	0.101
51.600	36.155	0.101
51.700	20.341	0.101
51.800	10.578	0.101
51.900	20.722	0.101
52.000	28.683	0.101
52.100	26.927	0.101
52.200	42.029	0.101
52.300	23.216	0.101
52.400	30.692	0.101
52.500	29.832	0.101
52.600	23.243	0.101
52.700	31.479	0.101
52.800	18.254	0.101
52.900	21.341	0.101
53.000	24.044	0.101
53.100	31.007	0.101
53.200	31.959	0.101
53.300	30.459	0.101
53.400	23.164	0.101
53.500	29.122	0.101
53.600	25.436	0.101
53.700	24.986	0.101
53.800	17.948	0.101
53.900	21.476	0.101
54.000	20.217	0.101
54.100	19.500	0.101
54.200	30.651	0.101
54.300	23.496	0.101
54.400	25.464	0.101
54.500	9.288	0.101
54.600	27.312	0.101
54.700	20.790	0.101
54.800	22.492	0.101
54.900	21.236	0.101
55.000	31.969	0.101
55.100	22.896	0.101
55.200	26.311	0.101
55.300	17.733	0.101
55.400	25.829	0.101
55.500	23.320	0.101
55.600	18.763	0.101
55.700	26.599	0.101
55.800	32.473	0.101
55.900	27.994	0.101
56.000	28.891	0.101
56.100	23.953	0.101
56.200	26.589	0.101
56.300	25.503	0.101
56.400	31.729	0.101
56.500	36.997	0.101
56.600	33.819	0.101
56.700	22.810	0.101
56.800	34.142	0.101
56.900	24.334	0.101
57.000	33.325	0.101
57.100	34.968	0.101
57.200	30.575	0.101
57.300	24.302	0.101
57.400	25.897	0.101
57.500	32.577	0.101
57.600	26.021	0.101
57.700	15.535	0.101
57.800	29.397	0.101
57.900	40.266	0.101
58.000	21.999	0.101
58.100	29.246	0.101
58.200	27.047	0.101
58.300	19.751	0.101
58.400	29.504	0.101
58.500	24.605	0.101
58.600	29.918	0.101
58.700	30.412	0.101
58.800	17.429	0.101
58.900	21.988	0.101
59.000	28.095	0.101
59.100	36.583	0.101
59.200	33.771	0.101
59.300	28.899	0.101
59.400	34.829	0.101
59.500	28.763	0.101
59.600	33.513	0.101
59.700	32.869	0.101
59.800	27.793	0.101
59.900	20.977	0.101
60.000	8.516	0.101
60.100	31.945	0.101
60.200	31.683	0.101
60.300	26.606	0.101
60.400	24.563	0.101
60.500	12.291	0.101
60.600	22.979	0.101
60.700	22.510	0.101
60.800	25.056	0.101
60.900	24.283	0.101
61.000	30.086	0.101
61.100	30.066	0.101
61.200	31.029	0.101
61.300	27.678	0.101
61.400	36.582	0.101
61.500	24.918	0.101
61.600	30.711	0.101
61.700	27.766	0.101
61.800	27.656	0.101
61.900	19.240	0.101
62.000	29.205	0.101
62.100	42.104	0.101
62.200	31.149	0.101
62.300	29.803	0.101
62.400	15.297	0.101
62.500	23.827	0.101
62.600	29.959	0.101
62.700	27.501	0.101
62.800	29.324	0.101
62.900	25.931	0.101
63.000	31.024	0.101
63.100	30.734	0.101
63.200	23.625	0.101
63.300	40.448	0.101
63.400	31.771	0.101
63.500	20.794	0.101
63.600	19.793	0.101
63.700	23.843	0.101
63.800	27.645	0.101
63.900	32.686	0.101
64.000	32.602	0.101
64.100	30.041	0.101
64.200	27.807	0.101
64.300	21.371	0.101
64.400	32.345	0.101
64.500	21.137	0.101
64.600	26.818	0.101
64.700	31.021	0.101
64.800	21.492	0.101
64.900	28.108	0.101
65.000	32.695	0.101
65.100	19.707	0.101
65.200	19.416	0.101
65.300	31.053	0.101
65.400	36.195	0.101
65.500	40.703	0.101
65.600	19.039	0.101
65.700	22.846	0.101
65.800	32.888	0.101
65.900	27.100	0.101
66.000	26.297	0.101
66.100	26.113	0.101
66.200	18.615	0.101
66.300	26.084	0.101
66.400	21.037	0.101
66.500	34.619	0.101
66.600	25.627	0.101
66.700	37.076	0.101
66.800	21.641	0.101
66.900	27.641	0.101
67.000	30.528	0.101
67.100	23.981	0.101
67.200	22.474	0.101
67.300	26.442	0.101
67.400	23.438	0.101
67.500	24.693	0.101
67.600	20.347	0.101
67.700	31.202	0.101
67.800	26.270	0.101
67.900	31.234	0.101
68.000	36.920	0.101
68.100	19.368	0.101
68.200	22.509	0.101
68.300	30.577	0.101
68.400	20.619	0.101
68.500	33.750	0.101
68.600	30.262	0.101
68.700	23.988	0.101
68.800	26.488	0.101
68.900	40.153	0.101
69.000	26.448	0.101
69.100	33.623	0.101
69.200	31.932	0.101
69.300	31.291	0.101
69.400	27.165	0.101
69.500	31.048	0.101
69.600	18.113	0.101
69.700	36.810	0.101
69.800	21.958	0.101
69.900	28.510	0.101
70.000	29.675	0.101
70.100	31.587	0.101
70.200	25.722	0.101
70.300	39.395	0.101
70.400	30.115	0.101
70.500	25.465	0.101
70.600	21.418	0.101
70.700	29.060	0.101
70.800	30.772	0.101
70.900	31.644	0.101
71.000	17.671	0.101
71.100	21.730	0.101
71.200	29.221	0.101
71.300	33.118	0.101
71.400	33.539	0.101
71.500	31.726	0.101
71.600	20.724	0.101
71.700	20.602	0.101
71.800	25.251	0.101
71.900	26.552	0.101
72.000	30.875	0.101
72.100	32.164	0.101
72.200	17.645	0.101
72.300	29.866	0.101
72.400	26.873	0.101
72.500	29.480	0.101
72.600	39.453	0.101
72.700	25.684	0.101
72.800	30.091	0.101
72.900	23.016	0.101
73.000	30.081	0.101
73.100	29.781	0.101
73.200	26.177	0.101
73.300	20.551	0.101
73.400	17.471	0.101
73.500	32.849	0.101
73.600	28.350	0.101
73.700	22.112	0.101
73.800	27.834	0.101
73.900	26.642	0.101
74.000	32.003	0.101
74.100	32.795	0.101
74.200	30.754	0.101
74.300	25.032	0.101
74.400	26.307	0.101
74.500	27.528	0.101
74.600	27.012	0.101
74.700	31.393	0.101
74.800	31.983	0.101
74.900	27.413	0.101
75.000	35.118	0.101
75.100	39.609	0.101
75.200	20.746	0.101
75.300	28.307	0.101
75.400	20.448	0.101
75.500	27.126	0.101
75.600	17.126	0.101
75.700	22.916	0.101
75.800	26.011	0.101
75.900	32.604	0.101
76.000	32.373	0.101
76.100	25.609	0.101
76.200	31.889	0.101
76.300	31.089	0.101
76.400	37.362	0.101
76.500	34.500	0.101
76.600	20.755	0.101
76.700	34.857	0.101
76.800	19.768	0.101
76.900	28.032	0.101
77.000	36.838	0.101
77.100	29.624	0.101
77.200	22.170	0.101
77.300	22.229	0.101
77.400	34.770	0.101
77.500	23.010	0.101
77.600	25.481	0.101
77.700	29.526	0.101
77.800	22.882	0.101
77.900	34.391	0.101
78.000	31.905	0.101
78.100	30.722	0.101
78.200	24.585	0.101
78.300	30.292	0.101
78.400	20.025	0.101
78.500	17.049	0.101
78.600	32.152	0.101
78.700	18.336	0.101
78.800	29.790	0.101
78.900	25.007	0.101
79.000	26.520	0.101
79.100	31.390	0.101
79.200	26.611	0.101
79.300	36.612	0.101
79.400	29.186	0.101
79.500	21.974	0.101
79.600	18.493	0.101
79.700	34.301	0.101
79.800	27.836	0.101
79.900	23.283	0.101
80.000	35.065	0.101
80.100	28.296	0.101
80.200	19.107	0.101
80.300	21.722	0.101
80.400	30.187	0.101
80.500	26.906	0.101
80.600	28.966	0.101
80.700	33.447	0.101
80.800	20.868	0.101
80.900	29.617	0.101
81.000	29.767	0.101
81.100	19.431	0.101
81.200	32.649	0.101
81.300	29.036	0.101
81.400	31.905	0.101
81.500	30.825	0.101
81.600	31.866	0.101
81.700	24.625	0.101
81.800	13.124	0.101
81.900	28.104	0.101
82.000	39.699	0.101
82.100	31.789	0.101
82.200	21.987	0.101
82.300	21.534	0.101
82.400	30.666	0.101
82.500	32.152	0.101
82.600	18.919	0.101
82.700	27.112	0.101
82.800	31.480	0.101
82.900	33.973	0.101
83.000	31.736	0.101
83.100	26.680	0.101
83.200	21.288	0.101
83.300	23.451	0.101
83.400	27.325	0.101
83.500	21.565	0.101
83.600	31.496	0.101
83.700	31.479	0.101
83.800	36.595	0.101
83.900	34.380	0.101
84.000	33.408	0.101
84.100	32.112	0.101
84.200	17.396	0.101
84.300	24.273	0.101
84.400	21.250	0.101
84.500	23.259	0.101
84.600	25.987	0.101
84.700	27.527	0.101
84.800	26.602	0.101
84.900	38.935	0.101
85.000	26.215	0.101
85.100	34.358	0.101
85.200	31.246	0.101
85.300	18.960	0.101
85.400	16.063	0.101
85.500	22.456	0.101
85.600	28.760	0.101
85.700	23.529	0.101
85.800	25.200	0.101
85.900	29.714	0.101
86.000	33.237	0.101
86.100	16.965	0.101
86.200	25.460	0.101
86.300	26.735	0.101
86.400	31.464	0.101
86.500	23.553	0.101
86.600	30.167	0.101
86.700	36.886	0.101
86.800	38.108	0.101
86.900	17.467	0.101
87.000	36.153	0.101
87.100	27.457	0.101
87.200	22.123	0.101
87.300	29.245	0.101
87.400	29.994	0.101
87.500	36.284	0.101
87.600	32.054	0.101
87.700	28.082	0.101
87.800	27.347	0.101
87.900	25.297	0.101
88.000	27.679	0.101
88.100	33.950	0.101
88.200	17.191	0.101
88.300	37.670	0.101
88.400	34.265	0.101
88.500	22.904	0.101
88.600	14.381	0.101
88.700	27.527	0.101
88.800	26.472	0.101
88.900	35.620	0.101
89.000	29.384	0.101
89.100	38.310	0.101
89.200	22.004	0.101
89.300	30.802	0.101
89.400	32.735	0.101
89.500	23.919	0.101
89.600	19.926	0.101
89.700	26.740	0.101
89.800	25.790	0.101
89.900	40.386	0.101
90.000	22.066	0.101
90.100	21.878	0.101
90.200	17.401	0.101
90.300	28.605	0.101
90.400	20.273	0.101
90.500	18.948	0.101
90.600	21.016	0.101
90.700	13.888	0.101
90.800	13.926	0.101
90.900	-6.224	0.101
91.000	6.354	0.101
91.100	1.893	0.101
91.200	9.697	0.101
91.300	8.708	0.101
91.400	2.349	0.101
91.500	-9.729	0.101
91.600	-3.200	0.101
91.700	2.737	0.101
91.800	-4.369	0.101
91.900	-2.490	0.101
92.000	-4.426	0.101
92.100	-0.948	0.101
92.200	2.973	0.101
92.300	-18.617	0.101
92.400	-4.758	0.101
92.500	-15.787	0.101
92.600	-7.700	0.101
92.700	-18.022	0.101
92.800	-1.233	0.101
92.900	-11.538	0.101
93.000	-8.948	0.101
93.100	-1.806	0.101
93.200	-6.916	0.101
93.300	-10.580	0.101
93.400	-21.262	0.101
93.500	-10.973	0.101
93.600	-24.643	0.101
93.700	-12.153	0.101
93.800	-17.452	0.101
93.900	-15.089	0.101
94.000	-7.581	0.101
94.100	-15.361	0.101
94.200	-20.271	0.101
94.300	-10.174	0.101
94.400	-7.832	0.101
94.500	-14.737	0.101
94.600	-14.681	0.101
94.700	-16.908	0.101
94.800	-15.744	0.101
94.900	-13.826	0.101
95.000	-11.664	0.101
95.100	-1.888	0.101
95.200	-6.946	0.101
95.300	-18.494	0.101
95.400	-14.749	0.101
95.500	-16.821	0.101
95.600	-8.930	0.101
95.700	-19.733	0.101
95.800	-12.638	0.101
95.900	-9.255	0.101
96.000	-5.301	0.101
96.100	-7.859	0.101
96.200	-1.567	0.101
96.300	-26.751	0.101
96.400	-10.507	0.101
96.500	-9.587	0.101
96.600	-1.808	0.101
96.700	-8.080	0.101
96.800	-4.515	0.101
96.900	-15.902	0.101
97.000	-20.642	0.101
97.100	-12.861	0.101
97.200	-13.367	0.101
97.300	-2.883	0.101
97.400	-9.411	0.101
97.500	-18.118	0.101
97.600	-5.807	0.101
97.700	-12.556	0.101
97.800	-6.349	0.101
97.900	-10.633	0.101
98.000	-7.471	0.101
98.100	-2.568	0.101
98.200	-2.571	0.101
98.300	-13.950	0.101
98.400	-7.701	0.101
98.500	-11.693	0.101
98.600	-5.908	0.101
98.700	-10.150	0.101
98.800	-13.933	0.101
98.900	-9.244	0.101
99.000	-13.539	0.101
99.100	-4.562	0.101
99.200	-8.613	0.101
99.300	-8.568	0.101
99.400	-1.155	0.101
99.500	-16.014	0.101
99.600	-14.399	0.101
99.700	-3.884	0.101
99.800	-5.447	0.101
99.900	-11.416	0.101
100.000	-2.231	0.101
100.100	-12.681	0.101
100.200	-8.247	0.101
100.300	-9.299	0.101
100.400	0.206	0.101
100.500	-17.007	0.101
100.600	-7.732	0.101
100.700	-4.049	0.101
100.800	-2.132	0.101
100.900	-6.436	0.101
101.000	-14.381	0.101
101.100	-1.006	0.101
101.200	-9.905	0.101
101.300	-3.419	0.101
101.400	-12.851	0.101
101.500	-9.594	0.101
101.600	-9.763	0.101
101.700	-10.625	0.101
101.800	-13.479	0.101
101.900	-8.235	0.101
102.000	-9.629	0.101
102.100	-13.732	0.101
102.200	1.314	0.101
102.300	-13.546	0.101
102.400	-1.214	0.101
102.500	-5.535	0.101
102.600	-12.796	0.101
102.700	-16.170	0.101
102.800	-0.560	0.101
102.900	-15.518	0.101
103.000	-11.725	0.101
103.100	-1.632	0.101
103.200	-4.987	0.101
103.300	-12.445	0.101
103.400	-5.533	0.101
103.500	-0.308	0.101
103.600	-11.016	0.101
103.700	-12.994	0.101
103.800	-8.562	0.101
103.900	-6.952	0.101
104.000	-1.623	0.101
104.100	-10.708	0.101
104.200	-20.764	0.101
104.300	-10.135	0.101
104.400	-1.368	0.101
104.500	-6.125	0.101
104.600	-1.917	0.101
104.700	-15.774	0.101
104.800	-17.389	0.101
104.900	-8.182	0.101
105.000	-7.713	0.101
105.100	-8.709	0.101
105.200	-7.631	0.101
105.300	-21.499	0.101
105.400	-12.912	0.101
105.500	-7.417	0.101
105.600	-6.188	0.101
105.700	-23.471	0.101
105.800	-15.432	0.101
105.900	-11.772	0.101
106.000	-0.656	0.101
106.100	-19.560	0.101
106.200	-3.672	0.101
106.300	-17.982	0.101
106.400	-14.894	0.101
106.500	-10.578	0.101
106.600	-17.437	0.101
106.700	-11.549	0.101
106.800	-4.653	0.101
106.900	-14.846	0.101
107.000	-11.900	0.101
107.100	-7.914	0.101
107.200	-7.731	0.101
107.300	-11.013	0.101
107.400	-9.296	0.101
107.500	-10.349	0.101
107.600	-8.623	0.101
107.700	-7.496	0.101
107.800	-16.235	0.101
107.900	-5.993	0.101
108.000	-13.521	0.101
108.100	-22.045	0.101
108.200	-12.634	0.101
108.300	-8.345	0.101
108.400	-11.512	0.101
108.500	-6.977	0.101
108.600	-13.068	0.101
108.700	-15.966	0.101
108.800	-16.558	0.101
108.900	-11.992	0.101
109.000	-6.501	0.101
109.100	-20.011	0.101
109.200	-16.300	0.101
109.300	-10.713	0.101
109.400	-5.349	0.101
109.500	-13.085	0.101
109.600	-3.287	0.101
109.700	-15.202	0.101
109.800	-8.259	0.101
109.900	-13.604	0.101
110.000	-14.207	0.101
110.100	-8.287	0.101
110.200	-10.751	0.101
110.300	-14.489	0.101
110.400	-8.036	0.101
110.500	-9.139	0.101
110.600	-8.606	0.101
110.700	-15.326	0.101
110.800	-16.416	0.101
110.900	-9.026	0.101
111.000	-19.789	0.101
111.100	-17.212	0.101
111.200	-21.115	0.101
111.300	-7.219	0.101
111.400	-13.737	0.101
111.500	-20.331	0.101
111.600	-9.286	0.101
111.700	-16.871	0.101
111.800	-1.717	0.101
111.900	-8.718	0.101
112.000	-11.463	0.101
112.100	-26.269	0.101
112.200	-17.262	0.101
112.300	-14.158	0.101
112.400	-8.023	0.101
112.500	-12.385	0.101
112.600	-13.111	0.101
112.700	-12.027	0.101
112.800	-17.724	0.101
112.900	-12.743	0.101
113.000	-11.845	0.101
113.100	-14.623	0.101
113.200	-12.461	0.101
113.300	-18.968	0.101
113.400	-13.831	0.101
113.500	-12.682	0.101
113.600	-11.513	0.101
113.700	-13.162	0.101
113.800	-18.606	0.101
113.900	-14.032	0.101
114.000	-21.208	0.101
114.100	-20.359	0.101
114.200	-6.329	0.101
114.300	-14.883	0.101
114.400	-10.698	0.101
114.500	-9.818	0.101
114.600	-14.027	0.101
114.700	-5.630	0.101
114.800	-23.651	0.101
114.900	-14.653	0.101
115.000	-12.278	0.101
115.100	-18.733	0.101
115.200	-13.291	0.101
115.300	-20.796	0.101
115.400	-9.095	0.101
115.500	-18.646	0.101
115.600	-16.710	0.101
115.700	-14.851	0.101
115.800	-20.906	0.101
115.900	-16.620	0.101
116.000	-9.369	0.101
116.100	-16.006	0.101
116.200	-22.819	0.101
116.300	-25.912	0.101
116.400	-15.376	0.101
116.500	-21.135	0.101
116.600	-17.123	0.101
116.700	-15.802	0.101
116.800	-9.874	0.101
116.900	-8.602	0.101
117.000	-8.533	0.101
117.100	-12.470	0.101
117.200	-19.926	0.101
117.300	-16.723	0.101
117.400	-13.086	0.101
117.500	-7.044	0.101
117.600	-17.742	0.101
117.700	-10.582	0.101
117.800	-19.901	0.101
117.900	-18.710	0.101
118.000	-16.321	0.101
118.100	-18.366	0.101
118.200	-13.745	0.101
118.300	-18.026	0.101
118.400	-9.231	0.101
118.500	-11.259	0.101
118.600	-17.804	0.101
118.700	-15.006	0.101
118.800	-19.338	0.101
118.900	-32.265	0.101
119.000	-15.023	0.101
119.100	-11.302	0.101
119.200	-13.092	0.101
119.300	-17.489	0.101
119.400	-16.311	0.101
119.500	-17.630	0.101
119.600	-13.181	0.101
119.700	-12.592	0.101
119.800	-21.088	0.101
119.900	-11.808	0.101
120.000	-10.171	0.101
120.100	-10.414	0.101
120.200	-13.702	0.101
120.300	-18.300	0.101
120.400	-6.079	0.101
120.500	-13.610	0.101
120.600	-19.257	0.101
120.700	-18.696	0.101
120.800	-18.087	0.101
120.900	-12.883	0.101
121.000	-24.864	0.101
121.100	-15.741	0.101
121.200	-9.429	0.101
121.300	-7.348	0.101
121.400	-23.677	0.101
121.500	-21.505	0.101
121.600	-18.888	0.101
121.700	-18.931	0.101
121.800	-19.321	0.101
121.900	-12.276	0.101
122.000	-20.048	0.101
122.100	-13.146	0.101
122.200	-15.807	0.101
122.300	-16.656	0.101
122.400	-24.115	0.101
122.500	-14.057	0.101
122.600	-14.073	0.101
122.700	-12.195	0.101
122.800	-15.256	0.101
122.900	-19.339	0.101
123.000	-18.619	0.101
123.100	-16.210	0.101
123.200	-14.387	0.101
123.300	-16.718	0.101
123.400	-15.911	0.101
123.500	-12.993	0.101
123.600	-6.471	0.101
123.700	-5.416	0.101
123.800	-17.233	0.101
123.900	-17.197	0.101
124.000	-19.703	0.101
124.100	-21.435	0.101
124.200	-18.422	0.101
124.300	-7.515	0.101
124.400	-22.387	0.101
124.500	-26.479	0.101
124.600	-14.324	0.101
124.700	-5.111	0.101
124.800	-12.235	0.101
124.900	-14.275	0.101
125.000	-9.273	0.101
125.100	-16.503	0.101
125.200	-20.535	0.101
125.300	-22.729	0.101
125.400	-18.612	0.101
125.500	-20.047	0.101
125.600	-21.144	0.101
125.700	-12.436	0.101
125.800	-16.897	0.101
125.900	-12.522	0.101
126.000	-19.088	0.101
126.100	-13.229	0.101
126.200	-20.455	0.101
126.300	-13.770	0.101
126.400	-19.514	0.101
126.500	-16.491	0.101
126.600	-16.028	0.101
126.700	-13.900	0.101
126.800	-9.844	0.101
126.900	-13.704	0.101
127.000	-14.917	0.101
127.100	-20.382	0.101
127.200	-13.860	0.101
127.300	-15.881	0.101
127.400	-18.258	0.101
127.500	-18.760	0.101
127.600	-10.667	0.101
127.700	-19.901	0.101
127.800	-22.247	0.101
127.900	-7.054	0.101
128.000	-8.973	0.101
128.100	-14.042	0.101
128.200	-22.498	0.101
128.300	-13.088	0.101
128.400	-26.527	0.101
128.500	-9.723	0.101
128.600	-15.910	0.101
128.700	-18.355	0.101
128.800	-22.460	0.101
128.900	-15.408	0.101
129.000	-18.818	0.101
129.100	-20.693	0.101
129.200	-14.869	0.101
129.300	-11.984	0.101
129.400	-25.469	0.101
129.500	-11.950	0.101
129.600	-8.339	0.101
129.700	-12.289	0.101
129.800	-14.506	0.101
129.900	-12.368	0.101
130.000	-17.132	0.101
130.100	-17.869	0.101
130.200	-13.213	0.101
130.300	-20.657	0.101
130.400	-18.842	0.101
130.500	-20.743	0.101
130.600	-18.579	0.101
130.700	-22.287	0.101
130.800	-28.194	0.101
130.900	-15.486	0.101
131.000	-13.890	0.101
131.100	-14.858	0.101
131.200	-22.330	0.101
131.300	-23.441	0.101
131.400	-11.728	0.101
131.500	-10.648	0.101
131.600	-14.445	0.101
131.700	-24.000	0.101
131.800	-13.979	0.101
131.900	-16.783	0.101
132.000	-12.740	0.101
132.100	-10.950	0.101
132.200	-12.443	0.101
132.300	-9.570	0.101
132.400	-19.320	0.101
132.500	-21.725	0.101
132.600	-11.221	0.101
132.700	-22.146	0.101
132.800	-15.709	0.101
132.900	-14.938	0.101
133.000	-17.021	0.101
133.100	-17.820	0.101
133.200	-20.191	0.101
133.300	-20.940	0.101
133.400	-16.040	0.101
133.500	-10.459	0.101
133.600	-21.508	0.101
133.700	-18.667	0.101
133.800	-19.056	0.101
133.900	-7.470	0.101
134.000	-12.797	0.101
134.100	-14.034	0.101
134.200	-18.928	0.101
134.300	-13.945	0.101
134.400	-16.782	0.101
134.500	-23.140	0.101
134.600	-17.736	0.101
134.700	-20.295	0.101
134.800	-15.393	0.101
134.900	-18.916	0.101
135.000	-19.059	0.101
135.100	-10.201	0.101
135.200	-10.275	0.101
135.300	-6.674	0.101
135.400	-28.760	0.101
135.500	-17.308	0.101
135.600	-20.952	0.101
135.700	-20.698	0.101
135.800	-5.139	0.101
135.900	-21.101	0.101
136.000	-17.419	0.101
136.100	-13.138	0.101
136.200	-15.339	0.101
136.300	-15.606	0.101
136.400	-16.722	0.101
136.500	-16.454	0.101
136.600	-14.297	0.101
136.700	-22.188	0.101
136.800	-11.226	0.101
136.900	-18.900	0.101
137.000	-8.026	0.101
137.100	-9.685	0.101
137.200	-16.918	0.101
137.300	-18.837	0.101
137.400	-15.784	0.101
137.500	-16.813	0.101
137.600	-11.374	0.101
137.700	-15.051	0.101
137.800	-15.820	0.101
137.900	-18.095	0.101
138.000	-16.225	0.101
138.100	-13.811	0.101
138.200	-17.557	0.101
138.300	-16.411	0.101
138.400	-10.317	0.101
138.500	-16.528	0.101
138.600	-22.945	0.101
138.700	-22.871	0.101
138.800	-20.616	0.101
138.900	-14.633	0.101
139.000	-22.467	0.101
139.100	-14.771	0.101
139.200	-7.119	0.101
139.300	-12.847	0.101
139.400	-17.698	0.101
139.500	-10.124	0.101
139.600	-11.753	0.101
139.700	-23.210	0.101
139.800	-16.330	0.101
139.900	-9.528	0.101
140.000	-15.252	0.101
140.100	-18.973	0.101
140.200	-14.561	0.101
140.300	-22.780	0.101
140.400	-13.728	0.101
140.500	-16.197	0.101
140.600	-14.048	0.101
140.700	-12.868	0.101
140.800	-21.954	0.101
140.900	-12.470	0.101
141.000	-24.693	0.101
141.100	-23.639	0.101
141.200	-20.876	0.101
141.300	-16.564	0.101
141.400	-21.588	0.101
141.500	-11.811	0.101
141.600	-18.181	0.101
141.700	-8.174	0.101
141.800	-8.315	0.101
141.900	-11.342	0.101
142.000	-19.480	0.101
142.100	-11.177	0.101
142.200	-15.346	0.101
142.300	-21.340	0.101
142.400	-23.399	0.101
142.500	-14.012	0.101
142.600	-23.073	0.101
142.700	-15.888	0.101
142.800	-18.364	0.101
142.900	-7.148	0.101
143.000	-13.909	0.101
143.100	-28.141	0.101
143.200	-18.502	0.101
143.300	-12.851	0.101
143.400	-12.574	0.101
143.500	-14.904	0.101
143.600	-15.484	0.101
143.700	-18.587	0.101
143.800	-17.812	0.101
143.900	-9.863	0.101
144.000	-13.033	0.101
144.100	-14.895	0.101
144.200	-16.463	0.101
144.300	-10.561	0.101
144.400	-8.529	0.101
144.500	-15.605	0.101
144.600	-23.694	0.101
144.700	-23.857	0.101
144.800	-8.796	0.101
144.900	-13.615	0.101
145.000	-11.331	0.101
145.100	-11.007	0.101
145.200	-11.693	0.101
145.300	-21.316	0.101
145.400	-9.427	0.101
145.500	-14.005	0.101
145.600	-13.416	0.101
145.700	-16.542	0.101
145.800	-23.549	0.101
145.900	-13.440	0.101
146.000	-19.077	0.101
146.100	-15.049	0.101
146.200	-12.836	0.101
146.300	-22.895	0.101
146.400	-14.890	0.101
146.500	-13.400	0.101
146.600	-16.569	0.101
146.700	-11.938	0.101
146.800	-14.934	0.101
146.900	-11.080	0.101
147.000	-28.151	0.101
147.100	-13.215	0.101
147.200	-8.528	0.101
147.300	-25.364	0.101
147.400	-13.619	0.101
147.500	-5.936	0.101
147.600	-14.199	0.101
147.700	-15.639	0.101
147.800	-12.474	0.101
147.900	-11.923	0.101
148.000	-12.263	0.101
148.100	-30.529	0.101
148.200	-17.459	0.101
148.300	-9.392	0.101
148.400	-13.617	0.101
148.500	-7.939	0.101
148.600	-22.547	0.101
148.700	-1.822	0.101
148.800	-18.160	0.101
148.900	-14.651	0.101
149.000	-8.934	0.101
149.100	-16.872	0.101
149.200	-14.959	0.101
149.300	-16.772	0.101
149.400	-16.395	0.101
149.500	-15.578	0.101
149.600	-11.935	0.101
149.700	-17.805	0.101
149.800	-10.116	0.101
149.900	-17.125	0.101
150.000	-13.884	0.101
150.100	-19.743	0.101
150.200	-17.446	0.101
150.300	-10.180	0.101
150.400	-19.861	0.101
150.500	-15.759	0.101
150.600	-7.576	0.101
150.700	-24.116	0.101
150.800	-11.541	0.101
150.900	-11.108	0.101
151.000	-20.716	0.101
151.100	-19.362	0.101
151.200	-13.610	0.101
151.300	-14.464	0.101
151.400	-11.763	0.101
151.500	-10.745	0.101
151.600	-13.274	0.101
151.700	-3.804	0.101
151.800	-11.468	0.101
151.900	-12.503	0.101
152.000	-9.180	0.101
152.100	-15.479	0.101
152.200	-5.922	0.101
152.300	-15.489	0.101
152.400	-23.786	0.101
152.500	-20.123	0.101
152.600	-10.292	0.101
152.700	-7.069	0.101
152.800	-15.175	0.101
152.900	-22.685	0.101
153.000	-12.978	0.101
153.100	-12.067	0.101
153.200	-20.317	0.101
153.300	-20.679	0.101
153.400	-17.830	0.101
153.500	-18.311	0.101
153.600	-17.310	0.101
153.700	-25.249	0.101
153.800	-14.425	0.101
153.900	-10.744	0.101
154.000	-6.071	0.101
154.100	-12.967	0.101
154.200	-13.585	0.101
154.300	-9.472	0.101
154.400	-11.935	0.101
154.500	-7.904	0.101
154.600	-17.817	0.101
154.700	-22.122	0.101
154.800	-23.615	0.101
154.900	-15.704	0.101
155.000	-11.201	0.101
155.100	-8.362	0.101
155.200	-4.634	0.101
155.300	-11.203	0.101
155.400	-13.516	0.101
155.500	-12.953	0.101
155.600	-16.023	0.101
155.700	-22.707	0.101
155.800	-16.035	0.101
155.900	-7.314	0.101
156.000	-7.155	0.101
156.100	-12.431	0.101
156.200	-18.468	0.101
156.300	-13.174	0.101
156.400	-14.954	0.101
156.500	-7.603	0.101
156.600	-18.903	0.101
156.700	-17.793	0.101
156.800	-8.636	0.101
156.900	-17.702	0.101
157.000	-13.310	0.101
157.100	-11.434	0.101
157.200	-8.309	0.101
157.300	-17.414	0.101
157.400	-12.895	0.101
157.500	-13.905	0.101
157.600	-18.339	0.101
157.700	-13.392	0.101
157.800	-9.379	0.101
157.900	-17.420	0.101
158.000	-19.441	0.101
158.100	-16.158	0.101
158.200	-6.503	0.101
158.300	-19.146	0.101
158.400	-15.984	0.101
158.500	-16.159	0.101
158.600	-9.897	0.101
158.700	-9.462	0.101
158.800	-14.968	0.101
158.900	-19.883	0.101
159.000	-10.439	0.101
159.100	-23.498	0.101
159.200	-17.482	0.101
159.300	-22.313	0.101
159.400	-15.066	0.101
159.500	-14.593	0.101
159.600	-18.625	0.101
159.700	-15.684	0.101
159.800	-18.923	0.101
159.900	-10.699	0.101
160.000	-10.220	0.101
160.100	-13.493	0.101
160.200	-3.018	0.101
160.300	-11.788	0.101
160.400	-20.528	0.101
160.500	-19.277	0.101
160.600	-20.798	0.101
160.700	-6.156	0.101
160.800	-10.772	0.101
160.900	-19.564	0.101
161.000	-16.045	0.101
161.100	-15.362	0.101
161.200	-15.882	0.101
161.300	-18.507	0.101
161.400	-9.537	0.101
161.500	-8.163	0.101
161.600	-7.150	0.101
161.700	-9.244	0.101
161.800	-11.971	0.101
161.900	-13.188	0.101
162.000	-16.140	0.101
162.100	-10.818	0.101
162.200	-8.336	0.101
162.300	-9.810	0.101
162.400	-8.838	0.101
162.500	-18.977	0.101
162.600	-7.040	0.101
162.700	-13.621	0.101
162.800	-7.467	0.101
162.900	-16.957	0.101
163.000	-2.805	0.101
163.100	-11.439	0.101
163.200	-7.840	0.101
163.300	-20.903	0.101
163.400	-14.593	0.101
163.500	-12.426	0.101
163.600	-14.530	0.101
163.700	-8.112	0.101
163.800	-22.509	0.101
163.900	-8.052	0.101
164.000	-1.036	0.101
164.100	-16.053	0.101
164.200	-19.457	0.101
164.300	-20.879	0.101
164.400	-14.243	0.101
164.500	-4.127	0.101
164.600	-5.557	0.101
164.700	-15.766	0.101
164.800	-15.467	0.101
164.900	-17.271	0.101
165.000	-9.847	0.101
165.100	-9.943	0.101
165.200	-9.038	0.101
165.300	-9.888	0.101
165.400	-13.322	0.101
165.500	-20.608	0.101
165.600	-4.412	0.101
165.700	-13.280	0.101
165.800	-1.089	0.101
165.900	-17.168	0.101
166.000	-12.267	0.101
166.100	-15.716	0.101
166.200	-18.884	0.101
166.300	-12.823	0.101
166.400	-6.906	0.101
166.500	-5.327	0.101
166.600	-12.285	0.101
166.700	-11.830	0.101
166.800	-28.103	0.101
166.900	-13.333	0.101
167.000	-5.743	0.101
167.100	-6.289	0.101
167.200	-5.560	0.101
167.300	-12.656	0.101
167.400	-8.497	0.101
167.500	-13.014	0.101
167.600	-16.461	0.101
167.700	-14.244	0.101
167.800	-17.815	0.101
167.900	-13.300	0.101
168.000	-14.049	0.101
168.100	-17.674	0.101
168.200	-12.153	0.101
168.300	-15.949	0.101
168.400	-23.880	0.101
168.500	-12.554	0.101
168.600	-7.580	0.101
168.700	-11.464	0.101
168.800	-6.030	0.101
168.900	-5.112	0.101
169.000	-12.743	0.101
169.100	-18.581	0.101
169.200	-16.884	0.101
169.300	-3.210	0.101
169.400	-15.175	0.101
169.500	-12.121	0.101
169.600	-1.005	0.101
169.700	-18.924	0.101
169.800	-2.848	0.101
169.900	-19.012	0.101
170.000	-10.700	0.101
170.100	-17.949	0.101
170.200	-10.320	0.101
170.300	-6.253	0.101
170.400	-6.586	0.101
170.500	-26.313	0.101
170.600	-23.277	0.101
170.700	-15.174	0.101
170.800	-1.138	0.101
170.900	-15.070	0.101
171.000	-13.207	0.101
171.100	-17.574	0.101
171.200	-8.303	0.101
171.300	-0.997	0.101
171.400	-5.186	0.101
171.500	-8.476	0.101
171.600	-13.237	0.101
171.700	-31.020	0.101
171.800	-20.503	0.101
171.900	-12.338	0.101
172.000	-14.152	0.101
172.100	2.505	0.101
172.200	-14.238	0.101
172.300	-13.698	0.101
172.400	-14.911	0.101
172.500	-14.440	0.101
172.600	-6.746	0.101
172.700	-12.999	0.101
172.800	-7.934	0.101
172.900	-1.714	0.101
173.000	-8.284	0.101
173.100	-22.790	0.101
173.200	-16.804	0.101
173.300	-15.038	0.101
173.400	-8.841	0.101
173.500	-12.310	0.101
173.600	-8.508	0.101
173.700	-16.639	0.101
173.800	-10.763	0.101
173.900	-13.717	0.101
174.000	-4.263	0.101
174.100	-9.695	0.101
174.200	-9.216	0.101
174.300	-12.550	0.101
174.400	-4.186	0.101
174.500	-2.315	0.101
174.600	-17.735	0.101
174.700	-12.673	0.101
174.800	-8.959	0.101
174.900	-16.074	0.101
175.000	-13.746	0.101
175.100	-4.233	0.101
175.200	-11.713	0.101
175.300	-20.950	0.101
175.400	-9.777	0.101
175.500	-7.549	0.101
175.600	-14.039	0.101
175.700	-9.117	0.101
175.800	-4.314	0.101
175.900	-9.487	0.101
176.000	-10.206	0.101
176.100	-16.321	0.101
176.200	-18.257	0.101
176.300	-15.089	0.101
176.400	-9.525	0.101
176.500	-10.136	0.101
176.600	-11.114	0.101
176.700	-11.026	0.101
176.800	-15.234	0.101
176.900	-16.002	0.101
177.000	-4.135	0.101
177.100	-11.502	0.101
177.200	-11.570	0.101
177.300	-5.989	0.101
177.400	-22.312	0.101
177.500	-17.247	0.101
177.600	-11.900	0.101
177.700	-1.109	0.101
177.800	-22.519	0.101
177.900	-13.647	0.101
178.000	-17.110	0.101
178.100	-16.801	0.101
178.200	-17.845	0.101
178.300	-8.164	0.101
178.400	-6.029	0.101
178.500	-7.514	0.101
178.600	-9.433	0.101
178.700	-11.089	0.101
178.800	-5.352	0.101
178.900	-3.925	0.101
179.000	-8.254	0.101
179.100	-13.469	0.101
179.200	-6.865	0.101
179.300	-20.050	0.101
179.400	-21.553	0.101
179.500	-21.754	0.101
179.600	-24.497	0.101
179.700	-2.206	0.101
179.800	-10.969	0.101
179.900	-9.593	0.101
180.000	-12.284	0.101
180.100	1.329	0.101
180.200	-6.033	0.101
180.300	-1.542	0.101
180.400	-1.775	0.101
180.500	2.917	0.101
180.600	15.280	0.101
180.700	6.885	0.101
180.800	8.013	0.101
180.900	9.844	0.101
181.000	14.971	0.101
181.100	13.116	0.101
181.200	10.542	0.101
181.300	1.640	0.101
181.400	19.033	0.101
181.500	12.963	0.101
181.600	12.569	0.101
181.700	17.393	0.101
181.800	21.874	0.101
181.900	25.010	0.101
182.000	35.029	0.101
182.100	22.295	0.101
182.200	10.588	0.101
182.300	17.411	0.101
182.400	25.193	0.101
182.500	18.695	0.101
182.600	21.482	0.101
182.700	22.833	0.101
182.800	12.150	0.101
182.900	20.554	0.101
183.000	22.207	0.101
183.100	24.636	0.101
183.200	26.357	0.101
183.300	28.027	0.101
183.400	15.383	0.101
183.500	28.055	0.101
183.600	31.780	0.101
183.700	28.347	0.101
183.800	23.747	0.101
183.900	26.303	0.101
184.000	25.717	0.101
184.100	22.437	0.101
184.200	34.249	0.101
184.300	25.339	0.101
184.400	22.627	0.101
184.500	18.665	0.101
184.600	14.533	0.101
184.700	18.884	0.101
184.800	21.097	0.101
184.900	20.116	0.101
185.000	12.574	0.101
185.100	21.344	0.101
185.200	23.350	0.101
185.300	21.037	0.101
185.400	28.198	0.101
185.500	18.707	0.101
185.600	22.684	0.101
185.700	21.667	0.101
185.800	13.614	0.101
185.900	9.160	0.101
186.000	21.072	0.101
186.100	14.434	0.101
186.200	19.868	0.101
186.300	19.740	0.101
186.400	13.874	0.101
186.500	16.328	0.101
186.600	12.434	0.101
186.700	23.568	0.101
186.800	15.279	0.101
186.900	22.484	0.101
187.000	12.591	0.101
187.100	9.233	0.101
187.200	22.387	0.101
187.300	22.394	0.101
187.400	12.150	0.101
187.500	26.452	0.101
187.600	18.328	0.101
187.700	10.296	0.101
187.800	8.357	0.101
187.900	10.613	0.101
188.000	19.301	0.101
188.100	21.314	0.101
188.200	11.597	0.101
188.300	26.349	0.101
188.400	14.102	0.101
188.500	12.855	0.101
188.600	11.306	0.101
188.700	9.843	0.101
188.800	16.404	0.101
188.900	26.679	0.101
189.000	9.049	0.101
189.100	17.257	0.101
189.200	7.246	0.101
189.300	20.012	0.101
189.400	23.399	0.101
189.500	16.369	0.101
189.600	3.361	0.101
189.700	11.349	0.101
189.800	14.459	0.101
189.900	23.467	0.101
190.000	11.193	0.101
190.100	19.338	0.101
190.200	16.748	0.101
190.300	17.428	0.101
190.400	16.431	0.101
190.500	18.451	0.101
190.600	20.777	0.101
190.700	20.694	0.101
190.800	8.318	0.101
190.900	19.320	0.101
191.000	11.777	0.101
191.100	19.799	0.101
191.200	18.404	0.101
191.300	14.274	0.101
191.400	21.679	0.101
191.500	20.792	0.101
191.600	9.174	0.101
191.700	21.540	0.101
191.800	17.448	0.101
191.900	14.761	0.101
192.000	8.875	0.101
192.100	12.724	0.101
192.200	14.522	0.101
192.300	20.430	0.101
192.400	17.513	0.101
192.500	27.831	0.101
192.600	15.680	0.101
192.700	17.118	0.101
192.800	17.571	0.101
192.900	25.871	0.101
193.000	21.870	0.101
193.100	20.901	0.101
193.200	18.504	0.101
193.300	19.743	0.101
193.400	20.892	0.101
193.500	25.574	0.101
193.600	20.859	0.101
193.700	19.612	0.101
193.800	20.237	0.101
193.900	25.831	0.101
194.000	21.407	0.101
194.100	17.774	0.101
194.200	17.314	0.101
194.300	21.113	0.101
194.400	21.569	0.101
194.500	21.082	0.101
194.600	28.645	0.101
194.700	19.922	0.101
194.800	14.593	0.101
194.900	18.271	0.101
195.000	21.009	0.101
195.100	9.709	0.101
195.200	31.471	0.101
195.300	27.393	0.101
195.400	21.473	0.101
195.500	29.750	0.101
195.600	16.297	0.101
195.700	16.460	0.101
195.800	15.515	0.101
195.900	35.155	0.101
196.000	14.625	0.101
196.100	20.458	0.101
196.200	27.876	0.101
196.300	24.992	0.101
196.400	27.938	0.101
196.500	26.353	0.101
196.600	21.341	0.101
196.700	16.990	0.101
196.800	30.640	0.101
196.900	23.070	0.101
197.000	24.851	0.101
197.100	20.107	0.101
197.200	23.109	0.101
197.300	23.999	0.101
197.400	23.103	0.101
197.500	25.871	0.101
197.600	26.774	0.101
197.700	23.983	0.101
197.800	31.095	0.101
197.900	25.335	0.101
198.000	13.192	0.101
198.100	32.682	0.101
198.200	21.309	0.101
198.300	34.275	0.101
198.400	28.224	0.101
198.500	29.628	0.101
198.600	16.894	0.101
198.700	20.066	0.101
198.800	35.824	0.101
198.900	31.197	0.101
199.000	28.619	0.101
199.100	31.139	0.101
199.200	30.892	0.101
199.300	28.662	0.101
199.400	31.190	0.101
199.500	33.319	0.101
199.600	17.839	0.101
199.700	20.444	0.101
199.800	16.774	0.101
199.900	36.580	0.101
200.000	34.565	0.101
200.100	29.335	0.101
200.200	30.272	0.101
200.300	28.856	0.101
200.400	24.106	0.101
200.500	35.987	0.101
200.600	23.832	0.101
200.700	31.606	0.101
200.800	34.267	0.101
200.900	37.964	0.101
201.000	28.438	0.101
201.100	26.296	0.101
201.200	30.909	0.101
201.300	27.772	0.101
201.400	33.213	0.101
201.500	41.867	0.101
201.600	28.099	0.101
201.700	30.276	0.101
201.800	39.193	0.101
201.900	34.932	0.101
202.000	30.356	0.101
202.100	36.525	0.101
202.200	20.789	0.101
202.300	28.965	0.101
202.400	27.082	0.101
202.500	41.356	0.101
202.600	35.608	0.101
202.700	32.329	0.101
202.800	27.024	0.101
202.900	31.507	0.101
203.000	22.514	0.101
203.100	42.247	0.101
203.200	38.400	0.101
203.300	25.795	0.101
203.400	28.527	0.101
203.500	33.373	0.101
203.600	38.894	0.101
203.700	31.202	0.101
203.800	32.484	0.101
203.900	27.642	0.101
204.000	26.390	0.101
204.100	30.039	0.101
204.200	29.718	0.101
204.300	31.945	0.101
204.400	29.231	0.101
204.500	25.533	0.101
204.600	34.757	0.101
204.700	37.641	0.101
204.800	30.600	0.101
204.900	32.078	0.101
205.000	29.691	0.101
205.100	31.353	0.101
205.200	31.136	0.101
205.300	24.270	0.101
205.400	29.359	0.101
205.500	42.464	0.101
205.600	31.923	0.101
205.700	32.451	0.101
205.800	35.088	0.101
205.900	38.541	0.101
206.000	34.625	0.101
206.100	38.570	0.101
206.200	30.277	0.101
206.300	32.175	0.101
206.400	32.184	0.101
206.500	30.536	0.101
206.600	21.690	0.101
206.700	24.334	0.101
206.800	35.396	0.101
206.900	27.182	0.101
207.000	36.312	0.101
207.100	45.060	0.101
207.200	33.644	0.101
207.300	39.849	0.101
207.400	36.364	0.101
207.500	33.142	0.101
207.600	37.978	0.101
207.700	35.108	0.101
207.800	21.476	0.101
207.900	23.369	0.101
208.000	29.218	0.101
208.100	34.050	0.101
208.200	33.950	0.101
208.300	29.838	0.101
208.400	34.403	0.101
208.500	35.487	0.101
208.600	39.346	0.101
208.700	36.749	0.101
208.800	35.695	0.101
208.900	25.544	0.101
209.000	36.690	0.101
209.100	37.931	0.101
209.200	32.242	0.101
209.300	31.850	0.101
209.400	35.661	0.101
209.500	31.941	0.101
209.600	16.992	0.101
209.700	30.050	0.101
209.800	38.605	0.101
209.900	35.587	0.101
210.000	47.604	0.101
210.100	42.484	0.101
210.200	24.124	0.101
210.300	27.883	0.101
210.400	40.588	0.101
210.500	32.761	0.101
210.600	33.206	0.101
210.700	36.501	0.101
210.800	36.842	0.101
210.900	22.380	0.101
211.000	28.608	0.101
211.100	34.243	0.101
211.200	32.825	0.101
211.300	21.178	0.101
211.400	40.686	0.101
211.500	32.695	0.101
211.600	33.194	0.101
211.700	32.561	0.101
211.800	38.433	0.101
211.900	36.333	0.101
212.000	23.756	0.101
212.100	31.434	0.101
212.200	31.855	0.101
212.300	42.194	0.101
212.400	38.903	0.101
212.500	27.278	0.101
212.600	34.326	0.101
212.700	25.385	0.101
212.800	30.715	0.101
212.900	24.040	0.101
213.000	37.834	0.101
213.100	31.582	0.101
213.200	32.091	0.101
213.300	23.352	0.101
213.400	30.113	0.101
213.500	24.278	0.101
213.600	42.712	0.101
213.700	25.474	0.101
213.800	40.896	0.101
213.900	27.786	0.101
214.000	33.858	0.101
214.100	26.259	0.101
214.200	25.828	0.101
214.300	26.756	0.101
214.400	20.310	0.101
214.500	22.940	0.101
214.600	39.980	0.101
214.700	30.321	0.101
214.800	26.535	0.101
214.900	30.111	0.101
215.000	30.326	0.101
215.100	34.372	0.101
215.200	38.732	0.101
215.300	18.827	0.101
215.400	33.518	0.101
215.500	36.849	0.101
215.600	37.000	0.101
215.700	24.319	0.101
215.800	23.692	0.101
215.900	38.445	0.101
216.000	33.753	0.101
216.100	32.073	0.101
216.200	38.039	0.101
216.300	32.688	0.101
216.400	23.240	0.101
216.500	32.313	0.101
216.600	38.987	0.101
216.700	24.458	0.101
216.800	38.715	0.101
216.900	34.200	0.101
217.000	34.964	0.101
217.100	20.732	0.101
217.200	22.515	0.101
217.300	29.565	0.101
217.400	27.539	0.101
217.500	26.890	0.101
217.600	35.848	0.101
217.700	30.630	0.101
217.800	36.090	0.101
217.900	28.139	0.101
218.000	31.380	0.101
218.100	17.210	0.101
218.200	35.402	0.101
218.300	38.732	0.101
218.400	31.701	0.101
218.500	28.192	0.101
218.600	28.151	0.101
218.700	36.495	0.101
218.800	26.603	0.101
218.900	25.063	0.101
219.000	43.414	0.101
219.100	26.207	0.101
219.200	32.336	0.101
219.300	22.592	0.101
219.400	30.807	0.101
219.500	25.079	0.101
219.600	38.251	0.101
219.700	25.798	0.101
219.800	29.437	0.101
219.900	33.768	0.101
220.000	37.988	0.101
220.100	21.688	0.101
220.200	26.818	0.101
220.300	17.424	0.101
220.400	38.878	0.101
220.500	36.959	0.101
220.600	30.199	0.101
220.700	26.611	0.101
220.800	30.331	0.101
220.900	30.819	0.101
221.000	36.011	0.101
221.100	33.794	0.101
221.200	30.023	0.101
221.300	32.403	0.101
221.400	25.372	0.101
221.500	32.053	0.101
221.600	22.973	0.101
221.700	29.031	0.101
221.800	40.948	0.101
221.900	29.151	0.101
222.000	28.592	0.101
222.100	26.019	0.101
222.200	27.606	0.101
222.300	23.986	0.101
222.400	43.862	0.101
222.500	22.507	0.101
222.600	28.822	0.101
222.700	20.327	0.101
222.800	19.561	0.101
222.900	21.014	0.101
223.000	30.561	0.101
223.100	37.729	0.101
223.200	37.708	0.101
223.300	37.354	0.101
223.400	26.208	0.101
223.500	29.482	0.101
223.600	31.138	0.101
223.700	30.656	0.101
223.800	29.495	0.101
223.900	20.336	0.101
224.000	22.177	0.101
224.100	22.541	0.101
224.200	23.954	0.101
224.300	28.182	0.101
224.400	33.574	0.101
224.500	22.826	0.101
224.600	29.513	0.101
224.700	27.473	0.101
224.800	32.363	0.101
224.900	32.207	0.101
225.000	28.902	0.101
225.100	32.040	0.101
225.200	26.637	0.101
225.300	24.709	0.101
225.400	38.519	0.101
225.500	42.858	0.101
225.600	35.318	0.101
225.700	22.800	0.101
225.800	32.017	0.101
225.900	23.040	0.101
226.000	28.433	0.101
226.100	24.436	0.101
226.200	29.157	0.101
226.300	22.176	0.101
226.400	28.495	0.101
226.500	18.628	0.101
226.600	36.178	0.101
226.700	22.601	0.101
226.800	34.407	0.101
226.900	42.595	0.101
227.000	28.380	0.101
227.100	25.326	0.101
227.200	30.069	0.101
227.300	28.745	0.101
227.400	31.276	0.101
227.500	36.871	0.101
227.600	26.261	0.101
227.700	24.606	0.101
227.800	31.713	0.101
227.900	29.662	0.101
228.000	22.748	0.101
228.100	36.515	0.101
228.200	29.484	0.101
228.300	35.548	0.101
228.400	35.475	0.101
228.500	19.286	0.101
228.600	36.883	0.101
228.700	34.478	0.101
228.800	21.722	0.101
228.900	23.815	0.101
229.000	30.902	0.101
229.100	17.892	0.101
229.200	38.725	0.101
229.300	23.914	0.101
229.400	32.343	0.101
229.500	24.131	0.101
229.600	31.464	0.101
229.700	22.603	0.101
229.800	35.213	0.101
229.900	32.073	0.101
230.000	33.655	0.101
230.100	26.958	0.101
230.200	27.997	0.101
230.300	32.911	0.101
230.400	26.950	0.101
230.500	34.804	0.101
230.600	32.922	0.101
230.700	27.728	0.101
230.800	27.544	0.101
230.900	32.722	0.101
231.000	24.598	0.101
231.100	27.027	0.101
231.200	25.133	0.101
231.300	25.936	0.101
231.400	36.377	0.101
231.500	25.145	0.101
231.600	27.714	0.101
231.700	31.441	0.101
231.800	27.176	0.101
231.900	25.330	0.101
232.000	38.760	0.101
232.100	36.662	0.101
232.200	30.818	0.101
232.300	30.988	0.101
232.400	33.224	0.101
232.500	21.912	0.101
232.600	23.646	0.101
232.700	24.885	0.101
232.800	31.278	0.101
232.900	22.994	0.101
233.000	39.971	0.101
233.100	31.899	0.101
233.200	30.226	0.101
233.300	27.806	0.101
233.400	34.921	0.101
233.500	35.866	0.101
233.600	24.669	0.101
233.700	27.612	0.101
233.800	41.765	0.101
233.900	33.798	0.101
234.000	27.134	0.101
234.100	29.144	0.101
234.200	37.854	0.101
234.300	26.151	0.101
234.400	27.638	0.101
234.500	20.469	0.101
234.600	23.342	0.101
234.700	42.097	0.101
234.800	33.845	0.101
234.900	23.641	0.101
235.000	23.999	0.101
235.100	23.728	0.101
235.200	35.913	0.101
235.300	38.023	0.101
235.400	39.057	0.101
235.500	19.253	0.101
235.600	20.517	0.101
235.700	36.534	0.101
235.800	38.133	0.101
235.900	31.843	0.101
236.000	35.859	0.101
236.100	29.764	0.101
236.200	37.908	0.101
236.300	24.931	0.101
236.400	24.679	0.101
236.500	18.064	0.101
236.600	27.027	0.101
236.700	33.263	0.101
236.800	24.657	0.101
236.900	35.751	0.101
237.000	29.313	0.101
237.100	35.340	0.101
237.200	26.871	0.101
237.300	27.572	0.101
237.400	29.021	0.101
237.500	26.477	0.101
237.600	35.916	0.101
237.700	23.272	0.101
237.800	31.425	0.101
237.900	31.130	0.101
238.000	40.327	0.101
238.100	25.529	0.101
238.200	31.402	0.101
238.300	39.381	0.101
238.400	27.844	0.101
238.500	25.128	0.101
238.600	25.344	0.101
238.700	26.256	0.101
238.800	25.232	0.101
238.900	25.133	0.101
239.000	22.991	0.101
239.100	32.488	0.101
239.200	36.382	0.101
239.300	32.285	0.101
239.400	37.011	0.101
239.500	25.637	0.101
239.600	29.094	0.101
239.700	28.572	0.101
239.800	27.762	0.101
239.900	31.428	0.101
240.000	36.606	0.101
240.100	14.895	0.101
240.200	20.412	0.101
240.300	24.694	0.101
240.400	19.942	0.101
240.500	22.235	0.101
240.600	18.066	0.101
240.700	16.964	0.101
240.800	21.850	0.101
240.900	13.213	0.101
241.000	-0.102	0.101
241.100	6.595	0.101
241.200	3.487	0.101
241.300	5.311	0.101
241.400	0.825	0.101
241.500	-3.498	0.101
241.600	2.354	0.101
241.700	-8.511	0.101
241.800	-10.903	0.101
241.900	-9.678	0.101
242.000	-6.200	0.101
242.100	-2.459	0.101
242.200	-13.888	0.101
242.300	-12.881	0.101
242.400	-24.694	0.101
242.500	-12.465	0.101
242.600	-14.128	0.101
242.700	-16.444	0.101
242.800	-12.048	0.101
242.900	-12.245	0.101
243.000	-29.219	0.101
243.100	-11.107	0.101
243.200	-19.146	0.101
243.300	-15.056	0.101
243.400	-17.031	0.101
243.500	-15.846	0.101
243.600	-21.583	0.101
243.700	-16.433	0.101
243.800	-20.903	0.101
243.900	-15.127	0.101
244.000	-14.865	0.101
244.100	-16.373	0.101
244.200	-13.594	0.101
244.300	-12.454	0.101
244.400	-17.746	0.101
244.500	-24.280	0.101
244.600	-25.189	0.101
244.700	-10.966	0.101
244.800	-22.534	0.101
244.900	-11.997	0.101
245.000	-18.005	0.101
245.100	-17.315	0.101
245.200	-10.657	0.101
245.300	-14.495	0.101
245.400	-11.771	0.101
245.500	-7.866	0.101
245.600	-9.260	0.101
245.700	-18.049	0.101
245.800	-18.561	0.101
245.900	-22.115	0.101
246.000	-16.028	0.101
246.100	-8.544	0.101
246.200	-20.944	0.101
246.300	-15.992	0.101
246.400	-19.758	0.101
246.500	-7.261	0.101
246.600	-11.898	0.101
246.700	-23.910	0.101
246.800	-14.202	0.101
246.900	-2.872	0.101
247.000	-12.626	0.101
247.100	-7.134	0.101
247.200	-10.016	0.101
247.300	-8.931	0.101
247.400	-14.894	0.101
247.500	-19.129	0.101
247.600	-10.001	0.101
247.700	-11.685	0.101
247.800	-15.510	0.101
247.900	-11.323	0.101
248.000	-12.018	0.101
248.100	-12.186	0.101
248.200	-9.117	0.101
248.300	-19.865	0.101
248.400	-14.485	0.101
248.500	-8.129	0.101
248.600	-16.177	0.101
248.700	-4.710	0.101
248.800	-5.941	0.101
248.900	-14.858	0.101
249.000	-15.302	0.101
249.100	-15.130	0.101
249.200	-13.729	0.101
249.300	-2.062	0.101
249.400	-15.913	0.101
249.500	-7.920	0.101
249.600	-10.567	0.101
249.700	-3.533	0.101
249.800	-13.624	0.101
249.900	-13.870	0.101
250.000	-18.867	0.101
250.100	-11.852	0.101
250.200	-6.831	0.101
250.300	-14.798	0.101
250.400	-14.982	0.101
250.500	-17.121	0.101
250.600	-18.874	0.101
250.700	-14.997	0.101
250.800	-20.767	0.101
250.900	-7.358	0.101
251.000	-16.053	0.101
251.100	-6.081	0.101
251.200	-9.212	0.101
251.300	-20.012	0.101
251.400	-14.480	0.101
251.500	-16.518	0.101
251.600	-10.071	0.101
251.700	-16.040	0.101
251.800	-15.987	0.101
251.900	-16.175	0.101
252.000	-22.388	0.101
252.100	-13.831	0.101
252.200	-23.484	0.101
252.300	-3.823	0.101
252.400	-6.195	0.101
252.500	-18.566	0.101
252.600	-20.972	0.101
252.700	-21.287	0.101
252.800	-16.937	0.101
252.900	-2.163	0.101
253.000	-15.959	0.101
253.100	-19.651	0.101
253.200	-16.939	0.101
253.300	-9.232	0.101
253.400	-13.986	0.101
253.500	-10.421	0.101
253.600	-9.335	0.101
253.700	-7.347	0.101
253.800	-14.102	0.101
253.900	-10.101	0.101
254.000	-16.042	0.101
254.100	-13.765	0.101
254.200	-22.114	0.101
254.300	-10.264	0.101
254.400	-16.520	0.101
254.500	-12.376	0.101
254.600	-18.510	0.101
254.700	-2.250	0.101
254.800	-3.236	0.101
254.900	-10.357	0.101
255.000	-20.169	0.101
255.100	-19.590	0.101
255.200	-13.863	0.101
255.300	-4.233	0.101
255.400	-13.041	0.101
255.500	-16.317	0.101
255.600	-21.164	0.101
255.700	-6.017	0.101
255.800	-21.780	0.101
255.900	-16.156	0.101
256.000	-16.695	0.101
256.100	-20.571	0.101
256.200	-10.618	0.101
256.300	-15.604	0.101
256.400	-16.186	0.101
256.500	-15.824	0.101
256.600	-14.234	0.101
256.700	-15.727	0.101
256.800	-17.658	0.101
256.900	-18.015	0.101
257.000	-19.700	0.101
257.100	-19.842	0.101
257.200	-11.271	0.101
257.300	-6.362	0.101
257.400	-17.106	0.101
257.500	-15.932	0.101
257.600	-22.959	0.101
257.700	-12.675	0.101
257.800	-14.117	0.101
257.900	-12.041	0.101
258.000	-20.919	0.101
258.100	-9.497	0.101
258.200	-11.574	0.101
258.300	-15.139	0.101
258.400	-19.492	0.101
258.500	-20.077	0.101
258.600	-10.969	0.101
258.700	-16.962	0.101
258.800	-27.683	0.101
258.900	-16.361	0.101
259.000	-17.598	0.101
259.100	-13.716	0.101
259.200	-30.727	0.101
259.300	-14.841	0.101
259.400	-14.071	0.101
259.500	-12.929	0.101
259.600	-6.050	0.101
259.700	-10.056	0.101
259.800	-17.203	0.101
259.900	-14.580	0.101
260.000	-25.021	0.101
260.100	-14.327	0.101
260.200	-19.347	0.101
260.300	-10.080	0.101
260.400	-14.659	0.101
260.500	-16.466	0.101
260.600	-19.273	0.101
260.700	-19.252	0.101
260.800	-17.628	0.101
260.900	-25.036	0.101
261.000	-19.165	0.101
261.100	-24.280	0.101
261.200	-20.137	0.101
261.300	-12.393	0.101
261.400	-17.129	0.101
261.500	-14.384	0.101
261.600	-11.811	0.101
261.700	-13.332	0.101
261.800	-24.302	0.101
261.900	-22.344	0.101
262.000	-20.081	0.101
262.100	-20.596	0.101
262.200	-30.369	0.101
262.300	-14.505	0.101
262.400	-9.154	0.101
262.500	-18.778	0.101
262.600	-18.294	0.101
262.700	-14.489	0.101
262.800	-7.535	0.101
262.900	-11.766	0.101
263.000	-12.901	0.101
263.100	-13.398	0.101
263.200	-16.875	0.101
263.300	-14.113	0.101
263.400	-16.210	0.101
263.500	-16.393	0.101
263.600	-18.606	0.101
263.700	-15.520	0.101
263.800	-25.508	0.101
263.900	-22.535	0.101
264.000	-18.285	0.101
264.100	-15.625	0.101
264.200	-22.239	0.101
264.300	-23.623	0.101
264.400	-7.214	0.101
264.500	-20.013	0.101
264.600	-17.595	0.101
264.700	-19.114	0.101
264.800	-23.379	0.101
264.900	-16.710	0.101
265.000	-14.706	0.101
265.100	-18.849	0.101
265.200	-18.797	0.101
265.300	-17.196	0.101
265.400	-20.276	0.101
265.500	-22.876	0.101
265.600	-9.277	0.101
265.700	-17.833	0.101
265.800	-16.648	0.101
265.900	-12.976	0.101
266.000	-17.099	0.101
266.100	-20.401	0.101
266.200	-21.513	0.101
266.300	-16.931	0.101
266.400	-14.967	0.101
266.500	-18.558	0.101
266.600	-16.689	0.101
266.700	-27.647	0.101
266.800	-11.034	0.101
266.900	-10.801	0.101
267.000	-9.753	0.101
267.100	-16.868	0.101
267.200	-20.923	0.101
267.300	-17.663	0.101
267.400	-21.615	0.101
267.500	-14.312	0.101
267.600	-10.392	0.101
267.700	-20.381	0.101
267.800	-18.874	0.101
267.900	-18.140	0.101
268.000	-20.053	0.101
268.100	-25.333	0.101
268.200	-20.992	0.101
268.300	-12.381	0.101
268.400	-19.983	0.101
268.500	-21.544	0.101
268.600	-15.041	0.101
268.700	-22.277	0.101
268.800	-18.622	0.101
268.900	-11.013	0.101
269.000	-20.568	0.101
269.100	-5.377	0.101
269.200	-12.479	0.101
269.300	-16.567	0.101
269.400	-24.854	0.101
269.500	-12.480	0.101
269.600	-20.113	0.101
269.700	-22.555	0.101
269.800	-16.697	0.101
269.900	-10.486	0.101
270.000	-13.205	0.101
270.100	-9.622	0.101
270.200	-19.969	0.101
270.300	-23.840	0.101
270.400	-20.394	0.101
270.500	-15.454	0.101
270.600	-27.697	0.101
270.700	-29.696	0.101
270.800	-15.743	0.101
270.900	-20.874	0.101
271.000	-22.088	0.101
271.100	-9.895	0.101
271.200	-11.531	0.101
271.300	-16.427	0.101
271.400	-14.299	0.101
271.500	-15.093	0.101
271.600	-18.716	0.101
271.700	-28.585	0.101
271.800	-19.339	0.101
271.900	-24.535	0.101
272.000	-19.971	0.101
272.100	-24.109	0.101
272.200	-9.438	0.101
272.300	-17.613	0.101
272.400	-21.674	0.101
272.500	-19.217	0.101
272.600	-21.333	0.101
272.700	-14.752	0.101
272.800	-17.859	0.101
272.900	-21.734	0.101
273.000	-20.423	0.101
273.100	-4.693	0.101
273.200	-12.324	0.101
273.300	-16.749	0.101
273.400	-27.854	0.101
273.500	-19.752	0.101
273.600	-20.044	0.101
273.700	-16.164	0.101
273.800	-19.115	0.101
273.900	-15.227	0.101
274.000	-23.642	0.101
274.100	-19.671	0.101
274.200	-14.623	0.101
274.300	-19.609	0.101
274.400	-14.463	0.101
274.500	-24.825	0.101
274.600	-17.448	0.101
274.700	-23.637	0.101
274.800	-20.193	0.101
274.900	-24.623	0.101
275.000	-31.448	0.101
275.100	-11.002	0.101
275.200	-23.998	0.101
275.300	-22.378	0.101
275.400	-11.503	0.101
275.500	-29.362	0.101
275.600	-21.660	0.101
275.700	-24.259	0.101
275.800	-14.773	0.101
275.900	-19.403	0.101
276.000	-23.107	0.101
276.100	-20.008	0.101
276.200	-12.765	0.101
276.300	-17.415	0.101
276.400	-27.982	0.101
276.500	-21.113	0.101
276.600	-16.740	0.101
276.700	-23.353	0.101
276.800	-23.125	0.101
276.900	-20.277	0.101
277.000	-16.794	0.101
277.100	-12.775	0.101
277.200	-10.977	0.101
277.300	-21.766	0.101
277.400	-23.063	0.101
277.500	-23.071	0.101
277.600	-20.782	0.101
277.700	-17.428	0.101
277.800	-9.879	0.101
277.900	-18.305	0.101
278.000	-27.230	0.101
278.100	-19.140	0.101
278.200	-10.112	0.101
278.300	-16.017	0.101
278.400	-19.757	0.101
278.500	-21.537	0.101
278.600	-22.297	0.101
278.700	-11.059	0.101
278.800	-20.790	0.101
278.900	-18.833	0.101
279.000	-22.897	0.101
279.100	-18.043	0.101
279.200	-24.497	0.101
279.300	-21.043	0.101
279.400	-17.009	0.101
279.500	-25.841	0.101
279.600	-21.831	0.101
279.700	-13.930	0.101
279.800	-13.688	0.101
279.900	-18.785	0.101
280.000	-21.229	0.101
280.100	-22.381	0.101
280.200	-26.407	0.101
280.300	-29.797	0.101
280.400	-12.019	0.101
280.500	-23.859	0.101
280.600	-10.464	0.101
280.700	-14.689	0.101
280.800	-12.685	0.101
280.900	-16.110	0.101
281.000	-25.170	0.101
281.100	-28.154	0.101
281.200	-17.265	0.101
281.300	-21.970	0.101
281.400	-21.909	0.101
281.500	-18.021	0.101
281.600	-20.120	0.101
281.700	-18.094	0.101
281.800	-20.698	0.101
281.900	-19.420	0.101
282.000	-17.024	0.101
282.100	-19.957	0.101
282.200	-11.650	0.101
282.300	-21.282	0.101
282.400	-11.732	0.101
282.500	-17.789	0.101
282.600	-17.617	0.101
282.700	-20.223	0.101
282.800	-14.994	0.101
282.900	-23.096	0.101
283.000	-6.645	0.101
283.100	-14.101	0.101
283.200	-15.313	0.101
283.300	-20.626	0.101
283.400	-21.750	0.101
283.500	-24.065	0.101
283.600	-20.543	0.101
283.700	-26.445	0.101
283.800	-17.989	0.101
283.900	-17.490	0.101
284.000	-9.348	0.101
284.100	-20.706	0.101
284.200	-18.580	0.101
284.300	-27.075	0.101
284.400	-16.483	0.101
284.500	-24.707	0.101
284.600	-17.987	0.101
284.700	-12.188	0.101
284.800	-20.790	0.101
284.900	-18.126	0.101
285.000	-10.263	0.101
285.100	-16.125	0.101
285.200	-20.022	0.101
285.300	-17.699	0.101
285.400	-21.608	0.101
285.500	-15.748	0.101
285.600	-15.212	0.101
285.700	-21.983	0.101
285.800	-10.223	0.101
285.900	-24.190	0.101
286.000	-15.682	0.101
286.100	-19.509	0.101
286.200	-14.823	0.101
286.300	-22.896	0.101
286.400	-10.210	0.101
286.500	-16.551	0.101
286.600	-14.050	0.101
286.700	-27.442	0.101
286.800	-25.345	0.101
286.900	-13.493	0.101
287.000	-10.325	0.101
287.100	-13.593	0.101
287.200	-19.640	0.101
287.300	-17.237	0.101
287.400	-16.985	0.101
287.500	-23.626	0.101
287.600	-12.896	0.101
287.700	-19.978	0.101
287.800	-16.662	0.101
287.900	-19.480	0.101
288.000	-29.361	0.101
288.100	-26.291	0.101
288.200	-11.519	0.101
288.300	-17.849	0.101
288.400	-11.272	0.101
288.500	-23.726	0.101
288.600	-9.138	0.101
288.700	-14.199	0.101
288.800	-14.969	0.101
288.900	-17.803	0.101
289.000	-3.202	0.101
289.100	-23.376	0.101
289.200	-10.648	0.101
289.300	-23.315	0.101
289.400	-25.079	0.101
289.500	-18.818	0.101
289.600	-22.451	0.101
289.700	-17.474	0.101
289.800	-13.386	0.101
289.900	-15.202	0.101
290.000	-24.626	0.101
290.100	-13.976	0.101
290.200	-25.336	0.101
290.300	-11.248	0.101
290.400	-12.780	0.101
290.500	-12.196	0.101
290.600	-19.869	0.101
290.700	-12.292	0.101
290.800	-18.771	0.101
290.900	-28.349	0.101
291.000	-13.124	0.101
291.100	-22.949	0.101
291.200	-17.902	0.101
291.300	-8.944	0.101
291.400	-21.808	0.101
291.500	-23.444	0.101
291.600	-11.031	0.101
291.700	-20.185	0.101
291.800	-4.697	0.101
291.900	-23.139	0.101
292.000	-26.008	0.101
292.100	-18.797	0.101
292.200	-18.406	0.101
292.300	-9.845	0.101
292.400	-15.233	0.101
292.500	-23.544	0.101
292.600	-11.089	0.101
292.700	-11.487	0.101
292.800	-20.648	0.101
292.900	-23.632	0.101
293.000	-19.204	0.101
293.100	-21.947	0.101
293.200	-14.607	0.101
293.300	-17.909	0.101
293.400	-19.317	0.101
293.500	-26.712	0.101
293.600	-12.083	0.101
293.700	-14.065	0.101
293.800	-2.896	0.101
293.900	-17.682	0.101
294.000	-19.266	0.101
294.100	-18.532	0.101
294.200	-15.707	0.101
294.300	-18.712	0.101
294.400	-12.688	0.101
294.500	-12.135	0.101
294.600	-14.080	0.101
294.700	-14.193	0.101
294.800	-22.421	0.101
294.900	-29.360	0.101
295.000	-24.487	0.101
295.100	-21.460	0.101
295.200	-18.411	0.101
295.300	-14.649	0.101
295.400	-27.528	0.101
295.500	-17.725	0.101
295.600	-18.833	0.101
295.700	-27.709	0.101
295.800	-23.673	0.101
295.900	-7.942	0.101
296.000	-11.294	0.101
296.100	-13.201	0.101
296.200	-5.934	0.101
296.300	-13.720	0.101
296.400	-22.729	0.101
296.500	-20.208	0.101
296.600	-24.609	0.101
296.700	-13.474	0.101
296.800	-23.863	0.101
296.900	-20.686	0.101
297.000	-16.758	0.101
297.100	-4.593	0.101
297.200	-16.411	0.101
297.300	-19.011	0.101
297.400	-20.069	0.101
297.500	-13.353	0.101
297.600	-5.435	0.101
297.700	-9.046	0.101
297.800	-20.809	0.101
297.900	-18.740	0.101
298.000	-16.355	0.101
298.100	-21.750	0.101
298.200	-18.118	0.101
298.300	-11.364	0.101
298.400	-0.528	0.101
298.500	-15.639	0.101
298.600	-16.979	0.101
298.700	-25.512	0.101
298.800	-21.995	0.101
298.900	-18.535	0.101
299.000	-19.204	0.101
299.100	-21.341	0.101
299.200	-15.847	0.101
299.300	-15.081	0.101
299.400	-11.752	0.101
299.500	-13.971	0.101
299.600	-8.699	0.101
299.700	-13.644	0.101
299.800	-18.809	0.101
299.900	-9.552	0.101
300.000	-12.206	0.101
300.100	-6.796	0.101
300.200	-18.054	0.101
300.300	-17.851	0.101
300.400	-21.544	0.101
300.500	-23.242	0.101
300.600	-14.827	0.101
300.700	-19.957	0.101
300.800	-20.329	0.101
300.900	-6.023	0.101
301.000	-16.629	0.101
301.100	-11.361	0.101
301.200	-20.996	0.101
301.300	-18.720	0.101
301.400	-10.918	0.101
301.500	-15.056	0.101
301.600	-17.723	0.101
301.700	-15.265	0.101
301.800	-9.389	0.101
301.900	-14.145	0.101
302.000	-17.735	0.101
302.100	-18.679	0.101
302.200	-13.510	0.101
302.300	-19.991	0.101
302.400	-18.664	0.101
302.500	-20.279	0.101
302.600	-12.147	0.101
302.700	-10.554	0.101
302.800	-10.737	0.101
302.900	-16.205	0.101
303.000	-16.544	0.101
303.100	-4.823	0.101
303.200	-15.206	0.101
303.300	-24.140	0.101
303.400	-19.429	0.101
303.500	-15.383	0.101
303.600	-15.897	0.101
303.700	-19.108	0.101
303.800	-18.438	0.101
303.900	-15.292	0.101
304.000	-12.581	0.101
304.100	-16.298	0.101
304.200	-16.474	0.101
304.300	-18.448	0.101
304.400	-7.721	0.101
304.500	-17.687	0.101
304.600	-20.603	0.101
304.700	-17.650	0.101
304.800	-12.874	0.101
304.900	-18.005	0.101
305.000	-10.435	0.101
305.100	-17.520	0.101
305.200	1.678	0.101
305.300	-18.238	0.101
305.400	-20.039	0.101
305.500	-10.249	0.101
305.600	-24.039	0.101
305.700	-18.175	0.101
305.800	-17.198	0.101
305.900	-14.226	0.101
306.000	-15.262	0.101
306.100	-16.395	0.101
306.200	-17.454	0.101
306.300	-22.965	0.101
306.400	-12.813	0.101
306.500	-16.097	0.101
306.600	-19.416	0.101
306.700	-13.050	0.101
306.800	-26.950	0.101
306.900	-9.512	0.101
307.000	-15.170	0.101
307.100	-18.819	0.101
307.200	-24.946	0.101
307.300	-8.763	0.101
307.400	-11.830	0.101
307.500	-17.048	0.101
307.600	-11.694	0.101
307.700	-15.563	0.101
307.800	-14.090	0.101
307.900	-16.496	0.101
308.000	-22.219	0.101
308.100	-9.199	0.101
308.200	-19.682	0.101
308.300	-12.965	0.101
308.400	-28.950	0.101
308.500	-22.061	0.101
308.600	-15.161	0.101
308.700	-6.578	0.101
308.800	-14.454	0.101
308.900	-11.136	0.101
309.000	-23.914	0.101
309.100	-16.150	0.101
309.200	-15.358	0.101
309.300	-4.453	0.101
309.400	-10.158	0.101
309.500	-19.201	0.101
309.600	-27.118	0.101
309.700	-12.714	0.101
309.800	-13.402	0.101
309.900	-15.259	0.101
310.000	-13.748	0.101
310.100	-16.408	0.101
310.200	-15.055	0.101
310.300	-10.863	0.100
310.400	-5.637	0.100
310.500	-10.953	0.101
310.600	-24.953	0.100
310.700	-3.848	0.100
310.800	-8.835	0.100
310.900	-9.976	0.100
311.000	-17.132	0.100
311.100	-6.435	0.100
311.200	-22.955	0.100
311.300	-13.468	0.100
311.400	-5.791	0.100
311.500	-18.289	0.100
311.600	-21.807	0.100
311.700	-7.727	0.100
311.800	-7.738	0.100
311.900	-18.472	0.100
312.000	-15.650	0.100
312.100	-15.274	0.100
312.200	-20.773	0.100
312.300	-10.580	0.100
312.400	-14.163	0.100
312.500	-19.861	0.100
312.600	-10.144	0.100
312.700	-12.373	0.100
312.800	-16.915	0.100
312.900	-8.783	0.100
313.000	-22.419	0.100
313.100	-18.570	0.100
313.200	-25.256	0.100
313.300	-10.082	0.100
313.400	-6.778	0.100
313.500	-16.963	0.100
313.600	-15.079	0.100
313.700	-8.899	0.100
313.800	-9.483	0.100
313.900	-13.573	0.100
314.000	-15.009	0.100
314.100	-16.453	0.100
314.200	-18.024	0.100
314.300	-13.417	0.100
314.400	-13.861	0.100
314.500	-13.668	0.100
314.600	-22.331	0.100
314.700	-15.817	0.100
314.800	-8.696	0.100
314.900	-20.757	0.100
315.000	-13.747	0.100
315.100	-9.087	0.100
315.200	-17.858	0.100
315.300	-11.912	0.100
315.400	-19.378	0.100
315.500	-17.524	0.100
315.600	-15.980	0.100
315.700	-21.201	0.100
315.800	-19.005	0.100
315.900	-6.599	0.100
316.000	-10.597	0.100
316.100	-12.956	0.100
316.200	-16.946	0.100
316.300	-8.916	0.100
316.400	-12.711	0.100
316.500	-13.546	0.100
316.600	-16.762	0.100
316.700	-6.358	0.100
316.800	-23.895	0.100
316.900	-11.316	0.100
317.000	-16.032	0.100
317.100	-15.046	0.100
317.200	-14.653	0.100
317.300	-11.629	0.100
317.400	-14.896	0.100
317.500	-15.351	0.100
317.600	-13.272	0.100
317.700	-11.009	0.100
317.800	-14.247	0.100
317.900	-15.727	0.100
318.000	-18.153	0.100
318.100	-14.147	0.100
318.200	-7.782	0.100
318.300	-15.518	0.100
318.400	-20.321	0.100
318.500	-12.262	0.100
318.600	-10.048	0.100
318.700	-14.236	0.100
318.800	-17.394	0.100
318.900	-16.395	0.100
319.000	-7.780	0.100
319.100	-20.580	0.100
319.200	-12.643	0.100
319.300	-9.157	0.100
319.400	-16.253	0.100
319.500	-12.704	0.100
319.600	-16.075	0.100
319.700	-10.586	0.100
319.800	-9.198	0.100
319.900	-3.515	0.100
320.000	-9.683	0.100
320.100	-10.749	0.100
320.200	-20.200	0.100
320.300	-14.146	0.100
320.400	-20.381	0.100
320.500	-11.198	0.100
320.600	-19.427	0.100
320.700	-11.824	0.100
320.800	-14.471	0.100
320.900	-7.403	0.100
321.000	-12.038	0.100
321.100	-13.092	0.100
321.200	-7.574	0.100
321.300	-12.212	0.100
321.400	-13.338	0.100
321.500	-13.872	0.100
321.600	-21.499	0.100
321.700	-9.395	0.100
321.800	-6.341	0.100
321.900	-14.893	0.100
322.000	-15.390	0.100
322.100	-12.218	0.100
322.200	-14.177	0.100
322.300	-10.751	0.100
322.400	-17.474	0.100
322.500	-3.746	0.100
322.600	-15.842	0.100
322.700	-18.014	0.100
322.800	-16.999	0.100
322.900	-8.152	0.100
323.000	-14.676	0.100
323.100	-21.786	0.100
323.200	-18.238	0.100
323.300	-12.774	0.100
323.400	-14.115	0.100
323.500	-19.257	0.100
323.600	-10.792	0.100
323.700	-9.174	0.100
323.800	-18.353	0.100
323.900	-11.514	0.100
324.000	-14.485	0.100
324.100	-12.347	0.100
324.200	-8.887	0.100
324.300	-13.238	0.100
324.400	-17.964	0.100
324.500	-25.062	0.100
324.600	-10.025	0.100
324.700	-13.344	0.100
324.800	-17.187	0.100
324.900	-19.611	0.100
325.000	-15.756	0.100
325.100	-5.073	0.100
325.200	-10.156	0.100
325.300	-10.800	0.100
325.400	-17.682	0.100
325.500	-13.232	0.100
325.600	-5.850	0.100
325.700	-14.404	0.100
325.800	-12.520	0.100
325.900	-14.514	0.100
326.000	-7.761	0.100
326.100	-5.095	0.100
326.200	-12.500	0.100
326.300	-10.448	0.100
326.400	-4.253	0.100
326.500	5.285	0.100
326.600	-26.660	0.100
326.700	-18.386	0.100
326.800	-22.955	0.100
326.900	-19.967	0.100
327.000	-8.246	0.100
327.100	0.352	0.100
327.200	-7.621	0.100
327.300	-8.076	0.100
327.400	-15.369	0.101
327.500	-7.449	0.100
327.600	-13.892	0.100
327.700	-10.395	0.100
327.800	-17.761	0.100
327.900	-20.741	0.100
328.000	-10.239	0.100
328.100	-9.688	0.100
328.200	-10.894	0.101
328.300	-24.539	0.100
328.400	-12.315	0.100
328.500	-17.684	0.100
328.600	-12.894	0.100
328.700	-11.727	0.100
328.800	-12.616	0.100
328.900	-14.942	0.100
329.000	-6.379	0.100
329.100	-20.356	0.100
329.200	-21.058	0.100
329.300	-13.086	0.100
329.400	-7.986	0.100
329.500	-9.767	0.100
329.600	-0.411	0.100
329.700	-0.758	0.100
329.800	-14.616	0.101
329.900	-12.583	0.101
330.000	-5.155	0.101
330.100	-15.865	0.100
330.200	-13.966	0.100
330.300	-3.678	0.100
330.400	0.021	0.100
330.500	5.814	0.100
330.600	-0.482	0.100
330.700	-0.879	0.100
330.800	10.729	0.100
330.900	9.624	0.100
331.000	13.756	0.100
331.100	2.788	0.101
331.200	7.596	0.101
331.300	4.276	0.101
331.400	19.683	0.100
331.500	22.783	0.100
331.600	16.713	0.100
331.700	7.483	0.100
331.800	22.367	0.101
331.900	33.820	0.100
332.000	24.484	0.100
332.100	18.606	0.100
332.200	17.152	0.101
332.300	20.081	0.100
332.400	23.106	0.101
332.500	21.358	0.100
332.600	26.568	0.100
332.700	14.962	0.100
332.800	27.863	0.101
332.900	24.271	0.100
333.000	23.201	0.101
333.100	28.066	0.101
333.200	25.600	0.101
333.300	20.031	0.101
333.400	26.093	0.101
333.500	21.906	0.101
333.600	33.750	0.101
333.700	23.492	0.101
333.800	23.897	0.101
333.900	24.487	0.101
334.000	33.226	0.100
334.100	32.636	0.101
334.200	23.984	0.101
334.300	27.027	0.101
334.400	27.814	0.101
334.500	17.073	0.101
334.600	17.347	0.101
334.700	16.816	0.101
334.800	26.573	0.100
334.900	28.549	0.101
335.000	29.579	0.101
335.100	26.543	0.101
335.200	25.338	0.101
335.300	20.328	0.101
335.400	21.828	0.101
335.500	15.649	0.101
335.600	22.587	0.101
335.700	17.292	0.101
335.800	21.558	0.101
335.900	18.370	0.101
336.000	16.020	0.101
336.100	19.821	0.101
336.200	20.984	0.101
336.300	13.683	0.101
336.400	17.530	0.100
336.500	14.190	0.101
336.600	11.170	0.101
336.700	16.166	0.101
336.800	18.286	0.101
336.900	9.095	0.101
337.000	13.906	0.101
337.100	9.245	0.101
337.200	16.751	0.101
337.300	18.804	0.101
337.400	20.095	0.101
337.500	17.135	0.101
337.600	23.563	0.101
337.700	15.609	0.101
337.800	17.818	0.101
337.900	23.234	0.101
338.000	13.340	0.101
338.100	8.564	0.101
338.200	32.521	0.101
338.300	16.423	0.101
338.400	17.080	0.101
338.500	14.041	0.101
338.600	13.414	0.100
338.700	21.299	0.101
338.800	10.966	0.101
338.900	9.381	0.101
339.000	9.245	0.100
339.100	20.353	0.101
339.200	26.680	0.101
339.300	23.090	0.101
339.400	8.890	0.101
339.500	8.205	0.101
339.600	15.593	0.101
339.700	14.935	0.101
339.800	21.558	0.100
339.900	13.739	0.101
340.000	21.572	0.101
340.100	10.135	0.101
340.200	16.321	0.100
340.300	12.342	0.101
340.400	16.210	0.101
340.500	12.774	0.100
340.600	22.700	0.101
340.700	5.635	0.101
340.800	12.721	0.100
340.900	9.838	0.101
341.000	23.570	0.100
341.100	18.796	0.100
341.200	15.845	0.101
341.300	9.469	0.101
341.400	7.875	0.101
341.500	11.703	0.101
341.600	12.236	0.101
341.700	22.045	0.101
341.800	20.552	0.100
341.900	17.050	0.100
342.000	21.152	0.100
342.100	15.475	0.101
342.200	20.887	0.101
342.300	24.255	0.101
342.400	10.927	0.101
342.500	10.050	0.100
342.600	13.076	0.100
342.700	9.697	0.100
342.800	17.765	0.100
342.900	19.529	0.101
343.000	19.023	0.100
343.100	13.853	0.101
343.200	19.436	0.100
343.300	9.618	0.100
343.400	25.573	0.100
343.500	22.702	0.100
343.600	5.422	0.101
343.700	12.272	0.101
343.800	27.620	0.100
343.900	21.974	0.100
344.000	14.828	0.100
344.100	19.051	0.100
344.200	25.099	0.100
344.300	11.342	0.100
344.400	18.621	0.100
344.500	19.403	0.100
344.600	19.596	0.100
344.700	19.164	0.100
344.800	19.515	0.100
344.900	19.259	0.100
345.000	26.280	0.101
345.100	27.030	0.100
345.200	16.929	0.100
345.300	20.214	0.100
345.400	26.686	0.100
345.500	14.701	0.100
345.600	33.922	0.101
345.700	24.926	0.100
345.800	17.484	0.100
345.900	10.460	0.100
346.000	15.997	0.101
346.100	15.418	0.100
346.200	38.218	0.100
346.300	17.462	0.100
346.400	25.630	0.100
346.500	17.511	0.100
346.600	26.309	0.100
346.700	28.413	0.100
346.800	18.757	0.100
346.900	23.734	0.100
347.000	14.370	0.100
347.100	17.507	0.100
347.200	34.849	0.100
347.300	23.499	0.100
347.400	27.694	0.100
347.500	13.217	0.100
347.600	20.030	0.100
347.700	27.942	0.100
347.800	18.048	0.100
347.900	27.881	0.100
348.000	33.804	0.100
348.100	22.317	0.100
348.200	27.612	0.100
348.300	28.350	0.100
348.400	29.458	0.100
348.500	27.558	0.100
348.600	29.510	0.100
348.700	24.848	0.100
348.800	26.112	0.100
348.900	28.759	0.101
349.000	30.771	0.100
349.100	25.683	0.100
349.200	29.395	0.100
349.300	25.729	0.100
349.400	30.157	0.100
349.500	33.170	0.100
349.600	15.510	0.100
349.700	26.091	0.100
349.800	28.908	0.100
349.900	25.628	0.100
350.000	32.880	0.100
350.100	29.684	0.100
350.200	37.646	0.100
350.300	30.086	0.100
350.400	35.737	0.100
350.500	32.159	0.100
350.600	27.128	0.100
350.700	35.134	0.100
350.800	25.073	0.100
350.900	34.681	0.101
351.000	32.919	0.100
351.100	30.410	0.100
351.200	20.152	0.101
351.300	30.594	0.100
351.400	27.325	0.100
351.500	27.333	0.100
351.600	32.754	0.100
351.700	26.419	0.100
351.800	38.181	0.100
351.900	28.622	0.100
352.000	28.904	0.100
352.100	37.290	0.101
352.200	46.661	0.100
352.300	30.340	0.100
352.400	30.937	0.100
352.500	32.563	0.100
352.600	30.251	0.100
352.700	30.406	0.100
352.800	36.489	0.101
352.900	32.525	0.101
353.000	33.319	0.101
353.100	36.538	0.100
353.200	38.757	0.100
353.300	34.893	0.100
353.400	31.634	0.100
353.500	34.154	0.100
353.600	35.729	0.100
353.700	36.665	0.100
353.800	28.508	0.100
353.900	37.820	0.100
354.000	35.403	0.101
354.100	39.467	0.100
354.200	42.878	0.100
354.300	33.596	0.101
354.400	37.437	0.100
354.500	25.625	0.100
354.600	38.224	0.100
354.700	17.540	0.100
354.800	40.570	0.101
354.900	33.603	0.100
355.000	32.740	0.101
355.100	34.786	0.100
355.200	32.079	0.100
355.300	36.133	0.101
355.400	45.566	0.101
355.500	41.255	0.100
355.600	32.883	0.101
355.700	29.139	0.101
355.800	32.975	0.101
355.900	37.804	0.101
356.000	30.977	0.101
356.100	34.525	0.101
356.200	33.659	0.101
356.300	26.529	0.100
356.400	35.510	0.100
356.500	38.871	0.100
356.600	44.191	0.101
356.700	33.443	0.101
356.800	35.166	0.101
356.900	27.603	0.100
357.000	19.248	0.100
357.100	32.064	0.100
357.200	45.021	0.101
357.300	36.902	0.101
357.400	33.481	0.101
357.500	35.238	0.101
357.600	32.215	0.100
357.700	27.807	0.101
357.800	44.899	0.101
357.900	30.937	0.101
358.000	33.382	0.101
358.100	38.237	0.101
358.200	31.167	0.100
358.300	29.136	0.101
358.400	39.639	0.101
358.500	40.462	0.101
358.600	33.093	0.101
358.700	41.348	0.101
358.800	28.529	0.100
358.900	32.028	0.101
359.000	31.151	0.101
359.100	31.102	0.101
359.200	36.023	0.100
359.300	33.890	0.101
359.400	32.201	0.101
359.500	37.471	0.101
359.600	36.722	0.101
359.700	33.576	0.100
359.800	29.571	0.101
359.900	46.541	0.101
360.000	31.970	0.101
360.100	26.969	0.100
360.200	28.064	0.101
360.300	35.305	0.101
360.400	25.172	0.101
360.500	35.400	0.101
360.600	31.255	0.101
360.700	35.606	0.101
360.800	33.617	0.101
360.900	28.053	0.101
361.000	35.833	0.101
361.100	40.026	0.101
361.200	37.612	0.101
361.300	29.786	0.101
361.400	27.327	0.100
361.500	31.874	0.100
361.600	27.396	0.101
361.700	39.126	0.101
361.800	39.829	0.101
361.900	35.054	0.101
362.000	27.882	0.101
362.100	31.344	0.101
362.200	24.756	0.101
362.300	35.744	0.101
362.400	29.573	0.101
362.500	24.583	0.101
362.600	23.993	0.101
362.700	41.497	0.101
362.800	39.778	0.101
362.900	37.733	0.101
363.000	35.677	0.101
363.100	31.173	0.101
363.200	22.972	0.101
363.300	38.424	0.101
363.400	30.812	0.101
363.500	31.158	0.101
363.600	28.009	0.101
363.700	28.756	0.101
363.800	31.189	0.101
363.900	29.932	0.101
364.000	39.310	0.101
364.100	32.007	0.101
364.200	34.162	0.101
364.300	19.610	0.100
364.400	35.766	0.101
364.500	42.920	0.101
364.600	34.680	0.101
364.700	27.026	0.101
364.800	34.569	0.101
364.900	33.431	0.101
365.000	33.185	0.101
365.100	34.853	0.101
365.200	29.258	0.101
365.300	32.002	0.100
365.400	34.912	0.101
365.500	34.495	0.100
365.600	30.173	0.100
365.700	31.228	0.101
365.800	32.761	0.101
365.900	35.657	0.101
366.000	25.943	0.101
366.100	39.275	0.100
366.200	36.570	0.100
366.300	24.031	0.100
366.400	27.815	0.101
366.500	34.081	0.100
366.600	28.363	0.100
366.700	25.803	0.100
366.800	26.854	0.100
366.900	34.057	0.100
367.000	28.909	0.100
367.100	36.536	0.100
367.200	40.597	0.100
367.300	34.626	0.100
367.400	33.093	0.100
367.500	43.643	0.100
367.600	30.848	0.100
367.700	22.632	0.100
367.800	12.736	0.100
367.900	27.619	0.100
368.000	25.208	0.100
368.100	36.387	0.100
368.200	30.105	0.100
368.300	27.501	0.100
368.400	27.555	0.100
368.500	27.179	0.100
368.600	29.275	0.100
368.700	36.628	0.100
368.800	24.606	0.100
368.900	38.084	0.100
369.000	35.621	0.100
369.100	39.088	0.100
369.200	30.289	0.100
369.300	23.460	0.100
369.400	40.141	0.100
369.500	36.515	0.100
369.600	29.014	0.100
369.700	24.011	0.100
369.800	34.135	0.100
369.900	37.922	0.100
370.000	25.704	0.100
370.100	36.051	0.100
370.200	29.501	0.100
370.300	25.359	0.100
370.400	17.944	0.100
370.500	31.260	0.100
370.600	28.551	0.100
370.700	29.237	0.100
370.800	37.741	0.100
370.900	33.279	0.100
371.000	29.745	0.100
371.100	30.477	0.100
371.200	28.748	0.100
371.300	29.623	0.100
371.400	22.877	0.100
371.500	37.421	0.100
371.600	31.257	0.100
371.700	33.632	0.100
371.800	29.298	0.100
371.900	32.589	0.100
372.000	41.248	0.100
372.100	33.125	0.100
372.200	36.376	0.100
372.300	27.574	0.100
372.400	25.319	0.100
372.500	27.421	0.100
372.600	27.388	0.100
372.700	36.342	0.100
372.800	32.474	0.100
372.900	37.689	0.100
373.000	39.988	0.100
373.100	27.749	0.100
373.200	23.588	0.100
373.300	26.497	0.100
373.400	25.749	0.100
373.500	35.490	0.100
373.600	28.210	0.100
373.700	30.125	0.100
373.800	26.491	0.100
373.900	29.283	0.100
374.000	28.085	0.100
374.100	39.173	0.100
374.200	38.355	0.100
374.300	27.569	0.100
374.400	26.935	0.100
374.500	38.217	0.100
374.600	24.799	0.100
374.700	31.225	0.100
374.800	27.456	0.100
374.900	36.170	0.100
375.000	22.046	0.100
375.100	31.885	0.100
375.200	26.119	0.100
375.300	26.701	0.100
375.400	21.864	0.100
375.500	33.835	0.100
375.600	31.873	0.100
375.700	28.935	0.100
375.800	30.452	0.100
375.900	37.392	0.100
376.000	29.161	0.100
376.100	36.244	0.100
376.200	20.383	0.100
376.300	31.261	0.100
376.400	27.395	0.100
376.500	40.496	0.100
376.600	28.895	0.100
376.700	26.914	0.100
376.800	22.492	0.100
376.900	25.522	0.100
377.000	18.977	0.100
377.100	38.928	0.100
377.200	27.825	0.100
377.300	27.405	0.100
377.400	21.921	0.100
377.500	40.780	0.100
377.600	32.766	0.100
377.700	26.890	0.100
377.800	38.714	0.100
377.900	39.026	0.100
378.000	30.947	0.100
378.100	24.382	0.100
378.200	32.869	0.100
378.300	25.117	0.100
378.400	20.885	0.100
378.500	33.700	0.100
378.600	32.106	0.100
378.700	29.925	0.100
378.800	33.512	0.100
378.900	26.996	0.100
379.000	26.851	0.100
379.100	32.890	0.100
379.200	32.239	0.100
379.300	33.859	0.100
379.400	36.186	0.100
379.500	35.601	0.100
379.600	17.091	0.100
379.700	25.628	0.100
379.800	31.780	0.100
379.900	28.369	0.100
380.000	29.244	0.100
380.100	33.692	0.100
380.200	20.740	0.100
380.300	40.578	0.100
380.400	28.220	0.100
380.500	33.722	0.100
380.600	28.200	0.100
380.700	32.391	0.100
380.800	29.172	0.100
380.900	36.940	0.100
381.000	27.539	0.100
381.100	30.809	0.100
381.200	39.722	0.100
381.300	26.973	0.100
381.400	39.209	0.100
381.500	31.961	0.100
381.600	25.600	0.100
381.700	25.078	0.100
381.800	25.172	0.100
381.900	33.596	0.100
382.000	28.118	0.100
382.100	21.820	0.100
382.200	27.952	0.100
382.300	37.568	0.100
382.400	33.756	0.100
382.500	23.800	0.100
382.600	35.863	0.100
382.700	32.042	0.100
382.800	24.093	0.100
382.900	22.860	0.100
383.000	22.162	0.100
383.100	35.629	0.100
383.200	28.644	0.100
383.300	30.919	0.100
383.400	27.633	0.101
383.500	38.602	0.100
383.600	31.612	0.101
383.700	26.535	0.101
383.800	28.484	0.101
383.900	26.937	0.101
384.000	26.183	0.100
384.100	31.083	0.100
384.200	36.157	0.100
384.300	26.157	0.101
384.400	23.715	0.100
384.500	28.484	0.101
384.600	36.809	0.100
384.700	31.760	0.100
384.800	32.096	0.100
384.900	31.645	0.100
385.000	26.565	0.101
385.100	24.775	0.100
385.200	26.966	0.101
385.300	27.144	0.101
385.400	45.760	0.101
385.500	19.659	0.101
385.600	44.563	0.101
385.700	31.864	0.100
385.800	27.181	0.101
385.900	6.360	0.101
386.000	38.390	0.100
386.100	38.652	0.100
386.200	26.225	0.101
386.300	33.166	0.100
386.400	36.791	0.100
386.500	29.309	0.101
386.600	28.584	0.100
386.700	21.626	0.101
386.800	29.624	0.100
386.900	34.142	0.101
387.000	35.047	0.100
387.100	19.991	0.100
387.200	27.987	0.100
387.300	26.191	0.101
387.400	15.249	0.101
387.500	30.884	0.100
387.600	38.105	0.100
387.700	25.661	0.100
387.800	26.564	0.101
387.900	30.141	0.100
388.000	33.580	0.101
388.100	32.076	0.101
388.200	32.277	0.100
388.300	22.693	0.101
388.400	34.818	0.100
388.500	29.072	0.100
388.600	35.511	0.100
388.700	30.706	0.100
388.800	23.448	0.100
388.900	31.549	0.100
389.000	35.234	0.100
389.100	34.352	0.100
389.200	29.473	0.101
389.300	32.392	0.101
389.400	32.540	0.100
389.500	25.523	0.100
389.600	34.573	0.100
389.700	26.095	0.101
389.800	23.079	0.100
389.900	24.560	0.100
390.000	27.444	0.100
390.100	19.546	0.100
390.200	26.781	0.100
390.300	35.378	0.100
390.400	14.903	0.100
390.500	17.110	0.100
390.600	12.994	0.101
390.700	17.159	0.100
390.800	14.079	0.100
390.900	9.196	0.101
391.000	9.840	0.101
391.100	-8.279	0.101
391.200	5.335	0.100
391.300	5.846	0.100
391.400	3.504	0.100
391.500	-4.011	0.101
391.600	6.760	0.101
391.700	-1.689	0.101
391.800	-2.963	0.101
391.900	-12.922	0.101
392.000	-11.439	0.101
392.100	-13.585	0.101
392.200	-12.819	0.101
392.300	-4.157	0.101
392.400	-15.005	0.101
392.500	-14.477	0.101
392.600	-14.666	0.101
392.700	-23.230	0.101
392.800	-15.214	0.101
392.900	-22.549	0.101
393.000	-18.151	0.101
393.100	-13.049	0.101
393.200	-20.769	0.101
393.300	-12.774	0.101
393.400	-15.766	0.101
393.500	-17.746	0.101
393.600	-23.944	0.101
393.700	-15.847	0.101
393.800	-18.928	0.101
393.900	-17.402	0.101
394.000	-17.550	0.101
394.100	-17.263	0.101
394.200	-18.750	0.100
394.300	-28.869	0.100
394.400	-18.153	0.101
394.500	-18.629	0.100
394.600	-19.068	0.100
394.700	-14.393	0.100
394.800	-10.673	0.100
394.900	-17.782	0.100
395.000	-17.697	0.100
395.100	-20.910	0.100
395.200	-2.034	0.100
395.300	-3.811	0.100
395.400	-14.064	0.100
395.500	-16.051	0.100
395.600	-9.690	0.100
395.700	-15.669	0.100
395.800	-14.149	0.100
395.900	-21.954	0.101
396.000	-18.951	0.100
396.100	-23.793	0.100
396.200	-23.393	0.100
396.300	-25.509	0.100
396.400	-25.769	0.100
396.500	-19.101	0.100
396.600	-5.166	0.100
396.700	-6.028	0.100
396.800	-7.183	0.100
396.900	-21.404	0.100
397.000	-23.930	0.100
397.100	-19.331	0.100
397.200	-17.314	0.100
397.300	-13.867	0.100
397.400	-16.143	0.100
397.500	-24.095	0.100
397.600	-9.319	0.100
397.700	-13.896	0.100
397.800	-11.346	0.100
397.900	-17.753	0.100
398.000	-12.595	0.100
398.100	-8.916	0.100
398.200	-2.831	0.100
398.300	-25.097	0.100
398.400	-19.195	0.100
398.500	-19.108	0.100
398.600	-15.310	0.100
398.700	-15.200	0.100
398.800	-7.814	0.100
398.900	-11.212	0.100
399.000	-6.661	0.100
399.100	-16.425	0.100
399.200	-1.463	0.100
399.300	-24.708	0.100
399.400	-11.184	0.100
399.500	-18.823	0.100
399.600	-16.159	0.100
399.700	-22.436	0.100
399.800	-9.411	0.100
399.900	-22.313	0.100
400.000	-14.892	0.100
400.100	-7.676	0.100
400.200	-9.441	0.100
400.300	-15.607	0.100
400.400	-10.107	0.100
400.500	-15.948	0.100
400.600	-13.345	0.100
400.700	-13.583	0.100
400.800	-17.341	0.100
400.900	-20.305	0.100
401.000	-15.936	0.100
401.100	-17.989	0.100
401.200	-12.556	0.100
401.300	-15.343	0.100
401.400	-18.168	0.100
401.500	-17.098	0.100
401.600	-11.344	0.100
401.700	-15.618	0.100
401.800	-20.464	0.100
401.900	-24.537	0.100
402.000	-15.390	0.100
402.100	-21.058	0.100
402.200	-18.741	0.100
402.300	-19.678	0.100
402.400	-16.062	0.100
402.500	-5.235	0.100
402.600	-18.820	0.100
402.700	-13.320	0.100
402.800	-20.702	0.100
402.900	-20.681	0.100
403.000	-15.510	0.100
403.100	-21.948	0.100
403.200	-8.101	0.100
403.300	-6.488	0.100
403.400	-19.133	0.100
403.500	-20.554	0.100
403.600	-14.654	0.100
403.700	-12.152	0.100
403.800	-22.179	0.100
403.900	-26.849	0.100
404.000	-27.744	0.100
404.100	-12.912	0.100
404.200	-14.481	0.100
404.300	-23.090	0.100
404.400	-12.438	0.100
404.500	-23.479	0.100
404.600	-13.833	0.100
404.700	-19.257	0.100
404.800	-20.886	0.100
404.900	-14.897	0.100
405.000	-16.762	0.100
405.100	-18.816	0.100
405.200	-12.127	0.100
405.300	-20.700	0.100
405.400	-7.980	0.100
405.500	-15.048	0.100
405.600	-22.065	0.100
405.700	-28.282	0.100
405.800	-20.645	0.100
405.900	-23.302	0.100
406.000	-8.357	0.100
406.100	-13.092	0.100
406.200	-8.036	0.100
406.300	-14.310	0.100
406.400	-26.632	0.100
406.500	-11.773	0.100
406.600	-25.728	0.100
406.700	-26.769	0.100
406.800	-20.564	0.100
406.900	-18.267	0.100
407.000	-11.001	0.100
407.100	-19.296	0.100
407.200	-11.459	0.100
407.300	-22.881	0.100
407.400	-20.123	0.100
407.500	-8.826	0.100
407.600	-11.121	0.100
407.700	-17.698	0.100
407.800	-19.754	0.100
407.900	-21.120	0.100
408.000	-16.457	0.100
408.100	-14.161	0.100
408.200	-13.282	0.100
408.300	-25.099	0.100
408.400	-21.483	0.100
408.500	-20.689	0.100
408.600	-18.066	0.100
408.700	-16.441	0.100
408.800	-15.190	0.100
408.900	-16.383	0.100
409.000	-7.738	0.100
409.100	-12.612	0.100
409.200	-0.079	0.100
409.300	-26.165	0.100
409.400	-14.154	0.100
409.500	-18.708	0.100
409.600	-20.746	0.100
409.700	-22.891	0.100
409.800	-24.760	0.100
409.900	-27.780	0.100
410.000	-17.167	0.100
410.100	-13.091	0.100
410.200	-13.231	0.100
410.300	-14.141	0.100
410.400	-22.284	0.100
410.500	-20.881	0.100
410.600	-14.791	0.100
410.700	-23.218	0.100
410.800	-10.829	0.100
410.900	-21.887	0.100
411.000	-7.219	0.100
411.100	-24.260	0.100
411.200	-22.317	0.100
411.300	-25.012	0.100
411.400	-14.631	0.100
411.500	-25.766	0.100
411.600	-20.495	0.100
411.700	-15.040	0.100
411.800	-24.620	0.100
411.900	-23.423	0.100
412.000	-9.641	0.100
412.100	-8.677	0.100
412.200	-19.222	0.100
412.300	-23.863	0.100
412.400	-20.986	0.100
412.500	-18.236	0.100
412.600	-23.992	0.100
412.700	-25.280	0.100
412.800	-13.379	0.100
412.900	-13.704	0.100
413.000	-5.080	0.100
413.100	-18.219	0.100
413.200	-22.700	0.100
413.300	-19.479	0.100
413.400	-17.175	0.100
413.500	-20.275	0.100
413.600	-23.122	0.100
413.700	-19.947	0.100
413.800	-19.659	0.100
413.900	-19.169	0.100
414.000	-23.262	0.100
414.100	-18.759	0.100
414.200	-13.451	0.100
414.300	-22.073	0.100
414.400	-27.527	0.100
414.500	-20.320	0.100
414.600	-15.747	0.100
414.700	-22.687	0.100
414.800	-12.683	0.100
414.900	-19.882	0.100
415.000	-22.181	0.100
415.100	-17.317	0.100
415.200	-15.767	0.100
415.300	-30.703	0.100
415.400	-31.407	0.100
415.500	-10.517	0.100
415.600	-13.645	0.100
415.700	-14.073	0.100
415.800	-13.061	0.100
415.900	-21.502	0.100
416.000	-27.078	0.100
416.100	-24.973	0.100
416.200	-16.399	0.100
416.300	-9.120	0.100
416.400	-23.690	0.100
416.500	-25.129	0.100
416.600	-14.317	0.100
416.700	-26.119	0.100
416.800	-24.653	0.100
416.900	-13.359	0.101
417.000	-19.862	0.101
417.100	-2.450	0.101
417.200	-17.331	0.101
417.300	-20.482	0.101
417.400	-26.821	0.100
417.500	-20.020	0.101
417.600	-11.561	0.101
417.700	-19.198	0.101
417.800	-32.725	0.100
417.900	-18.764	0.101
418.000	-21.916	0.100
418.100	-13.509	0.101
418.200	-26.821	0.100
418.300	-15.872	0.101
418.400	-19.262	0.101
418.500	-18.141	0.101
418.600	-10.911	0.101
418.700	-22.381	0.101
418.800	-22.612	0.100
418.900	-16.960	0.101
419.000	-22.291	0.101
419.100	-27.059	0.100
419.200	-24.301	0.100
419.300	-20.896	0.101
419.400	-20.479	0.101
419.500	-17.444	0.101
419.600	-6.843	0.101
419.700	-16.764	0.101
419.800	-28.879	0.100
419.900	-27.474	0.100
420.000	-24.269	0.100
420.100	-21.652	0.101
420.200	-8.499	0.101
420.300	-24.112	0.100
420.400	-15.890	0.101
420.500	-18.306	0.101
420.600	-18.103	0.101
420.700	-21.585	0.100
420.800	-18.854	0.101
420.900	-26.780	0.100
421.000	-24.290	0.100
421.100	-18.431	0.101
421.200	-17.817	0.101
421.300	-18.886	0.101
421.400	-16.059	0.101
421.500	-18.511	0.101
421.600	-27.537	0.100
421.700	-22.457	0.100
421.800	-20.397	0.101
421.900	-16.366	0.101
422.000	-19.441	0.101
422.100	-22.305	0.101
422.200	-27.682	0.101
422.300	-22.881	0.101
422.400	-24.475	0.101
422.500	-17.848	0.101
422.600	-20.434	0.101
422.700	-15.441	0.101
422.800	-27.002	0.101
422.900	-24.292	0.101
423.000	-18.329	0.101
423.100	-15.597	0.101
423.200	-26.618	0.101
423.300	-18.000	0.101
423.400	-24.667	0.101
423.500	-16.973	0.101
423.600	-27.607	0.101
423.700	-24.393	0.101
423.800	-19.066	0.101
423.900	-21.370	0.101
424.000	-19.372	0.101
424.100	-18.293	0.101
424.200	-26.073	0.101
424.300	-16.312	0.101
424.400	-24.106	0.101
424.500	-18.369	0.101
424.600	-23.549	0.101
424.700	-8.198	0.101
424.800	-18.335	0.101
424.900	-15.906	0.101
425.000	-18.228	0.101
425.100	-8.578	0.101
425.200	-33.504	0.101
425.300	-32.300	0.101
425.400	-21.450	0.101
425.500	-18.606	0.101
425.600	-24.038	0.101
425.700	-27.247	0.101
425.800	-17.628	0.101
425.900	-14.817	0.101
426.000	-9.982	0.101
426.100	-25.659	0.101
426.200	-17.418	0.101
426.300	-14.798	0.101
426.400	-23.589	0.101
426.500	-21.329	0.101
426.600	-24.553	0.101
426.700	-8.306	0.101
426.800	-29.221	0.101
426.900	-24.127	0.101
427.000	-12.607	0.101
427.100	-15.998	0.101
427.200	-21.030	0.101
427.300	-15.611	0.101
427.400	-22.187	0.101
427.500	-22.106	0.101
427.600	-23.048	0.101
427.700	-25.312	0.100
427.800	-18.484	0.100
427.900	-15.451	0.100
428.000	-25.412	0.100
428.100	-16.672	0.100
428.200	-18.252	0.100
428.300	-21.575	0.100
428.400	-24.444	0.100
428.500	-17.726	0.100
428.600	-25.251	0.100
428.700	-18.019	0.100
428.800	-28.656	0.100
428.900	-16.843	0.100
429.000	-23.439	0.100
429.100	-27.472	0.100
429.200	-18.680	0.100
429.300	-17.447	0.100
429.400	-23.509	0.100
429.500	-25.202	0.100
429.600	-32.507	0.100
429.700	-19.367	0.100
429.800	-23.602	0.100
429.900	-18.807	0.100
430.000	-17.633	0.100
430.100	-13.528	0.100
430.200	-14.447	0.100
430.300	-29.453	0.100
430.400	-28.505	0.100
430.500	-20.483	0.100
430.600	-11.859	0.100
430.700	-23.899	0.100
430.800	-23.548	0.100
430.900	-13.912	0.100
431.000	-19.220	0.100
431.100	-20.208	0.100
431.200	-30.434	0.100
431.300	-20.571	0.100
431.400	-21.101	0.100
431.500	-24.817	0.100
431.600	-17.062	0.100
431.700	-5.471	0.100
431.800	-20.768	0.100
431.900	-28.663	0.100
432.000	-22.887	0.100
432.100	-18.557	0.100
432.200	-18.093	0.100
432.300	-23.907	0.100
432.400	-18.312	0.100
432.500	-24.849	0.100
432.600	-12.157	0.100
432.700	-26.693	0.100
432.800	-29.153	0.100
432.900	-20.241	0.100
433.000	-18.214	0.100
433.100	-20.473	0.100
433.200	-24.077	0.100
433.300	-19.107	0.100
433.400	-22.682	0.100
433.500	-19.272	0.100
433.600	-13.113	0.100
433.700	-17.156	0.100
433.800	-21.282	0.100
433.900	-12.623	0.100
434.000	-28.346	0.100
434.100	-25.007	0.100
434.200	-19.404	0.100
434.300	-12.219	0.100
434.400	-13.626	0.100
434.500	-22.373	0.100
434.600	-20.262	0.100
434.700	-21.306	0.100
434.800	-12.941	0.100
434.900	-21.448	0.100
435.000	-30.783	0.100
435.100	-15.242	0.100
435.200	-29.665	0.100
435.300	-20.934	0.100
435.400	-11.819	0.100
435.500	-9.809	0.100
435.600	-18.327	0.100
435.700	-24.239	0.100
435.800	-21.985	0.100
435.900	-16.867	0.100
436.000	-20.112	0.100
436.100	-9.545	0.100
436.200	-14.626	0.100
436.300	-19.953	0.100
436.400	-22.057	0.100
436.500	-19.789	0.100
436.600	-20.820	0.100
436.700	-19.331	0.100
436.800	-19.930	0.100
436.900	-21.674	0.100
437.000	-24.761	0.100
437.100	-14.693	0.100
437.200	-14.570	0.100
437.300	-15.205	0.100
437.400	-23.957	0.100
437.500	-18.309	0.100
437.600	-26.355	0.100
437.700	-18.680	0.100
437.800	-24.161	0.100
437.900	-22.949	0.100
438.000	-18.375	0.100
438.100	-16.714	0.100
438.200	-18.770	0.100
438.300	-20.547	0.100
438.400	-17.505	0.100
438.500	-18.209	0.100
438.600	-17.655	0.100
438.700	-12.423	0.100
438.800	-15.852	0.100
438.900	-16.318	0.100
439.000	-27.017	0.100
439.100	-11.375	0.100
439.200	-23.198	0.100
439.300	-10.653	0.100
439.400	-13.722	0.100
439.500	-16.817	0.100
439.600	-15.849	0.100
439.700	-16.158	0.100
439.800	-29.986	0.100
439.900	-14.808	0.100
440.000	-18.409	0.100
440.100	-24.809	0.100
440.200	-23.452	0.100
440.300	-15.306	0.100
440.400	-15.841	0.100
440.500	-18.298	0.100
440.600	-20.419	0.100
440.700	-12.054	0.100
440.800	-23.208	0.100
440.900	-20.435	0.100
441.000	-25.369	0.100
441.100	-17.620	0.100
441.200	-22.847	0.100
441.300	-20.152	0.100
441.400	-11.801	0.100
441.500	-17.494	0.100
441.600	-15.810	0.100
441.700	-20.810	0.100
441.800	-19.716	0.100
441.900	-31.398	0.100
442.000	-20.470	0.100
442.100	-9.463	0.100
442.200	-16.512	0.100
442.300	-20.786	0.100
442.400	-21.612	0.100
442.500	-23.542	0.100
442.600	-19.061	0.100
442.700	-19.606	0.100
442.800	-6.931	0.100
442.900	-13.147	0.100
443.000	-22.269	0.100
443.100	-15.771	0.100
443.200	-17.737	0.100
443.300	-19.680	0.100
443.400	-16.282	0.100
443.500	-11.446	0.100
443.600	-11.679	0.100
443.700	-12.396	0.100
443.800	-25.647	0.100
443.900	-26.000	0.100
444.000	-19.441	0.100
444.100	-18.945	0.100
444.200	-8.424	0.100
444.300	-20.009	0.100
444.400	-21.092	0.100
444.500	-17.787	0.101
444.600	-20.977	0.101
444.700	-12.717	0.100
444.800	-12.245	0.101
444.900	-17.068	0.101
445.000	-13.263	0.101
445.100	-16.367	0.101
445.200	-12.515	0.101
445.300	-9.253	0.101
445.400	-22.957	0.101
445.500	-13.218	0.101
445.600	-11.066	0.101
445.700	-14.520	0.101
445.800	-21.446	0.101
445.900	-26.159	0.101
446.000	-17.007	0.101
446.100	-17.721	0.101
446.200	-16.138	0.101
446.300	-11.823	0.101
446.400	-8.802	0.101
446.500	-27.821	0.101
446.600	-15.587	0.101
446.700	-17.148	0.101
446.800	-9.896	0.101
446.900	-16.687	0.101
447.000	-19.717	0.101
447.100	-17.807	0.101
447.200	-8.836	0.101
447.300	-14.197	0.101
447.400	-30.997	0.101
447.500	-22.708	0.101
447.600	-22.854	0.101
447.700	-17.575	0.101
447.800	-9.138	0.101
447.900	-16.404	0.101
448.000	-15.780	0.101
448.100	-14.062	0.101
448.200	-11.633	0.101
448.300	-17.898	0.101
448.400	-14.717	0.101
448.500	-13.788	0.101
448.600	-12.727	0.101
448.700	-26.023	0.101
448.800	-32.685	0.101
448.900	-14.544	0.101
449.000	-17.901	0.101
449.100	-1.968	0.101
449.200	-15.245	0.101
449.300	-17.823	0.101
449.400	-12.186	0.101
449.500	-24.863	0.101
449.600	-16.374	0.101
449.700	-9.263	0.101
449.800	-8.619	0.101
449.900	-16.070	0.101
450.000	-17.836	0.101
450.100	-23.825	0.101
450.200	-20.300	0.101
450.300	-13.556	0.101
450.400	-17.065	0.101
450.500	-19.914	0.101
450.600	-10.451	0.101
450.700	-19.440	0.101
450.800	-18.103	0.101
450.900	-9.010	0.101
451.000	-12.100	0.101
451.100	-17.693	0.101
451.200	-22.128	0.101
451.300	-25.006	0.101
451.400	-24.391	0.101
451.500	-11.839	0.101
451.600	-10.123	0.101
451.700	-14.854	0.101
451.800	-18.103	0.101
451.900	-14.878	0.101
452.000	-23.960	0.101
452.100	-20.041	0.101
452.200	-2.722	0.101
452.300	-8.257	0.101
452.400	-13.255	0.101
452.500	-18.664	0.101
452.600	-15.584	0.101
452.700	-17.006	0.101
452.800	-12.878	0.101
452.900	-21.104	0.101
453.000	-9.227	0.101
453.100	-17.553	0.101
453.200	-16.913	0.101
453.300	-11.232	0.101
453.400	-11.729	0.101
453.500	-14.215	0.101
453.600	-13.599	0.101
453.700	-13.048	0.101
453.800	-11.872	0.101
453.900	-21.376	0.101
454.000	-11.152	0.101
454.100	-22.703	0.101
454.200	-22.690	0.101
454.300	-21.569	0.101
454.400	-19.844	0.101
454.500	-16.124	0.101
454.600	-10.069	0.101
454.700	-12.769	0.101
454.800	-9.571	0.101
454.900	-23.069	0.101
455.000	-19.812	0.101
455.100	-16.636	0.101
455.200	-9.225	0.101
455.300	-20.466	0.101
455.400	-15.931	0.101
455.500	-15.864	0.101
455.600	-10.216	0.101
455.700	-16.043	0.101
455.800	-6.521	0.101
455.900	-18.542	0.101
456.000	-16.915	0.101
456.100	-21.432	0.101
456.200	-12.300	0.101
456.300	-15.296	0.101
456.400	-6.849	0.101
456.500	-7.928	0.101
456.600	-16.743	0.101
456.700	-15.174	0.101
456.800	-20.367	0.101
456.900	-19.230	0.101
457.000	-8.030	0.101
457.100	-20.464	0.101
457.200	-14.121	0.101
457.300	-13.516	0.101
457.400	-1.895	0.101
457.500	-13.417	0.101
457.600	-15.427	0.101
457.700	-22.470	0.101
457.800	-11.126	0.101
457.900	-11.269	0.101
458.000	-19.717	0.101
458.100	-20.015	0.101
458.200	-11.086	0.101
458.300	-20.332	0.101
458.400	-0.482	0.101
458.500	-10.989	0.101
458.600	-6.482	0.101
458.700	-17.853	0.101
458.800	-14.036	0.101
458.900	-21.600	0.101
459.000	-16.581	0.101
459.100	-13.400	0.101
459.200	-22.365	0.101
459.300	-17.312	0.101
459.400	-12.810	0.101
459.500	-15.138	0.101
459.600	-17.345	0.101
459.700	-6.382	0.101
459.800	-28.413	0.101
459.900	-22.307	0.101
460.000	-15.185	0.101
460.100	-10.920	0.101
460.200	-7.516	0.101
460.300	-4.826	0.101
460.400	-25.054	0.101
460.500	-7.466	0.101
460.600	-13.372	0.101
460.700	-16.334	0.101
460.800	-16.774	0.101
460.900	-18.543	0.101
461.000	-21.567	0.101
461.100	-14.646	0.101
461.200	-13.165	0.101
461.300	-10.107	0.101
461.400	-7.584	0.101
461.500	-14.706	0.101
461.600	0.701	0.101
461.700	-23.279	0.101
461.800	-18.691	0.101
461.900	-16.514	0.101
462.000	-9.632	0.101
462.100	-17.310	0.101
462.200	-11.657	0.101
462.300	-7.479	0.101
462.400	-18.423	0.101
462.500	-17.561	0.101
462.600	-13.767	0.101
462.700	-17.826	0.101
462.800	-19.085	0.101
462.900	-9.366	0.101
463.000	-12.088	0.101
463.100	-15.549	0.101
463.200	-11.339	0.101
463.300	-15.414	0.101
463.400	-10.594	0.101
463.500	-26.014	0.101
463.600	-17.453	0.101
463.700	-15.353	0.101
463.800	-12.835	0.101
463.900	-8.384	0.101
464.000	-9.317	0.101
464.100	-20.789	0.101
464.200	-20.078	0.101
464.300	-12.604	0.101
464.400	-15.133	0.101
464.500	-21.928	0.101
464.600	-14.484	0.101
464.700	-6.190	0.101
464.800	-12.754	0.101
464.900	-15.436	0.101
465.000	-5.378	0.101
465.100	-21.197	0.101
465.200	0.722	0.101
465.300	-12.820	0.101
465.400	-27.501	0.101
465.500	-9.631	0.101
465.600	-15.135	0.101
465.700	-20.129	0.101
465.800	-9.971	0.101
465.900	-15.621	0.101
466.000	-12.129	0.101
466.100	-24.534	0.101
466.200	-7.243	0.101
466.300	-13.892	0.101
466.400	-1.691	0.101
466.500	-19.873	0.101
466.600	-21.254	0.101
466.700	-23.829	0.101
466.800	-10.717	0.101
466.900	-12.188	0.101
467.000	-7.767	0.101
467.100	-10.081	0.101
467.200	0.259	0.101
467.300	-12.170	0.101
467.400	-13.371	0.101
467.500	-19.707	0.101
467.600	-10.335	0.101
467.700	-10.436	0.101
467.800	-20.066	0.101
467.900	-18.693	0.101
468.000	-15.212	0.101
468.100	-15.798	0.101
468.200	-14.182	0.101
468.300	-11.283	0.101
468.400	-18.259	0.101
468.500	-12.081	0.101
468.600	-10.790	0.101
468.700	-19.498	0.101
468.800	-21.120	0.101
468.900	-24.883	0.101
469.000	-4.980	0.101
469.100	-15.336	0.101
469.200	-15.080	0.101
469.300	-22.140	0.101
469.400	-17.279	0.101
469.500	-14.806	0.101
469.600	-9.014	0.101
469.700	-24.358	0.101
469.800	-15.207	0.101
469.900	-12.897	0.101
470.000	-14.977	0.101
470.100	-4.739	0.101
470.200	-12.579	0.101
470.300	-17.647	0.101
470.400	-15.430	0.101
470.500	-11.426	0.101
470.600	-12.418	0.101
470.700	-13.589	0.101
470.800	-10.761	0.101
470.900	-20.143	0.101
471.000	-9.647	0.101
471.100	-12.304	0.101
471.200	-22.706	0.101
471.300	-11.706	0.101
471.400	-7.967	0.101
471.500	-10.959	0.101
471.600	-17.005	0.101
471.700	-13.920	0.101
471.800	-7.961	0.101
471.900	-12.518	0.101
472.000	-2.776	0.101
472.100	-12.650	0.101
472.200	-13.882	0.101
472.300	-21.498	0.101
472.400	-16.447	0.101
472.500	-3.415	0.101
472.600	-13.646	0.101
472.700	-12.490	0.101
472.800	-6.172	0.101
472.900	3.746	0.101
473.000	-20.433	0.101
473.100	-22.508	0.101
473.200	-6.906	0.101
473.300	-13.162	0.101
473.400	-20.278	0.101
473.500	-18.293	0.101
473.600	-12.140	0.101
473.700	-20.762	0.101
473.800	-10.377	0.101
473.900	-17.431	0.101
474.000	-13.727	0.101
474.100	-14.548	0.101
474.200	-20.010	0.101
474.300	-9.533	0.101
474.400	-16.686	0.101
474.500	-10.848	0.101
474.600	-13.841	0.101
474.700	-21.715	0.101
474.800	-5.870	0.101
474.900	-10.263	0.101
475.000	-11.044	0.101
475.100	-13.819	0.101
475.200	-13.524	0.101
475.300	-10.889	0.101
475.400	-15.169	0.101
475.500	-20.108	0.101
475.600	-20.373	0.101
475.700	-10.067	0.101
475.800	-21.844	0.101
475.900	-7.801	0.101
476.000	-13.555	0.101
476.100	-9.552	0.101
476.200	-5.903	0.101
476.300	-11.564	0.101
476.400	-11.250	0.101
476.500	-24.739	0.101
476.600	-16.031	0.101
476.700	-7.634	0.101
476.800	-13.452	0.101
476.900	-10.162	0.101
477.000	-14.523	0.101
477.100	-12.452	0.101
477.200	-12.804	0.101
477.300	-10.082	0.101
477.400	-13.232	0.101
477.500	-7.701	0.101
477.600	-11.201	0.101
477.700	-17.910	0.101
477.800	-14.266	0.101
477.900	-17.578	0.101
478.000	-12.399	0.101
478.100	-6.318	0.101
478.200	-7.691	0.101
478.300	-16.203	0.101
478.400	-9.960	0.101
478.500	-7.650	0.101
478.600	-11.532	0.101
478.700	-6.202	0.101
478.800	-10.971	0.101
478.900	-2.786	0.101
479.000	-14.374	0.101
479.100	-16.351	0.101
479.200	-15.613	0.101
479.300	-21.566	0.101
479.400	-10.281	0.101
479.500	-17.724	0.101
479.600	-17.940	0.101
479.700	-6.921	0.101
479.800	-13.467	0.101
479.900	-12.938	0.101
480.000	-12.950	0.101
480.100	-18.686	0.101
480.200	-19.951	0.101
480.300	-8.594	0.101
480.400	-2.606	0.101
480.500	3.326	0.101
480.600	-4.630	0.101
480.700	13.633	0.101
480.800	3.873	0.101
480.900	9.545	0.101
481.000	20.074	0.101
481.100	14.827	0.101
481.200	16.079	0.101
481.300	18.674	0.101
481.400	24.187	0.101
481.500	17.782	0.101
481.600	11.013	0.101
481.700	14.065	0.101
481.800	22.451	0.101
481.900	18.842	0.101
482.000	12.490	0.101
482.100	31.077	0.101
482.200	12.830	0.101
482.300	25.609	0.101
482.400	23.143	0.101
482.500	23.552	0.101
482.600	14.515	0.101
482.700	29.453	0.101
482.800	18.013	0.101
482.900	18.017	0.101
483.000	23.109	0.101
483.100	30.499	0.101
483.200	25.172	0.101
483.300	32.283	0.101
483.400	28.086	0.101
483.500	20.691	0.101
483.600	14.098	0.101
483.700	24.121	0.101
483.800	24.254	0.101
483.900	28.638	0.101
484.000	23.923	0.101
484.100	31.661	0.101
484.200	26.265	0.101
484.300	23.519	0.101
484.400	18.073	0.101
484.500	22.369	0.101
484.600	15.094	0.101
484.700	23.775	0.101
484.800	20.540	0.101
484.900	23.014	0.101
485.000	19.873	0.101
485.100	22.262	0.101
485.200	23.367	0.101
485.300	23.820	0.101
485.400	14.255	0.101
485.500	24.471	0.101
485.600	18.402	0.101
485.700	16.823	0.101
485.800	11.761	0.101
485.900	25.769	0.101
486.000	27.247	0.101
486.100	11.561	0.101
486.200	18.218	0.101
486.300	20.738	0.101
486.400	11.591	0.101
486.500	23.739	0.101
486.600	17.780	0.101
486.700	21.074	0.101
486.800	7.137	0.101
486.900	10.035	0.101
487.000	11.045	0.101
487.100	27.968	0.101
487.200	21.261	0.101
487.300	26.014	0.101
487.400	14.840	0.101
487.500	13.745	0.101
487.600	8.574	0.101
487.700	9.690	0.101
487.800	11.148	0.101
487.900	18.861	0.101
488.000	18.943	0.101
488.100	31.962	0.101
488.200	5.214	0.101
488.300	17.170	0.101
488.400	8.014	0.101
488.500	14.936	0.101
488.600	6.498	0.101
488.700	18.043	0.101
488.800	21.807	0.101
488.900	15.846	0.101
489.000	18.879	0.101
489.100	17.397	0.101
489.200	13.476	0.101
489.300	19.820	0.101
489.400	12.510	0.101
489.500	19.935	0.101
489.600	22.058	0.101
489.700	19.377	0.101
489.800	2.901	0.101
489.900	7.721	0.101
490.000	6.840	0.101
490.100	12.968	0.101
490.200	26.977	0.101
490.300	14.784	0.101
490.400	10.492	0.101
490.500	14.169	0.101
490.600	16.786	0.101
490.700	15.635	0.101
490.800	18.374	0.101
490.900	14.647	0.101
491.000	8.335	0.101
491.100	18.047	0.101
491.200	10.667	0.101
491.300	15.824	0.101
491.400	7.977	0.101
491.500	14.333	0.101
491.600	10.423	0.101
491.700	8.427	0.101
491.800	19.637	0.101
491.900	14.949	0.101
492.000	21.912	0.101
492.100	5.515	0.101
492.200	17.491	0.101
492.300	17.408	0.101
492.400	22.902	0.101
492.500	6.574	0.101
492.600	10.015	0.101
492.700	26.723	0.101
492.800	18.776	0.101
492.900	16.190	0.101
493.000	11.206	0.101
493.100	27.814	0.101
493.200	25.662	0.101
493.300	8.904	0.101
493.400	19.289	0.101
493.500	14.424	0.101
493.600	23.377	0.101
493.700	21.939	0.101
493.800	20.680	0.101
493.900	17.941	0.101
494.000	10.913	0.101
494.100	18.610	0.101
494.200	19.222	0.101
494.300	10.463	0.101
494.400	13.617	0.101
494.500	25.365	0.101
494.600	21.566	0.101
494.700	27.896	0.101
494.800	8.647	0.101
494.900	26.688	0.101
495.000	20.407	0.101
495.100	21.806	0.101
495.200	23.126	0.101
495.300	27.813	0.101
495.400	25.849	0.101
495.500	24.151	0.101
495.600	23.430	0.101
495.700	20.813	0.101
495.800	19.728	0.101
495.900	13.810	0.101
496.000	27.281	0.101
496.100	25.168	0.101
496.200	18.954	0.101
496.300	10.871	0.101
496.400	21.029	0.101
496.500	30.658	0.101
496.600	22.437	0.101
496.700	24.364	0.101
496.800	16.158	0.101
496.900	29.664	0.101
497.000	18.108	0.101
497.100	21.947	0.101
497.200	28.809	0.101
497.300	32.827	0.101
497.400	17.276	0.101
497.500	21.006	0.101
497.600	35.119	0.101
497.700	25.690	0.101
497.800	10.292	0.101
497.900	25.044	0.101
498.000	35.817	0.101
498.100	16.445	0.101
498.200	32.243	0.101
498.300	27.648	0.101
498.400	31.410	0.101
498.500	35.053	0.101
498.600	27.035	0.101
498.700	31.787	0.101
498.800	34.877	0.101
498.900	31.096	0.101
499.000	25.802	0.101
499.100	17.676	0.101
499.200	23.772	0.101
499.300	32.081	0.101
499.400	26.356	0.101
499.500	38.722	0.101
499.600	40.473	0.101
499.700	31.570	0.101
499.800	23.050	0.101
499.900	23.915	0.101
500.000	22.471	0.101
500.100	31.697	0.101
500.200	32.243	0.101
500.300	29.203	0.101
500.400	30.711	0.101
500.500	23.559	0.101
500.600	29.712	0.101
500.700	30.749	0.101
500.800	27.916	0.101
500.900	38.336	0.101
501.000	23.318	0.101
501.100	31.897	0.101
501.200	33.370	0.101
501.300	29.101	0.101
501.400	26.984	0.101
501.500	33.274	0.101
501.600	35.670	0.101
501.700	25.768	0.101
501.800	33.337	0.101
501.900	34.980	0.101
502.000	33.584	0.101
502.100	37.343	0.101
502.200	29.315	0.101
502.300	33.532	0.101
502.400	28.582	0.101
502.500	42.168	0.101
502.600	43.953	0.101
502.700	31.868	0.101
502.800	41.334	0.101
502.900	31.256	0.101
503.000	21.411	0.101
503.100	35.919	0.101
503.200	43.740	0.101
503.300	28.756	0.101
503.400	48.898	0.101
503.500	34.073	0.101
503.600	31.706	0.101
503.700	33.106	0.101
503.800	34.522	0.101
503.900	33.087	0.101
504.000	36.563	0.101
504.100	23.336	0.101
504.200	34.733	0.101
504.300	36.373	0.101
504.400	43.077	0.101
504.500	34.844	0.101
504.600	25.024	0.101
504.700	39.749	0.101
504.800	31.367	0.101
504.900	29.632	0.101
505.000	32.148	0.101
505.100	38.050	0.101
505.200	36.105	0.101
505.300	32.856	0.101
505.400	39.519	0.101
505.500	37.748	0.101
505.600	30.056	0.101
505.700	24.531	0.101
505.800	31.460	0.101
505.900	34.851	0.101
506.000	29.282	0.101
506.100	42.704	0.101
506.200	29.162	0.101
506.300	39.249	0.101
506.400	38.215	0.101
506.500	39.016	0.101
506.600	41.969	0.101
506.700	36.359	0.101
506.800	28.653	0.101
506.900	32.177	0.101
507.000	29.520	0.101
507.100	36.088	0.101
507.200	35.679	0.101
507.300	37.433	0.101
507.400	41.093	0.101
507.500	31.639	0.101
507.600	41.077	0.101
507.700	45.235	0.101
507.800	38.068	0.101
507.900	36.184	0.101
508.000	35.261	0.101
508.100	21.598	0.101
508.200	37.628	0.101
508.300	38.886	0.101
508.400	34.844	0.101
508.500	40.435	0.101
508.600	41.752	0.101
508.700	37.729	0.101
508.800	42.870	0.101
508.900	36.903	0.101
509.000	34.712	0.101
509.100	23.080	0.101
509.200	21.568	0.101
509.300	32.077	0.101
509.400	38.691	0.101
509.500	33.775	0.101
509.600	38.392	0.101
509.700	35.010	0.101
509.800	37.030	0.101
509.900	28.687	0.101
510.000	44.988	0.101
510.100	28.575	0.101
510.200	27.019	0.101
510.300	37.017	0.101
510.400	33.955	0.101
510.500	41.995	0.101
510.600	42.984	0.101
510.700	30.224	0.101
510.800	22.899	0.101
510.900	37.084	0.101
511.000	36.946	0.101
511.100	27.203	0.101
511.200	35.021	0.101
511.300	30.728	0.101
511.400	32.307	0.101
511.500	34.250	0.101
511.600	28.006	0.101
511.700	30.488	0.101
511.800	29.615	0.101
511.900	40.350	0.101
512.000	41.094	0.101
512.100	28.509	0.101
512.200	37.572	0.101
512.300	36.744	0.101
512.400	36.288	0.101
512.500	24.959	0.101
512.600	42.960	0.101
512.700	31.239	0.101
512.800	31.609	0.101
512.900	27.560	0.101
513.000	31.143	0.101
513.100	41.099	0.101
513.200	35.767	0.101
513.300	25.901	0.101
513.400	35.668	0.101
513.500	25.346	0.101
513.600	25.463	0.101
513.700	31.014	0.101
513.800	30.911	0.101
513.900	30.550	0.101
514.000	39.438	0.101
514.100	34.881	0.101
514.200	46.923	0.101
514.300	43.646	0.101
514.400	38.561	0.101
514.500	32.740	0.101
514.600	33.089	0.101
514.700	11.684	0.101
514.800	25.657	0.101
514.900	29.270	0.101
515.000	32.117	0.101
515.100	29.214	0.101
515.200	31.018	0.101
515.300	35.254	0.101
515.400	31.989	0.101
515.500	24.812	0.101
515.600	33.636	0.101
515.700	34.809	0.101
515.800	32.799	0.101
515.900	18.758	0.101
516.000	33.961	0.101
516.100	36.166	0.101
516.200	24.845	0.101
516.300	35.259	0.101
516.400	26.878	0.101
516.500	16.171	0.101
516.600	30.171	0.101
516.700	37.581	0.101
516.800	36.566	0.101
516.900	36.111	0.101
517.000	35.780	0.101
517.100	23.969	0.101
517.200	35.883	0.101
517.300	29.283	0.101
517.400	22.518	0.101
517.500	34.711	0.101
517.600	41.341	0.101
517.700	36.249	0.101
517.800	31.380	0.101
517.900	29.168	0.101
518.000	37.203	0.101
518.100	23.270	0.101
518.200	32.871	0.101
518.300	24.167	0.101
518.400	31.635	0.101
518.500	26.315	0.101
518.600	40.915	0.101
518.700	31.335	0.101
518.800	32.222	0.101
518.900	20.334	0.101
519.000	31.428	0.101
519.100	27.919	0.101
519.200	30.695	0.101
519.300	28.099	0.101
519.400	29.950	0.101
519.500	22.547	0.101
519.600	29.780	0.101
519.700	29.541	0.101
519.800	31.218	0.101
519.900	38.043	0.101
520.000	35.592	0.101
520.100	26.834	0.101
520.200	23.539	0.101
520.300	30.245	0.101
520.400	32.977	0.101
520.500	25.260	0.101
520.600	28.766	0.101
520.700	17.621	0.101
520.800	31.873	0.101
520.900	35.364	0.101
521.000	34.898	0.101
521.100	27.261	0.101
521.200	40.005	0.101
521.300	27.424	0.101
521.400	40.455	0.101
521.500	17.750	0.101
521.600	26.306	0.101
521.700	31.605	0.101
521.800	27.512	0.101
521.900	35.556	0.101
522.000	27.258	0.101
522.100	20.977	0.101
522.200	32.729	0.101
522.300	32.509	0.101
522.400	34.298	0.101
522.500	37.394	0.101
522.600	39.904	0.101
522.700	29.075	0.101
522.800	37.014	0.100
522.900	29.017	0.100
523.000	37.706	0.101
523.100	33.741	0.100
523.200	25.485	0.100
523.300	30.492	0.100
523.400	34.057	0.100
523.500	21.676	0.100
523.600	28.684	0.100
523.700	25.823	0.100
523.800	36.226	0.100
523.900	33.654	0.100
524.000	35.690	0.100
524.100	22.602	0.100
524.200	21.271	0.100
524.300	29.590	0.100
524.400	28.777	0.100
524.500	26.244	0.100
524.600	32.100	0.100
524.700	33.039	0.100
524.800	22.131	0.100
524.900	30.924	0.100
525.000	18.940	0.100
525.100	29.971	0.100
525.200	36.768	0.100
525.300	31.768	0.100
525.400	34.459	0.100
525.500	31.559	0.100
525.600	38.673	0.100
525.700	35.268	0.100
525.800	31.837	0.100
525.900	29.360	0.100
526.000	23.526	0.100
526.100	24.732	0.100
526.200	23.756	0.100
526.300	35.101	0.100
526.400	27.054	0.100
526.500	15.108	0.100
526.600	32.051	0.100
526.700	42.651	0.100
526.800	23.880	0.100
526.900	28.426	0.100
527.000	24.550	0.100
527.100	20.193	0.100
527.200	20.424	0.100
527.300	26.449	0.100
527.400	44.797	0.100
527.500	43.132	0.100
527.600	37.032	0.100
527.700	27.809	0.100
527.800	29.158	0.100
527.900	30.054	0.100
528.000	32.897	0.100
528.100	31.024	0.100
528.200	27.388	0.100
528.300	38.352	0.100
528.400	27.649	0.100
528.500	40.502	0.100
528.600	32.770	0.100
528.700	30.353	0.100
528.800	36.172	0.100
528.900	30.705	0.100
529.000	23.675	0.100
529.100	21.795	0.100
529.200	34.369	0.100
529.300	32.945	0.100
529.400	17.915	0.100
529.500	31.272	0.100
529.600	32.765	0.100
529.700	32.330	0.100
529.800	31.389	0.100
529.900	32.842	0.100
530.000	39.048	0.100
530.100	29.088	0.100
530.200	26.845	0.100
530.300	33.122	0.100
530.400	25.978	0.100
530.500	20.553	0.100
530.600	23.521	0.100
530.700	27.703	0.100
530.800	35.122	0.100
530.900	35.618	0.100
531.000	32.743	0.100
531.100	23.338	0.100
531.200	28.024	0.100
531.300	27.213	0.100
531.400	26.921	0.100
531.500	28.092	0.100
531.600	41.400	0.100
531.700	32.232	0.100
531.800	27.325	0.100
531.900	25.143	0.100
532.000	30.897	0.100
532.100	42.910	0.100
532.200	38.176	0.100
532.300	30.350	0.100
532.400	33.837	0.100
532.500	27.121	0.100
532.600	30.908	0.100
532.700	24.770	0.100
532.800	38.483	0.100
532.900	30.020	0.100
533.000	40.145	0.100
533.100	34.457	0.100
533.200	35.357	0.100
533.300	23.676	0.100
533.400	20.257	0.100
533.500	27.927	0.100
533.600	31.306	0.100
533.700	33.045	0.100
533.800	25.973	0.100
533.900	25.202	0.100
534.000	23.613	0.100
534.100	21.490	0.100
534.200	26.242	0.100
534.300	36.162	0.100
534.400	30.571	0.100
534.500	31.513	0.100
534.600	28.784	0.100
534.700	32.753	0.100
534.800	20.699	0.100
534.900	29.106	0.100
535.000	35.891	0.100
535.100	37.056	0.100
535.200	30.191	0.100
535.300	30.265	0.100
535.400	24.027	0.100
535.500	27.551	0.100
535.600	22.027	0.100
535.700	39.453	0.100
535.800	31.449	0.100
535.900	29.538	0.100
536.000	22.177	0.100
536.100	32.146	0.100
536.200	35.646	0.100
536.300	31.812	0.100
536.400	22.550	0.100
536.500	19.659	0.100
536.600	25.207	0.100
536.700	28.361	0.100
536.800	26.871	0.100
536.900	31.865	0.100
537.000	32.632	0.100
537.100	39.203	0.100
537.200	24.169	0.100
537.300	27.896	0.100
537.400	35.730	0.100
537.500	34.720	0.100
537.600	32.378	0.100
537.700	29.499	0.100
537.800	45.580	0.100
537.900	35.830	0.100
538.000	31.986	0.100
538.100	26.460	0.100
538.200	34.386	0.100
538.300	30.671	0.100
538.400	32.433	0.100
538.500	35.156	0.100
538.600	31.381	0.100
538.700	36.571	0.100
538.800	25.662	0.100
538.900	26.113	0.100
539.000	27.914	0.100
539.100	22.089	0.100
539.200	32.478	0.100
539.300	31.373	0.100
539.400	32.717	0.100
539.500	28.901	0.100
539.600	30.059	0.101
539.700	33.647	0.101
539.800	24.714	0.100
539.900	36.742	0.101
540.000	30.777	0.101
540.100	21.509	0.101
540.200	17.236	0.101
540.300	30.080	0.101
540.400	30.483	0.101
540.500	16.743	0.101
540.600	15.141	0.101
540.700	25.749	0.101
540.800	12.432	0.101
540.900	7.827	0.101
541.000	16.604	0.101
541.100	2.955	0.101
541.200	2.228	0.101
541.300	3.890	0.101
541.400	-5.052	0.101
541.500	-8.628	0.101
541.600	-2.018	0.101
541.700	0.373	0.101
541.800	-13.286	0.101
541.900	-7.990	0.101
542.000	-13.338	0.101
542.100	-11.953	0.101
542.200	-19.203	0.101
542.300	-14.142	0.101
542.400	-15.093	0.101
542.500	-11.031	0.101
542.600	-10.274	0.101
542.700	-14.441	0.101
542.800	-20.702	0.101
542.900	-18.902	0.101
543.000	-14.188	0.101
543.100	-21.070	0.101
543.200	-13.654	0.101
543.300	-21.736	0.101
543.400	-19.722	0.101
543.500	-17.080	0.101
543.600	-21.088	0.101
543.700	-21.974	0.101
543.800	-26.261	0.101
543.900	-19.018	0.101
544.000	-23.151	0.101
544.100	-11.661	0.101
544.200	-16.558	0.101
544.300	-11.439	0.101
544.400	-27.594	0.101
544.500	-28.995	0.101
544.600	-17.560	0.101
544.700	-27.728	0.101
544.800	-26.821	0.101
544.900	-19.435	0.101
545.000	-15.432	0.101
545.100	-27.370	0.101
545.200	-15.239	0.101
545.300	-22.140	0.101
545.400	-26.921	0.101
545.500	-9.140	0.101
545.600	-11.982	0.101
545.700	-16.808	0.101
545.800	-23.013	0.101
545.900	-25.965	0.101
546.000	-19.982	0.101
546.100	-15.953	0.101
546.200	-16.372	0.101
546.300	-3.312	0.101
546.400	-19.678	0.101
546.500	-31.324	0.101
546.600	-18.420	0.101
546.700	-3.994	0.101
546.800	-21.706	0.101
546.900	-12.340	0.101
547.000	-21.725	0.101
547.100	-21.841	0.101
547.200	-22.143	0.101
547.300	-13.871	0.101
547.400	-21.636	0.101
547.500	-12.720	0.101
547.600	-12.571	0.101
547.700	-10.665	0.101
547.800	-19.936	0.101
547.900	-12.531	0.101
548.000	-22.455	0.101
548.100	-14.639	0.101
548.200	-11.702	0.101
548.300	-11.514	0.101
548.400	-31.512	0.101
548.500	-23.062	0.101
548.600	-18.443	0.101
548.700	-9.374	0.101
548.800	-13.965	0.101
548.900	-12.287	0.101
549.000	-13.833	0.101
549.100	-17.506	0.101
549.200	-17.465	0.101
549.300	-13.059	0.101
549.400	-10.361	0.101
549.500	-17.950	0.101
549.600	-19.611	0.101
549.700	-15.951	0.101
549.800	-17.289	0.101
549.900	-8.286	0.101
550.000	-18.170	0.101
550.100	-8.997	0.101
550.200	-9.283	0.101
550.300	-11.514	0.101
550.400	-15.048	0.101
550.500	-28.687	0.101
550.600	-19.092	0.101
550.700	-24.322	0.101
550.800	-8.108	0.101
550.900	-8.311	0.101
551.000	-5.570	0.101
551.100	-10.777	0.101
551.200	-16.783	0.101
551.300	-11.990	0.101
551.400	-12.076	0.101
551.500	-17.177	0.101
551.600	-22.817	0.101
551.700	-22.735	0.101
551.800	-6.275	0.101
551.900	-18.492	0.101
552.000	-25.908	0.101
552.100	-15.436	0.101
552.200	-17.565	0.101
552.300	-10.043	0.101
552.400	-8.865	0.101
552.500	-16.235	0.101
552.600	-27.907	0.101
552.700	-18.617	0.101
552.800	-17.657	0.101
552.900	-21.446	0.101
553.000	-26.060	0.101
553.100	-9.534	0.101
553.200	-10.989	0.101
553.300	-10.525	0.101
553.400	-20.106	0.101
553.500	-11.652	0.101
553.600	-23.061	0.101
553.700	-26.346	0.101
553.800	-19.144	0.101
553.900	-11.249	0.101
554.000	-14.242	0.101
554.100	-20.739	0.101
554.200	-21.572	0.101
554.300	-15.047	0.101
554.400	-17.174	0.101
554.500	-18.008	0.101
554.600	-23.744	0.101
554.700	-16.913	0.101
554.800	-18.951	0.101
554.900	-14.941	0.101
555.000	-23.922	0.101
555.100	-18.288	0.101
555.200	-11.501	0.101
555.300	-21.540	0.101
555.400	-20.036	0.101
555.500	-10.831	0.101
555.600	-29.546	0.101
555.700	-22.932	0.101
555.800	-14.514	0.101
555.900	-7.807	0.101
556.000	-22.924	0.101
556.100	-16.614	0.101
556.200	-19.515	0.101
556.300	-19.697	0.101
556.400	-6.392	0.101
556.500	-18.664	0.101
556.600	-17.235	0.101
556.700	-16.991	0.101
556.800	-10.082	0.101
556.900	-13.885	0.101
557.000	-19.832	0.101
557.100	-20.385	0.101
557.200	-25.562	0.101
557.300	-19.493	0.101
557.400	-17.465	0.101
557.500	-8.758	0.101
557.600	-24.065	0.101
557.700	-28.295	0.101
557.800	-26.558	0.101
557.900	-14.029	0.101
558.000	-9.935	0.101
558.100	-18.025	0.101
558.200	-11.084	0.101
558.300	-15.230	0.101
558.400	-26.808	0.101
558.500	-17.843	0.101
558.600	-16.583	0.101
558.700	-18.115	0.101
558.800	-16.701	0.101
558.900	-16.778	0.101
559.000	-20.471	0.101
559.100	-12.474	0.101
559.200	-14.970	0.101
559.300	-24.233	0.101
559.400	-15.323	0.101
559.500	-14.470	0.101
559.600	-23.681	0.101
559.700	-14.691	0.101
559.800	-24.578	0.101
559.900	-15.186	0.101
560.000	-21.727	0.101
560.100	-15.395	0.101
560.200	-25.895	0.101
560.300	-10.236	0.101
560.400	-19.323	0.101
560.500	-15.646	0.101
560.600	-18.345	0.101
560.700	-27.190	0.101
560.800	-29.389	0.101
560.900	-23.936	0.101
561.000	-18.626	0.101
561.100	-25.862	0.101
561.200	-19.781	0.101
561.300	-14.960	0.101
561.400	-16.421	0.101
561.500	-24.086	0.101
561.600	-31.159	0.101
561.700	-12.438	0.101
561.800	-15.112	0.101
561.900	-18.581	0.101
562.000	-19.351	0.101
562.100	-18.135	0.101
562.200	-29.028	0.101
562.300	-13.807	0.101
562.400	-13.179	0.101
562.500	-21.430	0.101
562.600	-24.345	0.101
562.700	-16.098	0.101
562.800	-18.762	0.101
562.900	-30.694	0.101
563.000	-15.316	0.101
563.100	-17.550	0.101
563.200	-22.318	0.101
563.300	-12.642	0.101
563.400	-18.950	0.101
563.500	-22.726	0.101
563.600	-25.516	0.101
563.700	-11.823	0.101
563.800	-22.808	0.101
563.900	-19.444	0.101
564.000	-23.778	0.101
564.100	-16.095	0.101
564.200	-20.989	0.101
564.300	-25.298	0.101
564.400	-22.273	0.101
564.500	-18.850	0.101
564.600	-19.173	0.101
564.700	-19.862	0.101
564.800	-18.711	0.101
564.900	-21.214	0.101
565.000	-19.630	0.101
565.100	-17.802	0.101
565.200	-15.201	0.101
565.300	-23.394	0.101
565.400	-16.177	0.101
565.500	-25.210	0.101
565.600	-16.849	0.101
565.700	-16.196	0.101
565.800	-25.028	0.101
565.900	-16.882	0.101
566.000	-23.427	0.101
566.100	-26.942	0.101
566.200	-16.064	0.101
566.300	-13.652	0.101
566.400	-17.590	0.101
566.500	-25.290	0.101
566.600	-10.565	0.101
566.700	-17.617	0.101
566.800	-14.376	0.101
566.900	-23.418	0.101
567.000	-21.162	0.101
567.100	-27.421	0.101
567.200	-28.889	0.101
567.300	-16.370	0.101
567.400	-13.580	0.101
567.500	-9.719	0.101
567.600	-24.503	0.101
567.700	-19.813	0.101
567.800	-9.302	0.101
567.900	-23.579	0.101
568.000	-19.305	0.101
568.100	-19.798	0.101
568.200	-28.740	0.101
568.300	-18.572	0.101
568.400	-22.093	0.101
568.500	-19.401	0.101
568.600	-16.984	0.101
568.700	-26.141	0.101
568.800	-10.896	0.101
568.900	-31.594	0.101
569.000	-10.577	0.101
569.100	-26.967	0.101
569.200	-17.290	0.101
569.300	-29.449	0.101
569.400	-20.673	0.101
569.500	-16.946	0.101
569.600	-13.443	0.101
569.700	-15.639	0.101
569.800	-23.746	0.101
569.900	-27.232	0.101
570.000	-25.170	0.101
570.100	-22.029	0.101
570.200	-18.439	0.101
570.300	-12.961	0.101
570.400	-18.332	0.101
570.500	-20.705	0.101
570.600	-24.420	0.101
570.700	-17.596	0.101
570.800	-29.555	0.101
570.900	-15.858	0.101
571.000	-11.757	0.101
571.100	-17.857	0.101
571.200	-23.587	0.101
571.300	-22.312	0.101
571.400	-21.411	0.101
571.500	-19.993	0.101
571.600	-13.254	0.101
571.700	-24.819	0.101
571.800	-27.555	0.101
571.900	-27.754	0.101
572.000	-23.717	0.101
572.100	-25.679	0.101
572.200	-19.347	0.101
572.300	-17.495	0.101
572.400	-18.956	0.101
572.500	-21.041	0.101
572.600	-26.624	0.101
572.700	-24.719	0.101
572.800	-14.121	0.101
572.900	-19.611	0.101
573.000	-20.447	0.101
573.100	-21.499	0.101
573.200	-11.636	0.101
573.300	-17.598	0.101
573.400	-20.278	0.101
573.500	-29.798	0.101
573.600	-20.371	0.101
573.700	-26.683	0.101
573.800	-19.184	0.101
573.900	-18.402	0.101
574.000	-13.773	0.101
574.100	-26.458	0.101
574.200	-17.978	0.101
574.300	-24.898	0.101
574.400	-18.897	0.101
574.500	-15.086	0.101
574.600	-15.338	0.101
574.700	-22.841	0.101
574.800	-14.449	0.101
574.900	-24.241	0.101
575.000	-24.545	0.101
575.100	-31.050	0.101
575.200	-15.536	0.101
575.300	-22.826	0.101
575.400	-17.674	0.101
575.500	-13.454	0.101
575.600	-24.240	0.101
575.700	-22.550	0.101
575.800	-16.393	0.101
575.900	-21.124	0.101
576.000	-20.288	0.101
576.100	-19.247	0.101
576.200	-15.796	0.101
576.300	-23.998	0.101
576.400	-8.021	0.101
576.500	-23.167	0.101
576.600	-19.011	0.101
576.700	-23.242	0.101
576.800	-14.217	0.101
576.900	-26.011	0.101
577.000	-27.511	0.101
577.100	-12.548	0.101
577.200	-7.274	0.101
577.300	-16.497	0.101
577.400	-23.217	0.101
577.500	-29.472	0.101
577.600	-21.219	0.101
577.700	-21.883	0.101
577.800	-24.013	0.101
577.900	-13.888	0.101
578.000	-20.711	0.101
578.100	-19.580	0.101
578.200	-9.062	0.101
578.300	-17.945	0.101
578.400	-18.406	0.101
578.500	-26.265	0.101
578.600	-21.377	0.100
578.700	-29.183	0.100
578.800	-10.659	0.100
578.900	-30.639	0.100
579.000	-17.394	0.100
579.100	-17.839	0.100
579.200	-19.221	0.100
579.300	-21.333	0.100
579.400	-13.905	0.100
579.500	-29.491	0.100
579.600	-20.480	0.100
579.700	-25.506	0.100
579.800	-17.815	0.100
579.900	-22.593	0.100
580.000	-21.676	0.100
580.100	-27.954	0.100
580.200	-25.863	0.100
580.300	-23.069	0.100
580.400	-19.618	0.100
580.500	-23.803	0.100
580.600	-16.314	0.100
580.700	-24.264	0.100
580.800	-24.567	0.100
580.900	-13.902	0.100
581.000	-22.213	0.100
581.100	-20.750	0.100
581.200	-12.480	0.100
581.300	-16.950	0.100
581.400	-13.854	0.100
581.500	-26.373	0.100
581.600	-25.270	0.100
581.700	-23.106	0.100
581.800	-18.269	0.100
581.900	-24.059	0.100
582.000	-34.536	0.100
582.100	-27.806	0.100
582.200	-17.585	0.100
582.300	-16.735	0.100
582.400	-19.501	0.100
582.500	-29.298	0.100
582.600	-17.845	0.100
582.700	-13.510	0.100
582.800	-13.123	0.100
582.900	-16.255	0.100
583.000	-19.334	0.100
583.100	-30.102	0.100
583.200	-22.488	0.100
583.300	-14.746	0.100
583.400	-22.476	0.100
583.500	-14.599	0.100
583.600	-17.367	0.100
583.700	-21.423	0.100
583.800	-21.695	0.100
583.900	-13.767	0.100
584.000	-17.088	0.100
584.100	-21.984	0.100
584.200	-24.712	0.100
584.300	-25.867	0.100
584.400	-15.693	0.100
584.500	-25.943	0.100
584.600	-28.540	0.100
584.700	-20.577	0.100
584.800	-16.777	0.100
584.900	-22.813	0.100
585.000	-29.365	0.100
585.100	-15.059	0.100
585.200	-20.791	0.100
585.300	-20.701	0.100
585.400	-14.783	0.100
585.500	-22.132	0.100
585.600	-19.756	0.100
585.700	-25.790	0.100
585.800	-28.014	0.100
585.900	-18.691	0.100
586.000	-22.289	0.100
586.100	-16.755	0.100
586.200	-18.635	0.100
586.300	-15.607	0.100
586.400	-17.183	0.100
586.500	-28.460	0.100
586.600	-19.572	0.100
586.700	-24.712	0.100
586.800	-25.325	0.100
586.900	-24.668	0.100
587.000	-25.985	0.100
587.100	-21.379	0.100
587.200	-18.818	0.100
587.300	-26.270	0.100
587.400	-15.458	0.100
587.500	-19.185	0.100
587.600	-16.389	0.100
587.700	-19.478	0.100
587.800	-23.340	0.100
587.900	-23.934	0.100
588.000	-22.086	0.100
588.100	-18.513	0.100
588.200	-11.667	0.100
588.300	-17.038	0.100
588.400	-18.218	0.100
588.500	-16.664	0.100
588.600	-31.820	0.100
588.700	-24.032	0.100
588.800	-14.900	0.100
588.900	-13.558	0.100
589.000	-10.605	0.100
589.100	-12.651	0.100
589.200	-20.823	0.100
589.300	-25.272	0.100
589.400	-21.800	0.100
589.500	-22.747	0.100
589.600	-21.600	0.100
589.700	-25.888	0.100
589.800	-15.703	0.100
589.900	-16.391	0.100
590.000	-26.538	0.100
590.100	-21.553	0.100
590.200	-18.419	0.100
590.300	-23.031	0.100
590.400	-19.278	0.100
590.500	-26.635	0.100
590.600	-21.294	0.100
590.700	-21.579	0.100
590.800	-8.519	0.100
590.900	-13.588	0.100
591.000	-16.020	0.100
591.100	-24.739	0.100
591.200	-29.229	0.100
591.300	-21.754	0.100
591.400	-29.218	0.100
591.500	-24.064	0.100
591.600	-18.265	0.100
591.700	-25.493	0.100
591.800	-28.943	0.100
591.900	-25.120	0.100
592.000	-18.412	0.100
592.100	-12.229	0.100
592.200	-21.987	0.100
592.300	-17.425	0.100
592.400	-21.075	0.100
592.500	-15.882	0.100
592.600	-15.502	0.100
592.700	-18.071	0.100
592.800	-21.136	0.100
592.900	-27.014	0.100
593.000	-25.489	0.100
593.100	-24.188	0.100
593.200	-16.981	0.100
593.300	-16.060	0.100
593.400	-15.988	0.100
593.500	-25.929	0.100
593.600	-21.078	0.100
593.700	-14.188	0.100
593.800	-14.262	0.100
593.900	-21.970	0.100
594.000	-20.956	0.100
594.100	-18.114	0.100
594.200	-20.130	0.100
594.300	-15.126	0.100
594.400	-14.937	0.100
594.500	-18.081	0.100
594.600	-20.357	0.100
594.700	-19.315	0.100
594.800	-16.675	0.100
594.900	-17.350	0.100
595.000	-14.683	0.100
595.100	-18.867	0.100
595.200	-18.421	0.100
595.300	-19.261	0.100
595.400	-19.878	0.100
595.500	-22.147	0.100
595.600	-15.084	0.100
595.700	-17.282	0.100
595.800	-27.125	0.101
595.900	-17.146	0.101
596.000	-14.694	0.100
596.100	-24.439	0.100
596.200	-23.118	0.100
596.300	-19.133	0.100
596.400	-13.884	0.101
596.500	-13.348	0.101
596.600	-11.777	0.101
596.700	-26.942	0.100
596.800	-25.662	0.100
596.900	-16.472	0.100
597.000	-17.584	0.101
597.100	-20.563	0.100
597.200	-26.478	0.100
597.300	-21.014	0.101
597.400	-17.184	0.100
597.500	-12.885	0.101
597.600	-16.648	0.101
597.700	-18.730	0.101
597.800	-24.738	0.100
597.900	-14.682	0.101
598.000	-10.886	0.101
598.100	-26.174	0.101
598.200	-14.158	0.101
598.300	-4.487	0.101
598.400	-9.166	0.101
598.500	-11.083	0.101
598.600	-25.631	0.100
598.700	-21.036	0.101
598.800	-18.811	0.101
598.900	-16.686	0.101
599.000	-18.321	0.101
599.100	-12.410	0.101
599.200	-18.538	0.101
599.300	-22.629	0.101
599.400	-18.840	0.101
599.500	-17.647	0.101
599.600	-10.704	0.101
599.700	-18.992	0.101
599.800	-18.404	0.101
599.900	-17.348	0.101
600.000	-15.479	0.101
600.100	-19.356	0.101
600.200	-12.256	0.101
600.300	-19.344	0.101
600.400	-12.894	0.101
600.500	-13.431	0.101
600.600	-19.169	0.101
600.700	-20.185	0.101
600.800	-20.032	0.101
600.900	-2.887	0.101
601.000	-15.943	0.101
601.100	-20.004	0.101
601.200	-19.507	0.101
601.300	-14.684	0.101
601.400	-14.510	0.101
601.500	-10.487	0.101
601.600	-12.549	0.101
601.700	-11.722	0.101
601.800	-27.917	0.101
601.900	-16.214	0.101
602.000	-17.192	0.101
602.100	-18.469	0.101
602.200	-17.057	0.101
602.300	-18.726	0.101
602.400	-25.112	0.101
602.500	-14.885	0.101
602.600	-13.864	0.101
602.700	-12.577	0.101
602.800	-24.903	0.101
602.900	-17.002	0.101
603.000	-15.533	0.101
603.100	-19.868	0.101
603.200	-18.889	0.101
603.300	-24.210	0.101
603.400	-20.299	0.101
603.500	-10.836	0.101
603.600	-18.830	0.101
603.700	-15.538	0.101
603.800	-13.583	0.101
603.900	-4.230	0.101
604.000	-11.432	0.101
604.100	-12.748	0.101
604.200	-16.488	0.101
604.300	-9.724	0.101
604.400	-15.891	0.101
604.500	-25.177	0.101
604.600	-8.298	0.101
604.700	-29.133	0.101
604.800	-8.753	0.101
604.900	-0.072	0.101
605.000	-15.306	0.101
605.100	-17.458	0.101
605.200	-19.463	0.101
605.300	-12.913	0.101
605.400	-16.748	0.101
605.500	-18.514	0.101
605.600	-15.234	0.101
605.700	-4.798	0.101
605.800	-19.096	0.101
605.900	-12.925	0.101
606.000	-24.500	0.101
606.100	-12.285	0.101
606.200	-24.378	0.101
606.300	-14.707	0.101
606.400	-14.595	0.101
606.500	-13.698	0.101
606.600	-19.452	0.101
606.700	-12.192	0.101
606.800	-18.267	0.101
606.900	-25.372	0.101
607.000	-13.499	0.101
607.100	-23.462	0.101
607.200	-16.165	0.101
607.300	-19.079	0.101
607.400	-14.177	0.101
607.500	-13.197	0.101
607.600	-18.998	0.101
607.700	-15.207	0.101
607.800	-11.106	0.101
607.900	-14.202	0.101
608.000	-31.853	0.101
608.100	-12.927	0.101
608.200	-8.845	0.101
608.300	-14.890	0.101
608.400	-15.236	0.101
608.500	-14.091	0.101
608.600	-22.559	0.101
608.700	-15.446	0.101
608.800	-22.227	0.101
608.900	-14.082	0.101
609.000	-19.528	0.101
609.100	-13.125	0.101
609.200	-22.187	0.101
609.300	-20.450	0.101
609.400	-17.923	0.101
609.500	-12.298	0.101
609.600	-14.263	0.101
609.700	-9.026	0.101
609.800	-22.104	0.101
609.900	-26.455	0.101
610.000	-14.196	0.101
610.100	-21.299	0.101
610.200	-13.308	0.101
610.300	-10.499	0.101
610.400	-7.644	0.101
610.500	-15.670	0.101
610.600	-21.689	0.101
610.700	-17.195	0.101
610.800	-23.636	0.101
610.900	-10.920	0.101
611.000	-9.541	0.101
611.100	-12.895	0.101
611.200	-13.402	0.101
611.300	-13.178	0.101
611.400	-12.655	0.101
611.500	-11.364	0.101
611.600	-11.397	0.101
611.700	-21.024	0.101
611.800	-23.779	0.101
611.900	-19.252	0.101
612.000	-13.316	0.101
612.100	-16.967	0.101
612.200	-12.933	0.101
612.300	-16.404	0.101
612.400	-16.910	0.101
612.500	-3.423	0.101
612.600	-11.225	0.101
612.700	-8.876	0.101
612.800	-15.400	0.101
612.900	-16.249	0.101
613.000	-12.185	0.101
613.100	-10.463	0.101
613.200	-21.713	0.101
613.300	-12.425	0.101
613.400	-16.648	0.101
613.500	-11.745	0.101
613.600	-24.074	0.101
613.700	-16.626	0.101
613.800	-18.794	0.101
613.900	-17.081	0.101
614.000	-10.933	0.101
614.100	-9.373	0.101
614.200	-15.076	0.101
614.300	-6.031	0.101
614.400	-14.746	0.101
614.500	-10.553	0.101
614.600	-22.855	0.101
614.700	-9.622	0.101
614.800	-17.419	0.101
614.900	-7.340	0.101
615.000	-18.600	0.101
615.100	-18.691	0.101
615.200	-11.184	0.101
615.300	-16.832	0.101
615.400	-20.809	0.101
615.500	-17.472	0.101
615.600	-20.410	0.101
615.700	-29.731	0.101
615.800	-7.737	0.101
615.900	-15.879	0.101
616.000	-12.464	0.101
616.100	-11.388	0.101
616.200	-21.894	0.101
616.300	-15.146	0.101
616.400	-2.856	0.101
616.500	-8.934	0.101
616.600	-16.657	0.101
616.700	-18.115	0.101
616.800	-19.314	0.101
616.900	-12.371	0.101
617.000	-17.132	0.101
617.100	-15.874	0.101
617.200	-12.511	0.101
617.300	-16.657	0.101
617.400	-11.879	0.101
617.500	-13.115	0.101
617.600	-19.069	0.101
617.700	-20.337	0.101
617.800	-11.237	0.101
617.900	-13.851	0.101
618.000	-9.527	0.101
618.100	-10.136	0.101
618.200	-18.734	0.101
618.300	-19.392	0.101
618.400	-16.045	0.101
618.500	-15.052	0.101
618.600	-18.398	0.101
618.700	-14.664	0.101
618.800	-10.135	0.101
618.900	-7.270	0.101
619.000	-18.657	0.101
619.100	-9.112	0.101
619.200	-21.072	0.101
619.300	-7.314	0.101
619.400	-21.714	0.101
619.500	-21.554	0.101
619.600	-11.230	0.101
619.700	-12.045	0.101
619.800	-14.136	0.101
619.900	-18.072	0.101
620.000	-22.703	0.101
620.100	-8.108	0.101
620.200	-15.725	0.101
620.300	-14.421	0.101
620.400	-18.975	0.101
620.500	-15.448	0.101
620.600	-14.563	0.101
620.700	-14.924	0.101
620.800	-16.422	0.101
620.900	-13.499	0.101
621.000	-16.540	0.101
621.100	-10.113	0.101
621.200	-24.993	0.101
621.300	-9.461	0.101
621.400	-16.013	0.101
621.500	-15.346	0.101
621.600	-9.818	0.101
621.700	-16.401	0.101
621.800	-18.289	0.101
621.900	-12.073	0.101
622.000	-18.175	0.101
622.100	-12.742	0.101
622.200	-14.227	0.101
622.300	-20.464	0.101
622.400	-14.595	0.101
622.500	-13.365	0.101
622.600	-17.216	0.101
622.700	-21.380	0.101
622.800	-4.827	0.101
622.900	-11.867	0.101
623.000	-18.007	0.101
623.100	-18.786	0.101
623.200	-9.038	0.101
623.300	-27.198	0.101
623.400	-20.392	0.101
623.500	-15.308	0.101
623.600	-5.980	0.101
623.700	-16.286	0.101
623.800	-5.470	0.101
623.900	-11.815	0.101
624.000	-12.699	0.101
624.100	-21.508	0.101
624.200	-16.646	0.101
624.300	-12.914	0.101
624.400	-8.017	0.101
624.500	-12.812	0.101
624.600	-4.999	0.101
624.700	-13.938	0.101
624.800	-18.278	0.101
624.900	-23.440	0.101
625.000	-15.069	0.101
625.100	-12.033	0.101
625.200	-13.586	0.101
625.300	-6.294	0.101
625.400	-9.918	0.101
625.500	-20.378	0.101
625.600	-3.137	0.101
625.700	-15.512	0.101
625.800	-1.739	0.101
625.900	-2.161	0.101
626.000	-18.088	0.101
626.100	-31.724	0.101
626.200	-16.733	0.101
626.300	-11.622	0.101
626.400	-12.999	0.101
626.500	-7.603	0.101
626.600	-15.713	0.101
626.700	-19.497	0.101
626.800	-11.995	0.101
626.900	-11.205	0.101
627.000	-14.160	0.101
627.100	-13.646	0.101
627.200	-19.141	0.101
627.300	-13.313	0.101
627.400	-10.206	0.101
627.500	-10.830	0.101
627.600	-14.740	0.101
627.700	-27.689	0.101
627.800	-18.452	0.101
627.900	-10.447	0.101
628.000	-10.549	0.101
628.100	-19.908	0.101
628.200	-19.920	0.101
628.300	-16.340	0.101
628.400	-9.251	0.101
628.500	-18.529	0.101
628.600	-13.030	0.101
628.700	-20.895	0.101
628.800	-4.403	0.101
628.900	-16.469	0.101
629.000	-9.235	0.101
629.100	-13.121	0.101
629.200	-10.811	0.101
629.300	-21.299	0.101
629.400	-17.741	0.101
629.500	-17.445	0.101
629.600	-19.221	0.101
629.700	-16.412	0.101
629.800	-6.939	0.101
629.900	-17.685	0.101
630.000	-12.495	0.101
630.100	-16.098	0.101
630.200	-5.543	0.101
630.300	-10.273	0.101
630.400	-0.301	0.101
630.500	8.102	0.101
630.600	1.520	0.101
630.700	-5.746	0.101
630.800	4.202	0.101
630.900	9.587	0.101
631.000	15.615	0.101
631.100	9.017	0.101
631.200	6.837	0.101
631.300	13.558	0.101
631.400	20.451	0.101
631.500	24.345	0.101
631.600	20.660	0.101
631.700	19.401	0.101
631.800	20.298	0.101
631.900	23.475	0.101
632.000	28.165	0.101
632.100	11.547	0.101
632.200	20.236	0.101
632.300	28.538	0.101
632.400	20.064	0.101
632.500	20.802	0.101
632.600	30.747	0.101
632.700	22.679	0.101
632.800	24.812	0.101
632.900	26.294	0.101
633.000	18.647	0.101
633.100	10.758	0.101
633.200	32.324	0.101
633.300	23.335	0.101
633.400	26.714	0.101
633.500	24.130	0.101
633.600	31.032	0.101
633.700	21.700	0.101
633.800	25.316	0.101
633.900	29.461	0.101
634.000	32.636	0.101
634.100	15.405	0.101
634.200	30.034	0.101
634.300	23.548	0.101
634.400	27.604	0.101
634.500	16.789	0.101
634.600	27.958	0.101
634.700	18.759	0.101
634.800	27.622	0.101
634.900	16.449	0.101
635.000	16.639	0.101
635.100	22.295	0.101
635.200	24.818	0.101
635.300	18.981	0.101
635.400	23.880	0.101
635.500	23.450	0.101
635.600	20.477	0.101
635.700	17.236	0.101
635.800	18.343	0.101
635.900	25.915	0.101
636.000	17.919	0.101
636.100	16.877	0.101
636.200	20.326	0.101
636.300	17.780	0.101
636.400	21.854	0.101
636.500	10.363	0.101
636.600	13.736	0.101
636.700	19.119	0.101
636.800	15.918	0.101
636.900	16.311	0.101
637.000	9.115	0.101
637.100	9.268	0.101
637.200	16.600	0.101
637.300	13.694	0.101
637.400	20.091	0.101
637.500	0.583	0.101
637.600	19.314	0.101
637.700	5.337	0.101
637.800	14.886	0.101
637.900	8.537	0.101
638.000	19.962	0.101
638.100	23.375	0.101
638.200	19.593	0.101
638.300	8.212	0.101
638.400	9.141	0.101
638.500	10.143	0.101
638.600	24.834	0.101
638.700	16.910	0.101
638.800	11.108	0.101
638.900	3.368	0.101
639.000	9.616	0.101
639.100	20.974	0.101
639.200	20.731	0.101
639.300	12.234	0.101
639.400	10.011	0.101
639.500	18.297	0.101
639.600	16.249	0.101
639.700	11.006	0.101
639.800	15.532	0.101
639.900	14.372	0.101
640.000	12.733	0.101
640.100	30.325	0.101
640.200	21.630	0.101
640.300	18.274	0.101
640.400	16.466	0.101
640.500	13.258	0.101
640.600	24.217	0.101
640.700	15.363	0.101
640.800	18.738	0.101
640.900	14.579	0.101
641.000	14.367	0.101
641.100	13.976	0.101
641.200	17.939	0.101
641.300	26.750	0.101
641.400	7.163	0.101
641.500	15.002	0.101
641.600	22.452	0.101
641.700	12.477	0.101
641.800	21.678	0.101
641.900	9.049	0.101
642.000	9.428	0.101
642.100	13.086	0.101
642.200	9.319	0.101
642.300	16.892	0.101
642.400	16.781	0.101
642.500	4.478	0.101
642.600	18.184	0.101
642.700	21.742	0.101
642.800	18.346	0.101
642.900	17.925	0.101
643.000	21.605	0.101
643.100	24.039	0.101
643.200	20.877	0.101
643.300	7.660	0.101
643.400	17.060	0.101
643.500	7.722	0.101
643.600	8.439	0.101
643.700	20.751	0.101
643.800	25.825	0.101
643.900	11.051	0.101
644.000	23.313	0.101
644.100	7.875	0.101
644.200	28.436	0.101
644.300	17.363	0.101
644.400	25.572	0.101
644.500	16.549	0.101
644.600	11.481	0.101
644.700	16.845	0.101
644.800	16.357	0.101
644.900	16.912	0.101
645.000	30.215	0.101
645.100	23.120	0.101
645.200	21.010	0.101
645.300	15.152	0.101
645.400	19.726	0.101
645.500	15.009	0.101
645.600	18.308	0.101
645.700	20.376	0.101
645.800	15.643	0.101
645.900	25.960	0.101
646.000	18.257	0.101
646.100	20.356	0.101
646.200	23.960	0.101
646.300	22.816	0.101
646.400	27.734	0.101
646.500	23.911	0.101
646.600	29.077	0.101
646.700	26.066	0.101
646.800	11.291	0.101
646.900	9.906	0.101
647.000	31.697	0.101
647.100	14.511	0.101
647.200	29.216	0.101
647.300	16.439	0.101
647.400	28.979	0.101
647.500	25.668	0.101
647.600	22.209	0.101
647.700	20.622	0.101
647.800	28.432	0.101
647.900	27.160	0.101
648.000	28.812	0.101
648.100	22.364	0.101
648.200	25.555	0.101
648.300	27.753	0.101
648.400	27.978	0.101
648.500	29.560	0.101
648.600	25.193	0.101
648.700	24.145	0.101
648.800	23.601	0.101
648.900	32.809	0.101
649.000	21.739	0.101
649.100	29.421	0.101
649.200	37.618	0.101
649.300	29.942	0.101
649.400	30.377	0.101
649.500	28.331	0.101
649.600	31.030	0.101
649.700	31.985	0.101
649.800	31.583	0.101
649.900	30.027	0.101
650.000	20.675	0.101
650.100	29.507	0.101
650.200	31.450	0.101
650.300	34.813	0.101
650.400	23.846	0.101
650.500	35.559	0.101
650.600	34.546	0.101
650.700	36.745	0.101
650.800	29.937	0.101
650.900	33.536	0.101
651.000	22.084	0.101
651.100	34.029	0.101
651.200	31.938	0.101
651.300	33.872	0.101
651.400	32.683	0.101
651.500	35.329	0.101
651.600	23.251	0.101
651.700	26.116	0.101
651.800	32.475	0.101
651.900	37.228	0.101
652.000	35.895	0.101
652.100	30.248	0.101
652.200	27.481	0.101
652.300	32.619	0.101
652.400	24.562	0.101
652.500	22.011	0.101
652.600	39.337	0.101
652.700	32.838	0.101
652.800	39.564	0.101
652.900	28.609	0.101
653.000	30.354	0.101
653.100	36.647	0.101
653.200	40.150	0.101
653.300	40.421	0.101
653.400	31.884	0.101
653.500	30.787	0.101
653.600	34.904	0.101
653.700	37.155	0.101
653.800	23.754	0.101
653.900	38.858	0.101
654.000	31.475	0.101
654.100	25.721	0.101
654.200	32.305	0.101
654.300	39.451	0.101
654.400	34.725	0.101
654.500	39.303	0.101
654.600	31.883	0.101
654.700	26.167	0.101
654.800	29.455	0.101
654.900	39.625	0.101
655.000	33.311	0.101
655.100	40.975	0.101
655.200	36.911	0.101
655.300	28.495	0.101
655.400	44.767	0.101
655.500	37.293	0.101
655.600	29.694	0.101
655.700	39.818	0.101
655.800	41.979	0.101
655.900	30.969	0.101
656.000	36.034	0.101
656.100	39.411	0.101
656.200	31.570	0.101
656.300	35.841	0.101
656.400	36.540	0.101
656.500	38.849	0.101
656.600	29.349	0.101
656.700	34.368	0.101
656.800	33.329	0.101
656.900	24.830	0.101
657.000	33.084	0.101
657.100	37.208	0.101
657.200	25.068	0.101
657.300	42.228	0.101
657.400	33.139	0.101
657.500	42.144	0.101
657.600	37.408	0.101
657.700	33.589	0.101
657.800	33.399	0.101
657.900	27.242	0.101
658.000	29.131	0.101
658.100	36.777	0.101
658.200	43.259	0.101
658.300	33.534	0.101
658.400	23.934	0.101
658.500	35.933	0.101
658.600	22.155	0.101
658.700	36.436	0.101
658.800	31.179	0.101
658.900	35.864	0.101
659.000	40.996	0.101
659.100	32.136	0.101
659.200	24.379	0.101
659.300	39.113	0.101
659.400	39.074	0.101
659.500	29.946	0.101
659.600	30.853	0.101
659.700	23.312	0.101
659.800	33.159	0.101
659.900	33.490	0.101
660.000	33.207	0.101
660.100	30.605	0.101
660.200	40.044	0.101
660.300	32.693	0.101
660.400	26.924	0.101
660.500	30.387	0.101
660.600	33.785	0.101
660.700	38.417	0.101
660.800	34.402	0.101
660.900	29.806	0.101
661.000	35.620	0.101
661.100	32.032	0.101
661.200	25.015	0.101
661.300	30.305	0.101
661.400	31.611	0.101
661.500	31.004	0.101
661.600	40.052	0.101
661.700	32.658	0.101
661.800	28.530	0.101
661.900	30.634	0.101
662.000	31.492	0.101
662.100	34.273	0.101
662.200	26.688	0.101
662.300	30.915	0.101
662.400	34.489	0.101
662.500	28.044	0.101
662.600	25.699	0.101
662.700	36.247	0.101
662.800	26.376	0.101
662.900	31.371	0.101
663.000	35.363	0.101
663.100	36.625	0.101
663.200	32.911	0.101
663.300	37.625	0.101
663.400	26.559	0.101
663.500	36.995	0.101
663.600	32.734	0.101
663.700	33.197	0.101
663.800	30.197	0.101
663.900	28.857	0.101
664.000	24.186	0.101
664.100	25.828	0.101
664.200	38.497	0.101
664.300	34.286	0.101
664.400	28.800	0.101
664.500	32.284	0.101
664.600	31.593	0.101
664.700	38.028	0.101
664.800	38.557	0.101
664.900	36.842	0.101
665.000	28.893	0.101
665.100	35.689	0.101
665.200	43.774	0.101
665.300	36.312	0.101
665.400	29.465	0.101
665.500	30.429	0.101
665.600	35.445	0.101
665.700	30.174	0.101
665.800	30.543	0.101
665.900	25.123	0.101
666.000	31.495	0.101
666.100	26.993	0.101
666.200	25.692	0.101
666.300	25.646	0.101
666.400	33.538	0.101
666.500	32.876	0.101
666.600	32.627	0.101
666.700	28.123	0.101
666.800	24.894	0.101
666.900	27.096	0.101
667.000	36.707	0.101
667.100	37.215	0.101
667.200	34.409	0.101
667.300	35.899	0.101
667.400	32.460	0.101
667.500	29.229	0.101
667.600	32.685	0.101
667.700	34.645	0.101
667.800	29.440	0.101
667.900	48.559	0.101
668.000	25.266	0.101
668.100	30.553	0.101
668.200	29.592	0.101
668.300	16.214	0.101
668.400	26.422	0.101
668.500	32.969	0.101
668.600	28.623	0.101
668.700	39.620	0.101
668.800	36.831	0.101
668.900	30.870	0.101
669.000	31.817	0.101
669.100	28.133	0.101
669.200	41.624	0.101
669.300	32.120	0.101
669.400	37.233	0.101
669.500	30.930	0.101
669.600	32.862	0.101
669.700	28.507	0.101
669.800	28.896	0.101
669.900	26.573	0.101
670.000	37.891	0.101
670.100	33.124	0.101
670.200	31.741	0.101
670.300	35.062	0.101
670.400	33.319	0.101
670.500	29.609	0.101
670.600	28.322	0.101
670.700	29.675	0.101
670.800	33.277	0.101
670.900	34.393	0.101
671.000	30.507	0.101
671.100	35.034	0.101
671.200	32.722	0.101
671.300	34.673	0.101
671.400	28.622	0.101
671.500	31.579	0.101
671.600	38.279	0.101
671.700	31.962	0.101
671.800	31.442	0.101
671.900	24.002	0.101
672.000	27.696	0.101
672.100	31.213	0.101
672.200	35.296	0.101
672.300	31.395	0.101
672.400	33.100	0.101
672.500	35.463	0.101
672.600	24.879	0.101
672.700	28.389	0.101
672.800	30.331	0.101
672.900	28.896	0.101
673.000	23.892	0.101
673.100	30.008	0.101
673.200	40.497	0.101
673.300	31.922	0.101
673.400	26.845	0.101
673.500	34.655	0.101
673.600	30.289	0.101
673.700	25.859	0.101
673.800	26.274	0.101
673.900	33.149	0.101
674.000	36.442	0.101
674.100	36.655	0.101
674.200	22.551	0.101
674.300	21.196	0.101
674.400	24.354	0.101
674.500	38.394	0.101
674.600	30.422	0.101
674.700	31.741	0.101
674.800	30.730	0.101
674.900	28.832	0.101
675.000	26.240	0.101
675.100	24.308	0.101
675.200	31.995	0.101
675.300	34.295	0.101
675.400	30.004	0.101
675.500	35.927	0.101
675.600	30.940	0.101
675.700	26.120	0.101
675.800	26.795	0.101
675.900	27.782	0.101
676.000	33.324	0.101
676.100	39.051	0.101
676.200	28.857	0.101
676.300	29.732	0.101
676.400	29.883	0.101
676.500	28.541	0.101
676.600	33.223	0.101
676.700	27.944	0.101
676.800	31.963	0.101
676.900	31.394	0.101
677.000	30.387	0.101
677.100	33.997	0.101
677.200	28.663	0.101
677.300	28.429	0.101
677.400	29.555	0.101
677.500	21.964	0.101
677.600	25.321	0.101
677.700	32.067	0.101
677.800	34.149	0.101
677.900	28.665	0.101
678.000	24.675	0.101
678.100	30.894	0.101
678.200	41.159	0.101
678.300	20.302	0.101
678.400	24.741	0.101
678.500	23.250	0.101
678.600	23.001	0.101
678.700	22.697	0.101
678.800	39.225	0.101
678.900	36.951	0.101
679.000	22.574	0.101
679.100	36.097	0.101
679.200	26.733	0.101
679.300	31.994	0.101
679.400	25.700	0.101
679.500	27.062	0.101
679.600	30.435	0.101
679.700	42.658	0.101
679.800	29.420	0.101
679.900	24.992	0.101
680.000	25.855	0.101
680.100	30.183	0.101
680.200	25.888	0.101
680.300	29.909	0.101
680.400	38.594	0.101
680.500	32.532	0.101
680.600	31.029	0.101
680.700	32.219	0.101
680.800	30.450	0.101
680.900	26.987	0.101
681.000	33.750	0.101
681.100	33.081	0.101
681.200	29.349	0.101
681.300	14.835	0.101
681.400	21.496	0.101
681.500	24.773	0.101
681.600	31.833	0.101
681.700	33.959	0.101
681.800	37.011	0.101
681.900	24.807	0.101
682.000	30.006	0.101
682.100	25.796	0.101
682.200	31.004	0.101
682.300	35.311	0.101
682.400	32.143	0.101
682.500	23.547	0.101
682.600	32.028	0.101
682.700	26.873	0.101
682.800	29.934	0.101
682.900	23.696	0.101
683.000	30.048	0.101
683.100	36.254	0.101
683.200	42.599	0.101
683.300	31.254	0.101
683.400	30.285	0.101
683.500	25.726	0.101
683.600	35.644	0.101
683.700	23.278	0.101
683.800	26.132	0.101
683.900	33.253	0.101
684.000	29.391	0.101
684.100	33.767	0.101
684.200	27.837	0.101
684.300	34.963	0.101
684.400	24.286	0.101
684.500	27.135	0.101
684.600	31.976	0.101
684.700	31.668	0.101
684.800	31.201	0.101
684.900	21.510	0.101
685.000	23.170	0.101
685.100	25.846	0.101
685.200	32.036	0.101
685.300	34.469	0.101
685.400	27.344	0.101
685.500	30.571	0.101
685.600	44.676	0.101
685.700	32.780	0.101
685.800	28.695	0.101
685.900	22.119	0.101
686.000	35.354	0.101
686.100	33.346	0.101
686.200	28.125	0.101
686.300	26.224	0.101
686.400	31.948	0.101
686.500	21.783	0.101
686.600	26.392	0.101
686.700	33.918	0.101
686.800	35.252	0.101
686.900	28.956	0.101
687.000	29.675	0.101
687.100	30.774	0.101
687.200	31.480	0.101
687.300	29.269	0.101
687.400	26.527	0.101
687.500	29.880	0.101
687.600	28.199	0.101
687.700	36.016	0.101
687.800	24.685	0.101
687.900	32.735	0.101
688.000	35.687	0.101
688.100	18.082	0.101
688.200	30.507	0.101
688.300	34.971	0.101
688.400	35.271	0.101
688.500	28.297	0.101
688.600	39.554	0.101
688.700	33.754	0.101
688.800	39.693	0.101
688.900	20.686	0.101
689.000	37.715	0.101
689.100	32.931	0.101
689.200	25.872	0.101
689.300	33.226	0.101
689.400	32.700	0.101
689.500	31.487	0.101
689.600	27.814	0.101
689.700	34.425	0.101
689.800	25.017	0.101
689.900	24.460	0.101
690.000	36.610	0.101
690.100	27.833	0.101
690.200	23.229	0.101
690.300	27.957	0.101
690.400	20.904	0.101
690.500	20.234	0.101
690.600	22.567	0.101
690.700	12.418	0.101
690.800	16.324	0.101
690.900	6.268	0.101
691.000	13.659	0.101
691.100	7.807	0.101
691.200	3.156	0.101
691.300	-3.985	0.101
691.400	-1.506	0.101
691.500	0.101	0.101
691.600	-3.266	0.101
691.700	-12.541	0.101
691.800	-10.192	0.101
691.900	-14.267	0.101
692.000	-9.596	0.101
692.100	-4.316	0.101
692.200	-13.290	0.101
692.300	-21.129	0.101
692.400	-5.521	0.101
692.500	-15.639	0.101
692.600	-9.551	0.101
692.700	-6.028	0.101
692.800	-16.850	0.101
692.900	-15.714	0.101
693.000	-17.615	0.101
693.100	-29.112	0.101
693.200	-30.732	0.101
693.300	-27.316	0.101
693.400	-19.705	0.101
693.500	-22.035	0.101
693.600	-23.259	0.101
693.700	-24.104	0.101
693.800	-12.144	0.101
693.900	-18.041	0.101
694.000	-28.389	0.101
694.100	-27.893	0.101
694.200	-10.304	0.101
694.300	-19.989	0.101
694.400	-21.539	0.101
694.500	-24.272	0.101
694.600	-6.356	0.101
694.700	-30.510	0.101
694.800	-20.433	0.101
694.900	-25.918	0.101
695.000	-21.296	0.101
695.100	-12.848	0.101
695.200	-30.165	0.101
695.300	-10.739	0.101
695.400	-16.432	0.101
695.500	-29.805	0.101
695.600	-20.674	0.101
695.700	-16.693	0.101
695.800	-18.413	0.101
695.900	-22.937	0.101
696.000	-25.162	0.101
696.100	-29.611	0.101
696.200	-13.837	0.101
696.300	-14.710	0.101
696.400	-17.839	0.101
696.500	-10.186	0.101
696.600	-16.801	0.101
696.700	-20.292	0.101
696.800	-22.679	0.101
696.900	-15.744	0.101
697.000	-18.238	0.101
697.100	-22.468	0.101
697.200	-14.827	0.101
697.300	-19.983	0.101
697.400	-21.738	0.101
697.500	-22.067	0.101
697.600	-11.007	0.101
697.700	-12.460	0.101
697.800	-13.077	0.101
697.900	-17.619	0.101
698.000	-23.201	0.101
698.100	-25.754	0.101
698.200	-22.813	0.101
698.300	-19.533	0.101
698.400	-14.961	0.101
698.500	-12.909	0.101
698.600	0.917	0.101
698.700	-19.721	0.101
698.800	-18.801	0.101
698.900	-16.178	0.101
699.000	-11.842	0.101
699.100	-19.190	0.101
699.200	-21.156	0.101
699.300	-23.691	0.101
699.400	-13.461	0.101
699.500	-24.628	0.101
699.600	-14.858	0.101
699.700	-12.353	0.101
699.800	-7.180	0.101
699.900	-27.599	0.101
700.000	-20.695	0.101
700.100	-19.542	0.101
700.200	-15.140	0.101
700.300	-10.638	0.101
700.400	-18.584	0.101
700.500	-13.236	0.101
700.600	-18.647	0.101
700.700	-21.364	0.101
700.800	-10.880	0.101
700.900	-18.814	0.101
701.000	-15.456	0.101
701.100	-24.079	0.101
701.200	-14.960	0.101
701.300	-13.706	0.101
701.400	-14.363	0.101
701.500	-14.247	0.101
701.600	-18.167	0.101
701.700	-12.355	0.101
701.800	-11.113	0.101
701.900	-20.661	0.101
702.000	-9.535	0.101
702.100	-15.013	0.101
702.200	-18.339	0.101
702.300	-16.072	0.101
702.400	-23.469	0.101
702.500	-8.763	0.101
702.600	-9.411	0.101
702.700	-13.600	0.101
702.800	-19.160	0.101
702.900	-26.309	0.101
703.000	-22.569	0.101
703.100	-26.827	0.101
703.200	-8.345	0.101
703.300	-17.339	0.101
703.400	-22.656	0.101
703.500	-32.089	0.101
703.600	-8.915	0.101
703.700	-14.304	0.101
703.800	-4.915	0.101
703.900	-8.268	0.101
704.000	-22.973	0.101
704.100	-17.455	0.101
704.200	-13.248	0.101
704.300	-19.651	0.101
704.400	-20.900	0.101
704.500	-22.321	0.101
704.600	-14.705	0.101
704.700	-18.872	0.101
704.800	-15.911	0.101
704.900	-16.276	0.101
705.000	-24.800	0.101
705.100	-21.455	0.101
705.200	-8.931	0.101
705.300	-19.842	0.101
705.400	-26.922	0.101
705.500	-17.811	0.101
705.600	-21.698	0.101
705.700	-10.197	0.101
705.800	-21.378	0.101
705.900	-22.167	0.101
706.000	-12.036	0.101
706.100	-28.599	0.101
706.200	-16.140	0.101
706.300	-17.402	0.101
706.400	-12.172	0.101
706.500	-15.445	0.101
706.600	-15.845	0.101
706.700	-23.853	0.101
706.800	-18.777	0.101
706.900	-26.474	0.101
707.000	-24.238	0.101
707.100	-18.096	0.101
707.200	-9.622	0.101
707.300	-16.035	0.101
707.400	-18.956	0.101
707.500	-19.650	0.101
707.600	-9.644	0.101
707.700	-17.552	0.101
707.800	-25.706	0.101
707.900	-28.278	0.101
708.000	-25.749	0.101
708.100	-21.913	0.101
708.200	-17.063	0.101
708.300	-16.006	0.101
708.400	-14.696	0.101
708.500	-18.770	0.101
708.600	-24.740	0.101
708.700	-19.098	0.101
708.800	-17.911	0.101
708.900	-22.278	0.101
709.000	-19.065	0.101
709.100	-14.853	0.101
709.200	-7.780	0.101
709.300	-32.859	0.101
709.400	-14.242	0.101
709.500	-22.673	0.101
709.600	-19.731	0.101
709.700	-8.744	0.101
709.800	-22.309	0.101
709.900	-19.654	0.101
710.000	-20.104	0.101
710.100	-14.643	0.101
710.200	-20.430	0.101
710.300	-18.190	0.101
710.400	-15.666	0.101
710.500	-22.704	0.101
710.600	-16.799	0.101
710.700	-21.516	0.101
710.800	-22.218	0.101
710.900	-13.576	0.101
711.000	-19.426	0.101
711.100	-9.222	0.101
711.200	-13.317	0.101
711.300	-21.338	0.101
711.400	-19.266	0.101
711.500	-15.832	0.101
711.600	-19.265	0.101
711.700	-23.206	0.101
711.800	-20.219	0.101
711.900	-17.159	0.101
712.000	-17.525	0.101
712.100	-21.882	0.101
712.200	-23.702	0.101
712.300	-10.792	0.101
712.400	-33.577	0.101
712.500	-24.057	0.101
712.600	-16.818	0.101
712.700	-21.462	0.101
712.800	-21.001	0.101
712.900	-22.825	0.101
713.000	-23.713	0.101
713.100	-26.297	0.101
713.200	-27.231	0.101
713.300	-23.779	0.101
713.400	-17.162	0.101
713.500	-19.937	0.101
713.600	-21.737	0.101
713.700	-13.005	0.101
713.800	-16.189	0.101
713.900	-33.141	0.101
714.000	-24.896	0.101
714.100	-28.343	0.101
714.200	-24.137	0.101
714.300	-20.092	0.101
714.400	-20.248	0.101
714.500	-12.762	0.101
714.600	-21.882	0.101
714.700	-18.586	0.101
714.800	-20.818	0.101
714.900	-17.134	0.101
715.000	-13.960	0.101
715.100	-23.332	0.101
715.200	-18.775	0.101
715.300	-18.172	0.101
715.400	-26.318	0.101
715.500	-13.643	0.101
715.600	-18.012	0.101
715.700	-17.890	0.101
715.800	-22.583	0.101
715.900	-14.969	0.101
716.000	-22.883	0.101
716.100	-17.311	0.101
716.200	-18.798	0.101
716.300	-21.449	0.101
716.400	-16.607	0.101
716.500	-17.093	0.101
716.600	-24.819	0.101
716.700	-19.536	0.101
716.800	-22.731	0.101
716.900	-24.079	0.101
717.000	-24.151	0.101
717.100	-17.375	0.101
717.200	-27.036	0.101
717.300	-19.607	0.101
717.400	-25.861	0.101
717.500	-16.917	0.101
717.600	-17.043	0.101
717.700	-20.530	0.101
717.800	-11.626	0.101
717.900	-19.908	0.101
718.000	-28.305	0.101
718.100	-21.774	0.101
718.200	-29.996	0.101
718.300	-24.135	0.101
718.400	-21.088	0.101
718.500	-11.508	0.101
718.600	-20.330	0.101
718.700	-21.587	0.101
718.800	-37.013	0.101
718.900	-12.024	0.101
719.000	-24.666	0.101
719.100	-20.387	0.101
719.200	-20.659	0.101
719.300	-27.585	0.101
719.400	-26.409	0.101
719.500	-23.313	0.101
719.600	-20.819	0.101
719.700	-20.283	0.101
719.800	-27.361	0.101
719.900	-19.641	0.101
720.000	-29.453	0.101
720.100	-21.965	0.101
720.200	-23.644	0.101
720.300	-15.568	0.101
720.400	-22.676	0.101
720.500	-20.959	0.101
720.600	-31.766	0.101
720.700	-18.231	0.101
720.800	-24.467	0.101
720.900	-22.806	0.101
721.000	-36.567	0.101
721.100	-22.726	0.101
721.200	-16.255	0.101
721.300	-17.691	0.101
721.400	-29.773	0.101
721.500	-18.146	0.101
721.600	-22.865	0.101
721.700	-19.265	0.101
721.800	-19.190	0.101
721.900	-20.676	0.101
722.000	-25.179	0.101
722.100	-18.547	0.101
722.200	-27.509	0.101
722.300	-17.517	0.101
722.400	-22.823	0.101
722.500	-21.754	0.101
722.600	-12.108	0.101
722.700	-22.704	0.101
722.800	-25.920	0.101
722.900	-20.365	0.101
723.000	-14.810	0.101
723.100	-19.603	0.101
723.200	-14.881	0.101
723.300	-12.089	0.101
723.400	-29.434	0.101
723.500	-19.895	0.101
723.600	-25.621	0.101
723.700	-20.429	0.101
723.800	-22.518	0.101
723.900	-21.456	0.101
724.000	-34.159	0.101
724.100	-23.890	0.101
724.200	-21.562	0.101
724.300	-11.752	0.101
724.400	-23.953	0.101
724.500	-20.529	0.101
724.600	-20.983	0.101
724.700	-21.097	0.101
724.800	-26.030	0.101
724.900	-26.494	0.101
725.000	-19.529	0.101
725.100	-23.108	0.101
725.200	-14.432	0.101
725.300	-16.491	0.101
725.400	-33.645	0.101
725.500	-21.923	0.101
725.600	-30.283	0.101
725.700	-34.249	0.101
725.800	-25.824	0.101
725.900	-17.632	0.101
726.000	-21.548	0.101
726.100	-14.592	0.101
726.200	-15.634	0.101
726.300	-22.632	0.101
726.400	-17.516	0.101
726.500	-22.150	0.101
726.600	-20.766	0.101
726.700	-17.642	0.101
726.800	-23.119	0.101
726.900	-9.438	0.101
727.000	-24.813	0.101
727.100	-13.862	0.101
727.200	-25.591	0.101
727.300	-27.384	0.101
727.400	-33.010	0.101
727.500	-19.576	0.101
727.600	-25.855	0.101
727.700	-18.039	0.101
727.800	-19.006	0.101
727.900	-23.419	0.101
728.000	-29.218	0.101
728.100	-25.448	0.101
728.200	-19.949	0.101
728.300	-25.841	0.101
728.400	-36.612	0.101
728.500	-22.179	0.101
728.600	-28.802	0.101
728.700	-14.535	0.101
728.800	-21.429	0.101
728.900	-27.175	0.101
729.000	-21.677	0.101
729.100	-15.568	0.101
729.200	-14.653	0.101
729.300	-21.940	0.101
729.400	-14.818	0.101
729.500	-18.493	0.101
729.600	-28.116	0.101
729.700	-22.349	0.101
729.800	-24.148	0.101
729.900	-18.828	0.101
730.000	-20.203	0.101
730.100	-15.076	0.101
730.200	-20.454	0.101
730.300	-22.734	0.101
730.400	-25.317	0.101
730.500	-30.231	0.101
730.600	-20.841	0.101
730.700	-16.276	0.101
730.800	-17.602	0.101
730.900	-24.576	0.101
731.000	-21.314	0.101
731.100	-32.918	0.101
731.200	-27.794	0.101
731.300	-16.624	0.101
731.400	-19.748	0.101
731.500	-15.693	0.101
731.600	-20.477	0.101
731.700	-25.285	0.101
731.800	-25.294	0.101
731.900	-18.156	0.101
732.000	-23.628	0.101
732.100	-11.555	0.101
732.200	-15.887	0.101
732.300	-10.989	0.101
732.400	-22.552	0.101
732.500	-25.539	0.101
732.600	-14.310	0.101
732.700	-21.581	0.101
732.800	-21.001	0.101
732.900	-21.237	0.101
733.000	-30.508	0.101
733.100	-23.014	0.101
733.200	-26.543	0.101
733.300	-22.215	0.101
733.400	-12.462	0.101
733.500	-16.000	0.101
733.600	-24.846	0.101
733.700	-7.489	0.101
733.800	-22.410	0.101
733.900	-18.697	0.101
734.000	-25.454	0.101
734.100	-27.696	0.100
734.200	-24.151	0.101
734.300	-20.866	0.101
734.400	-22.242	0.101
734.500	-23.044	0.101
734.600	-20.377	0.101
734.700	-19.499	0.101
734.800	-17.355	0.101
734.900	-14.461	0.101
735.000	-12.530	0.101
735.100	-18.309	0.101
735.200	-21.678	0.101
735.300	-14.046	0.101
735.400	-26.940	0.101
735.500	-16.260	0.101
735.600	-14.292	0.101
735.700	-23.255	0.101
735.800	-30.938	0.101
735.900	-20.714	0.101
736.000	-20.549	0.101
736.100	-20.001	0.101
736.200	-29.182	0.101
736.300	-20.122	0.101
736.400	-27.022	0.101
736.500	-18.637	0.101
736.600	-20.722	0.101
736.700	-30.683	0.101
736.800	-31.096	0.101
736.900	-13.214	0.101
737.000	-15.184	0.101
737.100	-21.508	0.101
737.200	-18.045	0.101
737.300	-24.266	0.101
737.400	-24.687	0.101
737.500	-25.103	0.101
737.600	-29.384	0.101
737.700	-26.225	0.101
737.800	-20.898	0.101
737.900	-15.173	0.101
738.000	-15.640	0.101
738.100	-18.079	0.101
738.200	-30.126	0.101
738.300	-17.936	0.101
738.400	-17.419	0.101
738.500	-23.538	0.101
738.600	-11.317	0.101
738.700	-27.646	0.101
738.800	-18.391	0.101
738.900	-14.734	0.101
739.000	-18.452	0.101
739.100	-23.251	0.101
739.200	-25.186	0.101
739.300	-17.104	0.101
739.400	-25.436	0.101
739.500	-5.313	0.101
739.600	-16.287	0.101
739.700	-25.593	0.101
739.800	-13.469	0.101
739.900	-27.778	0.101
740.000	-11.349	0.101
740.100	-23.328	0.101
740.200	-19.332	0.101
740.300	-29.150	0.101
740.400	-26.581	0.101
740.500	-25.680	0.101
740.600	-17.204	0.101
740.700	-14.883	0.101
740.800	-21.262	0.101
740.900	-30.130	0.101
741.000	-16.243	0.101
741.100	-23.947	0.101
741.200	-27.112	0.101
741.300	-10.136	0.101
741.400	-18.165	0.101
741.500	-20.346	0.101
741.600	-9.374	0.101
741.700	-14.743	0.101
741.800	-23.087	0.101
741.900	-21.664	0.101
742.000	-12.448	0.101
742.100	-25.033	0.101
742.200	-24.153	0.101
742.300	-28.294	0.101
742.400	-15.089	0.101
742.500	-22.188	0.101
742.600	-10.828	0.101
742.700	-23.657	0.101
742.800	-18.618	0.101
742.900	-22.997	0.101
743.000	-17.440	0.101
743.100	-20.442	0.101
743.200	-22.561	0.101
743.300	-24.138	0.101
743.400	-14.059	0.101
743.500	-19.800	0.101
743.600	-15.046	0.101
743.700	-24.400	0.101
743.800	-23.029	0.101
743.900	-17.074	0.101
744.000	-13.378	0.101
744.100	-15.686	0.101
744.200	-15.574	0.101
744.300	-18.908	0.101
744.400	-19.331	0.101
744.500	-28.730	0.101
744.600	-27.198	0.101
744.700	-26.984	0.101
744.800	-12.302	0.101
744.900	-22.695	0.101
745.000	-15.514	0.101
745.100	-22.170	0.101
745.200	-16.854	0.101
745.300	-21.340	0.101
745.400	-18.521	0.101
745.500	-16.993	0.101
745.600	-18.458	0.101
745.700	-25.312	0.101
745.800	-20.731	0.101
745.900	-19.796	0.101
746.000	-11.920	0.101
746.100	-9.279	0.101
746.200	-13.852	0.101
746.300	-20.290	0.101
746.400	-13.494	0.101
746.500	-11.227	0.101
746.600	-24.523	0.101
746.700	-27.175	0.101
746.800	-12.922	0.101
746.900	-17.772	0.101
747.000	-15.236	0.101
747.100	-32.093	0.101
747.200	-16.094	0.101
747.300	-18.153	0.101
747.400	-37.472	0.101
747.500	-13.949	0.101
747.600	-13.479	0.101
747.700	-20.128	0.101
747.800	-16.168	0.101
747.900	-17.418	0.101
748.000	-11.865	0.101
748.100	-15.516	0.101
748.200	-16.215	0.101
748.300	-19.231	0.101
748.400	-23.119	0.101
748.500	-18.283	0.101
748.600	-22.727	0.101
748.700	-21.037	0.101
748.800	-25.531	0.101
748.900	-9.431	0.101
749.000	-9.891	0.101
749.100	-12.780	0.101
749.200	-10.154	0.101
749.300	-20.036	0.101
749.400	-26.017	0.101
749.500	-10.071	0.101
749.600	-12.611	0.101
749.700	-22.149	0.101
749.800	-11.656	0.101
749.900	-21.275	0.101
750.000	-22.194	0.101
750.100	-20.231	0.101
750.200	-12.314	0.101
750.300	-15.677	0.101
750.400	-26.570	0.101
750.500	-12.293	0.101
750.600	-18.717	0.101
750.700	-15.270	0.101
750.800	-18.517	0.101
750.900	-16.091	0.101
751.000	-26.631	0.101
751.100	-19.103	0.101
751.200	-16.138	0.101
751.300	-19.248	0.101
751.400	-7.976	0.101
751.500	-24.293	0.101
751.600	-10.065	0.101
751.700	-18.279	0.101
751.800	-15.677	0.101
751.900	-14.806	0.101
752.000	-21.607	0.101
752.100	-19.506	0.101
752.200	-21.671	0.101
752.300	-22.315	0.101
752.400	-5.644	0.101
752.500	-20.743	0.101
752.600	-20.523	0.101
752.700	-20.683	0.101
752.800	-17.336	0.101
752.900	-23.596	0.101
753.000	-17.471	0.101
753.100	-16.364	0.101
753.200	-9.257	0.101
753.300	-16.282	0.101
753.400	-16.539	0.101
753.500	-18.051	0.101
753.600	-19.669	0.101
753.700	-22.684	0.101
753.800	-6.424	0.101
753.900	-17.406	0.101
754.000	-16.160	0.101
754.100	-19.068	0.101
754.200	-17.234	0.101
754.300	-19.417	0.101
754.400	-14.665	0.101
754.500	-18.979	0.101
754.600	-14.592	0.101
754.700	-22.932	0.101
754.800	-17.364	0.101
754.900	-16.893	0.101
755.000	-11.755	0.101
755.100	-24.249	0.101
755.200	-15.009	0.101
755.300	-25.562	0.101
755.400	-20.652	0.101
755.500	-26.365	0.101
755.600	-9.707	0.101
755.700	-21.375	0.101
755.800	-18.753	0.101
755.900	-21.309	0.101
756.000	-8.273	0.101
756.100	-15.932	0.101
756.200	-12.805	0.101
756.300	-23.858	0.101
756.400	-21.650	0.101
756.500	-17.103	0.101
756.600	-9.875	0.101
756.700	-17.074	0.101
756.800	-13.095	0.101
756.900	-14.092	0.101
757.000	-7.055	0.101
757.100	-22.661	0.101
757.200	-11.661	0.101
757.300	-13.655	0.101
757.400	-22.337	0.101
757.500	-13.859	0.101
757.600	-14.355	0.101
757.700	-18.920	0.101
757.800	-11.538	0.101
757.900	-23.796	0.101
758.000	-21.684	0.101
758.100	-9.412	0.101
758.200	-19.782	0.101
758.300	-17.264	0.101
758.400	-9.949	0.101
758.500	-16.467	0.101
758.600	-18.225	0.101
758.700	-21.022	0.101
758.800	-25.104	0.101
758.900	-20.089	0.101
759.000	-11.667	0.101
759.100	-15.078	0.101
759.200	-22.438	0.101
759.300	-19.543	0.101
759.400	-17.619	0.101
759.500	-20.434	0.101
759.600	-14.705	0.101
759.700	-15.853	0.101
759.800	-15.429	0.101
759.900	-15.734	0.101
760.000	-11.984	0.101
760.100	-19.958	0.101
760.200	-20.547	0.101
760.300	-23.413	0.101
760.400	-14.237	0.101
760.500	-12.804	0.101
760.600	-22.126	0.101
760.700	-19.741	0.101
760.800	-14.729	0.101
760.900	-29.177	0.101
761.000	-11.998	0.101
761.100	-18.001	0.101
761.200	-20.525	0.101
761.300	-16.031	0.101
761.400	-8.863	0.101
761.500	-9.199	0.101
761.600	-11.333	0.101
761.700	-17.177	0.101
761.800	-13.789	0.101
761.900	-24.176	0.101
762.000	-18.988	0.101
762.100	-16.027	0.101
762.200	-7.204	0.101
762.300	-15.395	0.101
762.400	-15.770	0.101
762.500	-16.185	0.101
762.600	-16.106	0.101
762.700	-16.701	0.101
762.800	-20.179	0.101
762.900	-18.914	0.101
763.000	-20.399	0.101
763.100	-7.701	0.101
763.200	-18.477	0.101
763.300	-13.065	0.101
763.400	-8.853	0.101
763.500	-18.620	0.101
763.600	-16.401	0.101
763.700	-17.876	0.101
763.800	-11.000	0.101
763.900	-13.081	0.101
764.000	-13.294	0.101
764.100	-15.402	0.101
764.200	-3.662	0.101
764.300	-6.028	0.101
764.400	-18.561	0.101
764.500	-22.175	0.101
764.600	-25.503	0.101
764.700	-17.765	0.101
764.800	-8.453	0.101
764.900	-12.540	0.101
765.000	-20.959	0.101
765.100	-20.451	0.101
765.200	-20.688	0.101
765.300	-9.715	0.101
765.400	-17.704	0.101
765.500	-20.787	0.101
765.600	-4.107	0.101
765.700	-13.898	0.101
765.800	-13.449	0.101
765.900	-21.044	0.101
766.000	-12.169	0.101
766.100	-13.078	0.101
766.200	-23.895	0.101
766.300	-21.748	0.101
766.400	-14.673	0.101
766.500	-14.451	0.101
766.600	-20.446	0.101
766.700	-13.899	0.101
766.800	-4.385	0.101
766.900	-12.341	0.101
767.000	-12.143	0.101
767.100	-9.146	0.101
767.200	-18.578	0.101
767.300	-8.479	0.101
767.400	-18.300	0.101
767.500	-21.271	0.101
767.600	-16.256	0.101
767.700	-17.773	0.101
767.800	-21.432	0.101
767.900	-4.905	0.101
768.000	-12.718	0.101
768.100	-12.486	0.101
768.200	-16.840	0.101
768.300	-5.555	0.101
768.400	-11.778	0.101
768.500	-15.642	0.101
768.600	-12.929	0.101
768.700	-16.937	0.101
768.800	-20.808	0.101
768.900	-16.544	0.101
769.000	-13.679	0.101
769.100	-17.844	0.101
769.200	-15.607	0.101
769.300	-8.955	0.101
769.400	-15.939	0.101
769.500	-10.133	0.101
769.600	-17.337	0.101
769.700	-14.288	0.101
769.800	-15.648	0.101
769.900	-20.827	0.101
770.000	-23.755	0.101
770.100	-21.891	0.101
770.200	-21.373	0.101
770.300	-9.764	0.101
770.400	-14.307	0.101
770.500	-4.127	0.101
770.600	-13.025	0.101
770.700	-12.337	0.101
770.800	-21.745	0.101
770.900	-11.020	0.101
771.000	-9.651	0.101
771.100	-4.249	0.101
771.200	-5.214	0.101
771.300	-18.707	0.101
771.400	-8.612	0.101
771.500	-9.959	0.101
771.600	-16.604	0.101
771.700	-16.408	0.101
771.800	-14.719	0.101
771.900	-23.467	0.101
772.000	-20.695	0.101
772.100	-20.713	0.101
772.200	-13.761	0.101
772.300	-7.040	0.101
772.400	-18.199	0.101
772.500	-15.977	0.101
772.600	-10.797	0.101
772.700	-18.445	0.101
772.800	-17.891	0.101
772.900	-7.627	0.101
773.000	-17.600	0.101
773.100	-7.902	0.101
773.200	-14.264	0.101
773.300	-19.070	0.101
773.400	-18.690	0.101
773.500	-11.453	0.101
773.600	-22.412	0.101
773.700	-16.774	0.101
773.800	-10.901	0.101
773.900	-8.262	0.101
774.000	-18.336	0.101
774.100	-5.349	0.101
774.200	-19.861	0.101
774.300	-19.839	0.101
774.400	-13.862	0.101
774.500	-21.463	0.101
774.600	-20.553	0.101
774.700	2.840	0.101
774.800	-0.455	0.101
774.900	-6.172	0.101
775.000	-19.507	0.101
775.100	-11.854	0.101
775.200	-21.847	0.101
775.300	-9.474	0.101
775.400	-18.645	0.101
775.500	-17.658	0.101
775.600	-12.914	0.101
775.700	-9.818	0.101
775.800	-24.185	0.101
775.900	-5.985	0.101
776.000	-19.143	0.101
776.100	-13.596	0.101
776.200	-17.374	0.101
776.300	-9.574	0.101
776.400	-15.060	0.101
776.500	-16.055	0.101
776.600	-18.221	0.101
776.700	-14.747	0.101
776.800	-5.397	0.101
776.900	-12.669	0.101
777.000	-10.449	0.101
777.100	-8.958	0.101
777.200	-11.935	0.101
777.300	-19.113	0.101
777.400	-17.989	0.101
777.500	-24.313	0.101
777.600	-15.055	0.101
777.700	-16.766	0.101
777.800	-8.244	0.101
777.900	-21.290	0.101
778.000	-19.370	0.101
778.100	-17.002	0.101
778.200	-13.473	0.101
778.300	-9.657	0.101
778.400	-17.519	0.101
778.500	-17.542	0.101
778.600	-16.612	0.101
778.700	-7.284	0.101
778.800	-5.432	0.101
778.900	-15.784	0.101
779.000	-21.564	0.101
779.100	-8.098	0.101
779.200	-9.716	0.101
779.300	-5.849	0.101
779.400	-12.184	0.101
779.500	-10.808	0.101
779.600	-21.305	0.101
779.700	-11.840	0.101
779.800	-18.298	0.101
779.900	-20.300	0.101
780.000	-12.742	0.101
780.100	-15.451	0.101
780.200	-10.853	0.101
780.300	-5.007	0.101
780.400	-3.770	0.101
780.500	-8.733	0.101
780.600	2.203	0.101
780.700	-0.203	0.101
780.800	-2.206	0.101
780.900	2.330	0.101
781.000	-2.600	0.101
781.100	15.333	0.101
781.200	15.424	0.101
781.300	12.533	0.101
781.400	12.927	0.101
781.500	20.933	0.101
781.600	11.404	0.101
781.700	20.346	0.101
781.800	22.085	0.101
781.900	17.541	0.101
782.000	25.511	0.101
782.100	19.433	0.101
782.200	26.852	0.101
782.300	19.607	0.101
782.400	23.310	0.101
782.500	33.872	0.101
782.600	23.477	0.101
782.700	17.608	0.101
782.800	15.728	0.101
782.900	26.292	0.101
783.000	23.913	0.101
783.100	39.092	0.101
783.200	12.338	0.101
783.300	25.097	0.101
783.400	26.298	0.101
783.500	23.557	0.101
783.600	19.627	0.101
783.700	42.686	0.101
783.800	10.806	0.101
783.900	24.799	0.101
784.000	19.741	0.101
784.100	30.628	0.101
784.200	24.068	0.101
784.300	24.135	0.101
784.400	16.816	0.101
784.500	21.463	0.101
784.600	31.876	0.101
784.700	30.824	0.101
784.800	16.198	0.101
784.900	12.198	0.101
785.000	24.564	0.101
785.100	18.027	0.101
785.200	10.482	0.101
785.300	20.695	0.101
785.400	15.020	0.101
785.500	27.930	0.101
785.600	15.259	0.101
785.700	18.544	0.101
785.800	20.226	0.101
785.900	20.735	0.101
786.000	19.016	0.101
786.100	18.944	0.101
786.200	16.085	0.101
786.300	15.013	0.101
786.400	15.684	0.101
786.500	15.617	0.101
786.600	15.855	0.101
786.700	16.566	0.101
786.800	18.252	0.101
786.900	15.764	0.101
787.000	21.062	0.101
787.100	21.718	0.101
787.200	19.280	0.101
787.300	11.521	0.101
787.400	8.248	0.101
787.500	5.047	0.101
787.600	15.147	0.101
787.700	18.071	0.101
787.800	19.195	0.101
787.900	19.166	0.101
788.000	9.682	0.101
788.100	19.033	0.101
788.200	8.626	0.101
788.300	24.836	0.101
788.400	18.320	0.101
788.500	11.014	0.101
788.600	8.459	0.101
788.700	15.949	0.101
788.800	9.072	0.101
788.900	10.112	0.101
789.000	12.207	0.101
789.100	11.803	0.101
789.200	15.039	0.101
789.300	30.766	0.101
789.400	13.093	0.101
789.500	2.084	0.101
789.600	17.546	0.101
789.700	7.744	0.101
789.800	12.949	0.101
789.900	24.681	0.101
790.000	26.421	0.101
790.100	18.830	0.101
790.200	20.349	0.101
790.300	12.959	0.101
790.400	14.009	0.101
790.500	10.831	0.101
790.600	15.188	0.101
790.700	8.319	0.101
790.800	17.508	0.101
790.900	17.809	0.101
791.000	14.877	0.101
791.100	10.423	0.101
791.200	16.168	0.101
791.300	7.810	0.101
791.400	18.071	0.101
791.500	21.366	0.101
791.600	14.093	0.101
791.700	7.547	0.101
791.800	8.224	0.101
791.900	18.792	0.101
792.000	15.089	0.101
792.100	25.225	0.101
792.200	16.806	0.101
792.300	23.135	0.101
792.400	14.438	0.101
792.500	13.793	0.101
792.600	11.520	0.101
792.700	17.975	0.101
792.800	11.552	0.101
792.900	23.811	0.101
793.000	12.133	0.101
793.100	8.251	0.101
793.200	15.818	0.101
793.300	21.779	0.101
793.400	10.034	0.101
793.500	12.906	0.101
793.600	22.955	0.101
793.700	19.564	0.101
793.800	17.103	0.101
793.900	27.844	0.101
794.000	10.197	0.101
794.100	16.894	0.101
794.200	22.864	0.101
794.300	16.922	0.101
794.400	18.687	0.101
794.500	28.151	0.101
794.600	9.013	0.101
794.700	24.765	0.101
794.800	23.285	0.101
794.900	18.387	0.101
795.000	28.104	0.101
795.100	16.107	0.101
795.200	18.496	0.101
795.300	18.327	0.101
795.400	22.875	0.101
795.500	21.352	0.101
795.600	7.417	0.101
795.700	21.821	0.101
795.800	26.403	0.101
795.900	26.911	0.101
796.000	19.249	0.101
796.100	16.689	0.101
796.200	21.124	0.101
796.300	16.132	0.101
796.400	23.992	0.101
796.500	20.204	0.101
796.600	14.412	0.101
796.700	24.005	0.101
796.800	23.571	0.101
796.900	18.264	0.101
797.000	21.077	0.101
797.100	13.124	0.101
797.200	28.472	0.101
797.300	26.375	0.101
797.400	22.614	0.101
797.500	19.218	0.101
797.600	13.882	0.101
797.700	24.289	0.101
797.800	28.210	0.101
797.900	19.125	0.101
798.000	28.266	0.101
798.100	24.197	0.101
798.200	18.853	0.101
798.300	26.405	0.101
798.400	28.559	0.101
798.500	24.676	0.101
798.600	24.263	0.101
798.700	22.474	0.101
798.800	22.965	0.101
798.900	16.910	0.101
799.000	23.456	0.101
799.100	27.136	0.101
799.200	25.661	0.101
799.300	30.122	0.101
799.400	28.692	0.101
799.500	26.194	0.101
799.600	26.702	0.101
799.700	24.587	0.101
799.800	26.662	0.101
799.900	23.606	0.101
800.000	23.911	0.101
