time /s	I /nA	E /V
0.100	-9.615	0.101
0.200	-13.134	0.101
0.300	-11.440	0.101
0.400	-5.754	0.101
0.500	-16.328	0.101
0.600	-9.115	0.101
0.700	-0.733	0.101
0.800	-4.314	0.101
0.900	-4.981	0.101
1.000	-11.729	0.101
1.100	-11.657	0.101
1.200	-12.155	0.101
1.300	-14.379	0.101
1.400	-0.051	0.101
1.500	-4.979	0.101
1.600	-15.336	0.101
1.700	-10.213	0.101
1.800	-2.618	0.101
1.900	-6.908	0.101
2.000	-15.679	0.101
2.100	-1.481	0.101
2.200	-6.648	0.101
2.300	-7.357	0.101
2.400	-14.942	0.101
2.500	-7.676	0.101
2.600	-10.561	0.101
2.700	3.775	0.101
2.800	-14.496	0.101
2.900	-16.043	0.101
3.000	-7.551	0.101
3.100	-0.413	0.101
3.200	-10.257	0.101
3.300	-5.869	0.101
3.400	-8.493	0.101
3.500	-10.607	0.101
3.600	-5.826	0.101
3.700	-9.805	0.101
3.800	-12.236	0.101
3.900	-9.061	0.101
4.000	-14.856	0.101
4.100	-16.511	0.101
4.200	-10.519	0.101
4.300	-2.241	0.101
4.400	-8.305	0.101
4.500	-11.759	0.101
4.600	-10.084	0.101
4.700	-1.385	0.101
4.800	-12.670	0.101
4.900	-8.324	0.101
5.000	-8.214	0.101
5.100	-1.950	0.101
5.200	-9.469	0.101
5.300	6.561	0.101
5.400	-11.380	0.101
5.500	-13.544	0.101
5.600	-15.708	0.101
5.700	-6.792	0.101
5.800	-14.279	0.101
5.900	-7.526	0.101
6.000	-9.199	0.101
6.100	-13.416	0.101
6.200	-20.408	0.101
6.300	-16.631	0.101
6.400	-8.825	0.101
6.500	1.010	0.101
6.600	-1.306	0.101
6.700	-3.238	0.101
6.800	-10.042	0.101
6.900	-16.521	0.101
7.000	-13.644	0.101
7.100	-9.482	0.101
7.200	-13.336	0.101
7.300	2.716	0.101
7.400	-10.490	0.101
7.500	-0.979	0.101
7.600	-20.350	0.101
7.700	-2.169	0.101
7.800	-2.136	0.101
7.900	-8.470	0.101
8.000	-15.875	0.101
8.100	-9.001	0.101
8.200	-13.363	0.101
8.300	-8.921	0.101
8.400	-3.204	0.101
8.500	-13.904	0.101
8.600	-12.131	0.101
8.700	-6.548	0.101
8.800	-12.442	0.101
8.900	-5.930	0.101
9.000	-4.245	0.101
9.100	-15.726	0.101
9.200	-9.097	0.101
9.300	-8.070	0.101
9.400	-12.110	0.101
9.500	-7.456	0.101
9.600	-4.196	0.101
9.700	-8.586	0.101
9.800	-13.795	0.101
9.900	-5.158	0.101
10.000	-8.457	0.101
10.100	0.366	0.101
10.200	-15.704	0.101
10.300	-15.084	0.101
10.400	-11.272	0.101
10.500	3.394	0.101
10.600	-9.014	0.101
10.700	-11.557	0.101
10.800	-10.039	0.101
10.900	-12.355	0.101
11.000	-10.798	0.101
11.100	-5.475	0.101
11.200	-9.070	0.101
11.300	-6.153	0.101
11.400	-7.000	0.101
11.500	-3.587	0.101
11.600	-15.920	0.101
11.700	-6.601	0.101
11.800	-20.579	0.101
11.900	-3.310	0.101
12.000	-11.110	0.101
12.100	2.041	0.101
12.200	-9.182	0.101
12.300	-2.548	0.101
12.400	-13.042	0.101
12.500	-15.395	0.101
12.600	-10.499	0.101
12.700	-13.664	0.101
12.800	-8.930	0.101
12.900	-0.208	0.101
13.000	-11.031	0.101
13.100	-6.532	0.101
13.200	-10.991	0.101
13.300	-12.575	0.101
13.400	-13.081	0.101
13.500	-6.755	0.101
13.600	-8.998	0.101
13.700	-4.751	0.101
13.800	-9.157	0.101
13.900	-0.487	0.101
14.000	-12.730	0.101
14.100	-3.494	0.101
14.200	-10.144	0.101
14.300	-9.162	0.101
14.400	2.495	0.101
14.500	-14.238	0.101
14.600	-6.591	0.101
14.700	-6.933	0.101
14.800	-4.403	0.101
14.900	-6.472	0.101
15.000	-2.174	0.101
15.100	1.436	0.101
15.200	-4.765	0.101
15.300	-14.865	0.101
15.400	-10.996	0.101
15.500	-10.207	0.101
15.600	-10.582	0.101
15.700	-11.392	0.101
15.800	-1.728	0.101
15.900	-7.445	0.101
16.000	-10.650	0.101
16.100	-8.539	0.101
16.200	-12.875	0.101
16.300	-4.947	0.101
16.400	-13.423	0.101
16.500	-3.754	0.101
16.600	0.671	0.101
16.700	-3.127	0.101
16.800	-3.855	0.101
16.900	-9.057	0.101
17.000	-15.119	0.101
17.100	-2.878	0.101
17.200	-1.851	0.101
17.300	-11.560	0.101
17.400	-9.798	0.101
17.500	-2.157	0.101
17.600	-6.353	0.101
17.700	-1.784	0.101
17.800	-7.891	0.101
17.900	-9.392	0.101
18.000	-9.386	0.101
18.100	-3.395	0.101
18.200	-0.311	0.101
18.300	-3.611	0.101
18.400	-4.908	0.101
18.500	-10.445	0.101
18.600	-8.416	0.101
18.700	-7.202	0.101
18.800	-9.162	0.101
18.900	-7.814	0.101
19.000	-3.449	0.101
19.100	-15.643	0.101
19.200	-7.975	0.101
19.300	-12.756	0.101
19.400	-0.160	0.101
19.500	-1.469	0.101
19.600	-13.627	0.101
19.700	-13.039	0.101
19.800	-10.351	0.101
19.900	-7.517	0.101
20.000	-2.326	0.101
20.100	-14.816	0.101
20.200	-15.766	0.101
20.300	-4.897	0.101
20.400	-7.122	0.101
20.500	-2.124	0.101
20.600	-13.143	0.101
20.700	-7.852	0.101
20.800	3.855	0.101
20.900	-8.845	0.101
21.000	-5.758	0.101
21.100	-0.186	0.101
21.200	-9.802	0.101
21.300	-20.901	0.101
21.400	-7.990	0.101
21.500	-13.353	0.101
21.600	-13.878	0.101
21.700	1.482	0.101
21.800	-2.223	0.101
21.900	-17.411	0.101
22.000	-1.341	0.101
22.100	-8.347	0.101
22.200	-2.048	0.101
22.300	-14.359	0.101
22.400	-15.044	0.101
22.500	-11.370	0.101
22.600	-10.964	0.101
22.700	-8.277	0.101
22.800	-4.505	0.101
22.900	-11.382	0.101
23.000	-3.852	0.101
23.100	3.510	0.101
23.200	-6.749	0.101
23.300	-20.644	0.101
23.400	-11.245	0.101
23.500	-6.926	0.101
23.600	-17.528	0.101
23.700	-4.196	0.101
23.800	-10.722	0.101
23.900	-9.731	0.101
24.000	-12.721	0.101
24.100	-7.064	0.101
24.200	1.247	0.101
24.300	-5.077	0.101
24.400	-8.784	0.101
24.500	-6.178	0.101
24.600	-7.062	0.101
24.700	-9.606	0.101
24.800	-9.462	0.101
24.900	-6.376	0.101
25.000	0.249	0.101
25.100	-11.494	0.101
25.200	-4.064	0.101
25.300	-1.979	0.101
25.400	-2.462	0.101
25.500	-7.829	0.101
25.600	-12.144	0.101
25.700	-13.647	0.101
25.800	-3.060	0.101
25.900	4.115	0.101
26.000	-3.680	0.101
26.100	-16.043	0.101
26.200	-20.845	0.101
26.300	-10.564	0.101
26.400	-7.355	0.101
26.500	-4.686	0.101
26.600	-9.790	0.101
26.700	-9.965	0.101
26.800	-8.999	0.101
26.900	-10.757	0.101
27.000	-1.819	0.101
27.100	-7.774	0.101
27.200	-16.491	0.101
27.300	-9.278	0.101
27.400	-15.006	0.101
27.500	-7.983	0.101
27.600	-13.436	0.101
27.700	0.730	0.101
27.800	3.721	0.101
27.900	-16.645	0.101
28.000	-13.780	0.101
28.100	-9.518	0.101
28.200	-8.366	0.101
28.300	-5.130	0.101
28.400	-3.989	0.101
28.500	-5.837	0.101
28.600	-10.531	0.101
28.700	-17.756	0.101
28.800	-6.712	0.101
28.900	-9.889	0.101
29.000	1.673	0.101
29.100	-6.693	0.101
29.200	-5.005	0.101
29.300	-10.399	0.101
29.400	-0.540	0.101
29.500	-3.950	0.101
29.600	-9.802	0.101
29.700	-10.161	0.101
29.800	-7.953	0.101
29.900	-4.821	0.101
30.000	-10.096	0.101
30.100	-10.543	0.101
30.200	-1.057	0.101
30.300	-15.189	0.101
30.400	-3.877	0.101
30.500	-3.888	0.101
30.600	13.427	0.101
30.700	1.463	0.101
30.800	3.081	0.101
30.900	-5.116	0.101
31.000	9.041	0.101
31.100	7.021	0.101
31.200	16.840	0.101
31.300	8.524	0.101
31.400	10.095	0.101
31.500	10.714	0.101
31.600	21.363	0.101
31.700	23.959	0.101
31.800	36.362	0.101
31.900	14.714	0.101
32.000	21.322	0.101
32.100	21.798	0.101
32.200	23.055	0.101
32.300	20.197	0.101
32.400	20.629	0.101
32.500	18.656	0.101
32.600	25.861	0.101
32.700	21.227	0.101
32.800	17.634	0.101
32.900	24.969	0.101
33.000	33.653	0.101
33.100	16.942	0.101
33.200	30.642	0.101
33.300	16.806	0.101
33.400	18.400	0.101
33.500	13.789	0.101
33.600	32.438	0.101
33.700	20.993	0.101
33.800	18.506	0.101
33.900	16.445	0.101
34.000	15.327	0.101
34.100	24.286	0.101
34.200	30.883	0.101
34.300	29.347	0.101
34.400	17.331	0.101
34.500	17.209	0.101
34.600	24.074	0.101
34.700	21.755	0.101
34.800	18.045	0.101
34.900	19.795	0.101
35.000	15.140	0.101
35.100	9.081	0.101
35.200	17.960	0.101
35.300	20.186	0.101
35.400	14.706	0.101
35.500	16.892	0.101
35.600	15.946	0.101
35.700	19.263	0.101
35.800	16.627	0.101
35.900	13.446	0.101
36.000	9.124	0.101
36.100	20.230	0.101
36.200	29.185	0.101
36.300	11.128	0.101
36.400	13.165	0.101
36.500	4.329	0.101
36.600	12.153	0.101
36.700	5.484	0.101
36.800	25.627	0.101
36.900	25.091	0.101
37.000	15.366	0.101
37.100	19.067	0.101
37.200	9.154	0.101
37.300	12.182	0.101
37.400	17.182	0.101
37.500	9.018	0.101
37.600	15.622	0.101
37.700	8.769	0.101
37.800	12.202	0.101
37.900	18.706	0.101
38.000	16.967	0.101
38.100	7.968	0.101
38.200	24.403	0.101
38.300	15.383	0.101
38.400	12.060	0.101
38.500	11.020	0.101
38.600	10.914	0.101
38.700	1.271	0.101
38.800	17.434	0.101
38.900	15.879	0.101
39.000	21.129	0.101
39.100	3.725	0.101
39.200	17.164	0.101
39.300	16.429	0.101
39.400	6.704	0.101
39.500	11.770	0.101
39.600	11.778	0.101
39.700	10.089	0.101
39.800	11.021	0.101
39.900	16.654	0.101
40.000	12.136	0.101
40.100	27.050	0.101
40.200	24.697	0.101
40.300	16.087	0.101
40.400	31.149	0.101
40.500	10.629	0.101
40.600	17.140	0.101
40.700	15.047	0.101
40.800	19.839	0.101
40.900	14.716	0.101
41.000	18.619	0.101
41.100	17.525	0.101
41.200	11.505	0.101
41.300	16.320	0.101
41.400	9.856	0.101
41.500	22.386	0.101
41.600	22.486	0.101
41.700	26.455	0.101
41.800	15.770	0.101
41.900	10.251	0.101
42.000	20.703	0.101
42.100	15.730	0.101
42.200	19.169	0.101
42.300	14.706	0.101
42.400	23.557	0.101
42.500	25.353	0.101
42.600	28.703	0.101
42.700	20.266	0.101
42.800	15.275	0.101
42.900	27.251	0.101
43.000	17.029	0.101
43.100	23.688	0.101
43.200	14.939	0.101
43.300	20.936	0.101
43.400	31.250	0.101
43.500	12.645	0.101
43.600	20.453	0.101
43.700	21.632	0.101
43.800	22.040	0.101
43.900	10.236	0.101
44.000	22.524	0.101
44.100	21.359	0.101
44.200	24.599	0.101
44.300	25.232	0.101
44.400	29.505	0.101
44.500	26.560	0.101
44.600	17.426	0.101
44.700	18.041	0.101
44.800	14.945	0.101
44.900	22.511	0.101
45.000	23.010	0.101
45.100	32.322	0.101
45.200	19.955	0.101
45.300	24.287	0.101
45.400	32.662	0.101
45.500	37.883	0.101
45.600	36.158	0.101
45.700	25.257	0.101
45.800	14.436	0.101
45.900	19.849	0.101
46.000	27.280	0.101
46.100	26.886	0.101
46.200	26.539	0.101
46.300	21.363	0.101
46.400	28.337	0.101
46.500	25.257	0.101
46.600	28.629	0.101
46.700	26.758	0.101
46.800	30.688	0.101
46.900	21.830	0.101
47.000	23.739	0.101
47.100	24.150	0.101
47.200	21.583	0.101
47.300	28.973	0.101
47.400	26.062	0.101
47.500	28.844	0.101
47.600	15.681	0.101
47.700	29.475	0.101
47.800	27.431	0.101
47.900	22.751	0.101
48.000	29.975	0.101
48.100	41.201	0.101
48.200	25.569	0.101
48.300	21.537	0.101
48.400	29.051	0.101
48.500	30.730	0.101
48.600	28.634	0.101
48.700	30.268	0.101
48.800	37.333	0.101
48.900	25.972	0.101
49.000	26.216	0.101
49.100	33.777	0.101
49.200	27.253	0.101
49.300	22.798	0.101
49.400	23.468	0.101
49.500	33.105	0.101
49.600	23.437	0.101
49.700	25.613	0.101
49.800	28.068	0.101
49.900	32.549	0.101
50.000	38.275	0.101
50.100	28.311	0.101
50.200	23.281	0.101
50.300	24.932	0.101
50.400	25.530	0.101
50.500	22.860	0.101
50.600	19.463	0.101
50.700	26.682	0.101
50.800	35.262	0.101
50.900	37.063	0.101
51.000	24.880	0.101
51.100	32.521	0.101
51.200	22.958	0.101
51.300	32.908	0.101
51.400	26.558	0.101
51.500	26.949	0.101
51.600	32.282	0.101
51.700	26.612	0.101
51.800	28.755	0.101
51.900	29.827	0.101
52.000	35.750	0.101
52.100	36.428	0.101
52.200	22.229	0.101
52.300	31.618	0.101
52.400	31.780	0.101
52.500	24.552	0.101
52.600	31.698	0.101
52.700	29.218	0.101
52.800	38.717	0.101
52.900	33.608	0.101
53.000	35.028	0.101
53.100	19.493	0.101
53.200	36.265	0.101
53.300	36.308	0.101
53.400	30.514	0.101
53.500	30.979	0.101
53.600	32.686	0.101
53.700	29.162	0.101
53.800	26.940	0.101
53.900	27.221	0.101
54.000	27.306	0.101
54.100	33.065	0.101
54.200	27.990	0.101
54.300	31.309	0.101
54.400	30.731	0.101
54.500	16.238	0.101
54.600	25.151	0.101
54.700	40.364	0.101
54.800	31.685	0.101
54.900	30.713	0.101
55.000	24.220	0.101
55.100	28.677	0.101
55.200	33.640	0.101
55.300	43.400	0.101
55.400	21.302	0.101
55.500	27.308	0.101
55.600	34.299	0.101
55.700	31.419	0.101
55.800	27.099	0.101
55.900	20.187	0.101
56.000	24.594	0.101
56.100	32.666	0.101
56.200	30.307	0.101
56.300	42.022	0.101
56.400	23.530	0.101
56.500	27.612	0.101
56.600	25.977	0.101
56.700	33.271	0.101
56.800	31.729	0.101
56.900	31.795	0.101
57.000	23.865	0.101
57.100	28.359	0.101
57.200	30.952	0.101
57.300	23.847	0.101
57.400	23.673	0.101
57.500	36.019	0.101
57.600	29.204	0.101
57.700	34.086	0.101
57.800	32.466	0.101
57.900	38.624	0.101
58.000	29.608	0.101
58.100	26.596	0.101
58.200	25.468	0.101
58.300	33.913	0.101
58.400	22.946	0.101
58.500	47.281	0.101
58.600	21.790	0.101
58.700	25.361	0.101
58.800	27.383	0.101
58.900	39.756	0.101
59.000	26.300	0.101
59.100	32.732	0.101
59.200	24.206	0.101
59.300	30.471	0.101
59.400	23.022	0.101
59.500	22.937	0.101
59.600	25.632	0.101
59.700	29.828	0.101
59.800	20.533	0.101
59.900	45.783	0.101
60.000	18.135	0.101
60.100	30.030	0.101
60.200	24.868	0.101
60.300	33.945	0.101
60.400	31.919	0.101
60.500	32.908	0.101
60.600	32.221	0.101
60.700	23.926	0.101
60.800	23.644	0.101
60.900	31.602	0.101
61.000	33.602	0.101
61.100	35.132	0.101
61.200	17.341	0.101
61.300	27.889	0.101
61.400	21.546	0.101
61.500	24.633	0.101
61.600	27.160	0.101
61.700	40.016	0.101
61.800	30.531	0.101
61.900	32.390	0.101
62.000	23.277	0.101
62.100	21.526	0.101
62.200	25.320	0.101
62.300	33.418	0.101
62.400	27.145	0.101
62.500	23.729	0.101
62.600	24.621	0.101
62.700	27.913	0.101
62.800	27.319	0.101
62.900	22.693	0.101
63.000	21.033	0.101
63.100	26.180	0.101
63.200	25.209	0.101
63.300	37.166	0.101
63.400	31.464	0.101
63.500	23.241	0.101
63.600	32.072	0.101
63.700	19.186	0.101
63.800	24.124	0.101
63.900	25.517	0.101
64.000	25.042	0.101
64.100	39.490	0.101
64.200	35.125	0.101
64.300	27.248	0.101
64.400	14.016	0.101
64.500	26.445	0.101
64.600	28.063	0.101
64.700	27.374	0.101
64.800	24.980	0.101
64.900	28.287	0.101
65.000	20.431	0.101
65.100	26.693	0.101
65.200	14.104	0.101
65.300	46.424	0.101
65.400	23.688	0.101
65.500	43.851	0.101
65.600	26.039	0.101
65.700	28.343	0.101
65.800	29.537	0.101
65.900	33.581	0.101
66.000	25.688	0.101
66.100	34.323	0.101
66.200	21.299	0.101
66.300	27.640	0.101
66.400	23.750	0.101
66.500	34.702	0.101
66.600	24.645	0.101
66.700	29.447	0.101
66.800	22.231	0.101
66.900	27.161	0.101
67.000	15.030	0.101
67.100	38.781	0.101
67.200	30.894	0.101
67.300	15.287	0.101
67.400	26.896	0.101
67.500	28.778	0.101
67.600	18.750	0.101
67.700	26.405	0.101
67.800	32.886	0.101
67.900	36.383	0.101
68.000	28.402	0.101
68.100	31.130	0.101
68.200	22.826	0.101
68.300	23.936	0.101
68.400	25.494	0.101
68.500	21.157	0.101
68.600	26.493	0.101
68.700	35.841	0.101
68.800	24.882	0.101
68.900	43.350	0.101
69.000	26.353	0.101
69.100	33.090	0.101
69.200	31.612	0.101
69.300	31.791	0.101
69.400	22.508	0.101
69.500	27.155	0.101
69.600	28.922	0.101
69.700	34.162	0.101
69.800	20.796	0.101
69.900	18.462	0.101
70.000	18.772	0.101
70.100	31.950	0.101
70.200	29.640	0.101
70.300	22.534	0.101
70.400	32.501	0.101
70.500	33.577	0.101
70.600	22.516	0.101
70.700	29.891	0.101
70.800	23.838	0.101
70.900	30.955	0.101
71.000	18.104	0.101
71.100	24.946	0.101
71.200	25.846	0.101
71.300	32.922	0.101
71.400	30.001	0.101
71.500	33.056	0.101
71.600	14.876	0.101
71.700	27.538	0.101
71.800	32.976	0.101
71.900	35.244	0.101
72.000	28.855	0.101
72.100	31.059	0.101
72.200	25.844	0.101
72.300	31.072	0.101
72.400	14.632	0.101
72.500	31.274	0.101
72.600	19.132	0.101
72.700	24.125	0.101
72.800	16.316	0.101
72.900	31.384	0.101
73.000	19.608	0.101
73.100	17.698	0.101
73.200	41.473	0.101
73.300	22.972	0.101
73.400	31.950	0.101
73.500	21.509	0.101
73.600	24.844	0.101
73.700	33.230	0.101
73.800	23.260	0.101
73.900	13.045	0.101
74.000	17.965	0.101
74.100	27.669	0.101
74.200	26.797	0.101
74.300	29.060	0.101
74.400	29.082	0.101
74.500	27.971	0.101
74.600	25.382	0.101
74.700	31.177	0.101
74.800	38.311	0.101
74.900	22.805	0.101
75.000	29.989	0.101
75.100	36.326	0.101
75.200	18.922	0.101
75.300	20.782	0.101
75.400	22.977	0.101
75.500	24.092	0.101
75.600	31.938	0.101
75.700	22.505	0.101
75.800	18.956	0.101
75.900	18.376	0.101
76.000	24.362	0.101
76.100	24.760	0.101
76.200	32.009	0.101
76.300	31.039	0.101
76.400	26.679	0.101
76.500	31.423	0.101
76.600	18.394	0.101
76.700	19.830	0.101
76.800	33.127	0.101
76.900	25.427	0.101
77.000	28.847	0.101
77.100	26.428	0.101
77.200	23.068	0.101
77.300	21.236	0.101
77.400	31.529	0.101
77.500	33.448	0.101
77.600	21.963	0.101
77.700	34.066	0.101
77.800	22.354	0.101
77.900	22.832	0.101
78.000	24.064	0.101
78.100	26.685	0.101
78.200	23.166	0.101
78.300	21.362	0.101
78.400	23.261	0.101
78.500	22.571	0.101
78.600	25.386	0.101
78.700	35.647	0.101
78.800	27.709	0.101
78.900	30.432	0.101
79.000	42.979	0.101
79.100	28.222	0.101
79.200	32.478	0.101
79.300	28.566	0.101
79.400	20.234	0.101
79.500	24.128	0.101
79.600	29.010	0.101
79.700	31.107	0.101
79.800	28.823	0.101
79.900	32.588	0.101
80.000	21.670	0.101
80.100	17.758	0.101
80.200	21.324	0.101
80.300	26.173	0.101
80.400	20.036	0.101
80.500	25.457	0.101
80.600	26.427	0.101
80.700	19.272	0.101
80.800	31.347	0.101
80.900	22.086	0.101
81.000	34.875	0.101
81.100	23.937	0.101
81.200	35.566	0.101
81.300	28.367	0.101
81.400	25.605	0.101
81.500	21.762	0.101
81.600	29.931	0.101
81.700	16.311	0.101
81.800	24.574	0.101
81.900	22.927	0.101
82.000	19.501	0.101
82.100	42.302	0.101
82.200	29.504	0.101
82.300	23.159	0.101
82.400	37.526	0.101
82.500	24.940	0.101
82.600	22.733	0.101
82.700	26.485	0.101
82.800	33.601	0.101
82.900	22.158	0.101
83.000	28.346	0.101
83.100	18.584	0.101
83.200	23.499	0.101
83.300	24.112	0.101
83.400	25.155	0.101
83.500	19.221	0.101
83.600	29.565	0.101
83.700	26.898	0.101
83.800	33.373	0.101
83.900	23.233	0.101
84.000	35.704	0.101
84.100	19.744	0.101
84.200	26.449	0.101
84.300	28.653	0.101
84.400	28.830	0.101
84.500	32.329	0.101
84.600	30.764	0.101
84.700	31.736	0.101
84.800	16.675	0.101
84.900	26.417	0.101
85.000	21.519	0.101
85.100	31.597	0.101
85.200	33.364	0.101
85.300	33.368	0.101
85.400	26.703	0.101
85.500	26.938	0.101
85.600	29.862	0.101
85.700	17.324	0.101
85.800	27.363	0.101
85.900	24.756	0.101
86.000	22.031	0.101
86.100	35.138	0.101
86.200	21.353	0.101
86.300	17.240	0.101
86.400	31.968	0.101
86.500	27.772	0.101
86.600	29.234	0.101
86.700	24.281	0.101
86.800	34.569	0.101
86.900	23.005	0.101
87.000	25.550	0.101
87.100	22.789	0.101
87.200	29.022	0.101
87.300	28.456	0.101
87.400	21.820	0.101
87.500	27.351	0.101
87.600	32.845	0.101
87.700	24.930	0.101
87.800	37.284	0.101
87.900	24.750	0.101
88.000	24.148	0.101
88.100	19.703	0.101
88.200	28.880	0.101
88.300	34.312	0.101
88.400	18.092	0.101
88.500	27.118	0.101
88.600	27.956	0.101
88.700	36.940	0.101
88.800	29.428	0.101
88.900	29.970	0.101
89.000	27.476	0.101
89.100	28.030	0.101
89.200	31.597	0.101
89.300	18.723	0.101
89.400	20.347	0.101
89.500	26.318	0.101
89.600	31.911	0.101
89.700	23.068	0.101
89.800	25.142	0.101
89.900	32.253	0.101
90.000	25.042	0.101
90.100	34.083	0.101
90.200	29.844	0.101
90.300	17.047	0.101
90.400	20.726	0.101
90.500	19.373	0.101
90.600	21.547	0.101
90.700	2.428	0.101
90.800	17.560	0.101
90.900	22.538	0.101
91.000	11.046	0.101
91.100	11.769	0.101
91.200	9.724	0.101
91.300	6.457	0.101
91.400	12.040	0.101
91.500	4.301	0.101
91.600	4.096	0.101
91.700	-3.006	0.101
91.800	-2.186	0.101
91.900	-13.721	0.101
92.000	2.070	0.101
92.100	-3.918	0.101
92.200	-11.441	0.101
92.300	-15.728	0.101
92.400	7.689	0.101
92.500	-13.641	0.101
92.600	-23.284	0.101
92.700	-11.946	0.101
92.800	-13.065	0.101
92.900	-9.672	0.101
93.000	-9.772	0.101
93.100	-6.825	0.101
93.200	-6.764	0.101
93.300	-31.598	0.101
93.400	-19.635	0.101
93.500	-23.178	0.101
93.600	-3.118	0.101
93.700	-17.107	0.101
93.800	-27.927	0.101
93.900	-20.224	0.101
94.000	-18.559	0.101
94.100	-13.123	0.101
94.200	-13.633	0.101
94.300	-14.612	0.101
94.400	-14.572	0.101
94.500	-17.497	0.101
94.600	-18.438	0.101
94.700	-29.897	0.101
94.800	-19.247	0.101
94.900	-14.609	0.101
95.000	-20.422	0.101
95.100	-21.322	0.101
95.200	-17.594	0.101
95.300	-18.040	0.101
95.400	-16.395	0.101
95.500	-14.442	0.101
95.600	-28.128	0.101
95.700	-20.974	0.101
95.800	-23.225	0.101
95.900	-22.407	0.101
96.000	-12.078	0.101
96.100	-21.896	0.101
96.200	-16.759	0.101
96.300	-10.216	0.101
96.400	-7.844	0.101
96.500	-24.417	0.101
96.600	-15.008	0.101
96.700	-11.274	0.101
96.800	-19.610	0.101
96.900	-18.836	0.101
97.000	-10.408	0.101
97.100	-21.558	0.101
97.200	-18.515	0.101
97.300	-21.173	0.101
97.400	-13.686	0.101
97.500	-14.680	0.101
97.600	-7.908	0.101
97.700	-18.641	0.101
97.800	-17.703	0.101
97.900	-13.074	0.101
98.000	-12.626	0.101
98.100	-15.837	0.101
98.200	-18.952	0.101
98.300	-7.144	0.101
98.400	-1.936	0.101
98.500	-19.696	0.101
98.600	-9.985	0.101
98.700	-12.920	0.101
98.800	-13.482	0.101
98.900	-4.979	0.101
99.000	-13.146	0.101
99.100	-8.052	0.101
99.200	-12.995	0.101
99.300	-15.365	0.101
99.400	-13.063	0.101
99.500	-6.209	0.101
99.600	-2.847	0.101
99.700	-10.526	0.101
99.800	-12.634	0.101
99.900	-16.291	0.101
100.000	-16.713	0.101
100.100	-17.455	0.101
100.200	-12.689	0.101
100.300	-7.821	0.101
100.400	-15.463	0.101
100.500	-19.226	0.101
100.600	-16.235	0.101
100.700	-8.646	0.101
100.800	-5.629	0.101
100.900	-11.357	0.101
101.000	-5.047	0.101
101.100	-14.537	0.101
101.200	-7.278	0.101
101.300	-4.532	0.101
101.400	-13.451	0.101
101.500	-7.407	0.101
101.600	-4.796	0.101
101.700	-5.722	0.101
101.800	-6.554	0.101
101.900	-24.942	0.101
102.000	-8.143	0.101
102.100	2.779	0.101
102.200	-4.764	0.101
102.300	-14.042	0.101
102.400	-9.117	0.101
102.500	-11.357	0.101
102.600	-7.479	0.101
102.700	-3.188	0.101
102.800	-2.998	0.101
102.900	-16.900	0.101
103.000	-9.014	0.101
103.100	-16.765	0.101
103.200	-13.301	0.101
103.300	-11.650	0.101
103.400	-2.256	0.101
103.500	-15.918	0.101
103.600	-15.437	0.101
103.700	-12.756	0.101
103.800	-17.021	0.101
103.900	-15.557	0.101
104.000	-5.014	0.101
104.100	-9.685	0.101
104.200	-2.079	0.101
104.300	-11.968	0.101
104.400	-10.974	0.101
104.500	-14.168	0.101
104.600	-11.210	0.101
104.700	-8.239	0.101
104.800	-9.929	0.101
104.900	-14.698	0.101
105.000	4.068	0.101
105.100	-13.369	0.101
105.200	-4.494	0.101
105.300	-8.376	0.101
105.400	-12.199	0.101
105.500	-15.270	0.101
105.600	-8.436	0.101
105.700	-7.786	0.101
105.800	-12.950	0.101
105.900	-16.590	0.101
106.000	-9.972	0.101
106.100	-9.086	0.101
106.200	-25.347	0.101
106.300	-12.413	0.101
106.400	-14.453	0.101
106.500	-21.534	0.101
106.600	-7.401	0.101
106.700	1.193	0.101
106.800	-10.396	0.101
106.900	-15.379	0.101
107.000	-8.901	0.101
107.100	-2.239	0.101
107.200	-12.674	0.101
107.300	-16.866	0.101
107.400	-20.962	0.101
107.500	-19.220	0.101
107.600	-14.451	0.101
107.700	-6.333	0.101
107.800	-7.706	0.101
107.900	-12.511	0.101
108.000	-17.956	0.101
108.100	-5.982	0.101
108.200	-8.712	0.101
108.300	-14.115	0.101
108.400	-17.436	0.101
108.500	0.688	0.101
108.600	-13.060	0.101
108.700	-25.523	0.101
108.800	-5.444	0.101
108.900	-4.568	0.101
109.000	-13.522	0.101
109.100	-12.210	0.101
109.200	-20.214	0.101
109.300	-10.623	0.101
109.400	-12.206	0.101
109.500	-5.669	0.101
109.600	-4.633	0.101
109.700	-9.910	0.101
109.800	-26.484	0.101
109.900	-14.600	0.101
110.000	-11.148	0.101
110.100	-13.118	0.101
110.200	-3.872	0.101
110.300	-17.253	0.101
110.400	-0.682	0.101
110.500	-9.151	0.101
110.600	-21.160	0.101
110.700	-11.866	0.101
110.800	-5.143	0.101
110.900	-3.521	0.101
111.000	-9.858	0.101
111.100	-16.363	0.101
111.200	-15.002	0.101
111.300	-11.787	0.101
111.400	-15.715	0.101
111.500	-9.575	0.101
111.600	-24.437	0.101
111.700	-16.488	0.101
111.800	-15.071	0.101
111.900	-15.813	0.101
112.000	-17.890	0.101
112.100	-5.577	0.101
112.200	-11.817	0.101
112.300	-7.890	0.101
112.400	-15.557	0.101
112.500	-11.573	0.101
112.600	-13.617	0.101
112.700	-15.632	0.101
112.800	-16.955	0.101
112.900	-8.753	0.101
113.000	-7.498	0.101
113.100	-20.699	0.101
113.200	-17.056	0.101
113.300	-4.741	0.101
113.400	-23.807	0.101
113.500	-12.512	0.101
113.600	-8.489	0.101
113.700	-10.705	0.101
113.800	-15.903	0.101
113.900	-21.993	0.101
114.000	-11.909	0.101
114.100	-3.550	0.101
114.200	-10.544	0.101
114.300	-14.914	0.101
114.400	-10.357	0.101
114.500	-20.109	0.101
114.600	-13.772	0.101
114.700	-13.428	0.101
114.800	-3.150	0.101
114.900	-16.504	0.101
115.000	-15.619	0.101
115.100	-12.085	0.101
115.200	-12.003	0.101
115.300	-12.352	0.101
115.400	-20.857	0.101
115.500	-7.022	0.101
115.600	-6.113	0.101
115.700	-10.318	0.101
115.800	-11.587	0.101
115.900	-8.799	0.101
116.000	-24.071	0.101
116.100	-13.694	0.101
116.200	-15.568	0.101
116.300	-15.692	0.101
116.400	-6.841	0.101
116.500	-18.833	0.101
116.600	-32.550	0.101
116.700	-17.072	0.101
116.800	-13.165	0.101
116.900	-13.122	0.101
117.000	-24.345	0.101
117.100	-11.098	0.101
117.200	-17.591	0.101
117.300	-8.547	0.101
117.400	-13.626	0.101
117.500	-11.352	0.101
117.600	-18.737	0.101
117.700	-13.554	0.101
117.800	-11.081	0.101
117.900	-4.290	0.101
118.000	-10.230	0.101
118.100	-23.769	0.101
118.200	-22.623	0.101
118.300	-25.078	0.101
118.400	-8.004	0.101
118.500	-7.856	0.101
118.600	-8.980	0.101
118.700	-11.059	0.101
118.800	-17.451	0.101
118.900	-9.098	0.101
119.000	-19.979	0.101
119.100	-11.154	0.101
119.200	-13.694	0.101
119.300	-15.905	0.101
119.400	-18.233	0.101
119.500	-15.016	0.101
119.600	-10.016	0.101
119.700	-10.084	0.101
119.800	-12.463	0.101
119.900	-10.819	0.101
120.000	-6.367	0.101
120.100	-6.535	0.101
120.200	-14.498	0.101
120.300	-26.051	0.101
120.400	-12.738	0.101
120.500	-17.942	0.101
120.600	-16.823	0.101
120.700	-13.249	0.101
120.800	-17.684	0.101
120.900	-12.957	0.101
121.000	-21.132	0.101
121.100	-13.362	0.101
121.200	-21.985	0.101
121.300	-12.619	0.101
121.400	-11.712	0.101
121.500	-10.217	0.101
121.600	-15.718	0.101
121.700	-15.080	0.101
121.800	-2.833	0.101
121.900	-18.779	0.101
122.000	-14.970	0.101
122.100	-4.893	0.101
122.200	-22.783	0.101
122.300	-15.788	0.101
122.400	-14.682	0.101
122.500	-18.618	0.101
122.600	-8.021	0.101
122.700	-7.268	0.101
122.800	-20.125	0.101
122.900	-10.559	0.101
123.000	-11.586	0.101
123.100	-9.832	0.101
123.200	-19.418	0.101
123.300	-18.439	0.101
123.400	-15.412	0.101
123.500	-8.431	0.101
123.600	-30.009	0.101
123.700	-21.269	0.101
123.800	-11.300	0.101
123.900	-10.940	0.101
124.000	-20.938	0.101
124.100	-7.857	0.101
124.200	-6.564	0.101
124.300	-4.326	0.101
124.400	-18.069	0.101
124.500	-22.932	0.101
124.600	-21.226	0.101
124.700	-20.818	0.101
124.800	-15.080	0.101
124.900	-20.441	0.101
125.000	-16.689	0.101
125.100	-18.078	0.101
125.200	-12.881	0.101
125.300	-15.022	0.101
125.400	-16.263	0.101
125.500	-11.479	0.101
125.600	-15.606	0.101
125.700	-11.561	0.101
125.800	-16.831	0.101
125.900	-21.627	0.101
126.000	-18.149	0.101
126.100	-23.368	0.101
126.200	-16.246	0.101
126.300	-7.372	0.101
126.400	-22.198	0.101
126.500	-16.790	0.101
126.600	-13.574	0.101
126.700	-15.947	0.101
126.800	-14.236	0.101
126.900	-12.535	0.101
127.000	-4.818	0.101
127.100	-17.604	0.101
127.200	-20.465	0.101
127.300	-22.948	0.101
127.400	-30.095	0.101
127.500	-8.935	0.101
127.600	-22.626	0.101
127.700	-15.936	0.101
127.800	-30.080	0.101
127.900	-23.079	0.101
128.000	-20.265	0.101
128.100	-15.354	0.101
128.200	-18.196	0.101
128.300	-9.911	0.101
128.400	-20.143	0.101
128.500	-21.008	0.101
128.600	-20.488	0.101
128.700	-2.821	0.101
128.800	-14.731	0.101
128.900	-30.692	0.101
129.000	-12.867	0.101
129.100	-8.400	0.101
129.200	-17.810	0.101
129.300	-14.588	0.101
129.400	-8.469	0.101
129.500	-10.596	0.101
129.600	-21.637	0.101
129.700	-17.419	0.101
129.800	-18.445	0.101
129.900	-15.286	0.101
130.000	-18.191	0.101
130.100	-11.705	0.101
130.200	-16.165	0.101
130.300	-13.259	0.101
130.400	-18.074	0.101
130.500	-11.736	0.101
130.600	-21.484	0.101
130.700	-17.792	0.101
130.800	-9.996	0.101
130.900	-23.965	0.101
131.000	-22.336	0.101
131.100	-10.396	0.101
131.200	-22.056	0.101
131.300	-13.617	0.101
131.400	-17.632	0.101
131.500	-14.583	0.101
131.600	-14.908	0.101
131.700	-13.263	0.101
131.800	-18.892	0.101
131.900	-14.847	0.101
132.000	-18.181	0.101
132.100	-21.799	0.101
132.200	-19.904	0.101
132.300	-16.356	0.101
132.400	-11.924	0.101
132.500	-12.277	0.101
132.600	-14.402	0.101
132.700	-15.255	0.101
132.800	-27.818	0.101
132.900	-15.194	0.101
133.000	-23.706	0.101
133.100	-3.717	0.101
133.200	-18.944	0.101
133.300	-9.278	0.101
133.400	-23.276	0.101
133.500	-17.400	0.101
133.600	-17.417	0.101
133.700	-11.243	0.101
133.800	-13.865	0.101
133.900	-19.113	0.101
134.000	-15.459	0.101
134.100	-4.865	0.101
134.200	-26.404	0.101
134.300	-18.617	0.101
134.400	-16.069	0.101
134.500	-23.842	0.101
134.600	-17.432	0.101
134.700	-14.213	0.101
134.800	-16.991	0.101
134.900	-11.829	0.101
135.000	-15.633	0.101
135.100	-11.581	0.101
135.200	-20.178	0.101
135.300	-33.094	0.101
135.400	-13.980	0.101
135.500	-16.753	0.101
135.600	-19.815	0.101
135.700	-24.640	0.101
135.800	-16.423	0.101
135.900	-17.384	0.101
136.000	-11.305	0.101
136.100	-6.876	0.101
136.200	-5.779	0.101
136.300	-17.683	0.101
136.400	-14.280	0.101
136.500	-19.711	0.101
136.600	-18.303	0.101
136.700	-14.476	0.101
136.800	-22.402	0.101
136.900	-9.847	0.101
137.000	-17.869	0.101
137.100	-25.859	0.101
137.200	-10.177	0.101
137.300	-10.700	0.101
137.400	-19.239	0.101
137.500	-10.304	0.101
137.600	-15.524	0.101
137.700	-22.226	0.101
137.800	-15.269	0.101
137.900	-7.817	0.101
138.000	-20.218	0.101
138.100	-18.446	0.101
138.200	-14.351	0.101
138.300	-8.482	0.101
138.400	-23.374	0.101
138.500	-16.112	0.101
138.600	-22.114	0.101
138.700	-12.581	0.101
138.800	-16.853	0.101
138.900	-14.996	0.101
139.000	-16.240	0.101
139.100	-18.557	0.101
139.200	-10.294	0.101
139.300	-17.632	0.101
139.400	-11.180	0.101
139.500	-16.129	0.101
139.600	-16.744	0.101
139.700	-11.608	0.101
139.800	-10.387	0.101
139.900	-19.457	0.101
140.000	-9.356	0.101
140.100	-20.534	0.101
140.200	-18.782	0.101
140.300	-26.274	0.101
140.400	-13.358	0.101
140.500	-15.841	0.101
140.600	-11.718	0.101
140.700	-15.335	0.101
140.800	-19.215	0.101
140.900	-16.424	0.101
141.000	-13.210	0.101
141.100	-21.744	0.101
141.200	-20.584	0.101
141.300	-19.824	0.101
141.400	-2.873	0.101
141.500	-14.924	0.101
141.600	-8.431	0.101
141.700	-11.272	0.101
141.800	-19.700	0.101
141.900	-7.200	0.101
142.000	-5.095	0.101
142.100	-20.828	0.101
142.200	-21.991	0.101
142.300	-14.807	0.101
142.400	-13.497	0.101
142.500	-17.717	0.101
142.600	-9.064	0.101
142.700	-11.223	0.101
142.800	-18.581	0.101
142.900	-12.104	0.101
143.000	-20.760	0.101
143.100	-13.020	0.101
143.200	-21.174	0.101
143.300	-25.007	0.101
143.400	-13.370	0.101
143.500	-8.183	0.101
143.600	-11.708	0.101
143.700	-11.764	0.101
143.800	-19.186	0.101
143.900	-27.912	0.101
144.000	-16.583	0.101
144.100	-15.203	0.101
144.200	-16.579	0.101
144.300	-8.565	0.101
144.400	-15.360	0.101
144.500	-17.383	0.101
144.600	-22.760	0.101
144.700	-17.926	0.101
144.800	-17.068	0.101
144.900	-11.571	0.101
145.000	-12.769	0.101
145.100	-13.109	0.101
145.200	-12.073	0.101
145.300	-22.409	0.101
145.400	-17.589	0.101
145.500	-7.782	0.101
145.600	-8.767	0.101
145.700	-17.261	0.101
145.800	-19.389	0.101
145.900	-18.057	0.101
146.000	-15.779	0.101
146.100	-19.864	0.101
146.200	-11.933	0.101
146.300	-19.045	0.101
146.400	-15.687	0.101
146.500	-12.566	0.101
146.600	-13.881	0.101
146.700	-17.996	0.101
146.800	-14.450	0.101
146.900	-21.341	0.101
147.000	-12.598	0.101
147.100	-18.949	0.101
147.200	-25.539	0.101
147.300	-8.446	0.101
147.400	-17.893	0.101
147.500	-18.984	0.101
147.600	-12.511	0.101
147.700	-12.551	0.101
147.800	-2.458	0.101
147.900	-17.586	0.101
148.000	-14.840	0.101
148.100	-14.807	0.101
148.200	-20.980	0.101
148.300	-16.170	0.101
148.400	-9.247	0.101
148.500	-19.264	0.101
148.600	-10.357	0.101
148.700	-11.299	0.101
148.800	-10.476	0.101
148.900	-25.017	0.101
149.000	-13.542	0.101
149.100	-13.178	0.101
149.200	-14.114	0.101
149.300	-14.691	0.101
149.400	-15.470	0.101
149.500	-2.016	0.101
149.600	-12.638	0.101
149.700	-10.545	0.101
149.800	-15.759	0.101
149.900	-9.150	0.101
150.000	-20.144	0.101
150.100	-6.135	0.101
150.200	-14.854	0.101
150.300	-15.583	0.101
150.400	-12.164	0.101
150.500	-18.781	0.101
150.600	-19.869	0.101
150.700	-15.327	0.101
150.800	-18.108	0.101
150.900	-21.148	0.101
151.000	-14.437	0.101
151.100	-5.469	0.101
151.200	-10.154	0.101
151.300	-16.809	0.101
151.400	-11.197	0.101
151.500	-19.640	0.101
151.600	-17.494	0.101
151.700	-12.359	0.101
151.800	-8.407	0.101
151.900	-9.939	0.101
152.000	-5.775	0.101
152.100	-11.122	0.101
152.200	-18.899	0.101
152.300	-14.173	0.101
152.400	-19.496	0.101
152.500	-18.425	0.101
152.600	-12.640	0.101
152.700	-8.636	0.101
152.800	-12.359	0.101
152.900	-10.637	0.101
153.000	-15.885	0.101
153.100	-28.324	0.101
153.200	-23.512	0.101
153.300	-12.581	0.101
153.400	-7.330	0.101
153.500	-11.037	0.101
153.600	0.200	0.101
153.700	-15.298	0.101
153.800	-18.322	0.101
153.900	-14.337	0.101
154.000	-10.754	0.101
154.100	-9.072	0.101
154.200	-14.568	0.101
154.300	-16.938	0.101
154.400	-16.212	0.101
154.500	-13.422	0.101
154.600	1.679	0.101
154.700	-13.107	0.101
154.800	-11.627	0.101
154.900	-9.686	0.101
155.000	-14.810	0.101
155.100	-17.281	0.101
155.200	-11.436	0.101
155.300	-11.801	0.101
155.400	-23.776	0.101
155.500	-23.553	0.101
155.600	-15.106	0.101
155.700	-12.784	0.101
155.800	-16.681	0.101
155.900	-13.793	0.101
156.000	-6.303	0.101
156.100	-23.665	0.101
156.200	-14.740	0.101
156.300	-17.052	0.101
156.400	-13.469	0.101
156.500	-23.600	0.101
156.600	-13.842	0.101
156.700	-17.370	0.101
156.800	-6.466	0.101
156.900	-18.892	0.101
157.000	-11.038	0.101
157.100	-5.038	0.101
157.200	-9.018	0.101
157.300	-11.177	0.101
157.400	-14.330	0.101
157.500	-15.294	0.101
157.600	-8.275	0.101
157.700	-20.719	0.101
157.800	-21.367	0.101
157.900	-10.697	0.101
158.000	-21.561	0.101
158.100	-17.620	0.101
158.200	-13.685	0.101
158.300	-14.900	0.101
158.400	-6.553	0.101
158.500	-6.323	0.101
158.600	-15.049	0.101
158.700	-9.134	0.101
158.800	-5.635	0.101
158.900	-16.830	0.101
159.000	-18.185	0.101
159.100	-15.511	0.101
159.200	-5.057	0.101
159.300	-2.491	0.101
159.400	-8.075	0.101
159.500	-12.099	0.101
159.600	-12.743	0.101
159.700	-15.929	0.101
159.800	0.978	0.101
159.900	-10.445	0.101
160.000	-20.052	0.101
160.100	-13.050	0.101
160.200	-14.427	0.101
160.300	-14.009	0.101
160.400	-24.005	0.101
160.500	-23.033	0.101
160.600	-11.744	0.101
160.700	-3.274	0.101
160.800	-7.513	0.101
160.900	-9.449	0.101
161.000	-11.178	0.101
161.100	-20.044	0.101
161.200	-18.204	0.101
161.300	-12.764	0.101
161.400	-18.740	0.101
161.500	-16.360	0.101
161.600	-14.297	0.101
161.700	-8.180	0.101
161.800	-13.918	0.101
161.900	-17.051	0.101
162.000	-11.744	0.101
162.100	-19.897	0.101
162.200	-0.162	0.101
162.300	-11.369	0.101
162.400	-13.267	0.101
162.500	-23.955	0.101
162.600	-9.980	0.101
162.700	-9.866	0.101
162.800	-18.584	0.101
162.900	-7.937	0.101
163.000	-12.583	0.101
163.100	-12.305	0.101
163.200	-6.827	0.101
163.300	-10.006	0.101
163.400	-5.159	0.101
163.500	-22.390	0.101
163.600	-7.593	0.101
163.700	-11.688	0.101
163.800	-10.350	0.101
163.900	-18.099	0.101
164.000	-15.112	0.101
164.100	-5.850	0.101
164.200	-14.496	0.101
164.300	-9.930	0.101
164.400	-13.715	0.101
164.500	-15.066	0.101
164.600	-7.021	0.101
164.700	-4.752	0.101
164.800	-8.323	0.101
164.900	-16.500	0.101
165.000	-12.556	0.101
165.100	-4.419	0.101
165.200	-18.581	0.101
165.300	-15.502	0.101
165.400	-14.701	0.101
165.500	-9.552	0.101
165.600	-10.004	0.101
165.700	-12.831	0.101
165.800	-12.815	0.101
165.900	-7.795	0.101
166.000	-23.761	0.101
166.100	-7.157	0.101
166.200	-12.693	0.101
166.300	-9.228	0.101
166.400	-14.101	0.101
166.500	-11.748	0.101
166.600	-17.342	0.101
166.700	-9.800	0.101
166.800	-18.105	0.101
166.900	-11.960	0.101
167.000	-17.989	0.101
167.100	-12.339	0.101
167.200	-15.605	0.101
167.300	-7.918	0.101
167.400	-12.185	0.101
167.500	-12.836	0.101
167.600	-14.569	0.101
167.700	-15.721	0.101
167.800	-10.053	0.101
167.900	-22.352	0.101
168.000	-11.612	0.101
168.100	-6.161	0.101
168.200	-15.356	0.101
168.300	-9.206	0.101
168.400	-8.954	0.101
168.500	-11.792	0.101
168.600	-7.994	0.101
168.700	-0.027	0.101
168.800	-11.051	0.101
168.900	-20.932	0.101
169.000	-13.304	0.101
169.100	-10.285	0.101
169.200	-10.966	0.101
169.300	-8.599	0.101
169.400	-12.006	0.101
169.500	-11.812	0.101
169.600	-17.751	0.101
169.700	-20.376	0.101
169.800	-10.389	0.101
169.900	-21.089	0.101
170.000	-12.721	0.101
170.100	-17.106	0.101
170.200	-12.154	0.101
170.300	-15.264	0.101
170.400	-11.885	0.101
170.500	-11.000	0.101
170.600	-14.274	0.101
170.700	-15.100	0.101
170.800	-9.173	0.101
170.900	-12.281	0.101
171.000	-9.144	0.101
171.100	-11.700	0.101
171.200	-9.061	0.101
171.300	-7.309	0.101
171.400	-14.746	0.101
171.500	-17.914	0.101
171.600	-6.153	0.101
171.700	-6.444	0.101
171.800	-13.918	0.101
171.900	-9.060	0.101
172.000	-4.969	0.101
172.100	-7.754	0.101
172.200	-8.696	0.101
172.300	-7.560	0.101
172.400	-23.658	0.101
172.500	-11.050	0.101
172.600	-16.188	0.101
172.700	-3.786	0.101
172.800	0.902	0.101
172.900	-21.521	0.101
173.000	-15.522	0.101
173.100	-10.491	0.101
173.200	-20.173	0.101
173.300	-17.507	0.101
173.400	-5.080	0.101
173.500	-11.086	0.101
173.600	-19.775	0.101
173.700	-2.701	0.101
173.800	-10.324	0.101
173.900	-6.852	0.101
174.000	-17.934	0.101
174.100	-6.873	0.101
174.200	-6.723	0.101
174.300	-13.750	0.101
174.400	-17.788	0.101
174.500	-14.138	0.101
174.600	-22.145	0.101
174.700	-19.296	0.101
174.800	-12.365	0.101
174.900	-6.480	0.101
175.000	-8.127	0.101
175.100	-6.521	0.101
175.200	-16.266	0.101
175.300	-6.536	0.101
175.400	-13.883	0.101
175.500	-17.135	0.101
175.600	-18.070	0.101
175.700	-12.827	0.101
175.800	-11.194	0.101
175.900	-15.836	0.101
176.000	-8.777	0.101
176.100	-16.064	0.101
176.200	-3.405	0.101
176.300	-1.361	0.101
176.400	-16.319	0.101
176.500	-7.518	0.101
176.600	-11.904	0.101
176.700	-7.016	0.101
176.800	-11.284	0.101
176.900	-8.704	0.101
177.000	-23.275	0.101
177.100	-20.415	0.101
177.200	-11.968	0.101
177.300	-12.280	0.101
177.400	-15.758	0.101
177.500	-7.464	0.101
177.600	-8.505	0.101
177.700	-13.146	0.101
177.800	-19.428	0.101
177.900	-14.045	0.101
178.000	-9.510	0.101
178.100	-1.753	0.101
178.200	-15.400	0.101
178.300	-9.887	0.101
178.400	-3.177	0.101
178.500	-3.349	0.101
178.600	-9.940	0.101
178.700	-19.383	0.101
178.800	-14.354	0.101
178.900	-14.245	0.101
179.000	-7.607	0.101
179.100	-2.210	0.101
179.200	-14.326	0.101
179.300	-5.268	0.101
179.400	-18.326	0.101
179.500	-12.775	0.101
179.600	-5.603	0.101
179.700	-10.797	0.101
179.800	-16.380	0.101
179.900	-2.410	0.101
180.000	-19.165	0.101
180.100	-23.534	0.101
180.200	-25.214	0.101
180.300	-10.880	0.101
180.400	-8.621	0.101
180.500	-2.495	0.101
180.600	-6.682	0.101
180.700	5.266	0.101
180.800	2.522	0.101
180.900	9.331	0.101
181.000	0.707	0.101
181.100	-3.886	0.101
181.200	10.354	0.101
181.300	2.008	0.101
181.400	0.559	0.101
181.500	11.379	0.101
181.600	13.748	0.101
181.700	23.710	0.101
181.800	14.543	0.101
181.900	20.191	0.101
182.000	17.341	0.101
182.100	10.896	0.101
182.200	10.931	0.101
182.300	25.795	0.101
182.400	20.056	0.101
182.500	14.962	0.101
182.600	16.916	0.101
182.700	17.323	0.101
182.800	17.934	0.101
182.900	20.075	0.101
183.000	28.636	0.101
183.100	26.376	0.101
183.200	17.861	0.101
183.300	20.120	0.101
183.400	23.918	0.101
183.500	25.305	0.101
183.600	19.214	0.101
183.700	23.107	0.101
183.800	24.730	0.101
183.900	15.588	0.101
184.000	22.183	0.101
184.100	23.485	0.101
184.200	14.636	0.101
184.300	18.759	0.101
184.400	30.713	0.101
184.500	26.917	0.101
184.600	24.200	0.101
184.700	18.394	0.101
184.800	8.700	0.101
184.900	25.212	0.101
185.000	16.691	0.101
185.100	25.309	0.101
185.200	26.687	0.101
185.300	29.191	0.101
185.400	21.075	0.101
185.500	19.320	0.101
185.600	17.878	0.101
185.700	24.354	0.101
185.800	5.092	0.101
185.900	13.714	0.101
186.000	12.340	0.101
186.100	26.459	0.101
186.200	10.729	0.101
186.300	26.931	0.101
186.400	15.153	0.101
186.500	31.128	0.101
186.600	12.413	0.101
186.700	10.509	0.101
186.800	19.366	0.101
186.900	17.478	0.101
187.000	20.465	0.101
187.100	21.170	0.101
187.200	16.122	0.101
187.300	18.329	0.101
187.400	18.385	0.101
187.500	13.238	0.101
187.600	11.397	0.101
187.700	18.921	0.101
187.800	22.749	0.101
187.900	30.325	0.101
188.000	11.748	0.101
188.100	13.856	0.101
188.200	15.262	0.101
188.300	22.492	0.101
188.400	21.005	0.101
188.500	21.248	0.101
188.600	29.229	0.101
188.700	17.843	0.101
188.800	13.059	0.101
188.900	14.417	0.101
189.000	20.492	0.101
189.100	23.082	0.101
189.200	18.512	0.101
189.300	24.960	0.101
189.400	5.777	0.101
189.500	21.246	0.101
189.600	14.746	0.101
189.700	15.745	0.101
189.800	13.264	0.101
189.900	17.014	0.101
190.000	23.480	0.101
190.100	18.229	0.101
190.200	30.285	0.101
190.300	23.538	0.101
190.400	18.959	0.101
190.500	25.299	0.101
190.600	21.105	0.101
190.700	19.031	0.101
190.800	28.781	0.101
190.900	15.916	0.101
191.000	19.737	0.101
191.100	17.378	0.101
191.200	29.390	0.101
191.300	24.692	0.101
191.400	17.799	0.101
191.500	24.668	0.101
191.600	22.424	0.101
191.700	18.975	0.101
191.800	16.932	0.101
191.900	26.539	0.101
192.000	22.757	0.101
192.100	21.999	0.101
192.200	22.273	0.101
192.300	23.881	0.101
192.400	15.997	0.101
192.500	30.277	0.101
192.600	13.459	0.101
192.700	37.802	0.101
192.800	32.104	0.101
192.900	21.859	0.101
193.000	23.066	0.101
193.100	33.309	0.101
193.200	23.875	0.101
193.300	31.446	0.101
193.400	22.760	0.101
193.500	23.032	0.101
193.600	21.636	0.101
193.700	24.801	0.101
193.800	32.707	0.101
193.900	30.922	0.101
194.000	22.463	0.101
194.100	32.287	0.101
194.200	28.969	0.101
194.300	30.578	0.101
194.400	25.837	0.101
194.500	33.784	0.101
194.600	30.988	0.101
194.700	39.916	0.101
194.800	33.574	0.101
194.900	26.736	0.101
195.000	16.110	0.101
195.100	23.219	0.101
195.200	41.967	0.101
195.300	39.599	0.101
195.400	33.980	0.101
195.500	22.624	0.101
195.600	28.623	0.101
195.700	40.404	0.101
195.800	32.130	0.101
195.900	35.112	0.101
196.000	23.019	0.101
196.100	30.080	0.101
196.200	28.539	0.101
196.300	29.899	0.101
196.400	33.020	0.101
196.500	37.419	0.101
196.600	31.122	0.101
196.700	25.936	0.101
196.800	37.488	0.101
196.900	37.886	0.101
197.000	18.816	0.101
197.100	41.118	0.101
197.200	29.531	0.101
197.300	34.501	0.101
197.400	37.247	0.101
197.500	36.872	0.101
197.600	34.496	0.101
197.700	39.184	0.101
197.800	32.535	0.101
197.900	36.743	0.101
198.000	38.464	0.101
198.100	34.617	0.101
198.200	30.067	0.101
198.300	31.930	0.101
198.400	33.488	0.101
198.500	42.464	0.101
198.600	33.461	0.101
198.700	32.042	0.101
198.800	25.460	0.101
198.900	36.928	0.101
199.000	35.436	0.101
199.100	39.091	0.101
199.200	32.290	0.101
199.300	27.043	0.101
199.400	29.482	0.101
199.500	35.917	0.101
199.600	30.047	0.101
199.700	27.673	0.101
199.800	38.688	0.101
199.900	38.674	0.101
200.000	31.469	0.101
200.100	45.630	0.101
200.200	43.145	0.101
200.300	39.432	0.101
200.400	37.302	0.101
200.500	32.332	0.101
200.600	23.381	0.101
200.700	27.443	0.101
200.800	33.833	0.101
200.900	25.726	0.101
201.000	27.595	0.101
201.100	41.382	0.101
201.200	39.787	0.101
201.300	37.976	0.101
201.400	29.471	0.101
201.500	34.949	0.101
201.600	41.459	0.101
201.700	33.337	0.101
201.800	33.587	0.101
201.900	39.838	0.101
202.000	43.847	0.101
202.100	40.403	0.101
202.200	28.645	0.101
202.300	36.450	0.101
202.400	36.905	0.101
202.500	32.354	0.101
202.600	34.030	0.101
202.700	23.646	0.101
202.800	28.778	0.101
202.900	41.341	0.101
203.000	38.152	0.101
203.100	34.657	0.101
203.200	37.137	0.101
203.300	41.287	0.101
203.400	35.039	0.101
203.500	37.075	0.101
203.600	24.234	0.101
203.700	23.772	0.101
203.800	35.673	0.101
203.900	33.123	0.101
204.000	38.059	0.101
204.100	34.421	0.101
204.200	38.158	0.101
204.300	32.049	0.101
204.400	38.436	0.101
204.500	35.066	0.101
204.600	31.963	0.101
204.700	26.496	0.101
204.800	30.212	0.101
204.900	45.647	0.101
205.000	32.395	0.101
205.100	34.949	0.101
205.200	44.356	0.101
205.300	41.948	0.101
205.400	33.711	0.101
205.500	21.445	0.101
205.600	21.801	0.101
205.700	31.653	0.101
205.800	26.534	0.101
205.900	23.367	0.101
206.000	35.911	0.101
206.100	27.126	0.101
206.200	24.054	0.101
206.300	34.487	0.101
206.400	31.778	0.101
206.500	32.264	0.101
206.600	35.549	0.101
206.700	39.622	0.101
206.800	41.685	0.101
206.900	34.603	0.101
207.000	29.343	0.101
207.100	31.676	0.101
207.200	37.974	0.101
207.300	31.537	0.101
207.400	37.863	0.101
207.500	37.261	0.101
207.600	42.253	0.101
207.700	29.667	0.101
207.800	30.692	0.101
207.900	25.183	0.101
208.000	35.219	0.101
208.100	27.309	0.101
208.200	34.058	0.101
208.300	27.371	0.101
208.400	41.807	0.101
208.500	31.773	0.101
208.600	29.814	0.101
208.700	27.364	0.101
208.800	31.066	0.101
208.900	38.554	0.101
209.000	29.857	0.101
209.100	32.464	0.101
209.200	34.240	0.101
209.300	31.497	0.101
209.400	23.959	0.101
209.500	36.995	0.101
209.600	29.057	0.101
209.700	33.365	0.101
209.800	30.164	0.101
209.900	34.883	0.101
210.000	35.069	0.101
210.100	22.604	0.101
210.200	24.979	0.101
210.300	27.683	0.101
210.400	34.025	0.101
210.500	30.660	0.101
210.600	29.135	0.101
210.700	26.320	0.101
210.800	32.017	0.101
210.900	24.680	0.101
211.000	31.642	0.101
211.100	28.075	0.101
211.200	29.274	0.101
211.300	27.302	0.101
211.400	34.314	0.101
211.500	40.451	0.101
211.600	33.838	0.101
211.700	25.039	0.101
211.800	26.282	0.101
211.900	24.940	0.101
212.000	49.113	0.101
212.100	34.041	0.101
212.200	37.971	0.101
212.300	25.274	0.101
212.400	30.952	0.101
212.500	30.410	0.101
212.600	28.292	0.101
212.700	25.641	0.101
212.800	40.044	0.101
212.900	27.319	0.101
213.000	35.431	0.101
213.100	18.360	0.101
213.200	30.596	0.101
213.300	17.013	0.101
213.400	36.426	0.101
213.500	32.110	0.101
213.600	30.952	0.101
213.700	28.456	0.101
213.800	26.113	0.101
213.900	32.416	0.101
214.000	27.996	0.101
214.100	28.827	0.101
214.200	31.391	0.101
214.300	25.561	0.101
214.400	31.206	0.101
214.500	28.340	0.101
214.600	39.681	0.101
214.700	31.040	0.101
214.800	32.802	0.101
214.900	36.047	0.101
215.000	35.356	0.101
215.100	27.849	0.101
215.200	25.048	0.101
215.300	27.430	0.101
215.400	21.976	0.101
215.500	24.758	0.101
215.600	35.609	0.101
215.700	30.487	0.101
215.800	39.612	0.101
215.900	21.683	0.101
216.000	29.844	0.101
216.100	26.979	0.101
216.200	27.747	0.101
216.300	34.198	0.101
216.400	40.296	0.101
216.500	28.213	0.101
216.600	31.845	0.101
216.700	26.611	0.101
216.800	39.784	0.101
216.900	27.667	0.101
217.000	35.078	0.101
217.100	28.193	0.101
217.200	27.863	0.101
217.300	15.773	0.101
217.400	23.593	0.101
217.500	32.081	0.101
217.600	26.798	0.101
217.700	36.388	0.101
217.800	33.930	0.101
217.900	30.646	0.101
218.000	32.338	0.101
218.100	25.680	0.101
218.200	35.578	0.101
218.300	31.118	0.101
218.400	23.421	0.101
218.500	32.032	0.101
218.600	44.970	0.101
218.700	35.981	0.101
218.800	26.069	0.101
218.900	29.300	0.101
219.000	22.165	0.101
219.100	35.043	0.101
219.200	37.253	0.101
219.300	20.623	0.101
219.400	31.285	0.101
219.500	21.896	0.101
219.600	28.858	0.101
219.700	38.310	0.101
219.800	28.609	0.101
219.900	28.238	0.101
220.000	35.844	0.101
220.100	36.709	0.101
220.200	20.205	0.101
220.300	22.833	0.101
220.400	37.446	0.101
220.500	24.562	0.101
220.600	43.070	0.101
220.700	37.011	0.101
220.800	32.119	0.101
220.900	30.137	0.101
221.000	20.811	0.101
221.100	25.668	0.101
221.200	20.381	0.101
221.300	23.179	0.101
221.400	28.646	0.101
221.500	20.364	0.101
221.600	30.970	0.101
221.700	35.306	0.101
221.800	21.617	0.101
221.900	28.015	0.101
222.000	31.933	0.101
222.100	26.616	0.101
222.200	31.278	0.101
222.300	33.066	0.101
222.400	30.541	0.101
222.500	26.179	0.101
222.600	29.814	0.101
222.700	36.775	0.101
222.800	22.503	0.101
222.900	19.180	0.101
223.000	37.151	0.101
223.100	39.627	0.101
223.200	39.860	0.101
223.300	23.664	0.101
223.400	28.635	0.101
223.500	27.118	0.101
223.600	29.574	0.101
223.700	27.515	0.101
223.800	21.854	0.101
223.900	34.341	0.101
224.000	35.730	0.101
224.100	28.448	0.101
224.200	18.740	0.101
224.300	19.288	0.101
224.400	30.678	0.101
224.500	32.901	0.101
224.600	27.837	0.101
224.700	25.955	0.101
224.800	25.180	0.101
224.900	19.288	0.101
225.000	37.450	0.101
225.100	30.041	0.101
225.200	28.116	0.101
225.300	31.614	0.101
225.400	22.698	0.101
225.500	36.815	0.101
225.600	31.611	0.101
225.700	27.016	0.101
225.800	26.284	0.101
225.900	21.042	0.101
226.000	31.747	0.101
226.100	25.828	0.101
226.200	28.116	0.101
226.300	26.148	0.101
226.400	31.045	0.101
226.500	23.714	0.101
226.600	31.289	0.101
226.700	24.725	0.101
226.800	28.274	0.101
226.900	23.297	0.101
227.000	32.049	0.101
227.100	27.463	0.101
227.200	29.132	0.101
227.300	29.168	0.101
227.400	41.416	0.101
227.500	28.427	0.101
227.600	31.508	0.101
227.700	32.671	0.101
227.800	29.950	0.101
227.900	30.993	0.101
228.000	28.939	0.101
228.100	23.134	0.101
228.200	22.884	0.101
228.300	35.454	0.101
228.400	23.587	0.101
228.500	21.436	0.101
228.600	25.987	0.101
228.700	32.761	0.101
228.800	26.372	0.101
228.900	34.904	0.101
229.000	28.546	0.101
229.100	19.795	0.101
229.200	27.253	0.101
229.300	27.555	0.101
229.400	30.062	0.101
229.500	32.647	0.101
229.600	32.720	0.101
229.700	34.029	0.101
229.800	24.945	0.101
229.900	24.490	0.101
230.000	26.334	0.101
230.100	29.141	0.101
230.200	22.191	0.101
230.300	29.194	0.101
230.400	31.571	0.101
230.500	18.667	0.101
230.600	32.464	0.101
230.700	23.457	0.101
230.800	31.580	0.101
230.900	32.197	0.101
231.000	22.031	0.101
231.100	22.655	0.101
231.200	27.299	0.101
231.300	39.327	0.101
231.400	22.289	0.101
231.500	30.916	0.101
231.600	32.257	0.101
231.700	39.383	0.101
231.800	12.461	0.101
231.900	33.558	0.101
232.000	27.513	0.101
232.100	24.067	0.101
232.200	32.544	0.101
232.300	35.407	0.101
232.400	25.275	0.101
232.500	21.732	0.101
232.600	19.241	0.101
232.700	26.800	0.101
232.800	27.004	0.101
232.900	31.879	0.101
233.000	38.123	0.101
233.100	25.292	0.101
233.200	33.155	0.101
233.300	18.294	0.101
233.400	18.778	0.101
233.500	39.774	0.101
233.600	22.100	0.101
233.700	31.686	0.101
233.800	33.672	0.101
233.900	35.105	0.101
234.000	30.208	0.101
234.100	34.600	0.101
234.200	24.697	0.101
234.300	31.543	0.101
234.400	32.635	0.101
234.500	34.279	0.101
234.600	27.230	0.101
234.700	24.261	0.101
234.800	19.064	0.101
234.900	28.271	0.101
235.000	42.285	0.101
235.100	36.659	0.101
235.200	36.835	0.101
235.300	19.645	0.101
235.400	23.941	0.101
235.500	20.505	0.101
235.600	23.996	0.101
235.700	25.721	0.101
235.800	24.707	0.101
235.900	32.108	0.101
236.000	22.281	0.101
236.100	29.252	0.101
236.200	21.246	0.101
236.300	23.156	0.101
236.400	25.216	0.101
236.500	31.362	0.101
236.600	31.546	0.101
236.700	28.456	0.101
236.800	27.511	0.101
236.900	28.404	0.101
237.000	37.454	0.101
237.100	28.020	0.101
237.200	25.221	0.101
237.300	31.620	0.101
237.400	32.220	0.101
237.500	27.914	0.101
237.600	29.999	0.101
237.700	24.703	0.101
237.800	15.468	0.101
237.900	22.196	0.101
238.000	31.280	0.101
238.100	31.946	0.101
238.200	25.590	0.101
238.300	29.424	0.101
238.400	31.134	0.101
238.500	30.653	0.101
238.600	24.387	0.101
238.700	36.500	0.101
238.800	38.138	0.101
238.900	33.398	0.101
239.000	24.974	0.101
239.100	27.744	0.101
239.200	23.483	0.101
239.300	26.060	0.101
239.400	27.179	0.101
239.500	34.022	0.101
239.600	29.491	0.101
239.700	23.652	0.101
239.800	31.487	0.101
239.900	43.404	0.101
240.000	26.317	0.101
240.100	26.642	0.101
240.200	25.366	0.101
240.300	34.713	0.101
240.400	30.476	0.101
240.500	20.306	0.101
240.600	20.319	0.101
240.700	24.178	0.101
240.800	16.394	0.101
240.900	15.412	0.101
241.000	24.585	0.101
241.100	24.023	0.101
241.200	-4.256	0.101
241.300	-0.081	0.101
241.400	1.196	0.101
241.500	-0.605	0.101
241.600	4.895	0.101
241.700	0.684	0.101
241.800	-7.756	0.101
241.900	-2.875	0.101
242.000	-8.918	0.101
242.100	-9.674	0.101
242.200	-16.178	0.101
242.300	-10.543	0.101
242.400	-8.494	0.101
242.500	-15.325	0.101
242.600	-20.280	0.101
242.700	-29.936	0.101
242.800	-24.681	0.101
242.900	-19.853	0.101
243.000	-23.901	0.101
243.100	-9.703	0.101
243.200	-23.809	0.101
243.300	-23.530	0.101
243.400	-22.323	0.101
243.500	-28.877	0.101
243.600	-26.499	0.101
243.700	-17.275	0.101
243.800	-21.717	0.101
243.900	-22.250	0.101
244.000	-28.659	0.101
244.100	-25.183	0.101
244.200	-29.115	0.101
244.300	-19.634	0.101
244.400	-22.579	0.101
244.500	-11.479	0.101
244.600	-23.531	0.101
244.700	-30.661	0.101
244.800	-28.570	0.101
244.900	-21.777	0.101
245.000	-10.423	0.101
245.100	-24.353	0.101
245.200	-24.080	0.101
245.300	-19.350	0.101
245.400	-23.947	0.101
245.500	-15.836	0.101
245.600	-24.411	0.101
245.700	-24.498	0.101
245.800	-17.251	0.101
245.900	-17.390	0.101
246.000	-17.706	0.101
246.100	-28.340	0.101
246.200	-33.403	0.101
246.300	-10.322	0.101
246.400	-22.373	0.101
246.500	-32.635	0.101
246.600	-26.261	0.101
246.700	-12.985	0.101
246.800	-13.560	0.101
246.900	-11.998	0.101
247.000	-22.817	0.101
247.100	-17.424	0.101
247.200	-24.836	0.101
247.300	-19.684	0.101
247.400	-18.561	0.101
247.500	-13.400	0.101
247.600	-25.798	0.101
247.700	-22.593	0.101
247.800	-18.039	0.101
247.900	-8.633	0.101
248.000	-13.141	0.101
248.100	-18.084	0.101
248.200	-14.170	0.101
248.300	-22.520	0.101
248.400	-11.282	0.101
248.500	-23.031	0.101
248.600	-31.199	0.101
248.700	-13.955	0.101
248.800	-17.580	0.101
248.900	-18.169	0.101
249.000	-22.203	0.101
249.100	-10.794	0.101
249.200	-15.569	0.101
249.300	-10.733	0.101
249.400	-10.052	0.101
249.500	-8.009	0.101
249.600	-16.661	0.101
249.700	-16.318	0.101
249.800	-9.583	0.101
249.900	-21.591	0.101
250.000	-24.358	0.101
250.100	-15.131	0.101
250.200	-12.564	0.101
250.300	-12.004	0.101
250.400	-19.798	0.101
250.500	-16.882	0.101
250.600	-15.829	0.101
250.700	-17.555	0.101
250.800	-18.476	0.101
250.900	-17.004	0.101
251.000	-33.389	0.101
251.100	-14.758	0.101
251.200	-17.792	0.101
251.300	-11.373	0.101
251.400	-11.850	0.101
251.500	-28.217	0.101
251.600	-11.756	0.101
251.700	-10.324	0.101
251.800	-15.211	0.101
251.900	-19.461	0.101
252.000	-11.407	0.101
252.100	-17.894	0.101
252.200	-24.901	0.101
252.300	-10.911	0.101
252.400	-13.690	0.101
252.500	-17.702	0.101
252.600	-20.506	0.101
252.700	-13.476	0.101
252.800	-4.809	0.101
252.900	-22.901	0.101
253.000	-17.082	0.101
253.100	-5.293	0.101
253.200	-12.712	0.101
253.300	-10.012	0.101
253.400	-6.369	0.101
253.500	-14.034	0.101
253.600	-12.515	0.101
253.700	-17.983	0.101
253.800	-22.703	0.101
253.900	-15.537	0.101
254.000	-20.701	0.101
254.100	-11.427	0.101
254.200	-23.105	0.101
254.300	-3.243	0.101
254.400	-9.537	0.101
254.500	-25.435	0.101
254.600	-17.155	0.101
254.700	-16.556	0.101
254.800	-13.524	0.101
254.900	-22.282	0.101
255.000	-6.327	0.101
255.100	-15.742	0.101
255.200	-11.371	0.101
255.300	-17.626	0.101
255.400	-16.452	0.101
255.500	-20.507	0.101
255.600	-11.213	0.101
255.700	-10.391	0.101
255.800	-19.623	0.101
255.900	-20.259	0.101
256.000	-8.124	0.101
256.100	-25.845	0.101
256.200	-13.544	0.101
256.300	-4.093	0.101
256.400	-10.019	0.101
256.500	-14.484	0.101
256.600	-31.948	0.101
256.700	-15.621	0.101
256.800	-27.771	0.101
256.900	-16.159	0.101
257.000	-17.619	0.101
257.100	-7.488	0.101
257.200	-15.104	0.101
257.300	-10.721	0.101
257.400	-13.696	0.101
257.500	-32.850	0.101
257.600	-13.025	0.101
257.700	-14.704	0.101
257.800	-14.276	0.101
257.900	-8.945	0.101
258.000	-22.222	0.101
258.100	-21.611	0.101
258.200	-20.366	0.101
258.300	-5.097	0.101
258.400	-17.465	0.101
258.500	-17.585	0.101
258.600	-7.099	0.101
258.700	-19.588	0.101
258.800	-16.027	0.101
258.900	-11.921	0.101
259.000	-11.425	0.101
259.100	-12.471	0.101
259.200	-11.425	0.101
259.300	-27.190	0.101
259.400	-8.394	0.101
259.500	-19.295	0.101
259.600	-20.180	0.101
259.700	-23.696	0.101
259.800	-9.041	0.101
259.900	-17.727	0.101
260.000	-18.170	0.101
260.100	-24.831	0.101
260.200	-14.632	0.101
260.300	-23.562	0.101
260.400	-11.042	0.101
260.500	-11.053	0.101
260.600	-18.911	0.101
260.700	-14.934	0.101
260.800	-13.454	0.101
260.900	-14.151	0.101
261.000	-23.240	0.101
261.100	-19.648	0.101
261.200	-6.117	0.101
261.300	-12.551	0.101
261.400	-15.562	0.101
261.500	-15.960	0.101
261.600	-16.875	0.101
261.700	-24.791	0.101
261.800	-15.628	0.101
261.900	-22.753	0.101
262.000	-24.821	0.101
262.100	-15.216	0.101
262.200	-11.758	0.101
262.300	-13.789	0.101
262.400	-14.710	0.101
262.500	-14.088	0.101
262.600	-14.466	0.101
262.700	-13.051	0.101
262.800	-23.243	0.101
262.900	-15.287	0.101
263.000	-13.249	0.101
263.100	-17.115	0.101
263.200	-16.843	0.101
263.300	-11.113	0.101
263.400	-13.713	0.101
263.500	-20.828	0.101
263.600	-15.227	0.101
263.700	-12.997	0.101
263.800	-26.078	0.101
263.900	-18.342	0.101
264.000	-10.060	0.101
264.100	-24.413	0.101
264.200	-22.969	0.101
264.300	-22.496	0.101
264.400	-19.296	0.101
264.500	-15.281	0.101
264.600	-6.043	0.101
264.700	-18.804	0.101
264.800	-18.090	0.101
264.900	-16.006	0.101
265.000	-18.984	0.101
265.100	-11.312	0.101
265.200	-19.119	0.101
265.300	-15.246	0.101
265.400	-14.774	0.101
265.500	-11.622	0.101
265.600	-31.285	0.101
265.700	-31.081	0.101
265.800	-9.586	0.101
265.900	-23.651	0.101
266.000	-17.659	0.101
266.100	-26.040	0.101
266.200	-16.508	0.101
266.300	-8.777	0.101
266.400	-11.114	0.101
266.500	-23.430	0.101
266.600	-16.415	0.101
266.700	-14.178	0.101
266.800	-19.033	0.101
266.900	-17.584	0.101
267.000	-5.174	0.101
267.100	-25.205	0.101
267.200	-13.646	0.101
267.300	-29.042	0.101
267.400	-12.032	0.101
267.500	-12.124	0.101
267.600	-15.068	0.101
267.700	-27.529	0.101
267.800	-19.123	0.101
267.900	-26.498	0.101
268.000	-14.300	0.101
268.100	-18.291	0.101
268.200	-12.135	0.101
268.300	-18.549	0.101
268.400	-5.658	0.101
268.500	-16.320	0.101
268.600	-17.594	0.101
268.700	-19.577	0.101
268.800	-23.945	0.101
268.900	-14.044	0.101
269.000	-11.736	0.101
269.100	-22.744	0.101
269.200	-21.680	0.101
269.300	-22.128	0.101
269.400	-8.896	0.101
269.500	-19.587	0.101
269.600	-17.354	0.101
269.700	-9.174	0.101
269.800	-14.256	0.101
269.900	-27.366	0.101
270.000	-28.062	0.101
270.100	-11.623	0.101
270.200	-3.307	0.101
270.300	-12.146	0.101
270.400	-18.282	0.101
270.500	-21.411	0.101
270.600	-18.171	0.101
270.700	-22.331	0.101
270.800	-23.971	0.101
270.900	-18.269	0.101
271.000	-17.188	0.101
271.100	-23.528	0.101
271.200	-16.853	0.101
271.300	-16.896	0.101
271.400	-26.673	0.101
271.500	-14.902	0.101
271.600	-17.658	0.101
271.700	-14.154	0.101
271.800	-18.417	0.101
271.900	-26.405	0.101
272.000	-21.978	0.101
272.100	-26.073	0.101
272.200	-13.072	0.101
272.300	-13.296	0.101
272.400	-9.890	0.101
272.500	-18.499	0.101
272.600	-25.204	0.101
272.700	-28.431	0.101
272.800	-6.552	0.101
272.900	-19.813	0.101
273.000	-6.988	0.101
273.100	-21.491	0.101
273.200	-20.069	0.101
273.300	-24.425	0.101
273.400	-17.182	0.101
273.500	-16.819	0.101
273.600	-12.410	0.101
273.700	-14.494	0.101
273.800	-19.135	0.101
273.900	-26.735	0.101
274.000	-14.104	0.101
274.100	-14.884	0.101
274.200	-22.140	0.101
274.300	-19.961	0.101
274.400	-12.179	0.101
274.500	-12.843	0.101
274.600	-17.110	0.101
274.700	-21.839	0.101
274.800	-21.094	0.101
274.900	-13.240	0.101
275.000	-13.555	0.101
275.100	-25.553	0.101
275.200	-18.682	0.101
275.300	-25.919	0.101
275.400	-22.939	0.101
275.500	-22.730	0.101
275.600	-8.943	0.101
275.700	-21.017	0.101
275.800	-14.603	0.101
275.900	-12.192	0.101
276.000	-21.691	0.101
276.100	-15.481	0.101
276.200	-25.796	0.101
276.300	-29.673	0.101
276.400	-21.610	0.101
276.500	-19.302	0.101
276.600	-12.973	0.101
276.700	-25.372	0.101
276.800	-9.103	0.101
276.900	-21.257	0.101
277.000	-9.917	0.101
277.100	-18.619	0.101
277.200	-18.394	0.101
277.300	-22.581	0.101
277.400	-26.351	0.101
277.500	-26.462	0.101
277.600	-15.840	0.101
277.700	-18.225	0.101
277.800	-15.965	0.101
277.900	-15.837	0.101
278.000	-15.034	0.101
278.100	-21.666	0.101
278.200	-12.273	0.101
278.300	-14.170	0.101
278.400	-13.678	0.101
278.500	-29.360	0.101
278.600	-5.230	0.101
278.700	-22.584	0.101
278.800	-25.544	0.101
278.900	-29.652	0.101
279.000	-20.062	0.101
279.100	-10.721	0.101
279.200	-14.777	0.101
279.300	-25.098	0.101
279.400	-13.792	0.101
279.500	-19.972	0.101
279.600	-16.469	0.101
279.700	-25.693	0.101
279.800	-16.278	0.101
279.900	-22.715	0.101
280.000	-20.957	0.101
280.100	-22.063	0.101
280.200	-15.662	0.101
280.300	-18.888	0.101
280.400	-9.953	0.101
280.500	-10.267	0.101
280.600	-21.935	0.101
280.700	-12.256	0.101
280.800	-12.798	0.101
280.900	-27.313	0.101
281.000	-16.366	0.101
281.100	-15.681	0.101
281.200	-12.150	0.101
281.300	-14.823	0.101
281.400	-18.284	0.101
281.500	-24.133	0.101
281.600	-14.578	0.101
281.700	-14.921	0.101
281.800	-17.195	0.101
281.900	-23.270	0.101
282.000	-28.422	0.101
282.100	-15.462	0.101
282.200	-22.209	0.101
282.300	-8.581	0.101
282.400	-31.804	0.101
282.500	-25.857	0.101
282.600	-21.109	0.101
282.700	-15.114	0.101
282.800	-22.963	0.101
282.900	-18.156	0.101
283.000	-28.546	0.101
283.100	-19.039	0.101
283.200	-14.107	0.101
283.300	-16.739	0.101
283.400	-22.167	0.101
283.500	-16.452	0.101
283.600	-20.533	0.101
283.700	-15.091	0.101
283.800	-12.991	0.101
283.900	-19.139	0.101
284.000	-26.375	0.101
284.100	-18.596	0.101
284.200	-9.572	0.101
284.300	-20.353	0.101
284.400	-10.858	0.101
284.500	-27.667	0.101
284.600	-12.610	0.101
284.700	-21.680	0.101
284.800	-17.900	0.101
284.900	-17.728	0.101
285.000	-26.517	0.101
285.100	-14.259	0.101
285.200	-17.905	0.101
285.300	-30.498	0.101
285.400	-19.022	0.101
285.500	-16.639	0.101
285.600	-19.632	0.101
285.700	-19.576	0.101
285.800	-16.350	0.101
285.900	-15.829	0.101
286.000	-15.489	0.101
286.100	-20.093	0.101
286.200	-22.437	0.101
286.300	-19.859	0.101
286.400	-18.500	0.101
286.500	-18.163	0.101
286.600	-11.766	0.101
286.700	-28.396	0.101
286.800	-10.679	0.101
286.900	-11.576	0.101
287.000	-19.357	0.101
287.100	-11.844	0.101
287.200	-5.173	0.101
287.300	-20.716	0.101
287.400	-9.967	0.101
287.500	-16.540	0.101
287.600	-16.999	0.101
287.700	-20.439	0.101
287.800	-20.852	0.101
287.900	-18.942	0.101
288.000	-15.077	0.101
288.100	-20.992	0.101
288.200	-16.771	0.101
288.300	-20.432	0.101
288.400	-15.279	0.101
288.500	-23.031	0.101
288.600	-25.681	0.101
288.700	-12.540	0.101
288.800	-24.557	0.101
288.900	-25.212	0.101
289.000	-21.575	0.101
289.100	-3.757	0.101
289.200	-23.163	0.101
289.300	-19.116	0.101
289.400	-12.414	0.101
289.500	-16.413	0.101
289.600	-19.949	0.101
289.700	-10.131	0.101
289.800	-11.438	0.101
289.900	-21.248	0.101
290.000	-17.078	0.101
290.100	-21.217	0.101
290.200	-16.976	0.101
290.300	-17.096	0.101
290.400	-17.730	0.101
290.500	-21.196	0.101
290.600	-20.776	0.101
290.700	-20.815	0.101
290.800	-18.415	0.101
290.900	-17.089	0.101
291.000	-22.111	0.101
291.100	-19.623	0.101
291.200	-11.024	0.101
291.300	-3.627	0.101
291.400	-14.699	0.101
291.500	-11.740	0.101
291.600	-21.768	0.101
291.700	-19.558	0.101
291.800	-16.356	0.101
291.900	-15.337	0.101
292.000	-15.717	0.101
292.100	-21.113	0.101
292.200	-21.817	0.101
292.300	-13.335	0.101
292.400	-31.295	0.101
292.500	-19.198	0.101
292.600	-12.689	0.101
292.700	-22.426	0.101
292.800	-21.307	0.101
292.900	-10.874	0.101
293.000	-16.138	0.101
293.100	-9.452	0.101
293.200	-22.432	0.101
293.300	-25.899	0.101
293.400	-28.633	0.101
293.500	-15.990	0.101
293.600	-20.788	0.101
293.700	-14.582	0.101
293.800	-13.356	0.101
293.900	-18.249	0.101
294.000	-14.028	0.101
294.100	-14.821	0.101
294.200	-10.595	0.101
294.300	-23.436	0.101
294.400	-12.493	0.101
294.500	-14.276	0.101
294.600	-6.244	0.101
294.700	-13.297	0.101
294.800	-14.718	0.101
294.900	-18.878	0.101
295.000	-18.856	0.101
295.100	-30.640	0.101
295.200	-17.351	0.101
295.300	-8.348	0.101
295.400	-10.084	0.101
295.500	-10.973	0.101
295.600	-19.595	0.101
295.700	-6.182	0.101
295.800	-19.087	0.101
295.900	-21.101	0.101
296.000	-13.406	0.101
296.100	-15.144	0.101
296.200	-17.790	0.101
296.300	-23.339	0.101
296.400	-17.140	0.101
296.500	-15.857	0.101
296.600	0.120	0.101
296.700	-15.850	0.101
296.800	-21.827	0.101
296.900	-21.450	0.101
297.000	-22.150	0.101
297.100	-18.297	0.101
297.200	-17.084	0.101
297.300	-16.803	0.101
297.400	-12.723	0.101
297.500	-24.006	0.101
297.600	-20.849	0.101
297.700	-5.184	0.101
297.800	-12.405	0.101
297.900	-13.984	0.101
298.000	-12.691	0.101
298.100	-24.022	0.101
298.200	-9.251	0.101
298.300	-14.780	0.101
298.400	-8.120	0.101
298.500	-23.977	0.101
298.600	-17.854	0.101
298.700	-18.409	0.101
298.800	-6.360	0.101
298.900	-12.711	0.101
299.000	-19.345	0.101
299.100	-14.565	0.101
299.200	-11.708	0.101
299.300	-20.431	0.101
299.400	-14.410	0.101
299.500	-13.411	0.101
299.600	-12.262	0.101
299.700	-13.201	0.101
299.800	-24.349	0.101
299.900	-21.285	0.101
300.000	-17.283	0.101
300.100	-2.251	0.101
300.200	-18.071	0.101
300.300	-20.421	0.101
300.400	-11.261	0.101
300.500	-7.981	0.101
300.600	-19.930	0.101
300.700	-14.641	0.101
300.800	-13.899	0.101
300.900	-9.731	0.101
301.000	-13.805	0.101
301.100	-22.063	0.101
301.200	-22.469	0.101
301.300	-18.635	0.101
301.400	-12.271	0.101
301.500	-17.911	0.101
301.600	-23.358	0.101
301.700	-14.048	0.101
301.800	-15.080	0.101
301.900	-18.409	0.101
302.000	-13.221	0.101
302.100	-19.215	0.101
302.200	-21.736	0.101
302.300	-17.490	0.101
302.400	-7.616	0.101
302.500	-12.704	0.101
302.600	-14.961	0.101
302.700	-8.126	0.101
302.800	-10.571	0.101
302.900	-25.179	0.101
303.000	-22.055	0.101
303.100	-5.870	0.101
303.200	-11.476	0.101
303.300	-17.178	0.101
303.400	-19.915	0.101
303.500	-10.591	0.101
303.600	-8.827	0.101
303.700	-10.175	0.101
303.800	-12.218	0.101
303.900	-4.264	0.101
304.000	-15.755	0.101
304.100	-15.940	0.101
304.200	-16.601	0.101
304.300	-21.332	0.101
304.400	-9.422	0.101
304.500	-16.022	0.101
304.600	-3.898	0.101
304.700	-9.657	0.101
304.800	-22.599	0.101
304.900	-7.884	0.101
305.000	-3.958	0.101
305.100	-23.857	0.101
305.200	-14.420	0.101
305.300	-12.969	0.101
305.400	-17.976	0.101
305.500	-14.339	0.101
305.600	-13.951	0.101
305.700	-8.724	0.101
305.800	-21.422	0.101
305.900	-10.969	0.101
306.000	-19.780	0.101
306.100	-13.590	0.101
306.200	-12.969	0.101
306.300	-10.236	0.101
306.400	-16.655	0.101
306.500	-17.449	0.101
306.600	-10.771	0.101
306.700	-11.053	0.101
306.800	-22.218	0.101
306.900	-6.287	0.101
307.000	-7.127	0.101
307.100	-8.737	0.101
307.200	-13.098	0.101
307.300	-18.070	0.101
307.400	-19.654	0.101
307.500	-17.996	0.101
307.600	-17.385	0.101
307.700	3.172	0.101
307.800	-11.031	0.101
307.900	-12.262	0.101
308.000	-13.815	0.101
308.100	-19.226	0.101
308.200	-14.194	0.101
308.300	-18.421	0.101
308.400	-16.144	0.101
308.500	0.262	0.101
308.600	-15.416	0.101
308.700	-11.174	0.101
308.800	-17.467	0.101
308.900	-12.882	0.101
309.000	-17.287	0.101
309.100	-9.957	0.101
309.200	-16.022	0.101
309.300	-11.980	0.101
309.400	-20.254	0.101
309.500	-8.688	0.101
309.600	-18.580	0.101
309.700	-5.787	0.101
309.800	-22.639	0.101
309.900	-15.904	0.101
310.000	-19.127	0.101
310.100	-14.708	0.101
310.200	-17.117	0.101
310.300	-17.366	0.101
310.400	-11.520	0.101
310.500	-4.841	0.101
310.600	-11.791	0.101
310.700	-22.139	0.101
310.800	-11.611	0.101
310.900	-15.398	0.101
311.000	-10.836	0.101
311.100	-10.752	0.101
311.200	-7.041	0.101
311.300	-10.991	0.101
311.400	-24.476	0.101
311.500	-11.379	0.101
311.600	-7.988	0.101
311.700	-14.947	0.101
311.800	-11.603	0.101
311.900	-7.987	0.101
312.000	-15.984	0.101
312.100	-15.494	0.101
312.200	-5.342	0.101
312.300	-12.294	0.101
312.400	-20.501	0.101
312.500	-19.659	0.101
312.600	-18.061	0.101
312.700	-17.770	0.101
312.800	-14.332	0.101
312.900	-17.202	0.101
313.000	-17.137	0.101
313.100	-9.191	0.101
313.200	-13.530	0.101
313.300	-20.445	0.101
313.400	-15.214	0.101
313.500	-6.114	0.101
313.600	-15.462	0.101
313.700	-12.703	0.101
313.800	-8.302	0.101
313.900	-6.797	0.101
314.000	-15.553	0.101
314.100	-12.501	0.101
314.200	-13.467	0.101
314.300	-10.587	0.101
314.400	-16.149	0.101
314.500	-11.275	0.101
314.600	-22.095	0.101
314.700	-6.312	0.101
314.800	-3.209	0.101
314.900	-18.882	0.101
315.000	-15.157	0.101
315.100	2.724	0.101
315.200	-11.559	0.101
315.300	-22.555	0.101
315.400	-11.018	0.101
315.500	-19.914	0.101
315.600	-9.589	0.101
315.700	-20.205	0.101
315.800	-8.119	0.101
315.900	-5.071	0.101
316.000	-20.851	0.101
316.100	-22.171	0.101
316.200	-25.654	0.101
316.300	-27.517	0.101
316.400	-9.128	0.101
316.500	7.495	0.101
316.600	-18.782	0.101
316.700	-13.919	0.101
316.800	-9.635	0.101
316.900	-11.143	0.101
317.000	-24.913	0.101
317.100	-11.141	0.101
317.200	-13.978	0.101
317.300	-11.787	0.101
317.400	-16.078	0.101
317.500	-17.503	0.101
317.600	-13.373	0.101
317.700	-12.723	0.101
317.800	-18.572	0.101
317.900	-15.141	0.101
318.000	-14.700	0.101
318.100	-2.641	0.101
318.200	-14.810	0.101
318.300	-11.006	0.101
318.400	-14.063	0.101
318.500	-8.777	0.101
318.600	-20.284	0.101
318.700	-18.380	0.101
318.800	-18.174	0.101
318.900	-6.396	0.101
319.000	-9.736	0.101
319.100	-15.935	0.101
319.200	-12.955	0.101
319.300	-19.033	0.101
319.400	-15.120	0.101
319.500	1.082	0.101
319.600	-8.118	0.101
319.700	-15.430	0.101
319.800	-18.463	0.101
319.900	-11.674	0.101
320.000	-11.883	0.101
320.100	-17.484	0.101
320.200	-16.382	0.101
320.300	-10.412	0.101
320.400	-13.063	0.101
320.500	-13.999	0.101
320.600	-13.023	0.101
320.700	-10.821	0.101
320.800	-11.720	0.101
320.900	-10.731	0.101
321.000	-15.188	0.101
321.100	-10.092	0.101
321.200	-19.360	0.101
321.300	-8.574	0.101
321.400	-7.592	0.101
321.500	-16.019	0.101
321.600	-18.587	0.101
321.700	-17.670	0.101
321.800	-17.405	0.101
321.900	-10.108	0.101
322.000	-19.681	0.101
322.100	-7.369	0.101
322.200	-13.813	0.101
322.300	-5.841	0.101
322.400	-6.859	0.101
322.500	-16.856	0.101
322.600	-8.574	0.101
322.700	-9.123	0.101
322.800	-15.604	0.101
322.900	-16.707	0.101
323.000	-13.122	0.101
323.100	-13.567	0.101
323.200	-4.606	0.101
323.300	-19.339	0.101
323.400	-7.583	0.101
323.500	-11.694	0.101
323.600	-10.895	0.101
323.700	-6.717	0.101
323.800	-17.929	0.101
323.900	-8.870	0.101
324.000	-14.095	0.101
324.100	-13.024	0.101
324.200	-8.910	0.101
324.300	-21.424	0.101
324.400	-10.528	0.101
324.500	-20.529	0.101
324.600	-25.757	0.101
324.700	-13.366	0.101
324.800	-12.547	0.101
324.900	-6.476	0.101
325.000	-8.634	0.101
325.100	-5.111	0.101
325.200	-19.624	0.101
325.300	-7.964	0.101
325.400	-14.998	0.101
325.500	-16.035	0.101
325.600	-8.547	0.101
325.700	-15.877	0.101
325.800	-14.462	0.101
325.900	-7.203	0.101
326.000	-10.158	0.101
326.100	-20.733	0.101
326.200	-14.204	0.101
326.300	-15.291	0.101
326.400	-10.747	0.101
326.500	-25.201	0.101
326.600	-10.896	0.101
326.700	-19.093	0.101
326.800	-8.971	0.101
326.900	-8.691	0.101
327.000	-9.096	0.101
327.100	-11.009	0.101
327.200	-16.388	0.101
327.300	-11.154	0.101
327.400	-9.976	0.101
327.500	-11.016	0.101
327.600	-7.172	0.101
327.700	-6.869	0.101
327.800	-12.126	0.101
327.900	-26.567	0.101
328.000	1.532	0.101
328.100	-2.650	0.101
328.200	-3.595	0.101
328.300	-14.445	0.101
328.400	-1.596	0.101
328.500	-13.002	0.101
328.600	-6.012	0.101
328.700	-24.921	0.101
328.800	-10.376	0.101
328.900	-2.387	0.101
329.000	-9.081	0.101
329.100	-17.742	0.101
329.200	-14.179	0.101
329.300	-23.548	0.101
329.400	-10.507	0.101
329.500	-7.779	0.101
329.600	-18.394	0.101
329.700	-9.057	0.101
329.800	-11.199	0.101
329.900	-17.070	0.101
330.000	-17.205	0.101
330.100	-15.335	0.101
330.200	-8.100	0.101
330.300	-13.580	0.101
330.400	-3.786	0.101
330.500	-17.850	0.101
330.600	-3.888	0.101
330.700	-5.155	0.101
330.800	-1.615	0.101
330.900	-9.069	0.101
331.000	-10.647	0.101
331.100	5.911	0.101
331.200	3.950	0.101
331.300	-1.693	0.101
331.400	11.760	0.101
331.500	14.575	0.101
331.600	16.187	0.101
331.700	22.763	0.101
331.800	12.883	0.101
331.900	13.936	0.101
332.000	16.910	0.101
332.100	11.798	0.101
332.200	26.733	0.101
332.300	20.998	0.101
332.400	22.197	0.101
332.500	24.094	0.101
332.600	23.147	0.101
332.700	18.948	0.101
332.800	20.034	0.101
332.900	19.744	0.101
333.000	31.267	0.101
333.100	23.610	0.101
333.200	26.472	0.101
333.300	30.991	0.101
333.400	20.703	0.101
333.500	25.835	0.101
333.600	22.981	0.101
333.700	26.057	0.101
333.800	24.121	0.101
333.900	18.175	0.101
334.000	19.101	0.101
334.100	23.374	0.101
334.200	22.594	0.101
334.300	21.179	0.101
334.400	23.824	0.101
334.500	24.625	0.101
334.600	16.436	0.101
334.700	17.229	0.101
334.800	18.816	0.101
334.900	26.068	0.101
335.000	29.818	0.101
335.100	16.148	0.101
335.200	17.429	0.101
335.300	18.887	0.101
335.400	16.032	0.101
335.500	18.247	0.101
335.600	19.705	0.101
335.700	24.224	0.101
335.800	16.608	0.101
335.900	23.566	0.101
336.000	20.902	0.101
336.100	12.280	0.101
336.200	6.990	0.101
336.300	11.119	0.101
336.400	25.365	0.101
336.500	18.942	0.101
336.600	21.445	0.101
336.700	4.868	0.101
336.800	17.919	0.101
336.900	12.203	0.101
337.000	13.957	0.101
337.100	17.018	0.101
337.200	17.851	0.101
337.300	19.381	0.101
337.400	8.510	0.101
337.500	19.138	0.101
337.600	15.676	0.101
337.700	11.495	0.101
337.800	27.432	0.101
337.900	11.352	0.101
338.000	17.226	0.101
338.100	17.065	0.101
338.200	13.204	0.101
338.300	18.867	0.101
338.400	16.925	0.101
338.500	20.418	0.101
338.600	14.757	0.101
338.700	30.945	0.101
338.800	10.535	0.101
338.900	17.783	0.101
339.000	18.849	0.101
339.100	12.280	0.101
339.200	19.313	0.101
339.300	31.839	0.101
339.400	22.203	0.101
339.500	14.265	0.101
339.600	15.213	0.101
339.700	9.693	0.101
339.800	26.018	0.101
339.900	17.748	0.101
340.000	13.331	0.101
340.100	21.257	0.101
340.200	24.647	0.101
340.300	21.653	0.101
340.400	19.471	0.101
340.500	16.399	0.101
340.600	20.436	0.101
340.700	17.315	0.101
340.800	17.594	0.101
340.900	6.881	0.101
341.000	18.122	0.101
341.100	24.452	0.101
341.200	9.689	0.101
341.300	7.682	0.101
341.400	8.333	0.101
341.500	16.495	0.101
341.600	18.480	0.101
341.700	25.510	0.101
341.800	20.818	0.101
341.900	25.502	0.101
342.000	25.045	0.101
342.100	21.137	0.101
342.200	24.954	0.101
342.300	16.370	0.101
342.400	31.938	0.101
342.500	20.180	0.101
342.600	19.369	0.101
342.700	18.002	0.101
342.800	19.843	0.101
342.900	16.217	0.101
343.000	24.046	0.101
343.100	23.663	0.101
343.200	26.122	0.101
343.300	19.985	0.101
343.400	28.192	0.101
343.500	16.074	0.101
343.600	34.024	0.101
343.700	29.626	0.101
343.800	21.250	0.101
343.900	6.892	0.101
344.000	29.130	0.101
344.100	14.677	0.101
344.200	25.090	0.101
344.300	20.170	0.101
344.400	28.026	0.101
344.500	32.202	0.101
344.600	12.392	0.101
344.700	37.823	0.101
344.800	31.161	0.101
344.900	25.746	0.101
345.000	21.933	0.101
345.100	23.381	0.101
345.200	34.586	0.101
345.300	28.510	0.101
345.400	30.275	0.101
345.500	22.587	0.101
345.600	21.662	0.101
345.700	40.050	0.101
345.800	31.368	0.101
345.900	36.877	0.101
346.000	21.167	0.101
346.100	29.051	0.101
346.200	22.907	0.101
346.300	30.873	0.101
346.400	15.409	0.101
346.500	30.285	0.101
346.600	27.692	0.101
346.700	25.684	0.101
346.800	27.118	0.101
346.900	33.495	0.101
347.000	22.026	0.101
347.100	30.716	0.101
347.200	23.490	0.101
347.300	23.105	0.101
347.400	28.224	0.101
347.500	34.340	0.101
347.600	34.691	0.101
347.700	26.415	0.101
347.800	22.448	0.101
347.900	31.085	0.101
348.000	20.219	0.101
348.100	30.609	0.101
348.200	31.757	0.101
348.300	30.224	0.101
348.400	39.901	0.101
348.500	29.321	0.101
348.600	32.743	0.101
348.700	29.616	0.101
348.800	45.827	0.101
348.900	33.362	0.101
349.000	30.750	0.101
349.100	35.458	0.101
349.200	33.301	0.101
349.300	31.992	0.101
349.400	36.717	0.101
349.500	37.007	0.101
349.600	28.969	0.101
349.700	34.764	0.101
349.800	32.059	0.101
349.900	28.332	0.101
350.000	26.018	0.101
350.100	28.597	0.101
350.200	30.408	0.101
350.300	32.412	0.101
350.400	28.133	0.101
350.500	46.066	0.101
350.600	41.422	0.101
350.700	37.364	0.101
350.800	22.544	0.101
350.900	27.727	0.101
351.000	41.855	0.101
351.100	44.122	0.101
351.200	33.868	0.101
351.300	38.053	0.101
351.400	38.284	0.101
351.500	25.983	0.101
351.600	34.166	0.101
351.700	32.791	0.101
351.800	41.475	0.101
351.900	43.450	0.101
352.000	33.033	0.101
352.100	31.451	0.101
352.200	28.721	0.101
352.300	29.214	0.101
352.400	35.379	0.101
352.500	37.316	0.101
352.600	31.667	0.101
352.700	30.242	0.101
352.800	26.887	0.101
352.900	33.752	0.101
353.000	34.475	0.101
353.100	36.000	0.101
353.200	39.215	0.101
353.300	40.389	0.101
353.400	33.948	0.101
353.500	28.549	0.101
353.600	30.613	0.101
353.700	36.587	0.101
353.800	27.475	0.101
353.900	29.301	0.101
354.000	36.718	0.101
354.100	46.206	0.101
354.200	36.589	0.101
354.300	39.005	0.101
354.400	34.369	0.101
354.500	30.528	0.101
354.600	35.630	0.101
354.700	32.167	0.101
354.800	32.506	0.101
354.900	36.552	0.101
355.000	33.682	0.101
355.100	48.442	0.101
355.200	28.518	0.101
355.300	35.022	0.101
355.400	34.858	0.101
355.500	31.172	0.101
355.600	39.115	0.101
355.700	32.655	0.101
355.800	34.844	0.101
355.900	32.405	0.101
356.000	31.017	0.101
356.100	38.853	0.101
356.200	43.210	0.101
356.300	44.814	0.101
356.400	35.346	0.101
356.500	30.968	0.101
356.600	30.732	0.101
356.700	26.568	0.101
356.800	34.528	0.101
356.900	38.546	0.101
357.000	28.843	0.101
357.100	28.411	0.101
357.200	25.226	0.101
357.300	30.223	0.101
357.400	34.605	0.101
357.500	33.932	0.101
357.600	28.875	0.101
357.700	44.871	0.101
357.800	20.659	0.101
357.900	37.273	0.101
358.000	33.138	0.101
358.100	39.894	0.101
358.200	30.289	0.101
358.300	35.477	0.101
358.400	40.004	0.101
358.500	28.564	0.101
358.600	24.872	0.101
358.700	29.979	0.101
358.800	24.556	0.101
358.900	37.718	0.101
359.000	35.027	0.101
359.100	38.309	0.101
359.200	36.510	0.101
359.300	33.454	0.101
359.400	30.487	0.101
359.500	34.446	0.101
359.600	26.326	0.101
359.700	37.168	0.101
359.800	31.218	0.101
359.900	37.126	0.101
360.000	34.488	0.101
360.100	32.151	0.101
360.200	27.162	0.101
360.300	22.405	0.101
360.400	18.535	0.101
360.500	29.282	0.101
360.600	32.872	0.101
360.700	40.670	0.101
360.800	43.221	0.101
360.900	40.313	0.101
361.000	25.621	0.101
361.100	25.858	0.101
361.200	34.820	0.101
361.300	28.612	0.101
361.400	27.483	0.101
361.500	36.013	0.101
361.600	30.001	0.101
361.700	37.584	0.101
361.800	29.806	0.101
361.900	31.695	0.101
362.000	36.237	0.101
362.100	25.234	0.101
362.200	21.345	0.101
362.300	30.665	0.101
362.400	21.495	0.101
362.500	40.318	0.101
362.600	28.519	0.101
362.700	35.993	0.101
362.800	22.286	0.101
362.900	40.693	0.101
363.000	30.689	0.101
363.100	24.874	0.101
363.200	37.641	0.101
363.300	33.698	0.101
363.400	37.285	0.101
363.500	21.708	0.101
363.600	28.339	0.101
363.700	30.302	0.101
363.800	26.703	0.101
363.900	34.436	0.101
364.000	30.234	0.101
364.100	45.849	0.101
364.200	30.272	0.101
364.300	34.295	0.101
364.400	26.654	0.101
364.500	35.415	0.101
364.600	33.872	0.101
364.700	32.772	0.101
364.800	25.756	0.101
364.900	33.041	0.101
365.000	23.083	0.101
365.100	29.067	0.101
365.200	37.463	0.101
365.300	28.307	0.101
365.400	28.105	0.101
365.500	29.722	0.101
365.600	39.055	0.101
365.700	33.782	0.101
365.800	18.972	0.101
365.900	33.927	0.101
366.000	27.332	0.101
366.100	34.829	0.101
366.200	26.963	0.101
366.300	30.991	0.101
366.400	32.303	0.101
366.500	32.490	0.101
366.600	25.532	0.101
366.700	30.556	0.101
366.800	25.109	0.101
366.900	31.855	0.101
367.000	25.359	0.101
367.100	44.723	0.101
367.200	35.908	0.101
367.300	38.605	0.101
367.400	24.537	0.101
367.500	28.824	0.101
367.600	25.168	0.101
367.700	31.155	0.101
367.800	26.722	0.101
367.900	25.635	0.101
368.000	24.191	0.101
368.100	39.789	0.101
368.200	35.184	0.101
368.300	31.033	0.101
368.400	21.674	0.101
368.500	28.021	0.101
368.600	31.028	0.101
368.700	34.862	0.101
368.800	24.174	0.101
368.900	37.056	0.101
369.000	29.163	0.101
369.100	32.634	0.101
369.200	34.250	0.101
369.300	26.444	0.101
369.400	24.323	0.101
369.500	27.454	0.101
369.600	27.369	0.101
369.700	23.250	0.101
369.800	27.931	0.101
369.900	47.626	0.101
370.000	30.196	0.101
370.100	28.833	0.101
370.200	33.051	0.101
370.300	27.663	0.101
370.400	25.890	0.101
370.500	27.338	0.101
370.600	17.010	0.101
370.700	33.569	0.101
370.800	24.203	0.101
370.900	28.424	0.101
371.000	30.635	0.101
371.100	34.621	0.101
371.200	26.532	0.101
371.300	30.760	0.101
371.400	42.496	0.101
371.500	32.059	0.101
371.600	22.411	0.101
371.700	45.040	0.101
371.800	21.325	0.101
371.900	30.765	0.101
372.000	21.806	0.101
372.100	33.435	0.101
372.200	28.988	0.101
372.300	36.786	0.101
372.400	26.242	0.101
372.500	32.652	0.101
372.600	25.685	0.101
372.700	31.169	0.101
372.800	27.661	0.101
372.900	31.483	0.101
373.000	35.916	0.101
373.100	30.349	0.101
373.200	30.147	0.101
373.300	40.410	0.101
373.400	34.785	0.101
373.500	34.310	0.101
373.600	30.886	0.101
373.700	29.493	0.101
373.800	26.095	0.101
373.900	29.237	0.101
374.000	23.200	0.101
374.100	26.344	0.101
374.200	33.058	0.101
374.300	34.145	0.101
374.400	31.655	0.101
374.500	24.033	0.101
374.600	26.171	0.101
374.700	27.312	0.101
374.800	29.868	0.101
374.900	47.081	0.101
375.000	29.345	0.101
375.100	36.313	0.101
375.200	25.590	0.101
375.300	32.168	0.101
375.400	35.384	0.101
375.500	18.002	0.101
375.600	28.759	0.101
375.700	32.729	0.101
375.800	17.947	0.101
375.900	35.041	0.101
376.000	33.348	0.101
376.100	29.274	0.101
376.200	24.030	0.101
376.300	37.942	0.101
376.400	24.943	0.101
376.500	38.619	0.101
376.600	32.650	0.101
376.700	33.571	0.101
376.800	30.415	0.101
376.900	25.575	0.101
377.000	37.225	0.101
377.100	23.966	0.101
377.200	27.789	0.101
377.300	25.592	0.101
377.400	33.035	0.101
377.500	28.354	0.101
377.600	29.951	0.101
377.700	29.147	0.101
377.800	24.063	0.101
377.900	24.467	0.101
378.000	37.006	0.101
378.100	23.657	0.101
378.200	25.899	0.101
378.300	29.380	0.101
378.400	32.264	0.101
378.500	24.981	0.101
378.600	36.233	0.101
378.700	39.622	0.101
378.800	26.041	0.101
378.900	32.854	0.101
379.000	20.220	0.101
379.100	36.597	0.101
379.200	27.416	0.101
379.300	33.312	0.101
379.400	18.259	0.101
379.500	30.287	0.101
379.600	38.273	0.101
379.700	28.339	0.101
379.800	27.701	0.101
379.900	25.326	0.101
380.000	25.349	0.101
380.100	28.032	0.101
380.200	27.611	0.101
380.300	30.924	0.101
380.400	33.072	0.101
380.500	35.017	0.101
380.600	41.775	0.101
380.700	25.395	0.101
380.800	28.589	0.101
380.900	26.564	0.101
381.000	26.552	0.101
381.100	34.556	0.101
381.200	27.858	0.101
381.300	21.347	0.101
381.400	35.276	0.101
381.500	28.159	0.101
381.600	33.253	0.101
381.700	28.799	0.101
381.800	25.660	0.101
381.900	42.727	0.101
382.000	37.366	0.101
382.100	21.965	0.101
382.200	40.475	0.101
382.300	32.308	0.101
382.400	27.694	0.101
382.500	21.697	0.101
382.600	27.725	0.101
382.700	38.792	0.101
382.800	30.755	0.101
382.900	32.464	0.101
383.000	22.244	0.101
383.100	40.951	0.101
383.200	29.034	0.101
383.300	27.813	0.101
383.400	31.067	0.101
383.500	31.739	0.101
383.600	32.319	0.101
383.700	29.361	0.101
383.800	23.078	0.101
383.900	36.611	0.101
384.000	34.837	0.101
384.100	33.444	0.101
384.200	31.377	0.101
384.300	18.207	0.101
384.400	16.185	0.101
384.500	20.055	0.101
384.600	36.278	0.101
384.700	22.217	0.101
384.800	31.337	0.101
384.900	29.245	0.101
385.000	37.313	0.101
385.100	25.617	0.101
385.200	20.849	0.101
385.300	29.986	0.101
385.400	30.058	0.101
385.500	33.012	0.101
385.600	28.160	0.101
385.700	19.793	0.101
385.800	33.494	0.101
385.900	30.445	0.101
386.000	30.493	0.101
386.100	35.698	0.101
386.200	44.173	0.101
386.300	31.200	0.101
386.400	40.186	0.101
386.500	27.726	0.101
386.600	36.430	0.101
386.700	24.275	0.101
386.800	27.483	0.101
386.900	32.113	0.101
387.000	32.600	0.101
387.100	33.606	0.101
387.200	30.890	0.101
387.300	28.923	0.101
387.400	20.181	0.101
387.500	25.404	0.101
387.600	25.067	0.101
387.700	29.940	0.101
387.800	29.080	0.101
387.900	32.939	0.101
388.000	28.587	0.101
388.100	39.538	0.101
388.200	25.608	0.101
388.300	40.374	0.101
388.400	34.506	0.101
388.500	28.978	0.101
388.600	23.863	0.101
388.700	28.289	0.101
388.800	40.287	0.101
388.900	24.960	0.101
389.000	38.307	0.101
389.100	25.722	0.101
389.200	25.954	0.101
389.300	33.604	0.101
389.400	29.121	0.101
389.500	25.801	0.101
389.600	22.691	0.101
389.700	25.268	0.101
389.800	41.781	0.101
389.900	27.904	0.101
390.000	23.181	0.101
390.100	25.509	0.101
390.200	36.580	0.101
390.300	29.630	0.101
390.400	35.124	0.101
390.500	14.860	0.101
390.600	27.414	0.101
390.700	17.062	0.101
390.800	19.676	0.101
390.900	10.620	0.101
391.000	12.803	0.101
391.100	6.655	0.101
391.200	17.300	0.101
391.300	10.026	0.101
391.400	9.353	0.101
391.500	-4.634	0.101
391.600	-10.797	0.101
391.700	-3.316	0.101
391.800	-18.169	0.101
391.900	-1.123	0.101
392.000	-11.183	0.101
392.100	-11.145	0.101
392.200	-7.288	0.101
392.300	-4.344	0.101
392.400	-15.007	0.101
392.500	-14.657	0.101
392.600	-8.727	0.101
392.700	-21.178	0.101
392.800	-21.391	0.101
392.900	-24.157	0.101
393.000	-19.690	0.101
393.100	-22.173	0.101
393.200	-19.157	0.101
393.300	-19.422	0.101
393.400	-30.082	0.101
393.500	-26.438	0.101
393.600	-18.967	0.101
393.700	-34.540	0.101
393.800	-36.735	0.101
393.900	-19.955	0.101
394.000	-10.375	0.101
394.100	-33.295	0.101
394.200	-22.469	0.101
394.300	-26.316	0.101
394.400	-15.688	0.101
394.500	-25.299	0.101
394.600	-21.790	0.101
394.700	-26.468	0.101
394.800	-23.139	0.101
394.900	-18.821	0.101
395.000	-24.180	0.101
395.100	-31.642	0.101
395.200	-27.336	0.101
395.300	-26.554	0.101
395.400	-4.946	0.101
395.500	-24.349	0.101
395.600	-22.472	0.101
395.700	-33.317	0.101
395.800	-24.799	0.101
395.900	-34.840	0.101
396.000	-19.265	0.101
396.100	-24.131	0.101
396.200	-20.191	0.101
396.300	-25.129	0.101
396.400	-25.105	0.101
396.500	-19.456	0.101
396.600	-23.896	0.101
396.700	-25.893	0.101
396.800	-14.491	0.101
396.900	-22.108	0.101
397.000	-16.820	0.101
397.100	-25.886	0.101
397.200	-27.030	0.101
397.300	-15.435	0.101
397.400	-9.686	0.101
397.500	-15.473	0.101
397.600	-21.609	0.101
397.700	-20.926	0.101
397.800	-18.273	0.101
397.900	-26.838	0.101
398.000	-26.225	0.101
398.100	-17.306	0.101
398.200	-9.841	0.101
398.300	-17.331	0.101
398.400	-10.472	0.101
398.500	-19.471	0.101
398.600	-22.964	0.101
398.700	-19.820	0.101
398.800	-15.651	0.101
398.900	-24.904	0.101
399.000	-20.903	0.101
399.100	-14.432	0.101
399.200	-27.467	0.101
399.300	-10.589	0.101
399.400	-8.779	0.101
399.500	-17.931	0.101
399.600	-10.384	0.101
399.700	-19.424	0.101
399.800	-8.199	0.101
399.900	-24.771	0.101
400.000	-21.658	0.101
400.100	-19.310	0.101
400.200	-8.230	0.101
400.300	-14.614	0.101
400.400	-25.554	0.101
400.500	-10.776	0.101
400.600	-13.419	0.101
400.700	-6.537	0.101
400.800	-14.798	0.101
400.900	-12.007	0.101
401.000	-15.910	0.101
401.100	-21.752	0.101
401.200	-14.082	0.101
401.300	-12.787	0.101
401.400	-22.958	0.101
401.500	-12.488	0.101
401.600	-13.721	0.101
401.700	-13.116	0.101
401.800	-18.231	0.101
401.900	-13.142	0.101
402.000	-8.304	0.101
402.100	-13.983	0.101
402.200	-15.841	0.101
402.300	-14.796	0.101
402.400	-15.026	0.101
402.500	-21.285	0.101
402.600	-26.271	0.101
402.700	-28.652	0.101
402.800	-17.347	0.101
402.900	-20.688	0.101
403.000	-10.654	0.101
403.100	-13.016	0.101
403.200	-12.587	0.101
403.300	-8.751	0.101
403.400	-11.292	0.101
403.500	-19.022	0.101
403.600	-22.150	0.101
403.700	-21.714	0.101
403.800	-14.836	0.101
403.900	-15.895	0.101
404.000	-21.374	0.101
404.100	-17.660	0.101
404.200	-14.729	0.101
404.300	-20.420	0.101
404.400	-25.377	0.101
404.500	-16.610	0.101
404.600	-9.254	0.101
404.700	-15.837	0.101
404.800	-12.067	0.101
404.900	-9.307	0.101
405.000	-12.495	0.101
405.100	-30.402	0.101
405.200	-10.201	0.101
405.300	-13.139	0.101
405.400	-13.479	0.101
405.500	-23.537	0.101
405.600	-14.409	0.101
405.700	-20.345	0.101
405.800	-19.271	0.101
405.900	-11.386	0.101
406.000	-22.420	0.101
406.100	-18.867	0.101
406.200	-20.551	0.101
406.300	-13.199	0.101
406.400	-11.122	0.101
406.500	-25.596	0.101
406.600	-10.531	0.101
406.700	-16.397	0.101
406.800	-21.766	0.101
406.900	-24.144	0.101
407.000	-18.192	0.101
407.100	-10.589	0.101
407.200	-13.020	0.101
407.300	-19.112	0.101
407.400	-12.929	0.101
407.500	-13.093	0.101
407.600	-19.308	0.101
407.700	-10.851	0.101
407.800	-25.549	0.101
407.900	-18.358	0.101
408.000	-8.518	0.101
408.100	-18.575	0.101
408.200	-14.975	0.101
408.300	-20.103	0.101
408.400	-13.577	0.101
408.500	-9.476	0.101
408.600	-18.413	0.101
408.700	-27.011	0.101
408.800	-15.260	0.101
408.900	-17.034	0.101
409.000	-14.288	0.101
409.100	-16.864	0.101
409.200	-19.018	0.101
409.300	-23.826	0.101
409.400	-23.982	0.101
409.500	-15.316	0.101
409.600	-21.893	0.101
409.700	-21.391	0.101
409.800	-14.635	0.101
409.900	-15.973	0.101
410.000	-13.440	0.101
410.100	-15.123	0.101
410.200	-21.587	0.101
410.300	-19.547	0.101
410.400	-14.255	0.101
410.500	-16.418	0.101
410.600	-11.437	0.101
410.700	-7.646	0.101
410.800	-20.802	0.101
410.900	-21.474	0.101
411.000	-18.058	0.101
411.100	-14.996	0.101
411.200	-8.218	0.101
411.300	-18.641	0.101
411.400	-11.589	0.101
411.500	-16.430	0.101
411.600	-21.204	0.101
411.700	-21.255	0.101
411.800	-25.464	0.101
411.900	-17.630	0.101
412.000	-20.199	0.101
412.100	-10.632	0.101
412.200	-21.169	0.101
412.300	-14.092	0.101
412.400	-11.654	0.101
412.500	-16.205	0.101
412.600	-6.790	0.101
412.700	-20.808	0.101
412.800	-9.465	0.101
412.900	-13.502	0.101
413.000	-23.569	0.101
413.100	-24.583	0.101
413.200	-19.779	0.101
413.300	-19.789	0.101
413.400	-20.055	0.101
413.500	-17.428	0.101
413.600	-21.910	0.101
413.700	-19.958	0.101
413.800	-33.661	0.101
413.900	-25.147	0.101
414.000	-21.601	0.101
414.100	-26.727	0.101
414.200	-21.631	0.101
414.300	-10.074	0.101
414.400	-17.790	0.101
414.500	-11.488	0.101
414.600	-17.466	0.101
414.700	-8.252	0.101
414.800	-23.956	0.101
414.900	-18.513	0.101
415.000	-29.526	0.101
415.100	-13.326	0.101
415.200	-17.940	0.101
415.300	-23.999	0.101
415.400	-16.581	0.101
415.500	-12.501	0.101
415.600	-20.394	0.101
415.700	-16.986	0.101
415.800	-10.813	0.101
415.900	-17.514	0.101
416.000	-28.531	0.101
416.100	-18.031	0.101
416.200	-21.444	0.101
416.300	-14.429	0.101
416.400	-18.039	0.101
416.500	-19.694	0.101
416.600	-15.812	0.101
416.700	-22.848	0.101
416.800	-17.829	0.101
416.900	-22.199	0.101
417.000	-23.486	0.101
417.100	-16.833	0.101
417.200	-15.846	0.101
417.300	-21.268	0.100
417.400	-22.723	0.100
417.500	-17.240	0.100
417.600	-18.759	0.100
417.700	-16.125	0.100
417.800	-15.406	0.100
417.900	-9.912	0.100
418.000	-18.553	0.100
418.100	-14.259	0.100
418.200	-13.631	0.100
418.300	-22.168	0.100
418.400	-16.743	0.100
418.500	-22.175	0.100
418.600	-14.427	0.100
418.700	-28.356	0.100
418.800	-23.188	0.100
418.900	-19.675	0.100
419.000	-31.875	0.100
419.100	-20.032	0.100
419.200	-20.599	0.100
419.300	-17.095	0.100
419.400	-12.483	0.100
419.500	-16.949	0.100
419.600	-17.033	0.100
419.700	-24.366	0.100
419.800	-17.116	0.100
419.900	-16.150	0.100
420.000	-27.182	0.100
420.100	-25.533	0.100
420.200	-18.439	0.100
420.300	-19.341	0.100
420.400	-26.923	0.100
420.500	-20.665	0.100
420.600	-16.936	0.100
420.700	-22.792	0.100
420.800	-12.608	0.100
420.900	-18.622	0.100
421.000	-24.476	0.100
421.100	-18.057	0.100
421.200	-28.360	0.100
421.300	-19.625	0.100
421.400	-23.229	0.100
421.500	-15.690	0.100
421.600	-20.570	0.100
421.700	-17.914	0.100
421.800	-25.794	0.100
421.900	-9.817	0.100
422.000	-3.618	0.100
422.100	-12.469	0.100
422.200	-25.741	0.100
422.300	-22.652	0.100
422.400	-28.689	0.100
422.500	-12.479	0.100
422.600	-4.794	0.100
422.700	-28.641	0.100
422.800	-24.699	0.100
422.900	-26.502	0.100
423.000	-24.141	0.100
423.100	-6.941	0.100
423.200	-18.763	0.100
423.300	-7.877	0.100
423.400	-21.616	0.100
423.500	-28.942	0.100
423.600	-33.931	0.100
423.700	-22.985	0.100
423.800	-17.072	0.100
423.900	-21.687	0.100
424.000	-24.274	0.100
424.100	-12.610	0.100
424.200	-15.898	0.100
424.300	-15.228	0.100
424.400	-18.200	0.100
424.500	-21.404	0.100
424.600	-18.369	0.100
424.700	-24.971	0.100
424.800	-16.912	0.100
424.900	-17.713	0.100
425.000	-18.850	0.100
425.100	-16.583	0.100
425.200	-25.160	0.100
425.300	-18.987	0.100
425.400	-22.752	0.100
425.500	-21.273	0.100
425.600	-24.585	0.100
425.700	-14.872	0.100
425.800	-21.414	0.100
425.900	-17.107	0.100
426.000	-10.448	0.100
426.100	-18.821	0.100
426.200	-29.799	0.100
426.300	-26.497	0.100
426.400	-11.800	0.100
426.500	-24.154	0.100
426.600	-22.440	0.100
426.700	-21.101	0.100
426.800	-24.640	0.100
426.900	-15.253	0.100
427.000	-24.131	0.100
427.100	-24.551	0.100
427.200	-20.044	0.100
427.300	-29.203	0.100
427.400	-15.805	0.100
427.500	-12.057	0.100
427.600	-16.952	0.100
427.700	-22.210	0.100
427.800	-30.812	0.100
427.900	-24.468	0.100
428.000	-16.351	0.100
428.100	-14.205	0.100
428.200	-18.976	0.100
428.300	-22.863	0.100
428.400	-25.069	0.100
428.500	-18.607	0.100
428.600	-18.475	0.100
428.700	-25.605	0.100
428.800	-18.377	0.100
428.900	-18.874	0.100
429.000	-11.395	0.100
429.100	-18.803	0.100
429.200	-25.177	0.100
429.300	-19.352	0.100
429.400	-21.582	0.100
429.500	-21.721	0.100
429.600	-23.560	0.100
429.700	-17.931	0.100
429.800	-19.733	0.100
429.900	-18.827	0.100
430.000	-19.497	0.100
430.100	-18.953	0.100
430.200	-29.064	0.100
430.300	-18.757	0.100
430.400	-22.513	0.100
430.500	-28.386	0.100
430.600	-19.480	0.100
430.700	-14.214	0.100
430.800	-25.825	0.100
430.900	-13.773	0.100
431.000	-21.056	0.100
431.100	-24.654	0.100
431.200	-17.348	0.100
431.300	-24.570	0.100
431.400	-11.948	0.100
431.500	-19.594	0.100
431.600	-17.436	0.100
431.700	-28.574	0.100
431.800	-17.931	0.100
431.900	-22.559	0.100
432.000	-23.436	0.100
432.100	-9.134	0.100
432.200	-25.816	0.100
432.300	-5.152	0.100
432.400	-15.242	0.100
432.500	-15.554	0.100
432.600	-20.204	0.100
432.700	-23.240	0.100
432.800	-21.872	0.100
432.900	-20.538	0.100
433.000	-24.806	0.100
433.100	-24.432	0.100
433.200	-19.828	0.100
433.300	-16.213	0.100
433.400	-25.075	0.100
433.500	-24.835	0.100
433.600	-18.018	0.100
433.700	-12.462	0.100
433.800	-15.441	0.100
433.900	-16.025	0.100
434.000	-23.161	0.100
434.100	-28.551	0.100
434.200	-16.333	0.100
434.300	-21.131	0.100
434.400	-20.828	0.100
434.500	-8.036	0.100
434.600	-18.131	0.100
434.700	-13.189	0.100
434.800	-21.303	0.100
434.900	-20.436	0.100
435.000	-24.028	0.100
435.100	-23.941	0.101
435.200	-21.245	0.101
435.300	-20.616	0.100
435.400	-19.508	0.100
435.500	-16.178	0.101
435.600	-18.498	0.101
435.700	-14.109	0.101
435.800	-34.549	0.101
435.900	-9.940	0.101
436.000	-18.805	0.101
436.100	-14.125	0.101
436.200	-22.718	0.101
436.300	-18.430	0.100
436.400	-23.589	0.101
436.500	-17.077	0.101
436.600	-23.772	0.100
436.700	-11.986	0.101
436.800	-15.193	0.100
436.900	-17.813	0.101
437.000	-28.612	0.100
437.100	-23.840	0.101
437.200	-19.390	0.100
437.300	-23.571	0.100
437.400	-16.123	0.101
437.500	-20.876	0.100
437.600	-24.876	0.100
437.700	-12.866	0.101
437.800	-21.306	0.101
437.900	-20.450	0.101
438.000	-19.873	0.101
438.100	-17.198	0.101
438.200	-20.122	0.101
438.300	-22.134	0.101
438.400	-15.599	0.101
438.500	-17.921	0.101
438.600	-12.900	0.101
438.700	-17.645	0.101
438.800	-10.569	0.101
438.900	-22.128	0.101
439.000	-15.390	0.101
439.100	-16.487	0.101
439.200	-19.902	0.101
439.300	-18.889	0.101
439.400	-17.955	0.101
439.500	-8.490	0.101
439.600	-24.506	0.101
439.700	-15.112	0.101
439.800	-15.721	0.101
439.900	-25.715	0.101
440.000	-9.874	0.101
440.100	-20.288	0.101
440.200	-14.677	0.101
440.300	-24.071	0.101
440.400	-17.651	0.101
440.500	-10.850	0.101
440.600	-26.393	0.101
440.700	-14.539	0.101
440.800	-19.494	0.101
440.900	-9.547	0.101
441.000	-27.263	0.101
441.100	-24.407	0.101
441.200	-15.437	0.101
441.300	-3.478	0.101
441.400	-19.173	0.101
441.500	-19.885	0.101
441.600	-17.213	0.101
441.700	-13.520	0.101
441.800	-12.626	0.101
441.900	-18.609	0.101
442.000	-23.017	0.101
442.100	-18.493	0.101
442.200	-22.714	0.101
442.300	-19.200	0.101
442.400	-15.565	0.101
442.500	-8.346	0.101
442.600	-19.564	0.101
442.700	-24.140	0.101
442.800	-14.855	0.101
442.900	-8.397	0.101
443.000	-17.624	0.101
443.100	-8.242	0.101
443.200	-13.811	0.101
443.300	-24.387	0.101
443.400	-15.818	0.101
443.500	-17.472	0.101
443.600	-28.068	0.101
443.700	-19.854	0.101
443.800	-28.823	0.101
443.900	-15.720	0.101
444.000	-8.812	0.101
444.100	-22.005	0.101
444.200	-24.505	0.101
444.300	-4.080	0.101
444.400	-18.276	0.101
444.500	-14.419	0.101
444.600	-15.567	0.101
444.700	-17.680	0.101
444.800	-5.357	0.101
444.900	-9.934	0.101
445.000	-18.223	0.101
445.100	-24.442	0.101
445.200	-18.742	0.101
445.300	-14.408	0.101
445.400	-15.310	0.101
445.500	-21.204	0.101
445.600	-18.272	0.101
445.700	-12.584	0.101
445.800	-8.158	0.101
445.900	-16.854	0.101
446.000	-22.601	0.101
446.100	-12.177	0.101
446.200	-14.400	0.101
446.300	-19.679	0.101
446.400	-17.967	0.101
446.500	-8.745	0.101
446.600	-23.071	0.101
446.700	-20.631	0.101
446.800	-9.530	0.101
446.900	-22.081	0.101
447.000	-12.440	0.101
447.100	-17.336	0.101
447.200	-8.425	0.101
447.300	-26.706	0.101
447.400	-25.262	0.101
447.500	-17.519	0.101
447.600	-10.752	0.101
447.700	-8.308	0.101
447.800	-19.726	0.101
447.900	-22.541	0.101
448.000	-22.434	0.101
448.100	-4.648	0.101
448.200	-18.851	0.101
448.300	-19.143	0.101
448.400	-19.380	0.101
448.500	-17.728	0.101
448.600	-21.760	0.101
448.700	-12.000	0.101
448.800	-6.797	0.101
448.900	-23.278	0.101
449.000	-1.834	0.101
449.100	-11.783	0.101
449.200	-22.963	0.101
449.300	-16.790	0.101
449.400	-10.444	0.101
449.500	-7.369	0.101
449.600	-24.062	0.101
449.700	-32.224	0.101
449.800	-15.276	0.101
449.900	-15.914	0.101
450.000	-8.396	0.101
450.100	-17.727	0.101
450.200	-11.456	0.101
450.300	-16.727	0.101
450.400	-20.589	0.101
450.500	-36.841	0.101
450.600	-10.071	0.101
450.700	-13.392	0.101
450.800	-13.674	0.101
450.900	-19.819	0.101
451.000	-11.091	0.101
451.100	-17.416	0.101
451.200	-13.764	0.101
451.300	-16.616	0.101
451.400	-21.116	0.101
451.500	-22.969	0.101
451.600	-11.351	0.101
451.700	-13.001	0.101
451.800	-16.719	0.101
451.900	-23.625	0.101
452.000	-11.888	0.101
452.100	-14.369	0.101
452.200	-20.489	0.101
452.300	-15.837	0.101
452.400	-11.747	0.101
452.500	-24.841	0.101
452.600	-17.296	0.101
452.700	-29.737	0.101
452.800	-15.638	0.101
452.900	-12.422	0.101
453.000	0.220	0.101
453.100	-18.019	0.101
453.200	-23.024	0.101
453.300	-26.344	0.101
453.400	-8.884	0.101
453.500	-17.383	0.101
453.600	-15.644	0.101
453.700	-17.879	0.101
453.800	-6.752	0.101
453.900	-20.444	0.101
454.000	-23.983	0.101
454.100	-23.738	0.101
454.200	-20.695	0.101
454.300	-18.519	0.101
454.400	-8.173	0.101
454.500	-13.548	0.101
454.600	-10.581	0.101
454.700	-12.420	0.101
454.800	-12.998	0.101
454.900	-11.397	0.101
455.000	-18.768	0.101
455.100	-17.984	0.101
455.200	-11.500	0.101
455.300	-10.122	0.101
455.400	-14.764	0.101
455.500	-14.784	0.101
455.600	-13.943	0.101
455.700	-14.229	0.101
455.800	-15.393	0.101
455.900	-12.155	0.101
456.000	-10.711	0.101
456.100	-12.157	0.101
456.200	-2.839	0.101
456.300	-16.834	0.101
456.400	-23.407	0.101
456.500	-17.975	0.101
456.600	-17.492	0.101
456.700	-25.296	0.101
456.800	-19.019	0.101
456.900	-20.107	0.101
457.000	-16.783	0.101
457.100	-16.366	0.101
457.200	-10.529	0.101
457.300	-9.080	0.101
457.400	-13.075	0.101
457.500	-12.351	0.101
457.600	-14.128	0.101
457.700	-16.149	0.101
457.800	-6.171	0.101
457.900	-18.073	0.101
458.000	-10.780	0.101
458.100	-16.378	0.101
458.200	-9.724	0.101
458.300	-15.970	0.101
458.400	-18.180	0.101
458.500	-26.586	0.101
458.600	-12.189	0.101
458.700	-11.431	0.101
458.800	-16.214	0.101
458.900	-17.133	0.101
459.000	-14.077	0.101
459.100	-14.677	0.101
459.200	-18.229	0.101
459.300	-11.776	0.101
459.400	-9.565	0.101
459.500	-17.999	0.101
459.600	-6.335	0.101
459.700	-16.872	0.101
459.800	-17.992	0.101
459.900	-18.582	0.101
460.000	-9.605	0.101
460.100	-19.541	0.101
460.200	-14.713	0.101
460.300	-22.173	0.101
460.400	-18.129	0.101
460.500	-0.910	0.101
460.600	-26.622	0.101
460.700	-13.868	0.101
460.800	-3.500	0.101
460.900	-21.066	0.101
461.000	-15.214	0.101
461.100	-9.846	0.101
461.200	-19.204	0.101
461.300	-24.505	0.101
461.400	-19.353	0.101
461.500	-19.753	0.101
461.600	-17.898	0.101
461.700	-21.254	0.101
461.800	-8.525	0.101
461.900	3.063	0.101
462.000	-14.916	0.101
462.100	-16.824	0.101
462.200	-22.206	0.101
462.300	-15.359	0.101
462.400	-10.884	0.101
462.500	-13.623	0.101
462.600	-16.564	0.101
462.700	-20.418	0.101
462.800	-9.107	0.101
462.900	-3.915	0.101
463.000	-7.838	0.101
463.100	-25.209	0.101
463.200	-5.479	0.101
463.300	-9.675	0.101
463.400	-21.754	0.101
463.500	-23.405	0.101
463.600	-13.407	0.101
463.700	-8.409	0.101
463.800	4.449	0.101
463.900	-14.863	0.101
464.000	-21.104	0.101
464.100	-20.732	0.101
464.200	-10.060	0.101
464.300	-19.120	0.101
464.400	-16.200	0.101
464.500	-16.712	0.101
464.600	-12.013	0.101
464.700	-21.905	0.101
464.800	-11.994	0.101
464.900	-13.735	0.101
465.000	-16.941	0.101
465.100	-12.188	0.101
465.200	-3.709	0.101
465.300	-14.574	0.101
465.400	-20.284	0.101
465.500	-29.792	0.101
465.600	-13.277	0.101
465.700	-6.730	0.101
465.800	-7.927	0.101
465.900	-18.641	0.101
466.000	-15.060	0.101
466.100	-16.050	0.101
466.200	-14.583	0.101
466.300	-8.573	0.101
466.400	-13.838	0.101
466.500	-19.334	0.101
466.600	-11.937	0.101
466.700	-17.066	0.101
466.800	-14.998	0.101
466.900	-28.799	0.101
467.000	-19.595	0.101
467.100	-8.286	0.101
467.200	-3.600	0.101
467.300	-15.274	0.101
467.400	-20.070	0.101
467.500	-12.522	0.101
467.600	-13.834	0.101
467.700	-10.841	0.101
467.800	-12.644	0.101
467.900	-8.818	0.101
468.000	-8.389	0.101
468.100	-15.065	0.101
468.200	-5.338	0.101
468.300	-20.153	0.101
468.400	-13.053	0.101
468.500	-17.047	0.101
468.600	-2.875	0.101
468.700	-15.289	0.101
468.800	-23.167	0.101
468.900	-22.517	0.101
469.000	-12.442	0.101
469.100	-24.842	0.101
469.200	-16.285	0.101
469.300	-14.045	0.101
469.400	-15.562	0.101
469.500	-16.752	0.101
469.600	-10.828	0.101
469.700	-13.148	0.101
469.800	-9.345	0.101
469.900	-15.371	0.101
470.000	-5.333	0.101
470.100	-6.700	0.101
470.200	-5.577	0.101
470.300	-16.812	0.101
470.400	-13.763	0.101
470.500	-17.544	0.101
470.600	-17.968	0.101
470.700	-13.431	0.101
470.800	-17.570	0.101
470.900	-14.697	0.101
471.000	-14.090	0.101
471.100	-13.079	0.101
471.200	-15.077	0.101
471.300	-14.132	0.101
471.400	-4.466	0.101
471.500	-9.948	0.101
471.600	-11.334	0.101
471.700	-25.328	0.101
471.800	-10.819	0.101
471.900	-17.014	0.101
472.000	-11.721	0.101
472.100	-21.020	0.101
472.200	-9.477	0.101
472.300	-17.871	0.101
472.400	-13.633	0.101
472.500	-17.045	0.101
472.600	-14.622	0.101
472.700	-17.833	0.101
472.800	-13.778	0.101
472.900	-14.382	0.101
473.000	-7.646	0.101
473.100	-13.512	0.101
473.200	-24.568	0.101
473.300	-15.403	0.101
473.400	-0.593	0.101
473.500	-2.019	0.101
473.600	-8.006	0.101
473.700	-22.177	0.101
473.800	-18.208	0.101
473.900	-9.611	0.101
474.000	-17.251	0.101
474.100	-16.283	0.101
474.200	-16.316	0.101
474.300	-6.341	0.101
474.400	-14.639	0.101
474.500	-19.735	0.101
474.600	-12.083	0.101
474.700	-14.923	0.101
474.800	-11.297	0.101
474.900	-19.492	0.101
475.000	-9.052	0.101
475.100	-4.277	0.101
475.200	-8.619	0.101
475.300	-11.209	0.101
475.400	-21.875	0.101
475.500	-16.284	0.101
475.600	-5.874	0.101
475.700	-13.891	0.101
475.800	-16.714	0.101
475.900	-10.428	0.101
476.000	-9.259	0.101
476.100	-16.304	0.101
476.200	-17.871	0.101
476.300	-12.964	0.101
476.400	-13.489	0.101
476.500	-12.214	0.101
476.600	-10.903	0.101
476.700	-5.189	0.101
476.800	-14.118	0.101
476.900	-27.368	0.101
477.000	-8.157	0.101
477.100	-8.340	0.101
477.200	-14.528	0.101
477.300	-8.160	0.101
477.400	-13.180	0.101
477.500	-17.834	0.101
477.600	-16.451	0.101
477.700	-9.527	0.101
477.800	-12.624	0.101
477.900	-12.293	0.101
478.000	-2.008	0.101
478.100	-0.056	0.101
478.200	-14.194	0.101
478.300	-17.764	0.101
478.400	-12.619	0.101
478.500	-19.140	0.101
478.600	-11.178	0.101
478.700	-12.606	0.101
478.800	-22.802	0.101
478.900	-9.634	0.101
479.000	-9.997	0.101
479.100	-13.673	0.101
479.200	-13.719	0.101
479.300	-17.640	0.101
479.400	-12.408	0.101
479.500	-7.516	0.101
479.600	-4.673	0.101
479.700	-15.698	0.101
479.800	-18.745	0.101
479.900	-2.940	0.101
480.000	-15.659	0.101
480.100	-11.898	0.101
480.200	-12.358	0.101
480.300	-3.803	0.101
480.400	-18.838	0.101
480.500	-11.190	0.101
480.600	-13.098	0.101
480.700	2.545	0.101
480.800	-1.212	0.101
480.900	-5.915	0.101
481.000	-6.362	0.101
481.100	17.954	0.101
481.200	-2.796	0.101
481.300	8.990	0.101
481.400	7.622	0.101
481.500	10.408	0.101
481.600	18.580	0.101
481.700	16.628	0.101
481.800	12.506	0.101
481.900	18.426	0.101
482.000	9.681	0.101
482.100	14.947	0.101
482.200	18.314	0.101
482.300	20.918	0.101
482.400	13.827	0.101
482.500	21.569	0.101
482.600	14.549	0.101
482.700	24.644	0.101
482.800	19.494	0.101
482.900	19.516	0.101
483.000	20.154	0.101
483.100	28.366	0.101
483.200	19.225	0.101
483.300	33.896	0.101
483.400	23.907	0.101
483.500	15.401	0.101
483.600	24.188	0.101
483.700	22.981	0.101
483.800	21.584	0.101
483.900	27.501	0.101
484.000	11.621	0.101
484.100	36.602	0.101
484.200	15.645	0.101
484.300	20.724	0.101
484.400	26.298	0.101
484.500	23.515	0.101
484.600	19.692	0.101
484.700	13.022	0.101
484.800	23.006	0.101
484.900	31.088	0.101
485.000	27.670	0.101
485.100	26.827	0.101
485.200	11.043	0.101
485.300	25.494	0.101
485.400	19.818	0.101
485.500	21.093	0.101
485.600	14.115	0.101
485.700	18.724	0.101
485.800	19.680	0.101
485.900	14.426	0.101
486.000	15.282	0.101
486.100	16.503	0.101
486.200	24.867	0.101
486.300	21.845	0.101
486.400	14.886	0.101
486.500	16.580	0.101
486.600	10.118	0.101
486.700	11.197	0.101
486.800	12.422	0.101
486.900	24.160	0.101
487.000	17.915	0.101
487.100	16.988	0.101
487.200	14.432	0.101
487.300	14.761	0.101
487.400	13.153	0.101
487.500	22.261	0.101
487.600	21.131	0.101
487.700	11.341	0.101
487.800	12.540	0.101
487.900	29.748	0.101
488.000	19.885	0.101
488.100	8.805	0.101
488.200	16.578	0.101
488.300	18.340	0.101
488.400	20.179	0.101
488.500	18.740	0.101
488.600	10.416	0.101
488.700	14.824	0.101
488.800	16.673	0.101
488.900	17.107	0.101
489.000	17.406	0.101
489.100	19.889	0.101
489.200	25.879	0.101
489.300	19.096	0.101
489.400	11.376	0.101
489.500	16.244	0.101
489.600	18.376	0.101
489.700	15.696	0.101
489.800	24.025	0.101
489.900	18.262	0.101
490.000	5.030	0.101
490.100	12.713	0.101
490.200	20.177	0.101
490.300	22.602	0.101
490.400	21.394	0.101
490.500	18.414	0.101
490.600	13.001	0.101
490.700	15.730	0.101
490.800	3.976	0.101
490.900	18.626	0.101
491.000	15.126	0.101
491.100	22.151	0.101
491.200	20.863	0.101
491.300	15.389	0.101
491.400	16.365	0.101
491.500	22.390	0.101
491.600	19.570	0.101
491.700	25.147	0.101
491.800	18.523	0.101
491.900	21.654	0.101
492.000	21.571	0.101
492.100	20.905	0.101
492.200	16.519	0.101
492.300	23.929	0.101
492.400	20.116	0.101
492.500	16.479	0.101
492.600	21.349	0.101
492.700	24.998	0.101
492.800	17.492	0.101
492.900	20.142	0.101
493.000	6.454	0.101
493.100	20.413	0.101
493.200	21.923	0.101
493.300	31.470	0.101
493.400	21.997	0.101
493.500	25.788	0.101
493.600	5.551	0.101
493.700	22.295	0.101
493.800	27.510	0.101
493.900	20.817	0.101
494.000	24.209	0.101
494.100	13.557	0.101
494.200	16.529	0.101
494.300	17.024	0.101
494.400	27.100	0.101
494.500	21.804	0.101
494.600	22.216	0.101
494.700	19.211	0.101
494.800	18.034	0.101
494.900	26.577	0.101
495.000	17.290	0.101
495.100	29.187	0.101
495.200	30.279	0.101
495.300	26.152	0.101
495.400	19.666	0.101
495.500	26.666	0.101
495.600	19.028	0.101
495.700	19.808	0.101
495.800	29.735	0.101
495.900	33.075	0.101
496.000	32.688	0.101
496.100	35.074	0.101
496.200	25.898	0.101
496.300	14.461	0.101
496.400	13.832	0.101
496.500	26.622	0.101
496.600	35.991	0.101
496.700	44.335	0.101
496.800	22.563	0.101
496.900	26.683	0.101
497.000	28.686	0.101
497.100	26.492	0.101
497.200	30.338	0.101
497.300	28.297	0.101
497.400	29.864	0.101
497.500	29.981	0.101
497.600	32.975	0.101
497.700	21.122	0.101
497.800	25.169	0.101
497.900	34.614	0.101
498.000	28.851	0.101
498.100	24.095	0.101
498.200	31.167	0.101
498.300	40.990	0.101
498.400	25.501	0.101
498.500	31.230	0.101
498.600	31.545	0.101
498.700	30.607	0.101
498.800	31.783	0.101
498.900	26.533	0.101
499.000	22.109	0.101
499.100	33.468	0.101
499.200	28.655	0.101
499.300	27.385	0.101
499.400	33.470	0.101
499.500	29.783	0.101
499.600	27.739	0.101
499.700	46.678	0.101
499.800	41.373	0.101
499.900	23.744	0.101
500.000	20.717	0.101
500.100	40.828	0.101
500.200	41.978	0.101
500.300	23.931	0.101
500.400	30.558	0.101
500.500	28.291	0.101
500.600	35.804	0.101
500.700	34.342	0.101
500.800	31.715	0.101
500.900	28.697	0.101
501.000	35.726	0.101
501.100	32.838	0.101
501.200	40.781	0.101
501.300	43.953	0.101
501.400	38.012	0.101
501.500	35.203	0.101
501.600	33.690	0.101
501.700	28.053	0.101
501.800	34.919	0.101
501.900	30.003	0.101
502.000	32.457	0.101
502.100	38.845	0.101
502.200	36.295	0.101
502.300	34.177	0.101
502.400	31.103	0.101
502.500	30.683	0.101
502.600	30.673	0.101
502.700	30.313	0.101
502.800	38.129	0.101
502.900	43.321	0.101
503.000	37.390	0.101
503.100	35.703	0.101
503.200	32.678	0.101
503.300	32.358	0.101
503.400	36.543	0.101
503.500	26.343	0.101
503.600	31.682	0.101
503.700	32.530	0.101
503.800	26.460	0.101
503.900	37.513	0.101
504.000	36.734	0.101
504.100	22.985	0.101
504.200	28.882	0.101
504.300	41.664	0.101
504.400	40.551	0.101
504.500	25.883	0.101
504.600	31.530	0.101
504.700	31.402	0.101
504.800	42.794	0.101
504.900	33.968	0.101
505.000	37.153	0.101
505.100	31.266	0.101
505.200	38.778	0.101
505.300	37.562	0.101
505.400	25.384	0.101
505.500	32.664	0.101
505.600	42.988	0.101
505.700	22.410	0.101
505.800	30.496	0.101
505.900	39.338	0.101
506.000	43.095	0.101
506.100	39.691	0.101
506.200	22.409	0.101
506.300	33.073	0.101
506.400	38.653	0.101
506.500	35.490	0.101
506.600	31.155	0.101
506.700	29.999	0.101
506.800	36.642	0.101
506.900	29.730	0.101
507.000	36.013	0.101
507.100	39.652	0.101
507.200	29.463	0.101
507.300	27.675	0.101
507.400	28.443	0.101
507.500	33.740	0.101
507.600	38.688	0.101
507.700	38.927	0.101
507.800	41.743	0.101
507.900	34.844	0.101
508.000	34.993	0.101
508.100	22.310	0.101
508.200	36.625	0.101
508.300	26.221	0.101
508.400	32.423	0.101
508.500	21.543	0.101
508.600	38.270	0.101
508.700	32.620	0.101
508.800	37.785	0.101
508.900	31.068	0.101
509.000	44.572	0.101
509.100	29.515	0.101
509.200	44.212	0.101
509.300	20.276	0.101
509.400	27.634	0.101
509.500	41.707	0.101
509.600	40.636	0.101
509.700	33.541	0.101
509.800	30.199	0.101
509.900	30.872	0.101
510.000	28.158	0.101
510.100	32.524	0.101
510.200	30.539	0.101
510.300	27.074	0.101
510.400	33.792	0.101
510.500	29.809	0.101
510.600	34.185	0.101
510.700	36.692	0.101
510.800	32.359	0.101
510.900	22.301	0.101
511.000	31.751	0.101
511.100	26.337	0.101
511.200	43.948	0.101
511.300	23.325	0.101
511.400	30.587	0.101
511.500	31.597	0.101
511.600	38.005	0.101
511.700	19.624	0.101
511.800	44.171	0.101
511.900	23.411	0.101
512.000	30.294	0.101
512.100	37.149	0.101
512.200	32.152	0.101
512.300	30.943	0.101
512.400	34.118	0.101
512.500	34.621	0.101
512.600	24.737	0.101
512.700	21.790	0.101
512.800	40.894	0.101
512.900	30.708	0.101
513.000	30.295	0.101
513.100	39.354	0.101
513.200	33.654	0.101
513.300	30.520	0.101
513.400	36.797	0.101
513.500	24.493	0.101
513.600	25.270	0.101
513.700	30.804	0.101
513.800	29.152	0.101
513.900	31.775	0.101
514.000	34.721	0.101
514.100	28.833	0.101
514.200	35.862	0.101
514.300	25.610	0.101
514.400	23.461	0.101
514.500	26.193	0.101
514.600	27.768	0.101
514.700	31.841	0.101
514.800	38.014	0.101
514.900	31.279	0.101
515.000	36.445	0.101
515.100	30.086	0.101
515.200	30.893	0.101
515.300	33.706	0.101
515.400	34.054	0.101
515.500	30.696	0.101
515.600	29.858	0.101
515.700	27.910	0.101
515.800	33.313	0.101
515.900	29.775	0.101
516.000	40.806	0.101
516.100	33.544	0.101
516.200	28.902	0.101
516.300	32.060	0.101
516.400	23.499	0.101
516.500	21.270	0.101
516.600	26.705	0.101
516.700	36.707	0.101
516.800	28.936	0.101
516.900	17.897	0.101
517.000	33.560	0.101
517.100	36.253	0.101
517.200	35.983	0.101
517.300	27.327	0.101
517.400	23.968	0.101
517.500	32.903	0.101
517.600	36.487	0.101
517.700	36.380	0.101
517.800	32.718	0.101
517.900	25.173	0.101
518.000	30.807	0.101
518.100	30.100	0.101
518.200	32.304	0.101
518.300	24.831	0.101
518.400	27.838	0.101
518.500	29.459	0.101
518.600	31.113	0.101
518.700	20.620	0.101
518.800	36.041	0.101
518.900	27.510	0.101
519.000	38.298	0.101
519.100	26.543	0.101
519.200	36.644	0.101
519.300	31.722	0.101
519.400	29.593	0.101
519.500	27.525	0.101
519.600	29.080	0.101
519.700	23.450	0.101
519.800	43.410	0.101
519.900	36.716	0.101
520.000	31.108	0.101
520.100	27.801	0.101
520.200	35.142	0.101
520.300	32.232	0.101
520.400	26.191	0.101
520.500	29.322	0.101
520.600	27.436	0.101
520.700	29.556	0.101
520.800	32.952	0.101
520.900	32.944	0.101
521.000	28.397	0.101
521.100	26.573	0.101
521.200	38.381	0.101
521.300	32.545	0.101
521.400	21.006	0.101
521.500	25.656	0.101
521.600	35.694	0.101
521.700	34.035	0.101
521.800	33.264	0.101
521.900	26.123	0.101
522.000	25.806	0.101
522.100	32.467	0.101
522.200	43.352	0.101
522.300	24.920	0.101
522.400	18.111	0.101
522.500	29.615	0.101
522.600	37.698	0.101
522.700	32.457	0.101
522.800	44.634	0.101
522.900	25.048	0.101
523.000	27.228	0.101
523.100	21.332	0.101
523.200	30.488	0.101
523.300	25.877	0.101
523.400	27.277	0.101
523.500	32.137	0.101
523.600	33.024	0.101
523.700	23.779	0.101
523.800	32.802	0.101
523.900	29.145	0.101
524.000	30.718	0.101
524.100	29.877	0.101
524.200	19.005	0.101
524.300	31.510	0.101
524.400	31.357	0.101
524.500	41.503	0.101
524.600	36.186	0.101
524.700	23.030	0.101
524.800	27.477	0.101
524.900	33.199	0.101
525.000	30.420	0.101
525.100	33.221	0.101
525.200	27.913	0.101
525.300	31.810	0.101
525.400	27.348	0.101
525.500	34.012	0.101
525.600	33.315	0.101
525.700	29.643	0.101
525.800	29.760	0.101
525.900	20.777	0.101
526.000	27.839	0.101
526.100	31.023	0.101
526.200	36.311	0.101
526.300	37.835	0.101
526.400	35.168	0.101
526.500	31.397	0.101
526.600	27.157	0.101
526.700	26.426	0.101
526.800	35.941	0.101
526.900	23.561	0.101
527.000	22.122	0.101
527.100	30.784	0.101
527.200	42.256	0.101
527.300	28.948	0.101
527.400	32.712	0.101
527.500	34.825	0.101
527.600	39.224	0.101
527.700	33.380	0.101
527.800	33.572	0.101
527.900	11.396	0.101
528.000	29.996	0.101
528.100	20.540	0.101
528.200	35.205	0.101
528.300	36.207	0.101
528.400	36.772	0.101
528.500	30.710	0.101
528.600	30.121	0.101
528.700	25.822	0.101
528.800	27.885	0.101
528.900	20.513	0.101
529.000	25.530	0.101
529.100	32.793	0.101
529.200	32.148	0.101
529.300	37.383	0.101
529.400	33.044	0.101
529.500	31.094	0.101
529.600	16.679	0.101
529.700	30.860	0.101
529.800	33.338	0.101
529.900	31.887	0.101
530.000	34.445	0.101
530.100	27.936	0.101
530.200	37.260	0.101
530.300	37.147	0.101
530.400	27.671	0.101
530.500	20.876	0.101
530.600	33.785	0.101
530.700	23.252	0.101
530.800	30.362	0.101
530.900	20.703	0.101
531.000	26.524	0.101
531.100	36.580	0.101
531.200	27.033	0.101
531.300	37.548	0.101
531.400	34.081	0.101
531.500	33.852	0.101
531.600	31.367	0.101
531.700	32.774	0.101
531.800	33.213	0.101
531.900	42.781	0.101
532.000	21.636	0.101
532.100	39.030	0.101
532.200	34.010	0.101
532.300	18.512	0.101
532.400	25.033	0.101
532.500	25.788	0.101
532.600	32.042	0.101
532.700	28.279	0.101
532.800	22.911	0.101
532.900	24.810	0.101
533.000	28.986	0.101
533.100	25.483	0.101
533.200	41.027	0.101
533.300	30.953	0.101
533.400	25.857	0.101
533.500	36.224	0.101
533.600	33.915	0.101
533.700	22.944	0.101
533.800	28.066	0.101
533.900	27.862	0.101
534.000	26.232	0.101
534.100	25.862	0.101
534.200	31.711	0.101
534.300	31.107	0.101
534.400	31.173	0.101
534.500	36.301	0.101
534.600	28.347	0.101
534.700	31.720	0.101
534.800	23.631	0.101
534.900	30.685	0.101
535.000	25.436	0.101
535.100	33.980	0.101
535.200	34.171	0.101
535.300	28.942	0.101
535.400	26.598	0.101
535.500	24.794	0.101
535.600	34.168	0.101
535.700	28.330	0.101
535.800	30.918	0.101
535.900	22.469	0.101
536.000	32.974	0.101
536.100	22.808	0.101
536.200	24.890	0.101
536.300	25.207	0.101
536.400	30.552	0.101
536.500	30.905	0.101
536.600	27.960	0.101
536.700	23.975	0.101
536.800	35.774	0.101
536.900	25.108	0.101
537.000	23.447	0.101
537.100	39.050	0.101
537.200	39.016	0.101
537.300	32.750	0.101
537.400	37.795	0.101
537.500	26.881	0.101
537.600	26.075	0.101
537.700	30.884	0.101
537.800	26.005	0.101
537.900	36.463	0.101
538.000	38.040	0.101
538.100	32.915	0.101
538.200	21.461	0.101
538.300	32.030	0.101
538.400	26.706	0.101
538.500	27.652	0.101
538.600	25.680	0.101
538.700	35.333	0.101
538.800	38.536	0.101
538.900	25.496	0.101
539.000	30.515	0.101
539.100	26.162	0.101
539.200	31.817	0.101
539.300	21.245	0.101
539.400	37.781	0.101
539.500	38.351	0.101
539.600	31.098	0.101
539.700	24.746	0.101
539.800	35.812	0.101
539.900	30.966	0.101
540.000	25.539	0.101
540.100	31.053	0.101
540.200	25.789	0.101
540.300	25.617	0.101
540.400	22.785	0.101
540.500	29.685	0.101
540.600	27.789	0.101
540.700	20.015	0.101
540.800	25.389	0.101
540.900	21.489	0.101
541.000	21.423	0.101
541.100	18.827	0.101
541.200	9.187	0.101
541.300	7.494	0.101
541.400	6.758	0.101
541.500	7.392	0.101
541.600	-8.656	0.101
541.700	1.460	0.101
541.800	-2.060	0.101
541.900	-3.707	0.101
542.000	-14.138	0.101
542.100	-17.466	0.101
542.200	-14.647	0.101
542.300	-10.843	0.101
542.400	-17.497	0.101
542.500	-14.617	0.101
542.600	-9.971	0.101
542.700	-9.558	0.101
542.800	-25.206	0.101
542.900	-18.330	0.101
543.000	-28.721	0.101
543.100	-17.849	0.101
543.200	-23.402	0.101
543.300	-18.930	0.101
543.400	-19.053	0.101
543.500	-12.961	0.101
543.600	-27.565	0.101
543.700	-27.699	0.101
543.800	-26.693	0.101
543.900	-19.877	0.101
544.000	-27.693	0.101
544.100	-21.867	0.101
544.200	-24.164	0.101
544.300	-23.999	0.101
544.400	-23.852	0.101
544.500	-32.233	0.101
544.600	-30.567	0.101
544.700	-20.789	0.101
544.800	-30.725	0.101
544.900	-21.510	0.101
545.000	-25.129	0.101
545.100	-17.546	0.101
545.200	-26.185	0.101
545.300	-27.911	0.101
545.400	-20.066	0.101
545.500	-23.741	0.101
545.600	-33.012	0.101
545.700	-24.246	0.101
545.800	-24.792	0.101
545.900	-24.531	0.101
546.000	-24.165	0.101
546.100	-20.597	0.101
546.200	-24.815	0.101
546.300	-22.193	0.101
546.400	-27.913	0.101
546.500	-15.782	0.101
546.600	-25.285	0.101
546.700	-19.088	0.101
546.800	-31.405	0.101
546.900	-19.607	0.101
547.000	-28.104	0.101
547.100	-13.596	0.101
547.200	-16.667	0.101
547.300	-11.869	0.101
547.400	-34.501	0.101
547.500	-11.968	0.101
547.600	-20.376	0.101
547.700	-21.792	0.101
547.800	-26.562	0.101
547.900	-23.522	0.101
548.000	-24.680	0.101
548.100	-20.375	0.101
548.200	-25.486	0.101
548.300	-18.336	0.101
548.400	-11.165	0.101
548.500	-11.699	0.101
548.600	-22.243	0.101
548.700	-22.345	0.101
548.800	-18.754	0.101
548.900	-11.816	0.101
549.000	-20.559	0.101
549.100	-15.085	0.101
549.200	-24.841	0.101
549.300	-13.535	0.101
549.400	-17.408	0.101
549.500	-14.930	0.101
549.600	-23.914	0.101
549.700	-17.645	0.101
549.800	-21.166	0.101
549.900	-16.598	0.101
550.000	-18.182	0.101
550.100	-18.007	0.101
550.200	-10.284	0.101
550.300	-21.566	0.101
550.400	-13.712	0.101
550.500	-17.206	0.101
550.600	-18.764	0.101
550.700	-20.722	0.101
550.800	-16.136	0.101
550.900	-18.451	0.101
551.000	-24.413	0.101
551.100	-22.128	0.101
551.200	-12.699	0.101
551.300	-16.210	0.101
551.400	-20.289	0.101
551.500	-13.099	0.101
551.600	-21.983	0.101
551.700	-19.606	0.101
551.800	-7.364	0.101
551.900	-16.531	0.101
552.000	-13.508	0.101
552.100	-11.788	0.101
552.200	-19.609	0.101
552.300	-15.104	0.101
552.400	-17.775	0.101
552.500	-18.821	0.101
552.600	-17.526	0.101
552.700	-17.896	0.101
552.800	-27.248	0.101
552.900	-16.559	0.101
553.000	-15.950	0.101
553.100	-6.141	0.101
553.200	-23.876	0.101
553.300	-24.164	0.101
553.400	-16.356	0.101
553.500	-16.211	0.101
553.600	-25.435	0.101
553.700	-16.132	0.101
553.800	-25.416	0.101
553.900	-17.198	0.101
554.000	-20.690	0.101
554.100	-14.236	0.101
554.200	-8.801	0.101
554.300	-15.663	0.101
554.400	-26.082	0.101
554.500	-17.562	0.101
554.600	-21.550	0.101
554.700	-3.042	0.101
554.800	-17.489	0.101
554.900	-21.060	0.101
555.000	-33.096	0.101
555.100	-22.568	0.101
555.200	-23.795	0.101
555.300	-22.494	0.101
555.400	-11.017	0.101
555.500	-13.592	0.101
555.600	-16.272	0.101
555.700	-13.221	0.101
555.800	-16.572	0.101
555.900	-7.645	0.101
556.000	-17.116	0.101
556.100	-17.115	0.101
556.200	-11.810	0.101
556.300	-23.755	0.101
556.400	-18.432	0.101
556.500	-14.930	0.101
556.600	-19.262	0.101
556.700	-16.227	0.101
556.800	-14.603	0.101
556.900	-10.368	0.101
557.000	-29.221	0.101
557.100	-26.767	0.101
557.200	-22.026	0.101
557.300	-11.199	0.101
557.400	-18.411	0.101
557.500	-14.811	0.101
557.600	-7.211	0.101
557.700	-23.039	0.101
557.800	-12.554	0.101
557.900	-19.275	0.101
558.000	-26.457	0.101
558.100	-22.178	0.101
558.200	-19.908	0.101
558.300	-11.794	0.101
558.400	-21.065	0.101
558.500	-18.368	0.101
558.600	-33.709	0.101
558.700	-12.036	0.101
558.800	-8.238	0.101
558.900	-5.519	0.101
559.000	-23.618	0.101
559.100	-21.491	0.101
559.200	-16.239	0.101
559.300	-5.614	0.101
559.400	-16.704	0.101
559.500	-14.585	0.101
559.600	-17.815	0.101
559.700	-19.241	0.101
559.800	-18.353	0.101
559.900	-23.144	0.101
560.000	-23.749	0.101
560.100	-21.746	0.101
560.200	-23.700	0.101
560.300	-24.002	0.101
560.400	-11.053	0.101
560.500	-13.992	0.101
560.600	-24.128	0.101
560.700	-27.274	0.101
560.800	-16.087	0.101
560.900	-18.222	0.101
561.000	-32.667	0.101
561.100	-24.665	0.101
561.200	-23.282	0.101
561.300	-24.351	0.101
561.400	-12.737	0.101
561.500	-27.836	0.101
561.600	-17.602	0.101
561.700	-16.194	0.101
561.800	-9.111	0.101
561.900	-3.249	0.101
562.000	-16.516	0.101
562.100	-14.690	0.101
562.200	-16.805	0.101
562.300	-27.414	0.101
562.400	-25.453	0.101
562.500	-21.909	0.101
562.600	-14.543	0.101
562.700	-14.596	0.101
562.800	-17.643	0.101
562.900	-22.372	0.101
563.000	-22.665	0.101
563.100	-23.963	0.101
563.200	-24.379	0.101
563.300	-21.663	0.101
563.400	-16.921	0.101
563.500	-21.510	0.101
563.600	-13.621	0.101
563.700	-26.085	0.101
563.800	-20.765	0.101
563.900	-22.550	0.101
564.000	-26.214	0.101
564.100	-27.414	0.101
564.200	-22.572	0.101
564.300	-20.755	0.101
564.400	-7.342	0.101
564.500	-17.944	0.101
564.600	-18.237	0.101
564.700	-19.956	0.101
564.800	-16.421	0.101
564.900	-22.195	0.101
565.000	-14.222	0.101
565.100	-19.560	0.101
565.200	-22.078	0.101
565.300	-20.247	0.101
565.400	-15.911	0.101
565.500	-21.380	0.101
565.600	-23.432	0.101
565.700	-25.811	0.101
565.800	-19.496	0.101
565.900	-25.315	0.101
566.000	-16.522	0.101
566.100	-15.451	0.101
566.200	-13.081	0.101
566.300	-17.417	0.101
566.400	-30.527	0.101
566.500	-25.427	0.101
566.600	-13.943	0.101
566.700	-22.521	0.101
566.800	-18.287	0.101
566.900	-9.938	0.101
567.000	-13.682	0.101
567.100	-13.652	0.101
567.200	-18.602	0.101
567.300	-20.270	0.101
567.400	-17.602	0.101
567.500	-15.893	0.101
567.600	-19.846	0.101
567.700	-28.129	0.101
567.800	-24.080	0.101
567.900	-13.707	0.101
568.000	-19.753	0.101
568.100	-22.551	0.101
568.200	-20.988	0.101
568.300	-9.130	0.101
568.400	-16.847	0.101
568.500	-15.574	0.101
568.600	-27.686	0.101
568.700	-19.603	0.101
568.800	-11.895	0.101
568.900	-22.019	0.101
569.000	-16.857	0.101
569.100	-23.603	0.101
569.200	-16.669	0.101
569.300	-22.988	0.101
569.400	-18.680	0.101
569.500	-22.603	0.101
569.600	-12.552	0.101
569.700	-25.771	0.101
569.800	-20.781	0.101
569.900	-16.240	0.101
570.000	-28.928	0.101
570.100	-17.939	0.101
570.200	-23.300	0.101
570.300	-18.323	0.101
570.400	-25.278	0.101
570.500	-25.652	0.101
570.600	-16.622	0.101
570.700	-16.895	0.101
570.800	-19.991	0.101
570.900	-28.503	0.101
571.000	-16.996	0.101
571.100	-26.529	0.101
571.200	-18.288	0.101
571.300	-15.204	0.101
571.400	-19.327	0.101
571.500	-24.319	0.101
571.600	-12.628	0.101
571.700	-31.209	0.101
571.800	-17.982	0.101
571.900	-21.485	0.101
572.000	-25.784	0.101
572.100	-16.183	0.101
572.200	-18.984	0.101
572.300	-27.451	0.101
572.400	-23.781	0.101
572.500	-25.820	0.101
572.600	-18.281	0.101
572.700	-31.017	0.101
572.800	-10.854	0.101
572.900	-25.265	0.101
573.000	-15.605	0.101
573.100	-22.714	0.101
573.200	-21.719	0.101
573.300	-34.731	0.101
573.400	-19.464	0.101
573.500	-12.543	0.101
573.600	-16.517	0.101
573.700	-20.644	0.101
573.800	-19.772	0.101
573.900	-17.321	0.101
574.000	-19.220	0.101
574.100	-13.270	0.101
574.200	-12.101	0.101
574.300	-24.830	0.101
574.400	-17.669	0.101
574.500	-21.792	0.101
574.600	-28.315	0.101
574.700	-23.379	0.101
574.800	-21.698	0.101
574.900	-27.783	0.101
575.000	-14.420	0.101
575.100	-14.245	0.101
575.200	-20.472	0.101
575.300	-34.210	0.101
575.400	-29.117	0.101
575.500	-21.854	0.101
575.600	-13.905	0.101
575.700	-28.445	0.101
575.800	-17.455	0.101
575.900	-28.123	0.101
576.000	-14.202	0.101
576.100	-14.926	0.101
576.200	-15.813	0.101
576.300	-23.447	0.101
576.400	-14.191	0.101
576.500	-21.910	0.101
576.600	-20.283	0.101
576.700	-30.306	0.101
576.800	-27.794	0.101
576.900	-23.578	0.101
577.000	-22.579	0.101
577.100	-26.111	0.101
577.200	-23.772	0.101
577.300	-16.313	0.101
577.400	-19.713	0.101
577.500	-24.342	0.101
577.600	-29.102	0.101
577.700	-30.626	0.101
577.800	-16.970	0.101
577.900	-14.390	0.101
578.000	-11.503	0.101
578.100	-12.890	0.101
578.200	-20.643	0.101
578.300	-25.291	0.101
578.400	-13.146	0.101
578.500	-25.314	0.101
578.600	-22.584	0.101
578.700	-16.358	0.101
578.800	-18.866	0.101
578.900	-16.147	0.101
579.000	-25.325	0.101
579.100	-26.046	0.101
579.200	-33.401	0.101
579.300	-16.149	0.101
579.400	-19.377	0.101
579.500	-31.021	0.101
579.600	-22.752	0.101
579.700	-21.549	0.101
579.800	-23.617	0.101
579.900	-21.472	0.101
580.000	-18.675	0.101
580.100	-23.404	0.101
580.200	-26.339	0.101
580.300	-18.940	0.101
580.400	-15.994	0.101
580.500	-23.470	0.101
580.600	-19.107	0.101
580.700	-26.132	0.101
580.800	-17.462	0.101
580.900	-21.980	0.101
581.000	-16.012	0.101
581.100	-17.163	0.101
581.200	-17.526	0.101
581.300	-25.245	0.101
581.400	-17.589	0.101
581.500	-21.005	0.101
581.600	-22.511	0.101
581.700	-18.649	0.101
581.800	-16.659	0.101
581.900	-23.398	0.101
582.000	-16.363	0.101
582.100	-25.126	0.101
582.200	-20.866	0.101
582.300	-17.534	0.101
582.400	-19.768	0.101
582.500	-25.072	0.101
582.600	-21.787	0.101
582.700	-23.428	0.101
582.800	-15.110	0.101
582.900	-18.770	0.101
583.000	-17.681	0.101
583.100	-21.404	0.101
583.200	-11.006	0.101
583.300	-29.826	0.101
583.400	-26.732	0.101
583.500	-10.288	0.101
583.600	-24.176	0.101
583.700	-19.010	0.101
583.800	-13.391	0.101
583.900	-24.715	0.101
584.000	-15.748	0.101
584.100	-11.054	0.101
584.200	-21.733	0.101
584.300	-19.940	0.101
584.400	-23.031	0.101
584.500	-26.606	0.101
584.600	-26.905	0.101
584.700	-12.665	0.101
584.800	-18.375	0.101
584.900	-21.593	0.101
585.000	-3.411	0.101
585.100	-26.529	0.101
585.200	-19.989	0.101
585.300	-13.416	0.101
585.400	-7.341	0.101
585.500	-27.106	0.101
585.600	-21.644	0.101
585.700	-23.498	0.101
585.800	-20.778	0.101
585.900	-20.608	0.101
586.000	-21.228	0.101
586.100	-28.052	0.101
586.200	-11.620	0.101
586.300	-19.249	0.101
586.400	-13.100	0.101
586.500	-24.840	0.101
586.600	-18.318	0.101
586.700	-17.208	0.101
586.800	-16.868	0.101
586.900	-15.871	0.101
587.000	-13.916	0.101
587.100	-30.080	0.101
587.200	-17.308	0.101
587.300	-30.508	0.101
587.400	-11.982	0.101
587.500	-16.398	0.101
587.600	-17.976	0.101
587.700	-22.075	0.101
587.800	-22.146	0.101
587.900	-16.511	0.101
588.000	-21.196	0.101
588.100	-20.595	0.101
588.200	-8.676	0.101
588.300	-23.514	0.101
588.400	-18.857	0.101
588.500	-17.614	0.101
588.600	-14.956	0.101
588.700	-10.401	0.101
588.800	-23.988	0.101
588.900	-27.118	0.101
589.000	-17.061	0.101
589.100	-13.977	0.101
589.200	-15.387	0.101
589.300	-27.610	0.101
589.400	-21.645	0.101
589.500	-21.259	0.101
589.600	-21.560	0.101
589.700	-14.536	0.101
589.800	-16.965	0.101
589.900	-13.472	0.101
590.000	-24.106	0.101
590.100	-15.340	0.101
590.200	-23.103	0.101
590.300	-20.681	0.101
590.400	-1.780	0.101
590.500	-13.393	0.101
590.600	-33.123	0.101
590.700	-23.929	0.101
590.800	-18.542	0.101
590.900	-15.773	0.101
591.000	-19.799	0.101
591.100	-23.028	0.101
591.200	-21.482	0.101
591.300	-13.460	0.101
591.400	-28.005	0.101
591.500	-11.222	0.101
591.600	-11.182	0.101
591.700	-12.851	0.101
591.800	-16.160	0.101
591.900	-19.273	0.101
592.000	-25.225	0.101
592.100	-23.047	0.101
592.200	-21.169	0.101
592.300	-15.046	0.101
592.400	-3.037	0.101
592.500	-15.147	0.101
592.600	-29.841	0.101
592.700	-27.066	0.101
592.800	-23.420	0.101
592.900	-7.613	0.101
593.000	-17.681	0.101
593.100	-15.635	0.101
593.200	-12.548	0.101
593.300	-21.490	0.101
593.400	-17.239	0.101
593.500	-11.727	0.101
593.600	-25.020	0.101
593.700	-23.057	0.101
593.800	-15.483	0.101
593.900	-21.144	0.101
594.000	-18.627	0.101
594.100	-17.961	0.101
594.200	-13.854	0.101
594.300	-19.057	0.101
594.400	-24.655	0.101
594.500	-20.192	0.101
594.600	-20.936	0.101
594.700	-6.300	0.101
594.800	-15.701	0.101
594.900	-25.145	0.101
595.000	-17.277	0.101
595.100	-28.251	0.101
595.200	-16.660	0.101
595.300	-15.495	0.101
595.400	-14.235	0.101
595.500	-12.765	0.101
595.600	-22.593	0.101
595.700	-22.213	0.101
595.800	-10.863	0.101
595.900	-19.142	0.101
596.000	-15.125	0.101
596.100	-22.398	0.101
596.200	-13.394	0.101
596.300	-19.210	0.101
596.400	-7.586	0.101
596.500	-14.288	0.101
596.600	-28.065	0.101
596.700	-24.684	0.101
596.800	-21.448	0.101
596.900	-8.983	0.101
597.000	-26.291	0.101
597.100	-19.653	0.101
597.200	-17.755	0.101
597.300	-8.040	0.101
597.400	-18.625	0.101
597.500	-24.120	0.101
597.600	-16.423	0.101
597.700	-8.094	0.101
597.800	-21.694	0.101
597.900	-18.396	0.101
598.000	-13.568	0.101
598.100	-6.723	0.101
598.200	-19.845	0.101
598.300	-17.526	0.101
598.400	-20.186	0.101
598.500	-9.190	0.101
598.600	-28.244	0.101
598.700	-21.393	0.101
598.800	-16.046	0.101
598.900	-12.466	0.101
599.000	-24.683	0.101
599.100	-19.316	0.101
599.200	-24.174	0.101
599.300	-10.804	0.101
599.400	-20.352	0.101
599.500	-14.397	0.101
599.600	-29.719	0.101
599.700	-14.709	0.101
599.800	-27.826	0.101
599.900	-9.258	0.101
600.000	-17.829	0.101
600.100	-25.800	0.101
600.200	-14.108	0.101
600.300	-12.323	0.101
600.400	-16.584	0.101
600.500	-13.171	0.101
600.600	-23.821	0.101
600.700	-15.687	0.101
600.800	-19.349	0.101
600.900	-16.231	0.101
601.000	-14.984	0.101
601.100	-7.614	0.101
601.200	-22.241	0.101
601.300	-14.107	0.101
601.400	-20.744	0.101
601.500	-16.737	0.101
601.600	-18.675	0.101
601.700	-16.777	0.101
601.800	-20.466	0.101
601.900	-22.215	0.101
602.000	-7.507	0.101
602.100	-13.795	0.101
602.200	-12.473	0.101
602.300	-23.365	0.101
602.400	-21.287	0.101
602.500	-7.941	0.101
602.600	-18.108	0.101
602.700	-15.528	0.101
602.800	-25.640	0.101
602.900	-9.767	0.101
603.000	-9.647	0.101
603.100	-20.445	0.101
603.200	-26.611	0.101
603.300	-17.601	0.101
603.400	-19.233	0.101
603.500	-8.036	0.101
603.600	-15.453	0.101
603.700	-8.166	0.101
603.800	-22.665	0.101
603.900	-13.501	0.101
604.000	-13.703	0.101
604.100	-19.702	0.101
604.200	-23.282	0.101
604.300	-13.049	0.101
604.400	-9.405	0.101
604.500	-7.447	0.101
604.600	-7.330	0.101
604.700	-14.050	0.101
604.800	-19.420	0.101
604.900	-10.681	0.101
605.000	-17.187	0.101
605.100	-21.461	0.101
605.200	-25.505	0.101
605.300	-15.984	0.101
605.400	-16.252	0.101
605.500	-10.607	0.101
605.600	-12.942	0.101
605.700	-20.068	0.101
605.800	-26.262	0.101
605.900	-10.710	0.101
606.000	-13.238	0.101
606.100	-9.048	0.101
606.200	-13.749	0.101
606.300	-14.694	0.101
606.400	-10.253	0.101
606.500	-20.330	0.101
606.600	-21.486	0.101
606.700	-13.452	0.101
606.800	-16.990	0.101
606.900	-9.924	0.101
607.000	-19.316	0.101
607.100	-17.210	0.101
607.200	-16.394	0.101
607.300	-14.062	0.101
607.400	-14.469	0.101
607.500	-14.942	0.101
607.600	-17.184	0.101
607.700	-12.138	0.101
607.800	-19.626	0.101
607.900	-14.512	0.101
608.000	-19.675	0.101
608.100	-20.188	0.101
608.200	-17.301	0.101
608.300	-13.560	0.101
608.400	-17.266	0.101
608.500	-12.851	0.101
608.600	-17.639	0.101
608.700	-22.157	0.101
608.800	-8.275	0.101
608.900	-7.810	0.101
609.000	-21.287	0.101
609.100	-10.501	0.101
609.200	-21.512	0.101
609.300	-14.612	0.101
609.400	-16.779	0.101
609.500	-8.514	0.101
609.600	-12.900	0.101
609.700	-18.872	0.101
609.800	-20.886	0.101
609.900	-14.709	0.101
610.000	-17.170	0.101
610.100	-6.586	0.101
610.200	-28.029	0.101
610.300	-13.320	0.101
610.400	-14.726	0.101
610.500	-17.121	0.101
610.600	-15.397	0.101
610.700	-11.308	0.101
610.800	-12.892	0.101
610.900	-8.549	0.101
611.000	-16.942	0.101
611.100	-22.150	0.101
611.200	-17.936	0.101
611.300	-13.799	0.101
611.400	-12.537	0.101
611.500	-7.425	0.101
611.600	-7.819	0.101
611.700	-12.477	0.101
611.800	-18.799	0.101
611.900	-11.949	0.101
612.000	-10.234	0.101
612.100	-7.960	0.101
612.200	-13.565	0.101
612.300	-12.792	0.101
612.400	-22.115	0.101
612.500	-9.522	0.101
612.600	-14.083	0.101
612.700	-23.055	0.101
612.800	-27.834	0.101
612.900	-18.415	0.101
613.000	-16.081	0.101
613.100	-7.967	0.101
613.200	-21.133	0.101
613.300	-21.732	0.101
613.400	-15.881	0.101
613.500	-12.883	0.101
613.600	-9.133	0.101
613.700	-2.365	0.101
613.800	-3.619	0.101
613.900	-15.392	0.101
614.000	-23.095	0.101
614.100	-12.401	0.101
614.200	-23.963	0.101
614.300	-18.515	0.101
614.400	-13.657	0.101
614.500	-13.595	0.101
614.600	-7.260	0.101
614.700	-9.583	0.101
614.800	-9.962	0.101
614.900	-9.870	0.101
615.000	-19.829	0.101
615.100	-6.098	0.101
615.200	-18.933	0.101
615.300	-18.656	0.101
615.400	-16.482	0.101
615.500	-13.773	0.101
615.600	-15.052	0.101
615.700	-18.486	0.101
615.800	-14.473	0.101
615.900	-6.642	0.101
616.000	-22.281	0.101
616.100	-0.145	0.101
616.200	-19.682	0.101
616.300	-26.395	0.101
616.400	-14.512	0.101
616.500	-27.232	0.101
616.600	-9.731	0.101
616.700	-5.993	0.101
616.800	-11.900	0.101
616.900	-18.526	0.101
617.000	-20.498	0.101
617.100	-15.730	0.101
617.200	-16.960	0.101
617.300	-6.068	0.101
617.400	-21.109	0.101
617.500	-13.947	0.101
617.600	-16.416	0.101
617.700	-1.995	0.101
617.800	-12.766	0.101
617.900	-9.734	0.101
618.000	-22.524	0.101
618.100	-9.448	0.101
618.200	-4.523	0.101
618.300	-19.822	0.101
618.400	-9.437	0.101
618.500	-16.646	0.101
618.600	-18.068	0.101
618.700	-13.067	0.101
618.800	-5.328	0.101
618.900	-10.661	0.101
619.000	-21.901	0.101
619.100	-7.790	0.101
619.200	-14.088	0.101
619.300	-16.233	0.101
619.400	-21.102	0.101
619.500	-10.050	0.101
619.600	-23.402	0.101
619.700	-20.823	0.101
619.800	-3.560	0.101
619.900	-26.260	0.101
620.000	-10.407	0.101
620.100	-13.967	0.101
620.200	-18.522	0.101
620.300	-8.684	0.101
620.400	-6.244	0.101
620.500	-6.680	0.101
620.600	-19.260	0.101
620.700	-14.653	0.101
620.800	-11.895	0.101
620.900	-14.789	0.101
621.000	-2.269	0.101
621.100	-6.688	0.101
621.200	-12.459	0.101
621.300	-9.149	0.101
621.400	-11.063	0.101
621.500	-17.572	0.101
621.600	-14.623	0.101
621.700	-20.742	0.101
621.800	-13.595	0.101
621.900	-11.496	0.101
622.000	-14.235	0.101
622.100	-13.472	0.101
622.200	-10.372	0.101
622.300	-16.175	0.101
622.400	-17.982	0.101
622.500	-24.180	0.101
622.600	-16.276	0.101
622.700	-8.067	0.101
622.800	-17.512	0.101
622.900	-8.393	0.101
623.000	-21.656	0.101
623.100	-15.207	0.101
623.200	-7.027	0.101
623.300	-6.377	0.101
623.400	-15.149	0.101
623.500	-14.995	0.101
623.600	-22.511	0.101
623.700	-17.460	0.101
623.800	-18.283	0.101
623.900	-8.570	0.101
624.000	-14.670	0.101
624.100	-12.631	0.101
624.200	-10.942	0.101
624.300	-23.868	0.101
624.400	-15.587	0.101
624.500	-17.144	0.101
624.600	-10.242	0.101
624.700	-11.185	0.101
624.800	-18.271	0.101
624.900	-8.211	0.101
625.000	-20.526	0.101
625.100	-10.270	0.101
625.200	-13.769	0.101
625.300	-9.362	0.101
625.400	-9.814	0.101
625.500	-13.816	0.101
625.600	-19.311	0.101
625.700	-20.458	0.101
625.800	-8.713	0.101
625.900	-12.678	0.101
626.000	-8.948	0.101
626.100	-16.574	0.101
626.200	-11.601	0.101
626.300	-21.895	0.101
626.400	-14.205	0.101
626.500	-13.138	0.101
626.600	-18.047	0.101
626.700	-18.472	0.101
626.800	-11.172	0.101
626.900	-18.292	0.101
627.000	-15.305	0.101
627.100	-17.443	0.101
627.200	-15.655	0.101
627.300	-9.432	0.101
627.400	-16.572	0.101
627.500	-6.382	0.101
627.600	-2.045	0.101
627.700	-11.510	0.101
627.800	-6.916	0.101
627.900	-26.616	0.101
628.000	-2.383	0.101
628.100	-20.754	0.101
628.200	-11.747	0.101
628.300	-16.695	0.101
628.400	-8.771	0.101
628.500	-20.694	0.101
628.600	-8.928	0.101
628.700	-4.825	0.101
628.800	-14.579	0.101
628.900	-26.220	0.101
629.000	-17.545	0.101
629.100	-18.311	0.101
629.200	-14.717	0.101
629.300	-16.603	0.101
629.400	-10.090	0.101
629.500	-18.373	0.101
629.600	-14.110	0.101
629.700	-14.614	0.101
629.800	-8.562	0.101
629.900	-15.906	0.101
630.000	-8.767	0.101
630.100	-12.231	0.101
630.200	-18.185	0.101
630.300	-16.212	0.101
630.400	-2.777	0.101
630.500	-12.801	0.101
630.600	-9.243	0.101
630.700	-5.309	0.101
630.800	-4.948	0.101
630.900	-2.787	0.101
631.000	-0.228	0.101
631.100	-3.914	0.101
631.200	-4.346	0.101
631.300	6.490	0.101
631.400	14.037	0.101
631.500	5.561	0.101
631.600	14.353	0.101
631.700	18.276	0.101
631.800	11.373	0.101
631.900	20.711	0.101
632.000	8.893	0.101
632.100	10.638	0.101
632.200	15.714	0.101
632.300	19.401	0.101
632.400	14.831	0.101
632.500	17.153	0.101
632.600	25.186	0.101
632.700	22.020	0.101
632.800	11.873	0.101
632.900	26.489	0.101
633.000	24.341	0.101
633.100	19.967	0.101
633.200	28.922	0.101
633.300	20.284	0.101
633.400	25.012	0.101
633.500	19.251	0.101
633.600	26.675	0.101
633.700	32.030	0.101
633.800	14.615	0.101
633.900	22.890	0.101
634.000	11.225	0.101
634.100	20.592	0.101
634.200	17.099	0.101
634.300	32.056	0.101
634.400	31.112	0.101
634.500	27.177	0.101
634.600	21.163	0.101
634.700	15.581	0.101
634.800	19.452	0.101
634.900	26.790	0.101
635.000	27.975	0.101
635.100	19.688	0.101
635.200	21.967	0.101
635.300	3.797	0.101
635.400	23.478	0.101
635.500	25.591	0.101
635.600	21.103	0.101
635.700	23.271	0.101
635.800	30.942	0.101
635.900	6.929	0.101
636.000	25.501	0.101
636.100	20.237	0.101
636.200	15.297	0.101
636.300	20.766	0.101
636.400	17.349	0.101
636.500	20.717	0.101
636.600	24.731	0.101
636.700	13.219	0.101
636.800	19.785	0.101
636.900	11.541	0.101
637.000	23.882	0.101
637.100	13.105	0.101
637.200	24.005	0.101
637.300	7.859	0.101
637.400	14.484	0.101
637.500	8.761	0.101
637.600	24.771	0.101
637.700	12.579	0.101
637.800	8.037	0.101
637.900	19.719	0.101
638.000	6.538	0.101
638.100	7.204	0.101
638.200	10.889	0.101
638.300	18.395	0.101
638.400	15.724	0.101
638.500	5.952	0.101
638.600	16.048	0.101
638.700	17.279	0.101
638.800	20.446	0.101
638.900	11.655	0.101
639.000	23.119	0.101
639.100	17.375	0.101
639.200	25.448	0.101
639.300	8.365	0.101
639.400	10.797	0.101
639.500	17.385	0.101
639.600	26.922	0.101
639.700	13.355	0.101
639.800	17.566	0.101
639.900	9.129	0.101
640.000	18.341	0.101
640.100	19.845	0.101
640.200	21.732	0.101
640.300	16.317	0.101
640.400	15.181	0.101
640.500	19.151	0.101
640.600	8.988	0.101
640.700	13.010	0.101
640.800	16.896	0.101
640.900	5.546	0.101
641.000	12.654	0.101
641.100	12.346	0.101
641.200	22.789	0.101
641.300	18.582	0.101
641.400	13.881	0.101
641.500	26.320	0.101
641.600	21.592	0.101
641.700	20.551	0.101
641.800	25.381	0.101
641.900	20.650	0.101
642.000	22.221	0.101
642.100	31.654	0.101
642.200	17.436	0.101
642.300	14.664	0.101
642.400	16.108	0.101
642.500	23.054	0.101
642.600	10.106	0.101
642.700	12.796	0.101
642.800	24.299	0.101
642.900	14.081	0.101
643.000	32.202	0.101
643.100	11.685	0.101
643.200	17.165	0.101
643.300	20.424	0.101
643.400	22.972	0.101
643.500	17.769	0.101
643.600	14.960	0.101
643.700	20.904	0.101
643.800	23.478	0.101
643.900	26.792	0.101
644.000	27.339	0.101
644.100	19.720	0.101
644.200	17.296	0.101
644.300	15.332	0.101
644.400	22.837	0.101
644.500	19.005	0.101
644.600	35.596	0.101
644.700	28.714	0.101
644.800	25.394	0.101
644.900	16.923	0.101
645.000	22.024	0.101
645.100	25.142	0.101
645.200	20.565	0.101
645.300	22.248	0.101
645.400	26.046	0.101
645.500	17.154	0.101
645.600	18.504	0.101
645.700	22.740	0.101
645.800	27.905	0.101
645.900	21.521	0.101
646.000	24.307	0.101
646.100	14.022	0.101
646.200	16.924	0.101
646.300	19.303	0.101
646.400	22.537	0.101
646.500	22.504	0.101
646.600	10.253	0.101
646.700	14.435	0.101
646.800	35.071	0.101
646.900	27.238	0.101
647.000	40.072	0.101
647.100	21.596	0.101
647.200	22.654	0.101
647.300	40.335	0.101
647.400	28.539	0.101
647.500	31.018	0.101
647.600	24.557	0.101
647.700	20.046	0.101
647.800	32.678	0.101
647.900	26.350	0.101
648.000	27.004	0.101
648.100	28.620	0.101
648.200	34.640	0.101
648.300	31.758	0.101
648.400	25.805	0.101
648.500	25.634	0.101
648.600	21.379	0.101
648.700	28.414	0.101
648.800	29.010	0.101
648.900	34.086	0.101
649.000	37.323	0.101
649.100	27.743	0.101
649.200	29.383	0.101
649.300	35.302	0.101
649.400	34.218	0.101
649.500	26.740	0.101
649.600	30.129	0.101
649.700	38.354	0.101
649.800	36.201	0.101
649.900	33.023	0.101
650.000	27.638	0.101
650.100	23.662	0.101
650.200	35.545	0.101
650.300	37.678	0.101
650.400	26.909	0.101
650.500	25.931	0.101
650.600	33.774	0.101
650.700	36.429	0.101
650.800	32.754	0.101
650.900	26.393	0.101
651.000	31.971	0.101
651.100	32.546	0.101
651.200	28.626	0.101
651.300	23.515	0.101
651.400	37.179	0.101
651.500	36.078	0.101
651.600	38.100	0.101
651.700	32.612	0.101
651.800	33.310	0.101
651.900	28.161	0.101
652.000	31.501	0.101
652.100	27.144	0.101
652.200	29.356	0.101
652.300	31.770	0.101
652.400	28.367	0.101
652.500	33.687	0.101
652.600	32.241	0.101
652.700	24.971	0.101
652.800	40.755	0.101
652.900	44.413	0.101
653.000	38.790	0.101
653.100	34.047	0.101
653.200	34.454	0.101
653.300	31.993	0.101
653.400	28.388	0.101
653.500	19.818	0.101
653.600	30.426	0.101
653.700	27.319	0.101
653.800	29.662	0.101
653.900	31.813	0.101
654.000	32.444	0.101
654.100	32.822	0.101
654.200	23.519	0.101
654.300	44.044	0.101
654.400	36.353	0.101
654.500	39.052	0.101
654.600	29.291	0.101
654.700	39.240	0.101
654.800	29.998	0.101
654.900	37.083	0.101
655.000	34.891	0.101
655.100	29.899	0.101
655.200	32.873	0.101
655.300	38.601	0.101
655.400	43.766	0.101
655.500	25.930	0.101
655.600	32.731	0.101
655.700	30.577	0.101
655.800	39.092	0.101
655.900	37.704	0.101
656.000	36.584	0.101
656.100	33.505	0.101
656.200	27.538	0.101
656.300	40.611	0.101
656.400	39.207	0.101
656.500	33.693	0.101
656.600	30.135	0.101
656.700	35.842	0.101
656.800	39.690	0.101
656.900	39.344	0.101
657.000	40.301	0.101
657.100	25.292	0.101
657.200	31.843	0.101
657.300	40.583	0.101
657.400	23.754	0.101
657.500	34.915	0.101
657.600	33.504	0.101
657.700	26.512	0.101
657.800	25.672	0.101
657.900	39.331	0.101
658.000	37.627	0.101
658.100	30.020	0.101
658.200	31.846	0.101
658.300	22.296	0.101
658.400	31.321	0.101
658.500	32.941	0.101
658.600	38.850	0.101
658.700	35.078	0.101
658.800	41.707	0.101
658.900	33.201	0.101
659.000	36.809	0.101
659.100	29.037	0.101
659.200	35.835	0.101
659.300	24.490	0.101
659.400	26.108	0.101
659.500	28.145	0.101
659.600	31.175	0.101
659.700	37.870	0.101
659.800	31.851	0.101
659.900	31.201	0.101
660.000	23.441	0.101
660.100	40.905	0.101
660.200	28.907	0.101
660.300	37.064	0.101
660.400	24.007	0.101
660.500	37.287	0.101
660.600	36.931	0.101
660.700	43.054	0.101
660.800	27.646	0.101
660.900	24.567	0.101
661.000	32.281	0.101
661.100	32.899	0.101
661.200	28.283	0.101
661.300	34.057	0.101
661.400	41.149	0.101
661.500	33.324	0.101
661.600	29.844	0.101
661.700	28.997	0.101
661.800	35.491	0.101
661.900	33.503	0.101
662.000	32.461	0.101
662.100	35.336	0.101
662.200	24.631	0.101
662.300	29.531	0.101
662.400	32.028	0.101
662.500	29.159	0.101
662.600	39.731	0.101
662.700	28.311	0.101
662.800	29.478	0.101
662.900	39.352	0.101
663.000	29.984	0.101
663.100	31.535	0.101
663.200	27.995	0.101
663.300	31.712	0.101
663.400	34.759	0.101
663.500	31.857	0.101
663.600	34.251	0.101
663.700	31.945	0.101
663.800	29.633	0.101
663.900	33.802	0.101
664.000	32.126	0.101
664.100	34.758	0.101
664.200	25.129	0.101
664.300	33.306	0.101
664.400	25.202	0.101
664.500	29.222	0.101
664.600	32.887	0.101
664.700	40.624	0.101
664.800	23.162	0.101
664.900	28.860	0.101
665.000	34.319	0.101
665.100	37.055	0.101
665.200	30.142	0.101
665.300	34.553	0.101
665.400	29.708	0.101
665.500	26.979	0.101
665.600	39.249	0.101
665.700	41.756	0.101
665.800	31.819	0.101
665.900	23.802	0.101
666.000	20.268	0.101
666.100	36.877	0.101
666.200	36.024	0.101
666.300	35.144	0.101
666.400	28.258	0.101
666.500	34.725	0.101
666.600	32.466	0.101
666.700	24.150	0.101
666.800	32.860	0.101
666.900	31.826	0.101
667.000	17.251	0.101
667.100	29.703	0.101
667.200	42.776	0.101
667.300	27.719	0.101
667.400	25.257	0.101
667.500	36.789	0.101
667.600	40.661	0.101
667.700	33.650	0.101
667.800	30.016	0.101
667.900	34.058	0.101
668.000	25.714	0.101
668.100	29.954	0.101
668.200	17.636	0.101
668.300	26.765	0.101
668.400	26.744	0.101
668.500	33.087	0.101
668.600	31.166	0.101
668.700	26.997	0.101
668.800	27.547	0.101
668.900	32.983	0.101
669.000	35.062	0.101
669.100	25.785	0.101
669.200	29.121	0.101
669.300	26.976	0.101
669.400	28.166	0.101
669.500	29.738	0.101
669.600	28.360	0.101
669.700	44.193	0.101
669.800	27.989	0.101
669.900	24.223	0.101
670.000	25.694	0.101
670.100	34.405	0.101
670.200	27.666	0.101
670.300	30.630	0.101
670.400	36.234	0.101
670.500	32.814	0.101
670.600	29.415	0.101
670.700	37.032	0.101
670.800	28.528	0.101
670.900	32.418	0.101
671.000	23.150	0.101
671.100	40.060	0.101
671.200	35.432	0.101
671.300	35.652	0.101
671.400	29.428	0.101
671.500	29.552	0.101
671.600	22.487	0.101
671.700	28.850	0.101
671.800	28.929	0.101
671.900	33.836	0.101
672.000	22.947	0.101
672.100	27.262	0.101
672.200	38.862	0.101
672.300	36.488	0.101
672.400	27.508	0.101
672.500	33.060	0.101
672.600	25.763	0.101
672.700	30.258	0.101
672.800	40.306	0.101
672.900	40.815	0.101
673.000	40.560	0.101
673.100	30.824	0.101
673.200	21.340	0.101
673.300	31.837	0.101
673.400	27.936	0.101
673.500	27.819	0.101
673.600	24.878	0.101
673.700	36.466	0.101
673.800	29.558	0.101
673.900	27.306	0.101
674.000	25.922	0.101
674.100	31.413	0.101
674.200	29.218	0.101
674.300	20.665	0.101
674.400	28.924	0.101
674.500	31.486	0.101
674.600	29.121	0.101
674.700	25.957	0.101
674.800	37.702	0.101
674.900	38.266	0.101
675.000	41.254	0.101
675.100	26.835	0.101
675.200	35.452	0.101
675.300	43.361	0.101
675.400	32.602	0.101
675.500	32.212	0.101
675.600	24.632	0.101
675.700	31.107	0.101
675.800	27.648	0.101
675.900	23.043	0.101
676.000	22.562	0.101
676.100	29.495	0.101
676.200	33.607	0.101
676.300	32.243	0.101
676.400	24.271	0.101
676.500	34.859	0.101
676.600	31.814	0.101
676.700	35.227	0.101
676.800	20.781	0.101
676.900	21.266	0.101
677.000	30.219	0.101
677.100	27.876	0.101
677.200	35.183	0.101
677.300	31.977	0.101
677.400	30.562	0.101
677.500	41.279	0.101
677.600	29.309	0.101
677.700	29.612	0.101
677.800	26.352	0.101
677.900	26.360	0.101
678.000	34.170	0.101
678.100	25.456	0.101
678.200	24.165	0.101
678.300	38.360	0.101
678.400	41.523	0.101
678.500	45.600	0.101
678.600	34.051	0.101
678.700	39.959	0.101
678.800	23.015	0.101
678.900	20.120	0.101
679.000	26.749	0.101
679.100	27.924	0.101
679.200	30.646	0.101
679.300	22.858	0.101
679.400	29.262	0.101
679.500	31.157	0.101
679.600	38.477	0.101
679.700	34.291	0.101
679.800	25.700	0.101
679.900	32.773	0.101
680.000	25.369	0.101
680.100	29.968	0.101
680.200	11.962	0.101
680.300	33.118	0.101
680.400	39.588	0.101
680.500	41.191	0.101
680.600	30.326	0.101
680.700	39.737	0.101
680.800	28.906	0.101
680.900	21.673	0.101
681.000	20.653	0.101
681.100	32.486	0.101
681.200	33.036	0.101
681.300	24.309	0.101
681.400	20.443	0.101
681.500	30.956	0.101
681.600	39.447	0.101
681.700	28.649	0.101
681.800	24.959	0.101
681.900	29.034	0.101
682.000	32.840	0.101
682.100	39.405	0.101
682.200	36.046	0.101
682.300	22.200	0.101
682.400	28.642	0.101
682.500	29.115	0.101
682.600	29.916	0.101
682.700	38.040	0.101
682.800	35.035	0.101
682.900	29.050	0.101
683.000	27.907	0.101
683.100	33.657	0.101
683.200	20.985	0.101
683.300	32.826	0.101
683.400	28.531	0.101
683.500	36.332	0.101
683.600	16.839	0.101
683.700	25.085	0.101
683.800	21.125	0.101
683.900	38.907	0.101
684.000	30.884	0.101
684.100	27.390	0.101
684.200	29.115	0.101
684.300	34.479	0.101
684.400	30.494	0.101
684.500	36.757	0.101
684.600	35.954	0.101
684.700	28.245	0.101
684.800	27.967	0.101
684.900	22.349	0.101
685.000	35.676	0.101
685.100	32.133	0.101
685.200	31.808	0.101
685.300	32.001	0.101
685.400	38.034	0.101
685.500	25.294	0.101
685.600	42.012	0.101
685.700	18.898	0.101
685.800	28.528	0.101
685.900	41.517	0.101
686.000	39.076	0.101
686.100	27.551	0.101
686.200	24.592	0.101
686.300	27.791	0.101
686.400	22.437	0.101
686.500	38.633	0.101
686.600	30.730	0.101
686.700	24.060	0.101
686.800	15.901	0.101
686.900	29.396	0.101
687.000	28.139	0.101
687.100	20.007	0.101
687.200	31.641	0.101
687.300	31.609	0.101
687.400	36.008	0.101
687.500	31.326	0.101
687.600	24.783	0.101
687.700	28.841	0.101
687.800	22.603	0.101
687.900	27.627	0.101
688.000	32.499	0.101
688.100	26.837	0.101
688.200	33.638	0.101
688.300	29.515	0.101
688.400	33.593	0.101
688.500	25.562	0.101
688.600	28.783	0.101
688.700	38.947	0.101
688.800	35.806	0.101
688.900	25.267	0.101
689.000	27.047	0.101
689.100	23.696	0.101
689.200	27.553	0.101
689.300	25.724	0.101
689.400	38.604	0.101
689.500	37.820	0.101
689.600	36.045	0.101
689.700	27.738	0.101
689.800	24.035	0.101
689.900	19.321	0.101
690.000	46.557	0.101
690.100	24.224	0.101
690.200	24.708	0.101
690.300	40.225	0.101
690.400	40.238	0.101
690.500	31.501	0.101
690.600	29.448	0.101
690.700	15.204	0.101
690.800	25.110	0.101
690.900	22.765	0.101
691.000	21.019	0.101
691.100	17.177	0.101
691.200	13.839	0.101
691.300	4.654	0.101
691.400	12.879	0.101
691.500	-0.316	0.101
691.600	-12.434	0.101
691.700	-10.239	0.101
691.800	8.650	0.101
691.900	-10.772	0.101
692.000	-1.106	0.101
692.100	-6.994	0.101
692.200	-12.880	0.101
692.300	-2.890	0.101
692.400	-14.066	0.101
692.500	-23.237	0.101
692.600	-20.517	0.101
692.700	-19.568	0.101
692.800	-24.928	0.101
692.900	-18.942	0.101
693.000	-18.054	0.101
693.100	-19.042	0.101
693.200	-19.475	0.101
693.300	-31.985	0.101
693.400	-35.374	0.101
693.500	-24.198	0.101
693.600	-21.090	0.101
693.700	-27.459	0.101
693.800	-23.426	0.101
693.900	-26.110	0.101
694.000	-28.566	0.101
694.100	-31.715	0.101
694.200	-28.914	0.101
694.300	-27.508	0.101
694.400	-19.851	0.101
694.500	-36.483	0.101
694.600	-25.380	0.101
694.700	-18.619	0.101
694.800	-22.235	0.101
694.900	-32.412	0.101
695.000	-23.158	0.101
695.100	-27.579	0.101
695.200	-20.047	0.101
695.300	-21.033	0.101
695.400	-25.742	0.101
695.500	-21.802	0.101
695.600	-19.818	0.101
695.700	-25.983	0.101
695.800	-29.730	0.101
695.900	-24.890	0.101
696.000	-23.779	0.101
696.100	-30.920	0.101
696.200	-24.857	0.101
696.300	-28.601	0.101
696.400	-29.075	0.101
696.500	-23.877	0.101
696.600	-23.854	0.101
696.700	-17.375	0.101
696.800	-17.881	0.101
696.900	-25.275	0.101
697.000	-25.173	0.101
697.100	-23.812	0.101
697.200	-19.107	0.101
697.300	-15.020	0.101
697.400	-19.029	0.101
697.500	-21.868	0.101
697.600	-18.939	0.101
697.700	-19.484	0.101
697.800	-22.703	0.101
697.900	-26.003	0.101
698.000	-20.637	0.101
698.100	-9.409	0.101
698.200	-15.173	0.101
698.300	-26.563	0.101
698.400	-30.105	0.101
698.500	-14.380	0.101
698.600	-14.460	0.101
698.700	-24.551	0.101
698.800	-7.610	0.101
698.900	-24.562	0.101
699.000	-24.775	0.101
699.100	-11.196	0.101
699.200	-13.280	0.101
699.300	-24.973	0.101
699.400	-16.633	0.101
699.500	-20.373	0.101
699.600	-16.602	0.101
699.700	-17.810	0.101
699.800	-19.858	0.101
699.900	-15.509	0.101
700.000	-17.073	0.101
700.100	-22.048	0.101
700.200	-26.445	0.101
700.300	-17.803	0.101
700.400	-10.334	0.101
700.500	-21.535	0.101
700.600	-26.895	0.101
700.700	-24.144	0.101
700.800	-16.262	0.101
700.900	-15.822	0.101
701.000	-17.561	0.101
701.100	-20.797	0.101
701.200	-8.289	0.101
701.300	-19.367	0.101
701.400	-15.833	0.101
701.500	-20.143	0.101
701.600	-13.542	0.101
701.700	-8.060	0.101
701.800	-11.646	0.101
701.900	-18.999	0.101
702.000	-23.113	0.101
702.100	-13.269	0.101
702.200	-16.093	0.101
702.300	-11.181	0.101
702.400	-21.613	0.101
702.500	-21.123	0.101
702.600	-16.438	0.101
702.700	-26.519	0.101
702.800	-17.916	0.101
702.900	-21.436	0.101
703.000	-11.165	0.101
703.100	-25.492	0.101
703.200	-14.433	0.101
703.300	-15.765	0.101
703.400	-16.562	0.101
703.500	-16.715	0.101
703.600	-17.359	0.101
703.700	-21.571	0.101
703.800	-21.003	0.101
703.900	-16.690	0.101
704.000	-15.018	0.101
704.100	-10.254	0.101
704.200	-25.566	0.101
704.300	-18.582	0.101
704.400	-20.971	0.101
704.500	-26.364	0.101
704.600	-32.566	0.101
704.700	-17.933	0.101
704.800	-14.278	0.101
704.900	-21.888	0.101
705.000	-11.637	0.101
705.100	-18.948	0.101
705.200	-17.616	0.101
705.300	-22.533	0.101
705.400	-10.393	0.101
705.500	-16.669	0.101
705.600	-11.776	0.101
705.700	-14.303	0.101
705.800	-19.267	0.101
705.900	-29.596	0.101
706.000	-14.526	0.101
706.100	-19.997	0.101
706.200	-16.555	0.101
706.300	-20.765	0.101
706.400	-21.110	0.101
706.500	-14.226	0.101
706.600	-20.507	0.101
706.700	-19.853	0.101
706.800	-23.563	0.101
706.900	-20.902	0.101
707.000	-26.356	0.101
707.100	-23.759	0.101
707.200	-10.329	0.101
707.300	-19.494	0.101
707.400	-16.004	0.101
707.500	-8.490	0.101
707.600	-18.368	0.101
707.700	-20.613	0.101
707.800	-13.307	0.101
707.900	-17.550	0.101
708.000	-18.315	0.101
708.100	-19.590	0.101
708.200	-20.593	0.101
708.300	-11.063	0.101
708.400	-19.513	0.101
708.500	-18.089	0.101
708.600	-17.250	0.101
708.700	-11.704	0.101
708.800	-24.473	0.101
708.900	-16.661	0.101
709.000	-19.948	0.101
709.100	-24.025	0.101
709.200	-24.096	0.101
709.300	-26.124	0.101
709.400	-18.880	0.101
709.500	-18.227	0.101
709.600	-12.763	0.101
709.700	-12.537	0.101
709.800	-15.936	0.101
709.900	-21.960	0.101
710.000	-24.752	0.101
710.100	-16.771	0.101
710.200	-15.247	0.101
710.300	-17.642	0.101
710.400	-25.533	0.101
710.500	-16.682	0.101
710.600	-11.361	0.101
710.700	-19.117	0.101
710.800	-22.640	0.101
710.900	-23.411	0.101
711.000	-19.719	0.101
711.100	-19.560	0.101
711.200	-19.391	0.101
711.300	-19.681	0.101
711.400	-12.322	0.101
711.500	-12.176	0.101
711.600	-23.037	0.101
711.700	-19.395	0.101
711.800	-23.707	0.101
711.900	-17.422	0.101
712.000	-16.279	0.101
712.100	-21.791	0.101
712.200	-13.615	0.101
712.300	-26.819	0.101
712.400	-29.520	0.101
712.500	-16.633	0.101
712.600	-21.974	0.101
712.700	-22.557	0.101
712.800	-19.492	0.101
712.900	-16.789	0.101
713.000	-19.970	0.101
713.100	-24.806	0.101
713.200	-17.584	0.101
713.300	-15.509	0.101
713.400	-14.463	0.101
713.500	-21.690	0.101
713.600	-16.815	0.101
713.700	-21.634	0.101
713.800	-24.935	0.101
713.900	-23.564	0.101
714.000	-21.211	0.101
714.100	-16.116	0.101
714.200	-17.028	0.101
714.300	-23.061	0.101
714.400	-25.208	0.101
714.500	-22.042	0.101
714.600	-15.346	0.101
714.700	-23.491	0.101
714.800	-28.993	0.101
714.900	-22.169	0.101
715.000	-16.336	0.101
715.100	-20.309	0.101
715.200	-23.113	0.101
715.300	-19.655	0.101
715.400	-14.871	0.101
715.500	-12.364	0.101
715.600	-21.866	0.101
715.700	-15.418	0.101
715.800	-18.232	0.101
715.900	-19.800	0.101
716.000	-13.544	0.101
716.100	-18.595	0.101
716.200	-25.697	0.101
716.300	-26.709	0.101
716.400	-28.864	0.101
716.500	-21.441	0.101
716.600	-20.525	0.101
716.700	-22.955	0.101
716.800	-21.313	0.101
716.900	-19.182	0.101
717.000	-24.047	0.101
717.100	-18.464	0.101
717.200	-6.306	0.101
717.300	-16.498	0.101
717.400	-22.952	0.101
717.500	-23.571	0.101
717.600	-17.873	0.101
717.700	-26.213	0.101
717.800	-16.978	0.101
717.900	-18.377	0.101
718.000	-21.708	0.101
718.100	-18.178	0.101
718.200	-18.722	0.101
718.300	-27.293	0.101
718.400	-18.418	0.101
718.500	-20.359	0.101
718.600	-22.621	0.101
718.700	-28.912	0.101
718.800	-19.158	0.101
718.900	-22.416	0.101
719.000	-20.947	0.101
719.100	-18.645	0.101
719.200	-25.226	0.101
719.300	-27.441	0.101
719.400	-21.844	0.101
719.500	-24.594	0.101
719.600	-16.642	0.101
719.700	-19.173	0.101
719.800	-20.437	0.101
719.900	-21.708	0.101
720.000	-24.770	0.101
720.100	-24.272	0.101
720.200	-31.984	0.101
720.300	-16.748	0.101
720.400	-20.443	0.101
720.500	-23.995	0.101
720.600	-20.096	0.101
720.700	-16.490	0.101
720.800	-24.039	0.101
720.900	-21.980	0.101
721.000	-26.181	0.101
721.100	-10.755	0.101
721.200	-31.250	0.101
721.300	-17.897	0.101
721.400	-26.075	0.101
721.500	-14.277	0.101
721.600	-23.337	0.101
721.700	-23.194	0.101
721.800	-28.151	0.101
721.900	-23.403	0.101
722.000	-19.287	0.101
722.100	-23.703	0.101
722.200	-25.708	0.101
722.300	-18.262	0.101
722.400	-20.040	0.101
722.500	-17.070	0.101
722.600	-21.843	0.101
722.700	-21.520	0.101
722.800	-15.932	0.101
722.900	-31.553	0.101
723.000	-22.290	0.101
723.100	-22.783	0.101
723.200	-28.144	0.101
723.300	-22.734	0.101
723.400	-15.709	0.101
723.500	-8.471	0.101
723.600	-13.955	0.101
723.700	-23.949	0.101
723.800	-20.178	0.101
723.900	-27.238	0.101
724.000	-15.014	0.101
724.100	-14.930	0.101
724.200	-19.900	0.101
724.300	-25.321	0.101
724.400	-29.524	0.101
724.500	-16.290	0.101
724.600	-19.527	0.101
724.700	-13.892	0.101
724.800	-26.082	0.101
724.900	-19.778	0.101
725.000	-23.656	0.101
725.100	-16.998	0.101
725.200	-15.535	0.101
725.300	-4.736	0.101
725.400	-30.709	0.101
725.500	-19.137	0.101
725.600	-32.693	0.101
725.700	-20.511	0.101
725.800	-19.419	0.101
725.900	-9.871	0.101
726.000	-21.884	0.101
726.100	-12.835	0.101
726.200	-26.021	0.101
726.300	-20.140	0.101
726.400	-27.574	0.101
726.500	-9.918	0.101
726.600	-16.654	0.101
726.700	-20.594	0.101
726.800	-21.814	0.101
726.900	-22.258	0.101
727.000	-18.126	0.101
727.100	-23.230	0.101
727.200	-18.317	0.101
727.300	-22.504	0.101
727.400	-24.814	0.101
727.500	-21.677	0.101
727.600	-19.974	0.101
727.700	-26.957	0.101
727.800	-17.721	0.101
727.900	-21.854	0.101
728.000	-20.316	0.101
728.100	-22.972	0.101
728.200	-15.848	0.101
728.300	-22.641	0.101
728.400	-25.120	0.101
728.500	-18.048	0.101
728.600	-23.045	0.101
728.700	-18.174	0.101
728.800	-30.283	0.101
728.900	-15.673	0.101
729.000	-11.387	0.101
729.100	-15.036	0.101
729.200	-22.293	0.101
729.300	-20.809	0.101
729.400	-13.692	0.101
729.500	-17.666	0.101
729.600	-25.623	0.101
729.700	-25.176	0.101
729.800	-15.640	0.101
729.900	-18.698	0.101
730.000	-22.443	0.101
730.100	-12.412	0.101
730.200	-30.487	0.101
730.300	-24.769	0.101
730.400	-21.990	0.101
730.500	-16.351	0.101
730.600	-30.799	0.101
730.700	-17.644	0.101
730.800	-15.054	0.101
730.900	-20.236	0.101
731.000	-18.021	0.101
731.100	-21.957	0.101
731.200	-18.340	0.101
731.300	-12.589	0.101
731.400	-32.279	0.101
731.500	-18.037	0.101
731.600	-23.821	0.101
731.700	-26.287	0.101
731.800	-26.173	0.101
731.900	-29.387	0.101
732.000	-19.823	0.101
732.100	-11.924	0.101
732.200	-4.346	0.101
732.300	-13.144	0.101
732.400	-22.371	0.101
732.500	-17.658	0.101
732.600	-30.120	0.101
732.700	-21.710	0.101
732.800	-15.252	0.101
732.900	-19.344	0.101
733.000	-30.067	0.101
733.100	-19.680	0.101
733.200	-26.970	0.101
733.300	-23.823	0.101
733.400	-17.734	0.101
733.500	-27.429	0.101
733.600	-13.085	0.101
733.700	-15.423	0.101
733.800	-27.005	0.101
733.900	-19.613	0.101
734.000	-15.121	0.101
734.100	-15.274	0.101
734.200	-13.157	0.101
734.300	-16.178	0.101
734.400	-15.931	0.101
734.500	-22.394	0.101
734.600	-19.319	0.101
734.700	-16.619	0.101
734.800	-18.285	0.101
734.900	-22.862	0.101
735.000	-29.533	0.101
735.100	-20.858	0.101
735.200	-15.762	0.101
735.300	-11.800	0.101
735.400	-26.174	0.101
735.500	-18.630	0.101
735.600	-27.831	0.101
735.700	-25.076	0.101
735.800	-30.057	0.101
735.900	-14.354	0.101
736.000	-26.711	0.101
736.100	-5.250	0.101
736.200	-23.685	0.101
736.300	-11.982	0.101
736.400	-25.352	0.101
736.500	-29.312	0.101
736.600	-15.783	0.101
736.700	-19.338	0.101
736.800	-21.779	0.101
736.900	-19.475	0.101
737.000	-12.285	0.101
737.100	-18.415	0.101
737.200	-16.227	0.101
737.300	-12.314	0.101
737.400	-26.317	0.101
737.500	-24.838	0.101
737.600	-25.748	0.101
737.700	-8.108	0.101
737.800	-14.648	0.101
737.900	-27.156	0.101
738.000	-25.869	0.101
738.100	-19.532	0.101
738.200	-23.215	0.101
738.300	-13.473	0.101
738.400	-12.866	0.101
738.500	-20.156	0.101
738.600	-13.202	0.101
738.700	-15.759	0.101
738.800	-22.741	0.101
738.900	-11.237	0.101
739.000	-25.485	0.101
739.100	-21.570	0.101
739.200	-29.110	0.101
739.300	-20.895	0.101
739.400	-12.770	0.101
739.500	-21.071	0.101
739.600	-20.700	0.101
739.700	-18.513	0.101
739.800	-14.092	0.101
739.900	-25.115	0.101
740.000	-26.861	0.101
740.100	-14.023	0.101
740.200	-20.501	0.101
740.300	-12.298	0.101
740.400	-18.204	0.101
740.500	-13.357	0.101
740.600	-19.420	0.101
740.700	-16.770	0.101
740.800	-11.998	0.101
740.900	-13.707	0.101
741.000	-23.329	0.101
741.100	-23.655	0.101
741.200	-7.086	0.101
741.300	-21.983	0.101
741.400	-22.430	0.101
741.500	-14.948	0.101
741.600	-14.175	0.101
741.700	-22.104	0.101
741.800	-19.524	0.101
741.900	-19.925	0.101
742.000	-20.360	0.101
742.100	-16.563	0.101
742.200	-17.253	0.101
742.300	-17.586	0.101
742.400	-28.528	0.101
742.500	-5.908	0.101
742.600	-25.826	0.101
742.700	-15.819	0.101
742.800	-20.019	0.101
742.900	-13.343	0.101
743.000	-19.356	0.101
743.100	-8.281	0.101
743.200	-24.012	0.101
743.300	-15.508	0.101
743.400	-16.146	0.101
743.500	-22.061	0.101
743.600	-24.080	0.101
743.700	-19.071	0.101
743.800	-8.272	0.101
743.900	-14.090	0.101
744.000	-17.798	0.101
744.100	-16.882	0.101
744.200	-15.867	0.101
744.300	-21.626	0.101
744.400	-14.208	0.101
744.500	-23.992	0.101
744.600	-15.811	0.101
744.700	-24.611	0.101
744.800	-9.783	0.101
744.900	-18.148	0.101
745.000	-26.380	0.101
745.100	-19.683	0.101
745.200	-18.079	0.101
745.300	-13.995	0.101
745.400	-21.267	0.101
745.500	-25.750	0.101
745.600	-12.674	0.101
745.700	-13.998	0.101
745.800	-16.071	0.101
745.900	-13.763	0.101
746.000	-16.587	0.101
746.100	-16.562	0.101
746.200	-26.762	0.101
746.300	-8.647	0.101
746.400	-9.154	0.101
746.500	-20.045	0.101
746.600	-16.498	0.101
746.700	-21.062	0.101
746.800	-13.722	0.101
746.900	-19.035	0.101
747.000	-18.016	0.101
747.100	-22.129	0.101
747.200	-16.828	0.101
747.300	-14.991	0.101
747.400	-11.089	0.101
747.500	-27.019	0.101
747.600	-14.749	0.101
747.700	-21.749	0.101
747.800	-13.572	0.101
747.900	-14.760	0.101
748.000	-10.847	0.101
748.100	-23.791	0.101
748.200	-14.311	0.101
748.300	-21.067	0.101
748.400	-19.243	0.101
748.500	-16.589	0.101
748.600	-8.480	0.101
748.700	-21.151	0.101
748.800	-19.400	0.101
748.900	-14.540	0.101
749.000	-12.314	0.101
749.100	-22.406	0.101
749.200	-14.879	0.101
749.300	-24.743	0.101
749.400	-14.706	0.101
749.500	-22.645	0.101
749.600	-13.909	0.101
749.700	-20.231	0.101
749.800	-9.591	0.101
749.900	-19.548	0.101
750.000	-19.098	0.101
750.100	-8.267	0.101
750.200	-18.579	0.101
750.300	-12.089	0.101
750.400	-11.228	0.101
750.500	-23.098	0.101
750.600	-17.971	0.101
750.700	-7.597	0.101
750.800	-15.615	0.101
750.900	-15.176	0.101
751.000	-10.730	0.101
751.100	-17.052	0.101
751.200	-17.766	0.101
751.300	-8.477	0.101
751.400	-18.721	0.101
751.500	-21.879	0.101
751.600	-7.694	0.101
751.700	-27.510	0.101
751.800	-13.319	0.101
751.900	-11.798	0.101
752.000	-14.918	0.101
752.100	-18.448	0.101
752.200	-19.209	0.101
752.300	-11.283	0.101
752.400	-17.725	0.101
752.500	-23.105	0.101
752.600	-11.113	0.101
752.700	-12.967	0.101
752.800	-17.470	0.101
752.900	-17.296	0.101
753.000	-21.431	0.101
753.100	-23.182	0.101
753.200	-18.513	0.101
753.300	-15.827	0.101
753.400	-17.917	0.101
753.500	-21.606	0.101
753.600	-9.062	0.101
753.700	-21.944	0.101
753.800	-15.945	0.101
753.900	-15.796	0.101
754.000	-16.179	0.101
754.100	-15.548	0.101
754.200	-13.148	0.101
754.300	-23.047	0.101
754.400	-15.011	0.101
754.500	-18.141	0.101
754.600	-9.038	0.101
754.700	-10.190	0.101
754.800	-15.289	0.101
754.900	-23.929	0.101
755.000	-18.419	0.101
755.100	-18.939	0.101
755.200	-17.420	0.101
755.300	-18.521	0.101
755.400	-21.780	0.101
755.500	-23.722	0.101
755.600	-15.840	0.101
755.700	-20.259	0.101
755.800	-12.944	0.101
755.900	-18.977	0.101
756.000	-19.614	0.101
756.100	-9.336	0.101
756.200	-9.499	0.101
756.300	-12.524	0.101
756.400	-30.401	0.101
756.500	-23.331	0.101
756.600	-26.794	0.101
756.700	-17.782	0.101
756.800	-14.698	0.101
756.900	-15.423	0.101
757.000	-13.485	0.101
757.100	-13.801	0.101
757.200	-10.630	0.101
757.300	-19.076	0.101
757.400	-18.475	0.101
757.500	-20.880	0.101
757.600	-3.829	0.101
757.700	-16.783	0.101
757.800	-15.456	0.101
757.900	-21.655	0.101
758.000	-7.709	0.101
758.100	-8.942	0.101
758.200	-18.811	0.101
758.300	-14.089	0.101
758.400	-4.933	0.101
758.500	-19.622	0.101
758.600	-9.239	0.101
758.700	-23.816	0.101
758.800	-14.771	0.101
758.900	-15.709	0.101
759.000	-13.759	0.101
759.100	-8.778	0.101
759.200	-18.203	0.101
759.300	-17.737	0.101
759.400	-26.019	0.101
759.500	-13.839	0.101
759.600	-16.780	0.101
759.700	-21.478	0.101
759.800	-16.114	0.101
759.900	-9.427	0.101
760.000	-4.845	0.101
760.100	-22.836	0.101
760.200	1.843	0.101
760.300	-11.586	0.101
760.400	-23.585	0.101
760.500	-23.436	0.101
760.600	-13.521	0.101
760.700	-13.305	0.101
760.800	-14.109	0.101
760.900	-23.098	0.101
761.000	-11.636	0.101
761.100	-23.819	0.101
761.200	-9.833	0.101
761.300	-15.116	0.101
761.400	-12.648	0.101
761.500	-18.519	0.101
761.600	-16.771	0.101
761.700	-14.601	0.101
761.800	-13.397	0.101
761.900	-15.296	0.101
762.000	-11.854	0.101
762.100	-7.896	0.101
762.200	-17.356	0.101
762.300	-15.164	0.101
762.400	-23.082	0.101
762.500	-19.879	0.101
762.600	-13.298	0.101
762.700	-20.892	0.101
762.800	-8.234	0.101
762.900	-31.372	0.101
763.000	0.591	0.101
763.100	-7.092	0.101
763.200	-9.873	0.101
763.300	-15.284	0.101
763.400	-11.075	0.101
763.500	-9.508	0.101
763.600	-24.105	0.101
763.700	-18.256	0.101
763.800	-13.999	0.101
763.900	-18.284	0.101
764.000	-14.193	0.101
764.100	-29.980	0.101
764.200	-19.670	0.101
764.300	-5.944	0.101
764.400	-13.366	0.101
764.500	-14.212	0.101
764.600	-4.684	0.101
764.700	-16.838	0.101
764.800	-16.348	0.101
764.900	-12.995	0.101
765.000	-10.319	0.101
765.100	-13.705	0.101
765.200	-14.032	0.101
765.300	-21.969	0.101
765.400	-13.758	0.101
765.500	-19.205	0.101
765.600	-11.397	0.101
765.700	-7.026	0.101
765.800	-13.899	0.101
765.900	-27.053	0.101
766.000	-15.968	0.101
766.100	-10.439	0.101
766.200	-15.866	0.101
766.300	-21.899	0.101
766.400	-7.666	0.101
766.500	-17.474	0.101
766.600	-8.974	0.101
766.700	-11.202	0.101
766.800	-11.059	0.101
766.900	-14.839	0.101
767.000	-14.964	0.101
767.100	-14.548	0.101
767.200	-14.798	0.101
767.300	-22.221	0.101
767.400	-22.005	0.101
767.500	-7.460	0.101
767.600	-9.235	0.101
767.700	-20.088	0.101
767.800	-9.701	0.101
767.900	-18.241	0.101
768.000	-17.194	0.101
768.100	-8.406	0.101
768.200	-16.980	0.101
768.300	-18.344	0.101
768.400	-17.093	0.101
768.500	-25.344	0.101
768.600	-17.656	0.101
768.700	-19.181	0.101
768.800	7.829	0.101
768.900	-11.534	0.101
769.000	-15.255	0.101
769.100	-17.771	0.101
769.200	-13.200	0.101
769.300	-16.836	0.101
769.400	-21.793	0.101
769.500	-11.826	0.101
769.600	-14.030	0.101
769.700	-15.150	0.101
769.800	-15.508	0.101
769.900	-18.769	0.101
770.000	-16.818	0.101
770.100	-10.887	0.101
770.200	-15.982	0.101
770.300	-13.278	0.101
770.400	-18.663	0.101
770.500	-19.104	0.101
770.600	-11.527	0.101
770.700	-17.536	0.101
770.800	-14.375	0.101
770.900	-26.771	0.101
771.000	-21.971	0.101
771.100	-13.791	0.101
771.200	-11.760	0.101
771.300	-12.546	0.101
771.400	-5.227	0.101
771.500	-2.268	0.101
771.600	-17.915	0.101
771.700	-17.535	0.101
771.800	-16.279	0.101
771.900	-8.130	0.101
772.000	-18.502	0.101
772.100	-15.947	0.101
772.200	-16.537	0.101
772.300	-5.891	0.101
772.400	-9.955	0.101
772.500	-17.378	0.101
772.600	-19.109	0.101
772.700	-12.427	0.101
772.800	-2.718	0.101
772.900	-11.583	0.101
773.000	-16.151	0.101
773.100	-20.395	0.101
773.200	-14.600	0.101
773.300	-6.669	0.101
773.400	-15.813	0.101
773.500	-1.917	0.101
773.600	-7.414	0.101
773.700	-10.255	0.101
773.800	-10.353	0.101
773.900	-23.814	0.101
774.000	-15.666	0.101
774.100	-21.425	0.101
774.200	-20.697	0.101
774.300	-10.366	0.101
774.400	-8.054	0.101
774.500	-12.267	0.101
774.600	-21.307	0.101
774.700	-23.084	0.101
774.800	-12.382	0.101
774.900	-0.419	0.101
775.000	-1.345	0.101
775.100	-3.721	0.101
775.200	-28.860	0.101
775.300	-21.199	0.101
775.400	-17.326	0.101
775.500	-10.165	0.101
775.600	-10.024	0.101
775.700	-8.522	0.101
775.800	-7.490	0.101
775.900	-8.299	0.101
776.000	-9.001	0.101
776.100	-15.530	0.101
776.200	-23.691	0.101
776.300	-8.580	0.101
776.400	-14.569	0.101
776.500	-14.162	0.101
776.600	-12.587	0.101
776.700	-11.570	0.101
776.800	-0.893	0.101
776.900	-7.840	0.101
777.000	-25.330	0.101
777.100	-2.830	0.101
777.200	-31.376	0.101
777.300	-20.975	0.101
777.400	-21.668	0.101
777.500	-4.688	0.101
777.600	-13.123	0.101
777.700	-18.716	0.101
777.800	-15.699	0.101
777.900	-12.073	0.101
778.000	-11.350	0.101
778.100	-7.429	0.101
778.200	-20.591	0.101
778.300	-11.522	0.101
778.400	-11.324	0.101
778.500	-16.747	0.101
778.600	-19.354	0.101
778.700	-14.071	0.101
778.800	-26.658	0.101
778.900	-15.073	0.101
779.000	-13.750	0.101
779.100	-10.727	0.101
779.200	-16.671	0.101
779.300	-17.266	0.101
779.400	-11.405	0.101
779.500	-7.879	0.101
779.600	-20.928	0.101
779.700	-13.401	0.101
779.800	-18.388	0.101
779.900	-13.635	0.101
780.000	-13.745	0.101
780.100	-2.303	0.101
780.200	-18.940	0.101
780.300	-17.548	0.101
780.400	-15.544	0.101
780.500	-14.479	0.101
780.600	-9.816	0.101
780.700	-7.684	0.101
780.800	-11.306	0.101
780.900	-9.581	0.101
781.000	-6.695	0.101
781.100	14.436	0.101
781.200	8.669	0.101
781.300	1.995	0.101
781.400	1.201	0.101
781.500	7.135	0.101
781.600	17.822	0.101
781.700	11.619	0.101
781.800	12.043	0.101
781.900	15.521	0.101
782.000	15.458	0.101
782.100	5.690	0.101
782.200	18.723	0.101
782.300	11.941	0.101
782.400	9.831	0.101
782.500	24.620	0.101
782.600	27.130	0.101
782.700	17.544	0.101
782.800	20.659	0.101
782.900	10.317	0.101
783.000	18.613	0.101
783.100	28.041	0.101
783.200	15.805	0.101
783.300	32.774	0.101
783.400	13.789	0.101
783.500	22.989	0.101
783.600	22.151	0.101
783.700	30.069	0.101
783.800	20.918	0.101
783.900	27.344	0.101
784.000	19.411	0.101
784.100	31.651	0.101
784.200	27.456	0.101
784.300	21.799	0.101
784.400	28.132	0.101
784.500	16.596	0.101
784.600	20.653	0.101
784.700	24.061	0.101
784.800	17.459	0.101
784.900	33.857	0.101
785.000	28.664	0.101
785.100	16.484	0.101
785.200	23.344	0.101
785.300	19.518	0.101
785.400	20.510	0.101
785.500	22.972	0.101
785.600	13.674	0.101
785.700	22.918	0.101
785.800	9.030	0.101
785.900	21.714	0.101
786.000	20.067	0.101
786.100	21.643	0.101
786.200	24.112	0.101
786.300	13.689	0.101
786.400	9.373	0.101
786.500	17.931	0.101
786.600	16.220	0.101
786.700	16.964	0.101
786.800	13.797	0.101
786.900	19.108	0.101
787.000	19.621	0.101
787.100	18.564	0.101
787.200	16.802	0.101
787.300	1.831	0.101
787.400	13.169	0.101
787.500	19.979	0.101
787.600	16.475	0.101
787.700	11.363	0.101
787.800	19.250	0.101
787.900	15.028	0.101
788.000	14.677	0.101
788.100	5.630	0.101
788.200	13.209	0.101
788.300	28.751	0.101
788.400	11.117	0.101
788.500	18.487	0.101
788.600	8.745	0.101
788.700	18.785	0.101
788.800	22.011	0.101
788.900	20.938	0.101
789.000	5.788	0.101
789.100	13.248	0.101
789.200	-0.246	0.101
789.300	13.204	0.101
789.400	15.182	0.101
789.500	21.681	0.101
789.600	11.514	0.101
789.700	25.367	0.101
789.800	12.939	0.101
789.900	17.721	0.101
790.000	10.292	0.101
790.100	10.857	0.101
790.200	11.090	0.101
790.300	21.249	0.101
790.400	6.954	0.101
790.500	21.380	0.101
790.600	11.502	0.101
790.700	15.989	0.101
790.800	16.865	0.101
790.900	10.743	0.101
791.000	14.338	0.101
791.100	17.440	0.101
791.200	21.281	0.101
791.300	22.031	0.101
791.400	11.781	0.101
791.500	21.181	0.101
791.600	19.112	0.101
791.700	19.846	0.101
791.800	24.320	0.101
791.900	9.715	0.101
792.000	11.336	0.101
792.100	37.749	0.101
792.200	20.925	0.101
792.300	21.703	0.101
792.400	21.497	0.101
792.500	24.954	0.101
792.600	14.205	0.101
792.700	22.844	0.101
792.800	20.668	0.101
792.900	20.004	0.101
793.000	12.687	0.101
793.100	19.849	0.101
793.200	15.999	0.101
793.300	24.878	0.101
793.400	7.910	0.101
793.500	27.863	0.101
793.600	17.537	0.101
793.700	20.521	0.101
793.800	12.663	0.101
793.900	22.465	0.101
794.000	14.727	0.101
794.100	11.258	0.101
794.200	19.337	0.101
794.300	29.511	0.101
794.400	10.691	0.101
794.500	22.972	0.101
794.600	16.420	0.101
794.700	14.612	0.101
794.800	21.751	0.101
794.900	32.209	0.101
795.000	19.166	0.101
795.100	27.983	0.101
795.200	22.577	0.101
795.300	24.145	0.101
795.400	17.631	0.101
795.500	23.801	0.101
795.600	32.591	0.101
795.700	34.897	0.101
795.800	21.614	0.101
795.900	22.289	0.101
796.000	21.327	0.101
796.100	20.425	0.101
796.200	21.813	0.101
796.300	24.276	0.101
796.400	22.986	0.101
796.500	23.212	0.101
796.600	22.693	0.101
796.700	36.400	0.101
796.800	19.496	0.101
796.900	20.503	0.101
797.000	25.395	0.101
797.100	27.179	0.101
797.200	26.987	0.101
797.300	28.610	0.101
797.400	14.890	0.101
797.500	26.055	0.101
797.600	32.489	0.101
797.700	26.266	0.101
797.800	26.583	0.101
797.900	28.040	0.101
798.000	28.876	0.101
798.100	32.394	0.101
798.200	29.519	0.101
798.300	27.136	0.101
798.400	27.626	0.101
798.500	23.258	0.101
798.600	22.478	0.101
798.700	29.035	0.101
798.800	23.338	0.101
798.900	32.253	0.101
799.000	27.996	0.101
799.100	37.336	0.101
799.200	28.118	0.101
799.300	32.011	0.101
799.400	35.004	0.101
799.500	18.802	0.101
799.600	30.225	0.101
799.700	19.595	0.101
799.800	35.955	0.101
799.900	29.556	0.101
800.000	35.435	0.101
