time /s	I /nA	E /V
0.100	-9.040	0.101
0.200	-4.119	0.101
0.300	-5.809	0.101
0.400	-7.187	0.101
0.500	-7.051	0.101
0.600	-0.808	0.101
0.700	2.488	0.101
0.800	1.370	0.101
0.900	-17.543	0.101
1.000	-1.736	0.101
1.100	-1.437	0.101
1.200	-8.957	0.101
1.300	-6.889	0.101
1.400	1.704	0.101
1.500	3.408	0.101
1.600	-6.572	0.101
1.700	-8.464	0.101
1.800	-3.866	0.101
1.900	-1.567	0.101
2.000	-4.853	0.101
2.100	-4.809	0.101
2.200	-5.480	0.101
2.300	5.844	0.101
2.400	4.287	0.101
2.500	3.122	0.101
2.600	-4.758	0.101
2.700	10.012	0.101
2.800	-7.011	0.101
2.900	-2.172	0.101
3.000	-1.840	0.101
3.100	-1.238	0.101
3.200	-12.859	0.101
3.300	0.210	0.101
3.400	-1.142	0.101
3.500	11.437	0.101
3.600	9.392	0.101
3.700	-7.675	0.101
3.800	-4.684	0.101
3.900	-7.696	0.101
4.000	-1.018	0.101
4.100	7.727	0.101
4.200	-2.141	0.101
4.300	0.044	0.101
4.400	-12.224	0.101
4.500	-8.197	0.101
4.600	-2.452	0.101
4.700	2.835	0.101
4.800	3.182	0.101
4.900	4.722	0.101
5.000	3.201	0.101
5.100	2.934	0.101
5.200	-3.960	0.101
5.300	-8.920	0.101
5.400	-4.981	0.101
5.500	3.604	0.101
5.600	-2.598	0.101
5.700	-10.492	0.101
5.800	-6.319	0.101
5.900	-4.957	0.101
6.000	-4.598	0.101
6.100	-2.822	0.101
6.200	8.089	0.101
6.300	-0.887	0.101
6.400	-2.041	0.101
6.500	4.922	0.101
6.600	2.503	0.101
6.700	-6.840	0.101
6.800	-7.411	0.101
6.900	7.002	0.101
7.000	-3.116	0.101
7.100	2.901	0.101
7.200	-5.584	0.101
7.300	-7.204	0.101
7.400	4.345	0.101
7.500	-0.108	0.101
7.600	-0.236	0.101
7.700	0.109	0.101
7.800	-9.528	0.101
7.900	6.440	0.101
8.000	-9.067	0.101
8.100	-4.452	0.101
8.200	10.967	0.101
8.300	2.131	0.101
8.400	-1.347	0.101
8.500	2.819	0.101
8.600	-13.546	0.101
8.700	-3.550	0.101
8.800	-3.040	0.101
8.900	-10.470	0.101
9.000	-4.545	0.101
9.100	-4.945	0.101
9.200	-3.576	0.101
9.300	-5.464	0.101
9.400	1.442	0.101
9.500	-0.078	0.101
9.600	1.404	0.101
9.700	-8.817	0.101
9.800	2.653	0.101
9.900	-2.059	0.101
10.000	1.017	0.101
10.100	-5.718	0.101
10.200	12.514	0.101
10.300	2.010	0.101
10.400	4.518	0.101
10.500	-6.091	0.101
10.600	-9.639	0.101
10.700	-5.592	0.101
10.800	-4.877	0.101
10.900	-9.866	0.101
11.000	-5.918	0.101
11.100	5.696	0.101
11.200	-1.351	0.101
11.300	-3.562	0.101
11.400	-3.903	0.101
11.500	-3.132	0.101
11.600	-3.241	0.101
11.700	7.550	0.101
11.800	-6.764	0.101
11.900	-4.268	0.101
12.000	0.234	0.101
12.100	-4.373	0.101
12.200	-5.333	0.101
12.300	-1.010	0.101
12.400	0.994	0.101
12.500	1.758	0.101
12.600	2.625	0.101
12.700	6.183	0.101
12.800	-10.953	0.101
12.900	9.222	0.101
13.000	-6.867	0.101
13.100	13.598	0.101
13.200	2.586	0.101
13.300	-1.712	0.101
13.400	1.833	0.101
13.500	-1.836	0.101
13.600	-8.745	0.101
13.700	-0.817	0.101
13.800	-5.814	0.101
13.900	-8.135	0.101
14.000	-4.734	0.101
14.100	2.639	0.101
14.200	-4.802	0.101
14.300	-1.286	0.101
14.400	1.596	0.101
14.500	-2.805	0.101
14.600	-2.223	0.101
14.700	-3.889	0.101
14.800	-7.805	0.101
14.900	-8.118	0.101
15.000	4.933	0.101
15.100	-7.457	0.101
15.200	0.599	0.101
15.300	0.704	0.101
15.400	-6.286	0.101
15.500	0.370	0.101
15.600	-11.505	0.101
15.700	-2.038	0.101
15.800	-1.618	0.101
15.900	-3.562	0.101
16.000	-4.746	0.101
16.100	3.861	0.101
16.200	5.472	0.101
16.300	3.403	0.101
16.400	-7.143	0.101
16.500	-4.879	0.101
16.600	-4.570	0.101
16.700	-7.504	0.101
16.800	-4.569	0.101
16.900	3.952	0.101
17.000	-5.067	0.101
17.100	-1.154	0.101
17.200	8.362	0.101
17.300	10.876	0.101
17.400	8.248	0.101
17.500	-1.637	0.101
17.600	-9.841	0.101
17.700	-5.402	0.101
17.800	-0.023	0.101
17.900	-0.292	0.101
18.000	0.363	0.101
18.100	2.867	0.101
18.200	5.645	0.101
18.300	15.619	0.101
18.400	-9.806	0.101
18.500	3.106	0.101
18.600	-4.093	0.101
18.700	-4.300	0.101
18.800	-12.313	0.101
18.900	6.328	0.101
19.000	0.158	0.101
19.100	-1.482	0.101
19.200	-2.290	0.101
19.300	3.751	0.101
19.400	-4.469	0.101
19.500	-4.866	0.101
19.600	-0.726	0.101
19.700	-2.996	0.101
19.800	-0.837	0.101
19.900	-4.222	0.101
20.000	2.534	0.101
20.100	-0.792	0.101
20.200	-4.797	0.101
20.300	-7.247	0.101
20.400	-1.695	0.101
20.500	-2.383	0.101
20.600	-1.948	0.101
20.700	1.292	0.101
20.800	-1.647	0.101
20.900	-2.437	0.101
21.000	-8.583	0.101
21.100	-0.498	0.101
21.200	2.595	0.101
21.300	-5.458	0.101
21.400	-1.164	0.101
21.500	0.367	0.101
21.600	8.010	0.101
21.700	-4.125	0.101
21.800	-5.484	0.101
21.900	-12.355	0.101
22.000	-0.813	0.101
22.100	1.396	0.101
22.200	-6.162	0.101
22.300	-7.822	0.101
22.400	-5.243	0.101
22.500	-1.413	0.101
22.600	-1.177	0.101
22.700	7.042	0.101
22.800	0.632	0.101
22.900	-1.721	0.101
23.000	-4.850	0.101
23.100	1.042	0.101
23.200	-4.244	0.101
23.300	5.999	0.101
23.400	-5.644	0.101
23.500	-1.486	0.101
23.600	-7.572	0.101
23.700	11.768	0.101
23.800	2.381	0.101
23.900	-2.205	0.101
24.000	-9.246	0.101
24.100	5.401	0.101
24.200	-1.797	0.101
24.300	-1.401	0.101
24.400	-2.554	0.101
24.500	-3.865	0.101
24.600	-11.596	0.101
24.700	5.450	0.101
24.800	2.118	0.101
24.900	-5.079	0.101
25.000	-4.701	0.101
25.100	6.623	0.101
25.200	-5.632	0.101
25.300	-6.927	0.101
25.400	-4.207	0.101
25.500	-2.673	0.101
25.600	-7.948	0.101
25.700	2.772	0.101
25.800	18.860	0.101
25.900	7.981	0.101
26.000	-8.134	0.101
26.100	-9.387	0.101
26.200	-14.038	0.101
26.300	6.873	0.101
26.400	2.577	0.101
26.500	-3.840	0.101
26.600	-0.924	0.101
26.700	-5.862	0.101
26.800	-11.311	0.101
26.900	-7.709	0.101
27.000	-7.217	0.101
27.100	2.012	0.101
27.200	0.255	0.101
27.300	-2.509	0.101
27.400	-6.269	0.101
27.500	4.472	0.101
27.600	-5.448	0.101
27.700	-6.428	0.101
27.800	-10.691	0.101
27.900	-1.591	0.101
28.000	-3.922	0.101
28.100	2.996	0.101
28.200	2.470	0.101
28.300	-1.155	0.101
28.400	-5.436	0.101
28.500	-1.567	0.101
28.600	-14.531	0.101
28.700	-4.211	0.101
28.800	-0.951	0.101
28.900	-6.090	0.101
29.000	-1.936	0.101
29.100	6.990	0.101
29.200	0.493	0.101
29.300	3.467	0.101
29.400	-6.753	0.101
29.500	-4.293	0.101
29.600	5.141	0.101
29.700	-5.292	0.101
29.800	4.276	0.101
29.900	-1.956	0.101
30.000	-1.418	0.101
30.100	-11.063	0.101
30.200	8.074	0.101
30.300	5.374	0.101
30.400	-4.928	0.101
30.500	3.580	0.101
30.600	5.546	0.101
30.700	7.979	0.101
30.800	3.758	0.101
30.900	6.771	0.101
31.000	12.577	0.101
31.100	9.261	0.101
31.200	4.184	0.101
31.300	17.322	0.101
31.400	9.501	0.101
31.500	20.927	0.101
31.600	12.698	0.101
31.700	18.922	0.101
31.800	14.876	0.101
31.900	10.220	0.101
32.000	9.890	0.101
32.100	11.241	0.101
32.200	20.947	0.101
32.300	20.849	0.101
32.400	16.001	0.101
32.500	20.240	0.101
32.600	12.897	0.101
32.700	5.031	0.101
32.800	10.979	0.101
32.900	8.655	0.101
33.000	6.389	0.101
33.100	28.887	0.101
33.200	18.921	0.101
33.300	19.709	0.101
33.400	22.901	0.101
33.500	18.407	0.101
33.600	12.021	0.101
33.700	21.005	0.101
33.800	13.593	0.101
33.900	19.132	0.101
34.000	22.628	0.101
34.100	11.032	0.101
34.200	10.845	0.101
34.300	31.866	0.101
34.400	20.824	0.101
34.500	23.714	0.101
34.600	22.666	0.101
34.700	21.346	0.101
34.800	21.805	0.101
34.900	6.853	0.101
35.000	29.650	0.101
35.100	34.339	0.101
35.200	20.325	0.101
35.300	18.644	0.101
35.400	24.792	0.101
35.500	29.359	0.101
35.600	24.047	0.101
35.700	25.884	0.101
35.800	23.712	0.101
35.900	25.050	0.101
36.000	24.003	0.101
36.100	28.107	0.101
36.200	16.111	0.101
36.300	30.879	0.101
36.400	28.526	0.101
36.500	23.656	0.101
36.600	27.333	0.101
36.700	33.399	0.101
36.800	30.709	0.101
36.900	26.092	0.101
37.000	28.325	0.101
37.100	27.397	0.101
37.200	21.839	0.101
37.300	33.720	0.101
37.400	21.963	0.101
37.500	37.533	0.101
37.600	26.151	0.101
37.700	36.416	0.101
37.800	27.728	0.101
37.900	31.781	0.101
38.000	14.126	0.101
38.100	21.403	0.101
38.200	30.246	0.101
38.300	25.598	0.101
38.400	26.927	0.101
38.500	30.157	0.101
38.600	28.983	0.101
38.700	23.286	0.101
38.800	22.022	0.101
38.900	33.029	0.101
39.000	36.799	0.101
39.100	36.810	0.101
39.200	26.190	0.101
39.300	29.910	0.101
39.400	42.135	0.101
39.500	22.518	0.101
39.600	35.905	0.101
39.700	34.262	0.101
39.800	35.357	0.101
39.900	31.486	0.101
40.000	24.576	0.101
40.100	28.867	0.101
40.200	28.617	0.101
40.300	25.629	0.101
40.400	30.066	0.101
40.500	27.429	0.101
40.600	27.758	0.101
40.700	34.506	0.101
40.800	29.287	0.101
40.900	30.009	0.101
41.000	32.579	0.101
41.100	25.347	0.101
41.200	28.576	0.101
41.300	32.752	0.101
41.400	30.542	0.101
41.500	35.574	0.101
41.600	29.829	0.101
41.700	34.707	0.101
41.800	30.247	0.101
41.900	31.395	0.101
42.000	25.034	0.101
42.100	19.286	0.101
42.200	32.700	0.101
42.300	30.596	0.101
42.400	28.807	0.101
42.500	25.910	0.101
42.600	22.042	0.101
42.700	36.851	0.101
42.800	27.210	0.101
42.900	19.254	0.101
43.000	17.749	0.101
43.100	32.428	0.101
43.200	25.840	0.101
43.300	21.591	0.101
43.400	28.588	0.101
43.500	30.736	0.101
43.600	36.411	0.101
43.700	32.518	0.101
43.800	25.306	0.101
43.900	20.607	0.101
44.000	17.980	0.101
44.100	29.716	0.101
44.200	19.267	0.101
44.300	37.485	0.101
44.400	24.904	0.101
44.500	17.533	0.101
44.600	25.728	0.101
44.700	27.118	0.101
44.800	22.684	0.101
44.900	29.059	0.101
45.000	22.490	0.101
45.100	18.362	0.101
45.200	19.924	0.101
45.300	18.905	0.101
45.400	23.164	0.101
45.500	37.239	0.101
45.600	19.215	0.101
45.700	24.409	0.101
45.800	26.422	0.101
45.900	18.727	0.101
46.000	17.011	0.101
46.100	21.477	0.101
46.200	25.650	0.101
46.300	12.620	0.101
46.400	22.759	0.101
46.500	15.860	0.101
46.600	31.093	0.101
46.700	28.625	0.101
46.800	7.696	0.101
46.900	21.465	0.101
47.000	23.266	0.101
47.100	6.171	0.101
47.200	24.491	0.101
47.300	23.190	0.101
47.400	21.087	0.101
47.500	13.708	0.101
47.600	22.636	0.101
47.700	24.287	0.101
47.800	24.928	0.101
47.900	12.618	0.101
48.000	18.896	0.101
48.100	27.726	0.101
48.200	22.503	0.101
48.300	9.366	0.101
48.400	13.675	0.101
48.500	27.064	0.101
48.600	23.898	0.101
48.700	27.230	0.101
48.800	14.945	0.101
48.900	11.487	0.101
49.000	20.289	0.101
49.100	21.726	0.101
49.200	23.715	0.101
49.300	25.843	0.101
49.400	25.378	0.101
49.500	13.803	0.101
49.600	18.280	0.101
49.700	20.340	0.101
49.800	22.881	0.101
49.900	21.152	0.101
50.000	17.421	0.101
50.100	15.186	0.101
50.200	23.469	0.101
50.300	-1.728	0.101
50.400	14.482	0.101
50.500	20.378	0.101
50.600	17.404	0.101
50.700	16.080	0.101
50.800	23.616	0.101
50.900	20.056	0.101
51.000	27.396	0.101
51.100	24.433	0.101
51.200	13.510	0.101
51.300	7.184	0.101
51.400	11.046	0.101
51.500	16.774	0.101
51.600	17.851	0.101
51.700	19.724	0.101
51.800	34.724	0.101
51.900	11.220	0.101
52.000	16.742	0.101
52.100	15.221	0.101
52.200	23.088	0.101
52.300	11.293	0.101
52.400	18.024	0.101
52.500	16.945	0.101
52.600	11.200	0.101
52.700	16.754	0.101
52.800	31.676	0.101
52.900	15.846	0.101
53.000	19.891	0.101
53.100	6.666	0.101
53.200	21.935	0.101
53.300	20.904	0.101
53.400	23.285	0.101
53.500	7.849	0.101
53.600	17.601	0.101
53.700	17.294	0.101
53.800	18.927	0.101
53.900	17.030	0.101
54.000	19.274	0.101
54.100	15.680	0.101
54.200	21.887	0.101
54.300	12.640	0.101
54.400	21.784	0.101
54.500	17.599	0.101
54.600	19.890	0.101
54.700	18.857	0.101
54.800	17.209	0.101
54.900	17.546	0.101
55.000	20.571	0.101
55.100	15.958	0.101
55.200	22.182	0.101
55.300	21.846	0.101
55.400	25.408	0.101
55.500	11.677	0.101
55.600	18.550	0.101
55.700	15.749	0.101
55.800	19.271	0.101
55.900	26.899	0.101
56.000	20.207	0.101
56.100	4.714	0.101
56.200	10.231	0.101
56.300	3.740	0.101
56.400	16.274	0.101
56.500	18.108	0.101
56.600	27.512	0.101
56.700	19.136	0.101
56.800	20.091	0.101
56.900	20.221	0.101
57.000	23.084	0.101
57.100	15.163	0.101
57.200	15.521	0.101
57.300	10.717	0.101
57.400	25.028	0.101
57.500	13.911	0.101
57.600	19.041	0.101
57.700	11.291	0.101
57.800	17.805	0.101
57.900	16.445	0.101
58.000	28.749	0.101
58.100	15.256	0.101
58.200	21.375	0.101
58.300	16.546	0.101
58.400	11.858	0.101
58.500	19.514	0.101
58.600	18.694	0.101
58.700	13.060	0.101
58.800	24.243	0.101
58.900	9.436	0.101
59.000	25.810	0.101
59.100	29.048	0.101
59.200	19.230	0.101
59.300	18.980	0.101
59.400	22.843	0.101
59.500	16.888	0.101
59.600	24.648	0.101
59.700	18.895	0.101
59.800	16.824	0.101
59.900	14.970	0.101
60.000	8.690	0.101
60.100	13.272	0.101
60.200	12.122	0.101
60.300	7.048	0.101
60.400	29.385	0.101
60.500	18.035	0.101
60.600	18.510	0.101
60.700	20.633	0.101
60.800	24.801	0.101
60.900	24.831	0.101
61.000	21.047	0.101
61.100	10.263	0.101
61.200	34.894	0.101
61.300	16.474	0.101
61.400	29.411	0.101
61.500	17.304	0.101
61.600	31.687	0.101
61.700	15.743	0.101
61.800	20.287	0.101
61.900	7.768	0.101
62.000	25.586	0.101
62.100	18.127	0.101
62.200	24.427	0.101
62.300	23.107	0.101
62.400	20.723	0.101
62.500	16.317	0.101
62.600	24.670	0.101
62.700	20.297	0.101
62.800	26.364	0.101
62.900	24.242	0.101
63.000	21.284	0.101
63.100	18.837	0.101
63.200	17.935	0.101
63.300	30.997	0.101
63.400	17.683	0.101
63.500	18.550	0.101
63.600	24.012	0.101
63.700	22.718	0.101
63.800	18.912	0.101
63.900	15.318	0.101
64.000	13.160	0.101
64.100	25.077	0.101
64.200	16.951	0.101
64.300	27.625	0.101
64.400	21.201	0.101
64.500	12.150	0.101
64.600	18.301	0.101
64.700	23.221	0.101
64.800	24.456	0.101
64.900	28.379	0.101
65.000	22.461	0.101
65.100	23.136	0.101
65.200	21.691	0.101
65.300	13.864	0.101
65.400	27.086	0.101
65.500	22.158	0.101
65.600	28.323	0.101
65.700	19.101	0.101
65.800	29.196	0.101
65.900	15.490	0.101
66.000	20.323	0.101
66.100	20.448	0.101
66.200	26.769	0.101
66.300	22.767	0.101
66.400	27.032	0.101
66.500	19.303	0.101
66.600	16.052	0.101
66.700	16.148	0.101
66.800	16.934	0.101
66.900	25.735	0.101
67.000	15.919	0.101
67.100	16.697	0.101
67.200	21.718	0.101
67.300	6.536	0.101
67.400	18.667	0.101
67.500	31.804	0.101
67.600	23.108	0.101
67.700	20.288	0.101
67.800	27.339	0.101
67.900	22.752	0.101
68.000	20.050	0.101
68.100	32.477	0.101
68.200	20.357	0.101
68.300	20.691	0.101
68.400	28.477	0.101
68.500	28.620	0.101
68.600	23.624	0.101
68.700	21.253	0.101
68.800	12.724	0.101
68.900	26.878	0.101
69.000	19.079	0.101
69.100	16.584	0.101
69.200	29.036	0.101
69.300	31.833	0.101
69.400	25.758	0.101
69.500	7.399	0.101
69.600	23.977	0.101
69.700	23.281	0.101
69.800	23.187	0.101
69.900	15.734	0.101
70.000	8.819	0.101
70.100	25.239	0.101
70.200	13.287	0.101
70.300	25.159	0.101
70.400	16.328	0.101
70.500	28.413	0.101
70.600	30.460	0.101
70.700	21.152	0.101
70.800	18.682	0.101
70.900	21.491	0.101
71.000	29.134	0.101
71.100	12.983	0.101
71.200	22.573	0.101
71.300	32.642	0.101
71.400	20.201	0.101
71.500	17.631	0.101
71.600	20.367	0.101
71.700	24.145	0.101
71.800	23.500	0.101
71.900	24.477	0.101
72.000	20.978	0.101
72.100	18.324	0.101
72.200	12.995	0.101
72.300	20.009	0.101
72.400	30.748	0.101
72.500	17.843	0.101
72.600	19.352	0.101
72.700	22.059	0.101
72.800	36.857	0.101
72.900	19.965	0.101
73.000	23.902	0.101
73.100	22.296	0.101
73.200	18.617	0.101
73.300	24.672	0.101
73.400	22.430	0.101
73.500	34.227	0.101
73.600	16.789	0.101
73.700	23.024	0.101
73.800	15.758	0.101
73.900	17.017	0.101
74.000	28.531	0.101
74.100	23.094	0.101
74.200	26.240	0.101
74.300	23.966	0.101
74.400	17.072	0.101
74.500	23.896	0.101
74.600	19.432	0.101
74.700	23.495	0.101
74.800	30.704	0.101
74.900	18.921	0.101
75.000	23.137	0.101
75.100	22.693	0.101
75.200	27.383	0.101
75.300	26.894	0.101
75.400	31.514	0.101
75.500	30.326	0.101
75.600	21.126	0.101
75.700	20.117	0.101
75.800	27.464	0.101
75.900	26.198	0.101
76.000	17.753	0.101
76.100	22.738	0.101
76.200	23.019	0.101
76.300	32.603	0.101
76.400	26.255	0.101
76.500	28.593	0.101
76.600	20.532	0.101
76.700	23.540	0.101
76.800	20.999	0.101
76.900	31.389	0.101
77.000	26.326	0.101
77.100	23.281	0.101
77.200	22.672	0.101
77.300	27.886	0.101
77.400	22.339	0.101
77.500	16.762	0.101
77.600	25.121	0.101
77.700	26.615	0.101
77.800	21.685	0.101
77.900	28.351	0.101
78.000	23.538	0.101
78.100	33.658	0.101
78.200	27.425	0.101
78.300	22.007	0.101
78.400	17.334	0.101
78.500	14.237	0.101
78.600	20.668	0.101
78.700	26.176	0.101
78.800	22.476	0.101
78.900	22.383	0.101
79.000	30.150	0.101
79.100	31.072	0.101
79.200	29.393	0.101
79.300	15.190	0.101
79.400	21.934	0.101
79.500	31.523	0.101
79.600	35.525	0.101
79.700	33.972	0.101
79.800	18.390	0.101
79.900	14.436	0.101
80.000	25.966	0.101
80.100	26.844	0.101
80.200	21.078	0.101
80.300	32.077	0.101
80.400	27.390	0.101
80.500	14.510	0.101
80.600	10.473	0.101
80.700	29.706	0.101
80.800	18.577	0.101
80.900	17.329	0.101
81.000	36.746	0.101
81.100	32.223	0.101
81.200	26.762	0.101
81.300	26.058	0.101
81.400	20.746	0.101
81.500	20.482	0.101
81.600	25.123	0.101
81.700	29.645	0.101
81.800	27.442	0.101
81.900	34.611	0.101
82.000	25.634	0.101
82.100	18.628	0.101
82.200	24.313	0.101
82.300	30.176	0.101
82.400	19.052	0.101
82.500	18.381	0.101
82.600	26.417	0.101
82.700	25.254	0.101
82.800	31.391	0.101
82.900	36.864	0.101
83.000	26.771	0.101
83.100	22.214	0.101
83.200	16.521	0.101
83.300	25.018	0.101
83.400	13.078	0.101
83.500	29.477	0.101
83.600	19.559	0.101
83.700	26.144	0.101
83.800	15.033	0.101
83.900	25.164	0.101
84.000	12.591	0.101
84.100	37.901	0.101
84.200	23.440	0.101
84.300	29.881	0.101
84.400	29.092	0.101
84.500	22.455	0.101
84.600	29.682	0.101
84.700	30.466	0.101
84.800	15.797	0.101
84.900	34.092	0.101
85.000	25.000	0.101
85.100	25.664	0.101
85.200	26.552	0.101
85.300	24.141	0.101
85.400	19.926	0.101
85.500	18.715	0.101
85.600	23.053	0.101
85.700	29.973	0.101
85.800	19.108	0.101
85.900	36.246	0.101
86.000	29.548	0.101
86.100	30.778	0.101
86.200	29.598	0.101
86.300	14.623	0.101
86.400	25.195	0.101
86.500	31.348	0.101
86.600	17.232	0.101
86.700	27.608	0.101
86.800	20.465	0.101
86.900	27.365	0.101
87.000	26.335	0.101
87.100	35.381	0.101
87.200	21.563	0.101
87.300	31.145	0.101
87.400	32.786	0.101
87.500	40.486	0.101
87.600	24.534	0.101
87.700	30.761	0.101
87.800	29.928	0.101
87.900	35.989	0.101
88.000	16.708	0.101
88.100	20.236	0.101
88.200	26.761	0.101
88.300	25.227	0.101
88.400	24.078	0.101
88.500	31.452	0.101
88.600	16.641	0.101
88.700	29.993	0.101
88.800	24.945	0.101
88.900	23.839	0.101
89.000	29.567	0.101
89.100	30.029	0.101
89.200	22.769	0.101
89.300	21.643	0.101
89.400	17.632	0.101
89.500	16.671	0.101
89.600	25.679	0.101
89.700	25.266	0.101
89.800	30.180	0.101
89.900	27.962	0.101
90.000	25.813	0.101
90.100	26.035	0.101
90.200	26.037	0.101
90.300	33.951	0.101
90.400	18.460	0.101
90.500	18.287	0.101
90.600	16.705	0.101
90.700	14.170	0.101
90.800	15.601	0.101
90.900	19.409	0.101
91.000	6.569	0.101
91.100	13.948	0.101
91.200	11.247	0.101
91.300	9.359	0.101
91.400	1.490	0.101
91.500	10.067	0.101
91.600	8.779	0.101
91.700	8.693	0.101
91.800	4.903	0.101
91.900	-7.729	0.101
92.000	-4.052	0.101
92.100	-3.245	0.101
92.200	2.931	0.101
92.300	4.192	0.101
92.400	-14.529	0.101
92.500	-11.293	0.101
92.600	0.243	0.101
92.700	-15.454	0.101
92.800	-16.341	0.101
92.900	-11.406	0.101
93.000	-2.004	0.101
93.100	-14.471	0.101
93.200	-27.571	0.101
93.300	-14.689	0.101
93.400	-24.906	0.101
93.500	-18.998	0.101
93.600	-11.558	0.101
93.700	-18.657	0.101
93.800	-12.238	0.101
93.900	-10.821	0.101
94.000	-5.054	0.101
94.100	-20.968	0.101
94.200	-22.499	0.101
94.300	-28.589	0.101
94.400	-22.963	0.101
94.500	-17.853	0.101
94.600	-7.836	0.101
94.700	-11.743	0.101
94.800	-30.705	0.101
94.900	-23.622	0.101
95.000	-18.502	0.101
95.100	-20.881	0.101
95.200	-22.805	0.101
95.300	-17.748	0.101
95.400	-22.484	0.101
95.500	-18.836	0.101
95.600	-22.295	0.101
95.700	-14.054	0.101
95.800	-16.293	0.101
95.900	-10.680	0.101
96.000	-25.360	0.101
96.100	-17.461	0.101
96.200	-18.244	0.101
96.300	-20.028	0.101
96.400	-12.938	0.101
96.500	-15.939	0.101
96.600	-18.073	0.101
96.700	-20.498	0.101
96.800	-14.785	0.101
96.900	-12.657	0.101
97.000	-8.526	0.101
97.100	-10.829	0.101
97.200	-15.073	0.101
97.300	-26.125	0.101
97.400	-10.460	0.101
97.500	-15.211	0.101
97.600	-17.414	0.101
97.700	-19.144	0.101
97.800	-20.247	0.101
97.900	-7.176	0.101
98.000	-9.768	0.101
98.100	-21.844	0.101
98.200	-8.678	0.101
98.300	-5.881	0.101
98.400	-9.144	0.101
98.500	-11.782	0.101
98.600	-18.843	0.101
98.700	-18.780	0.101
98.800	-8.240	0.101
98.900	-9.092	0.101
99.000	-10.304	0.101
99.100	-20.565	0.101
99.200	-9.860	0.101
99.300	-21.071	0.101
99.400	-21.152	0.101
99.500	-13.367	0.101
99.600	-8.524	0.101
99.700	-8.031	0.101
99.800	-13.534	0.101
99.900	-12.657	0.101
100.000	-15.555	0.101
100.100	-11.713	0.101
100.200	-15.075	0.101
100.300	-13.905	0.101
100.400	-16.056	0.101
100.500	-12.453	0.101
100.600	-20.756	0.101
100.700	-8.464	0.101
100.800	-7.645	0.101
100.900	-9.092	0.101
101.000	-8.446	0.101
101.100	-14.154	0.101
101.200	-17.508	0.101
101.300	-13.847	0.101
101.400	-10.931	0.101
101.500	-9.708	0.101
101.600	-2.751	0.101
101.700	-17.720	0.101
101.800	-3.771	0.101
101.900	-16.936	0.101
102.000	-10.119	0.101
102.100	-12.256	0.101
102.200	-6.547	0.101
102.300	-12.528	0.101
102.400	-18.853	0.101
102.500	-12.927	0.101
102.600	5.621	0.101
102.700	-11.215	0.101
102.800	1.975	0.101
102.900	-16.526	0.101
103.000	-14.296	0.101
103.100	-7.505	0.101
103.200	-13.557	0.101
103.300	-10.180	0.101
103.400	-2.069	0.101
103.500	-4.090	0.101
103.600	-16.866	0.101
103.700	-14.954	0.101
103.800	-8.402	0.101
103.900	-5.284	0.101
104.000	-7.040	0.101
104.100	-8.352	0.101
104.200	-20.923	0.101
104.300	-19.410	0.101
104.400	-20.869	0.101
104.500	-10.663	0.101
104.600	-3.159	0.101
104.700	-0.235	0.101
104.800	-0.307	0.101
104.900	-7.188	0.101
105.000	-8.956	0.101
105.100	-20.163	0.101
105.200	-8.706	0.101
105.300	-1.842	0.101
105.400	3.206	0.101
105.500	-7.403	0.101
105.600	-16.320	0.101
105.700	-14.226	0.101
105.800	-4.203	0.101
105.900	-14.790	0.101
106.000	-14.068	0.101
106.100	-8.322	0.101
106.200	-6.303	0.101
106.300	-6.919	0.101
106.400	-11.054	0.101
106.500	-9.600	0.101
106.600	-2.695	0.101
106.700	-12.742	0.101
106.800	-16.701	0.101
106.900	-12.206	0.101
107.000	-13.164	0.101
107.100	-10.777	0.101
107.200	-1.559	0.101
107.300	-5.299	0.101
107.400	6.115	0.101
107.500	-25.122	0.101
107.600	-3.797	0.101
107.700	0.316	0.101
107.800	-9.999	0.101
107.900	-21.999	0.101
108.000	-9.184	0.101
108.100	-16.672	0.101
108.200	-3.199	0.101
108.300	-16.664	0.101
108.400	-5.349	0.101
108.500	-7.749	0.101
108.600	-15.277	0.101
108.700	-10.373	0.101
108.800	-4.135	0.101
108.900	-12.616	0.101
109.000	-4.719	0.101
109.100	6.666	0.101
109.200	-5.680	0.101
109.300	-8.740	0.101
109.400	-21.875	0.101
109.500	-10.133	0.101
109.600	-10.120	0.101
109.700	-15.076	0.101
109.800	-8.528	0.101
109.900	0.635	0.101
110.000	-11.148	0.101
110.100	-11.618	0.101
110.200	-5.523	0.101
110.300	-4.751	0.101
110.400	2.598	0.101
110.500	-6.398	0.101
110.600	-15.351	0.101
110.700	-7.075	0.101
110.800	-6.869	0.101
110.900	-14.794	0.101
111.000	-5.468	0.101
111.100	-13.834	0.101
111.200	-12.750	0.101
111.300	-14.291	0.101
111.400	-5.891	0.101
111.500	-12.459	0.101
111.600	-13.049	0.101
111.700	-10.712	0.101
111.800	-10.484	0.101
111.900	-14.264	0.101
112.000	-4.445	0.101
112.100	-7.084	0.101
112.200	-13.190	0.101
112.300	-16.309	0.101
112.400	-17.625	0.101
112.500	-9.078	0.101
112.600	2.243	0.101
112.700	-13.070	0.101
112.800	-5.075	0.101
112.900	-7.039	0.101
113.000	-5.504	0.101
113.100	-13.543	0.101
113.200	-13.536	0.101
113.300	-14.346	0.101
113.400	-1.051	0.101
113.500	-13.113	0.101
113.600	-2.828	0.101
113.700	-6.522	0.101
113.800	-16.751	0.101
113.900	-4.345	0.101
114.000	1.360	0.101
114.100	-12.048	0.101
114.200	-5.606	0.101
114.300	-7.307	0.101
114.400	-12.733	0.101
114.500	-11.262	0.101
114.600	-5.266	0.101
114.700	-6.953	0.101
114.800	-8.836	0.101
114.900	-22.005	0.101
115.000	-7.373	0.101
115.100	-16.526	0.101
115.200	-1.518	0.101
115.300	-24.638	0.101
115.400	-6.008	0.101
115.500	-9.858	0.101
115.600	-8.937	0.101
115.700	-14.182	0.101
115.800	-3.282	0.101
115.900	-12.888	0.101
116.000	-8.633	0.101
116.100	-8.414	0.101
116.200	-19.195	0.101
116.300	-15.932	0.101
116.400	0.090	0.101
116.500	-9.078	0.101
116.600	-8.028	0.101
116.700	-17.641	0.101
116.800	-12.585	0.101
116.900	-9.157	0.101
117.000	-8.262	0.101
117.100	-12.732	0.101
117.200	-4.880	0.101
117.300	-6.612	0.101
117.400	-2.915	0.101
117.500	-6.150	0.101
117.600	-10.472	0.101
117.700	-18.879	0.101
117.800	-10.931	0.101
117.900	-10.837	0.101
118.000	-1.449	0.101
118.100	-11.492	0.101
118.200	-3.587	0.101
118.300	-7.330	0.101
118.400	-7.508	0.101
118.500	-13.972	0.101
118.600	-0.910	0.101
118.700	-12.095	0.101
118.800	-12.680	0.101
118.900	-8.045	0.101
119.000	-5.017	0.101
119.100	-11.401	0.101
119.200	-3.134	0.101
119.300	-11.480	0.101
119.400	-9.874	0.101
119.500	-15.626	0.101
119.600	-18.309	0.101
119.700	-6.109	0.101
119.800	-18.438	0.101
119.900	-6.481	0.101
120.000	0.180	0.101
120.100	-2.424	0.101
120.200	-14.000	0.101
120.300	-4.355	0.101
120.400	-11.323	0.101
120.500	-22.319	0.101
120.600	-10.061	0.101
120.700	-13.314	0.101
120.800	-2.845	0.101
120.900	-0.849	0.101
121.000	-2.871	0.101
121.100	-20.287	0.101
121.200	-4.249	0.101
121.300	2.034	0.101
121.400	-5.164	0.101
121.500	-4.528	0.101
121.600	-5.193	0.101
121.700	-17.189	0.101
121.800	-12.270	0.101
121.900	-4.326	0.101
122.000	-14.006	0.101
122.100	-8.383	0.101
122.200	-6.010	0.101
122.300	-12.790	0.101
122.400	-4.317	0.101
122.500	-24.664	0.101
122.600	-8.245	0.101
122.700	-15.650	0.101
122.800	-12.772	0.101
122.900	-15.665	0.101
123.000	-16.783	0.101
123.100	-12.758	0.101
123.200	-3.686	0.101
123.300	-16.493	0.101
123.400	-14.700	0.101
123.500	-13.546	0.101
123.600	-11.424	0.101
123.700	-12.503	0.101
123.800	-17.671	0.101
123.900	-6.612	0.101
124.000	0.468	0.101
124.100	4.098	0.101
124.200	-8.185	0.101
124.300	-14.029	0.101
124.400	-16.249	0.101
124.500	-6.782	0.101
124.600	-15.169	0.101
124.700	-18.782	0.101
124.800	-8.024	0.101
124.900	-9.535	0.101
125.000	-9.486	0.101
125.100	-15.644	0.101
125.200	-9.373	0.101
125.300	-22.923	0.101
125.400	-8.269	0.101
125.500	-8.011	0.101
125.600	-7.510	0.101
125.700	-18.941	0.101
125.800	-5.194	0.101
125.900	-13.829	0.101
126.000	-8.748	0.101
126.100	-10.647	0.101
126.200	-8.345	0.101
126.300	-14.817	0.101
126.400	-14.810	0.101
126.500	-5.212	0.101
126.600	-12.433	0.101
126.700	-21.132	0.101
126.800	-10.696	0.101
126.900	-7.849	0.101
127.000	-8.397	0.101
127.100	-10.705	0.101
127.200	-1.380	0.101
127.300	-24.751	0.101
127.400	-5.997	0.101
127.500	-2.482	0.101
127.600	-8.708	0.101
127.700	-5.885	0.101
127.800	-10.272	0.101
127.900	-16.558	0.101
128.000	-3.871	0.101
128.100	-3.417	0.101
128.200	-17.851	0.101
128.300	-9.880	0.101
128.400	0.436	0.101
128.500	-8.505	0.101
128.600	-1.345	0.101
128.700	-12.330	0.101
128.800	-16.562	0.101
128.900	-10.509	0.101
129.000	-10.092	0.101
129.100	-12.078	0.101
129.200	-17.792	0.101
129.300	-10.396	0.101
129.400	-13.037	0.101
129.500	-2.410	0.101
129.600	-10.517	0.101
129.700	-16.838	0.101
129.800	-10.858	0.101
129.900	-10.690	0.101
130.000	-3.426	0.101
130.100	-0.849	0.101
130.200	-11.295	0.101
130.300	-17.577	0.101
130.400	-14.964	0.101
130.500	-15.719	0.101
130.600	-7.502	0.101
130.700	-11.676	0.101
130.800	-8.673	0.101
130.900	-17.278	0.101
131.000	-7.467	0.101
131.100	-6.898	0.101
131.200	-5.511	0.101
131.300	-14.333	0.101
131.400	-10.934	0.101
131.500	-3.811	0.101
131.600	-10.665	0.101
131.700	-8.692	0.101
131.800	-8.575	0.101
131.900	-13.528	0.101
132.000	-15.604	0.101
132.100	-8.365	0.101
132.200	-7.977	0.101
132.300	-8.741	0.101
132.400	-19.357	0.101
132.500	-10.431	0.101
132.600	-6.784	0.101
132.700	-1.680	0.101
132.800	-4.490	0.101
132.900	-17.852	0.101
133.000	-6.170	0.101
133.100	-4.840	0.101
133.200	-14.602	0.101
133.300	-9.875	0.101
133.400	-11.140	0.101
133.500	-5.013	0.101
133.600	-7.404	0.101
133.700	-9.404	0.101
133.800	-20.632	0.101
133.900	-10.325	0.101
134.000	-4.756	0.101
134.100	-20.812	0.101
134.200	-11.884	0.101
134.300	-4.653	0.101
134.400	-7.586	0.101
134.500	-21.773	0.101
134.600	-6.400	0.101
134.700	-5.096	0.101
134.800	-14.792	0.101
134.900	-7.170	0.101
135.000	-6.820	0.101
135.100	-16.173	0.101
135.200	-18.818	0.101
135.300	-15.777	0.101
135.400	-6.731	0.101
135.500	-7.192	0.101
135.600	-0.538	0.101
135.700	-8.859	0.101
135.800	-8.753	0.101
135.900	-11.215	0.101
136.000	-9.653	0.101
136.100	-13.301	0.101
136.200	-14.099	0.101
136.300	-10.144	0.101
136.400	-1.715	0.101
136.500	-11.919	0.101
136.600	-13.814	0.101
136.700	-22.981	0.101
136.800	-9.020	0.101
136.900	-10.970	0.101
137.000	-10.535	0.101
137.100	-17.493	0.101
137.200	-7.627	0.101
137.300	-1.351	0.101
137.400	-11.217	0.101
137.500	-9.022	0.101
137.600	-9.049	0.101
137.700	-12.594	0.101
137.800	-15.215	0.101
137.900	-17.084	0.101
138.000	-12.046	0.101
138.100	2.582	0.101
138.200	-15.373	0.101
138.300	-6.803	0.101
138.400	-6.388	0.101
138.500	-7.272	0.101
138.600	-14.736	0.101
138.700	-18.297	0.101
138.800	-2.128	0.101
138.900	-1.216	0.101
139.000	-9.775	0.101
139.100	-21.336	0.101
139.200	-6.869	0.101
139.300	-3.681	0.101
139.400	-18.577	0.101
139.500	-9.703	0.101
139.600	-9.594	0.101
139.700	-13.536	0.101
139.800	-14.491	0.101
139.900	-13.781	0.101
140.000	-11.508	0.101
140.100	-1.773	0.101
140.200	-7.340	0.101
140.300	-12.916	0.101
140.400	-8.110	0.101
140.500	-3.060	0.101
140.600	-7.188	0.101
140.700	-13.593	0.101
140.800	-20.897	0.101
140.900	-13.320	0.101
141.000	-9.357	0.101
141.100	-5.247	0.101
141.200	-9.629	0.101
141.300	1.149	0.101
141.400	-18.542	0.101
141.500	-15.090	0.101
141.600	-7.948	0.101
141.700	-4.856	0.101
141.800	-8.720	0.101
141.900	-15.629	0.101
142.000	-21.759	0.101
142.100	-8.777	0.101
142.200	-18.650	0.101
142.300	-6.259	0.101
142.400	-13.016	0.101
142.500	-6.085	0.101
142.600	-6.355	0.101
142.700	2.310	0.101
142.800	-10.506	0.101
142.900	-8.190	0.101
143.000	-6.878	0.101
143.100	-13.811	0.101
143.200	-12.134	0.101
143.300	-6.326	0.101
143.400	-19.238	0.101
143.500	-17.022	0.101
143.600	-5.864	0.101
143.700	0.505	0.101
143.800	-16.956	0.101
143.900	-5.149	0.101
144.000	-15.656	0.101
144.100	-15.730	0.101
144.200	-3.570	0.101
144.300	-7.688	0.101
144.400	-13.059	0.101
144.500	-13.108	0.101
144.600	-12.982	0.101
144.700	3.165	0.101
144.800	-6.512	0.101
144.900	-6.029	0.101
145.000	-5.366	0.101
145.100	-2.738	0.101
145.200	-12.732	0.101
145.300	-14.717	0.101
145.400	-8.224	0.101
145.500	-19.117	0.101
145.600	-15.018	0.101
145.700	-10.595	0.101
145.800	-10.624	0.101
145.900	-14.874	0.101
146.000	-7.480	0.101
146.100	-1.983	0.101
146.200	-15.339	0.101
146.300	-0.339	0.101
146.400	-14.297	0.101
146.500	-4.193	0.101
146.600	-21.495	0.101
146.700	-7.992	0.101
146.800	-7.045	0.101
146.900	-5.034	0.101
147.000	-13.044	0.101
147.100	-7.736	0.101
147.200	-15.358	0.101
147.300	-3.065	0.101
147.400	-5.066	0.101
147.500	-2.268	0.101
147.600	-11.910	0.101
147.700	-11.407	0.101
147.800	-17.719	0.101
147.900	-7.977	0.101
148.000	-15.292	0.101
148.100	6.554	0.101
148.200	-7.366	0.101
148.300	-6.909	0.101
148.400	-10.822	0.101
148.500	-10.261	0.101
148.600	-14.827	0.101
148.700	-10.561	0.101
148.800	-19.738	0.101
148.900	-14.968	0.101
149.000	-12.138	0.101
149.100	-14.538	0.101
149.200	-8.891	0.101
149.300	-6.476	0.101
149.400	-8.670	0.101
149.500	-7.246	0.101
149.600	-11.123	0.101
149.700	-2.174	0.101
149.800	-8.944	0.101
149.900	-3.696	0.101
150.000	-12.686	0.101
150.100	-18.928	0.101
150.200	-18.804	0.101
150.300	-1.134	0.101
150.400	-9.917	0.101
150.500	-3.432	0.101
150.600	-2.208	0.101
150.700	-14.745	0.101
150.800	-18.052	0.101
150.900	-14.704	0.101
151.000	-16.373	0.101
151.100	-13.431	0.101
151.200	-12.629	0.101
151.300	-9.202	0.101
151.400	-8.366	0.101
151.500	-6.106	0.101
151.600	-12.266	0.101
151.700	-5.094	0.101
151.800	-3.123	0.101
151.900	-17.149	0.101
152.000	-10.315	0.101
152.100	-4.838	0.101
152.200	-5.727	0.101
152.300	-2.903	0.101
152.400	-14.144	0.101
152.500	-14.461	0.101
152.600	-11.340	0.101
152.700	-20.561	0.101
152.800	-15.041	0.101
152.900	-13.467	0.101
153.000	-13.214	0.101
153.100	-5.748	0.101
153.200	-16.989	0.101
153.300	0.169	0.101
153.400	-10.115	0.101
153.500	0.516	0.101
153.600	-2.999	0.101
153.700	-15.965	0.101
153.800	-3.119	0.101
153.900	-17.226	0.101
154.000	-13.854	0.101
154.100	-3.148	0.101
154.200	-8.377	0.101
154.300	-4.440	0.101
154.400	-8.723	0.101
154.500	-14.846	0.101
154.600	-20.126	0.101
154.700	-10.480	0.101
154.800	-8.481	0.101
154.900	-16.066	0.101
155.000	-13.294	0.101
155.100	9.594	0.101
155.200	-2.483	0.101
155.300	-5.357	0.101
155.400	-18.269	0.101
155.500	-20.813	0.101
155.600	-2.639	0.101
155.700	-11.175	0.101
155.800	-7.507	0.101
155.900	2.290	0.101
156.000	-3.886	0.101
156.100	-9.436	0.101
156.200	-0.905	0.101
156.300	-6.343	0.101
156.400	-8.095	0.101
156.500	-17.911	0.101
156.600	-17.711	0.101
156.700	-10.590	0.101
156.800	-7.473	0.101
156.900	-11.536	0.101
157.000	-14.294	0.101
157.100	6.733	0.101
157.200	-11.305	0.101
157.300	-17.051	0.101
157.400	-11.050	0.101
157.500	-15.296	0.101
157.600	-12.555	0.101
157.700	-17.553	0.101
157.800	-1.763	0.101
157.900	-3.903	0.101
158.000	-5.103	0.101
158.100	-5.829	0.101
158.200	-10.085	0.101
158.300	-13.794	0.101
158.400	-8.767	0.101
158.500	-2.223	0.101
158.600	0.591	0.101
158.700	-15.100	0.101
158.800	-19.401	0.101
158.900	-9.075	0.101
159.000	-16.326	0.101
159.100	-9.697	0.101
159.200	-1.206	0.101
159.300	-10.664	0.101
159.400	-13.213	0.101
159.500	-5.029	0.101
159.600	-4.580	0.101
159.700	-10.874	0.101
159.800	-6.424	0.101
159.900	-8.603	0.101
160.000	-9.888	0.101
160.100	4.175	0.101
160.200	-7.926	0.101
160.300	-20.140	0.101
160.400	-12.230	0.101
160.500	-21.069	0.101
160.600	-1.529	0.101
160.700	-10.145	0.101
160.800	-3.888	0.101
160.900	-16.922	0.101
161.000	-10.188	0.101
161.100	-0.241	0.101
161.200	-11.268	0.101
161.300	-10.256	0.101
161.400	-14.886	0.101
161.500	-10.641	0.101
161.600	-4.248	0.101
161.700	-5.177	0.101
161.800	-12.810	0.101
161.900	-3.197	0.101
162.000	-17.636	0.101
162.100	-13.269	0.101
162.200	-7.182	0.101
162.300	-8.765	0.101
162.400	-14.033	0.101
162.500	-4.405	0.101
162.600	-6.274	0.101
162.700	-14.707	0.101
162.800	-6.231	0.101
162.900	-11.295	0.101
163.000	-7.864	0.101
163.100	-1.380	0.101
163.200	-13.424	0.101
163.300	-11.968	0.101
163.400	-5.060	0.101
163.500	-9.883	0.101
163.600	-1.750	0.101
163.700	-14.203	0.101
163.800	0.400	0.101
163.900	-7.351	0.101
164.000	-6.858	0.101
164.100	-14.019	0.101
164.200	-9.999	0.101
164.300	-19.211	0.101
164.400	-3.349	0.101
164.500	-3.188	0.101
164.600	-9.024	0.101
164.700	-21.533	0.101
164.800	-15.469	0.101
164.900	-3.986	0.101
165.000	-4.404	0.101
165.100	-16.935	0.101
165.200	-10.628	0.101
165.300	1.116	0.101
165.400	2.763	0.101
165.500	-4.749	0.101
165.600	-1.657	0.101
165.700	-6.076	0.101
165.800	-6.913	0.101
165.900	-2.203	0.101
166.000	-12.059	0.101
166.100	-2.088	0.101
166.200	2.777	0.101
166.300	-24.907	0.101
166.400	-18.762	0.101
166.500	-15.017	0.101
166.600	-7.716	0.101
166.700	-8.321	0.101
166.800	-4.478	0.101
166.900	-1.298	0.101
167.000	-5.311	0.101
167.100	-4.429	0.101
167.200	-9.428	0.101
167.300	-5.827	0.101
167.400	-13.516	0.101
167.500	-10.165	0.101
167.600	-6.253	0.101
167.700	-13.068	0.101
167.800	-6.814	0.101
167.900	-7.422	0.101
168.000	-20.611	0.101
168.100	-5.002	0.101
168.200	-4.992	0.101
168.300	-10.522	0.101
168.400	-12.260	0.101
168.500	-5.082	0.101
168.600	-8.701	0.101
168.700	-12.725	0.101
168.800	-13.235	0.101
168.900	-15.656	0.101
169.000	-10.252	0.101
169.100	-8.577	0.101
169.200	7.241	0.101
169.300	-5.127	0.101
169.400	-9.843	0.101
169.500	-7.288	0.101
169.600	-14.330	0.101
169.700	-10.987	0.101
169.800	-11.952	0.101
169.900	-9.943	0.101
170.000	0.219	0.101
170.100	-12.800	0.101
170.200	-2.798	0.101
170.300	-4.728	0.101
170.400	-5.794	0.101
170.500	-16.857	0.101
170.600	-1.075	0.101
170.700	-16.826	0.101
170.800	-13.767	0.101
170.900	-1.362	0.101
171.000	-2.831	0.101
171.100	-6.524	0.101
171.200	-4.071	0.101
171.300	-12.402	0.101
171.400	-8.585	0.101
171.500	-16.775	0.101
171.600	-2.757	0.101
171.700	-14.871	0.101
171.800	-3.370	0.101
171.900	-3.928	0.101
172.000	-11.397	0.101
172.100	-17.692	0.101
172.200	-12.908	0.101
172.300	-1.733	0.101
172.400	-11.861	0.101
172.500	-17.394	0.101
172.600	-5.064	0.101
172.700	-10.800	0.101
172.800	-9.752	0.101
172.900	-11.822	0.101
173.000	-8.439	0.101
173.100	4.330	0.101
173.200	-1.026	0.101
173.300	-18.822	0.101
173.400	-2.268	0.101
173.500	-14.510	0.101
173.600	-2.807	0.101
173.700	-2.867	0.101
173.800	-3.758	0.101
173.900	-10.990	0.101
174.000	-6.593	0.101
174.100	-7.830	0.101
174.200	-4.742	0.101
174.300	2.551	0.101
174.400	-10.058	0.101
174.500	-18.238	0.101
174.600	-7.501	0.101
174.700	-11.100	0.101
174.800	-9.606	0.101
174.900	2.926	0.101
175.000	1.556	0.101
175.100	-14.616	0.101
175.200	-5.162	0.101
175.300	-7.229	0.101
175.400	0.829	0.101
175.500	-7.102	0.101
175.600	-9.405	0.101
175.700	-13.724	0.101
175.800	-7.949	0.101
175.900	0.907	0.101
176.000	-6.789	0.101
176.100	1.490	0.101
176.200	-8.640	0.101
176.300	-10.420	0.101
176.400	-10.605	0.101
176.500	-15.159	0.101
176.600	-8.963	0.101
176.700	-5.348	0.101
176.800	-6.133	0.101
176.900	-5.152	0.101
177.000	-5.412	0.101
177.100	-11.067	0.101
177.200	-17.665	0.101
177.300	-5.220	0.101
177.400	-2.780	0.101
177.500	-8.946	0.101
177.600	-10.052	0.101
177.700	-4.338	0.101
177.800	3.747	0.101
177.900	-9.079	0.101
178.000	-6.888	0.101
178.100	-14.310	0.101
178.200	-0.815	0.101
178.300	-10.717	0.101
178.400	-11.043	0.101
178.500	-8.834	0.101
178.600	-3.913	0.101
178.700	-10.931	0.101
178.800	3.048	0.101
178.900	-9.991	0.101
179.000	-8.592	0.101
179.100	-9.764	0.101
179.200	-7.500	0.101
179.300	-9.775	0.101
179.400	-6.413	0.101
179.500	-15.866	0.101
179.600	-9.499	0.101
179.700	-15.491	0.101
179.800	-9.334	0.101
179.900	-4.556	0.101
180.000	0.829	0.101
180.100	-8.254	0.101
180.200	-4.504	0.101
180.300	-14.486	0.101
180.400	-9.136	0.101
180.500	-4.381	0.101
180.600	4.722	0.101
180.700	4.653	0.101
180.800	18.535	0.101
180.900	7.732	0.101
181.000	15.282	0.101
181.100	2.424	0.101
181.200	18.426	0.101
181.300	11.605	0.101
181.400	5.533	0.101
181.500	0.391	0.101
181.600	20.913	0.101
181.700	22.446	0.101
181.800	24.906	0.101
181.900	25.124	0.101
182.000	16.135	0.101
182.100	17.132	0.101
182.200	25.845	0.101
182.300	21.949	0.101
182.400	32.068	0.101
182.500	9.443	0.101
182.600	27.342	0.101
182.700	29.342	0.101
182.800	27.243	0.101
182.900	29.724	0.101
183.000	29.025	0.101
183.100	30.658	0.101
183.200	28.296	0.101
183.300	20.226	0.101
183.400	27.786	0.101
183.500	27.268	0.101
183.600	26.123	0.101
183.700	28.079	0.101
183.800	23.274	0.101
183.900	27.991	0.101
184.000	23.178	0.101
184.100	20.329	0.101
184.200	22.478	0.101
184.300	21.578	0.101
184.400	18.177	0.101
184.500	21.926	0.101
184.600	22.470	0.101
184.700	18.215	0.101
184.800	31.255	0.101
184.900	10.970	0.101
185.000	19.752	0.101
185.100	14.470	0.101
185.200	26.035	0.101
185.300	21.311	0.101
185.400	25.130	0.101
185.500	20.159	0.101
185.600	17.676	0.101
185.700	12.990	0.101
185.800	12.858	0.101
185.900	7.029	0.101
186.000	22.285	0.101
186.100	18.952	0.101
186.200	21.209	0.101
186.300	18.956	0.101
186.400	19.445	0.101
186.500	16.978	0.101
186.600	19.844	0.101
186.700	14.124	0.101
186.800	10.077	0.101
186.900	12.055	0.101
187.000	22.455	0.101
187.100	35.710	0.101
187.200	26.089	0.101
187.300	17.620	0.101
187.400	18.272	0.101
187.500	6.796	0.101
187.600	31.264	0.101
187.700	9.676	0.101
187.800	11.021	0.101
187.900	23.495	0.101
188.000	24.304	0.101
188.100	18.265	0.101
188.200	10.891	0.101
188.300	15.219	0.101
188.400	17.653	0.101
188.500	26.504	0.101
188.600	15.849	0.101
188.700	16.657	0.101
188.800	25.471	0.101
188.900	22.452	0.101
189.000	23.674	0.101
189.100	16.297	0.101
189.200	13.659	0.101
189.300	12.471	0.101
189.400	29.173	0.101
189.500	9.175	0.101
189.600	28.156	0.101
189.700	34.148	0.101
189.800	15.145	0.101
189.900	19.438	0.101
190.000	11.016	0.101
190.100	16.357	0.101
190.200	30.386	0.101
190.300	21.736	0.101
190.400	24.423	0.101
190.500	22.883	0.101
190.600	26.401	0.101
190.700	16.825	0.101
190.800	23.120	0.101
190.900	29.871	0.101
191.000	20.575	0.101
191.100	33.889	0.101
191.200	30.932	0.101
191.300	23.891	0.101
191.400	31.818	0.101
191.500	27.895	0.101
191.600	21.684	0.101
191.700	22.135	0.101
191.800	25.602	0.101
191.900	37.997	0.101
192.000	20.359	0.101
192.100	23.640	0.101
192.200	29.275	0.101
192.300	28.353	0.101
192.400	32.462	0.101
192.500	35.249	0.101
192.600	23.400	0.101
192.700	29.896	0.101
192.800	33.686	0.101
192.900	27.196	0.101
193.000	35.825	0.101
193.100	26.260	0.101
193.200	38.246	0.101
193.300	41.139	0.101
193.400	17.246	0.101
193.500	23.280	0.101
193.600	21.117	0.101
193.700	30.330	0.101
193.800	29.271	0.101
193.900	24.066	0.101
194.000	25.903	0.101
194.100	35.060	0.101
194.200	32.850	0.101
194.300	30.082	0.101
194.400	39.644	0.101
194.500	28.072	0.101
194.600	34.110	0.101
194.700	21.769	0.101
194.800	21.706	0.101
194.900	33.650	0.101
195.000	29.013	0.101
195.100	36.529	0.101
195.200	21.993	0.101
195.300	43.655	0.101
195.400	29.577	0.101
195.500	41.862	0.101
195.600	32.163	0.101
195.700	30.574	0.101
195.800	22.265	0.101
195.900	20.817	0.101
196.000	32.633	0.101
196.100	41.702	0.101
196.200	30.303	0.101
196.300	33.182	0.101
196.400	38.543	0.101
196.500	35.931	0.101
196.600	31.684	0.101
196.700	32.870	0.101
196.800	35.030	0.101
196.900	31.797	0.101
197.000	37.530	0.101
197.100	25.399	0.101
197.200	35.816	0.101
197.300	28.707	0.101
197.400	34.938	0.101
197.500	30.308	0.101
197.600	29.436	0.101
197.700	28.421	0.101
197.800	31.733	0.101
197.900	41.557	0.101
198.000	28.399	0.101
198.100	31.995	0.101
198.200	29.505	0.101
198.300	23.621	0.101
198.400	26.539	0.101
198.500	51.472	0.101
198.600	30.120	0.101
198.700	31.037	0.101
198.800	29.043	0.101
198.900	36.947	0.101
199.000	31.890	0.101
199.100	32.396	0.101
199.200	30.938	0.101
199.300	37.469	0.101
199.400	27.287	0.101
199.500	36.843	0.101
199.600	32.198	0.101
199.700	35.493	0.101
199.800	18.103	0.101
199.900	35.577	0.101
200.000	32.946	0.101
200.100	31.226	0.101
200.200	30.884	0.101
200.300	31.342	0.101
200.400	23.345	0.101
200.500	38.416	0.101
200.600	33.192	0.101
200.700	30.589	0.101
200.800	35.606	0.101
200.900	50.694	0.101
201.000	24.828	0.101
201.100	37.616	0.101
201.200	38.930	0.101
201.300	17.469	0.101
201.400	19.118	0.101
201.500	38.884	0.101
201.600	31.331	0.101
201.700	32.677	0.101
201.800	30.247	0.101
201.900	33.684	0.101
202.000	33.156	0.101
202.100	34.789	0.101
202.200	26.633	0.101
202.300	35.491	0.101
202.400	26.035	0.101
202.500	25.973	0.101
202.600	28.465	0.101
202.700	36.240	0.101
202.800	35.781	0.101
202.900	44.622	0.101
203.000	23.728	0.101
203.100	30.329	0.101
203.200	17.438	0.101
203.300	28.503	0.101
203.400	26.568	0.101
203.500	25.976	0.101
203.600	30.939	0.101
203.700	27.661	0.101
203.800	26.324	0.101
203.900	35.385	0.101
204.000	20.884	0.101
204.100	38.000	0.101
204.200	31.399	0.101
204.300	31.351	0.101
204.400	29.067	0.101
204.500	36.022	0.101
204.600	24.619	0.101
204.700	38.819	0.101
204.800	29.358	0.101
204.900	42.596	0.101
205.000	22.926	0.101
205.100	31.885	0.101
205.200	30.155	0.101
205.300	30.702	0.101
205.400	27.545	0.101
205.500	31.245	0.101
205.600	23.304	0.101
205.700	28.616	0.101
205.800	26.401	0.101
205.900	43.965	0.101
206.000	28.154	0.101
206.100	29.194	0.101
206.200	19.231	0.101
206.300	26.441	0.101
206.400	23.600	0.101
206.500	31.249	0.101
206.600	27.552	0.101
206.700	29.386	0.101
206.800	22.407	0.101
206.900	27.039	0.101
207.000	32.332	0.101
207.100	41.998	0.101
207.200	20.872	0.101
207.300	34.875	0.101
207.400	26.851	0.101
207.500	30.758	0.101
207.600	16.806	0.101
207.700	33.236	0.101
207.800	24.531	0.101
207.900	35.223	0.101
208.000	28.660	0.101
208.100	28.241	0.101
208.200	22.750	0.101
208.300	48.330	0.101
208.400	30.493	0.101
208.500	32.775	0.101
208.600	25.256	0.101
208.700	29.552	0.101
208.800	26.168	0.101
208.900	33.219	0.101
209.000	37.351	0.101
209.100	19.193	0.101
209.200	30.334	0.101
209.300	28.025	0.101
209.400	30.579	0.101
209.500	33.637	0.101
209.600	35.442	0.101
209.700	32.974	0.101
209.800	7.248	0.101
209.900	12.804	0.101
210.000	22.749	0.101
210.100	24.637	0.101
210.200	26.223	0.101
210.300	37.536	0.101
210.400	36.436	0.101
210.500	30.930	0.101
210.600	29.644	0.101
210.700	33.720	0.101
210.800	28.639	0.101
210.900	29.131	0.101
211.000	25.308	0.101
211.100	21.669	0.101
211.200	21.750	0.101
211.300	36.928	0.101
211.400	28.887	0.101
211.500	20.334	0.101
211.600	20.891	0.101
211.700	31.809	0.101
211.800	28.344	0.101
211.900	40.412	0.101
212.000	31.356	0.101
212.100	28.437	0.101
212.200	21.514	0.101
212.300	29.383	0.101
212.400	28.388	0.101
212.500	22.015	0.101
212.600	26.346	0.101
212.700	27.134	0.101
212.800	28.641	0.101
212.900	20.785	0.101
213.000	26.702	0.101
213.100	29.843	0.101
213.200	31.657	0.101
213.300	33.225	0.101
213.400	21.413	0.101
213.500	38.898	0.101
213.600	30.328	0.101
213.700	21.772	0.101
213.800	21.500	0.101
213.900	36.966	0.101
214.000	35.219	0.101
214.100	32.020	0.101
214.200	30.138	0.101
214.300	35.481	0.101
214.400	31.744	0.101
214.500	32.684	0.101
214.600	23.916	0.101
214.700	21.779	0.101
214.800	23.277	0.101
214.900	18.052	0.101
215.000	38.120	0.101
215.100	37.966	0.101
215.200	33.344	0.101
215.300	26.899	0.101
215.400	35.286	0.101
215.500	24.458	0.101
215.600	30.489	0.101
215.700	34.449	0.101
215.800	28.168	0.101
215.900	23.233	0.101
216.000	22.770	0.101
216.100	33.621	0.101
216.200	19.944	0.101
216.300	33.949	0.101
216.400	22.135	0.101
216.500	27.003	0.101
216.600	26.879	0.101
216.700	32.118	0.101
216.800	23.059	0.101
216.900	23.237	0.101
217.000	25.613	0.101
217.100	22.670	0.101
217.200	27.935	0.101
217.300	34.965	0.101
217.400	31.850	0.101
217.500	21.454	0.101
217.600	26.334	0.101
217.700	40.739	0.101
217.800	16.722	0.101
217.900	33.646	0.101
218.000	28.813	0.101
218.100	30.187	0.101
218.200	25.216	0.101
218.300	25.466	0.101
218.400	37.644	0.101
218.500	38.646	0.101
218.600	35.234	0.101
218.700	24.324	0.101
218.800	32.419	0.101
218.900	28.802	0.101
219.000	21.848	0.101
219.100	36.230	0.101
219.200	21.853	0.101
219.300	21.344	0.101
219.400	21.398	0.101
219.500	35.042	0.101
219.600	26.407	0.101
219.700	31.042	0.101
219.800	22.212	0.101
219.900	25.742	0.101
220.000	27.154	0.101
220.100	31.529	0.101
220.200	32.568	0.101
220.300	27.071	0.101
220.400	17.809	0.101
220.500	29.502	0.101
220.600	35.948	0.101
220.700	20.814	0.101
220.800	25.326	0.101
220.900	24.876	0.101
221.000	30.001	0.101
221.100	31.827	0.101
221.200	33.743	0.101
221.300	35.293	0.101
221.400	14.107	0.101
221.500	33.082	0.101
221.600	27.872	0.101
221.700	24.710	0.101
221.800	28.983	0.101
221.900	24.747	0.101
222.000	36.099	0.101
222.100	27.945	0.101
222.200	27.128	0.101
222.300	25.869	0.101
222.400	21.813	0.101
222.500	30.162	0.101
222.600	27.729	0.101
222.700	20.226	0.101
222.800	29.180	0.101
222.900	16.845	0.101
223.000	28.819	0.101
223.100	27.398	0.101
223.200	27.386	0.101
223.300	27.479	0.101
223.400	26.085	0.101
223.500	35.147	0.101
223.600	23.843	0.101
223.700	31.468	0.101
223.800	23.668	0.101
223.900	29.333	0.101
224.000	34.858	0.101
224.100	36.534	0.101
224.200	21.664	0.101
224.300	26.052	0.101
224.400	32.465	0.101
224.500	23.529	0.101
224.600	33.400	0.101
224.700	18.932	0.101
224.800	14.036	0.101
224.900	28.329	0.101
225.000	32.807	0.101
225.100	26.782	0.101
225.200	34.033	0.101
225.300	18.560	0.101
225.400	24.382	0.101
225.500	29.438	0.101
225.600	28.797	0.101
225.700	29.667	0.101
225.800	19.124	0.101
225.900	24.466	0.101
226.000	26.847	0.101
226.100	37.016	0.101
226.200	22.294	0.101
226.300	29.918	0.101
226.400	24.191	0.101
226.500	22.804	0.101
226.600	37.181	0.101
226.700	30.338	0.101
226.800	22.198	0.101
226.900	23.126	0.101
227.000	28.515	0.101
227.100	29.953	0.101
227.200	19.903	0.101
227.300	27.245	0.101
227.400	22.261	0.101
227.500	33.748	0.101
227.600	20.526	0.101
227.700	34.160	0.101
227.800	37.689	0.101
227.900	17.402	0.101
228.000	33.718	0.101
228.100	30.470	0.101
228.200	21.125	0.101
228.300	27.472	0.101
228.400	33.593	0.101
228.500	19.495	0.101
228.600	22.867	0.101
228.700	21.038	0.101
228.800	25.917	0.101
228.900	23.518	0.101
229.000	34.682	0.101
229.100	32.866	0.101
229.200	26.550	0.101
229.300	26.878	0.101
229.400	29.108	0.101
229.500	25.639	0.101
229.600	37.939	0.101
229.700	18.529	0.101
229.800	30.761	0.101
229.900	20.419	0.101
230.000	23.776	0.101
230.100	20.618	0.101
230.200	39.574	0.101
230.300	22.439	0.101
230.400	16.943	0.101
230.500	26.045	0.101
230.600	26.893	0.101
230.700	27.377	0.101
230.800	29.361	0.101
230.900	28.312	0.101
231.000	27.671	0.101
231.100	23.417	0.101
231.200	33.163	0.101
231.300	35.720	0.101
231.400	33.023	0.101
231.500	19.293	0.101
231.600	22.713	0.101
231.700	29.359	0.101
231.800	34.797	0.101
231.900	19.861	0.101
232.000	28.714	0.101
232.100	28.604	0.101
232.200	28.065	0.101
232.300	30.421	0.101
232.400	29.931	0.101
232.500	21.272	0.101
232.600	26.799	0.101
232.700	32.109	0.101
232.800	38.540	0.101
232.900	27.904	0.101
233.000	26.459	0.101
233.100	30.482	0.101
233.200	15.783	0.101
233.300	37.054	0.101
233.400	32.517	0.101
233.500	21.203	0.101
233.600	23.127	0.101
233.700	27.207	0.101
233.800	31.762	0.101
233.900	19.154	0.101
234.000	27.452	0.101
234.100	23.718	0.101
234.200	32.199	0.101
234.300	16.332	0.101
234.400	23.125	0.101
234.500	15.567	0.101
234.600	31.072	0.101
234.700	33.056	0.101
234.800	32.983	0.101
234.900	18.641	0.101
235.000	25.191	0.101
235.100	27.898	0.101
235.200	37.461	0.101
235.300	32.577	0.101
235.400	24.354	0.101
235.500	16.732	0.101
235.600	23.635	0.101
235.700	28.944	0.101
235.800	30.025	0.101
235.900	12.463	0.101
236.000	23.705	0.101
236.100	22.157	0.101
236.200	28.799	0.101
236.300	27.000	0.101
236.400	28.913	0.101
236.500	23.748	0.101
236.600	36.729	0.101
236.700	32.779	0.101
236.800	35.788	0.101
236.900	21.234	0.101
237.000	27.200	0.101
237.100	19.503	0.101
237.200	26.455	0.101
237.300	28.745	0.101
237.400	31.774	0.101
237.500	21.850	0.101
237.600	33.958	0.101
237.700	27.095	0.101
237.800	32.075	0.101
237.900	7.711	0.101
238.000	28.417	0.101
238.100	24.940	0.101
238.200	19.858	0.101
238.300	28.723	0.101
238.400	34.402	0.101
238.500	30.717	0.101
238.600	24.592	0.101
238.700	25.352	0.101
238.800	32.386	0.101
238.900	34.153	0.101
239.000	29.099	0.101
239.100	29.325	0.101
239.200	21.055	0.101
239.300	19.204	0.101
239.400	38.975	0.101
239.500	27.697	0.101
239.600	36.125	0.101
239.700	29.256	0.101
239.800	27.767	0.101
239.900	17.302	0.101
240.000	15.841	0.101
240.100	14.562	0.101
240.200	26.926	0.101
240.300	24.069	0.101
240.400	23.261	0.101
240.500	22.305	0.101
240.600	18.491	0.101
240.700	7.639	0.101
240.800	18.186	0.101
240.900	25.591	0.101
241.000	17.218	0.101
241.100	8.535	0.101
241.200	5.167	0.101
241.300	-9.391	0.101
241.400	-3.557	0.101
241.500	-7.900	0.101
241.600	-3.245	0.101
241.700	-3.362	0.101
241.800	-1.120	0.101
241.900	-4.730	0.101
242.000	-4.234	0.101
242.100	-18.673	0.101
242.200	-13.591	0.101
242.300	-3.133	0.101
242.400	-8.616	0.101
242.500	-16.004	0.101
242.600	-22.580	0.101
242.700	-17.331	0.101
242.800	-17.936	0.101
242.900	-15.748	0.101
243.000	-19.174	0.101
243.100	-18.053	0.101
243.200	-24.770	0.101
243.300	-26.923	0.101
243.400	-20.785	0.101
243.500	-21.497	0.101
243.600	-17.363	0.101
243.700	-19.517	0.101
243.800	-23.318	0.101
243.900	-24.884	0.101
244.000	-17.964	0.101
244.100	-30.672	0.101
244.200	-31.334	0.101
244.300	-32.734	0.101
244.400	-21.810	0.101
244.500	-26.537	0.101
244.600	-30.580	0.101
244.700	-29.973	0.101
244.800	-26.588	0.101
244.900	-39.911	0.101
245.000	-26.679	0.101
245.100	-29.905	0.101
245.200	-22.650	0.101
245.300	-21.132	0.101
245.400	-25.532	0.101
245.500	-19.403	0.101
245.600	-30.761	0.101
245.700	-32.006	0.101
245.800	-23.823	0.101
245.900	-25.879	0.101
246.000	-36.152	0.101
246.100	-26.854	0.101
246.200	-28.412	0.101
246.300	-22.522	0.101
246.400	-9.682	0.101
246.500	-22.930	0.101
246.600	-20.525	0.101
246.700	-16.273	0.101
246.800	-8.362	0.101
246.900	-31.478	0.101
247.000	-27.360	0.101
247.100	-18.140	0.101
247.200	-21.561	0.101
247.300	-17.438	0.101
247.400	-20.119	0.101
247.500	-23.423	0.101
247.600	-15.942	0.101
247.700	-27.201	0.101
247.800	-25.094	0.101
247.900	-20.985	0.101
248.000	-16.901	0.101
248.100	-19.927	0.101
248.200	-10.060	0.101
248.300	-19.298	0.101
248.400	-12.996	0.101
248.500	-16.790	0.101
248.600	-17.891	0.101
248.700	-20.412	0.101
248.800	-23.237	0.101
248.900	-18.591	0.101
249.000	-10.590	0.101
249.100	-5.282	0.101
249.200	-19.599	0.101
249.300	-8.127	0.101
249.400	-16.316	0.101
249.500	-11.815	0.101
249.600	-24.780	0.101
249.700	-18.101	0.101
249.800	-19.709	0.101
249.900	-8.475	0.101
250.000	-17.283	0.101
250.100	-16.787	0.101
250.200	-17.437	0.101
250.300	-16.191	0.101
250.400	-11.684	0.101
250.500	-6.065	0.101
250.600	-7.305	0.101
250.700	-9.561	0.101
250.800	-13.223	0.101
250.900	-10.668	0.101
251.000	-18.533	0.101
251.100	-17.038	0.101
251.200	-18.731	0.101
251.300	-17.722	0.101
251.400	-4.575	0.101
251.500	-8.315	0.101
251.600	-20.097	0.101
251.700	-27.695	0.101
251.800	-18.593	0.101
251.900	-13.611	0.101
252.000	-23.983	0.101
252.100	-12.157	0.101
252.200	-11.876	0.101
252.300	-4.371	0.101
252.400	-11.233	0.101
252.500	-18.727	0.101
252.600	-19.026	0.101
252.700	-9.531	0.101
252.800	-19.425	0.101
252.900	-11.925	0.101
253.000	-16.906	0.101
253.100	-11.809	0.101
253.200	-11.628	0.101
253.300	-10.756	0.101
253.400	-14.682	0.101
253.500	-11.457	0.101
253.600	-20.205	0.101
253.700	-17.618	0.101
253.800	-8.928	0.101
253.900	-9.026	0.101
254.000	-11.337	0.101
254.100	-15.559	0.101
254.200	-9.356	0.101
254.300	-19.354	0.101
254.400	-10.081	0.101
254.500	-13.979	0.101
254.600	-13.400	0.101
254.700	-6.754	0.101
254.800	-9.153	0.101
254.900	-15.670	0.101
255.000	-15.504	0.101
255.100	-8.600	0.101
255.200	-11.877	0.101
255.300	-8.523	0.101
255.400	-16.797	0.101
255.500	-4.888	0.101
255.600	-16.504	0.101
255.700	-8.530	0.101
255.800	-19.139	0.101
255.900	-14.613	0.101
256.000	-20.197	0.101
256.100	-9.767	0.101
256.200	-13.544	0.101
256.300	-11.029	0.101
256.400	-11.279	0.101
256.500	-18.292	0.101
256.600	-17.861	0.101
256.700	-8.678	0.101
256.800	-15.321	0.101
256.900	-15.972	0.101
257.000	-18.386	0.101
257.100	-8.125	0.101
257.200	-15.335	0.101
257.300	-10.165	0.101
257.400	-20.879	0.101
257.500	-14.536	0.101
257.600	-5.200	0.101
257.700	-10.680	0.101
257.800	-9.792	0.101
257.900	-17.957	0.101
258.000	-14.520	0.101
258.100	-12.901	0.101
258.200	-8.030	0.101
258.300	-17.875	0.101
258.400	-20.218	0.101
258.500	-15.117	0.101
258.600	-16.077	0.101
258.700	-4.798	0.101
258.800	-6.363	0.101
258.900	-16.207	0.101
259.000	-13.117	0.101
259.100	-13.899	0.101
259.200	-16.182	0.101
259.300	-12.567	0.101
259.400	-21.623	0.101
259.500	-9.938	0.101
259.600	-9.946	0.101
259.700	-7.673	0.101
259.800	-18.270	0.101
259.900	-6.079	0.101
260.000	-15.707	0.101
260.100	-8.750	0.101
260.200	-15.362	0.101
260.300	-1.095	0.101
260.400	-13.862	0.101
260.500	-11.805	0.101
260.600	-10.871	0.101
260.700	-10.307	0.101
260.800	-18.612	0.101
260.900	-15.003	0.101
261.000	-18.949	0.101
261.100	-13.579	0.101
261.200	-11.577	0.101
261.300	-21.489	0.101
261.400	-7.029	0.101
261.500	-9.577	0.101
261.600	-23.138	0.101
261.700	-15.268	0.101
261.800	-1.649	0.101
261.900	-14.954	0.101
262.000	-16.784	0.101
262.100	-8.317	0.101
262.200	-17.979	0.101
262.300	-8.192	0.101
262.400	-17.688	0.101
262.500	-9.353	0.101
262.600	-12.224	0.101
262.700	-7.903	0.101
262.800	-17.303	0.101
262.900	-22.403	0.101
263.000	-12.475	0.101
263.100	-6.320	0.101
263.200	-12.263	0.101
263.300	-19.528	0.101
263.400	-15.630	0.101
263.500	-17.249	0.101
263.600	-18.876	0.101
263.700	-5.093	0.101
263.800	-15.218	0.101
263.900	-4.110	0.101
264.000	-12.814	0.101
264.100	-15.756	0.101
264.200	-17.000	0.101
264.300	1.337	0.101
264.400	-22.596	0.101
264.500	-21.356	0.101
264.600	-3.702	0.101
264.700	-9.387	0.101
264.800	-18.442	0.101
264.900	-7.800	0.101
265.000	-11.750	0.101
265.100	-5.836	0.101
265.200	-6.363	0.101
265.300	-25.872	0.101
265.400	-8.531	0.101
265.500	-17.072	0.101
265.600	-7.692	0.101
265.700	-4.581	0.101
265.800	-30.287	0.101
265.900	-9.871	0.101
266.000	-17.743	0.101
266.100	-5.215	0.101
266.200	-12.753	0.101
266.300	-12.081	0.101
266.400	-15.171	0.101
266.500	-22.234	0.101
266.600	-15.386	0.101
266.700	-5.680	0.101
266.800	-16.360	0.101
266.900	-14.479	0.101
267.000	-15.268	0.101
267.100	-16.978	0.101
267.200	-29.199	0.101
267.300	-7.892	0.101
267.400	-13.245	0.101
267.500	-16.669	0.101
267.600	-15.631	0.101
267.700	-7.441	0.101
267.800	-5.072	0.101
267.900	-5.576	0.101
268.000	-17.431	0.101
268.100	-14.103	0.101
268.200	-16.877	0.101
268.300	-13.322	0.101
268.400	-10.245	0.101
268.500	-8.691	0.101
268.600	-15.727	0.101
268.700	-23.519	0.101
268.800	-22.266	0.101
268.900	-18.276	0.101
269.000	-13.372	0.101
269.100	-2.333	0.101
269.200	-22.054	0.101
269.300	-23.208	0.101
269.400	-11.079	0.101
269.500	-15.231	0.101
269.600	-19.377	0.101
269.700	-17.545	0.101
269.800	-9.573	0.101
269.900	-11.685	0.101
270.000	-19.888	0.101
270.100	-15.511	0.101
270.200	-8.239	0.101
270.300	-12.017	0.101
270.400	-11.034	0.101
270.500	-20.026	0.101
270.600	-17.829	0.101
270.700	-9.065	0.101
270.800	-13.434	0.101
270.900	-12.907	0.101
271.000	-20.816	0.101
271.100	-23.685	0.101
271.200	-12.017	0.101
271.300	-6.717	0.101
271.400	-27.200	0.101
271.500	-15.117	0.101
271.600	-20.608	0.101
271.700	-11.501	0.101
271.800	-18.850	0.101
271.900	-3.280	0.101
272.000	-18.394	0.101
272.100	-7.128	0.101
272.200	-11.206	0.101
272.300	-6.659	0.101
272.400	-16.645	0.101
272.500	-7.798	0.101
272.600	-16.765	0.101
272.700	-8.299	0.101
272.800	-18.991	0.101
272.900	-11.453	0.101
273.000	-24.440	0.101
273.100	-22.952	0.101
273.200	-9.671	0.101
273.300	-19.679	0.101
273.400	-16.925	0.101
273.500	-18.016	0.101
273.600	-17.011	0.101
273.700	-14.568	0.101
273.800	-10.768	0.101
273.900	-10.622	0.101
274.000	-15.813	0.101
274.100	-21.180	0.101
274.200	-17.723	0.101
274.300	-4.832	0.101
274.400	-10.834	0.101
274.500	-15.037	0.101
274.600	-18.393	0.101
274.700	-14.991	0.101
274.800	-15.296	0.101
274.900	-14.967	0.101
275.000	-12.127	0.101
275.100	-9.472	0.101
275.200	-14.552	0.101
275.300	-14.436	0.101
275.400	-20.152	0.101
275.500	-10.224	0.101
275.600	-20.621	0.101
275.700	-14.375	0.101
275.800	-17.899	0.101
275.900	-18.242	0.101
276.000	-25.982	0.101
276.100	-6.932	0.101
276.200	-17.406	0.101
276.300	-8.452	0.101
276.400	-20.671	0.101
276.500	-11.806	0.101
276.600	-11.350	0.101
276.700	-27.274	0.101
276.800	-11.954	0.101
276.900	-4.765	0.101
277.000	-18.683	0.101
277.100	-29.261	0.101
277.200	-16.089	0.101
277.300	-7.329	0.101
277.400	-15.693	0.101
277.500	-10.840	0.101
277.600	-18.083	0.101
277.700	-13.378	0.101
277.800	-11.445	0.101
277.900	-9.810	0.101
278.000	-22.043	0.101
278.100	-16.370	0.101
278.200	-25.736	0.101
278.300	-14.531	0.101
278.400	-14.813	0.101
278.500	-3.400	0.101
278.600	-12.579	0.101
278.700	-22.370	0.101
278.800	-18.427	0.101
278.900	-17.316	0.101
279.000	-1.171	0.101
279.100	-11.970	0.101
279.200	-12.355	0.101
279.300	-16.194	0.101
279.400	-21.884	0.101
279.500	-16.967	0.101
279.600	-12.552	0.101
279.700	-17.855	0.101
279.800	-18.483	0.101
279.900	-20.995	0.101
280.000	-11.720	0.101
280.100	-11.247	0.101
280.200	-11.871	0.101
280.300	-11.408	0.101
280.400	-12.627	0.101
280.500	-20.557	0.101
280.600	-22.212	0.101
280.700	-13.016	0.101
280.800	-22.915	0.101
280.900	-21.067	0.101
281.000	-7.774	0.101
281.100	-9.464	0.101
281.200	-14.597	0.101
281.300	-21.267	0.101
281.400	-14.762	0.101
281.500	-20.917	0.101
281.600	-13.287	0.101
281.700	-9.306	0.101
281.800	-16.812	0.101
281.900	-15.328	0.101
282.000	-7.949	0.101
282.100	-16.046	0.101
282.200	-13.663	0.101
282.300	-11.792	0.101
282.400	-12.471	0.101
282.500	-18.805	0.101
282.600	-6.104	0.101
282.700	-16.235	0.101
282.800	-16.578	0.101
282.900	-22.071	0.101
283.000	-14.916	0.101
283.100	-8.147	0.101
283.200	-17.310	0.101
283.300	-17.637	0.101
283.400	-17.762	0.101
283.500	-9.130	0.101
283.600	-17.295	0.101
283.700	-7.892	0.101
283.800	-11.103	0.101
283.900	-17.946	0.101
284.000	-16.588	0.101
284.100	-13.260	0.101
284.200	-9.529	0.101
284.300	-23.505	0.101
284.400	-12.129	0.101
284.500	-5.786	0.101
284.600	-19.822	0.101
284.700	-7.032	0.101
284.800	-22.050	0.101
284.900	-14.858	0.101
285.000	-18.234	0.101
285.100	-12.017	0.101
285.200	-13.223	0.101
285.300	-12.876	0.101
285.400	-12.522	0.101
285.500	-16.268	0.101
285.600	-23.939	0.101
285.700	-22.523	0.101
285.800	-17.545	0.101
285.900	-9.095	0.101
286.000	-12.889	0.101
286.100	-19.551	0.101
286.200	-18.279	0.101
286.300	-9.170	0.101
286.400	-12.588	0.101
286.500	-18.363	0.101
286.600	-15.508	0.101
286.700	-5.920	0.101
286.800	-13.516	0.101
286.900	-9.143	0.101
287.000	-11.389	0.101
287.100	-18.408	0.101
287.200	-12.983	0.101
287.300	-15.515	0.101
287.400	-18.148	0.101
287.500	-16.839	0.101
287.600	-2.933	0.101
287.700	-12.499	0.101
287.800	-10.839	0.101
287.900	-14.804	0.101
288.000	-9.689	0.101
288.100	-19.263	0.101
288.200	-11.603	0.101
288.300	-18.646	0.101
288.400	-2.490	0.101
288.500	-7.671	0.101
288.600	-6.012	0.101
288.700	-19.939	0.101
288.800	-11.401	0.101
288.900	-19.855	0.101
289.000	-24.153	0.101
289.100	-10.124	0.101
289.200	-14.145	0.101
289.300	-10.960	0.101
289.400	-24.133	0.101
289.500	-12.197	0.101
289.600	-15.556	0.101
289.700	-11.955	0.101
289.800	-21.182	0.101
289.900	-15.456	0.101
290.000	-10.965	0.101
290.100	-19.617	0.101
290.200	-14.209	0.101
290.300	-19.061	0.101
290.400	-9.130	0.101
290.500	-17.394	0.101
290.600	-14.957	0.101
290.700	-16.858	0.101
290.800	-11.976	0.101
290.900	-20.964	0.101
291.000	-8.953	0.101
291.100	-17.630	0.101
291.200	-14.049	0.101
291.300	-18.851	0.101
291.400	-12.807	0.101
291.500	-12.627	0.101
291.600	-13.687	0.101
291.700	-22.629	0.101
291.800	-5.780	0.101
291.900	-16.087	0.101
292.000	-18.190	0.101
292.100	-11.966	0.101
292.200	-6.496	0.101
292.300	-16.612	0.101
292.400	-11.629	0.101
292.500	-11.921	0.101
292.600	-19.485	0.101
292.700	-12.515	0.101
292.800	-16.430	0.101
292.900	-11.819	0.101
293.000	-9.853	0.101
293.100	-13.945	0.101
293.200	-23.631	0.101
293.300	-13.737	0.101
293.400	-9.769	0.101
293.500	-7.420	0.101
293.600	-6.451	0.101
293.700	-12.112	0.101
293.800	-19.082	0.101
293.900	-12.574	0.101
294.000	-13.612	0.101
294.100	-17.549	0.101
294.200	-12.337	0.101
294.300	-6.875	0.101
294.400	-10.057	0.101
294.500	-19.336	0.101
294.600	-21.468	0.101
294.700	-18.341	0.101
294.800	-5.294	0.101
294.900	-9.826	0.101
295.000	1.934	0.101
295.100	-12.312	0.101
295.200	-28.111	0.101
295.300	-18.842	0.101
295.400	-13.383	0.101
295.500	-22.658	0.101
295.600	-13.725	0.101
295.700	-14.926	0.101
295.800	-12.682	0.101
295.900	-17.577	0.101
296.000	-12.107	0.101
296.100	-18.677	0.101
296.200	-13.410	0.101
296.300	-10.610	0.101
296.400	-16.408	0.101
296.500	-14.034	0.101
296.600	-9.987	0.101
296.700	-26.679	0.101
296.800	-22.998	0.101
296.900	-7.536	0.101
297.000	-8.386	0.101
297.100	-10.738	0.101
297.200	-10.160	0.101
297.300	-18.723	0.101
297.400	-19.857	0.101
297.500	-11.863	0.101
297.600	-9.369	0.101
297.700	-17.058	0.101
297.800	-17.812	0.101
297.900	-17.736	0.101
298.000	-6.444	0.101
298.100	-13.840	0.101
298.200	-17.985	0.101
298.300	-23.605	0.101
298.400	-10.922	0.101
298.500	-3.458	0.101
298.600	-12.195	0.101
298.700	-7.006	0.101
298.800	-4.796	0.101
298.900	-19.865	0.101
299.000	-11.638	0.101
299.100	-12.334	0.101
299.200	-8.008	0.101
299.300	-24.081	0.101
299.400	-8.870	0.101
299.500	-13.794	0.101
299.600	-17.086	0.101
299.700	-23.758	0.101
299.800	-9.289	0.101
299.900	-17.017	0.101
300.000	-12.683	0.101
300.100	-19.635	0.101
300.200	-7.922	0.101
300.300	-6.628	0.101
300.400	-15.975	0.101
300.500	-8.528	0.101
300.600	-14.889	0.101
300.700	-13.906	0.101
300.800	-7.821	0.101
300.900	-15.208	0.101
301.000	-8.119	0.101
301.100	-17.786	0.101
301.200	-14.763	0.101
301.300	-10.806	0.101
301.400	-13.196	0.101
301.500	-18.556	0.101
301.600	-15.103	0.101
301.700	-13.302	0.101
301.800	-14.667	0.101
301.900	-4.110	0.101
302.000	-0.983	0.101
302.100	-18.646	0.101
302.200	-9.357	0.101
302.300	-21.866	0.101
302.400	-21.774	0.101
302.500	-16.545	0.101
302.600	-12.245	0.101
302.700	-20.076	0.101
302.800	-4.035	0.101
302.900	-20.922	0.101
303.000	-19.972	0.101
303.100	-14.126	0.101
303.200	-3.855	0.101
303.300	-19.247	0.101
303.400	-10.598	0.101
303.500	4.303	0.101
303.600	-6.810	0.101
303.700	-22.728	0.101
303.800	-21.384	0.101
303.900	-22.009	0.101
304.000	-7.363	0.101
304.100	-9.357	0.101
304.200	-10.377	0.101
304.300	-20.037	0.101
304.400	-22.177	0.101
304.500	-19.450	0.101
304.600	-4.497	0.101
304.700	-7.487	0.101
304.800	-7.588	0.101
304.900	-7.784	0.101
305.000	-12.364	0.101
305.100	-18.553	0.101
305.200	-15.805	0.101
305.300	-12.096	0.101
305.400	-10.831	0.101
305.500	-18.540	0.101
305.600	-15.072	0.101
305.700	-15.543	0.101
305.800	-8.231	0.101
305.900	-13.301	0.101
306.000	-15.215	0.101
306.100	-10.318	0.101
306.200	-6.219	0.101
306.300	-9.213	0.101
306.400	-20.821	0.101
306.500	-17.367	0.101
306.600	3.389	0.101
306.700	-18.417	0.101
306.800	-10.749	0.101
306.900	-18.036	0.101
307.000	-7.758	0.101
307.100	-23.276	0.101
307.200	-12.740	0.101
307.300	-11.157	0.101
307.400	-19.381	0.101
307.500	-14.074	0.101
307.600	-1.849	0.101
307.700	-9.157	0.101
307.800	-18.254	0.101
307.900	-16.476	0.101
308.000	-15.582	0.101
308.100	-16.097	0.101
308.200	-15.586	0.101
308.300	-11.192	0.101
308.400	-6.794	0.101
308.500	-21.061	0.101
308.600	-9.929	0.101
308.700	-15.259	0.101
308.800	-11.809	0.101
308.900	-14.592	0.101
309.000	-10.179	0.101
309.100	-5.958	0.101
309.200	2.162	0.101
309.300	-9.262	0.101
309.400	-10.722	0.101
309.500	-13.580	0.101
309.600	-16.714	0.101
309.700	-25.643	0.101
309.800	-12.575	0.101
309.900	-15.764	0.101
310.000	-3.115	0.101
310.100	-8.757	0.101
310.200	-12.640	0.101
310.300	-8.810	0.101
310.400	-6.146	0.101
310.500	-9.041	0.101
310.600	-10.663	0.101
310.700	-14.174	0.101
310.800	-3.337	0.101
310.900	-14.530	0.101
311.000	-2.533	0.101
311.100	-12.018	0.101
311.200	-12.290	0.101
311.300	-25.520	0.101
311.400	-8.553	0.101
311.500	-8.495	0.101
311.600	-12.438	0.101
311.700	1.152	0.101
311.800	0.003	0.101
311.900	-15.329	0.101
312.000	-7.297	0.101
312.100	-20.102	0.101
312.200	-15.814	0.101
312.300	-10.674	0.101
312.400	-23.295	0.101
312.500	-2.069	0.101
312.600	-0.559	0.101
312.700	-14.152	0.101
312.800	-13.577	0.101
312.900	-12.879	0.101
313.000	-5.630	0.101
313.100	-6.370	0.101
313.200	-18.733	0.101
313.300	-17.381	0.101
313.400	-13.751	0.101
313.500	-16.949	0.101
313.600	-13.471	0.101
313.700	-3.649	0.101
313.800	-3.677	0.101
313.900	-12.743	0.101
314.000	-20.614	0.101
314.100	-9.189	0.101
314.200	-10.548	0.101
314.300	-15.654	0.101
314.400	-3.371	0.101
314.500	-6.334	0.101
314.600	-6.262	0.101
314.700	-4.640	0.101
314.800	-17.482	0.101
314.900	-11.783	0.101
315.000	-16.685	0.101
315.100	-7.506	0.101
315.200	-1.307	0.101
315.300	-11.147	0.101
315.400	-21.954	0.101
315.500	-15.341	0.101
315.600	-10.906	0.101
315.700	-5.812	0.101
315.800	-13.703	0.101
315.900	-12.961	0.101
316.000	-1.227	0.101
316.100	-7.857	0.101
316.200	-16.918	0.101
316.300	-14.451	0.101
316.400	-8.363	0.101
316.500	-14.510	0.101
316.600	-6.982	0.101
316.700	-1.227	0.101
316.800	-17.406	0.101
316.900	-7.089	0.101
317.000	-6.978	0.101
317.100	-13.417	0.101
317.200	-8.865	0.101
317.300	-13.299	0.101
317.400	-7.825	0.101
317.500	-11.186	0.101
317.600	-7.680	0.101
317.700	-14.161	0.101
317.800	-15.388	0.101
317.900	-3.458	0.101
318.000	-3.511	0.101
318.100	-3.676	0.101
318.200	-9.399	0.101
318.300	-12.403	0.101
318.400	-17.710	0.101
318.500	-16.088	0.101
318.600	-10.292	0.101
318.700	-9.953	0.101
318.800	-9.337	0.101
318.900	-16.005	0.101
319.000	-10.531	0.101
319.100	-16.492	0.101
319.200	-8.387	0.101
319.300	-5.257	0.101
319.400	-16.269	0.101
319.500	-4.267	0.101
319.600	-18.769	0.101
319.700	-11.841	0.101
319.800	-5.388	0.101
319.900	-5.299	0.101
320.000	-13.390	0.101
320.100	-7.775	0.101
320.200	-11.089	0.101
320.300	-16.136	0.101
320.400	-1.462	0.101
320.500	-14.386	0.101
320.600	-12.896	0.101
320.700	-8.381	0.101
320.800	-10.766	0.101
320.900	-19.363	0.101
321.000	-19.694	0.101
321.100	-4.859	0.101
321.200	-6.887	0.101
321.300	-14.519	0.101
321.400	-8.188	0.101
321.500	-17.022	0.101
321.600	-13.165	0.101
321.700	-13.925	0.101
321.800	-13.324	0.101
321.900	-8.971	0.101
322.000	-0.219	0.101
322.100	-17.254	0.101
322.200	-6.825	0.101
322.300	-11.904	0.101
322.400	-27.888	0.101
322.500	-18.412	0.101
322.600	4.690	0.101
322.700	-8.515	0.101
322.800	-19.170	0.101
322.900	-9.330	0.101
323.000	-12.225	0.101
323.100	-16.315	0.101
323.200	-9.737	0.101
323.300	-7.422	0.101
323.400	-19.508	0.101
323.500	-8.552	0.101
323.600	-18.284	0.101
323.700	-6.372	0.101
323.800	-16.721	0.101
323.900	-4.588	0.101
324.000	-11.928	0.101
324.100	-7.335	0.101
324.200	-19.627	0.101
324.300	-10.615	0.101
324.400	-4.120	0.101
324.500	-11.545	0.101
324.600	-14.818	0.101
324.700	-9.317	0.101
324.800	-14.277	0.101
324.900	-11.774	0.101
325.000	-11.745	0.101
325.100	-8.070	0.101
325.200	-11.473	0.101
325.300	-0.150	0.101
325.400	-11.341	0.101
325.500	-6.038	0.101
325.600	-12.993	0.101
325.700	-9.404	0.101
325.800	-6.747	0.101
325.900	-6.085	0.101
326.000	-18.088	0.101
326.100	-8.330	0.101
326.200	-10.161	0.101
326.300	-15.502	0.101
326.400	-19.648	0.101
326.500	-15.553	0.101
326.600	-19.970	0.101
326.700	-0.832	0.101
326.800	-2.784	0.101
326.900	-5.324	0.101
327.000	-16.809	0.101
327.100	-4.953	0.101
327.200	-3.182	0.101
327.300	-23.061	0.101
327.400	-15.037	0.101
327.500	-20.133	0.101
327.600	-3.326	0.101
327.700	-0.560	0.101
327.800	-3.524	0.101
327.900	-11.135	0.101
328.000	-9.710	0.101
328.100	-14.056	0.101
328.200	-5.560	0.101
328.300	-4.066	0.101
328.400	-13.471	0.101
328.500	-25.135	0.101
328.600	-0.673	0.101
328.700	-9.753	0.101
328.800	-16.664	0.101
328.900	-14.624	0.101
329.000	-10.474	0.101
329.100	-7.093	0.101
329.200	-9.170	0.101
329.300	-9.428	0.101
329.400	-10.872	0.101
329.500	-18.269	0.101
329.600	-10.566	0.101
329.700	-18.002	0.101
329.800	-13.123	0.101
329.900	-10.823	0.101
330.000	-18.371	0.101
330.100	-9.309	0.101
330.200	-9.944	0.101
330.300	-7.174	0.101
330.400	0.495	0.101
330.500	-10.337	0.101
330.600	-14.307	0.101
330.700	2.409	0.101
330.800	-10.090	0.101
330.900	14.743	0.101
331.000	-5.382	0.101
331.100	4.545	0.101
331.200	23.067	0.101
331.300	16.162	0.101
331.400	22.064	0.101
331.500	21.028	0.101
331.600	8.487	0.101
331.700	8.310	0.101
331.800	21.311	0.101
331.900	20.012	0.101
332.000	20.037	0.101
332.100	26.803	0.101
332.200	12.494	0.101
332.300	25.706	0.101
332.400	20.100	0.101
332.500	17.542	0.101
332.600	11.394	0.101
332.700	31.307	0.101
332.800	26.903	0.101
332.900	15.094	0.101
333.000	33.111	0.101
333.100	24.782	0.101
333.200	23.409	0.101
333.300	20.360	0.101
333.400	15.942	0.101
333.500	34.847	0.101
333.600	20.889	0.101
333.700	31.171	0.101
333.800	17.156	0.101
333.900	16.778	0.101
334.000	30.145	0.101
334.100	22.961	0.101
334.200	11.007	0.101
334.300	15.462	0.101
334.400	15.583	0.101
334.500	18.207	0.101
334.600	13.596	0.101
334.700	26.612	0.101
334.800	21.259	0.101
334.900	17.815	0.101
335.000	21.665	0.101
335.100	29.503	0.101
335.200	14.995	0.101
335.300	7.382	0.101
335.400	12.786	0.101
335.500	19.705	0.101
335.600	15.233	0.101
335.700	20.144	0.101
335.800	22.149	0.101
335.900	5.630	0.101
336.000	12.957	0.101
336.100	21.182	0.101
336.200	20.642	0.101
336.300	17.905	0.101
336.400	7.287	0.101
336.500	14.568	0.101
336.600	30.779	0.101
336.700	14.441	0.101
336.800	8.251	0.101
336.900	-1.838	0.101
337.000	5.908	0.101
337.100	17.044	0.101
337.200	25.093	0.101
337.300	15.680	0.101
337.400	15.874	0.101
337.500	6.994	0.101
337.600	11.066	0.101
337.700	20.548	0.101
337.800	4.842	0.101
337.900	19.782	0.101
338.000	21.015	0.101
338.100	13.335	0.101
338.200	24.981	0.101
338.300	14.068	0.101
338.400	23.886	0.101
338.500	20.218	0.101
338.600	20.176	0.101
338.700	10.921	0.101
338.800	12.243	0.101
338.900	24.541	0.101
339.000	15.383	0.101
339.100	10.598	0.101
339.200	19.149	0.101
339.300	18.189	0.101
339.400	24.727	0.101
339.500	15.673	0.101
339.600	9.930	0.101
339.700	21.788	0.101
339.800	19.386	0.101
339.900	20.500	0.101
340.000	17.148	0.101
340.100	29.410	0.101
340.200	29.612	0.101
340.300	36.452	0.101
340.400	7.315	0.101
340.500	18.875	0.101
340.600	13.869	0.101
340.700	30.745	0.101
340.800	25.403	0.101
340.900	26.293	0.101
341.000	18.709	0.101
341.100	22.157	0.101
341.200	7.955	0.101
341.300	32.450	0.101
341.400	24.087	0.101
341.500	24.992	0.101
341.600	12.048	0.101
341.700	23.472	0.101
341.800	29.142	0.101
341.900	28.699	0.101
342.000	20.524	0.101
342.100	20.819	0.101
342.200	17.722	0.101
342.300	29.125	0.101
342.400	29.805	0.101
342.500	20.765	0.101
342.600	21.433	0.101
342.700	32.601	0.101
342.800	15.811	0.101
342.900	35.011	0.101
343.000	24.611	0.101
343.100	26.558	0.101
343.200	17.342	0.101
343.300	26.936	0.101
343.400	18.794	0.101
343.500	25.457	0.101
343.600	27.715	0.101
343.700	39.345	0.101
343.800	40.117	0.101
343.900	31.550	0.101
344.000	25.875	0.101
344.100	28.149	0.101
344.200	22.744	0.101
344.300	30.369	0.101
344.400	34.905	0.101
344.500	32.329	0.101
344.600	29.243	0.101
344.700	33.593	0.101
344.800	28.424	0.101
344.900	20.962	0.101
345.000	34.583	0.101
345.100	30.107	0.101
345.200	32.851	0.101
345.300	30.457	0.101
345.400	34.730	0.101
345.500	34.769	0.101
345.600	32.469	0.101
345.700	35.996	0.101
345.800	36.737	0.101
345.900	36.817	0.101
346.000	32.646	0.101
346.100	32.115	0.101
346.200	30.659	0.101
346.300	31.778	0.101
346.400	20.913	0.101
346.500	38.766	0.101
346.600	36.729	0.101
346.700	41.368	0.101
346.800	31.314	0.101
346.900	32.621	0.101
347.000	46.899	0.101
347.100	24.769	0.101
347.200	28.884	0.101
347.300	28.283	0.101
347.400	37.317	0.101
347.500	41.291	0.101
347.600	45.109	0.101
347.700	42.229	0.101
347.800	33.242	0.101
347.900	33.640	0.101
348.000	32.554	0.101
348.100	32.399	0.101
348.200	42.428	0.101
348.300	28.655	0.101
348.400	33.832	0.101
348.500	35.304	0.101
348.600	48.657	0.101
348.700	26.836	0.101
348.800	40.327	0.101
348.900	29.068	0.101
349.000	34.274	0.101
349.100	44.293	0.101
349.200	36.127	0.101
349.300	41.610	0.101
349.400	36.418	0.101
349.500	38.310	0.101
349.600	44.175	0.101
349.700	39.461	0.101
349.800	34.860	0.101
349.900	36.962	0.101
350.000	34.825	0.101
350.100	29.786	0.101
350.200	42.926	0.101
350.300	42.385	0.101
350.400	37.303	0.101
350.500	29.753	0.101
350.600	34.261	0.101
350.700	27.607	0.101
350.800	25.767	0.101
350.900	28.102	0.101
351.000	28.645	0.101
351.100	28.404	0.101
351.200	34.430	0.101
351.300	25.736	0.101
351.400	36.057	0.101
351.500	35.736	0.101
351.600	39.563	0.101
351.700	33.043	0.101
351.800	42.258	0.101
351.900	34.954	0.101
352.000	32.082	0.101
352.100	22.429	0.101
352.200	35.357	0.101
352.300	30.061	0.101
352.400	38.429	0.101
352.500	35.167	0.101
352.600	25.695	0.101
352.700	25.062	0.101
352.800	36.332	0.101
352.900	39.927	0.101
353.000	38.139	0.101
353.100	31.725	0.101
353.200	38.128	0.101
353.300	34.474	0.101
353.400	37.047	0.101
353.500	30.148	0.101
353.600	40.096	0.101
353.700	29.120	0.101
353.800	38.840	0.101
353.900	36.049	0.101
354.000	29.041	0.101
354.100	38.337	0.101
354.200	27.671	0.101
354.300	23.217	0.101
354.400	35.497	0.101
354.500	34.245	0.101
354.600	30.501	0.101
354.700	36.390	0.101
354.800	46.175	0.101
354.900	24.833	0.101
355.000	34.750	0.101
355.100	23.247	0.101
355.200	37.884	0.101
355.300	26.971	0.101
355.400	38.143	0.101
355.500	26.984	0.101
355.600	31.185	0.101
355.700	34.623	0.101
355.800	32.831	0.101
355.900	18.864	0.101
356.000	32.754	0.101
356.100	30.685	0.101
356.200	30.909	0.101
356.300	39.521	0.101
356.400	34.112	0.101
356.500	32.478	0.101
356.600	27.572	0.101
356.700	28.887	0.101
356.800	28.963	0.101
356.900	22.315	0.101
357.000	32.610	0.101
357.100	38.573	0.101
357.200	30.745	0.101
357.300	26.014	0.101
357.400	23.952	0.101
357.500	28.489	0.101
357.600	29.422	0.101
357.700	24.939	0.101
357.800	34.190	0.101
357.900	33.213	0.101
358.000	31.589	0.101
358.100	32.975	0.101
358.200	37.632	0.101
358.300	25.032	0.101
358.400	21.619	0.101
358.500	33.073	0.101
358.600	29.903	0.101
358.700	36.219	0.101
358.800	39.400	0.101
358.900	34.625	0.101
359.000	30.282	0.101
359.100	16.054	0.101
359.200	41.773	0.101
359.300	29.831	0.101
359.400	40.568	0.101
359.500	37.752	0.101
359.600	25.930	0.101
359.700	24.314	0.101
359.800	41.376	0.101
359.900	23.558	0.101
360.000	28.900	0.101
360.100	25.084	0.101
360.200	31.060	0.101
360.300	21.437	0.101
360.400	38.718	0.101
360.500	31.338	0.101
360.600	25.529	0.101
360.700	35.326	0.101
360.800	36.801	0.101
360.900	31.102	0.101
361.000	16.387	0.101
361.100	21.407	0.101
361.200	26.415	0.101
361.300	37.335	0.101
361.400	40.633	0.101
361.500	29.167	0.101
361.600	36.336	0.101
361.700	25.982	0.101
361.800	39.324	0.101
361.900	24.256	0.101
362.000	32.084	0.101
362.100	22.813	0.101
362.200	28.787	0.101
362.300	34.766	0.101
362.400	30.074	0.101
362.500	29.674	0.101
362.600	32.987	0.101
362.700	32.220	0.101
362.800	32.119	0.101
362.900	25.464	0.101
363.000	41.041	0.101
363.100	28.381	0.101
363.200	37.384	0.101
363.300	25.613	0.101
363.400	26.919	0.101
363.500	39.824	0.101
363.600	22.174	0.101
363.700	19.348	0.101
363.800	37.069	0.101
363.900	33.257	0.101
364.000	40.073	0.101
364.100	31.434	0.101
364.200	37.729	0.101
364.300	33.252	0.101
364.400	30.317	0.101
364.500	13.292	0.101
364.600	33.341	0.101
364.700	34.982	0.101
364.800	24.142	0.101
364.900	30.969	0.101
365.000	36.514	0.101
365.100	28.607	0.101
365.200	32.422	0.101
365.300	44.297	0.101
365.400	33.196	0.101
365.500	28.382	0.101
365.600	37.279	0.101
365.700	23.289	0.101
365.800	23.635	0.101
365.900	22.817	0.101
366.000	27.546	0.101
366.100	26.463	0.101
366.200	27.057	0.101
366.300	25.579	0.101
366.400	36.503	0.101
366.500	25.274	0.101
366.600	28.932	0.101
366.700	28.250	0.101
366.800	27.546	0.101
366.900	39.182	0.101
367.000	32.549	0.101
367.100	18.504	0.101
367.200	21.098	0.101
367.300	32.939	0.101
367.400	33.959	0.101
367.500	23.970	0.101
367.600	36.586	0.101
367.700	37.265	0.101
367.800	42.788	0.101
367.900	28.508	0.101
368.000	26.463	0.101
368.100	25.126	0.101
368.200	28.336	0.101
368.300	32.219	0.101
368.400	33.478	0.101
368.500	34.268	0.101
368.600	32.026	0.101
368.700	24.361	0.101
368.800	27.757	0.101
368.900	33.556	0.101
369.000	31.853	0.101
369.100	22.317	0.101
369.200	12.983	0.101
369.300	20.635	0.101
369.400	24.266	0.101
369.500	28.975	0.101
369.600	23.622	0.101
369.700	32.579	0.101
369.800	30.520	0.101
369.900	22.285	0.101
370.000	28.927	0.101
370.100	21.636	0.101
370.200	26.044	0.101
370.300	25.721	0.101
370.400	25.060	0.101
370.500	30.619	0.101
370.600	38.280	0.101
370.700	29.342	0.101
370.800	18.187	0.101
370.900	29.474	0.101
371.000	36.776	0.101
371.100	27.428	0.101
371.200	24.992	0.101
371.300	25.655	0.101
371.400	27.588	0.101
371.500	22.622	0.101
371.600	40.297	0.101
371.700	26.321	0.101
371.800	21.893	0.101
371.900	34.993	0.101
372.000	34.675	0.101
372.100	35.266	0.101
372.200	23.509	0.101
372.300	31.091	0.101
372.400	24.680	0.101
372.500	25.513	0.101
372.600	20.073	0.101
372.700	21.346	0.101
372.800	23.234	0.101
372.900	31.530	0.101
373.000	34.088	0.101
373.100	36.575	0.101
373.200	28.488	0.101
373.300	32.474	0.101
373.400	36.749	0.101
373.500	21.365	0.101
373.600	22.500	0.101
373.700	21.254	0.101
373.800	35.882	0.101
373.900	24.623	0.101
374.000	24.798	0.101
374.100	27.317	0.101
374.200	24.970	0.101
374.300	26.280	0.101
374.400	34.872	0.101
374.500	32.545	0.101
374.600	30.576	0.101
374.700	18.976	0.101
374.800	22.611	0.101
374.900	13.908	0.101
375.000	34.531	0.101
375.100	30.557	0.101
375.200	38.465	0.101
375.300	37.623	0.101
375.400	29.325	0.101
375.500	34.883	0.101
375.600	30.314	0.101
375.700	25.806	0.101
375.800	26.434	0.101
375.900	30.202	0.101
376.000	26.152	0.101
376.100	28.604	0.101
376.200	29.848	0.101
376.300	23.989	0.101
376.400	25.116	0.101
376.500	33.549	0.101
376.600	21.579	0.101
376.700	17.766	0.101
376.800	31.638	0.101
376.900	20.014	0.101
377.000	20.698	0.101
377.100	29.307	0.101
377.200	22.232	0.101
377.300	35.810	0.101
377.400	28.844	0.101
377.500	29.296	0.101
377.600	28.391	0.101
377.700	33.076	0.101
377.800	30.021	0.101
377.900	22.036	0.101
378.000	34.188	0.101
378.100	28.357	0.101
378.200	29.003	0.101
378.300	31.734	0.101
378.400	32.654	0.101
378.500	30.621	0.101
378.600	18.517	0.101
378.700	18.078	0.101
378.800	31.505	0.101
378.900	32.895	0.101
379.000	29.493	0.101
379.100	24.471	0.101
379.200	20.098	0.101
379.300	30.655	0.101
379.400	21.939	0.101
379.500	21.281	0.101
379.600	31.398	0.101
379.700	30.717	0.101
379.800	23.062	0.101
379.900	24.581	0.101
380.000	35.543	0.101
380.100	23.664	0.101
380.200	21.478	0.101
380.300	23.697	0.101
380.400	31.923	0.101
380.500	30.043	0.101
380.600	24.486	0.101
380.700	34.245	0.101
380.800	28.459	0.101
380.900	35.750	0.101
381.000	26.290	0.101
381.100	30.797	0.101
381.200	19.226	0.101
381.300	25.552	0.101
381.400	28.534	0.101
381.500	20.450	0.101
381.600	27.438	0.101
381.700	25.172	0.101
381.800	25.590	0.101
381.900	34.581	0.101
382.000	13.136	0.101
382.100	33.047	0.101
382.200	23.526	0.101
382.300	28.949	0.101
382.400	26.499	0.101
382.500	36.633	0.101
382.600	32.301	0.101
382.700	26.199	0.101
382.800	23.985	0.101
382.900	24.745	0.101
383.000	28.790	0.101
383.100	25.114	0.101
383.200	34.631	0.101
383.300	21.789	0.101
383.400	26.304	0.101
383.500	35.995	0.101
383.600	28.895	0.101
383.700	34.591	0.101
383.800	19.531	0.101
383.900	12.138	0.101
384.000	20.755	0.101
384.100	27.591	0.101
384.200	24.802	0.101
384.300	31.395	0.101
384.400	36.391	0.101
384.500	19.487	0.101
384.600	28.276	0.101
384.700	37.264	0.101
384.800	24.298	0.101
384.900	22.775	0.101
385.000	24.569	0.101
385.100	28.694	0.101
385.200	26.120	0.101
385.300	29.103	0.101
385.400	18.982	0.101
385.500	33.251	0.101
385.600	40.727	0.101
385.700	33.937	0.101
385.800	25.202	0.101
385.900	30.255	0.101
386.000	8.991	0.101
386.100	20.932	0.101
386.200	30.824	0.101
386.300	22.212	0.101
386.400	29.970	0.101
386.500	42.151	0.101
386.600	32.992	0.101
386.700	26.341	0.101
386.800	25.266	0.101
386.900	26.322	0.101
387.000	27.429	0.101
387.100	20.375	0.101
387.200	25.154	0.101
387.300	29.190	0.101
387.400	29.459	0.101
387.500	28.666	0.101
387.600	16.228	0.101
387.700	20.528	0.101
387.800	25.551	0.101
387.900	23.705	0.101
388.000	29.259	0.101
388.100	23.344	0.101
388.200	25.166	0.101
388.300	23.649	0.101
388.400	27.126	0.101
388.500	30.846	0.101
388.600	26.337	0.101
388.700	30.494	0.101
388.800	13.130	0.101
388.900	30.184	0.101
389.000	28.992	0.101
389.100	22.930	0.101
389.200	26.620	0.101
389.300	30.890	0.101
389.400	26.773	0.101
389.500	29.177	0.101
389.600	22.341	0.101
389.700	28.314	0.101
389.800	29.738	0.101
389.900	25.937	0.101
390.000	24.988	0.101
390.100	25.704	0.101
390.200	29.636	0.101
390.300	27.378	0.101
390.400	28.722	0.101
390.500	18.147	0.101
390.600	17.807	0.101
390.700	8.708	0.101
390.800	2.106	0.101
390.900	17.804	0.101
391.000	3.810	0.101
391.100	7.187	0.101
391.200	-3.405	0.101
391.300	12.800	0.101
391.400	-6.599	0.101
391.500	-2.643	0.101
391.600	-10.105	0.101
391.700	-6.534	0.101
391.800	0.798	0.101
391.900	-6.636	0.101
392.000	-19.763	0.101
392.100	-7.323	0.101
392.200	-18.420	0.101
392.300	-19.207	0.101
392.400	-18.576	0.101
392.500	-6.802	0.101
392.600	-33.238	0.101
392.700	-19.010	0.101
392.800	-23.722	0.101
392.900	-27.672	0.101
393.000	-17.035	0.101
393.100	-22.351	0.101
393.200	-22.206	0.101
393.300	-40.999	0.101
393.400	-34.802	0.101
393.500	-29.710	0.101
393.600	-38.961	0.101
393.700	-35.968	0.101
393.800	-29.382	0.101
393.900	-34.020	0.101
394.000	-28.185	0.101
394.100	-33.251	0.101
394.200	-37.091	0.101
394.300	-32.291	0.101
394.400	-33.339	0.101
394.500	-45.530	0.101
394.600	-39.209	0.101
394.700	-23.557	0.101
394.800	-30.041	0.101
394.900	-33.439	0.101
395.000	-32.097	0.101
395.100	-33.986	0.101
395.200	-30.014	0.101
395.300	-34.381	0.101
395.400	-31.991	0.101
395.500	-29.996	0.101
395.600	-39.697	0.101
395.700	-36.125	0.101
395.800	-27.977	0.101
395.900	-25.243	0.101
396.000	-19.263	0.101
396.100	-27.432	0.101
396.200	-26.047	0.101
396.300	-27.107	0.101
396.400	-32.800	0.101
396.500	-33.762	0.101
396.600	-28.173	0.101
396.700	-7.952	0.101
396.800	-26.663	0.101
396.900	-25.086	0.101
397.000	-39.895	0.101
397.100	-34.391	0.101
397.200	-18.224	0.101
397.300	-23.201	0.101
397.400	-18.764	0.101
397.500	-32.401	0.101
397.600	-30.622	0.101
397.700	-23.024	0.101
397.800	-21.234	0.101
397.900	-18.835	0.101
398.000	-19.713	0.101
398.100	-16.094	0.101
398.200	-22.364	0.101
398.300	-15.990	0.101
398.400	-24.504	0.101
398.500	-32.607	0.101
398.600	-27.694	0.101
398.700	-24.134	0.101
398.800	-22.260	0.101
398.900	-12.398	0.101
399.000	-23.160	0.101
399.100	-16.654	0.101
399.200	-26.260	0.101
399.300	-11.637	0.101
399.400	-14.741	0.101
399.500	-10.961	0.101
399.600	-16.750	0.101
399.700	-27.481	0.101
399.800	-20.608	0.101
399.900	-13.738	0.101
400.000	-7.650	0.101
400.100	-12.032	0.101
400.200	-25.440	0.101
400.300	-16.743	0.101
400.400	-22.033	0.101
400.500	-21.589	0.101
400.600	-23.220	0.101
400.700	-17.734	0.101
400.800	-21.943	0.101
400.900	-28.613	0.101
401.000	-13.519	0.101
401.100	-20.353	0.101
401.200	-17.501	0.101
401.300	-24.485	0.101
401.400	-24.503	0.101
401.500	-12.925	0.101
401.600	-15.650	0.101
401.700	-13.762	0.101
401.800	-20.652	0.101
401.900	-18.733	0.101
402.000	-18.437	0.101
402.100	-5.539	0.101
402.200	-20.187	0.101
402.300	-9.640	0.101
402.400	-7.314	0.101
402.500	-14.794	0.101
402.600	-20.266	0.101
402.700	-31.193	0.101
402.800	-18.617	0.101
402.900	-25.103	0.101
403.000	-18.370	0.101
403.100	-18.570	0.101
403.200	-9.708	0.101
403.300	-2.544	0.101
403.400	-6.106	0.101
403.500	-21.616	0.101
403.600	-7.583	0.101
403.700	-13.871	0.101
403.800	-21.461	0.101
403.900	-16.983	0.101
404.000	-17.699	0.101
404.100	-21.009	0.101
404.200	-21.285	0.101
404.300	-10.623	0.101
404.400	-22.472	0.101
404.500	-15.748	0.101
404.600	-18.296	0.101
404.700	-7.370	0.101
404.800	-10.085	0.101
404.900	-11.125	0.101
405.000	-19.543	0.101
405.100	-19.614	0.101
405.200	-13.770	0.101
405.300	-18.489	0.101
405.400	-14.947	0.101
405.500	-12.318	0.101
405.600	-19.705	0.101
405.700	-15.378	0.101
405.800	-8.917	0.101
405.900	-15.113	0.101
406.000	-20.622	0.101
406.100	-11.566	0.101
406.200	-21.357	0.101
406.300	-10.398	0.101
406.400	-8.469	0.101
406.500	-12.060	0.101
406.600	-18.121	0.101
406.700	-16.919	0.101
406.800	-16.978	0.101
406.900	-11.728	0.101
407.000	-18.682	0.101
407.100	-21.581	0.101
407.200	-22.720	0.101
407.300	-17.429	0.101
407.400	-20.965	0.101
407.500	-2.190	0.101
407.600	-8.899	0.101
407.700	-13.287	0.101
407.800	-16.645	0.101
407.900	-10.723	0.101
408.000	-13.387	0.101
408.100	-14.599	0.101
408.200	-15.799	0.101
408.300	-24.224	0.101
408.400	-13.087	0.101
408.500	-9.269	0.101
408.600	-13.415	0.101
408.700	-5.361	0.101
408.800	-13.154	0.101
408.900	-25.672	0.101
409.000	-14.852	0.101
409.100	-22.797	0.101
409.200	-19.277	0.101
409.300	-14.449	0.101
409.400	-19.782	0.101
409.500	-17.277	0.101
409.600	-18.472	0.101
409.700	-9.261	0.101
409.800	-17.340	0.101
409.900	-6.033	0.101
410.000	-18.199	0.101
410.100	-23.314	0.101
410.200	-24.974	0.101
410.300	-11.274	0.101
410.400	-20.991	0.101
410.500	-21.489	0.101
410.600	-16.064	0.101
410.700	-13.898	0.101
410.800	-10.950	0.101
410.900	-16.965	0.101
411.000	-16.709	0.101
411.100	-14.869	0.101
411.200	-13.333	0.101
411.300	-12.295	0.101
411.400	-18.337	0.101
411.500	-18.127	0.101
411.600	-8.603	0.101
411.700	-15.943	0.101
411.800	-13.666	0.101
411.900	-19.983	0.101
412.000	-18.155	0.101
412.100	-13.832	0.101
412.200	-18.785	0.101
412.300	-13.548	0.101
412.400	-10.023	0.101
412.500	-19.062	0.101
412.600	-14.402	0.101
412.700	-18.338	0.101
412.800	-13.525	0.101
412.900	-17.003	0.101
413.000	-9.288	0.101
413.100	-26.445	0.101
413.200	-6.384	0.101
413.300	-18.322	0.101
413.400	-9.625	0.101
413.500	-17.333	0.101
413.600	-21.973	0.101
413.700	-32.584	0.101
413.800	-17.341	0.101
413.900	-19.356	0.101
414.000	-6.250	0.101
414.100	-5.636	0.101
414.200	-15.015	0.101
414.300	-20.815	0.101
414.400	-15.331	0.101
414.500	-26.015	0.101
414.600	-15.074	0.101
414.700	-19.107	0.101
414.800	-13.420	0.101
414.900	-8.311	0.101
415.000	-11.968	0.101
415.100	-13.873	0.101
415.200	-22.895	0.101
415.300	-12.431	0.101
415.400	-17.503	0.101
415.500	-17.134	0.101
415.600	-22.167	0.101
415.700	-7.314	0.101
415.800	-22.955	0.101
415.900	-11.084	0.101
416.000	-9.424	0.101
416.100	-8.575	0.101
416.200	-19.297	0.101
416.300	-16.967	0.101
416.400	-13.495	0.101
416.500	-22.667	0.101
416.600	-12.438	0.101
416.700	-6.087	0.101
416.800	-12.713	0.101
416.900	-22.876	0.101
417.000	-15.772	0.101
417.100	-23.854	0.101
417.200	-10.511	0.101
417.300	-13.913	0.101
417.400	-18.835	0.101
417.500	-17.359	0.101
417.600	-21.103	0.101
417.700	-14.057	0.101
417.800	-19.966	0.101
417.900	-23.008	0.101
418.000	-16.817	0.101
418.100	-19.943	0.101
418.200	-16.990	0.101
418.300	-8.604	0.101
418.400	-9.489	0.101
418.500	-17.128	0.101
418.600	-13.772	0.101
418.700	-20.350	0.101
418.800	-16.073	0.101
418.900	-13.233	0.101
419.000	-9.046	0.101
419.100	-18.428	0.101
419.200	-26.130	0.101
419.300	-17.130	0.101
419.400	0.613	0.101
419.500	-17.714	0.101
419.600	-20.120	0.101
419.700	-15.651	0.101
419.800	-23.270	0.101
419.900	-14.905	0.101
420.000	-21.581	0.101
420.100	-11.630	0.101
420.200	-20.957	0.101
420.300	-19.229	0.101
420.400	-15.087	0.101
420.500	-9.043	0.101
420.600	-10.152	0.101
420.700	-25.848	0.101
420.800	-12.485	0.101
420.900	-9.343	0.101
421.000	-15.088	0.101
421.100	-30.816	0.101
421.200	-21.890	0.101
421.300	-9.767	0.101
421.400	-18.882	0.101
421.500	-7.174	0.101
421.600	-8.632	0.101
421.700	-28.476	0.101
421.800	-15.551	0.101
421.900	-10.250	0.101
422.000	-23.439	0.101
422.100	-16.179	0.101
422.200	-11.671	0.101
422.300	-14.643	0.101
422.400	-21.827	0.101
422.500	-16.871	0.101
422.600	-15.948	0.101
422.700	-20.435	0.101
422.800	-18.197	0.101
422.900	-12.071	0.101
423.000	-19.208	0.101
423.100	-16.198	0.101
423.200	-22.551	0.101
423.300	-18.785	0.101
423.400	-13.803	0.101
423.500	-29.903	0.101
423.600	-15.817	0.101
423.700	-17.299	0.101
423.800	-20.618	0.101
423.900	-14.105	0.101
424.000	-5.656	0.101
424.100	-24.645	0.101
424.200	-15.105	0.101
424.300	-21.240	0.101
424.400	-7.538	0.101
424.500	-12.816	0.101
424.600	-8.280	0.101
424.700	-24.665	0.101
424.800	-10.316	0.101
424.900	-22.054	0.101
425.000	-22.154	0.101
425.100	-16.545	0.101
425.200	-16.999	0.101
425.300	-19.837	0.101
425.400	-12.190	0.101
425.500	-18.205	0.101
425.600	-16.964	0.101
425.700	-24.944	0.101
425.800	-10.678	0.101
425.900	-23.474	0.101
426.000	-8.783	0.101
426.100	-15.495	0.101
426.200	-16.641	0.101
426.300	-16.530	0.101
426.400	-4.367	0.101
426.500	-15.456	0.101
426.600	-15.976	0.101
426.700	-17.912	0.101
426.800	-23.154	0.101
426.900	-17.467	0.101
427.000	-15.540	0.101
427.100	-12.304	0.101
427.200	-15.450	0.101
427.300	-23.679	0.101
427.400	-18.130	0.101
427.500	-15.524	0.101
427.600	-19.161	0.101
427.700	-13.290	0.101
427.800	-17.969	0.101
427.900	-20.414	0.101
428.000	-22.494	0.101
428.100	-15.852	0.101
428.200	-12.623	0.101
428.300	-25.474	0.101
428.400	-21.627	0.101
428.500	-12.919	0.101
428.600	-22.837	0.101
428.700	-17.984	0.101
428.800	-13.073	0.101
428.900	-18.252	0.101
429.000	-24.608	0.101
429.100	-13.621	0.101
429.200	-23.971	0.101
429.300	-13.613	0.101
429.400	-16.506	0.101
429.500	-17.093	0.101
429.600	-21.022	0.101
429.700	-13.478	0.101
429.800	-7.293	0.101
429.900	-14.532	0.101
430.000	-4.829	0.101
430.100	-16.006	0.101
430.200	-25.994	0.101
430.300	-21.749	0.101
430.400	-20.501	0.101
430.500	-27.042	0.101
430.600	-25.201	0.101
430.700	-14.428	0.101
430.800	-1.267	0.101
430.900	-27.631	0.101
431.000	-18.635	0.101
431.100	-15.063	0.101
431.200	-28.440	0.101
431.300	-21.734	0.101
431.400	-2.479	0.101
431.500	-19.442	0.101
431.600	-27.194	0.101
431.700	-13.687	0.101
431.800	-11.419	0.101
431.900	-16.550	0.101
432.000	-26.613	0.101
432.100	-29.217	0.101
432.200	-11.256	0.101
432.300	-27.346	0.101
432.400	-19.134	0.101
432.500	-18.791	0.101
432.600	-10.021	0.101
432.700	-8.835	0.101
432.800	-12.279	0.101
432.900	-11.311	0.101
433.000	-27.740	0.101
433.100	-18.806	0.101
433.200	-7.116	0.101
433.300	-5.873	0.101
433.400	-14.661	0.101
433.500	-22.637	0.101
433.600	-22.513	0.101
433.700	-22.043	0.101
433.800	-18.916	0.101
433.900	-13.320	0.101
434.000	-10.863	0.101
434.100	-19.697	0.101
434.200	-24.888	0.101
434.300	-15.852	0.101
434.400	-12.743	0.101
434.500	-9.995	0.101
434.600	-11.623	0.101
434.700	-15.872	0.101
434.800	-25.781	0.101
434.900	-25.905	0.101
435.000	0.111	0.101
435.100	-11.058	0.101
435.200	-30.219	0.101
435.300	-21.041	0.101
435.400	-18.149	0.101
435.500	-14.405	0.101
435.600	-15.931	0.101
435.700	-11.771	0.101
435.800	-20.733	0.101
435.900	-21.741	0.101
436.000	-12.439	0.101
436.100	-16.353	0.101
436.200	-20.548	0.101
436.300	-17.590	0.101
436.400	-17.290	0.101
436.500	-19.299	0.101
436.600	-6.895	0.101
436.700	-17.582	0.101
436.800	-18.065	0.101
436.900	-10.551	0.101
437.000	-10.349	0.101
437.100	-14.012	0.101
437.200	-15.510	0.101
437.300	-25.241	0.101
437.400	-28.164	0.101
437.500	-12.671	0.101
437.600	-15.764	0.101
437.700	-11.963	0.101
437.800	-20.754	0.101
437.900	-15.217	0.101
438.000	-14.486	0.101
438.100	-24.719	0.101
438.200	-20.736	0.101
438.300	-15.983	0.101
438.400	-9.872	0.101
438.500	-12.091	0.101
438.600	-18.859	0.101
438.700	-9.605	0.101
438.800	-10.746	0.101
438.900	-14.356	0.101
439.000	-14.510	0.101
439.100	-22.378	0.101
439.200	-21.849	0.101
439.300	-12.985	0.101
439.400	-21.883	0.101
439.500	-12.863	0.101
439.600	-11.907	0.101
439.700	-12.882	0.101
439.800	-5.720	0.101
439.900	-18.804	0.101
440.000	-18.066	0.101
440.100	-14.672	0.101
440.200	-20.828	0.101
440.300	-16.654	0.101
440.400	-13.507	0.101
440.500	-15.187	0.101
440.600	-11.119	0.101
440.700	-8.758	0.101
440.800	-22.054	0.101
440.900	-20.895	0.101
441.000	-19.428	0.101
441.100	-10.908	0.101
441.200	-16.197	0.101
441.300	-14.861	0.101
441.400	-17.756	0.101
441.500	-17.603	0.101
441.600	-15.268	0.101
441.700	-12.918	0.101
441.800	-16.720	0.101
441.900	-18.994	0.101
442.000	-13.213	0.101
442.100	-15.411	0.101
442.200	-9.903	0.101
442.300	-22.926	0.101
442.400	-17.715	0.101
442.500	-9.888	0.101
442.600	-18.486	0.101
442.700	-14.988	0.101
442.800	-20.472	0.101
442.900	-8.657	0.101
443.000	-11.284	0.101
443.100	-12.449	0.101
443.200	-25.026	0.101
443.300	-17.794	0.101
443.400	-16.939	0.101
443.500	-5.560	0.101
443.600	-19.084	0.101
443.700	-8.631	0.101
443.800	-17.335	0.101
443.900	-23.104	0.101
444.000	-16.621	0.101
444.100	-14.420	0.101
444.200	-24.053	0.101
444.300	-13.826	0.101
444.400	-14.738	0.101
444.500	-6.343	0.101
444.600	-7.965	0.101
444.700	-9.906	0.101
444.800	-24.278	0.101
444.900	-10.395	0.101
445.000	-19.815	0.101
445.100	-15.500	0.101
445.200	-8.312	0.101
445.300	-17.199	0.101
445.400	-11.762	0.101
445.500	-30.388	0.101
445.600	-22.126	0.101
445.700	-12.280	0.101
445.800	-21.843	0.101
445.900	-14.587	0.101
446.000	-26.576	0.101
446.100	-10.444	0.101
446.200	-26.873	0.101
446.300	-17.582	0.101
446.400	-15.698	0.101
446.500	-17.652	0.101
446.600	-17.805	0.101
446.700	-14.798	0.101
446.800	-16.445	0.101
446.900	-9.586	0.101
447.000	-12.396	0.101
447.100	-13.062	0.101
447.200	-23.207	0.101
447.300	-18.230	0.101
447.400	-18.441	0.101
447.500	-19.775	0.101
447.600	-23.123	0.101
447.700	-4.099	0.101
447.800	-13.777	0.101
447.900	-7.695	0.101
448.000	-14.460	0.101
448.100	-25.562	0.101
448.200	-23.069	0.101
448.300	-4.389	0.101
448.400	-20.064	0.101
448.500	-8.072	0.101
448.600	-13.039	0.101
448.700	-14.526	0.101
448.800	-11.947	0.101
448.900	-20.309	0.101
449.000	-15.751	0.101
449.100	-22.900	0.101
449.200	-16.640	0.101
449.300	-13.518	0.101
449.400	-21.142	0.101
449.500	-15.546	0.101
449.600	-16.039	0.101
449.700	-12.593	0.101
449.800	-11.287	0.101
449.900	-8.065	0.101
450.000	-16.912	0.101
450.100	-8.978	0.101
450.200	-11.582	0.101
450.300	-19.711	0.101
450.400	-24.765	0.101
450.500	-11.430	0.101
450.600	-18.474	0.101
450.700	-8.542	0.101
450.800	-17.133	0.101
450.900	-15.665	0.101
451.000	-34.702	0.101
451.100	-19.629	0.101
451.200	-17.215	0.101
451.300	-8.157	0.101
451.400	-9.247	0.101
451.500	-11.807	0.101
451.600	-14.126	0.101
451.700	-21.793	0.101
451.800	-18.265	0.101
451.900	-19.581	0.101
452.000	-12.374	0.101
452.100	-15.244	0.101
452.200	-10.670	0.101
452.300	-11.153	0.101
452.400	-11.085	0.101
452.500	-7.344	0.101
452.600	-20.585	0.101
452.700	-14.272	0.101
452.800	-24.439	0.101
452.900	-21.139	0.101
453.000	-12.600	0.101
453.100	-8.891	0.101
453.200	-13.020	0.101
453.300	-13.708	0.101
453.400	-26.457	0.101
453.500	-4.685	0.101
453.600	-15.769	0.101
453.700	-18.573	0.101
453.800	-20.138	0.101
453.900	-13.843	0.101
454.000	-15.771	0.101
454.100	-9.322	0.101
454.200	-21.779	0.101
454.300	-7.359	0.101
454.400	-14.186	0.101
454.500	-6.859	0.101
454.600	-8.045	0.101
454.700	-23.312	0.101
454.800	-17.651	0.101
454.900	-18.752	0.101
455.000	-21.607	0.101
455.100	-15.777	0.101
455.200	-19.256	0.101
455.300	-10.990	0.101
455.400	-15.132	0.101
455.500	-8.766	0.101
455.600	-15.100	0.101
455.700	3.649	0.101
455.800	-11.442	0.101
455.900	-19.430	0.101
456.000	-15.902	0.101
456.100	-14.238	0.101
456.200	-22.204	0.101
456.300	-7.883	0.101
456.400	-9.279	0.101
456.500	-15.423	0.101
456.600	-17.520	0.101
456.700	-16.329	0.101
456.800	-14.558	0.101
456.900	-23.429	0.101
457.000	-20.275	0.101
457.100	-5.260	0.101
457.200	-20.256	0.101
457.300	-11.002	0.101
457.400	-13.071	0.101
457.500	-13.611	0.101
457.600	-20.209	0.101
457.700	-17.843	0.101
457.800	-15.752	0.101
457.900	-13.757	0.101
458.000	-11.809	0.101
458.100	-10.357	0.101
458.200	-15.224	0.101
458.300	-12.869	0.101
458.400	-12.993	0.101
458.500	-11.592	0.101
458.600	-5.466	0.101
458.700	-5.659	0.101
458.800	-9.708	0.101
458.900	-15.021	0.101
459.000	-16.676	0.101
459.100	-22.043	0.101
459.200	-18.130	0.101
459.300	-19.958	0.101
459.400	-15.630	0.101
459.500	-12.695	0.101
459.600	-16.892	0.101
459.700	-14.636	0.101
459.800	-12.339	0.101
459.900	-21.934	0.101
460.000	-7.666	0.101
460.100	-8.253	0.101
460.200	-13.141	0.101
460.300	-11.667	0.101
460.400	-9.189	0.101
460.500	-20.851	0.101
460.600	-5.254	0.101
460.700	-8.344	0.101
460.800	-17.662	0.101
460.900	-12.825	0.101
461.000	-15.673	0.101
461.100	-11.804	0.101
461.200	-13.938	0.101
461.300	-6.643	0.101
461.400	-12.173	0.101
461.500	-21.694	0.101
461.600	-13.425	0.101
461.700	-10.880	0.101
461.800	-12.067	0.101
461.900	-16.481	0.101
462.000	-8.927	0.101
462.100	-13.674	0.101
462.200	-22.950	0.101
462.300	-18.427	0.101
462.400	-12.334	0.101
462.500	-12.791	0.101
462.600	-15.795	0.101
462.700	-7.856	0.101
462.800	-11.373	0.101
462.900	-19.795	0.101
463.000	-18.745	0.101
463.100	-18.196	0.101
463.200	-13.799	0.101
463.300	-8.623	0.101
463.400	-8.225	0.101
463.500	-3.610	0.101
463.600	-12.918	0.101
463.700	-9.335	0.101
463.800	-11.534	0.101
463.900	-19.712	0.101
464.000	-15.120	0.101
464.100	-15.057	0.101
464.200	-16.185	0.101
464.300	-11.512	0.101
464.400	-0.577	0.101
464.500	-11.123	0.101
464.600	-15.137	0.101
464.700	-6.185	0.101
464.800	-7.644	0.101
464.900	-16.922	0.101
465.000	-14.160	0.101
465.100	-17.500	0.101
465.200	-18.343	0.101
465.300	-10.960	0.101
465.400	-13.727	0.101
465.500	-7.574	0.101
465.600	-1.432	0.101
465.700	-16.100	0.101
465.800	-13.635	0.101
465.900	-9.806	0.101
466.000	-21.060	0.101
466.100	-17.427	0.101
466.200	-5.927	0.101
466.300	-18.161	0.101
466.400	-28.499	0.101
466.500	-14.115	0.101
466.600	-12.518	0.101
466.700	-7.418	0.101
466.800	-0.431	0.101
466.900	-16.806	0.101
467.000	-14.729	0.101
467.100	-14.417	0.101
467.200	-10.445	0.101
467.300	-24.104	0.101
467.400	-2.674	0.101
467.500	-9.976	0.101
467.600	-14.941	0.101
467.700	-10.062	0.101
467.800	-7.781	0.101
467.900	-23.246	0.101
468.000	-18.030	0.101
468.100	-18.950	0.101
468.200	-14.568	0.101
468.300	-14.079	0.101
468.400	-15.603	0.101
468.500	-17.202	0.101
468.600	-7.779	0.101
468.700	-16.961	0.101
468.800	-20.482	0.101
468.900	-14.469	0.101
469.000	-15.266	0.101
469.100	-7.590	0.101
469.200	-17.309	0.101
469.300	-10.445	0.101
469.400	-2.322	0.101
469.500	-8.774	0.101
469.600	-13.360	0.101
469.700	-16.269	0.101
469.800	-10.688	0.101
469.900	-22.006	0.101
470.000	-6.234	0.101
470.100	-21.395	0.101
470.200	-2.818	0.101
470.300	-12.200	0.101
470.400	-9.458	0.101
470.500	-18.056	0.101
470.600	-13.837	0.101
470.700	-14.415	0.101
470.800	-20.182	0.101
470.900	-15.375	0.101
471.000	-10.989	0.101
471.100	-12.959	0.101
471.200	-10.848	0.101
471.300	-12.219	0.101
471.400	-5.987	0.101
471.500	-6.136	0.101
471.600	-15.125	0.101
471.700	-17.830	0.101
471.800	-5.054	0.101
471.900	-12.883	0.101
472.000	-12.400	0.101
472.100	-6.452	0.101
472.200	-6.303	0.101
472.300	-26.172	0.101
472.400	-13.003	0.101
472.500	-11.715	0.101
472.600	-9.178	0.101
472.700	-15.106	0.101
472.800	-14.821	0.101
472.900	-13.138	0.101
473.000	1.506	0.101
473.100	-4.486	0.101
473.200	-15.007	0.101
473.300	-16.931	0.101
473.400	-11.135	0.101
473.500	-12.802	0.101
473.600	-14.307	0.101
473.700	-6.682	0.101
473.800	-10.528	0.101
473.900	-12.493	0.101
474.000	-19.882	0.101
474.100	-17.067	0.101
474.200	-10.563	0.101
474.300	-10.529	0.101
474.400	-3.700	0.101
474.500	-17.439	0.101
474.600	-19.575	0.101
474.700	-16.215	0.101
474.800	-13.096	0.101
474.900	-15.703	0.101
475.000	-5.601	0.101
475.100	-9.220	0.101
475.200	-11.435	0.101
475.300	-12.810	0.101
475.400	-2.223	0.101
475.500	-9.302	0.101
475.600	-12.307	0.101
475.700	-16.674	0.101
475.800	-9.900	0.101
475.900	-11.162	0.101
476.000	-10.422	0.101
476.100	-13.725	0.101
476.200	-17.953	0.101
476.300	-6.316	0.101
476.400	-16.332	0.101
476.500	-7.869	0.101
476.600	-6.367	0.101
476.700	-14.562	0.101
476.800	-0.704	0.101
476.900	-20.786	0.101
477.000	-8.919	0.101
477.100	-17.273	0.101
477.200	-5.264	0.101
477.300	-22.561	0.101
477.400	-5.782	0.101
477.500	-14.413	0.101
477.600	-16.400	0.101
477.700	-14.066	0.101
477.800	-6.371	0.101
477.900	-12.927	0.101
478.000	-19.811	0.101
478.100	-13.634	0.101
478.200	-5.847	0.101
478.300	-12.784	0.101
478.400	-13.089	0.101
478.500	-11.819	0.101
478.600	-16.269	0.101
478.700	-17.659	0.101
478.800	-18.640	0.101
478.900	-13.117	0.101
479.000	-7.758	0.101
479.100	-11.663	0.101
479.200	-17.466	0.101
479.300	-8.442	0.101
479.400	-10.456	0.101
479.500	-9.405	0.101
479.600	-18.859	0.101
479.700	-8.857	0.101
479.800	-16.070	0.101
479.900	-8.154	0.101
480.000	-4.518	0.101
480.100	-23.225	0.101
480.200	-7.166	0.101
480.300	-11.205	0.101
480.400	-9.816	0.101
480.500	-10.261	0.101
480.600	-6.177	0.101
480.700	-17.323	0.101
480.800	5.458	0.101
480.900	-8.120	0.101
481.000	5.135	0.101
481.100	4.479	0.101
481.200	5.672	0.101
481.300	10.869	0.101
481.400	16.353	0.101
481.500	16.415	0.101
481.600	14.390	0.101
481.700	11.833	0.101
481.800	24.680	0.101
481.900	19.785	0.101
482.000	22.155	0.101
482.100	11.978	0.101
482.200	17.587	0.101
482.300	8.640	0.101
482.400	20.191	0.101
482.500	31.535	0.101
482.600	26.025	0.101
482.700	20.163	0.101
482.800	29.816	0.101
482.900	25.780	0.101
483.000	26.235	0.101
483.100	13.957	0.101
483.200	28.572	0.101
483.300	25.158	0.101
483.400	32.418	0.101
483.500	26.581	0.101
483.600	28.325	0.101
483.700	18.655	0.101
483.800	33.532	0.101
483.900	23.281	0.101
484.000	24.338	0.101
484.100	24.574	0.101
484.200	23.481	0.101
484.300	16.352	0.101
484.400	24.333	0.101
484.500	12.895	0.101
484.600	17.571	0.101
484.700	22.841	0.101
484.800	16.196	0.101
484.900	7.464	0.101
485.000	18.506	0.101
485.100	19.288	0.101
485.200	21.975	0.101
485.300	20.326	0.101
485.400	18.520	0.101
485.500	14.830	0.101
485.600	18.185	0.101
485.700	12.564	0.101
485.800	18.996	0.101
485.900	8.083	0.101
486.000	15.955	0.101
486.100	24.951	0.101
486.200	9.241	0.101
486.300	6.013	0.101
486.400	6.087	0.101
486.500	9.014	0.101
486.600	7.352	0.101
486.700	26.402	0.101
486.800	25.563	0.101
486.900	18.716	0.101
487.000	22.072	0.101
487.100	16.601	0.101
487.200	11.519	0.101
487.300	18.192	0.101
487.400	17.744	0.101
487.500	14.858	0.101
487.600	24.530	0.101
487.700	12.007	0.101
487.800	15.899	0.101
487.900	12.041	0.101
488.000	25.218	0.101
488.100	23.189	0.101
488.200	9.015	0.101
488.300	18.716	0.101
488.400	23.644	0.101
488.500	18.433	0.101
488.600	9.885	0.101
488.700	13.064	0.101
488.800	14.739	0.101
488.900	17.378	0.101
489.000	18.217	0.101
489.100	11.109	0.101
489.200	23.830	0.101
489.300	11.157	0.101
489.400	25.557	0.101
489.500	13.283	0.101
489.600	9.627	0.101
489.700	12.863	0.101
489.800	22.923	0.101
489.900	20.032	0.101
490.000	15.309	0.101
490.100	31.295	0.101
490.200	12.749	0.101
490.300	19.920	0.101
490.400	18.380	0.101
490.500	18.004	0.101
490.600	20.009	0.101
490.700	18.633	0.101
490.800	30.109	0.101
490.900	24.417	0.101
491.000	15.783	0.101
491.100	8.904	0.101
491.200	21.825	0.101
491.300	20.280	0.101
491.400	17.804	0.101
491.500	20.237	0.101
491.600	23.175	0.101
491.700	15.072	0.101
491.800	10.731	0.101
491.900	34.441	0.101
492.000	28.530	0.101
492.100	30.820	0.101
492.200	31.299	0.101
492.300	25.990	0.101
492.400	17.559	0.101
492.500	17.550	0.101
492.600	27.009	0.101
492.700	17.068	0.101
492.800	17.419	0.101
492.900	31.002	0.101
493.000	28.575	0.101
493.100	19.097	0.101
493.200	24.997	0.101
493.300	32.796	0.101
493.400	24.850	0.101
493.500	26.003	0.101
493.600	33.344	0.101
493.700	21.801	0.101
493.800	25.176	0.101
493.900	27.489	0.101
494.000	27.947	0.101
494.100	23.460	0.101
494.200	41.298	0.101
494.300	32.764	0.101
494.400	29.261	0.101
494.500	24.697	0.101
494.600	28.764	0.101
494.700	32.220	0.101
494.800	29.306	0.101
494.900	29.975	0.101
495.000	40.727	0.101
495.100	29.605	0.101
495.200	17.397	0.101
495.300	34.015	0.101
495.400	25.377	0.101
495.500	19.643	0.101
495.600	33.723	0.101
495.700	30.099	0.101
495.800	38.639	0.101
495.900	26.321	0.101
496.000	30.154	0.101
496.100	40.287	0.101
496.200	30.524	0.101
496.300	44.116	0.101
496.400	36.041	0.101
496.500	24.235	0.101
496.600	26.136	0.101
496.700	30.887	0.101
496.800	44.601	0.101
496.900	34.237	0.101
497.000	38.081	0.101
497.100	39.513	0.101
497.200	33.056	0.101
497.300	29.798	0.101
497.400	30.695	0.101
497.500	38.284	0.101
497.600	27.180	0.101
497.700	40.815	0.101
497.800	25.789	0.101
497.900	29.956	0.101
498.000	40.186	0.101
498.100	42.238	0.101
498.200	40.243	0.101
498.300	17.601	0.101
498.400	41.736	0.101
498.500	38.398	0.101
498.600	33.379	0.101
498.700	40.289	0.101
498.800	42.931	0.101
498.900	39.964	0.101
499.000	29.376	0.101
499.100	40.482	0.101
499.200	38.140	0.101
499.300	38.202	0.101
499.400	24.960	0.101
499.500	39.451	0.101
499.600	32.861	0.101
499.700	35.920	0.101
499.800	38.806	0.101
499.900	40.248	0.101
500.000	38.727	0.101
500.100	30.986	0.101
500.200	52.318	0.101
500.300	33.917	0.101
500.400	38.540	0.101
500.500	39.667	0.101
500.600	32.107	0.101
500.700	30.871	0.101
500.800	33.896	0.101
500.900	41.294	0.101
501.000	44.027	0.101
501.100	42.979	0.101
501.200	32.519	0.101
501.300	34.911	0.101
501.400	25.544	0.101
501.500	38.389	0.101
501.600	23.162	0.101
501.700	31.979	0.101
501.800	34.079	0.101
501.900	43.755	0.101
502.000	32.702	0.101
502.100	36.650	0.101
502.200	30.391	0.101
502.300	43.539	0.101
502.400	29.796	0.101
502.500	28.756	0.101
502.600	44.382	0.101
502.700	35.148	0.101
502.800	41.960	0.101
502.900	26.730	0.101
503.000	31.749	0.101
503.100	32.954	0.101
503.200	36.631	0.101
503.300	26.548	0.101
503.400	32.746	0.101
503.500	35.535	0.101
503.600	32.265	0.101
503.700	36.074	0.101
503.800	33.467	0.101
503.900	20.742	0.101
504.000	25.704	0.101
504.100	41.241	0.101
504.200	35.485	0.101
504.300	41.455	0.101
504.400	37.805	0.101
504.500	39.631	0.101
504.600	41.829	0.101
504.700	29.739	0.101
504.800	33.677	0.101
504.900	40.124	0.101
505.000	25.890	0.101
505.100	32.751	0.101
505.200	24.616	0.101
505.300	37.690	0.101
505.400	30.678	0.101
505.500	31.699	0.101
505.600	34.579	0.101
505.700	30.942	0.101
505.800	35.799	0.101
505.900	27.025	0.101
506.000	40.596	0.101
506.100	24.866	0.101
506.200	27.263	0.101
506.300	32.492	0.101
506.400	26.013	0.101
506.500	33.079	0.101
506.600	34.134	0.101
506.700	35.682	0.101
506.800	37.169	0.101
506.900	37.381	0.101
507.000	27.090	0.101
507.100	22.700	0.101
507.200	28.916	0.101
507.300	22.425	0.101
507.400	36.378	0.101
507.500	26.711	0.101
507.600	31.796	0.101
507.700	44.097	0.101
507.800	30.182	0.101
507.900	34.563	0.101
508.000	27.107	0.101
508.100	30.690	0.101
508.200	30.025	0.101
508.300	38.904	0.101
508.400	28.752	0.101
508.500	35.162	0.101
508.600	25.457	0.101
508.700	43.217	0.101
508.800	24.720	0.101
508.900	43.545	0.101
509.000	21.482	0.101
509.100	29.763	0.101
509.200	26.265	0.101
509.300	29.825	0.101
509.400	37.146	0.101
509.500	31.881	0.101
509.600	25.193	0.101
509.700	33.440	0.101
509.800	32.637	0.101
509.900	28.307	0.101
510.000	29.382	0.101
510.100	37.708	0.101
510.200	31.491	0.101
510.300	22.008	0.101
510.400	27.333	0.101
510.500	31.375	0.101
510.600	22.516	0.101
510.700	27.471	0.101
510.800	39.896	0.101
510.900	41.137	0.101
511.000	24.677	0.101
511.100	27.744	0.101
511.200	25.004	0.101
511.300	23.351	0.101
511.400	29.526	0.101
511.500	27.415	0.101
511.600	34.217	0.101
511.700	44.432	0.101
511.800	29.835	0.101
511.900	29.505	0.101
512.000	30.199	0.101
512.100	31.228	0.101
512.200	30.673	0.101
512.300	31.064	0.101
512.400	35.299	0.101
512.500	37.372	0.101
512.600	31.778	0.101
512.700	29.548	0.101
512.800	30.702	0.101
512.900	22.703	0.101
513.000	28.726	0.101
513.100	34.412	0.101
513.200	30.178	0.101
513.300	26.165	0.101
513.400	23.107	0.101
513.500	30.965	0.101
513.600	20.725	0.101
513.700	33.248	0.101
513.800	26.336	0.101
513.900	38.376	0.101
514.000	30.491	0.101
514.100	34.102	0.101
514.200	23.783	0.101
514.300	30.919	0.101
514.400	17.294	0.101
514.500	34.874	0.101
514.600	20.488	0.101
514.700	36.370	0.101
514.800	23.778	0.101
514.900	31.503	0.101
515.000	26.187	0.101
515.100	32.435	0.101
515.200	28.214	0.101
515.300	49.477	0.101
515.400	23.091	0.101
515.500	34.406	0.101
515.600	31.276	0.101
515.700	31.042	0.101
515.800	40.149	0.101
515.900	37.309	0.101
516.000	25.073	0.101
516.100	26.780	0.101
516.200	31.084	0.101
516.300	31.735	0.101
516.400	33.857	0.101
516.500	35.889	0.101
516.600	24.003	0.101
516.700	28.028	0.101
516.800	33.549	0.101
516.900	33.237	0.101
517.000	21.438	0.101
517.100	27.518	0.101
517.200	34.783	0.101
517.300	40.747	0.101
517.400	22.861	0.101
517.500	34.987	0.101
517.600	20.879	0.101
517.700	37.165	0.101
517.800	27.432	0.101
517.900	30.874	0.101
518.000	28.198	0.101
518.100	26.374	0.101
518.200	23.855	0.101
518.300	24.191	0.101
518.400	34.932	0.101
518.500	34.464	0.101
518.600	18.504	0.101
518.700	28.574	0.101
518.800	21.303	0.101
518.900	19.050	0.101
519.000	31.635	0.101
519.100	28.555	0.101
519.200	18.473	0.101
519.300	37.730	0.101
519.400	23.233	0.101
519.500	31.149	0.101
519.600	26.676	0.101
519.700	31.817	0.101
519.800	32.193	0.101
519.900	25.485	0.101
520.000	33.325	0.101
520.100	30.345	0.101
520.200	37.703	0.101
520.300	36.689	0.101
520.400	31.505	0.101
520.500	34.014	0.101
520.600	21.900	0.101
520.700	31.634	0.101
520.800	25.799	0.101
520.900	35.495	0.101
521.000	34.624	0.101
521.100	23.998	0.101
521.200	32.067	0.101
521.300	29.656	0.101
521.400	32.786	0.101
521.500	29.185	0.101
521.600	17.610	0.101
521.700	34.256	0.101
521.800	24.147	0.101
521.900	29.498	0.101
522.000	34.547	0.101
522.100	31.169	0.101
522.200	20.212	0.101
522.300	17.102	0.101
522.400	26.856	0.101
522.500	29.336	0.101
522.600	22.388	0.101
522.700	33.434	0.101
522.800	35.029	0.101
522.900	39.146	0.101
523.000	27.990	0.101
523.100	35.050	0.101
523.200	25.838	0.101
523.300	35.474	0.101
523.400	27.491	0.101
523.500	30.498	0.101
523.600	35.028	0.101
523.700	23.897	0.101
523.800	10.573	0.101
523.900	33.008	0.101
524.000	37.163	0.101
524.100	32.852	0.101
524.200	28.618	0.101
524.300	26.063	0.101
524.400	27.797	0.101
524.500	22.376	0.101
524.600	21.074	0.101
524.700	27.779	0.101
524.800	29.854	0.101
524.900	27.509	0.101
525.000	39.779	0.101
525.100	32.421	0.101
525.200	32.182	0.101
525.300	34.922	0.101
525.400	28.259	0.101
525.500	23.186	0.101
525.600	25.544	0.101
525.700	24.555	0.101
525.800	22.357	0.101
525.900	24.551	0.101
526.000	25.915	0.101
526.100	33.274	0.101
526.200	37.139	0.101
526.300	31.223	0.101
526.400	24.549	0.101
526.500	29.125	0.101
526.600	25.811	0.101
526.700	22.769	0.101
526.800	37.383	0.101
526.900	27.508	0.101
527.000	36.690	0.101
527.100	28.713	0.101
527.200	27.371	0.101
527.300	29.446	0.101
527.400	21.491	0.101
527.500	27.821	0.101
527.600	36.390	0.101
527.700	26.840	0.101
527.800	21.094	0.101
527.900	23.828	0.101
528.000	20.997	0.101
528.100	33.918	0.101
528.200	28.605	0.101
528.300	31.739	0.101
528.400	29.416	0.101
528.500	29.361	0.101
528.600	25.722	0.101
528.700	18.034	0.101
528.800	32.966	0.101
528.900	38.102	0.101
529.000	20.301	0.101
529.100	19.928	0.101
529.200	36.344	0.101
529.300	34.225	0.101
529.400	16.769	0.101
529.500	26.465	0.101
529.600	30.023	0.101
529.700	22.598	0.101
529.800	29.083	0.101
529.900	29.609	0.101
530.000	31.249	0.101
530.100	26.595	0.101
530.200	35.705	0.101
530.300	28.912	0.101
530.400	28.489	0.101
530.500	31.217	0.101
530.600	25.003	0.101
530.700	26.187	0.101
530.800	32.393	0.101
530.900	25.120	0.101
531.000	32.790	0.101
531.100	20.834	0.101
531.200	31.265	0.101
531.300	35.601	0.101
531.400	19.868	0.101
531.500	33.444	0.101
531.600	28.294	0.101
531.700	26.943	0.101
531.800	26.425	0.101
531.900	22.987	0.101
532.000	30.731	0.101
532.100	27.142	0.101
532.200	27.614	0.101
532.300	33.141	0.101
532.400	29.172	0.101
532.500	23.621	0.101
532.600	15.770	0.101
532.700	33.868	0.101
532.800	33.045	0.101
532.900	23.947	0.101
533.000	23.255	0.101
533.100	25.361	0.101
533.200	20.666	0.101
533.300	20.355	0.101
533.400	43.818	0.101
533.500	28.710	0.101
533.600	34.018	0.101
533.700	30.481	0.101
533.800	27.343	0.101
533.900	39.657	0.101
534.000	37.370	0.101
534.100	20.836	0.101
534.200	32.068	0.101
534.300	17.321	0.101
534.400	30.702	0.101
534.500	16.160	0.101
534.600	36.685	0.101
534.700	26.424	0.101
534.800	26.950	0.101
534.900	27.807	0.101
535.000	25.853	0.101
535.100	21.153	0.101
535.200	33.944	0.101
535.300	27.878	0.101
535.400	30.368	0.101
535.500	22.041	0.101
535.600	37.347	0.101
535.700	19.323	0.101
535.800	21.377	0.101
535.900	18.023	0.101
536.000	29.920	0.101
536.100	26.099	0.101
536.200	22.405	0.101
536.300	22.413	0.101
536.400	30.038	0.101
536.500	18.999	0.101
536.600	34.469	0.101
536.700	22.963	0.101
536.800	34.307	0.101
536.900	27.250	0.101
537.000	23.610	0.101
537.100	20.416	0.101
537.200	29.075	0.101
537.300	28.950	0.101
537.400	21.765	0.101
537.500	30.766	0.101
537.600	25.151	0.101
537.700	20.369	0.101
537.800	13.302	0.101
537.900	28.201	0.101
538.000	33.598	0.101
538.100	15.956	0.101
538.200	33.323	0.101
538.300	36.064	0.101
538.400	42.216	0.101
538.500	28.807	0.101
538.600	29.276	0.101
538.700	31.657	0.101
538.800	26.737	0.101
538.900	22.860	0.101
539.000	27.477	0.101
539.100	20.050	0.101
539.200	27.468	0.101
539.300	25.583	0.101
539.400	22.254	0.101
539.500	15.046	0.101
539.600	28.061	0.101
539.700	36.560	0.101
539.800	28.216	0.101
539.900	25.990	0.101
540.000	29.882	0.101
540.100	32.123	0.101
540.200	26.641	0.101
540.300	31.089	0.101
540.400	30.531	0.101
540.500	17.449	0.101
540.600	19.143	0.101
540.700	18.483	0.101
540.800	23.698	0.101
540.900	14.232	0.101
541.000	15.023	0.101
541.100	0.371	0.101
541.200	3.724	0.101
541.300	2.635	0.101
541.400	6.683	0.101
541.500	-9.526	0.101
541.600	-12.302	0.101
541.700	-21.968	0.101
541.800	-23.022	0.101
541.900	-15.882	0.101
542.000	-8.876	0.101
542.100	-13.522	0.101
542.200	-20.930	0.101
542.300	-25.050	0.101
542.400	-29.415	0.101
542.500	-22.128	0.101
542.600	-19.401	0.101
542.700	-17.918	0.101
542.800	-27.779	0.101
542.900	-34.415	0.101
543.000	-27.776	0.101
543.100	-29.391	0.101
543.200	-31.933	0.101
543.300	-32.146	0.101
543.400	-23.621	0.101
543.500	-34.726	0.101
543.600	-41.908	0.101
543.700	-39.435	0.101
543.800	-37.457	0.101
543.900	-26.287	0.101
544.000	-32.913	0.101
544.100	-30.502	0.101
544.200	-26.980	0.101
544.300	-37.763	0.101
544.400	-38.315	0.101
544.500	-40.579	0.101
544.600	-26.498	0.101
544.700	-49.105	0.101
544.800	-35.873	0.101
544.900	-35.836	0.101
545.000	-30.828	0.101
545.100	-42.309	0.101
545.200	-29.765	0.101
545.300	-28.670	0.101
545.400	-36.486	0.101
545.500	-39.741	0.101
545.600	-39.089	0.101
545.700	-26.921	0.101
545.800	-22.224	0.101
545.900	-36.428	0.101
546.000	-33.326	0.101
546.100	-27.039	0.101
546.200	-32.045	0.101
546.300	-37.508	0.101
546.400	-31.856	0.101
546.500	-32.661	0.101
546.600	-14.643	0.101
546.700	-36.593	0.101
546.800	-34.146	0.101
546.900	-23.146	0.101
547.000	-33.208	0.101
547.100	-32.647	0.101
547.200	-33.142	0.101
547.300	-25.838	0.101
547.400	-25.790	0.101
547.500	-19.406	0.101
547.600	-28.532	0.101
547.700	-20.064	0.101
547.800	-30.048	0.101
547.900	-38.336	0.101
548.000	-24.967	0.101
548.100	-26.295	0.101
548.200	-24.883	0.101
548.300	-21.847	0.101
548.400	-22.325	0.101
548.500	-13.532	0.101
548.600	-24.674	0.101
548.700	-34.392	0.101
548.800	-22.482	0.101
548.900	-30.117	0.101
549.000	-6.539	0.101
549.100	-29.062	0.101
549.200	-28.110	0.101
549.300	-25.047	0.101
549.400	-17.104	0.101
549.500	-16.958	0.101
549.600	-24.569	0.101
549.700	-23.341	0.101
549.800	-23.509	0.101
549.900	-12.170	0.101
550.000	-9.483	0.101
550.100	-14.394	0.101
550.200	-26.917	0.101
550.300	-19.322	0.101
550.400	-5.179	0.101
550.500	-24.125	0.101
550.600	-13.811	0.101
550.700	-22.096	0.101
550.800	-40.315	0.101
550.900	-14.848	0.101
551.000	-16.794	0.101
551.100	-24.059	0.101
551.200	-20.948	0.101
551.300	-15.834	0.101
551.400	-19.545	0.101
551.500	-11.948	0.101
551.600	-12.578	0.101
551.700	-16.221	0.101
551.800	-22.574	0.101
551.900	-26.882	0.101
552.000	-16.528	0.101
552.100	-18.230	0.101
552.200	-10.931	0.101
552.300	-18.928	0.101
552.400	-21.098	0.101
552.500	-26.473	0.101
552.600	-19.176	0.101
552.700	-18.406	0.101
552.800	-22.578	0.101
552.900	-17.460	0.101
553.000	-12.351	0.101
553.100	-14.687	0.101
553.200	-17.217	0.101
553.300	-22.308	0.101
553.400	-17.445	0.101
553.500	-8.395	0.101
553.600	-10.808	0.101
553.700	-16.983	0.101
553.800	-24.816	0.101
553.900	-19.538	0.101
554.000	-12.343	0.101
554.100	-15.651	0.101
554.200	-7.017	0.101
554.300	-17.751	0.101
554.400	-26.035	0.101
554.500	-17.539	0.101
554.600	-15.969	0.101
554.700	-22.568	0.101
554.800	-19.149	0.101
554.900	-16.016	0.101
555.000	-12.492	0.101
555.100	-13.345	0.101
555.200	-18.468	0.101
555.300	-16.861	0.101
555.400	-6.477	0.101
555.500	-15.280	0.101
555.600	-23.299	0.101
555.700	-13.995	0.101
555.800	-16.553	0.101
555.900	-15.610	0.101
556.000	-16.648	0.101
556.100	-7.570	0.101
556.200	-20.774	0.101
556.300	-26.030	0.101
556.400	-18.259	0.101
556.500	-16.697	0.101
556.600	-18.468	0.101
556.700	-11.164	0.101
556.800	-18.506	0.101
556.900	-17.371	0.101
557.000	-13.818	0.101
557.100	-12.169	0.101
557.200	-20.182	0.101
557.300	-16.498	0.101
557.400	-20.005	0.101
557.500	-18.893	0.101
557.600	-15.253	0.101
557.700	-17.062	0.101
557.800	-30.523	0.101
557.900	-19.765	0.101
558.000	-12.693	0.101
558.100	-24.541	0.101
558.200	-15.004	0.101
558.300	-17.468	0.101
558.400	-11.219	0.101
558.500	-10.009	0.101
558.600	-23.035	0.101
558.700	-13.165	0.101
558.800	-11.162	0.101
558.900	-21.868	0.101
559.000	-20.596	0.101
559.100	-19.192	0.101
559.200	-22.906	0.101
559.300	-17.769	0.101
559.400	-15.862	0.101
559.500	-19.339	0.101
559.600	-21.227	0.101
559.700	-29.215	0.101
559.800	-13.316	0.101
559.900	-21.163	0.101
560.000	-8.283	0.101
560.100	-11.571	0.101
560.200	-7.910	0.101
560.300	-21.919	0.101
560.400	-19.874	0.101
560.500	-13.894	0.101
560.600	-11.331	0.101
560.700	-11.554	0.101
560.800	-23.564	0.101
560.900	-12.277	0.101
561.000	-17.180	0.101
561.100	-18.871	0.101
561.200	-13.953	0.101
561.300	-13.065	0.101
561.400	-22.590	0.101
561.500	-16.424	0.101
561.600	-16.658	0.101
561.700	-15.267	0.101
561.800	-20.361	0.101
561.900	-19.520	0.101
562.000	-20.246	0.101
562.100	-16.611	0.101
562.200	-19.501	0.101
562.300	-14.149	0.101
562.400	-13.597	0.101
562.500	-9.525	0.101
562.600	-12.024	0.101
562.700	-21.533	0.101
562.800	-30.266	0.101
562.900	-17.048	0.101
563.000	-34.266	0.101
563.100	-9.708	0.101
563.200	-18.992	0.101
563.300	-11.123	0.101
563.400	-10.146	0.101
563.500	-19.021	0.101
563.600	-17.690	0.101
563.700	-18.752	0.101
563.800	-15.561	0.101
563.900	-26.346	0.101
564.000	-27.512	0.101
564.100	-11.716	0.101
564.200	-14.353	0.101
564.300	-11.923	0.101
564.400	-15.993	0.101
564.500	-18.834	0.101
564.600	-14.955	0.101
564.700	-21.199	0.101
564.800	-16.955	0.101
564.900	-21.280	0.101
565.000	-22.414	0.101
565.100	-18.691	0.101
565.200	-15.430	0.101
565.300	-13.489	0.101
565.400	-21.484	0.101
565.500	-12.612	0.101
565.600	-9.901	0.101
565.700	-13.508	0.101
565.800	-16.903	0.101
565.900	-15.265	0.101
566.000	-22.998	0.101
566.100	-21.165	0.101
566.200	-16.636	0.101
566.300	-4.502	0.101
566.400	-9.517	0.101
566.500	-22.105	0.101
566.600	-27.231	0.101
566.700	-20.958	0.101
566.800	-16.346	0.101
566.900	-14.605	0.101
567.000	-15.316	0.101
567.100	-15.103	0.101
567.200	-26.471	0.101
567.300	-14.515	0.101
567.400	-16.311	0.101
567.500	-8.696	0.101
567.600	-19.419	0.101
567.700	-24.890	0.101
567.800	-14.637	0.101
567.900	-14.816	0.101
568.000	-28.411	0.101
568.100	-25.638	0.101
568.200	-14.691	0.101
568.300	-2.713	0.101
568.400	-13.689	0.101
568.500	-10.680	0.101
568.600	-30.304	0.101
568.700	-31.451	0.101
568.800	-10.429	0.101
568.900	-16.777	0.101
569.000	-15.959	0.101
569.100	-14.063	0.101
569.200	-22.703	0.101
569.300	-14.750	0.101
569.400	-15.527	0.101
569.500	-16.282	0.101
569.600	-21.964	0.101
569.700	-23.669	0.101
569.800	-21.049	0.101
569.900	-19.127	0.101
570.000	-21.306	0.101
570.100	-14.692	0.101
570.200	-16.364	0.101
570.300	-14.336	0.101
570.400	-4.319	0.101
570.500	-7.982	0.101
570.600	-21.734	0.101
570.700	-26.687	0.101
570.800	-21.492	0.101
570.900	-17.247	0.101
571.000	-18.999	0.101
571.100	-19.591	0.101
571.200	-14.927	0.101
571.300	-14.467	0.101
571.400	-23.403	0.101
571.500	-11.434	0.101
571.600	-15.464	0.101
571.700	-22.504	0.101
571.800	-17.788	0.101
571.900	-19.036	0.101
572.000	-24.056	0.101
572.100	-23.855	0.101
572.200	-21.671	0.101
572.300	-22.761	0.101
572.400	-16.695	0.101
572.500	-12.726	0.101
572.600	-19.921	0.101
572.700	-16.399	0.101
572.800	-28.165	0.101
572.900	-30.697	0.101
573.000	-28.779	0.101
573.100	-9.473	0.101
573.200	-12.218	0.101
573.300	-12.405	0.101
573.400	-15.352	0.101
573.500	-11.809	0.101
573.600	-17.291	0.101
573.700	-25.286	0.101
573.800	-20.856	0.101
573.900	-9.956	0.101
574.000	-24.328	0.101
574.100	-22.461	0.101
574.200	-20.847	0.101
574.300	-9.771	0.101
574.400	-27.125	0.101
574.500	-16.957	0.101
574.600	-29.938	0.101
574.700	-8.856	0.101
574.800	-12.068	0.101
574.900	-15.034	0.101
575.000	-28.389	0.101
575.100	-22.323	0.101
575.200	-19.422	0.101
575.300	-16.872	0.101
575.400	-16.368	0.101
575.500	-11.049	0.101
575.600	-21.138	0.101
575.700	-9.286	0.101
575.800	-19.509	0.101
575.900	-26.255	0.101
576.000	-25.979	0.101
576.100	-23.055	0.101
576.200	-20.677	0.101
576.300	-19.473	0.101
576.400	-13.934	0.101
576.500	-18.987	0.101
576.600	-10.915	0.101
576.700	-12.688	0.101
576.800	-27.711	0.101
576.900	-15.564	0.101
577.000	-23.948	0.101
577.100	-11.365	0.101
577.200	-19.047	0.101
577.300	-17.469	0.101
577.400	-14.443	0.101
577.500	-14.615	0.101
577.600	-20.687	0.101
577.700	-15.546	0.101
577.800	-21.016	0.101
577.900	-15.198	0.101
578.000	-21.403	0.101
578.100	-15.528	0.101
578.200	-20.155	0.101
578.300	-14.235	0.101
578.400	-29.902	0.101
578.500	-24.127	0.101
578.600	-7.530	0.101
578.700	-17.685	0.101
578.800	-17.438	0.101
578.900	-16.467	0.101
579.000	-9.601	0.101
579.100	-13.103	0.101
579.200	-22.086	0.101
579.300	-7.047	0.101
579.400	-19.917	0.101
579.500	-19.175	0.101
579.600	-23.831	0.101
579.700	-20.498	0.101
579.800	-26.107	0.101
579.900	-12.654	0.101
580.000	-23.596	0.101
580.100	-8.365	0.101
580.200	-29.721	0.101
580.300	-14.575	0.101
580.400	-21.825	0.101
580.500	-22.854	0.101
580.600	-30.193	0.101
580.700	-16.011	0.101
580.800	-15.438	0.101
580.900	-24.125	0.101
581.000	-29.974	0.101
581.100	-14.360	0.101
581.200	-7.561	0.101
581.300	-11.778	0.101
581.400	-17.794	0.101
581.500	-18.622	0.101
581.600	-19.450	0.101
581.700	-14.298	0.101
581.800	-19.059	0.101
581.900	-10.612	0.101
582.000	-25.642	0.101
582.100	-19.730	0.101
582.200	-23.440	0.101
582.300	-11.577	0.101
582.400	-15.881	0.101
582.500	-17.529	0.101
582.600	-29.300	0.101
582.700	-17.975	0.101
582.800	-24.908	0.101
582.900	-23.327	0.101
583.000	-23.614	0.101
583.100	-15.597	0.101
583.200	-17.081	0.101
583.300	-19.529	0.101
583.400	-11.803	0.101
583.500	-21.265	0.101
583.600	-8.006	0.101
583.700	-11.059	0.101
583.800	-21.683	0.101
583.900	-20.498	0.101
584.000	-17.953	0.101
584.100	-28.010	0.101
584.200	-20.018	0.101
584.300	-17.879	0.101
584.400	-5.008	0.101
584.500	-13.545	0.101
584.600	-20.831	0.101
584.700	-19.544	0.101
584.800	-20.652	0.101
584.900	-20.972	0.101
585.000	-20.806	0.101
585.100	-23.802	0.101
585.200	-18.582	0.101
585.300	-20.538	0.101
585.400	-10.899	0.101
585.500	-20.177	0.101
585.600	-20.116	0.101
585.700	-18.625	0.101
585.800	-21.306	0.101
585.900	-15.936	0.101
586.000	-26.082	0.101
586.100	-16.859	0.101
586.200	-13.420	0.101
586.300	-23.661	0.101
586.400	-19.861	0.101
586.500	-14.217	0.101
586.600	-12.757	0.101
586.700	-19.862	0.101
586.800	-27.077	0.101
586.900	-16.302	0.101
587.000	-17.400	0.101
587.100	-8.000	0.101
587.200	-21.845	0.101
587.300	-18.737	0.101
587.400	-22.701	0.101
587.500	-4.668	0.101
587.600	-17.208	0.101
587.700	-17.682	0.101
587.800	-13.964	0.101
587.900	-18.572	0.101
588.000	-13.677	0.101
588.100	-26.262	0.101
588.200	-22.743	0.101
588.300	-19.437	0.101
588.400	-23.113	0.101
588.500	-24.921	0.101
588.600	-21.475	0.101
588.700	-16.607	0.101
588.800	-6.384	0.101
588.900	-23.261	0.101
589.000	-13.200	0.101
589.100	-15.619	0.101
589.200	-17.857	0.101
589.300	-13.429	0.101
589.400	-17.327	0.101
589.500	-30.515	0.101
589.600	-16.580	0.101
589.700	-16.964	0.101
589.800	-14.535	0.101
589.900	-10.100	0.101
590.000	-8.941	0.101
590.100	-19.855	0.101
590.200	-17.107	0.101
590.300	-22.160	0.101
590.400	-22.506	0.101
590.500	-17.894	0.101
590.600	-14.594	0.101
590.700	-15.739	0.101
590.800	-16.424	0.101
590.900	-13.471	0.101
591.000	-17.449	0.101
591.100	-13.915	0.101
591.200	-14.603	0.101
591.300	-15.016	0.101
591.400	-27.498	0.101
591.500	-22.674	0.101
591.600	-23.717	0.101
591.700	-20.551	0.101
591.800	-9.008	0.101
591.900	-15.908	0.101
592.000	-12.741	0.101
592.100	-17.970	0.101
592.200	-15.548	0.101
592.300	-11.351	0.101
592.400	-26.641	0.101
592.500	-11.343	0.101
592.600	-18.070	0.101
592.700	-20.089	0.101
592.800	-15.102	0.101
592.900	-21.492	0.101
593.000	-4.564	0.101
593.100	-25.696	0.101
593.200	-9.708	0.101
593.300	-7.460	0.101
593.400	-5.335	0.101
593.500	-21.910	0.101
593.600	-14.111	0.101
593.700	-24.264	0.101
593.800	-23.147	0.101
593.900	-24.272	0.101
594.000	-19.181	0.101
594.100	-6.893	0.101
594.200	-18.733	0.101
594.300	-15.926	0.101
594.400	-20.415	0.101
594.500	-28.050	0.101
594.600	-14.757	0.101
594.700	-8.742	0.101
594.800	-21.816	0.101
594.900	-17.248	0.101
595.000	-12.043	0.101
595.100	-19.330	0.101
595.200	-13.378	0.101
595.300	-18.644	0.101
595.400	-11.001	0.101
595.500	-10.619	0.101
595.600	-23.448	0.101
595.700	-22.374	0.101
595.800	-16.377	0.101
595.900	-22.375	0.101
596.000	-23.065	0.101
596.100	-14.414	0.101
596.200	-16.533	0.101
596.300	-19.492	0.101
596.400	-20.402	0.101
596.500	-16.585	0.101
596.600	-6.322	0.101
596.700	-16.887	0.101
596.800	0.939	0.101
596.900	-18.795	0.101
597.000	-9.015	0.101
597.100	-15.373	0.101
597.200	-19.724	0.101
597.300	-14.777	0.101
597.400	-27.511	0.101
597.500	-19.884	0.101
597.600	-15.416	0.101
597.700	-24.418	0.101
597.800	-15.579	0.101
597.900	-14.444	0.101
598.000	-12.849	0.101
598.100	-15.793	0.101
598.200	-4.253	0.101
598.300	-11.029	0.101
598.400	-12.203	0.101
598.500	-8.629	0.101
598.600	-15.612	0.101
598.700	-18.026	0.101
598.800	-17.174	0.101
598.900	-16.571	0.101
599.000	-22.734	0.101
599.100	-17.908	0.101
599.200	-14.419	0.101
599.300	-5.645	0.101
599.400	-5.208	0.101
599.500	-17.551	0.101
599.600	-22.008	0.101
599.700	-28.889	0.101
599.800	1.643	0.101
599.900	-20.071	0.101
600.000	-13.676	0.101
600.100	-23.784	0.101
600.200	-21.124	0.101
600.300	-17.582	0.101
600.400	-4.866	0.101
600.500	-7.392	0.101
600.600	-10.798	0.101
600.700	-19.504	0.101
600.800	-19.714	0.101
600.900	-19.629	0.101
601.000	-13.021	0.101
601.100	-22.588	0.101
601.200	-9.239	0.101
601.300	-13.514	0.101
601.400	-17.808	0.101
601.500	-12.005	0.101
601.600	-3.185	0.101
601.700	-11.653	0.101
601.800	-21.144	0.101
601.900	-22.700	0.101
602.000	-17.947	0.101
602.100	-23.283	0.101
602.200	-14.232	0.101
602.300	-23.860	0.101
602.400	-10.502	0.101
602.500	-5.712	0.101
602.600	-9.280	0.101
602.700	-16.048	0.101
602.800	-25.010	0.101
602.900	-18.727	0.101
603.000	-18.402	0.101
603.100	-7.854	0.101
603.200	-10.576	0.101
603.300	-19.217	0.101
603.400	-19.473	0.101
603.500	-25.676	0.101
603.600	-13.875	0.101
603.700	-23.384	0.101
603.800	-9.314	0.101
603.900	-21.108	0.101
604.000	-23.896	0.101
604.100	-11.633	0.101
604.200	7.188	0.101
604.300	-12.899	0.101
604.400	-21.976	0.101
604.500	-12.011	0.101
604.600	-16.471	0.101
604.700	-16.993	0.101
604.800	-3.754	0.101
604.900	-21.417	0.101
605.000	-9.025	0.101
605.100	-17.169	0.101
605.200	-3.988	0.101
605.300	-15.543	0.101
605.400	-11.906	0.101
605.500	-15.552	0.101
605.600	-12.777	0.101
605.700	-27.857	0.101
605.800	-13.257	0.101
605.900	-18.346	0.101
606.000	-8.625	0.101
606.100	-8.867	0.101
606.200	-19.342	0.101
606.300	-22.888	0.101
606.400	-12.393	0.101
606.500	-11.531	0.101
606.600	-15.877	0.101
606.700	-13.247	0.101
606.800	-16.147	0.101
606.900	-20.781	0.101
607.000	-18.085	0.101
607.100	-4.356	0.101
607.200	-6.715	0.101
607.300	-16.232	0.101
607.400	-10.675	0.101
607.500	-22.260	0.101
607.600	-12.650	0.101
607.700	-21.124	0.101
607.800	-28.193	0.101
607.900	-12.237	0.101
608.000	-6.296	0.101
608.100	-16.082	0.101
608.200	-8.358	0.101
608.300	-25.951	0.101
608.400	-12.884	0.101
608.500	-16.884	0.101
608.600	-14.552	0.101
608.700	-25.357	0.101
608.800	-8.959	0.101
608.900	-12.848	0.101
609.000	-14.095	0.101
609.100	-17.860	0.101
609.200	-14.475	0.101
609.300	-15.830	0.101
609.400	-9.401	0.101
609.500	-14.683	0.101
609.600	-12.627	0.101
609.700	-11.882	0.101
609.800	-18.964	0.101
609.900	-22.042	0.101
610.000	-13.626	0.101
610.100	-11.016	0.101
610.200	-15.820	0.101
610.300	-21.792	0.101
610.400	-13.387	0.101
610.500	-2.190	0.101
610.600	-12.166	0.101
610.700	-19.888	0.101
610.800	-17.334	0.101
610.900	-15.550	0.101
611.000	-9.157	0.101
611.100	-8.829	0.101
611.200	-16.037	0.101
611.300	-23.463	0.101
611.400	-10.081	0.101
611.500	-15.497	0.101
611.600	-13.359	0.101
611.700	-16.448	0.101
611.800	-12.592	0.101
611.900	-13.814	0.101
612.000	-19.715	0.101
612.100	-18.982	0.101
612.200	-21.097	0.101
612.300	-15.843	0.101
612.400	-18.552	0.101
612.500	-14.987	0.101
612.600	-13.363	0.101
612.700	-8.281	0.101
612.800	-4.125	0.101
612.900	-10.046	0.101
613.000	-6.825	0.101
613.100	-6.277	0.101
613.200	-12.617	0.101
613.300	-15.522	0.101
613.400	-17.474	0.101
613.500	-12.732	0.101
613.600	-15.676	0.101
613.700	-9.434	0.101
613.800	-21.944	0.101
613.900	-15.193	0.101
614.000	-13.442	0.101
614.100	-11.165	0.101
614.200	-15.402	0.101
614.300	-15.576	0.101
614.400	-12.227	0.101
614.500	-18.543	0.101
614.600	-18.179	0.101
614.700	-10.562	0.101
614.800	-7.224	0.101
614.900	-13.431	0.101
615.000	-22.057	0.101
615.100	-12.725	0.101
615.200	-13.012	0.101
615.300	-13.268	0.101
615.400	-21.718	0.101
615.500	-15.499	0.101
615.600	-7.598	0.101
615.700	-5.067	0.101
615.800	-11.546	0.101
615.900	-18.687	0.101
616.000	-10.174	0.101
616.100	-16.815	0.101
616.200	-17.026	0.101
616.300	-24.808	0.101
616.400	-9.116	0.101
616.500	-29.027	0.101
616.600	-4.367	0.101
616.700	-3.574	0.101
616.800	-15.454	0.101
616.900	-21.871	0.101
617.000	-2.483	0.101
617.100	-13.094	0.101
617.200	-8.343	0.101
617.300	-12.464	0.101
617.400	-12.967	0.101
617.500	-6.267	0.101
617.600	-17.572	0.101
617.700	-14.751	0.101
617.800	-12.618	0.101
617.900	-12.802	0.101
618.000	-5.192	0.101
618.100	-8.928	0.101
618.200	-26.064	0.101
618.300	-10.803	0.101
618.400	-5.518	0.101
618.500	-18.018	0.101
618.600	-18.794	0.101
618.700	-11.274	0.101
618.800	-17.525	0.101
618.900	-10.770	0.101
619.000	-8.609	0.101
619.100	-16.841	0.101
619.200	-17.596	0.101
619.300	-1.806	0.101
619.400	-14.510	0.101
619.500	-15.477	0.101
619.600	-15.042	0.101
619.700	-19.692	0.101
619.800	-13.156	0.101
619.900	-7.969	0.101
620.000	-16.688	0.101
620.100	-10.752	0.101
620.200	-25.586	0.101
620.300	-7.975	0.101
620.400	-10.272	0.101
620.500	-17.103	0.101
620.600	-14.723	0.101
620.700	-28.938	0.101
620.800	-27.678	0.101
620.900	-3.201	0.101
621.000	-7.531	0.101
621.100	-6.764	0.101
621.200	-20.434	0.101
621.300	-10.125	0.101
621.400	-6.625	0.101
621.500	-10.870	0.101
621.600	-26.215	0.101
621.700	-9.955	0.101
621.800	-14.278	0.101
621.900	-10.116	0.101
622.000	-9.265	0.101
622.100	-28.833	0.101
622.200	-15.886	0.101
622.300	-20.698	0.101
622.400	-7.463	0.101
622.500	-2.636	0.101
622.600	-21.475	0.101
622.700	-13.106	0.101
622.800	-10.034	0.101
622.900	-15.121	0.101
623.000	-17.138	0.101
623.100	-11.434	0.101
623.200	-12.585	0.101
623.300	-14.673	0.101
623.400	-12.505	0.101
623.500	-18.638	0.101
623.600	-14.059	0.101
623.700	-7.694	0.101
623.800	-17.695	0.101
623.900	-8.944	0.101
624.000	-7.310	0.101
624.100	-23.661	0.101
624.200	-12.875	0.101
624.300	-7.171	0.101
624.400	-13.335	0.101
624.500	-8.560	0.101
624.600	-18.553	0.101
624.700	-15.136	0.101
624.800	-15.201	0.101
624.900	-9.036	0.101
625.000	-23.368	0.101
625.100	-4.005	0.101
625.200	-8.273	0.101
625.300	-10.246	0.101
625.400	-10.261	0.101
625.500	-16.853	0.101
625.600	-13.083	0.101
625.700	-13.526	0.101
625.800	-14.809	0.101
625.900	-9.954	0.101
626.000	-12.142	0.101
626.100	-21.538	0.101
626.200	-27.592	0.101
626.300	-15.543	0.101
626.400	-9.750	0.101
626.500	-12.762	0.101
626.600	-6.630	0.101
626.700	-3.197	0.101
626.800	-13.662	0.101
626.900	-9.316	0.101
627.000	-16.929	0.101
627.100	-7.249	0.101
627.200	-20.206	0.101
627.300	-12.321	0.101
627.400	-18.802	0.101
627.500	-12.843	0.101
627.600	-6.796	0.101
627.700	-5.471	0.101
627.800	-8.447	0.101
627.900	-8.193	0.101
628.000	-16.784	0.101
628.100	-18.194	0.101
628.200	-8.224	0.101
628.300	-13.894	0.101
628.400	-18.387	0.101
628.500	-11.205	0.101
628.600	-15.575	0.101
628.700	-3.946	0.101
628.800	-5.576	0.101
628.900	-3.044	0.101
629.000	-20.279	0.101
629.100	-14.126	0.101
629.200	-20.659	0.101
629.300	-20.009	0.101
629.400	-6.814	0.101
629.500	-10.546	0.101
629.600	-15.078	0.101
629.700	-6.781	0.101
629.800	-12.671	0.101
629.900	-14.906	0.101
630.000	-21.730	0.101
630.100	-4.680	0.101
630.200	-12.081	0.101
630.300	-3.302	0.101
630.400	-23.407	0.101
630.500	-5.794	0.101
630.600	-4.054	0.101
630.700	-2.337	0.101
630.800	0.537	0.101
630.900	7.444	0.101
631.000	-0.658	0.101
631.100	7.370	0.101
631.200	6.129	0.101
631.300	1.938	0.101
631.400	4.914	0.101
631.500	16.386	0.101
631.600	13.704	0.101
631.700	9.500	0.101
631.800	23.418	0.101
631.900	29.811	0.101
632.000	21.459	0.101
632.100	15.165	0.101
632.200	19.852	0.101
632.300	15.917	0.101
632.400	18.170	0.101
632.500	18.188	0.101
632.600	21.318	0.101
632.700	20.257	0.101
632.800	26.250	0.101
632.900	37.925	0.101
633.000	16.087	0.101
633.100	22.206	0.101
633.200	27.573	0.101
633.300	36.991	0.101
633.400	27.258	0.101
633.500	25.660	0.101
633.600	26.810	0.101
633.700	29.004	0.101
633.800	16.913	0.101
633.900	27.169	0.101
634.000	26.309	0.101
634.100	30.230	0.101
634.200	23.856	0.101
634.300	31.395	0.101
634.400	20.992	0.101
634.500	30.555	0.101
634.600	11.783	0.101
634.700	26.295	0.101
634.800	26.609	0.101
634.900	32.596	0.101
635.000	20.266	0.101
635.100	7.857	0.101
635.200	9.221	0.101
635.300	15.385	0.101
635.400	6.795	0.101
635.500	16.053	0.101
635.600	18.722	0.101
635.700	21.032	0.101
635.800	11.040	0.101
635.900	12.339	0.101
636.000	15.688	0.101
636.100	17.952	0.101
636.200	13.652	0.101
636.300	11.153	0.101
636.400	15.521	0.101
636.500	11.241	0.101
636.600	7.010	0.101
636.700	21.377	0.101
636.800	33.696	0.101
636.900	19.082	0.101
637.000	7.372	0.101
637.100	20.504	0.101
637.200	7.002	0.101
637.300	2.841	0.101
637.400	16.688	0.101
637.500	15.514	0.101
637.600	18.404	0.101
637.700	15.933	0.101
637.800	15.691	0.101
637.900	15.181	0.101
638.000	7.388	0.101
638.100	30.235	0.101
638.200	17.457	0.101
638.300	26.150	0.101
638.400	15.448	0.101
638.500	14.996	0.101
638.600	16.815	0.101
638.700	30.315	0.101
638.800	20.251	0.101
638.900	16.196	0.101
639.000	15.972	0.101
639.100	22.967	0.101
639.200	15.921	0.101
639.300	20.015	0.101
639.400	16.963	0.101
639.500	15.238	0.101
639.600	16.210	0.101
639.700	23.187	0.101
639.800	17.616	0.101
639.900	17.295	0.101
640.000	10.320	0.101
640.100	12.721	0.101
640.200	19.510	0.101
640.300	23.792	0.101
640.400	23.648	0.101
640.500	21.799	0.101
640.600	24.971	0.101
640.700	17.668	0.101
640.800	21.081	0.101
640.900	29.372	0.101
641.000	29.939	0.101
641.100	16.345	0.101
641.200	13.094	0.101
641.300	23.538	0.101
641.400	20.004	0.101
641.500	14.597	0.101
641.600	22.286	0.101
641.700	22.073	0.101
641.800	10.067	0.101
641.900	20.177	0.101
642.000	30.412	0.101
642.100	23.803	0.101
642.200	19.418	0.101
642.300	14.650	0.101
642.400	21.896	0.101
642.500	25.747	0.101
642.600	17.779	0.101
642.700	21.103	0.101
642.800	32.114	0.101
642.900	16.962	0.101
643.000	13.016	0.101
643.100	33.157	0.101
643.200	22.913	0.101
643.300	23.484	0.101
643.400	16.843	0.101
643.500	20.281	0.101
643.600	30.671	0.101
643.700	31.694	0.101
643.800	30.398	0.101
643.900	35.520	0.101
644.000	17.956	0.101
644.100	26.032	0.101
644.200	23.766	0.101
644.300	26.842	0.101
644.400	33.800	0.101
644.500	19.332	0.101
644.600	24.742	0.101
644.700	29.839	0.101
644.800	21.109	0.101
644.900	29.643	0.101
645.000	34.399	0.101
645.100	36.228	0.101
645.200	38.442	0.101
645.300	26.047	0.101
645.400	22.234	0.101
645.500	36.659	0.101
645.600	27.902	0.101
645.700	23.018	0.101
645.800	27.046	0.101
645.900	39.067	0.101
646.000	29.786	0.101
646.100	34.059	0.101
646.200	28.094	0.101
646.300	33.220	0.101
646.400	35.393	0.101
646.500	46.824	0.101
646.600	31.599	0.101
646.700	21.803	0.101
646.800	21.617	0.101
646.900	35.986	0.101
647.000	37.017	0.101
647.100	32.420	0.101
647.200	40.168	0.101
647.300	25.046	0.101
647.400	32.848	0.101
647.500	40.502	0.101
647.600	27.520	0.101
647.700	29.857	0.101
647.800	35.340	0.101
647.900	32.836	0.101
648.000	36.018	0.101
648.100	35.133	0.101
648.200	35.700	0.101
648.300	32.949	0.101
648.400	36.403	0.101
648.500	32.698	0.101
648.600	24.262	0.101
648.700	27.424	0.101
648.800	36.639	0.101
648.900	42.508	0.101
649.000	41.480	0.101
649.100	36.029	0.101
649.200	39.856	0.101
649.300	38.591	0.101
649.400	39.220	0.101
649.500	29.301	0.101
649.600	36.612	0.101
649.700	49.542	0.101
649.800	33.540	0.101
649.900	30.817	0.101
650.000	32.393	0.101
650.100	47.643	0.101
650.200	46.585	0.101
650.300	44.557	0.101
650.400	29.349	0.101
650.500	26.535	0.101
650.600	33.552	0.101
650.700	32.960	0.101
650.800	27.673	0.101
650.900	38.534	0.101
651.000	29.268	0.101
651.100	39.848	0.101
651.200	38.743	0.101
651.300	36.195	0.101
651.400	43.148	0.101
651.500	31.969	0.101
651.600	36.216	0.101
651.700	27.219	0.101
651.800	34.901	0.101
651.900	39.533	0.101
652.000	40.934	0.101
652.100	43.755	0.101
652.200	40.939	0.101
652.300	33.690	0.101
652.400	28.355	0.101
652.500	30.550	0.101
652.600	32.173	0.101
652.700	34.738	0.101
652.800	37.826	0.101
652.900	33.953	0.101
653.000	30.935	0.101
653.100	33.306	0.101
653.200	43.852	0.101
653.300	46.140	0.101
653.400	30.271	0.101
653.500	41.138	0.101
653.600	25.071	0.101
653.700	28.006	0.101
653.800	38.745	0.101
653.900	33.142	0.101
654.000	29.559	0.101
654.100	23.338	0.101
654.200	41.490	0.101
654.300	25.668	0.101
654.400	34.385	0.101
654.500	38.625	0.101
654.600	31.628	0.101
654.700	31.068	0.101
654.800	37.771	0.101
654.900	39.637	0.101
655.000	34.863	0.101
655.100	32.976	0.101
655.200	33.505	0.101
655.300	28.119	0.101
655.400	33.370	0.101
655.500	35.213	0.101
655.600	33.154	0.101
655.700	33.426	0.101
655.800	34.296	0.101
655.900	32.370	0.101
656.000	29.147	0.101
656.100	30.237	0.101
656.200	35.297	0.101
656.300	35.187	0.101
656.400	42.591	0.101
656.500	36.075	0.101
656.600	30.901	0.101
656.700	19.749	0.101
656.800	33.089	0.101
656.900	29.811	0.101
657.000	37.692	0.101
657.100	38.512	0.101
657.200	33.340	0.101
657.300	30.119	0.101
657.400	39.453	0.101
657.500	27.918	0.101
657.600	32.637	0.101
657.700	40.282	0.101
657.800	47.232	0.101
657.900	42.126	0.101
658.000	21.423	0.101
658.100	29.610	0.101
658.200	35.341	0.101
658.300	33.555	0.101
658.400	40.473	0.101
658.500	20.749	0.101
658.600	28.047	0.101
658.700	33.109	0.101
658.800	31.728	0.101
658.900	38.166	0.101
659.000	37.002	0.101
659.100	44.184	0.101
659.200	38.819	0.101
659.300	20.386	0.101
659.400	33.187	0.101
659.500	35.362	0.101
659.600	30.044	0.101
659.700	27.702	0.101
659.800	31.296	0.101
659.900	24.191	0.101
660.000	24.158	0.101
660.100	33.163	0.101
660.200	36.757	0.101
660.300	20.288	0.101
660.400	27.738	0.101
660.500	32.892	0.101
660.600	31.920	0.101
660.700	33.999	0.101
660.800	41.848	0.101
660.900	27.712	0.101
661.000	13.816	0.101
661.100	30.204	0.101
661.200	34.532	0.101
661.300	31.115	0.101
661.400	29.430	0.101
661.500	32.474	0.101
661.600	28.777	0.101
661.700	28.552	0.101
661.800	36.626	0.101
661.900	41.715	0.101
662.000	38.234	0.101
662.100	17.923	0.101
662.200	32.699	0.101
662.300	27.771	0.101
662.400	35.078	0.101
662.500	23.984	0.101
662.600	44.740	0.101
662.700	26.275	0.101
662.800	30.486	0.101
662.900	25.428	0.101
663.000	32.367	0.101
663.100	33.137	0.101
663.200	26.325	0.101
663.300	31.327	0.101
663.400	37.018	0.101
663.500	25.948	0.101
663.600	34.002	0.101
663.700	24.258	0.101
663.800	30.179	0.101
663.900	35.002	0.101
664.000	29.350	0.101
664.100	25.075	0.101
664.200	23.801	0.101
664.300	26.993	0.101
664.400	32.231	0.101
664.500	20.161	0.101
664.600	30.178	0.101
664.700	36.708	0.101
664.800	37.878	0.101
664.900	27.700	0.101
665.000	35.152	0.101
665.100	35.765	0.101
665.200	35.309	0.101
665.300	32.856	0.101
665.400	26.413	0.101
665.500	23.894	0.101
665.600	30.456	0.101
665.700	33.466	0.101
665.800	31.581	0.101
665.900	18.039	0.101
666.000	19.977	0.101
666.100	26.416	0.101
666.200	39.587	0.101
666.300	29.270	0.101
666.400	16.063	0.101
666.500	31.924	0.101
666.600	35.588	0.101
666.700	20.989	0.101
666.800	33.548	0.101
666.900	19.778	0.101
667.000	27.206	0.101
667.100	39.945	0.101
667.200	19.207	0.101
667.300	33.612	0.101
667.400	32.089	0.101
667.500	29.762	0.101
667.600	25.795	0.101
667.700	27.341	0.101
667.800	34.409	0.101
667.900	30.225	0.101
668.000	30.842	0.101
668.100	30.423	0.101
668.200	31.478	0.101
668.300	27.219	0.101
668.400	16.459	0.101
668.500	42.412	0.101
668.600	26.797	0.101
668.700	27.712	0.101
668.800	32.377	0.101
668.900	39.025	0.101
669.000	18.828	0.101
669.100	33.846	0.101
669.200	31.667	0.101
669.300	28.156	0.101
669.400	29.919	0.101
669.500	33.668	0.101
669.600	35.628	0.101
669.700	27.279	0.101
669.800	34.034	0.101
669.900	30.874	0.101
670.000	32.106	0.101
670.100	25.060	0.101
670.200	30.302	0.101
670.300	18.318	0.101
670.400	35.937	0.101
670.500	31.750	0.101
670.600	29.607	0.101
670.700	25.765	0.101
670.800	18.567	0.101
670.900	23.249	0.101
671.000	36.883	0.101
671.100	28.788	0.101
671.200	23.052	0.101
671.300	31.915	0.101
671.400	35.437	0.101
671.500	24.680	0.101
671.600	19.577	0.101
671.700	30.690	0.101
671.800	32.581	0.101
671.900	32.104	0.101
672.000	11.933	0.101
672.100	35.983	0.101
672.200	32.104	0.101
672.300	31.601	0.101
672.400	23.949	0.101
672.500	25.462	0.101
672.600	27.460	0.101
672.700	21.930	0.101
672.800	34.318	0.101
672.900	21.486	0.101
673.000	37.140	0.101
673.100	28.509	0.101
673.200	34.280	0.101
673.300	22.693	0.101
673.400	25.817	0.101
673.500	25.014	0.101
673.600	34.919	0.101
673.700	19.105	0.101
673.800	26.344	0.101
673.900	29.777	0.101
674.000	31.191	0.101
674.100	29.884	0.101
674.200	29.402	0.101
674.300	31.958	0.101
674.400	34.949	0.101
674.500	20.998	0.101
674.600	30.340	0.101
674.700	20.809	0.101
674.800	21.078	0.101
674.900	18.710	0.101
675.000	26.719	0.101
675.100	33.051	0.101
675.200	27.095	0.101
675.300	33.508	0.101
675.400	37.418	0.101
675.500	21.956	0.101
675.600	35.284	0.101
675.700	29.993	0.101
675.800	34.698	0.101
675.900	32.861	0.101
676.000	36.569	0.101
676.100	31.338	0.101
676.200	15.627	0.101
676.300	17.745	0.101
676.400	18.830	0.101
676.500	34.091	0.101
676.600	34.491	0.101
676.700	30.836	0.101
676.800	39.729	0.101
676.900	18.053	0.101
677.000	29.414	0.101
677.100	28.390	0.101
677.200	20.093	0.101
677.300	36.440	0.101
677.400	28.466	0.101
677.500	34.425	0.101
677.600	18.641	0.101
677.700	27.098	0.101
677.800	26.564	0.101
677.900	26.826	0.101
678.000	28.008	0.101
678.100	34.821	0.101
678.200	35.312	0.101
678.300	26.643	0.101
678.400	24.863	0.101
678.500	29.931	0.101
678.600	19.590	0.101
678.700	35.572	0.101
678.800	30.102	0.101
678.900	34.274	0.101
679.000	25.217	0.101
679.100	31.350	0.101
679.200	25.364	0.101
679.300	23.088	0.101
679.400	34.093	0.101
679.500	32.967	0.101
679.600	21.091	0.101
679.700	39.463	0.101
679.800	39.549	0.101
679.900	31.544	0.101
680.000	41.438	0.101
680.100	26.777	0.101
680.200	20.403	0.101
680.300	15.828	0.101
680.400	20.527	0.101
680.500	19.192	0.101
680.600	31.675	0.101
680.700	24.159	0.101
680.800	27.960	0.101
680.900	27.035	0.101
681.000	25.561	0.101
681.100	29.170	0.101
681.200	31.267	0.101
681.300	30.497	0.101
681.400	23.240	0.101
681.500	21.151	0.101
681.600	18.101	0.101
681.700	21.968	0.101
681.800	40.802	0.101
681.900	30.625	0.101
682.000	14.495	0.101
682.100	39.769	0.101
682.200	24.985	0.101
682.300	26.488	0.101
682.400	22.655	0.101
682.500	25.566	0.101
682.600	35.341	0.101
682.700	33.549	0.101
682.800	26.350	0.101
682.900	27.347	0.101
683.000	26.670	0.101
683.100	30.234	0.101
683.200	33.971	0.101
683.300	31.992	0.101
683.400	17.205	0.101
683.500	28.381	0.101
683.600	34.204	0.101
683.700	30.442	0.101
683.800	21.384	0.101
683.900	29.128	0.101
684.000	26.951	0.101
684.100	37.653	0.101
684.200	29.178	0.101
684.300	24.418	0.101
684.400	30.273	0.101
684.500	28.675	0.101
684.600	28.552	0.101
684.700	27.098	0.101
684.800	22.500	0.101
684.900	27.314	0.101
685.000	27.947	0.101
685.100	35.923	0.101
685.200	28.122	0.101
685.300	31.053	0.101
685.400	22.327	0.101
685.500	36.413	0.101
685.600	29.507	0.101
685.700	32.142	0.101
685.800	26.398	0.101
685.900	23.370	0.101
686.000	23.273	0.101
686.100	33.958	0.101
686.200	32.156	0.101
686.300	28.081	0.101
686.400	27.107	0.101
686.500	31.406	0.101
686.600	25.282	0.101
686.700	30.018	0.101
686.800	30.113	0.101
686.900	21.268	0.101
687.000	22.807	0.101
687.100	32.658	0.101
687.200	37.131	0.101
687.300	24.946	0.101
687.400	27.837	0.101
687.500	23.956	0.101
687.600	26.966	0.101
687.700	17.664	0.101
687.800	16.016	0.101
687.900	25.047	0.101
688.000	27.990	0.101
688.100	30.966	0.101
688.200	29.761	0.101
688.300	33.366	0.101
688.400	29.478	0.101
688.500	24.491	0.101
688.600	28.799	0.101
688.700	27.992	0.101
688.800	30.782	0.101
688.900	35.039	0.101
689.000	21.454	0.101
689.100	28.353	0.101
689.200	28.637	0.101
689.300	31.562	0.101
689.400	27.021	0.101
689.500	19.470	0.101
689.600	27.967	0.101
689.700	22.517	0.101
689.800	20.533	0.101
689.900	25.689	0.101
690.000	27.176	0.101
690.100	27.335	0.101
690.200	18.157	0.101
690.300	37.220	0.101
690.400	31.559	0.101
690.500	33.913	0.101
690.600	29.596	0.101
690.700	26.492	0.101
690.800	15.600	0.101
690.900	13.415	0.101
691.000	19.296	0.101
691.100	18.157	0.101
691.200	9.070	0.101
691.300	4.243	0.101
691.400	-5.072	0.101
691.500	-10.725	0.101
691.600	-6.540	0.101
691.700	-1.794	0.101
691.800	-15.988	0.101
691.900	-10.654	0.101
692.000	-18.620	0.101
692.100	-20.068	0.101
692.200	-16.925	0.101
692.300	-15.853	0.101
692.400	-18.248	0.101
692.500	-19.826	0.101
692.600	-34.982	0.101
692.700	-26.193	0.101
692.800	-30.361	0.101
692.900	-30.423	0.101
693.000	-26.768	0.101
693.100	-28.993	0.101
693.200	-39.347	0.101
693.300	-26.195	0.101
693.400	-42.358	0.101
693.500	-31.958	0.101
693.600	-27.570	0.101
693.700	-38.224	0.101
693.800	-30.897	0.101
693.900	-42.637	0.101
694.000	-41.989	0.101
694.100	-36.090	0.101
694.200	-33.439	0.101
694.300	-32.518	0.101
694.400	-32.224	0.101
694.500	-32.913	0.101
694.600	-39.908	0.101
694.700	-33.498	0.101
694.800	-41.008	0.101
694.900	-29.646	0.101
695.000	-33.702	0.101
695.100	-40.206	0.101
695.200	-38.404	0.101
695.300	-27.806	0.101
695.400	-40.081	0.101
695.500	-31.193	0.101
695.600	-30.118	0.101
695.700	-29.065	0.101
695.800	-44.694	0.101
695.900	-35.453	0.101
696.000	-24.527	0.101
696.100	-22.559	0.101
696.200	-29.367	0.101
696.300	-32.825	0.101
696.400	-35.127	0.101
696.500	-33.066	0.101
696.600	-37.444	0.101
696.700	-31.185	0.101
696.800	-29.023	0.101
696.900	-26.367	0.101
697.000	-26.467	0.101
697.100	-30.911	0.101
697.200	-41.523	0.101
697.300	-29.966	0.101
697.400	-33.631	0.101
697.500	-28.263	0.101
697.600	-26.189	0.101
697.700	-28.177	0.101
697.800	-27.220	0.101
697.900	-30.375	0.101
698.000	-32.665	0.101
698.100	-19.095	0.101
698.200	-26.984	0.101
698.300	-26.443	0.101
698.400	-27.348	0.101
698.500	-13.115	0.101
698.600	-15.454	0.101
698.700	-22.060	0.101
698.800	-29.056	0.101
698.900	-27.104	0.101
699.000	-24.191	0.101
699.100	-17.765	0.101
699.200	-21.103	0.101
699.300	-20.450	0.101
699.400	-19.378	0.101
699.500	-22.678	0.101
699.600	-33.459	0.101
699.700	-23.528	0.101
699.800	-23.450	0.101
699.900	-5.282	0.101
700.000	-12.144	0.101
700.100	-13.537	0.101
700.200	-21.588	0.101
700.300	-20.568	0.101
700.400	-19.717	0.101
700.500	-19.189	0.101
700.600	-18.691	0.101
700.700	-16.208	0.101
700.800	-23.885	0.101
700.900	-15.352	0.101
701.000	-34.182	0.101
701.100	-16.775	0.101
701.200	-5.537	0.101
701.300	-33.886	0.101
701.400	-26.572	0.100
701.500	-24.720	0.100
701.600	-20.629	0.100
701.700	-13.559	0.100
701.800	-14.197	0.100
701.900	-14.125	0.100
702.000	-22.082	0.100
702.100	-15.090	0.100
702.200	-18.659	0.100
702.300	-8.684	0.100
702.400	-27.323	0.100
702.500	-19.315	0.100
702.600	-24.389	0.100
702.700	-22.986	0.100
702.800	-21.228	0.100
702.900	-14.251	0.100
703.000	-18.988	0.100
703.100	-14.050	0.100
703.200	-20.637	0.100
703.300	-4.920	0.100
703.400	-23.764	0.100
703.500	-20.548	0.100
703.600	-23.241	0.100
703.700	-7.382	0.100
703.800	-19.347	0.100
703.900	-19.495	0.100
704.000	-23.616	0.100
704.100	-9.341	0.100
704.200	-13.763	0.100
704.300	-10.072	0.100
704.400	-15.624	0.100
704.500	-26.936	0.100
704.600	-18.684	0.100
704.700	-17.213	0.100
704.800	-13.111	0.100
704.900	-24.341	0.100
705.000	-17.078	0.100
705.100	-9.440	0.100
705.200	-9.170	0.100
705.300	-25.457	0.100
705.400	-23.317	0.100
705.500	-17.311	0.100
705.600	-12.812	0.100
705.700	-14.581	0.100
705.800	-12.605	0.100
705.900	-16.080	0.100
706.000	-12.649	0.100
706.100	-12.815	0.100
706.200	-21.042	0.100
706.300	-16.297	0.100
706.400	-13.801	0.100
706.500	-19.747	0.100
706.600	-26.708	0.100
706.700	-12.148	0.100
706.800	-17.143	0.100
706.900	-22.610	0.100
707.000	-24.143	0.100
707.100	-22.856	0.100
707.200	-14.244	0.100
707.300	-27.709	0.100
707.400	-21.437	0.100
707.500	-10.839	0.100
707.600	-14.647	0.100
707.700	-13.001	0.100
707.800	-24.849	0.100
707.900	-21.038	0.100
708.000	-16.819	0.100
708.100	-16.892	0.100
708.200	-20.196	0.100
708.300	-8.263	0.100
708.400	-26.126	0.100
708.500	-12.927	0.100
708.600	-12.040	0.100
708.700	-23.052	0.100
708.800	-30.684	0.100
708.900	-21.879	0.100
709.000	-21.379	0.100
709.100	-19.994	0.100
709.200	-18.461	0.100
709.300	-26.924	0.100
709.400	-22.986	0.100
709.500	-20.490	0.100
709.600	-16.997	0.100
709.700	-13.889	0.100
709.800	-22.088	0.100
709.900	-13.131	0.100
710.000	-14.469	0.100
710.100	-24.776	0.100
710.200	-25.430	0.100
710.300	-19.106	0.100
710.400	-13.564	0.100
710.500	-30.097	0.100
710.600	-16.785	0.100
710.700	-14.508	0.100
710.800	-10.712	0.100
710.900	-21.530	0.100
711.000	-26.898	0.100
711.100	-13.770	0.100
711.200	-20.881	0.100
711.300	-13.967	0.100
711.400	-18.416	0.100
711.500	-17.863	0.100
711.600	-18.764	0.100
711.700	-20.289	0.100
711.800	-11.517	0.100
711.900	-20.157	0.100
712.000	-14.528	0.100
712.100	-16.324	0.100
712.200	-8.092	0.100
712.300	-7.527	0.100
712.400	-18.494	0.100
712.500	-28.939	0.100
712.600	-18.208	0.100
712.700	-21.029	0.100
712.800	-17.002	0.100
712.900	-20.834	0.100
713.000	-15.130	0.100
713.100	-23.167	0.100
713.200	-23.882	0.100
713.300	-26.896	0.100
713.400	-13.918	0.100
713.500	-17.350	0.100
713.600	-21.058	0.100
713.700	-17.918	0.100
713.800	-16.724	0.100
713.900	-21.783	0.100
714.000	-21.840	0.100
714.100	-13.329	0.100
714.200	-19.947	0.100
714.300	-21.831	0.100
714.400	-20.819	0.100
714.500	-29.407	0.100
714.600	-19.124	0.100
714.700	-24.490	0.100
714.800	-20.434	0.100
714.900	-18.775	0.100
715.000	-10.180	0.100
715.100	-17.853	0.100
715.200	-18.545	0.100
715.300	-12.911	0.100
715.400	-11.787	0.100
715.500	-29.940	0.100
715.600	-14.580	0.100
715.700	-16.661	0.100
715.800	-22.494	0.100
715.900	-28.267	0.100
716.000	-19.754	0.100
716.100	-20.767	0.100
716.200	-15.388	0.100
716.300	-22.877	0.100
716.400	-12.659	0.100
716.500	-17.768	0.100
716.600	-15.292	0.100
716.700	-19.786	0.100
716.800	-26.511	0.100
716.900	-20.942	0.100
717.000	-27.545	0.100
717.100	-27.632	0.100
717.200	-15.844	0.100
717.300	-7.880	0.100
717.400	-14.048	0.100
717.500	-3.811	0.100
717.600	-18.563	0.100
717.700	-20.600	0.100
717.800	-23.032	0.100
717.900	-32.934	0.100
718.000	-14.970	0.100
718.100	-20.360	0.100
718.200	-21.459	0.100
718.300	-18.290	0.100
718.400	-17.145	0.100
718.500	-22.293	0.100
718.600	-16.811	0.101
718.700	-13.406	0.101
718.800	-9.182	0.101
718.900	-22.912	0.101
719.000	-21.968	0.101
719.100	-21.528	0.100
719.200	-6.068	0.101
719.300	-21.123	0.100
719.400	-13.536	0.101
719.500	-15.182	0.101
719.600	-11.895	0.101
719.700	-20.384	0.101
719.800	-25.700	0.101
719.900	-27.625	0.101
720.000	-16.163	0.101
720.100	-23.097	0.101
720.200	-20.152	0.101
720.300	-14.787	0.101
720.400	-13.104	0.101
720.500	-31.055	0.101
720.600	-17.336	0.100
720.700	-18.438	0.101
720.800	-16.667	0.101
720.900	-16.102	0.101
721.000	-12.788	0.101
721.100	-20.591	0.101
721.200	-21.148	0.101
721.300	-25.336	0.101
721.400	-20.572	0.101
721.500	-18.696	0.101
721.600	-16.035	0.101
721.700	-20.209	0.101
721.800	-15.004	0.101
721.900	-18.087	0.101
722.000	-16.029	0.101
722.100	-6.488	0.101
722.200	-11.289	0.101
722.300	-33.425	0.101
722.400	-21.281	0.101
722.500	-24.401	0.101
722.600	-18.215	0.101
722.700	-25.326	0.101
722.800	-15.593	0.101
722.900	-22.652	0.101
723.000	-18.399	0.101
723.100	-15.113	0.101
723.200	-10.143	0.101
723.300	-21.553	0.101
723.400	-16.342	0.101
723.500	-8.972	0.101
723.600	-16.648	0.101
723.700	-29.630	0.101
723.800	-16.981	0.101
723.900	-18.301	0.101
724.000	-28.370	0.101
724.100	-23.946	0.101
724.200	-14.760	0.101
724.300	-14.454	0.101
724.400	-17.082	0.101
724.500	-23.243	0.101
724.600	-14.314	0.101
724.700	-25.674	0.101
724.800	-15.278	0.101
724.900	-23.678	0.101
725.000	-16.737	0.101
725.100	-31.522	0.101
725.200	-15.827	0.101
725.300	-16.573	0.101
725.400	-13.471	0.101
725.500	-20.752	0.101
725.600	-18.212	0.101
725.700	-28.636	0.101
725.800	-23.265	0.101
725.900	-25.767	0.101
726.000	-11.945	0.101
726.100	-18.881	0.101
726.200	-20.667	0.101
726.300	-22.907	0.101
726.400	-11.479	0.101
726.500	-15.040	0.101
726.600	-12.166	0.101
726.700	-11.276	0.101
726.800	-25.115	0.101
726.900	-23.114	0.101
727.000	-27.852	0.101
727.100	-20.833	0.101
727.200	-17.995	0.101
727.300	-15.410	0.101
727.400	-19.616	0.101
727.500	-26.225	0.101
727.600	-12.235	0.101
727.700	-14.344	0.101
727.800	-11.321	0.101
727.900	-23.219	0.101
728.000	-26.408	0.101
728.100	-23.757	0.101
728.200	-15.075	0.101
728.300	-21.629	0.101
728.400	-15.151	0.101
728.500	-20.760	0.101
728.600	-20.467	0.101
728.700	-21.084	0.101
728.800	-20.277	0.101
728.900	-11.939	0.101
729.000	-12.937	0.101
729.100	-14.868	0.101
729.200	-19.593	0.101
729.300	-16.617	0.101
729.400	-17.356	0.101
729.500	-13.323	0.101
729.600	-21.598	0.101
729.700	-26.719	0.101
729.800	-24.079	0.101
729.900	-16.318	0.101
730.000	-11.326	0.101
730.100	-17.647	0.101
730.200	-24.693	0.101
730.300	-31.532	0.101
730.400	-18.957	0.101
730.500	-14.840	0.101
730.600	-7.827	0.101
730.700	-25.123	0.101
730.800	-23.502	0.101
730.900	-16.578	0.101
731.000	-18.515	0.101
731.100	-15.010	0.101
731.200	-20.839	0.101
731.300	-20.529	0.101
731.400	-19.759	0.101
731.500	-20.297	0.101
731.600	-25.652	0.101
731.700	-19.232	0.101
731.800	-16.799	0.101
731.900	-21.064	0.101
732.000	-15.305	0.101
732.100	-14.732	0.101
732.200	-23.843	0.101
732.300	-20.654	0.101
732.400	-20.805	0.101
732.500	-24.667	0.101
732.600	-12.839	0.101
732.700	-17.998	0.101
732.800	-22.518	0.101
732.900	-14.377	0.101
733.000	-12.693	0.101
733.100	-20.637	0.101
733.200	-10.810	0.101
733.300	-20.119	0.101
733.400	-22.968	0.101
733.500	-27.888	0.101
733.600	-15.635	0.101
733.700	-27.936	0.101
733.800	-16.817	0.101
733.900	-28.127	0.101
734.000	-12.522	0.101
734.100	-14.394	0.101
734.200	-16.948	0.101
734.300	-23.736	0.101
734.400	-26.091	0.101
734.500	-17.482	0.101
734.600	-17.122	0.101
734.700	-10.517	0.101
734.800	-12.159	0.101
734.900	-29.367	0.101
735.000	-10.328	0.101
735.100	-27.160	0.101
735.200	-18.326	0.101
735.300	-9.952	0.101
735.400	-7.349	0.101
735.500	-12.810	0.101
735.600	-10.010	0.101
735.700	-19.285	0.101
735.800	-26.244	0.101
735.900	-21.628	0.101
736.000	-15.702	0.101
736.100	-23.011	0.101
736.200	-18.385	0.101
736.300	-25.490	0.101
736.400	-26.018	0.101
736.500	-20.748	0.101
736.600	-18.508	0.101
736.700	-13.278	0.101
736.800	-24.656	0.101
736.900	-15.378	0.101
737.000	-16.754	0.101
737.100	-17.805	0.101
737.200	-13.011	0.101
737.300	-21.598	0.101
737.400	-27.865	0.101
737.500	-14.390	0.101
737.600	-23.419	0.101
737.700	-17.157	0.101
737.800	-10.145	0.101
737.900	-21.282	0.101
738.000	-25.808	0.101
738.100	-16.407	0.101
738.200	-41.651	0.101
738.300	-20.129	0.101
738.400	-21.684	0.101
738.500	-12.855	0.101
738.600	-1.540	0.101
738.700	-16.348	0.101
738.800	-20.245	0.101
738.900	-25.043	0.101
739.000	-13.589	0.101
739.100	-22.321	0.101
739.200	-26.053	0.101
739.300	-22.367	0.101
739.400	-9.787	0.101
739.500	-18.549	0.101
739.600	-13.179	0.101
739.700	-11.232	0.101
739.800	-27.955	0.101
739.900	-28.557	0.101
740.000	-10.741	0.101
740.100	-15.593	0.101
740.200	-15.553	0.101
740.300	-15.943	0.101
740.400	-18.603	0.101
740.500	-24.296	0.101
740.600	-29.524	0.101
740.700	-23.379	0.101
740.800	-30.214	0.101
740.900	-12.335	0.101
741.000	-12.913	0.101
741.100	-10.955	0.101
741.200	-18.535	0.101
741.300	-2.523	0.101
741.400	-20.942	0.101
741.500	-19.662	0.101
741.600	-13.030	0.101
741.700	-26.891	0.101
741.800	-26.297	0.101
741.900	-14.084	0.101
742.000	-28.852	0.101
742.100	-19.027	0.101
742.200	-21.507	0.101
742.300	-18.559	0.101
742.400	-29.984	0.101
742.500	-17.051	0.101
742.600	-4.859	0.101
742.700	-14.846	0.101
742.800	-14.011	0.101
742.900	-19.386	0.101
743.000	-22.550	0.101
743.100	-16.392	0.101
743.200	-21.245	0.101
743.300	-30.974	0.101
743.400	-24.566	0.101
743.500	-21.338	0.101
743.600	-16.392	0.101
743.700	-20.012	0.101
743.800	-16.494	0.101
743.900	-14.116	0.101
744.000	-26.543	0.101
744.100	-20.408	0.101
744.200	-7.173	0.101
744.300	-14.867	0.101
744.400	-22.969	0.101
744.500	-16.143	0.101
744.600	-15.210	0.101
744.700	-13.265	0.101
744.800	-18.356	0.101
744.900	-22.911	0.101
745.000	-23.399	0.101
745.100	-16.285	0.101
745.200	-6.952	0.101
745.300	-17.599	0.101
745.400	-19.734	0.101
745.500	-19.963	0.101
745.600	-15.410	0.101
745.700	-16.950	0.101
745.800	-13.922	0.101
745.900	-20.882	0.101
746.000	-21.983	0.101
746.100	-11.314	0.101
746.200	-21.793	0.101
746.300	-11.476	0.101
746.400	-31.138	0.101
746.500	-8.064	0.101
746.600	-13.889	0.101
746.700	-13.828	0.101
746.800	-7.341	0.101
746.900	-24.634	0.101
747.000	-9.096	0.101
747.100	-14.542	0.101
747.200	-16.853	0.101
747.300	-4.799	0.101
747.400	-23.515	0.101
747.500	-24.113	0.101
747.600	-16.648	0.101
747.700	-17.733	0.101
747.800	-19.041	0.101
747.900	-13.588	0.101
748.000	-18.342	0.101
748.100	-15.192	0.101
748.200	-19.724	0.101
748.300	-7.148	0.101
748.400	-16.955	0.101
748.500	-22.217	0.101
748.600	-19.843	0.101
748.700	-16.310	0.101
748.800	-21.232	0.101
748.900	-17.073	0.101
749.000	-18.242	0.101
749.100	-12.425	0.101
749.200	-15.815	0.101
749.300	-20.823	0.101
749.400	-25.647	0.101
749.500	-21.085	0.101
749.600	-15.953	0.101
749.700	-13.186	0.101
749.800	-22.956	0.101
749.900	-23.667	0.101
750.000	-20.915	0.101
750.100	-9.323	0.101
750.200	-6.031	0.101
750.300	-19.046	0.101
750.400	-23.055	0.101
750.500	-18.475	0.101
750.600	-14.709	0.101
750.700	-15.305	0.101
750.800	-16.027	0.101
750.900	-9.192	0.101
751.000	-16.917	0.101
751.100	-10.136	0.101
751.200	-14.887	0.101
751.300	-15.117	0.101
751.400	-10.724	0.101
751.500	-20.950	0.101
751.600	-19.899	0.101
751.700	-14.171	0.101
751.800	-15.764	0.101
751.900	-15.139	0.101
752.000	-25.005	0.101
752.100	-18.192	0.101
752.200	-13.518	0.101
752.300	-11.606	0.101
752.400	-20.109	0.101
752.500	-19.665	0.101
752.600	-17.446	0.101
752.700	-16.257	0.101
752.800	-18.774	0.101
752.900	-11.672	0.101
753.000	-17.131	0.101
753.100	-13.391	0.101
753.200	-19.741	0.101
753.300	-23.285	0.101
753.400	-14.386	0.101
753.500	-16.795	0.101
753.600	-10.530	0.101
753.700	-12.310	0.101
753.800	-17.945	0.101
753.900	-15.326	0.101
754.000	-9.601	0.101
754.100	-17.955	0.101
754.200	-15.807	0.101
754.300	-20.986	0.101
754.400	-24.847	0.101
754.500	-9.243	0.101
754.600	-22.189	0.101
754.700	-18.115	0.101
754.800	-24.658	0.101
754.900	-5.506	0.101
755.000	-21.820	0.101
755.100	-14.149	0.101
755.200	-21.795	0.101
755.300	-30.124	0.101
755.400	-13.553	0.101
755.500	-23.030	0.101
755.600	-18.308	0.101
755.700	-8.184	0.101
755.800	-9.247	0.101
755.900	-10.821	0.101
756.000	-21.403	0.101
756.100	-17.187	0.101
756.200	-16.315	0.101
756.300	-15.621	0.101
756.400	-2.812	0.101
756.500	-15.697	0.101
756.600	-20.853	0.101
756.700	-15.104	0.101
756.800	-23.283	0.101
756.900	-13.895	0.101
757.000	-14.354	0.101
757.100	-17.710	0.101
757.200	-12.459	0.101
757.300	-8.663	0.101
757.400	-11.093	0.101
757.500	-23.201	0.101
757.600	-15.998	0.101
757.700	-12.851	0.101
757.800	-13.259	0.101
757.900	-13.542	0.101
758.000	-18.053	0.101
758.100	-19.658	0.101
758.200	-20.243	0.101
758.300	-11.518	0.101
758.400	-11.086	0.101
758.500	-8.208	0.101
758.600	-26.312	0.101
758.700	-9.351	0.101
758.800	-21.957	0.101
758.900	-20.753	0.101
759.000	-14.483	0.101
759.100	-19.023	0.101
759.200	-16.812	0.101
759.300	-25.699	0.101
759.400	-15.707	0.101
759.500	-8.710	0.101
759.600	-8.825	0.101
759.700	-20.216	0.101
759.800	-23.839	0.101
759.900	-22.971	0.101
760.000	-14.284	0.101
760.100	-15.199	0.101
760.200	-17.356	0.101
760.300	-10.548	0.101
760.400	-13.569	0.101
760.500	-14.000	0.101
760.600	-26.569	0.101
760.700	-17.642	0.101
760.800	-24.258	0.101
760.900	-12.794	0.101
761.000	-6.093	0.101
761.100	-12.714	0.101
761.200	-13.023	0.101
761.300	-16.966	0.101
761.400	-20.520	0.101
761.500	-18.343	0.101
761.600	-13.115	0.101
761.700	-14.354	0.101
761.800	-17.620	0.101
761.900	-18.850	0.101
762.000	-12.267	0.101
762.100	-10.104	0.101
762.200	-17.339	0.101
762.300	-18.410	0.101
762.400	-9.257	0.101
762.500	-16.669	0.101
762.600	-15.492	0.101
762.700	-8.574	0.101
762.800	-19.813	0.101
762.900	-3.336	0.101
763.000	-20.826	0.101
763.100	-6.562	0.101
763.200	-15.226	0.101
763.300	-9.170	0.101
763.400	-19.101	0.101
763.500	-12.436	0.101
763.600	-22.279	0.101
763.700	-14.212	0.101
763.800	-12.342	0.101
763.900	-11.041	0.101
764.000	-18.732	0.101
764.100	-15.406	0.101
764.200	-18.525	0.101
764.300	-8.898	0.101
764.400	-17.912	0.101
764.500	-13.724	0.101
764.600	-8.662	0.101
764.700	-18.876	0.101
764.800	-5.156	0.101
764.900	-17.951	0.101
765.000	-22.117	0.101
765.100	-13.574	0.101
765.200	-18.219	0.101
765.300	-14.219	0.101
765.400	-14.453	0.101
765.500	-12.269	0.101
765.600	-11.979	0.101
765.700	-16.048	0.101
765.800	-20.834	0.101
765.900	-18.501	0.101
766.000	-18.362	0.101
766.100	-16.402	0.101
766.200	-19.245	0.101
766.300	-13.981	0.101
766.400	-22.386	0.101
766.500	-5.731	0.101
766.600	-9.800	0.101
766.700	-24.226	0.101
766.800	-18.002	0.101
766.900	-13.856	0.101
767.000	-11.084	0.101
767.100	-14.409	0.101
767.200	-19.220	0.101
767.300	-24.420	0.101
767.400	-3.784	0.101
767.500	-11.797	0.101
767.600	-12.907	0.101
767.700	-14.607	0.101
767.800	-12.527	0.101
767.900	-16.041	0.101
768.000	-18.396	0.101
768.100	-15.876	0.101
768.200	-9.213	0.101
768.300	-16.675	0.101
768.400	-13.362	0.101
768.500	-8.925	0.101
768.600	-12.023	0.101
768.700	-14.636	0.101
768.800	-15.010	0.101
768.900	-14.622	0.101
769.000	-10.349	0.101
769.100	-8.619	0.101
769.200	-23.247	0.101
769.300	-7.598	0.101
769.400	-15.232	0.101
769.500	-20.766	0.101
769.600	-11.650	0.101
769.700	-27.097	0.101
769.800	-11.733	0.101
769.900	-15.837	0.101
770.000	-17.183	0.101
770.100	-16.519	0.101
770.200	-12.081	0.101
770.300	-16.085	0.101
770.400	-9.392	0.101
770.500	-11.094	0.101
770.600	-13.413	0.101
770.700	-11.874	0.101
770.800	-16.798	0.101
770.900	-19.259	0.101
771.000	-20.130	0.101
771.100	-22.988	0.101
771.200	-12.854	0.101
771.300	-17.259	0.101
771.400	-8.151	0.101
771.500	-8.093	0.101
771.600	-19.999	0.101
771.700	-30.126	0.101
771.800	-18.021	0.101
771.900	-10.156	0.101
772.000	-0.064	0.101
772.100	-11.131	0.101
772.200	-14.274	0.101
772.300	-17.921	0.101
772.400	-18.084	0.101
772.500	-10.463	0.101
772.600	-14.228	0.101
772.700	-16.329	0.101
772.800	-14.799	0.101
772.900	-7.530	0.101
773.000	-14.796	0.101
773.100	-18.671	0.101
773.200	-14.384	0.101
773.300	-23.087	0.101
773.400	-12.512	0.101
773.500	-15.564	0.101
773.600	-16.405	0.101
773.700	-8.624	0.101
773.800	-10.652	0.101
773.900	-22.295	0.101
774.000	-20.423	0.101
774.100	-15.932	0.101
774.200	-11.095	0.101
774.300	-11.437	0.101
774.400	-2.690	0.101
774.500	-18.573	0.101
774.600	-14.268	0.101
774.700	-14.589	0.101
774.800	-8.589	0.101
774.900	-19.172	0.101
775.000	-23.137	0.101
775.100	-22.536	0.101
775.200	-15.808	0.101
775.300	-1.769	0.101
775.400	-9.962	0.101
775.500	-13.856	0.101
775.600	-11.159	0.101
775.700	-17.240	0.101
775.800	-17.637	0.101
775.900	-19.330	0.101
776.000	-25.650	0.101
776.100	-28.601	0.101
776.200	-4.959	0.101
776.300	-23.998	0.101
776.400	-8.096	0.101
776.500	-16.373	0.101
776.600	-10.405	0.101
776.700	-19.526	0.101
776.800	-15.478	0.101
776.900	-15.488	0.101
777.000	-4.489	0.101
777.100	-8.899	0.101
777.200	-14.288	0.101
777.300	-14.487	0.101
777.400	-23.601	0.101
777.500	-26.927	0.101
777.600	-14.151	0.101
777.700	-5.201	0.101
777.800	-4.374	0.101
777.900	-22.133	0.101
778.000	-9.345	0.101
778.100	-9.201	0.101
778.200	-11.532	0.101
778.300	-4.006	0.101
778.400	-19.789	0.101
778.500	-22.368	0.101
778.600	-9.385	0.101
778.700	-11.461	0.101
778.800	-10.609	0.101
778.900	-16.804	0.101
779.000	-20.352	0.101
779.100	-13.108	0.101
779.200	-13.915	0.101
779.300	-9.079	0.101
779.400	-9.733	0.101
779.500	-14.907	0.101
779.600	-15.762	0.101
779.700	-12.085	0.101
779.800	-5.165	0.101
779.900	-21.297	0.101
780.000	-8.886	0.101
780.100	-13.862	0.101
780.200	-12.358	0.101
780.300	-10.055	0.101
780.400	-5.990	0.101
780.500	-15.013	0.101
780.600	-4.710	0.101
780.700	-11.730	0.101
780.800	-1.171	0.101
780.900	9.995	0.101
781.000	-0.551	0.101
781.100	-5.938	0.101
781.200	4.552	0.101
781.300	8.641	0.101
781.400	12.837	0.101
781.500	24.642	0.101
781.600	14.316	0.101
781.700	6.227	0.101
781.800	12.996	0.101
781.900	7.089	0.101
782.000	18.887	0.101
782.100	21.243	0.101
782.200	16.426	0.101
782.300	16.023	0.101
782.400	26.536	0.101
782.500	27.677	0.101
782.600	19.580	0.101
782.700	23.063	0.101
782.800	25.035	0.101
782.900	23.578	0.101
783.000	25.569	0.101
783.100	21.122	0.101
783.200	32.802	0.101
783.300	17.620	0.101
783.400	41.409	0.101
783.500	30.391	0.101
783.600	26.582	0.101
783.700	22.825	0.101
783.800	20.986	0.101
783.900	30.216	0.101
784.000	31.129	0.101
784.100	17.763	0.101
784.200	24.178	0.101
784.300	29.473	0.101
784.400	26.598	0.101
784.500	20.094	0.101
784.600	20.011	0.101
784.700	17.509	0.101
784.800	23.613	0.101
784.900	29.383	0.101
785.000	21.048	0.101
785.100	21.713	0.101
785.200	16.688	0.101
785.300	27.593	0.101
785.400	25.200	0.101
785.500	13.847	0.101
785.600	19.022	0.101
785.700	21.166	0.101
785.800	24.048	0.101
785.900	6.687	0.101
786.000	17.695	0.101
786.100	16.441	0.101
786.200	21.136	0.101
786.300	7.430	0.101
786.400	12.569	0.101
786.500	19.525	0.101
786.600	19.064	0.101
786.700	20.083	0.101
786.800	9.306	0.101
786.900	16.599	0.101
787.000	12.093	0.101
787.100	13.777	0.101
787.200	17.389	0.101
787.300	11.766	0.101
787.400	14.568	0.101
787.500	18.094	0.101
787.600	25.851	0.101
787.700	9.775	0.101
787.800	14.209	0.101
787.900	6.628	0.101
788.000	16.688	0.101
788.100	21.462	0.101
788.200	15.954	0.101
788.300	11.602	0.101
788.400	19.652	0.101
788.500	13.121	0.101
788.600	13.743	0.101
788.700	25.147	0.101
788.800	18.665	0.101
788.900	20.358	0.101
789.000	7.992	0.101
789.100	6.740	0.101
789.200	21.380	0.101
789.300	11.510	0.101
789.400	21.590	0.101
789.500	18.448	0.101
789.600	17.880	0.101
789.700	14.132	0.101
789.800	18.113	0.101
789.900	16.947	0.101
790.000	23.187	0.101
790.100	25.446	0.101
790.200	20.504	0.101
790.300	21.014	0.101
790.400	12.906	0.101
790.500	8.406	0.101
790.600	21.967	0.101
790.700	19.739	0.101
790.800	16.133	0.101
790.900	16.448	0.101
791.000	22.052	0.101
791.100	19.597	0.101
791.200	16.244	0.101
791.300	22.021	0.101
791.400	21.703	0.101
791.500	15.428	0.101
791.600	33.592	0.101
791.700	19.290	0.101
791.800	22.772	0.101
791.900	12.636	0.101
792.000	19.224	0.101
792.100	25.126	0.101
792.200	30.703	0.101
792.300	23.891	0.101
792.400	25.387	0.101
792.500	25.998	0.101
792.600	15.986	0.101
792.700	21.140	0.101
792.800	17.978	0.101
792.900	15.048	0.101
793.000	35.935	0.101
793.100	20.593	0.101
793.200	20.546	0.101
793.300	14.679	0.101
793.400	27.003	0.101
793.500	25.506	0.101
793.600	33.383	0.101
793.700	20.502	0.101
793.800	27.845	0.101
793.900	17.717	0.101
794.000	25.545	0.101
794.100	28.784	0.101
794.200	19.549	0.101
794.300	27.834	0.101
794.400	37.935	0.101
794.500	29.140	0.101
794.600	21.503	0.101
794.700	12.769	0.101
794.800	20.245	0.101
794.900	29.379	0.101
795.000	27.613	0.101
795.100	34.232	0.101
795.200	24.145	0.101
795.300	31.783	0.101
795.400	21.284	0.101
795.500	24.198	0.101
795.600	32.752	0.101
795.700	28.498	0.101
795.800	30.983	0.101
795.900	32.403	0.101
796.000	23.253	0.101
796.100	30.860	0.101
796.200	36.363	0.101
796.300	35.654	0.101
796.400	39.874	0.101
796.500	19.303	0.101
796.600	28.975	0.101
796.700	31.118	0.101
796.800	42.670	0.101
796.900	26.413	0.101
797.000	37.431	0.101
797.100	30.056	0.101
797.200	30.996	0.101
797.300	27.014	0.101
797.400	19.828	0.101
797.500	30.364	0.101
797.600	36.863	0.101
797.700	30.832	0.101
797.800	25.677	0.101
797.900	28.926	0.101
798.000	37.667	0.101
798.100	41.772	0.101
798.200	32.345	0.101
798.300	32.758	0.101
798.400	28.323	0.101
798.500	35.513	0.101
798.600	36.692	0.101
798.700	45.955	0.101
798.800	44.262	0.101
798.900	41.656	0.101
799.000	41.085	0.101
799.100	38.138	0.101
799.200	26.150	0.101
799.300	32.543	0.101
799.400	27.586	0.101
799.500	35.442	0.101
799.600	28.673	0.101
799.700	37.449	0.101
799.800	36.741	0.101
799.900	40.435	0.101
800.000	38.744	0.101
