time /s	I /nA	E /V
0.100	-8.265	0.101
0.200	-5.621	0.101
0.300	-4.811	0.101
0.400	-5.012	0.101
0.500	-5.818	0.101
0.600	-9.853	0.101
0.700	-8.994	0.101
0.800	-6.166	0.101
0.900	1.564	0.101
1.000	5.371	0.101
1.100	-3.302	0.101
1.200	-3.196	0.101
1.300	-2.984	0.101
1.400	-7.268	0.101
1.500	-6.410	0.101
1.600	-1.739	0.101
1.700	-8.270	0.101
1.800	-9.085	0.101
1.900	-6.072	0.101
2.000	0.178	0.101
2.100	-7.501	0.101
2.200	0.491	0.101
2.300	-7.787	0.101
2.400	-12.436	0.101
2.500	-10.857	0.101
2.600	-8.662	0.101
2.700	1.109	0.101
2.800	-3.894	0.101
2.900	-4.129	0.101
3.000	-0.759	0.101
3.100	8.691	0.101
3.200	8.325	0.101
3.300	2.919	0.101
3.400	-7.934	0.101
3.500	-4.464	0.101
3.600	-8.632	0.101
3.700	1.006	0.101
3.800	2.723	0.101
3.900	-10.836	0.101
4.000	7.481	0.101
4.100	-9.882	0.101
4.200	-0.857	0.101
4.300	-12.459	0.101
4.400	-4.311	0.101
4.500	-4.009	0.101
4.600	-5.841	0.101
4.700	-7.951	0.101
4.800	-8.319	0.101
4.900	-10.271	0.101
5.000	-0.614	0.101
5.100	-4.905	0.101
5.200	-4.947	0.101
5.300	-3.260	0.101
5.400	-7.256	0.101
5.500	-4.316	0.101
5.600	-11.552	0.101
5.700	-5.195	0.101
5.800	10.104	0.101
5.900	-1.132	0.101
6.000	-1.455	0.101
6.100	-4.060	0.101
6.200	-4.002	0.101
6.300	-7.581	0.101
6.400	-12.639	0.101
6.500	-13.764	0.101
6.600	-2.075	0.101
6.700	-4.278	0.101
6.800	-4.328	0.101
6.900	-6.276	0.101
7.000	-5.129	0.101
7.100	-1.977	0.101
7.200	3.918	0.101
7.300	-7.927	0.101
7.400	2.272	0.101
7.500	-7.445	0.101
7.600	-11.344	0.101
7.700	-5.902	0.101
7.800	-2.148	0.101
7.900	-4.921	0.101
8.000	-13.841	0.101
8.100	0.960	0.101
8.200	7.522	0.101
8.300	-8.656	0.101
8.400	-5.112	0.101
8.500	-26.271	0.101
8.600	-8.376	0.101
8.700	0.205	0.101
8.800	-7.288	0.101
8.900	-13.633	0.101
9.000	0.997	0.101
9.100	-1.252	0.101
9.200	4.172	0.101
9.300	-8.005	0.101
9.400	-14.755	0.101
9.500	0.905	0.101
9.600	-0.966	0.101
9.700	-0.743	0.101
9.800	-8.341	0.101
9.900	-0.156	0.101
10.000	-4.699	0.101
10.100	-9.575	0.101
10.200	-4.441	0.101
10.300	-7.965	0.101
10.400	-0.497	0.101
10.500	-8.344	0.101
10.600	-9.870	0.101
10.700	-3.991	0.101
10.800	-2.734	0.101
10.900	-5.894	0.101
11.000	-4.085	0.101
11.100	2.483	0.101
11.200	-2.788	0.101
11.300	-3.391	0.101
11.400	-1.892	0.101
11.500	0.212	0.101
11.600	-8.915	0.101
11.700	-0.190	0.101
11.800	-4.977	0.101
11.900	-16.581	0.101
12.000	-0.758	0.101
12.100	-10.500	0.101
12.200	-11.756	0.101
12.300	-1.522	0.101
12.400	2.943	0.101
12.500	-6.841	0.101
12.600	-4.997	0.101
12.700	-2.829	0.101
12.800	-14.222	0.101
12.900	-8.194	0.101
13.000	-4.696	0.101
13.100	-5.193	0.101
13.200	4.820	0.101
13.300	-1.003	0.101
13.400	-5.983	0.101
13.500	-6.670	0.101
13.600	2.492	0.101
13.700	0.954	0.101
13.800	-4.682	0.101
13.900	-16.767	0.101
14.000	-5.001	0.101
14.100	-8.331	0.101
14.200	-2.463	0.101
14.300	-7.230	0.101
14.400	-9.519	0.101
14.500	-7.748	0.101
14.600	-1.248	0.101
14.700	-6.804	0.101
14.800	-9.009	0.101
14.900	-7.174	0.101
15.000	-6.650	0.101
15.100	-2.843	0.101
15.200	-3.852	0.101
15.300	6.673	0.101
15.400	-9.588	0.101
15.500	-14.250	0.101
15.600	-4.452	0.101
15.700	-7.226	0.101
15.800	1.133	0.101
15.900	-6.874	0.101
16.000	5.068	0.101
16.100	-8.863	0.101
16.200	-3.528	0.101
16.300	-9.883	0.101
16.400	-1.621	0.101
16.500	-12.306	0.101
16.600	-6.241	0.101
16.700	6.202	0.101
16.800	-7.986	0.101
16.900	-6.146	0.101
17.000	-6.063	0.101
17.100	-3.785	0.101
17.200	-1.389	0.101
17.300	0.877	0.101
17.400	-5.086	0.101
17.500	-0.426	0.101
17.600	-8.281	0.101
17.700	-2.483	0.101
17.800	-8.541	0.101
17.900	-16.714	0.101
18.000	1.492	0.101
18.100	-10.062	0.101
18.200	-7.464	0.101
18.300	8.381	0.101
18.400	-10.753	0.101
18.500	1.473	0.101
18.600	-4.278	0.101
18.700	-9.913	0.101
18.800	-4.394	0.101
18.900	-11.240	0.101
19.000	-1.721	0.101
19.100	-3.203	0.101
19.200	0.093	0.101
19.300	-11.348	0.101
19.400	-8.601	0.101
19.500	-10.931	0.101
19.600	-10.961	0.101
19.700	-7.523	0.101
19.800	-1.721	0.101
19.900	-0.403	0.101
20.000	-7.074	0.101
20.100	-1.562	0.101
20.200	-6.580	0.101
20.300	-3.258	0.101
20.400	-5.772	0.101
20.500	0.315	0.101
20.600	-10.994	0.101
20.700	1.099	0.101
20.800	2.049	0.101
20.900	-6.202	0.101
21.000	0.008	0.101
21.100	0.117	0.101
21.200	-10.906	0.101
21.300	0.930	0.101
21.400	-4.913	0.101
21.500	-1.577	0.101
21.600	-5.445	0.101
21.700	-0.806	0.101
21.800	-11.874	0.101
21.900	0.755	0.101
22.000	-3.371	0.101
22.100	-10.466	0.101
22.200	-1.673	0.101
22.300	-3.231	0.101
22.400	-2.483	0.101
22.500	1.064	0.101
22.600	-3.411	0.101
22.700	-7.638	0.101
22.800	2.020	0.101
22.900	1.697	0.101
23.000	-10.142	0.101
23.100	-11.079	0.101
23.200	-19.286	0.101
23.300	-0.818	0.101
23.400	-7.725	0.101
23.500	-0.689	0.101
23.600	-4.315	0.101
23.700	-17.129	0.101
23.800	-2.143	0.101
23.900	-6.836	0.101
24.000	-4.720	0.101
24.100	11.751	0.101
24.200	-7.538	0.101
24.300	-7.793	0.101
24.400	-5.043	0.101
24.500	-11.493	0.101
24.600	-8.193	0.101
24.700	0.135	0.101
24.800	-9.364	0.101
24.900	-1.430	0.101
25.000	-8.031	0.101
25.100	-1.371	0.101
25.200	-7.705	0.101
25.300	-7.582	0.101
25.400	-13.717	0.101
25.500	-6.140	0.101
25.600	-10.458	0.101
25.700	2.658	0.101
25.800	-2.817	0.101
25.900	-0.870	0.101
26.000	-3.170	0.101
26.100	-2.903	0.101
26.200	-4.913	0.101
26.300	-8.379	0.101
26.400	-4.650	0.101
26.500	-3.917	0.101
26.600	-8.470	0.101
26.700	-7.315	0.101
26.800	-17.001	0.101
26.900	-5.204	0.101
27.000	-9.378	0.101
27.100	-0.601	0.101
27.200	-12.432	0.101
27.300	4.614	0.101
27.400	-4.304	0.101
27.500	-0.403	0.101
27.600	-15.570	0.101
27.700	-6.263	0.101
27.800	-3.492	0.101
27.900	-7.255	0.101
28.000	-3.228	0.101
28.100	-12.065	0.101
28.200	-10.388	0.101
28.300	0.515	0.101
28.400	-3.156	0.101
28.500	-9.555	0.101
28.600	-2.062	0.101
28.700	-9.908	0.101
28.800	-15.633	0.101
28.900	-4.899	0.101
29.000	-5.907	0.101
29.100	-8.975	0.101
29.200	-10.919	0.101
29.300	-2.887	0.101
29.400	0.748	0.101
29.500	-8.851	0.101
29.600	-10.022	0.101
29.700	-11.115	0.101
29.800	-3.712	0.101
29.900	-1.797	0.101
30.000	-8.679	0.101
30.100	3.165	0.101
30.200	1.783	0.101
30.300	6.172	0.101
30.400	-0.865	0.101
30.500	5.923	0.101
30.600	-0.006	0.101
30.700	7.729	0.101
30.800	4.763	0.101
30.900	19.990	0.101
31.000	20.061	0.101
31.100	25.050	0.101
31.200	15.441	0.101
31.300	21.985	0.101
31.400	27.436	0.101
31.500	25.864	0.101
31.600	12.583	0.101
31.700	27.574	0.101
31.800	18.761	0.101
31.900	24.938	0.101
32.000	26.652	0.101
32.100	23.383	0.101
32.200	16.455	0.101
32.300	20.375	0.101
32.400	21.929	0.101
32.500	25.491	0.101
32.600	26.909	0.101
32.700	18.132	0.101
32.800	21.609	0.101
32.900	22.014	0.101
33.000	20.628	0.101
33.100	27.998	0.101
33.200	17.725	0.101
33.300	18.831	0.101
33.400	26.080	0.101
33.500	33.439	0.101
33.600	28.681	0.101
33.700	19.024	0.101
33.800	16.094	0.101
33.900	17.843	0.101
34.000	30.627	0.101
34.100	19.373	0.101
34.200	19.022	0.101
34.300	18.133	0.101
34.400	24.737	0.101
34.500	23.331	0.101
34.600	10.233	0.101
34.700	25.601	0.101
34.800	15.793	0.101
34.900	10.429	0.101
35.000	14.203	0.101
35.100	22.258	0.101
35.200	16.092	0.101
35.300	18.859	0.101
35.400	18.314	0.101
35.500	12.639	0.101
35.600	11.235	0.101
35.700	11.966	0.101
35.800	16.314	0.101
35.900	31.474	0.101
36.000	10.643	0.101
36.100	9.112	0.101
36.200	17.294	0.101
36.300	22.601	0.101
36.400	13.435	0.101
36.500	9.627	0.101
36.600	12.652	0.101
36.700	14.008	0.101
36.800	13.706	0.101
36.900	19.950	0.101
37.000	11.274	0.101
37.100	22.074	0.101
37.200	4.883	0.101
37.300	17.952	0.101
37.400	14.960	0.101
37.500	18.326	0.101
37.600	13.175	0.101
37.700	11.393	0.101
37.800	10.375	0.101
37.900	18.856	0.101
38.000	13.300	0.101
38.100	20.390	0.101
38.200	13.853	0.101
38.300	20.324	0.101
38.400	10.933	0.101
38.500	29.864	0.101
38.600	10.187	0.101
38.700	16.095	0.101
38.800	10.326	0.101
38.900	17.578	0.101
39.000	22.533	0.101
39.100	27.278	0.101
39.200	11.719	0.101
39.300	18.948	0.101
39.400	12.361	0.101
39.500	17.098	0.101
39.600	16.648	0.101
39.700	22.871	0.101
39.800	22.908	0.101
39.900	16.462	0.101
40.000	10.521	0.101
40.100	26.070	0.101
40.200	12.566	0.101
40.300	25.195	0.101
40.400	15.016	0.101
40.500	21.676	0.101
40.600	8.841	0.101
40.700	15.610	0.101
40.800	15.007	0.101
40.900	25.404	0.101
41.000	13.428	0.101
41.100	11.746	0.101
41.200	15.495	0.101
41.300	21.956	0.101
41.400	17.028	0.101
41.500	17.771	0.101
41.600	22.337	0.101
41.700	26.837	0.101
41.800	23.232	0.101
41.900	11.543	0.101
42.000	22.045	0.101
42.100	19.804	0.101
42.200	22.721	0.101
42.300	20.485	0.101
42.400	12.012	0.101
42.500	21.962	0.101
42.600	17.001	0.101
42.700	24.694	0.101
42.800	15.886	0.101
42.900	24.953	0.101
43.000	22.517	0.101
43.100	20.559	0.101
43.200	31.223	0.101
43.300	28.227	0.101
43.400	9.944	0.101
43.500	20.481	0.101
43.600	24.500	0.101
43.700	14.138	0.101
43.800	19.950	0.101
43.900	28.015	0.101
44.000	27.411	0.101
44.100	26.850	0.101
44.200	21.201	0.101
44.300	8.127	0.101
44.400	12.923	0.101
44.500	25.489	0.101
44.600	20.442	0.101
44.700	35.841	0.101
44.800	20.760	0.101
44.900	22.733	0.101
45.000	21.452	0.101
45.100	21.240	0.101
45.200	24.604	0.101
45.300	20.782	0.101
45.400	28.481	0.101
45.500	21.070	0.101
45.600	27.292	0.101
45.700	26.361	0.101
45.800	11.351	0.101
45.900	19.472	0.101
46.000	24.184	0.101
46.100	25.062	0.101
46.200	29.686	0.101
46.300	22.283	0.101
46.400	23.211	0.101
46.500	32.673	0.101
46.600	31.927	0.101
46.700	27.496	0.101
46.800	13.800	0.101
46.900	13.125	0.101
47.000	24.153	0.101
47.100	27.908	0.101
47.200	28.522	0.101
47.300	25.142	0.101
47.400	24.446	0.101
47.500	29.408	0.101
47.600	29.885	0.101
47.700	18.349	0.101
47.800	27.203	0.101
47.900	15.067	0.101
48.000	14.175	0.101
48.100	26.290	0.101
48.200	16.901	0.101
48.300	22.580	0.101
48.400	26.288	0.101
48.500	30.658	0.101
48.600	16.568	0.101
48.700	31.798	0.101
48.800	29.065	0.101
48.900	22.536	0.101
49.000	23.160	0.101
49.100	22.935	0.101
49.200	24.860	0.101
49.300	31.705	0.101
49.400	17.949	0.101
49.500	20.430	0.101
49.600	22.377	0.101
49.700	23.926	0.101
49.800	25.138	0.101
49.900	31.460	0.101
50.000	33.711	0.101
50.100	26.867	0.101
50.200	21.364	0.101
50.300	21.323	0.101
50.400	28.944	0.101
50.500	17.657	0.101
50.600	30.704	0.101
50.700	17.995	0.101
50.800	29.588	0.101
50.900	28.809	0.101
51.000	13.300	0.101
51.100	22.600	0.101
51.200	26.022	0.101
51.300	25.786	0.101
51.400	20.517	0.101
51.500	16.852	0.101
51.600	23.879	0.101
51.700	21.545	0.101
51.800	31.331	0.101
51.900	25.365	0.101
52.000	26.398	0.101
52.100	23.982	0.101
52.200	27.624	0.101
52.300	17.326	0.101
52.400	20.300	0.101
52.500	24.336	0.101
52.600	35.459	0.101
52.700	17.886	0.101
52.800	21.299	0.101
52.900	13.991	0.101
53.000	20.931	0.101
53.100	19.966	0.101
53.200	20.808	0.101
53.300	24.641	0.101
53.400	26.975	0.101
53.500	22.859	0.101
53.600	24.467	0.101
53.700	28.251	0.101
53.800	14.355	0.101
53.900	16.748	0.101
54.000	22.734	0.101
54.100	18.399	0.101
54.200	16.054	0.101
54.300	25.508	0.101
54.400	32.275	0.101
54.500	21.578	0.101
54.600	22.007	0.101
54.700	27.532	0.101
54.800	30.566	0.101
54.900	25.499	0.101
55.000	20.114	0.101
55.100	20.881	0.101
55.200	27.220	0.101
55.300	30.201	0.101
55.400	21.647	0.101
55.500	13.747	0.101
55.600	19.731	0.101
55.700	28.863	0.101
55.800	20.568	0.101
55.900	27.019	0.101
56.000	23.453	0.101
56.100	15.071	0.101
56.200	20.008	0.101
56.300	30.005	0.101
56.400	21.631	0.101
56.500	21.622	0.101
56.600	14.648	0.101
56.700	18.853	0.101
56.800	19.705	0.101
56.900	18.355	0.101
57.000	23.492	0.101
57.100	22.451	0.101
57.200	23.430	0.101
57.300	22.427	0.101
57.400	27.400	0.101
57.500	22.847	0.101
57.600	23.659	0.101
57.700	11.688	0.101
57.800	23.409	0.101
57.900	30.236	0.101
58.000	20.548	0.101
58.100	23.122	0.101
58.200	15.337	0.101
58.300	10.281	0.101
58.400	26.465	0.101
58.500	16.442	0.101
58.600	14.655	0.101
58.700	19.256	0.101
58.800	22.751	0.101
58.900	19.798	0.101
59.000	27.990	0.101
59.100	27.495	0.101
59.200	24.090	0.101
59.300	21.189	0.101
59.400	29.037	0.101
59.500	7.340	0.101
59.600	18.875	0.101
59.700	16.726	0.101
59.800	22.559	0.101
59.900	22.111	0.101
60.000	35.292	0.101
60.100	19.638	0.101
60.200	16.599	0.101
60.300	22.125	0.101
60.400	23.090	0.101
60.500	14.351	0.101
60.600	21.096	0.101
60.700	28.243	0.101
60.800	17.783	0.101
60.900	18.898	0.101
61.000	29.001	0.101
61.100	6.150	0.101
61.200	17.961	0.101
61.300	25.958	0.101
61.400	23.348	0.101
61.500	20.841	0.101
61.600	16.420	0.101
61.700	6.075	0.101
61.800	26.267	0.101
61.900	17.897	0.101
62.000	25.598	0.101
62.100	7.618	0.101
62.200	11.787	0.101
62.300	15.104	0.101
62.400	22.009	0.101
62.500	28.362	0.101
62.600	4.691	0.101
62.700	8.990	0.101
62.800	22.469	0.101
62.900	15.424	0.101
63.000	16.945	0.101
63.100	21.398	0.101
63.200	15.852	0.101
63.300	19.518	0.101
63.400	22.689	0.101
63.500	9.571	0.101
63.600	17.351	0.101
63.700	24.589	0.101
63.800	19.280	0.101
63.900	25.621	0.101
64.000	23.458	0.101
64.100	15.251	0.101
64.200	22.715	0.101
64.300	15.234	0.101
64.400	20.561	0.101
64.500	20.811	0.101
64.600	32.119	0.101
64.700	18.497	0.101
64.800	22.645	0.101
64.900	19.681	0.101
65.000	22.596	0.101
65.100	22.888	0.101
65.200	22.687	0.101
65.300	19.191	0.101
65.400	22.736	0.101
65.500	6.893	0.101
65.600	31.056	0.101
65.700	23.863	0.101
65.800	13.180	0.101
65.900	19.016	0.101
66.000	23.350	0.101
66.100	15.057	0.101
66.200	18.598	0.101
66.300	15.868	0.101
66.400	26.117	0.101
66.500	12.836	0.101
66.600	21.737	0.101
66.700	11.458	0.101
66.800	24.130	0.101
66.900	17.423	0.101
67.000	19.749	0.101
67.100	8.379	0.101
67.200	26.600	0.101
67.300	22.528	0.101
67.400	25.661	0.101
67.500	19.424	0.101
67.600	22.327	0.101
67.700	19.508	0.101
67.800	21.828	0.101
67.900	21.198	0.101
68.000	21.022	0.101
68.100	21.477	0.101
68.200	24.946	0.101
68.300	15.993	0.101
68.400	28.527	0.101
68.500	18.434	0.101
68.600	13.792	0.101
68.700	13.530	0.101
68.800	21.250	0.101
68.900	16.308	0.101
69.000	18.551	0.101
69.100	21.085	0.101
69.200	18.253	0.101
69.300	20.806	0.101
69.400	14.223	0.101
69.500	12.533	0.101
69.600	8.790	0.101
69.700	15.203	0.101
69.800	18.481	0.101
69.900	21.359	0.101
70.000	22.412	0.101
70.100	18.911	0.101
70.200	11.110	0.101
70.300	24.452	0.101
70.400	18.192	0.101
70.500	21.732	0.101
70.600	33.148	0.101
70.700	12.711	0.101
70.800	31.862	0.101
70.900	23.133	0.101
71.000	16.890	0.101
71.100	13.772	0.101
71.200	26.236	0.101
71.300	13.481	0.101
71.400	16.703	0.101
71.500	20.904	0.101
71.600	23.251	0.101
71.700	14.460	0.101
71.800	16.080	0.101
71.900	18.961	0.101
72.000	18.385	0.101
72.100	20.123	0.101
72.200	24.142	0.101
72.300	20.611	0.101
72.400	25.174	0.101
72.500	27.566	0.101
72.600	14.936	0.101
72.700	8.956	0.101
72.800	27.002	0.101
72.900	24.123	0.101
73.000	25.265	0.101
73.100	15.852	0.101
73.200	23.066	0.101
73.300	9.855	0.101
73.400	24.793	0.101
73.500	22.892	0.101
73.600	24.600	0.101
73.700	18.362	0.101
73.800	19.852	0.101
73.900	8.916	0.101
74.000	18.525	0.101
74.100	15.937	0.101
74.200	21.507	0.101
74.300	18.414	0.101
74.400	14.067	0.101
74.500	14.332	0.101
74.600	22.410	0.101
74.700	21.613	0.101
74.800	23.329	0.101
74.900	23.004	0.101
75.000	22.617	0.101
75.100	23.423	0.101
75.200	18.105	0.101
75.300	13.920	0.101
75.400	11.732	0.101
75.500	28.001	0.101
75.600	16.706	0.101
75.700	12.697	0.101
75.800	22.927	0.101
75.900	28.482	0.101
76.000	31.470	0.101
76.100	23.406	0.101
76.200	22.481	0.101
76.300	21.820	0.101
76.400	15.987	0.101
76.500	6.294	0.101
76.600	22.371	0.101
76.700	26.038	0.101
76.800	20.557	0.101
76.900	16.894	0.101
77.000	21.218	0.101
77.100	31.363	0.101
77.200	19.584	0.101
77.300	18.394	0.101
77.400	26.383	0.101
77.500	21.462	0.101
77.600	17.641	0.101
77.700	10.799	0.101
77.800	21.896	0.101
77.900	26.201	0.101
78.000	21.752	0.101
78.100	25.530	0.101
78.200	27.299	0.101
78.300	19.258	0.101
78.400	23.853	0.101
78.500	16.018	0.101
78.600	31.029	0.101
78.700	22.721	0.101
78.800	19.866	0.101
78.900	21.363	0.101
79.000	15.500	0.101
79.100	20.584	0.101
79.200	21.020	0.101
79.300	20.296	0.101
79.400	27.964	0.101
79.500	22.077	0.101
79.600	17.532	0.101
79.700	23.823	0.101
79.800	21.119	0.101
79.900	21.859	0.101
80.000	25.078	0.101
80.100	16.670	0.101
80.200	14.262	0.101
80.300	23.809	0.101
80.400	24.733	0.101
80.500	26.638	0.101
80.600	16.332	0.101
80.700	15.166	0.101
80.800	12.136	0.101
80.900	19.797	0.101
81.000	14.930	0.101
81.100	20.918	0.101
81.200	18.116	0.101
81.300	17.623	0.101
81.400	27.041	0.101
81.500	21.779	0.101
81.600	18.338	0.101
81.700	28.541	0.101
81.800	20.007	0.101
81.900	20.484	0.101
82.000	15.783	0.101
82.100	29.664	0.101
82.200	19.204	0.101
82.300	25.716	0.101
82.400	29.479	0.101
82.500	20.831	0.101
82.600	15.925	0.101
82.700	14.571	0.101
82.800	22.155	0.101
82.900	24.169	0.101
83.000	18.368	0.101
83.100	17.973	0.101
83.200	25.377	0.101
83.300	32.132	0.101
83.400	27.179	0.101
83.500	27.401	0.101
83.600	21.706	0.101
83.700	18.822	0.101
83.800	20.009	0.101
83.900	17.346	0.101
84.000	22.533	0.101
84.100	19.838	0.101
84.200	10.746	0.101
84.300	21.634	0.101
84.400	17.703	0.101
84.500	26.316	0.101
84.600	22.678	0.101
84.700	17.644	0.101
84.800	20.603	0.101
84.900	23.760	0.101
85.000	22.085	0.101
85.100	24.528	0.101
85.200	30.098	0.101
85.300	21.212	0.101
85.400	17.248	0.101
85.500	16.425	0.101
85.600	16.741	0.101
85.700	28.840	0.101
85.800	20.976	0.101
85.900	26.122	0.101
86.000	25.301	0.101
86.100	38.688	0.101
86.200	13.562	0.101
86.300	16.318	0.101
86.400	18.198	0.101
86.500	21.447	0.101
86.600	13.511	0.101
86.700	31.117	0.101
86.800	15.128	0.101
86.900	24.156	0.101
87.000	16.923	0.101
87.100	34.092	0.101
87.200	26.381	0.101
87.300	23.464	0.101
87.400	16.928	0.101
87.500	25.873	0.101
87.600	19.663	0.101
87.700	20.370	0.101
87.800	14.750	0.101
87.900	30.389	0.101
88.000	34.344	0.101
88.100	21.355	0.101
88.200	19.369	0.101
88.300	30.008	0.101
88.400	18.508	0.101
88.500	18.743	0.101
88.600	27.901	0.101
88.700	33.513	0.101
88.800	21.364	0.101
88.900	32.373	0.101
89.000	22.681	0.101
89.100	29.241	0.101
89.200	28.433	0.101
89.300	20.223	0.101
89.400	3.211	0.101
89.500	26.735	0.101
89.600	20.927	0.101
89.700	26.935	0.101
89.800	33.921	0.101
89.900	35.378	0.101
90.000	20.535	0.101
90.100	25.203	0.101
90.200	5.509	0.101
90.300	14.683	0.101
90.400	34.933	0.101
90.500	15.399	0.101
90.600	17.779	0.101
90.700	23.339	0.101
90.800	18.033	0.101
90.900	8.586	0.101
91.000	6.233	0.101
91.100	24.232	0.101
91.200	6.329	0.101
91.300	13.457	0.101
91.400	0.226	0.101
91.500	14.672	0.101
91.600	-1.179	0.101
91.700	8.735	0.101
91.800	3.550	0.101
91.900	13.750	0.101
92.000	-2.879	0.101
92.100	-4.677	0.101
92.200	-4.032	0.101
92.300	17.454	0.101
92.400	5.803	0.101
92.500	1.027	0.101
92.600	-2.023	0.101
92.700	5.347	0.101
92.800	-1.609	0.101
92.900	-0.728	0.101
93.000	4.264	0.101
93.100	6.363	0.101
93.200	-0.472	0.101
93.300	-8.325	0.101
93.400	-4.359	0.101
93.500	1.102	0.101
93.600	6.908	0.101
93.700	-4.430	0.101
93.800	-13.081	0.101
93.900	-5.336	0.101
94.000	-3.378	0.101
94.100	-1.807	0.101
94.200	8.857	0.101
94.300	-4.675	0.101
94.400	-3.599	0.101
94.500	-4.639	0.101
94.600	-0.725	0.101
94.700	0.977	0.101
94.800	-10.621	0.101
94.900	4.478	0.101
95.000	1.507	0.101
95.100	1.481	0.101
95.200	-5.240	0.101
95.300	4.192	0.101
95.400	-4.327	0.101
95.500	-9.988	0.101
95.600	-13.485	0.101
95.700	-3.690	0.101
95.800	-6.386	0.101
95.900	-7.451	0.101
96.000	-4.462	0.101
96.100	2.959	0.101
96.200	5.203	0.101
96.300	-1.386	0.101
96.400	-1.267	0.101
96.500	-12.383	0.101
96.600	-4.369	0.101
96.700	6.170	0.101
96.800	7.396	0.101
96.900	-3.416	0.101
97.000	-4.213	0.101
97.100	-10.741	0.101
97.200	-7.578	0.101
97.300	1.737	0.101
97.400	-2.129	0.101
97.500	0.730	0.101
97.600	-1.367	0.101
97.700	-1.771	0.101
97.800	-5.523	0.101
97.900	-0.661	0.101
98.000	1.634	0.101
98.100	-4.548	0.101
98.200	1.832	0.101
98.300	2.719	0.101
98.400	-6.452	0.101
98.500	-0.226	0.101
98.600	-8.132	0.101
98.700	-3.197	0.101
98.800	-8.121	0.101
98.900	-4.553	0.101
99.000	-0.629	0.101
99.100	-4.151	0.101
99.200	10.672	0.101
99.300	-2.118	0.101
99.400	-3.305	0.101
99.500	1.332	0.101
99.600	-4.335	0.101
99.700	-5.807	0.101
99.800	-5.801	0.101
99.900	-0.796	0.101
100.000	-12.327	0.101
100.100	-7.705	0.101
100.200	4.867	0.101
100.300	-0.133	0.101
100.400	-1.584	0.101
100.500	-2.379	0.101
100.600	11.184	0.101
100.700	5.600	0.101
100.800	1.515	0.101
100.900	-3.229	0.101
101.000	-3.600	0.101
101.100	2.937	0.101
101.200	2.465	0.101
101.300	-4.694	0.101
101.400	-9.526	0.101
101.500	3.987	0.101
101.600	4.005	0.101
101.700	5.423	0.101
101.800	-2.123	0.101
101.900	-4.922	0.101
102.000	-4.339	0.101
102.100	-0.243	0.101
102.200	-4.448	0.101
102.300	2.397	0.101
102.400	5.201	0.101
102.500	1.247	0.101
102.600	-9.745	0.101
102.700	-5.003	0.101
102.800	-14.762	0.101
102.900	7.247	0.101
103.000	-0.607	0.101
103.100	-13.096	0.101
103.200	-6.457	0.101
103.300	1.621	0.101
103.400	-1.934	0.101
103.500	3.913	0.101
103.600	0.357	0.101
103.700	-4.775	0.101
103.800	-3.671	0.101
103.900	-1.501	0.101
104.000	-3.187	0.101
104.100	-4.262	0.101
104.200	-7.014	0.101
104.300	-2.379	0.101
104.400	-3.330	0.101
104.500	-13.762	0.101
104.600	1.016	0.101
104.700	-8.972	0.101
104.800	-3.013	0.101
104.900	-8.537	0.101
105.000	-5.319	0.101
105.100	-8.119	0.101
105.200	-2.797	0.101
105.300	8.782	0.101
105.400	-2.119	0.101
105.500	-4.508	0.101
105.600	-5.855	0.101
105.700	-10.428	0.101
105.800	-0.784	0.101
105.900	2.545	0.101
106.000	-3.630	0.101
106.100	-2.991	0.101
106.200	-2.653	0.101
106.300	-7.424	0.101
106.400	-7.200	0.101
106.500	-8.944	0.101
106.600	-4.142	0.101
106.700	-3.505	0.101
106.800	-13.624	0.101
106.900	-9.760	0.101
107.000	-6.023	0.101
107.100	0.626	0.101
107.200	-6.264	0.101
107.300	1.709	0.101
107.400	0.242	0.101
107.500	0.466	0.101
107.600	-3.560	0.101
107.700	-6.895	0.101
107.800	-8.582	0.101
107.900	0.372	0.101
108.000	-2.516	0.101
108.100	-3.485	0.101
108.200	1.747	0.101
108.300	-1.359	0.101
108.400	-7.276	0.101
108.500	-10.168	0.101
108.600	-9.773	0.101
108.700	0.674	0.101
108.800	-5.622	0.101
108.900	5.665	0.101
109.000	-2.513	0.101
109.100	-4.840	0.101
109.200	-1.425	0.101
109.300	0.037	0.101
109.400	-1.608	0.101
109.500	-1.442	0.101
109.600	-1.539	0.101
109.700	-4.657	0.101
109.800	-8.332	0.101
109.900	-4.077	0.101
110.000	-3.224	0.101
110.100	-15.985	0.101
110.200	-12.084	0.101
110.300	-2.107	0.101
110.400	3.822	0.101
110.500	2.254	0.101
110.600	6.847	0.101
110.700	-10.372	0.101
110.800	3.175	0.101
110.900	0.648	0.101
111.000	-0.385	0.101
111.100	-3.093	0.101
111.200	-1.709	0.101
111.300	-11.530	0.101
111.400	-3.970	0.101
111.500	-0.662	0.101
111.600	-2.853	0.101
111.700	-1.277	0.101
111.800	-9.338	0.101
111.900	-8.290	0.101
112.000	-11.629	0.101
112.100	-7.137	0.101
112.200	-2.224	0.101
112.300	-14.576	0.101
112.400	-9.386	0.101
112.500	3.131	0.101
112.600	-10.472	0.101
112.700	-6.628	0.101
112.800	1.103	0.101
112.900	-1.045	0.101
113.000	-3.824	0.101
113.100	-4.267	0.101
113.200	-3.813	0.101
113.300	-9.540	0.101
113.400	-9.084	0.101
113.500	-2.965	0.101
113.600	-9.118	0.101
113.700	-5.079	0.101
113.800	8.930	0.101
113.900	1.147	0.101
114.000	-4.810	0.101
114.100	-4.139	0.101
114.200	-13.588	0.101
114.300	-8.698	0.101
114.400	-10.235	0.101
114.500	-8.536	0.101
114.600	1.102	0.101
114.700	-6.259	0.101
114.800	1.269	0.101
114.900	-9.322	0.101
115.000	6.418	0.101
115.100	-3.746	0.101
115.200	0.684	0.101
115.300	-13.101	0.101
115.400	-17.776	0.101
115.500	-20.910	0.101
115.600	-7.033	0.101
115.700	-14.457	0.101
115.800	4.804	0.101
115.900	-3.020	0.101
116.000	0.242	0.101
116.100	-8.218	0.101
116.200	-3.688	0.101
116.300	-5.622	0.101
116.400	-2.062	0.101
116.500	-5.654	0.101
116.600	-7.516	0.101
116.700	-9.850	0.101
116.800	5.588	0.101
116.900	-8.426	0.101
117.000	-6.874	0.101
117.100	-4.424	0.101
117.200	-6.574	0.101
117.300	-6.261	0.101
117.400	-11.938	0.101
117.500	-10.292	0.101
117.600	-6.358	0.101
117.700	-9.955	0.101
117.800	-11.976	0.101
117.900	-4.895	0.101
118.000	-11.899	0.101
118.100	-12.376	0.101
118.200	-3.196	0.101
118.300	-9.166	0.101
118.400	-2.315	0.101
118.500	-7.975	0.101
118.600	-4.370	0.101
118.700	-5.605	0.101
118.800	-8.101	0.101
118.900	-13.761	0.101
119.000	2.592	0.101
119.100	-5.220	0.101
119.200	-2.634	0.101
119.300	-12.668	0.101
119.400	-5.155	0.101
119.500	-0.553	0.101
119.600	4.332	0.101
119.700	-5.026	0.101
119.800	-9.847	0.101
119.900	-7.988	0.101
120.000	-0.050	0.101
120.100	-5.806	0.101
120.200	-2.638	0.101
120.300	-11.481	0.101
120.400	-5.412	0.101
120.500	-13.752	0.101
120.600	-14.875	0.101
120.700	-11.266	0.101
120.800	-5.317	0.101
120.900	-7.849	0.101
121.000	-8.655	0.101
121.100	-9.199	0.101
121.200	-5.365	0.101
121.300	-7.851	0.101
121.400	-2.373	0.101
121.500	-15.228	0.101
121.600	-3.675	0.101
121.700	-12.522	0.101
121.800	1.253	0.101
121.900	-8.057	0.101
122.000	-6.796	0.101
122.100	3.419	0.101
122.200	-9.990	0.101
122.300	-19.849	0.101
122.400	-7.739	0.101
122.500	-15.163	0.101
122.600	-7.959	0.101
122.700	-12.473	0.101
122.800	-10.284	0.101
122.900	-15.727	0.101
123.000	-3.277	0.101
123.100	-1.000	0.101
123.200	-0.151	0.101
123.300	-9.671	0.101
123.400	-14.209	0.101
123.500	-1.850	0.101
123.600	3.918	0.101
123.700	-15.168	0.101
123.800	-9.978	0.101
123.900	-10.720	0.101
124.000	-15.861	0.101
124.100	-10.587	0.101
124.200	-3.053	0.101
124.300	-13.248	0.101
124.400	-7.292	0.101
124.500	-1.011	0.101
124.600	-3.108	0.101
124.700	-10.923	0.101
124.800	-11.805	0.101
124.900	-7.745	0.101
125.000	-7.216	0.101
125.100	-10.023	0.101
125.200	-10.868	0.101
125.300	-19.288	0.101
125.400	-8.906	0.101
125.500	-9.024	0.101
125.600	-10.602	0.101
125.700	-11.010	0.101
125.800	0.302	0.101
125.900	-14.112	0.101
126.000	-3.007	0.101
126.100	-8.094	0.101
126.200	-6.014	0.101
126.300	-10.054	0.101
126.400	-8.461	0.101
126.500	-14.502	0.101
126.600	-12.261	0.101
126.700	-9.985	0.101
126.800	-7.397	0.101
126.900	-9.846	0.101
127.000	-3.116	0.101
127.100	-7.923	0.101
127.200	-15.346	0.101
127.300	-13.762	0.101
127.400	0.667	0.101
127.500	-2.476	0.101
127.600	-11.904	0.101
127.700	-12.925	0.101
127.800	-11.570	0.101
127.900	-11.889	0.101
128.000	-15.144	0.101
128.100	-8.192	0.101
128.200	-7.034	0.101
128.300	-12.267	0.101
128.400	-6.979	0.101
128.500	-7.707	0.101
128.600	-1.245	0.101
128.700	-8.230	0.101
128.800	-7.335	0.101
128.900	-13.246	0.101
129.000	-11.501	0.101
129.100	-11.830	0.101
129.200	-5.459	0.101
129.300	-18.124	0.101
129.400	-11.034	0.101
129.500	-4.664	0.101
129.600	1.829	0.101
129.700	-8.898	0.101
129.800	-16.697	0.101
129.900	-15.601	0.101
130.000	-8.919	0.101
130.100	-9.248	0.101
130.200	-6.633	0.101
130.300	-9.625	0.101
130.400	-10.230	0.101
130.500	0.046	0.101
130.600	-4.456	0.101
130.700	-17.965	0.101
130.800	-17.883	0.101
130.900	-10.514	0.101
131.000	-7.411	0.101
131.100	-12.606	0.101
131.200	-9.994	0.101
131.300	-6.763	0.101
131.400	-10.892	0.101
131.500	-4.537	0.101
131.600	-10.660	0.101
131.700	-7.685	0.101
131.800	-4.774	0.101
131.900	-6.677	0.101
132.000	-8.751	0.101
132.100	0.281	0.101
132.200	-3.833	0.101
132.300	-12.909	0.101
132.400	-10.786	0.101
132.500	-7.913	0.101
132.600	-12.325	0.101
132.700	-8.559	0.101
132.800	-4.274	0.101
132.900	-7.343	0.101
133.000	-10.663	0.101
133.100	-11.804	0.101
133.200	-10.895	0.101
133.300	-14.729	0.101
133.400	-20.140	0.101
133.500	-12.715	0.101
133.600	-2.916	0.101
133.700	6.267	0.101
133.800	-2.301	0.101
133.900	-11.264	0.101
134.000	-12.463	0.101
134.100	-9.948	0.101
134.200	-14.258	0.101
134.300	-15.400	0.101
134.400	-8.543	0.101
134.500	-20.985	0.101
134.600	-11.325	0.101
134.700	-10.323	0.101
134.800	-3.165	0.101
134.900	-6.004	0.101
135.000	-9.658	0.101
135.100	-11.798	0.101
135.200	-7.538	0.101
135.300	-20.627	0.101
135.400	-12.903	0.101
135.500	-19.516	0.101
135.600	-12.325	0.101
135.700	-15.630	0.101
135.800	-8.882	0.101
135.900	-0.622	0.101
136.000	-13.077	0.101
136.100	-19.672	0.101
136.200	-16.377	0.101
136.300	-13.904	0.101
136.400	-7.565	0.101
136.500	-6.622	0.101
136.600	-16.888	0.101
136.700	-14.611	0.101
136.800	-4.291	0.101
136.900	-13.158	0.101
137.000	-14.810	0.101
137.100	-3.398	0.101
137.200	4.449	0.101
137.300	-0.424	0.101
137.400	-9.190	0.101
137.500	-2.727	0.101
137.600	-11.217	0.101
137.700	-9.089	0.101
137.800	-8.448	0.101
137.900	-18.977	0.101
138.000	-5.409	0.101
138.100	-15.920	0.101
138.200	-14.968	0.101
138.300	0.445	0.101
138.400	-16.430	0.101
138.500	-13.102	0.101
138.600	-13.247	0.101
138.700	-13.647	0.101
138.800	-13.589	0.101
138.900	-21.395	0.101
139.000	-8.287	0.101
139.100	-9.116	0.101
139.200	-0.752	0.101
139.300	-9.349	0.101
139.400	-9.965	0.101
139.500	-3.734	0.101
139.600	-9.591	0.101
139.700	-10.410	0.101
139.800	-5.998	0.101
139.900	-6.854	0.101
140.000	-16.329	0.101
140.100	-6.226	0.101
140.200	-0.495	0.101
140.300	-10.878	0.101
140.400	-11.121	0.101
140.500	-11.851	0.101
140.600	-9.301	0.101
140.700	-10.730	0.101
140.800	-2.461	0.101
140.900	-16.151	0.101
141.000	-14.538	0.101
141.100	-8.352	0.101
141.200	-8.395	0.101
141.300	-5.823	0.101
141.400	-10.469	0.101
141.500	-12.684	0.101
141.600	-8.464	0.101
141.700	-11.222	0.101
141.800	-11.505	0.101
141.900	-17.665	0.101
142.000	-7.101	0.101
142.100	-21.085	0.101
142.200	-12.271	0.101
142.300	-8.198	0.101
142.400	1.269	0.101
142.500	-17.253	0.101
142.600	-10.070	0.101
142.700	-9.523	0.101
142.800	-26.201	0.101
142.900	-18.067	0.101
143.000	-19.539	0.101
143.100	0.126	0.101
143.200	-3.057	0.101
143.300	-4.399	0.101
143.400	-16.714	0.101
143.500	-13.279	0.101
143.600	-5.631	0.101
143.700	-8.357	0.101
143.800	-20.541	0.101
143.900	-14.474	0.101
144.000	-14.755	0.101
144.100	-6.625	0.101
144.200	-11.111	0.101
144.300	-6.375	0.101
144.400	-18.380	0.101
144.500	-2.950	0.101
144.600	-9.726	0.101
144.700	-16.990	0.101
144.800	-6.894	0.101
144.900	-11.516	0.101
145.000	-7.127	0.101
145.100	-8.792	0.101
145.200	-12.099	0.101
145.300	-2.392	0.101
145.400	-20.353	0.101
145.500	-12.010	0.100
145.600	-8.692	0.101
145.700	-9.689	0.101
145.800	-10.710	0.101
145.900	2.757	0.101
146.000	-3.711	0.101
146.100	-5.969	0.101
146.200	-29.848	0.101
146.300	-14.462	0.101
146.400	-4.663	0.101
146.500	-6.230	0.101
146.600	-15.497	0.101
146.700	-12.228	0.101
146.800	-9.570	0.101
146.900	-4.653	0.101
147.000	-11.686	0.101
147.100	-4.237	0.101
147.200	-6.467	0.101
147.300	-2.946	0.101
147.400	-12.505	0.101
147.500	-19.439	0.101
147.600	-6.780	0.101
147.700	-5.490	0.101
147.800	-14.293	0.101
147.900	-8.687	0.101
148.000	-12.007	0.101
148.100	-7.463	0.101
148.200	-8.735	0.101
148.300	-12.261	0.101
148.400	-19.472	0.101
148.500	-6.992	0.101
148.600	-16.215	0.101
148.700	-6.484	0.101
148.800	-9.010	0.101
148.900	-3.741	0.101
149.000	-11.327	0.101
149.100	-7.969	0.101
149.200	-14.690	0.101
149.300	-5.832	0.101
149.400	-10.107	0.101
149.500	-6.282	0.101
149.600	-0.611	0.101
149.700	-11.846	0.101
149.800	-12.960	0.101
149.900	-4.340	0.101
150.000	-2.930	0.101
150.100	-9.122	0.101
150.200	-15.455	0.101
150.300	-11.447	0.101
150.400	-17.457	0.101
150.500	-7.310	0.101
150.600	-6.819	0.101
150.700	-2.015	0.101
150.800	-8.799	0.101
150.900	-9.018	0.101
151.000	-14.918	0.101
151.100	-1.547	0.101
151.200	-10.522	0.101
151.300	-3.998	0.101
151.400	-11.173	0.101
151.500	4.344	0.101
151.600	-13.161	0.101
151.700	-8.216	0.101
151.800	-8.399	0.101
151.900	-13.278	0.101
152.000	-11.459	0.101
152.100	0.137	0.101
152.200	-23.431	0.101
152.300	-1.797	0.101
152.400	-10.143	0.101
152.500	-13.870	0.101
152.600	-6.947	0.101
152.700	-13.945	0.101
152.800	-26.999	0.101
152.900	1.410	0.101
153.000	-9.001	0.101
153.100	-17.729	0.101
153.200	-16.956	0.101
153.300	-13.531	0.101
153.400	-10.639	0.101
153.500	-5.184	0.101
153.600	-3.144	0.101
153.700	-13.241	0.101
153.800	-5.948	0.101
153.900	0.957	0.101
154.000	-12.593	0.101
154.100	-2.993	0.101
154.200	-19.284	0.101
154.300	-1.583	0.101
154.400	-3.137	0.101
154.500	-10.558	0.101
154.600	-8.316	0.101
154.700	-9.762	0.101
154.800	-26.541	0.101
154.900	-8.024	0.101
155.000	1.110	0.101
155.100	3.016	0.101
155.200	-12.297	0.101
155.300	-3.483	0.101
155.400	-9.634	0.101
155.500	-9.906	0.101
155.600	-9.232	0.101
155.700	-7.069	0.101
155.800	-17.386	0.101
155.900	-11.345	0.101
156.000	-17.676	0.101
156.100	-19.239	0.101
156.200	-12.186	0.101
156.300	-3.277	0.101
156.400	-13.187	0.101
156.500	-11.710	0.101
156.600	-11.331	0.101
156.700	-3.019	0.101
156.800	-13.302	0.101
156.900	0.433	0.101
157.000	-6.592	0.101
157.100	-5.617	0.101
157.200	-15.105	0.101
157.300	-9.464	0.101
157.400	-11.637	0.101
157.500	-10.202	0.101
157.600	-22.165	0.101
157.700	-1.815	0.101
157.800	-0.508	0.101
157.900	-10.931	0.101
158.000	-17.484	0.101
158.100	-8.498	0.101
158.200	-14.295	0.101
158.300	-16.924	0.101
158.400	-5.173	0.101
158.500	-1.287	0.101
158.600	-2.874	0.101
158.700	-14.073	0.101
158.800	-20.385	0.101
158.900	-6.259	0.101
159.000	-5.642	0.101
159.100	-9.843	0.101
159.200	-9.291	0.101
159.300	-15.464	0.101
159.400	-10.950	0.101
159.500	-18.722	0.101
159.600	-15.865	0.101
159.700	-0.437	0.101
159.800	-5.899	0.101
159.900	-1.103	0.101
160.000	0.308	0.101
160.100	-1.291	0.101
160.200	-7.149	0.101
160.300	-15.506	0.101
160.400	-17.650	0.101
160.500	-7.665	0.101
160.600	-5.538	0.101
160.700	-4.447	0.101
160.800	-16.528	0.101
160.900	-14.529	0.101
161.000	2.267	0.101
161.100	-2.315	0.101
161.200	-5.888	0.101
161.300	-0.007	0.101
161.400	-12.997	0.101
161.500	-6.381	0.101
161.600	-8.571	0.101
161.700	-10.218	0.101
161.800	-13.949	0.101
161.900	-0.573	0.101
162.000	-13.405	0.101
162.100	-10.459	0.101
162.200	-5.945	0.101
162.300	-16.545	0.101
162.400	-11.849	0.101
162.500	-13.135	0.101
162.600	-8.422	0.101
162.700	-0.748	0.101
162.800	-6.912	0.101
162.900	-11.813	0.101
163.000	-9.360	0.101
163.100	-5.405	0.101
163.200	-9.074	0.101
163.300	-3.223	0.101
163.400	-10.312	0.101
163.500	-9.735	0.101
163.600	-6.203	0.101
163.700	-5.154	0.101
163.800	-13.626	0.101
163.900	-2.219	0.101
164.000	-12.007	0.101
164.100	-8.404	0.101
164.200	-9.063	0.101
164.300	-12.464	0.101
164.400	-16.834	0.101
164.500	-7.212	0.101
164.600	-12.674	0.101
164.700	0.290	0.101
164.800	-4.754	0.101
164.900	-18.757	0.101
165.000	-19.027	0.101
165.100	-6.563	0.101
165.200	-7.196	0.101
165.300	-9.486	0.101
165.400	-12.281	0.101
165.500	-20.229	0.101
165.600	-10.045	0.101
165.700	0.321	0.101
165.800	-13.061	0.101
165.900	-3.884	0.101
166.000	-2.516	0.101
166.100	-13.558	0.101
166.200	-11.134	0.101
166.300	-0.154	0.101
166.400	-9.252	0.101
166.500	-13.229	0.101
166.600	-18.194	0.101
166.700	-22.533	0.101
166.800	-15.915	0.101
166.900	-3.754	0.101
167.000	-11.742	0.101
167.100	-1.339	0.101
167.200	-8.798	0.101
167.300	-13.416	0.101
167.400	-0.621	0.101
167.500	-1.454	0.101
167.600	-3.285	0.101
167.700	-14.244	0.101
167.800	-2.806	0.101
167.900	-13.273	0.101
168.000	-1.388	0.101
168.100	-7.878	0.101
168.200	-9.434	0.101
168.300	-2.826	0.101
168.400	-7.302	0.101
168.500	-15.571	0.101
168.600	-6.951	0.101
168.700	-10.250	0.101
168.800	-10.095	0.101
168.900	-5.898	0.101
169.000	-4.465	0.101
169.100	-1.836	0.101
169.200	-21.929	0.101
169.300	-13.450	0.101
169.400	0.003	0.101
169.500	-10.816	0.101
169.600	0.681	0.101
169.700	-20.710	0.101
169.800	-1.061	0.101
169.900	-0.824	0.101
170.000	-9.555	0.101
170.100	-13.507	0.101
170.200	-12.158	0.101
170.300	-20.220	0.101
170.400	-5.268	0.101
170.500	-15.194	0.101
170.600	0.551	0.101
170.700	-5.070	0.101
170.800	-5.750	0.101
170.900	-5.834	0.101
171.000	-11.705	0.101
171.100	-9.189	0.101
171.200	-8.154	0.101
171.300	-12.791	0.101
171.400	-6.857	0.101
171.500	-18.207	0.101
171.600	-12.322	0.101
171.700	-6.260	0.101
171.800	2.075	0.101
171.900	-14.466	0.101
172.000	-8.941	0.101
172.100	-4.360	0.101
172.200	-4.903	0.101
172.300	-7.681	0.101
172.400	-7.226	0.101
172.500	-7.841	0.101
172.600	-1.490	0.101
172.700	-3.371	0.101
172.800	-9.315	0.101
172.900	-11.838	0.101
173.000	-2.174	0.101
173.100	-7.044	0.101
173.200	-10.774	0.101
173.300	-12.297	0.101
173.400	-7.844	0.101
173.500	-15.847	0.101
173.600	-11.407	0.101
173.700	-6.722	0.101
173.800	-5.839	0.101
173.900	-6.820	0.101
174.000	-7.284	0.101
174.100	-13.206	0.101
174.200	-11.559	0.101
174.300	-4.999	0.101
174.400	-0.850	0.101
174.500	-2.001	0.101
174.600	-15.182	0.101
174.700	-11.011	0.101
174.800	-16.897	0.101
174.900	-14.454	0.101
175.000	-10.438	0.101
175.100	-5.452	0.101
175.200	1.221	0.101
175.300	-8.500	0.101
175.400	-2.221	0.101
175.500	-6.683	0.101
175.600	-11.216	0.101
175.700	-16.021	0.101
175.800	-9.539	0.101
175.900	-12.191	0.101
176.000	-9.607	0.101
176.100	-16.118	0.101
176.200	-23.956	0.101
176.300	-13.481	0.101
176.400	-5.531	0.101
176.500	-2.393	0.101
176.600	-3.276	0.101
176.700	-13.844	0.101
176.800	0.475	0.101
176.900	-8.774	0.101
177.000	-12.091	0.101
177.100	-18.953	0.101
177.200	-10.539	0.101
177.300	-8.207	0.101
177.400	-2.265	0.101
177.500	-8.242	0.101
177.600	-11.522	0.101
177.700	-1.038	0.101
177.800	-3.850	0.101
177.900	-10.991	0.101
178.000	-12.308	0.101
178.100	-9.338	0.101
178.200	-2.489	0.101
178.300	-15.596	0.101
178.400	-7.840	0.101
178.500	-8.854	0.101
178.600	-4.688	0.101
178.700	-5.924	0.101
178.800	-3.866	0.101
178.900	-5.813	0.101
179.000	-4.188	0.101
179.100	-11.459	0.101
179.200	-6.630	0.101
179.300	-2.900	0.101
179.400	-7.045	0.101
179.500	-4.716	0.101
179.600	-6.415	0.101
179.700	-5.917	0.101
179.800	-8.713	0.101
179.900	-6.688	0.101
180.000	-15.258	0.101
180.100	0.030	0.101
180.200	-7.743	0.101
180.300	-10.927	0.101
180.400	-2.030	0.101
180.500	0.147	0.101
180.600	-1.915	0.101
180.700	0.266	0.101
180.800	13.623	0.101
180.900	-0.851	0.101
181.000	2.140	0.101
181.100	15.148	0.101
181.200	20.350	0.101
181.300	23.024	0.101
181.400	5.537	0.101
181.500	14.965	0.101
181.600	24.866	0.101
181.700	21.299	0.101
181.800	19.085	0.101
181.900	10.758	0.101
182.000	21.891	0.101
182.100	19.800	0.101
182.200	21.296	0.101
182.300	17.897	0.101
182.400	22.683	0.101
182.500	10.870	0.101
182.600	19.647	0.101
182.700	16.321	0.101
182.800	20.403	0.101
182.900	28.684	0.101
183.000	29.443	0.101
183.100	19.735	0.101
183.200	23.668	0.101
183.300	16.226	0.101
183.400	29.548	0.101
183.500	21.677	0.101
183.600	31.285	0.101
183.700	25.345	0.101
183.800	14.762	0.101
183.900	24.843	0.101
184.000	22.655	0.101
184.100	29.364	0.101
184.200	20.051	0.101
184.300	27.225	0.101
184.400	36.571	0.101
184.500	25.574	0.101
184.600	19.080	0.101
184.700	23.508	0.101
184.800	25.132	0.101
184.900	16.796	0.101
185.000	32.471	0.101
185.100	20.823	0.101
185.200	36.565	0.101
185.300	28.179	0.101
185.400	14.609	0.101
185.500	17.920	0.101
185.600	19.937	0.101
185.700	20.721	0.101
185.800	17.173	0.101
185.900	21.472	0.101
186.000	23.986	0.101
186.100	17.767	0.101
186.200	27.965	0.101
186.300	15.604	0.101
186.400	22.454	0.101
186.500	15.143	0.101
186.600	24.787	0.101
186.700	10.697	0.101
186.800	23.318	0.101
186.900	6.123	0.101
187.000	24.580	0.101
187.100	18.085	0.101
187.200	31.999	0.101
187.300	22.121	0.101
187.400	24.189	0.101
187.500	22.419	0.101
187.600	19.731	0.101
187.700	20.983	0.101
187.800	16.544	0.101
187.900	9.534	0.101
188.000	16.030	0.101
188.100	21.556	0.101
188.200	24.150	0.101
188.300	20.674	0.101
188.400	18.915	0.101
188.500	9.598	0.101
188.600	19.257	0.101
188.700	20.464	0.101
188.800	15.077	0.101
188.900	16.413	0.101
189.000	18.541	0.101
189.100	15.329	0.101
189.200	15.756	0.101
189.300	18.643	0.101
189.400	15.973	0.101
189.500	17.470	0.101
189.600	28.114	0.101
189.700	27.420	0.101
189.800	21.811	0.101
189.900	17.229	0.101
190.000	23.918	0.101
190.100	19.162	0.101
190.200	23.720	0.101
190.300	14.742	0.101
190.400	26.268	0.101
190.500	11.127	0.101
190.600	22.848	0.101
190.700	15.124	0.101
190.800	24.084	0.101
190.900	24.839	0.101
191.000	24.715	0.101
191.100	37.094	0.101
191.200	24.803	0.101
191.300	23.342	0.101
191.400	10.657	0.101
191.500	17.574	0.101
191.600	17.209	0.101
191.700	18.904	0.101
191.800	28.019	0.101
191.900	20.418	0.101
192.000	15.766	0.101
192.100	13.605	0.101
192.200	26.411	0.101
192.300	30.015	0.101
192.400	29.409	0.101
192.500	15.975	0.101
192.600	26.508	0.101
192.700	16.211	0.101
192.800	14.692	0.101
192.900	25.480	0.101
193.000	19.520	0.101
193.100	17.212	0.101
193.200	27.764	0.101
193.300	23.873	0.101
193.400	27.008	0.101
193.500	17.627	0.101
193.600	19.160	0.101
193.700	33.699	0.101
193.800	32.260	0.101
193.900	22.995	0.101
194.000	13.001	0.101
194.100	29.449	0.101
194.200	24.763	0.101
194.300	29.806	0.101
194.400	35.988	0.101
194.500	24.731	0.101
194.600	23.349	0.101
194.700	24.344	0.101
194.800	29.454	0.101
194.900	28.355	0.101
195.000	19.720	0.101
195.100	24.640	0.101
195.200	24.540	0.101
195.300	24.431	0.101
195.400	17.647	0.101
195.500	40.853	0.101
195.600	25.614	0.101
195.700	24.533	0.101
195.800	34.979	0.101
195.900	21.600	0.101
196.000	28.988	0.101
196.100	26.364	0.101
196.200	29.963	0.101
196.300	35.380	0.101
196.400	19.751	0.101
196.500	25.447	0.101
196.600	23.165	0.101
196.700	19.074	0.101
196.800	32.875	0.101
196.900	23.649	0.101
197.000	22.010	0.101
197.100	23.244	0.101
197.200	11.322	0.101
197.300	24.893	0.101
197.400	26.461	0.101
197.500	23.691	0.101
197.600	28.198	0.101
197.700	30.642	0.101
197.800	27.572	0.101
197.900	36.820	0.101
198.000	26.203	0.101
198.100	23.574	0.101
198.200	30.536	0.101
198.300	33.788	0.101
198.400	23.311	0.101
198.500	25.916	0.101
198.600	29.997	0.101
198.700	28.669	0.101
198.800	33.250	0.101
198.900	30.024	0.101
199.000	25.042	0.101
199.100	24.643	0.101
199.200	21.056	0.101
199.300	28.452	0.101
199.400	36.100	0.101
199.500	35.306	0.101
199.600	38.061	0.101
199.700	29.863	0.101
199.800	20.404	0.101
199.900	33.417	0.101
200.000	26.987	0.101
200.100	23.856	0.101
200.200	28.097	0.101
200.300	22.355	0.101
200.400	32.482	0.101
200.500	39.131	0.101
200.600	29.476	0.101
200.700	32.354	0.101
200.800	26.697	0.101
200.900	32.670	0.101
201.000	37.140	0.101
201.100	35.681	0.101
201.200	35.160	0.101
201.300	24.984	0.101
201.400	25.919	0.101
201.500	31.596	0.101
201.600	36.584	0.101
201.700	35.850	0.101
201.800	26.205	0.101
201.900	29.397	0.101
202.000	27.388	0.101
202.100	38.567	0.101
202.200	31.375	0.101
202.300	23.739	0.101
202.400	26.784	0.101
202.500	26.093	0.101
202.600	41.044	0.101
202.700	31.909	0.101
202.800	31.891	0.101
202.900	35.768	0.101
203.000	26.809	0.101
203.100	23.095	0.101
203.200	36.004	0.101
203.300	24.278	0.101
203.400	25.247	0.101
203.500	36.031	0.101
203.600	32.604	0.101
203.700	30.015	0.101
203.800	41.370	0.101
203.900	32.254	0.101
204.000	19.772	0.101
204.100	22.599	0.101
204.200	33.262	0.101
204.300	32.569	0.101
204.400	33.030	0.101
204.500	36.405	0.101
204.600	29.090	0.101
204.700	33.273	0.101
204.800	23.215	0.101
204.900	34.262	0.101
205.000	30.519	0.101
205.100	26.624	0.101
205.200	21.620	0.101
205.300	38.419	0.101
205.400	29.709	0.101
205.500	30.710	0.101
205.600	30.120	0.101
205.700	39.225	0.101
205.800	32.034	0.101
205.900	32.770	0.101
206.000	37.364	0.101
206.100	25.109	0.101
206.200	29.615	0.101
206.300	32.011	0.101
206.400	30.873	0.101
206.500	33.023	0.101
206.600	25.912	0.101
206.700	25.859	0.101
206.800	27.789	0.101
206.900	42.523	0.101
207.000	37.806	0.101
207.100	24.803	0.101
207.200	26.841	0.101
207.300	31.864	0.101
207.400	34.206	0.101
207.500	39.805	0.101
207.600	28.424	0.101
207.700	31.590	0.101
207.800	28.974	0.101
207.900	31.336	0.101
208.000	23.000	0.101
208.100	30.508	0.101
208.200	28.591	0.101
208.300	31.020	0.101
208.400	36.727	0.101
208.500	29.796	0.101
208.600	26.117	0.101
208.700	44.106	0.101
208.800	25.763	0.101
208.900	29.095	0.101
209.000	31.594	0.101
209.100	36.170	0.101
209.200	25.617	0.101
209.300	23.583	0.101
209.400	32.452	0.101
209.500	34.802	0.101
209.600	31.736	0.101
209.700	40.699	0.101
209.800	30.286	0.101
209.900	29.565	0.101
210.000	24.654	0.101
210.100	25.936	0.101
210.200	32.987	0.101
210.300	30.178	0.101
210.400	28.393	0.101
210.500	22.387	0.101
210.600	28.308	0.101
210.700	33.410	0.101
210.800	37.116	0.101
210.900	27.874	0.101
211.000	32.071	0.101
211.100	32.140	0.101
211.200	29.232	0.101
211.300	32.514	0.101
211.400	24.962	0.101
211.500	28.043	0.101
211.600	33.396	0.101
211.700	31.415	0.101
211.800	18.818	0.101
211.900	32.470	0.101
212.000	30.151	0.101
212.100	32.536	0.101
212.200	37.439	0.101
212.300	36.104	0.101
212.400	27.037	0.101
212.500	21.763	0.101
212.600	30.525	0.101
212.700	32.655	0.101
212.800	22.343	0.101
212.900	20.503	0.101
213.000	15.448	0.101
213.100	23.026	0.101
213.200	29.154	0.101
213.300	30.674	0.101
213.400	35.127	0.101
213.500	24.205	0.101
213.600	28.948	0.101
213.700	33.839	0.101
213.800	23.818	0.101
213.900	26.610	0.101
214.000	16.867	0.101
214.100	35.761	0.101
214.200	32.826	0.101
214.300	33.222	0.101
214.400	21.222	0.101
214.500	31.493	0.101
214.600	26.932	0.101
214.700	27.726	0.101
214.800	25.558	0.101
214.900	26.698	0.101
215.000	20.467	0.101
215.100	28.593	0.101
215.200	30.632	0.101
215.300	35.672	0.101
215.400	38.296	0.101
215.500	38.781	0.101
215.600	29.986	0.101
215.700	32.174	0.101
215.800	16.849	0.101
215.900	26.326	0.101
216.000	26.782	0.101
216.100	37.125	0.101
216.200	35.268	0.101
216.300	27.513	0.101
216.400	22.246	0.101
216.500	35.806	0.101
216.600	36.530	0.101
216.700	25.741	0.101
216.800	21.553	0.101
216.900	34.854	0.101
217.000	29.407	0.101
217.100	30.812	0.101
217.200	27.436	0.101
217.300	30.756	0.101
217.400	24.519	0.101
217.500	28.065	0.101
217.600	25.764	0.101
217.700	35.123	0.101
217.800	26.814	0.101
217.900	27.228	0.101
218.000	24.026	0.101
218.100	36.246	0.101
218.200	35.738	0.101
218.300	30.062	0.101
218.400	32.180	0.101
218.500	28.564	0.101
218.600	36.849	0.101
218.700	34.045	0.101
218.800	17.686	0.101
218.900	33.274	0.101
219.000	26.222	0.101
219.100	26.782	0.101
219.200	45.090	0.101
219.300	30.176	0.101
219.400	29.275	0.101
219.500	21.867	0.101
219.600	24.655	0.101
219.700	34.043	0.101
219.800	26.087	0.101
219.900	27.380	0.101
220.000	24.547	0.101
220.100	28.436	0.101
220.200	27.615	0.101
220.300	23.816	0.101
220.400	36.979	0.101
220.500	32.098	0.101
220.600	26.807	0.101
220.700	37.202	0.101
220.800	26.250	0.101
220.900	29.257	0.101
221.000	17.239	0.101
221.100	12.754	0.101
221.200	30.385	0.101
221.300	27.912	0.101
221.400	34.451	0.101
221.500	38.948	0.101
221.600	31.264	0.101
221.700	34.307	0.101
221.800	21.025	0.101
221.900	34.036	0.101
222.000	31.772	0.101
222.100	34.152	0.101
222.200	17.674	0.101
222.300	24.314	0.101
222.400	26.564	0.101
222.500	27.652	0.101
222.600	33.104	0.101
222.700	32.718	0.101
222.800	25.057	0.101
222.900	27.423	0.101
223.000	32.615	0.101
223.100	34.038	0.101
223.200	29.459	0.101
223.300	27.064	0.101
223.400	28.812	0.101
223.500	30.831	0.101
223.600	32.975	0.101
223.700	30.257	0.101
223.800	28.312	0.101
223.900	27.350	0.101
224.000	16.281	0.101
224.100	20.678	0.101
224.200	43.260	0.101
224.300	25.199	0.101
224.400	37.050	0.101
224.500	24.822	0.101
224.600	31.135	0.101
224.700	32.440	0.101
224.800	18.831	0.101
224.900	31.065	0.101
225.000	23.540	0.101
225.100	36.045	0.101
225.200	23.581	0.101
225.300	30.168	0.101
225.400	19.733	0.101
225.500	37.476	0.101
225.600	38.767	0.101
225.700	40.113	0.101
225.800	31.302	0.101
225.900	31.537	0.101
226.000	22.968	0.101
226.100	33.217	0.101
226.200	21.090	0.101
226.300	38.032	0.101
226.400	20.056	0.101
226.500	29.819	0.101
226.600	30.292	0.101
226.700	31.680	0.101
226.800	29.621	0.101
226.900	30.263	0.101
227.000	33.231	0.101
227.100	34.816	0.101
227.200	26.617	0.101
227.300	31.124	0.101
227.400	26.749	0.101
227.500	24.603	0.101
227.600	33.236	0.101
227.700	31.734	0.101
227.800	30.799	0.101
227.900	16.654	0.101
228.000	19.636	0.101
228.100	31.163	0.101
228.200	29.955	0.101
228.300	25.765	0.101
228.400	32.306	0.101
228.500	30.611	0.101
228.600	30.720	0.101
228.700	23.031	0.101
228.800	27.614	0.101
228.900	35.365	0.101
229.000	23.789	0.101
229.100	27.394	0.101
229.200	31.101	0.101
229.300	25.269	0.101
229.400	28.169	0.101
229.500	22.232	0.101
229.600	25.181	0.101
229.700	34.220	0.101
229.800	36.569	0.101
229.900	34.315	0.101
230.000	19.107	0.101
230.100	27.389	0.101
230.200	29.669	0.101
230.300	26.016	0.101
230.400	30.376	0.101
230.500	30.564	0.101
230.600	22.035	0.101
230.700	35.849	0.101
230.800	29.290	0.101
230.900	29.937	0.101
231.000	26.387	0.101
231.100	27.434	0.101
231.200	33.032	0.101
231.300	29.151	0.101
231.400	25.496	0.101
231.500	27.759	0.101
231.600	26.774	0.101
231.700	32.889	0.101
231.800	18.862	0.101
231.900	22.464	0.101
232.000	29.876	0.101
232.100	33.046	0.101
232.200	36.568	0.101
232.300	26.727	0.101
232.400	38.471	0.101
232.500	31.467	0.101
232.600	34.421	0.101
232.700	27.739	0.101
232.800	18.628	0.101
232.900	26.966	0.101
233.000	20.821	0.101
233.100	34.345	0.101
233.200	36.245	0.101
233.300	35.113	0.101
233.400	36.832	0.101
233.500	23.992	0.101
233.600	26.704	0.101
233.700	23.486	0.101
233.800	31.268	0.101
233.900	34.069	0.101
234.000	35.461	0.101
234.100	30.904	0.101
234.200	23.526	0.101
234.300	13.778	0.101
234.400	40.332	0.101
234.500	36.525	0.101
234.600	34.858	0.101
234.700	25.370	0.101
234.800	23.994	0.101
234.900	28.256	0.101
235.000	26.834	0.101
235.100	28.047	0.101
235.200	21.881	0.101
235.300	29.090	0.101
235.400	37.742	0.101
235.500	28.384	0.101
235.600	34.438	0.101
235.700	21.763	0.101
235.800	32.278	0.101
235.900	33.453	0.101
236.000	27.105	0.101
236.100	25.363	0.101
236.200	24.750	0.101
236.300	25.513	0.101
236.400	26.915	0.101
236.500	36.238	0.101
236.600	33.072	0.101
236.700	26.980	0.101
236.800	28.462	0.101
236.900	44.221	0.101
237.000	31.256	0.101
237.100	21.907	0.101
237.200	27.420	0.101
237.300	26.046	0.101
237.400	32.716	0.101
237.500	17.731	0.101
237.600	38.797	0.101
237.700	42.173	0.101
237.800	35.341	0.101
237.900	28.696	0.101
238.000	23.727	0.101
238.100	28.240	0.101
238.200	39.552	0.101
238.300	23.091	0.101
238.400	33.656	0.101
238.500	20.575	0.101
238.600	28.741	0.101
238.700	33.180	0.101
238.800	26.018	0.101
238.900	29.465	0.101
239.000	33.525	0.101
239.100	36.104	0.101
239.200	27.516	0.101
239.300	21.666	0.101
239.400	27.896	0.101
239.500	24.974	0.101
239.600	29.271	0.101
239.700	30.741	0.101
239.800	22.449	0.101
239.900	19.079	0.101
240.000	27.866	0.101
240.100	31.063	0.101
240.200	40.503	0.101
240.300	29.659	0.101
240.400	31.248	0.101
240.500	15.277	0.101
240.600	23.172	0.101
240.700	18.860	0.101
240.800	24.889	0.101
240.900	12.450	0.101
241.000	14.234	0.101
241.100	5.818	0.101
241.200	9.491	0.101
241.300	8.265	0.101
241.400	8.271	0.101
241.500	9.203	0.101
241.600	9.992	0.101
241.700	0.325	0.101
241.800	2.428	0.101
241.900	-2.238	0.101
242.000	3.152	0.101
242.100	-1.640	0.101
242.200	0.283	0.101
242.300	1.647	0.101
242.400	5.127	0.101
242.500	-7.394	0.101
242.600	1.617	0.101
242.700	-0.617	0.101
242.800	5.688	0.101
242.900	-5.502	0.101
243.000	-4.489	0.101
243.100	-5.491	0.101
243.200	-4.931	0.101
243.300	-9.451	0.101
243.400	-11.360	0.101
243.500	-6.175	0.101
243.600	-4.091	0.101
243.700	0.441	0.101
243.800	-6.094	0.101
243.900	-7.644	0.101
244.000	-8.929	0.101
244.100	-6.054	0.101
244.200	-3.677	0.101
244.300	-8.533	0.101
244.400	2.781	0.101
244.500	-3.799	0.101
244.600	-0.205	0.101
244.700	-10.768	0.101
244.800	-9.620	0.101
244.900	-16.655	0.101
245.000	-16.096	0.101
245.100	-11.982	0.101
245.200	-10.419	0.101
245.300	-10.277	0.101
245.400	-4.177	0.101
245.500	-2.436	0.101
245.600	-5.509	0.101
245.700	5.120	0.101
245.800	-3.874	0.101
245.900	3.643	0.101
246.000	1.401	0.101
246.100	-6.437	0.101
246.200	-2.762	0.101
246.300	-7.929	0.101
246.400	-14.585	0.101
246.500	-17.590	0.101
246.600	-4.619	0.101
246.700	-12.862	0.101
246.800	-13.394	0.101
246.900	-6.615	0.101
247.000	-6.435	0.101
247.100	-6.116	0.101
247.200	-5.249	0.101
247.300	-8.352	0.101
247.400	1.347	0.101
247.500	-5.604	0.101
247.600	-7.139	0.101
247.700	-9.051	0.101
247.800	-6.257	0.101
247.900	-10.051	0.101
248.000	-1.492	0.101
248.100	-12.814	0.101
248.200	-0.148	0.101
248.300	-12.485	0.101
248.400	-7.588	0.101
248.500	-15.146	0.101
248.600	-4.308	0.101
248.700	-5.695	0.101
248.800	-4.966	0.101
248.900	-7.831	0.101
249.000	-1.712	0.101
249.100	-14.071	0.101
249.200	-8.523	0.101
249.300	-4.122	0.101
249.400	-6.113	0.101
249.500	6.049	0.101
249.600	-4.569	0.101
249.700	-8.650	0.101
249.800	-1.122	0.101
249.900	-6.204	0.101
250.000	-9.567	0.101
250.100	-11.722	0.101
250.200	-14.649	0.101
250.300	-6.271	0.101
250.400	-2.926	0.101
250.500	-13.938	0.101
250.600	-8.765	0.101
250.700	-7.481	0.101
250.800	-7.025	0.101
250.900	-1.835	0.101
251.000	-4.652	0.101
251.100	2.389	0.101
251.200	-7.067	0.101
251.300	-5.011	0.101
251.400	-7.969	0.101
251.500	-13.383	0.101
251.600	-8.753	0.101
251.700	-9.767	0.101
251.800	-7.850	0.101
251.900	-4.635	0.101
252.000	-4.271	0.101
252.100	-2.324	0.101
252.200	-1.421	0.101
252.300	-11.558	0.101
252.400	-14.865	0.101
252.500	-10.299	0.101
252.600	-14.371	0.101
252.700	-0.678	0.101
252.800	-7.210	0.101
252.900	-5.167	0.101
253.000	-7.523	0.101
253.100	-18.265	0.101
253.200	-17.908	0.101
253.300	-14.055	0.101
253.400	-0.681	0.101
253.500	-5.516	0.101
253.600	1.849	0.101
253.700	-3.698	0.101
253.800	-11.965	0.101
253.900	-7.912	0.101
254.000	-6.949	0.101
254.100	-7.276	0.101
254.200	-5.747	0.101
254.300	-17.624	0.101
254.400	-17.579	0.101
254.500	-17.533	0.101
254.600	-7.946	0.101
254.700	-6.809	0.101
254.800	0.328	0.101
254.900	-5.389	0.101
255.000	-4.787	0.101
255.100	-3.204	0.101
255.200	-3.876	0.101
255.300	-15.941	0.101
255.400	-15.593	0.101
255.500	-10.852	0.101
255.600	-2.525	0.101
255.700	-6.314	0.101
255.800	-2.410	0.101
255.900	-17.320	0.101
256.000	-14.916	0.101
256.100	-9.383	0.101
256.200	-14.963	0.101
256.300	-12.009	0.101
256.400	-10.231	0.101
256.500	-6.877	0.101
256.600	-10.085	0.101
256.700	-3.788	0.101
256.800	-13.502	0.101
256.900	-11.115	0.101
257.000	-10.717	0.101
257.100	-13.579	0.101
257.200	-12.905	0.101
257.300	-16.352	0.101
257.400	-7.383	0.101
257.500	-10.370	0.101
257.600	-14.611	0.101
257.700	-4.784	0.101
257.800	-5.175	0.101
257.900	-15.841	0.101
258.000	-18.046	0.101
258.100	-12.897	0.101
258.200	-12.993	0.101
258.300	-8.662	0.101
258.400	-6.105	0.101
258.500	-8.885	0.101
258.600	-20.691	0.101
258.700	-10.888	0.101
258.800	-13.930	0.101
258.900	-5.654	0.101
259.000	-16.104	0.101
259.100	-11.090	0.101
259.200	-23.610	0.101
259.300	-14.577	0.101
259.400	-4.424	0.101
259.500	-16.667	0.101
259.600	-10.379	0.101
259.700	-11.470	0.101
259.800	-7.806	0.101
259.900	-11.665	0.101
260.000	-19.397	0.101
260.100	-9.899	0.101
260.200	-11.328	0.101
260.300	-7.448	0.101
260.400	-22.473	0.101
260.500	-12.065	0.101
260.600	-24.268	0.101
260.700	-10.557	0.101
260.800	-10.179	0.101
260.900	-6.323	0.101
261.000	-13.337	0.101
261.100	-5.514	0.101
261.200	-15.462	0.101
261.300	-10.271	0.101
261.400	-6.354	0.101
261.500	-9.981	0.101
261.600	-12.169	0.101
261.700	-8.977	0.101
261.800	-14.360	0.101
261.900	-2.729	0.101
262.000	-5.738	0.101
262.100	-16.099	0.101
262.200	-10.873	0.101
262.300	-4.753	0.101
262.400	-11.398	0.101
262.500	-15.567	0.101
262.600	-17.343	0.101
262.700	-13.605	0.101
262.800	-8.211	0.101
262.900	-11.176	0.101
263.000	-18.199	0.101
263.100	-12.129	0.101
263.200	-14.554	0.101
263.300	-7.951	0.101
263.400	-5.026	0.101
263.500	-24.957	0.101
263.600	-14.103	0.101
263.700	-6.892	0.101
263.800	-22.158	0.101
263.900	-12.616	0.101
264.000	-11.337	0.101
264.100	-4.597	0.101
264.200	-4.584	0.101
264.300	-20.252	0.101
264.400	-14.557	0.101
264.500	-14.296	0.101
264.600	-9.909	0.101
264.700	-3.811	0.101
264.800	-28.460	0.101
264.900	-17.554	0.101
265.000	-18.146	0.101
265.100	-12.718	0.101
265.200	-13.672	0.101
265.300	-9.702	0.101
265.400	-5.422	0.101
265.500	-13.392	0.101
265.600	-17.963	0.101
265.700	-5.992	0.101
265.800	-18.949	0.101
265.900	-9.196	0.101
266.000	-11.991	0.101
266.100	-9.939	0.101
266.200	-21.847	0.101
266.300	-1.306	0.101
266.400	-13.421	0.101
266.500	-15.428	0.101
266.600	-15.664	0.101
266.700	-11.274	0.101
266.800	-16.982	0.101
266.900	-11.561	0.101
267.000	-6.501	0.101
267.100	-11.117	0.101
267.200	-19.516	0.101
267.300	-5.243	0.101
267.400	-22.311	0.101
267.500	-22.674	0.101
267.600	-16.700	0.101
267.700	-15.610	0.101
267.800	-7.560	0.101
267.900	-2.721	0.101
268.000	-15.813	0.101
268.100	-22.331	0.101
268.200	-10.177	0.101
268.300	-8.058	0.101
268.400	-21.011	0.101
268.500	-13.930	0.101
268.600	-14.476	0.101
268.700	-13.812	0.101
268.800	-15.975	0.101
268.900	-12.900	0.101
269.000	-14.028	0.101
269.100	-20.162	0.101
269.200	-14.301	0.101
269.300	-14.399	0.101
269.400	-14.101	0.101
269.500	-18.910	0.101
269.600	-21.616	0.101
269.700	-10.755	0.101
269.800	-13.698	0.101
269.900	-5.328	0.101
270.000	-19.776	0.101
270.100	-16.267	0.101
270.200	-25.985	0.101
270.300	-10.959	0.101
270.400	-14.893	0.101
270.500	-12.801	0.101
270.600	-7.576	0.101
270.700	-7.594	0.101
270.800	-12.496	0.101
270.900	-25.185	0.101
271.000	-19.072	0.101
271.100	-13.622	0.101
271.200	-28.184	0.101
271.300	-14.143	0.101
271.400	-15.264	0.101
271.500	-16.961	0.101
271.600	-20.739	0.101
271.700	-11.163	0.101
271.800	-14.646	0.101
271.900	-9.422	0.101
272.000	-25.712	0.101
272.100	-16.241	0.101
272.200	-14.342	0.101
272.300	-19.822	0.101
272.400	-17.999	0.101
272.500	-14.742	0.101
272.600	-11.371	0.101
272.700	-15.026	0.101
272.800	-10.141	0.101
272.900	-15.892	0.101
273.000	-17.389	0.101
273.100	-16.113	0.101
273.200	-19.510	0.101
273.300	-16.526	0.101
273.400	-16.140	0.101
273.500	-13.505	0.101
273.600	-10.117	0.101
273.700	-16.301	0.101
273.800	-14.170	0.101
273.900	-12.821	0.101
274.000	-20.280	0.101
274.100	-8.915	0.101
274.200	-15.502	0.101
274.300	-18.605	0.101
274.400	-19.523	0.101
274.500	-6.804	0.101
274.600	-16.242	0.101
274.700	-8.813	0.101
274.800	-15.560	0.101
274.900	-13.983	0.101
275.000	-19.848	0.101
275.100	-8.208	0.101
275.200	-17.413	0.101
275.300	-15.507	0.101
275.400	-20.907	0.101
275.500	-22.166	0.101
275.600	-12.495	0.101
275.700	-16.549	0.101
275.800	-17.287	0.101
275.900	-26.061	0.101
276.000	-16.059	0.101
276.100	-25.589	0.101
276.200	-23.930	0.101
276.300	-17.009	0.101
276.400	-11.045	0.101
276.500	-10.900	0.101
276.600	-23.183	0.101
276.700	-13.407	0.101
276.800	-5.073	0.101
276.900	-6.235	0.101
277.000	-21.352	0.101
277.100	-17.824	0.101
277.200	-16.852	0.101
277.300	-14.927	0.101
277.400	-18.050	0.101
277.500	-15.726	0.101
277.600	-26.675	0.101
277.700	-17.050	0.101
277.800	-13.848	0.101
277.900	-16.176	0.101
278.000	-12.176	0.101
278.100	-14.178	0.101
278.200	-20.132	0.101
278.300	-20.575	0.101
278.400	-17.678	0.101
278.500	-5.550	0.101
278.600	-17.949	0.101
278.700	-10.080	0.101
278.800	-19.600	0.101
278.900	-17.449	0.101
279.000	-20.385	0.101
279.100	-9.650	0.101
279.200	-24.695	0.101
279.300	-15.414	0.101
279.400	-14.869	0.101
279.500	-17.388	0.101
279.600	-15.328	0.101
279.700	-4.367	0.101
279.800	-19.633	0.101
279.900	-22.062	0.101
280.000	-21.387	0.101
280.100	-1.327	0.101
280.200	-11.852	0.101
280.300	-18.673	0.101
280.400	-12.221	0.101
280.500	-9.853	0.101
280.600	-14.821	0.101
280.700	-19.552	0.101
280.800	-16.933	0.101
280.900	-18.557	0.101
281.000	-25.814	0.101
281.100	-17.779	0.101
281.200	-8.979	0.101
281.300	-21.957	0.101
281.400	-13.457	0.101
281.500	-17.673	0.101
281.600	-27.347	0.101
281.700	-15.439	0.101
281.800	-10.665	0.101
281.900	-19.751	0.101
282.000	-5.151	0.101
282.100	-21.775	0.101
282.200	-24.709	0.101
282.300	-18.863	0.101
282.400	-16.120	0.101
282.500	-19.660	0.101
282.600	-22.266	0.101
282.700	-4.675	0.101
282.800	-14.786	0.101
282.900	-14.948	0.101
283.000	-18.060	0.101
283.100	-13.051	0.101
283.200	-22.817	0.101
283.300	-8.555	0.101
283.400	-17.197	0.101
283.500	-12.769	0.101
283.600	-26.272	0.101
283.700	-16.620	0.101
283.800	-19.203	0.101
283.900	-14.332	0.101
284.000	-16.004	0.101
284.100	-16.666	0.101
284.200	-17.636	0.101
284.300	-9.651	0.101
284.400	-19.490	0.101
284.500	-14.548	0.101
284.600	-19.056	0.101
284.700	-13.656	0.101
284.800	-15.417	0.101
284.900	-21.047	0.101
285.000	-22.266	0.101
285.100	-12.437	0.101
285.200	-10.568	0.101
285.300	-18.952	0.101
285.400	-14.863	0.101
285.500	-15.970	0.101
285.600	-16.568	0.101
285.700	-22.771	0.101
285.800	-16.348	0.101
285.900	-12.345	0.101
286.000	-20.001	0.101
286.100	-12.462	0.101
286.200	-17.402	0.101
286.300	-11.966	0.101
286.400	-22.228	0.101
286.500	-6.065	0.101
286.600	-16.231	0.101
286.700	-12.978	0.101
286.800	-18.006	0.101
286.900	-13.527	0.101
287.000	-16.738	0.101
287.100	-17.347	0.101
287.200	-18.865	0.101
287.300	-13.036	0.101
287.400	-4.713	0.101
287.500	-16.277	0.101
287.600	-14.430	0.101
287.700	-18.221	0.101
287.800	-18.326	0.101
287.900	-14.546	0.101
288.000	-20.967	0.101
288.100	-15.658	0.101
288.200	-16.343	0.101
288.300	-15.194	0.101
288.400	-11.314	0.101
288.500	-12.479	0.101
288.600	-9.510	0.101
288.700	-4.976	0.101
288.800	-13.572	0.101
288.900	-11.928	0.101
289.000	-14.198	0.101
289.100	-10.601	0.101
289.200	-17.446	0.101
289.300	-2.455	0.101
289.400	-16.981	0.101
289.500	-12.365	0.101
289.600	-11.907	0.101
289.700	-15.252	0.101
289.800	-27.181	0.101
289.900	-22.075	0.101
290.000	-16.844	0.101
290.100	-11.234	0.101
290.200	-11.346	0.101
290.300	-13.444	0.101
290.400	-14.404	0.101
290.500	-22.661	0.101
290.600	-11.836	0.101
290.700	-1.652	0.101
290.800	-22.911	0.101
290.900	-15.902	0.101
291.000	-24.772	0.101
291.100	-6.804	0.101
291.200	-12.337	0.101
291.300	-12.907	0.101
291.400	-23.852	0.101
291.500	-26.625	0.101
291.600	-20.365	0.101
291.700	-11.076	0.101
291.800	-17.077	0.101
291.900	-13.553	0.101
292.000	-24.191	0.101
292.100	-15.901	0.101
292.200	-14.945	0.101
292.300	-7.259	0.101
292.400	-7.544	0.101
292.500	-17.620	0.101
292.600	-12.721	0.101
292.700	-16.522	0.101
292.800	-11.388	0.101
292.900	-12.474	0.101
293.000	-8.156	0.101
293.100	-18.987	0.101
293.200	-19.820	0.101
293.300	-22.181	0.101
293.400	-19.790	0.101
293.500	-12.756	0.101
293.600	-3.774	0.101
293.700	-15.576	0.101
293.800	-25.873	0.101
293.900	-30.946	0.101
294.000	-3.180	0.101
294.100	0.472	0.101
294.200	-12.914	0.101
294.300	-15.791	0.101
294.400	-21.021	0.101
294.500	-30.680	0.101
294.600	-22.482	0.101
294.700	-12.719	0.101
294.800	-5.131	0.101
294.900	-4.383	0.101
295.000	-9.344	0.101
295.100	-18.993	0.101
295.200	-7.676	0.101
295.300	-18.315	0.101
295.400	-11.997	0.101
295.500	-13.241	0.101
295.600	-15.736	0.101
295.700	-13.625	0.101
295.800	-11.145	0.101
295.900	-16.776	0.101
296.000	-21.940	0.101
296.100	-16.686	0.101
296.200	-13.796	0.101
296.300	-17.536	0.101
296.400	-20.406	0.101
296.500	-8.140	0.101
296.600	-11.147	0.101
296.700	-16.531	0.101
296.800	-11.851	0.101
296.900	-15.036	0.101
297.000	-13.454	0.101
297.100	-15.835	0.101
297.200	-14.616	0.101
297.300	-10.689	0.101
297.400	-8.143	0.101
297.500	-12.495	0.101
297.600	-18.602	0.101
297.700	-19.966	0.101
297.800	-11.423	0.101
297.900	-15.471	0.101
298.000	-19.178	0.101
298.100	-15.925	0.101
298.200	-17.025	0.101
298.300	-15.729	0.101
298.400	-20.710	0.101
298.500	-19.868	0.101
298.600	-14.526	0.101
298.700	-11.656	0.101
298.800	1.752	0.101
298.900	-19.412	0.101
299.000	-4.498	0.101
299.100	-27.404	0.101
299.200	-15.077	0.101
299.300	-9.389	0.101
299.400	-4.527	0.101
299.500	-21.842	0.101
299.600	-22.892	0.101
299.700	-11.469	0.101
299.800	-5.274	0.101
299.900	-11.579	0.101
300.000	-12.960	0.101
300.100	-13.602	0.101
300.200	-11.314	0.101
300.300	-7.489	0.101
300.400	-12.560	0.101
300.500	-11.882	0.101
300.600	-6.958	0.101
300.700	-19.872	0.101
300.800	-21.221	0.101
300.900	-19.192	0.101
301.000	-16.183	0.101
301.100	-21.685	0.101
301.200	-9.078	0.101
301.300	-17.474	0.101
301.400	-7.538	0.101
301.500	-16.803	0.101
301.600	-9.184	0.101
301.700	-23.402	0.101
301.800	-7.535	0.101
301.900	-5.397	0.101
302.000	-4.633	0.101
302.100	-14.371	0.101
302.200	2.041	0.101
302.300	-12.110	0.101
302.400	-16.540	0.101
302.500	-24.729	0.101
302.600	-19.496	0.101
302.700	-22.328	0.101
302.800	1.552	0.101
302.900	-19.505	0.101
303.000	-6.902	0.101
303.100	-11.227	0.101
303.200	-11.448	0.101
303.300	-14.373	0.101
303.400	-11.023	0.101
303.500	-7.312	0.101
303.600	-10.399	0.101
303.700	-14.468	0.101
303.800	-6.018	0.101
303.900	-14.636	0.101
304.000	-11.384	0.101
304.100	-28.642	0.101
304.200	-8.494	0.101
304.300	-17.754	0.101
304.400	-15.204	0.101
304.500	-9.088	0.101
304.600	-12.782	0.101
304.700	-22.333	0.101
304.800	-12.040	0.101
304.900	-5.987	0.101
305.000	-12.307	0.101
305.100	-12.304	0.101
305.200	-8.561	0.101
305.300	-20.769	0.101
305.400	-15.260	0.101
305.500	-13.052	0.101
305.600	-16.849	0.101
305.700	-20.900	0.101
305.800	-16.354	0.101
305.900	-9.016	0.101
306.000	-15.616	0.101
306.100	-15.664	0.101
306.200	-10.947	0.101
306.300	-16.608	0.101
306.400	-14.235	0.101
306.500	-7.826	0.101
306.600	-3.201	0.101
306.700	-7.806	0.101
306.800	-13.086	0.101
306.900	-18.118	0.101
307.000	-15.695	0.101
307.100	-9.929	0.101
307.200	-11.421	0.101
307.300	-10.555	0.101
307.400	-11.142	0.101
307.500	0.238	0.101
307.600	-18.038	0.101
307.700	-8.790	0.101
307.800	-14.615	0.101
307.900	-11.021	0.101
308.000	-12.257	0.101
308.100	-14.192	0.101
308.200	-1.879	0.101
308.300	-19.174	0.101
308.400	-15.929	0.101
308.500	-15.147	0.101
308.600	-14.121	0.101
308.700	-17.140	0.101
308.800	-7.621	0.101
308.900	-12.800	0.101
309.000	-11.540	0.101
309.100	-14.135	0.101
309.200	-17.890	0.101
309.300	-16.140	0.101
309.400	-4.797	0.101
309.500	-12.832	0.101
309.600	-7.154	0.101
309.700	-18.663	0.101
309.800	-16.718	0.101
309.900	-14.517	0.101
310.000	-14.865	0.101
310.100	-12.759	0.101
310.200	-13.487	0.101
310.300	-12.389	0.101
310.400	-12.259	0.101
310.500	-7.558	0.101
310.600	-16.258	0.101
310.700	-7.765	0.101
310.800	-14.489	0.101
310.900	-14.798	0.101
311.000	-6.923	0.101
311.100	-20.308	0.101
311.200	-6.185	0.101
311.300	-14.282	0.101
311.400	-9.628	0.101
311.500	-13.231	0.101
311.600	-10.098	0.101
311.700	-12.996	0.101
311.800	-3.702	0.101
311.900	-14.451	0.101
312.000	-13.504	0.101
312.100	-17.303	0.101
312.200	-11.347	0.101
312.300	-12.625	0.101
312.400	-5.952	0.101
312.500	-6.675	0.101
312.600	-14.061	0.101
312.700	-24.021	0.101
312.800	-3.147	0.101
312.900	-9.434	0.101
313.000	-12.346	0.101
313.100	-12.336	0.101
313.200	-4.094	0.101
313.300	-18.025	0.101
313.400	-14.738	0.101
313.500	-18.304	0.101
313.600	-16.676	0.101
313.700	-9.858	0.101
313.800	-8.252	0.101
313.900	-16.713	0.101
314.000	-10.585	0.101
314.100	-11.592	0.101
314.200	-3.592	0.101
314.300	-2.160	0.101
314.400	-16.701	0.101
314.500	-16.756	0.101
314.600	-6.733	0.101
314.700	-11.723	0.101
314.800	-13.008	0.101
314.900	-20.162	0.101
315.000	-8.700	0.101
315.100	-5.803	0.101
315.200	-7.471	0.101
315.300	-14.343	0.101
315.400	-7.389	0.101
315.500	-13.946	0.101
315.600	-11.998	0.101
315.700	-10.890	0.101
315.800	-16.800	0.101
315.900	-5.561	0.101
316.000	-18.647	0.101
316.100	-10.567	0.101
316.200	-10.655	0.101
316.300	-11.878	0.101
316.400	-8.922	0.101
316.500	-15.957	0.101
316.600	-20.939	0.101
316.700	-18.572	0.101
316.800	-3.063	0.101
316.900	-8.409	0.101
317.000	-9.889	0.101
317.100	-9.360	0.101
317.200	-1.085	0.101
317.300	-12.548	0.101
317.400	-15.940	0.101
317.500	-20.284	0.101
317.600	-16.368	0.101
317.700	-19.989	0.101
317.800	1.667	0.101
317.900	-18.010	0.101
318.000	-17.385	0.101
318.100	-9.065	0.101
318.200	-15.839	0.101
318.300	-7.841	0.101
318.400	-12.216	0.101
318.500	-11.415	0.101
318.600	0.300	0.101
318.700	-6.852	0.101
318.800	-18.250	0.101
318.900	-11.721	0.101
319.000	-10.176	0.101
319.100	-16.475	0.101
319.200	-7.263	0.101
319.300	-0.654	0.101
319.400	-10.080	0.101
319.500	-13.902	0.101
319.600	-12.106	0.101
319.700	-8.960	0.101
319.800	-18.485	0.101
319.900	1.441	0.101
320.000	-5.672	0.101
320.100	-10.461	0.101
320.200	-17.240	0.101
320.300	-12.518	0.101
320.400	-18.486	0.101
320.500	-11.151	0.101
320.600	-13.012	0.101
320.700	-5.193	0.101
320.800	-12.814	0.101
320.900	-9.631	0.101
321.000	-12.893	0.101
321.100	-12.672	0.101
321.200	-6.384	0.101
321.300	-17.067	0.101
321.400	-9.825	0.101
321.500	-19.087	0.101
321.600	-8.400	0.101
321.700	-20.203	0.101
321.800	-11.030	0.101
321.900	-9.520	0.101
322.000	-11.490	0.101
322.100	-11.991	0.101
322.200	-11.048	0.101
322.300	-8.735	0.101
322.400	-12.083	0.101
322.500	-17.362	0.101
322.600	-17.406	0.101
322.700	-2.419	0.101
322.800	-8.006	0.101
322.900	-12.374	0.101
323.000	-16.633	0.101
323.100	-19.483	0.101
323.200	-11.910	0.101
323.300	-4.852	0.101
323.400	-16.818	0.101
323.500	-15.915	0.101
323.600	-7.909	0.101
323.700	-6.446	0.101
323.800	-8.674	0.101
323.900	-9.668	0.101
324.000	-14.724	0.101
324.100	-11.319	0.101
324.200	-14.558	0.101
324.300	-14.022	0.101
324.400	-10.671	0.101
324.500	-6.899	0.101
324.600	-24.328	0.101
324.700	-10.215	0.101
324.800	-17.554	0.101
324.900	-5.790	0.101
325.000	-5.605	0.101
325.100	-5.576	0.101
325.200	-12.861	0.101
325.300	-9.199	0.101
325.400	-10.397	0.101
325.500	-10.160	0.101
325.600	-13.638	0.101
325.700	-8.727	0.101
325.800	-12.774	0.101
325.900	-13.167	0.101
326.000	-11.011	0.101
326.100	-10.191	0.101
326.200	-10.712	0.101
326.300	-8.408	0.101
326.400	-13.951	0.101
326.500	-9.155	0.101
326.600	-15.416	0.101
326.700	-10.614	0.101
326.800	-11.150	0.101
326.900	-12.675	0.101
327.000	-11.583	0.101
327.100	-10.969	0.101
327.200	-11.546	0.101
327.300	-10.219	0.101
327.400	-6.611	0.101
327.500	-3.846	0.101
327.600	-13.129	0.101
327.700	-12.109	0.101
327.800	-12.315	0.101
327.900	-7.339	0.101
328.000	-13.913	0.101
328.100	-8.837	0.101
328.200	-8.350	0.101
328.300	-7.284	0.101
328.400	-19.174	0.101
328.500	-6.296	0.101
328.600	-12.595	0.101
328.700	-14.760	0.101
328.800	-14.905	0.101
328.900	-11.456	0.101
329.000	-18.733	0.101
329.100	-2.107	0.101
329.200	-3.514	0.101
329.300	-2.478	0.101
329.400	-12.939	0.101
329.500	-6.755	0.101
329.600	-11.142	0.101
329.700	-4.550	0.101
329.800	-1.232	0.101
329.900	-13.453	0.101
330.000	-8.325	0.101
330.100	-7.732	0.101
330.200	-15.295	0.101
330.300	-1.567	0.101
330.400	-6.007	0.101
330.500	-1.866	0.101
330.600	-1.558	0.101
330.700	2.715	0.101
330.800	1.477	0.101
330.900	7.991	0.101
331.000	12.927	0.101
331.100	10.381	0.101
331.200	9.071	0.101
331.300	15.335	0.101
331.400	15.028	0.101
331.500	15.712	0.101
331.600	9.965	0.101
331.700	16.342	0.101
331.800	13.903	0.101
331.900	21.610	0.101
332.000	16.771	0.101
332.100	12.092	0.101
332.200	13.376	0.101
332.300	25.241	0.101
332.400	16.536	0.101
332.500	25.500	0.101
332.600	22.801	0.101
332.700	25.906	0.101
332.800	19.352	0.101
332.900	32.901	0.101
333.000	26.758	0.101
333.100	28.960	0.101
333.200	16.743	0.101
333.300	31.264	0.101
333.400	16.507	0.101
333.500	26.919	0.101
333.600	21.764	0.101
333.700	19.110	0.101
333.800	13.526	0.101
333.900	31.203	0.101
334.000	16.841	0.101
334.100	28.917	0.101
334.200	14.079	0.100
334.300	24.354	0.101
334.400	26.161	0.101
334.500	30.801	0.101
334.600	26.685	0.101
334.700	26.595	0.101
334.800	24.646	0.101
334.900	24.526	0.101
335.000	22.293	0.101
335.100	20.581	0.101
335.200	22.815	0.101
335.300	32.348	0.101
335.400	33.824	0.101
335.500	26.312	0.101
335.600	11.925	0.101
335.700	24.337	0.101
335.800	15.387	0.101
335.900	10.858	0.101
336.000	26.181	0.101
336.100	24.895	0.101
336.200	26.084	0.101
336.300	17.657	0.101
336.400	11.005	0.101
336.500	19.376	0.101
336.600	23.454	0.101
336.700	24.689	0.101
336.800	18.526	0.101
336.900	12.592	0.100
337.000	16.078	0.101
337.100	22.242	0.101
337.200	17.383	0.101
337.300	19.828	0.101
337.400	11.835	0.100
337.500	21.077	0.100
337.600	12.981	0.101
337.700	28.995	0.101
337.800	18.143	0.101
337.900	10.714	0.101
338.000	10.876	0.101
338.100	20.177	0.101
338.200	19.184	0.101
338.300	28.158	0.101
338.400	17.214	0.101
338.500	23.969	0.101
338.600	16.335	0.100
338.700	18.647	0.101
338.800	21.614	0.101
338.900	18.125	0.101
339.000	9.244	0.101
339.100	25.604	0.101
339.200	28.301	0.100
339.300	11.642	0.101
339.400	21.289	0.101
339.500	18.221	0.101
339.600	27.310	0.100
339.700	17.655	0.101
339.800	20.263	0.101
339.900	17.631	0.100
340.000	26.568	0.100
340.100	30.160	0.101
340.200	15.196	0.101
340.300	14.970	0.101
340.400	16.502	0.101
340.500	21.803	0.101
340.600	21.717	0.101
340.700	19.649	0.101
340.800	26.390	0.100
340.900	22.078	0.101
341.000	31.968	0.101
341.100	16.202	0.100
341.200	10.917	0.101
341.300	19.139	0.100
341.400	21.283	0.100
341.500	12.287	0.100
341.600	29.268	0.100
341.700	25.577	0.100
341.800	24.642	0.100
341.900	17.182	0.101
342.000	23.160	0.100
342.100	20.374	0.100
342.200	28.729	0.100
342.300	19.209	0.100
342.400	22.146	0.101
342.500	19.014	0.101
342.600	15.930	0.100
342.700	22.969	0.100
342.800	21.944	0.100
342.900	28.298	0.100
343.000	28.299	0.100
343.100	19.348	0.100
343.200	19.278	0.100
343.300	17.483	0.100
343.400	25.000	0.101
343.500	24.101	0.100
343.600	22.693	0.100
343.700	23.763	0.101
343.800	18.786	0.101
343.900	19.532	0.100
344.000	20.929	0.100
344.100	24.404	0.100
344.200	22.779	0.100
344.300	15.228	0.100
344.400	19.873	0.100
344.500	30.351	0.100
344.600	20.431	0.100
344.700	16.290	0.100
344.800	22.634	0.100
344.900	13.256	0.100
345.000	17.205	0.100
345.100	28.582	0.100
345.200	22.538	0.100
345.300	25.900	0.100
345.400	19.406	0.100
345.500	24.257	0.100
345.600	22.365	0.101
345.700	33.345	0.100
345.800	28.400	0.100
345.900	19.501	0.100
346.000	18.052	0.100
346.100	27.448	0.100
346.200	20.842	0.100
346.300	31.642	0.100
346.400	27.808	0.100
346.500	22.328	0.100
346.600	19.155	0.101
346.700	31.978	0.100
346.800	19.149	0.100
346.900	29.387	0.100
347.000	24.856	0.100
347.100	37.031	0.100
347.200	43.710	0.101
347.300	28.822	0.100
347.400	31.191	0.100
347.500	27.112	0.100
347.600	39.579	0.100
347.700	24.898	0.100
347.800	20.935	0.100
347.900	21.891	0.100
348.000	26.835	0.100
348.100	21.492	0.100
348.200	28.974	0.101
348.300	31.395	0.100
348.400	31.659	0.100
348.500	29.550	0.100
348.600	30.750	0.100
348.700	25.108	0.100
348.800	24.079	0.100
348.900	35.553	0.100
349.000	25.715	0.100
349.100	25.482	0.101
349.200	26.915	0.100
349.300	28.556	0.100
349.400	27.559	0.100
349.500	29.152	0.100
349.600	38.222	0.100
349.700	32.235	0.100
349.800	28.053	0.100
349.900	24.890	0.100
350.000	23.467	0.100
350.100	35.586	0.100
350.200	32.799	0.100
350.300	39.645	0.100
350.400	36.260	0.100
350.500	29.096	0.100
350.600	26.805	0.100
350.700	24.427	0.100
350.800	38.534	0.100
350.900	26.547	0.100
351.000	29.636	0.100
351.100	34.897	0.100
351.200	27.858	0.100
351.300	42.104	0.100
351.400	30.026	0.100
351.500	28.783	0.100
351.600	39.590	0.100
351.700	42.584	0.100
351.800	27.895	0.100
351.900	39.460	0.100
352.000	39.435	0.100
352.100	35.946	0.100
352.200	40.193	0.100
352.300	31.810	0.100
352.400	35.494	0.100
352.500	31.667	0.100
352.600	38.853	0.100
352.700	37.331	0.100
352.800	36.608	0.100
352.900	44.061	0.100
353.000	34.935	0.100
353.100	32.022	0.100
353.200	32.261	0.100
353.300	28.881	0.100
353.400	42.077	0.100
353.500	32.114	0.100
353.600	33.984	0.100
353.700	34.614	0.100
353.800	34.439	0.100
353.900	44.045	0.100
354.000	31.842	0.100
354.100	35.371	0.100
354.200	31.145	0.100
354.300	32.248	0.100
354.400	34.878	0.100
354.500	46.107	0.100
354.600	42.477	0.100
354.700	25.850	0.100
354.800	32.734	0.100
354.900	34.302	0.100
355.000	38.338	0.100
355.100	33.494	0.100
355.200	43.602	0.100
355.300	38.962	0.100
355.400	44.006	0.100
355.500	40.492	0.100
355.600	42.218	0.100
355.700	44.785	0.100
355.800	33.723	0.100
355.900	37.823	0.100
356.000	45.984	0.100
356.100	32.486	0.100
356.200	30.974	0.100
356.300	39.783	0.100
356.400	42.060	0.100
356.500	28.940	0.100
356.600	35.963	0.100
356.700	28.645	0.100
356.800	41.760	0.100
356.900	27.728	0.100
357.000	44.507	0.100
357.100	32.590	0.100
357.200	42.580	0.100
357.300	40.667	0.100
357.400	43.378	0.100
357.500	39.577	0.100
357.600	30.051	0.100
357.700	33.216	0.100
357.800	43.350	0.100
357.900	30.724	0.100
358.000	39.530	0.100
358.100	29.614	0.100
358.200	34.858	0.100
358.300	41.737	0.100
358.400	39.575	0.100
358.500	39.607	0.100
358.600	30.703	0.100
358.700	26.328	0.100
358.800	34.450	0.100
358.900	46.141	0.100
359.000	33.376	0.100
359.100	30.159	0.100
359.200	41.518	0.100
359.300	43.608	0.100
359.400	36.213	0.100
359.500	43.193	0.100
359.600	28.373	0.100
359.700	32.667	0.100
359.800	34.154	0.100
359.900	32.448	0.100
360.000	38.064	0.100
360.100	39.221	0.100
360.200	34.578	0.100
360.300	26.166	0.100
360.400	45.123	0.100
360.500	31.463	0.100
360.600	34.395	0.100
360.700	32.724	0.100
360.800	36.534	0.100
360.900	25.513	0.100
361.000	28.492	0.100
361.100	32.948	0.100
361.200	39.807	0.100
361.300	40.392	0.100
361.400	41.836	0.100
361.500	32.996	0.100
361.600	38.991	0.100
361.700	41.376	0.100
361.800	33.943	0.100
361.900	35.968	0.100
362.000	45.017	0.100
362.100	31.183	0.100
362.200	31.166	0.100
362.300	26.168	0.100
362.400	29.199	0.100
362.500	31.997	0.100
362.600	37.256	0.100
362.700	38.368	0.100
362.800	38.084	0.100
362.900	32.384	0.100
363.000	34.526	0.100
363.100	30.737	0.100
363.200	33.877	0.100
363.300	34.851	0.100
363.400	39.680	0.100
363.500	32.120	0.100
363.600	40.067	0.100
363.700	26.962	0.100
363.800	39.774	0.100
363.900	29.118	0.100
364.000	40.655	0.100
364.100	33.133	0.100
364.200	28.311	0.100
364.300	25.864	0.100
364.400	33.132	0.100
364.500	29.190	0.100
364.600	26.659	0.100
364.700	30.905	0.100
364.800	25.838	0.100
364.900	27.853	0.100
365.000	41.846	0.100
365.100	28.093	0.100
365.200	36.119	0.100
365.300	29.019	0.100
365.400	33.864	0.100
365.500	28.017	0.100
365.600	43.046	0.100
365.700	38.886	0.100
365.800	26.931	0.100
365.900	30.605	0.100
366.000	35.052	0.100
366.100	23.747	0.100
366.200	38.860	0.100
366.300	30.394	0.100
366.400	33.801	0.100
366.500	33.139	0.100
366.600	36.767	0.100
366.700	21.740	0.100
366.800	37.857	0.100
366.900	25.205	0.100
367.000	35.050	0.100
367.100	30.544	0.100
367.200	24.614	0.100
367.300	27.006	0.100
367.400	32.713	0.100
367.500	41.518	0.100
367.600	42.174	0.100
367.700	23.848	0.100
367.800	30.444	0.100
367.900	24.157	0.100
368.000	20.238	0.100
368.100	32.796	0.100
368.200	35.102	0.100
368.300	34.948	0.100
368.400	34.928	0.100
368.500	30.044	0.100
368.600	21.617	0.100
368.700	28.172	0.100
368.800	24.005	0.100
368.900	30.428	0.100
369.000	36.408	0.100
369.100	30.145	0.100
369.200	20.182	0.100
369.300	34.908	0.100
369.400	34.355	0.100
369.500	33.722	0.100
369.600	31.399	0.100
369.700	29.350	0.100
369.800	29.481	0.100
369.900	29.328	0.100
370.000	30.917	0.100
370.100	33.116	0.100
370.200	42.512	0.100
370.300	20.386	0.100
370.400	18.730	0.100
370.500	31.388	0.100
370.600	29.188	0.100
370.700	29.748	0.100
370.800	37.231	0.100
370.900	37.423	0.100
371.000	34.966	0.100
371.100	34.164	0.100
371.200	36.125	0.100
371.300	38.974	0.100
371.400	19.350	0.100
371.500	33.879	0.100
371.600	33.468	0.100
371.700	21.237	0.100
371.800	30.212	0.100
371.900	25.483	0.100
372.000	35.651	0.100
372.100	32.210	0.100
372.200	33.520	0.100
372.300	40.041	0.100
372.400	39.072	0.100
372.500	28.448	0.100
372.600	31.864	0.100
372.700	36.257	0.100
372.800	18.123	0.100
372.900	34.045	0.100
373.000	37.268	0.100
373.100	36.448	0.100
373.200	33.863	0.100
373.300	31.799	0.100
373.400	42.100	0.100
373.500	31.345	0.100
373.600	31.724	0.100
373.700	27.365	0.100
373.800	29.180	0.100
373.900	27.089	0.100
374.000	35.094	0.100
374.100	28.017	0.100
374.200	23.047	0.100
374.300	30.299	0.100
374.400	32.893	0.100
374.500	28.092	0.100
374.600	35.652	0.100
374.700	27.082	0.100
374.800	27.849	0.100
374.900	29.404	0.100
375.000	34.401	0.100
375.100	26.279	0.100
375.200	29.851	0.100
375.300	42.361	0.100
375.400	17.936	0.100
375.500	27.147	0.100
375.600	31.769	0.100
375.700	30.468	0.100
375.800	25.639	0.100
375.900	39.891	0.100
376.000	30.843	0.100
376.100	33.124	0.100
376.200	36.202	0.100
376.300	22.870	0.100
376.400	31.095	0.100
376.500	17.255	0.100
376.600	36.434	0.100
376.700	22.581	0.100
376.800	27.121	0.100
376.900	31.044	0.100
377.000	36.249	0.100
377.100	26.249	0.100
377.200	28.488	0.100
377.300	30.552	0.100
377.400	26.130	0.100
377.500	27.592	0.100
377.600	30.418	0.100
377.700	28.561	0.100
377.800	36.650	0.100
377.900	30.477	0.100
378.000	33.578	0.100
378.100	32.549	0.100
378.200	33.541	0.100
378.300	38.269	0.100
378.400	32.797	0.100
378.500	33.511	0.100
378.600	31.673	0.100
378.700	28.088	0.100
378.800	27.834	0.100
378.900	34.075	0.100
379.000	23.603	0.100
379.100	32.823	0.100
379.200	33.183	0.100
379.300	37.294	0.100
379.400	28.891	0.100
379.500	29.801	0.100
379.600	29.066	0.100
379.700	22.484	0.100
379.800	25.573	0.100
379.900	38.081	0.100
380.000	29.272	0.100
380.100	39.026	0.100
380.200	41.535	0.100
380.300	11.323	0.100
380.400	27.391	0.100
380.500	28.764	0.100
380.600	25.719	0.100
380.700	30.893	0.100
380.800	22.105	0.100
380.900	33.309	0.100
381.000	38.386	0.100
381.100	32.422	0.100
381.200	36.998	0.100
381.300	25.623	0.100
381.400	29.173	0.100
381.500	23.181	0.100
381.600	28.287	0.100
381.700	31.593	0.100
381.800	26.900	0.100
381.900	35.143	0.100
382.000	18.741	0.100
382.100	37.375	0.100
382.200	29.557	0.100
382.300	30.907	0.100
382.400	29.618	0.100
382.500	28.172	0.100
382.600	27.101	0.100
382.700	29.848	0.100
382.800	29.427	0.100
382.900	31.358	0.100
383.000	30.906	0.100
383.100	29.839	0.100
383.200	20.630	0.100
383.300	29.168	0.100
383.400	24.063	0.100
383.500	31.117	0.100
383.600	42.007	0.100
383.700	38.731	0.100
383.800	31.402	0.100
383.900	27.240	0.100
384.000	30.970	0.100
384.100	31.196	0.100
384.200	12.977	0.100
384.300	31.613	0.100
384.400	41.915	0.100
384.500	28.843	0.100
384.600	29.793	0.100
384.700	31.135	0.100
384.800	28.427	0.100
384.900	32.301	0.100
385.000	23.751	0.100
385.100	30.244	0.100
385.200	35.556	0.100
385.300	31.554	0.100
385.400	32.392	0.100
385.500	26.527	0.100
385.600	31.969	0.100
385.700	27.574	0.100
385.800	25.895	0.100
385.900	34.786	0.100
386.000	23.160	0.100
386.100	26.381	0.100
386.200	19.196	0.100
386.300	38.803	0.100
386.400	40.388	0.100
386.500	33.388	0.100
386.600	26.216	0.100
386.700	32.646	0.100
386.800	27.454	0.100
386.900	34.118	0.100
387.000	21.288	0.100
387.100	35.975	0.100
387.200	29.053	0.100
387.300	26.271	0.100
387.400	29.900	0.100
387.500	28.257	0.100
387.600	30.348	0.100
387.700	25.134	0.100
387.800	24.221	0.100
387.900	32.465	0.100
388.000	30.023	0.100
388.100	25.315	0.100
388.200	25.699	0.100
388.300	23.441	0.100
388.400	24.473	0.100
388.500	31.798	0.100
388.600	23.806	0.100
388.700	37.277	0.100
388.800	33.331	0.100
388.900	23.743	0.100
389.000	25.702	0.100
389.100	36.682	0.100
389.200	27.855	0.100
389.300	40.360	0.100
389.400	20.123	0.100
389.500	22.906	0.100
389.600	36.897	0.100
389.700	32.938	0.100
389.800	29.569	0.100
389.900	29.397	0.100
390.000	28.150	0.100
390.100	17.652	0.100
390.200	14.330	0.100
390.300	19.444	0.100
390.400	32.536	0.100
390.500	25.693	0.100
390.600	17.234	0.100
390.700	20.606	0.100
390.800	10.416	0.100
390.900	23.331	0.100
391.000	13.840	0.100
391.100	15.786	0.100
391.200	8.468	0.100
391.300	-1.375	0.100
391.400	4.507	0.100
391.500	12.538	0.100
391.600	-0.946	0.100
391.700	14.691	0.100
391.800	-4.213	0.100
391.900	-0.417	0.100
392.000	3.115	0.100
392.100	-3.239	0.100
392.200	-0.036	0.100
392.300	0.145	0.100
392.400	-0.183	0.100
392.500	-0.513	0.100
392.600	-9.544	0.100
392.700	-14.100	0.100
392.800	-8.036	0.100
392.900	-7.929	0.100
393.000	-7.867	0.100
393.100	-4.472	0.100
393.200	-12.182	0.100
393.300	-11.857	0.100
393.400	-2.462	0.100
393.500	-0.925	0.100
393.600	-11.863	0.100
393.700	-5.310	0.100
393.800	-11.148	0.100
393.900	-16.509	0.100
394.000	-20.182	0.100
394.100	-13.783	0.100
394.200	-10.905	0.100
394.300	-17.958	0.100
394.400	-24.715	0.100
394.500	-8.509	0.100
394.600	-9.404	0.100
394.700	-2.800	0.100
394.800	-16.315	0.100
394.900	-14.569	0.100
395.000	-12.775	0.100
395.100	-5.923	0.100
395.200	-14.386	0.100
395.300	-7.922	0.100
395.400	-16.989	0.100
395.500	-7.973	0.100
395.600	-8.642	0.100
395.700	-11.910	0.100
395.800	-11.769	0.100
395.900	-10.859	0.100
396.000	-13.407	0.100
396.100	-4.713	0.100
396.200	-6.172	0.100
396.300	-12.558	0.100
396.400	-16.609	0.100
396.500	-10.599	0.100
396.600	-7.063	0.100
396.700	-10.665	0.100
396.800	-9.378	0.100
396.900	1.649	0.100
397.000	-11.184	0.100
397.100	-14.806	0.100
397.200	-12.596	0.100
397.300	-16.733	0.100
397.400	-7.872	0.100
397.500	-8.160	0.100
397.600	-18.325	0.100
397.700	-10.397	0.100
397.800	-16.338	0.100
397.900	-12.458	0.100
398.000	-11.736	0.100
398.100	-10.016	0.100
398.200	-13.086	0.100
398.300	-9.707	0.100
398.400	-6.148	0.100
398.500	-3.717	0.100
398.600	-12.639	0.100
398.700	-10.161	0.100
398.800	-10.386	0.100
398.900	-8.740	0.100
399.000	-12.925	0.100
399.100	-13.011	0.100
399.200	-18.866	0.100
399.300	-12.657	0.100
399.400	-13.006	0.100
399.500	-10.026	0.100
399.600	-9.980	0.100
399.700	-14.916	0.100
399.800	-13.477	0.100
399.900	-14.211	0.100
400.000	-8.917	0.100
400.100	0.327	0.100
400.200	-13.619	0.100
400.300	0.992	0.100
400.400	-15.979	0.100
400.500	-10.423	0.100
400.600	-24.903	0.100
400.700	-6.588	0.100
400.800	-12.141	0.100
400.900	-16.064	0.100
401.000	-4.176	0.100
401.100	-3.877	0.100
401.200	-4.648	0.100
401.300	-6.089	0.100
401.400	-13.533	0.100
401.500	-15.434	0.100
401.600	-11.569	0.100
401.700	-11.780	0.100
401.800	-8.814	0.100
401.900	-16.718	0.100
402.000	-11.548	0.100
402.100	-6.325	0.100
402.200	-18.095	0.100
402.300	-11.376	0.100
402.400	-11.775	0.100
402.500	-9.092	0.100
402.600	-11.640	0.100
402.700	-9.813	0.100
402.800	-14.094	0.100
402.900	-18.694	0.100
403.000	-5.205	0.100
403.100	-3.012	0.100
403.200	-2.745	0.100
403.300	-12.014	0.100
403.400	-22.861	0.100
403.500	-6.187	0.100
403.600	-10.192	0.100
403.700	-9.651	0.100
403.800	-5.262	0.100
403.900	-13.695	0.100
404.000	-27.771	0.100
404.100	-12.248	0.100
404.200	-11.729	0.100
404.300	-12.798	0.100
404.400	-16.208	0.100
404.500	-21.948	0.100
404.600	-11.018	0.100
404.700	-10.697	0.100
404.800	-12.042	0.100
404.900	-17.503	0.100
405.000	-23.453	0.100
405.100	-14.592	0.100
405.200	-10.673	0.100
405.300	5.563	0.100
405.400	-16.656	0.100
405.500	-3.456	0.100
405.600	-14.040	0.100
405.700	-15.561	0.100
405.800	-17.493	0.100
405.900	-18.623	0.100
406.000	-13.317	0.100
406.100	-13.334	0.100
406.200	-11.023	0.100
406.300	-15.622	0.100
406.400	-18.389	0.100
406.500	-19.781	0.100
406.600	-11.819	0.100
406.700	-10.890	0.100
406.800	-15.781	0.100
406.900	-12.120	0.100
407.000	-13.064	0.100
407.100	-19.455	0.100
407.200	-10.576	0.100
407.300	-7.848	0.100
407.400	3.204	0.100
407.500	-15.217	0.100
407.600	-17.361	0.100
407.700	-16.751	0.100
407.800	-7.911	0.100
407.900	-16.053	0.100
408.000	-20.276	0.100
408.100	-8.044	0.100
408.200	-14.057	0.100
408.300	-16.005	0.100
408.400	-9.387	0.100
408.500	-14.877	0.100
408.600	-19.356	0.100
408.700	-10.905	0.100
408.800	-3.840	0.100
408.900	-21.461	0.100
409.000	-19.842	0.100
409.100	-19.597	0.100
409.200	-11.692	0.100
409.300	-16.721	0.101
409.400	-9.035	0.101
409.500	-14.380	0.101
409.600	-11.188	0.101
409.700	-16.670	0.101
409.800	-15.754	0.101
409.900	-11.469	0.101
410.000	-16.842	0.101
410.100	-18.627	0.101
410.200	-21.444	0.101
410.300	-17.003	0.101
410.400	-14.216	0.101
410.500	-19.186	0.101
410.600	-12.074	0.101
410.700	-9.160	0.101
410.800	-4.920	0.101
410.900	-12.722	0.101
411.000	-12.594	0.101
411.100	-13.067	0.101
411.200	-15.065	0.101
411.300	-19.365	0.101
411.400	-12.259	0.101
411.500	-23.284	0.101
411.600	-17.916	0.101
411.700	-13.185	0.101
411.800	-12.441	0.101
411.900	-13.756	0.101
412.000	-15.645	0.101
412.100	-17.260	0.101
412.200	-14.276	0.101
412.300	-15.961	0.101
412.400	-25.719	0.101
412.500	-12.662	0.101
412.600	-19.270	0.101
412.700	-5.929	0.101
412.800	-7.544	0.101
412.900	-17.247	0.101
413.000	-13.587	0.101
413.100	-14.470	0.101
413.200	-25.797	0.101
413.300	-13.934	0.101
413.400	-16.671	0.101
413.500	-20.529	0.101
413.600	-5.510	0.101
413.700	-12.687	0.101
413.800	-15.018	0.101
413.900	-16.866	0.101
414.000	-21.504	0.101
414.100	-13.494	0.101
414.200	-7.646	0.101
414.300	-7.082	0.101
414.400	-14.262	0.101
414.500	-17.115	0.101
414.600	-23.410	0.101
414.700	-12.020	0.101
414.800	-22.185	0.101
414.900	-18.398	0.101
415.000	-9.482	0.101
415.100	-13.655	0.101
415.200	-13.534	0.101
415.300	-29.119	0.101
415.400	-12.619	0.101
415.500	-31.703	0.101
415.600	-16.663	0.101
415.700	-18.690	0.101
415.800	-11.023	0.101
415.900	-15.529	0.101
416.000	-4.884	0.101
416.100	-14.018	0.101
416.200	-14.242	0.101
416.300	-14.454	0.101
416.400	-20.570	0.101
416.500	-22.148	0.101
416.600	-10.075	0.101
416.700	-15.019	0.101
416.800	-19.752	0.101
416.900	-19.125	0.101
417.000	-25.827	0.101
417.100	-16.010	0.101
417.200	-19.817	0.101
417.300	-18.000	0.101
417.400	-6.840	0.101
417.500	-12.149	0.101
417.600	-15.016	0.101
417.700	-21.344	0.101
417.800	-13.107	0.101
417.900	-21.781	0.101
418.000	-10.829	0.101
418.100	-12.349	0.101
418.200	-14.403	0.101
418.300	-17.995	0.101
418.400	-12.391	0.101
418.500	-13.499	0.101
418.600	-11.841	0.101
418.700	-17.128	0.101
418.800	-16.898	0.101
418.900	-25.308	0.101
419.000	-14.145	0.101
419.100	-16.732	0.101
419.200	-11.419	0.101
419.300	-15.368	0.101
419.400	-27.057	0.101
419.500	-19.750	0.101
419.600	-14.325	0.101
419.700	-16.508	0.101
419.800	-18.632	0.101
419.900	-25.011	0.101
420.000	-11.061	0.101
420.100	-12.421	0.101
420.200	-21.809	0.101
420.300	-20.688	0.101
420.400	-12.289	0.101
420.500	-11.685	0.101
420.600	-15.879	0.101
420.700	-23.570	0.101
420.800	-22.973	0.101
420.900	-17.070	0.101
421.000	-12.906	0.101
421.100	-22.738	0.101
421.200	-5.729	0.101
421.300	-12.043	0.101
421.400	-15.333	0.101
421.500	-26.035	0.101
421.600	-12.952	0.101
421.700	-24.319	0.101
421.800	-23.378	0.101
421.900	-22.351	0.101
422.000	-23.857	0.101
422.100	-14.645	0.101
422.200	-11.741	0.101
422.300	-18.924	0.101
422.400	-16.067	0.101
422.500	-17.374	0.101
422.600	-9.824	0.101
422.700	-23.453	0.101
422.800	-17.549	0.101
422.900	-23.178	0.101
423.000	-17.227	0.101
423.100	-22.250	0.101
423.200	-19.285	0.101
423.300	-20.099	0.101
423.400	-17.001	0.101
423.500	-20.198	0.101
423.600	-12.646	0.101
423.700	-15.049	0.101
423.800	-22.604	0.101
423.900	-19.937	0.101
424.000	-17.151	0.101
424.100	-25.958	0.101
424.200	-7.871	0.101
424.300	-10.789	0.101
424.400	-9.542	0.101
424.500	-20.844	0.101
424.600	-20.323	0.101
424.700	-15.841	0.101
424.800	-14.625	0.101
424.900	-14.992	0.101
425.000	-20.973	0.101
425.100	-12.035	0.101
425.200	-11.850	0.101
425.300	-19.784	0.101
425.400	-21.048	0.101
425.500	-31.989	0.101
425.600	-18.684	0.101
425.700	-13.756	0.101
425.800	-21.163	0.101
425.900	-27.612	0.101
426.000	-16.727	0.101
426.100	-20.754	0.101
426.200	-10.972	0.101
426.300	-13.040	0.101
426.400	-14.994	0.101
426.500	-21.399	0.101
426.600	-19.110	0.101
426.700	-26.162	0.101
426.800	-9.573	0.101
426.900	-17.693	0.101
427.000	-17.972	0.101
427.100	-19.864	0.101
427.200	-18.044	0.101
427.300	-9.238	0.101
427.400	-16.446	0.101
427.500	-26.580	0.101
427.600	-12.854	0.101
427.700	-11.727	0.101
427.800	-22.200	0.101
427.900	-17.231	0.101
428.000	-24.651	0.101
428.100	-25.573	0.101
428.200	-18.162	0.101
428.300	-27.914	0.101
428.400	-13.709	0.101
428.500	-19.059	0.101
428.600	-25.515	0.101
428.700	-14.825	0.101
428.800	-17.639	0.101
428.900	-13.367	0.101
429.000	-14.658	0.101
429.100	-13.477	0.101
429.200	-11.941	0.101
429.300	-17.707	0.101
429.400	-22.332	0.101
429.500	-33.489	0.101
429.600	-25.420	0.101
429.700	-22.283	0.101
429.800	-10.847	0.101
429.900	-19.567	0.101
430.000	-26.019	0.101
430.100	-14.937	0.101
430.200	-10.791	0.101
430.300	-24.756	0.101
430.400	-25.099	0.101
430.500	-22.040	0.101
430.600	-14.229	0.101
430.700	-16.571	0.101
430.800	-20.328	0.101
430.900	-9.225	0.101
431.000	-19.042	0.101
431.100	-19.262	0.101
431.200	-27.694	0.101
431.300	-26.987	0.101
431.400	-10.665	0.101
431.500	-21.440	0.101
431.600	-14.984	0.101
431.700	-19.741	0.101
431.800	-16.321	0.101
431.900	-14.154	0.101
432.000	-21.219	0.101
432.100	-21.191	0.101
432.200	-16.080	0.101
432.300	-18.744	0.101
432.400	-20.947	0.101
432.500	-23.428	0.101
432.600	-24.919	0.101
432.700	-16.285	0.101
432.800	-12.214	0.101
432.900	-14.299	0.101
433.000	-11.752	0.101
433.100	-12.654	0.101
433.200	-20.750	0.101
433.300	-16.949	0.101
433.400	-10.901	0.101
433.500	-20.028	0.101
433.600	-12.642	0.101
433.700	-27.862	0.101
433.800	-17.486	0.101
433.900	-25.893	0.101
434.000	-23.592	0.101
434.100	-19.408	0.101
434.200	-4.467	0.101
434.300	-17.260	0.101
434.400	-13.899	0.100
434.500	-23.258	0.100
434.600	-11.809	0.101
434.700	-19.948	0.101
434.800	-18.918	0.100
434.900	-21.596	0.101
435.000	-12.247	0.101
435.100	-15.571	0.101
435.200	-20.133	0.101
435.300	-17.676	0.100
435.400	-29.808	0.100
435.500	-10.331	0.101
435.600	-21.191	0.100
435.700	-16.681	0.101
435.800	-15.483	0.101
435.900	-14.274	0.101
436.000	-20.321	0.101
436.100	-13.416	0.101
436.200	-23.036	0.101
436.300	-16.912	0.101
436.400	-17.715	0.101
436.500	-20.813	0.101
436.600	-13.183	0.101
436.700	-17.370	0.101
436.800	-23.479	0.101
436.900	-9.085	0.101
437.000	-17.685	0.101
437.100	-19.720	0.101
437.200	-17.647	0.101
437.300	-15.160	0.101
437.400	-16.263	0.101
437.500	-14.472	0.101
437.600	-27.081	0.101
437.700	-16.010	0.101
437.800	-20.002	0.101
437.900	-21.239	0.101
438.000	-16.110	0.101
438.100	-17.434	0.101
438.200	-18.634	0.101
438.300	-13.517	0.101
438.400	-15.277	0.101
438.500	-33.880	0.101
438.600	-19.623	0.101
438.700	-20.460	0.101
438.800	-15.769	0.101
438.900	-27.866	0.101
439.000	-15.701	0.101
439.100	-23.403	0.101
439.200	-9.006	0.101
439.300	-21.789	0.101
439.400	-16.771	0.101
439.500	-23.729	0.101
439.600	-12.320	0.101
439.700	-17.564	0.101
439.800	-25.790	0.101
439.900	-25.591	0.101
440.000	-19.092	0.101
440.100	-11.601	0.101
440.200	-15.441	0.101
440.300	-13.195	0.101
440.400	-18.362	0.101
440.500	-22.558	0.101
440.600	-21.867	0.101
440.700	-15.538	0.101
440.800	-12.199	0.101
440.900	-6.072	0.101
441.000	-18.109	0.101
441.100	-18.405	0.101
441.200	-13.842	0.101
441.300	-31.251	0.101
441.400	-19.321	0.101
441.500	-10.544	0.101
441.600	-15.708	0.101
441.700	-15.899	0.101
441.800	-20.021	0.101
441.900	-15.698	0.101
442.000	-17.375	0.101
442.100	-21.974	0.101
442.200	-10.545	0.101
442.300	-18.897	0.101
442.400	-17.056	0.101
442.500	-18.368	0.101
442.600	-17.912	0.101
442.700	-19.230	0.101
442.800	-14.096	0.101
442.900	-10.524	0.101
443.000	-22.692	0.101
443.100	-13.199	0.101
443.200	-23.129	0.101
443.300	-11.641	0.101
443.400	-14.490	0.101
443.500	-18.928	0.101
443.600	-21.206	0.101
443.700	-21.777	0.101
443.800	-11.570	0.101
443.900	-20.881	0.101
444.000	-20.274	0.101
444.100	-15.343	0.101
444.200	-18.613	0.101
444.300	-5.979	0.101
444.400	-15.333	0.101
444.500	-22.505	0.101
444.600	-14.259	0.101
444.700	-5.772	0.101
444.800	-23.515	0.101
444.900	-18.306	0.101
445.000	-18.909	0.101
445.100	-15.190	0.101
445.200	-15.055	0.101
445.300	-20.966	0.101
445.400	-22.162	0.101
445.500	-15.916	0.101
445.600	-24.015	0.101
445.700	-11.572	0.101
445.800	-4.806	0.101
445.900	-9.693	0.101
446.000	-26.451	0.101
446.100	-20.385	0.101
446.200	-15.180	0.101
446.300	-14.350	0.101
446.400	-18.389	0.101
446.500	-17.123	0.101
446.600	-11.249	0.101
446.700	-12.190	0.101
446.800	-17.799	0.101
446.900	-8.059	0.101
447.000	-11.667	0.101
447.100	-21.124	0.101
447.200	-22.739	0.101
447.300	-16.344	0.101
447.400	-21.629	0.101
447.500	-15.005	0.101
447.600	-21.711	0.101
447.700	-20.325	0.101
447.800	-21.198	0.101
447.900	-17.328	0.101
448.000	-22.487	0.101
448.100	-20.519	0.101
448.200	-14.724	0.101
448.300	-8.372	0.101
448.400	-14.020	0.101
448.500	-20.167	0.101
448.600	-21.305	0.101
448.700	-24.272	0.101
448.800	-21.968	0.101
448.900	-14.352	0.101
449.000	-21.133	0.101
449.100	-11.741	0.101
449.200	-16.426	0.101
449.300	-20.713	0.101
449.400	-17.418	0.101
449.500	-2.841	0.101
449.600	-15.074	0.101
449.700	-19.224	0.101
449.800	-16.361	0.101
449.900	-16.598	0.101
450.000	-12.978	0.101
450.100	-11.749	0.101
450.200	-34.189	0.101
450.300	-19.486	0.101
450.400	-15.229	0.101
450.500	-7.953	0.101
450.600	-11.979	0.101
450.700	-29.160	0.101
450.800	-14.629	0.101
450.900	-8.797	0.101
451.000	-17.038	0.101
451.100	-7.181	0.101
451.200	-20.199	0.101
451.300	-18.546	0.101
451.400	-21.035	0.101
451.500	-5.033	0.101
451.600	-17.298	0.101
451.700	-16.099	0.101
451.800	-14.786	0.101
451.900	-12.091	0.101
452.000	-23.172	0.101
452.100	-10.656	0.101
452.200	-11.497	0.101
452.300	-10.226	0.101
452.400	-17.967	0.101
452.500	-14.185	0.101
452.600	-21.026	0.101
452.700	-17.258	0.101
452.800	-10.809	0.101
452.900	-15.851	0.101
453.000	-15.083	0.101
453.100	-20.987	0.101
453.200	-13.592	0.101
453.300	-23.356	0.101
453.400	-19.767	0.101
453.500	-14.904	0.101
453.600	-13.635	0.101
453.700	-13.393	0.101
453.800	-15.202	0.101
453.900	-17.572	0.101
454.000	-4.690	0.101
454.100	-4.858	0.101
454.200	-28.456	0.101
454.300	-8.129	0.101
454.400	-13.409	0.101
454.500	-18.324	0.101
454.600	-17.503	0.101
454.700	-15.787	0.101
454.800	-20.266	0.101
454.900	-13.850	0.101
455.000	-18.819	0.101
455.100	-12.155	0.101
455.200	-20.240	0.101
455.300	-12.466	0.101
455.400	-17.407	0.101
455.500	-22.286	0.101
455.600	-7.150	0.101
455.700	-9.226	0.101
455.800	-18.663	0.101
455.900	-8.700	0.101
456.000	-28.631	0.101
456.100	-13.856	0.101
456.200	-11.940	0.101
456.300	-18.972	0.101
456.400	-21.719	0.101
456.500	-6.128	0.101
456.600	-14.410	0.101
456.700	-18.959	0.101
456.800	-26.532	0.101
456.900	-13.056	0.101
457.000	-17.401	0.101
457.100	-7.012	0.101
457.200	-8.850	0.101
457.300	-12.676	0.101
457.400	-19.711	0.101
457.500	-20.971	0.101
457.600	-6.725	0.101
457.700	-5.766	0.101
457.800	-13.921	0.101
457.900	-12.072	0.101
458.000	-19.139	0.101
458.100	-17.810	0.101
458.200	-8.460	0.101
458.300	-8.616	0.101
458.400	-12.033	0.101
458.500	-10.335	0.101
458.600	-20.279	0.101
458.700	-13.002	0.101
458.800	-22.760	0.101
458.900	-9.870	0.101
459.000	-16.534	0.101
459.100	-14.886	0.101
459.200	-17.408	0.101
459.300	-17.259	0.101
459.400	-17.979	0.101
459.500	-15.361	0.101
459.600	-19.084	0.101
459.700	-12.714	0.101
459.800	-7.339	0.101
459.900	-31.964	0.101
460.000	-29.038	0.101
460.100	-11.060	0.101
460.200	-2.676	0.101
460.300	-15.276	0.101
460.400	-17.045	0.101
460.500	-15.618	0.101
460.600	-17.213	0.101
460.700	-12.968	0.101
460.800	-16.941	0.101
460.900	-6.358	0.101
461.000	-9.788	0.101
461.100	-16.880	0.101
461.200	-20.504	0.101
461.300	-12.362	0.101
461.400	-21.392	0.101
461.500	-19.528	0.101
461.600	-10.223	0.101
461.700	-7.824	0.101
461.800	-16.604	0.101
461.900	-13.430	0.101
462.000	-11.138	0.101
462.100	-8.886	0.101
462.200	-25.602	0.100
462.300	-12.097	0.101
462.400	-20.046	0.101
462.500	-7.038	0.101
462.600	-13.820	0.101
462.700	2.611	0.101
462.800	-5.563	0.101
462.900	-16.844	0.101
463.000	-7.698	0.101
463.100	-11.335	0.101
463.200	-22.193	0.101
463.300	-18.109	0.101
463.400	-12.794	0.101
463.500	-21.981	0.101
463.600	-22.752	0.101
463.700	-15.477	0.101
463.800	-32.556	0.101
463.900	-12.864	0.101
464.000	-13.782	0.101
464.100	-9.239	0.101
464.200	-20.005	0.101
464.300	-14.539	0.101
464.400	-17.370	0.101
464.500	-7.723	0.101
464.600	-3.635	0.101
464.700	0.665	0.101
464.800	-14.575	0.101
464.900	-15.921	0.101
465.000	-15.811	0.101
465.100	-16.065	0.101
465.200	-15.485	0.101
465.300	-14.121	0.101
465.400	-18.332	0.101
465.500	-18.027	0.101
465.600	-8.476	0.101
465.700	-10.883	0.101
465.800	-9.701	0.101
465.900	-17.280	0.101
466.000	-17.328	0.101
466.100	-13.164	0.101
466.200	-6.378	0.101
466.300	-11.290	0.101
466.400	-15.390	0.101
466.500	-16.692	0.101
466.600	-15.169	0.101
466.700	-7.892	0.101
466.800	-15.539	0.101
466.900	-13.230	0.101
467.000	-12.114	0.101
467.100	-11.485	0.101
467.200	-18.803	0.101
467.300	-12.670	0.101
467.400	-10.043	0.101
467.500	-7.842	0.101
467.600	-5.648	0.101
467.700	-2.261	0.101
467.800	-12.239	0.101
467.900	-20.014	0.101
468.000	-23.443	0.101
468.100	-9.482	0.101
468.200	-9.719	0.101
468.300	-4.789	0.101
468.400	-12.939	0.101
468.500	-12.652	0.101
468.600	-19.072	0.101
468.700	-27.315	0.101
468.800	-10.534	0.101
468.900	-9.076	0.101
469.000	-16.699	0.101
469.100	-9.098	0.101
469.200	-12.467	0.101
469.300	-12.255	0.101
469.400	-14.008	0.101
469.500	-13.631	0.101
469.600	-15.720	0.101
469.700	-19.835	0.101
469.800	-24.497	0.101
469.900	-16.081	0.101
470.000	-10.510	0.101
470.100	-9.042	0.101
470.200	-13.818	0.101
470.300	-10.327	0.101
470.400	-6.338	0.101
470.500	-11.963	0.101
470.600	-15.210	0.101
470.700	-10.694	0.101
470.800	-15.530	0.101
470.900	-12.883	0.101
471.000	-22.702	0.101
471.100	-15.352	0.101
471.200	-9.399	0.101
471.300	-12.172	0.101
471.400	-18.386	0.101
471.500	-18.315	0.101
471.600	-14.930	0.101
471.700	-17.357	0.101
471.800	-20.558	0.101
471.900	-11.406	0.101
472.000	-3.227	0.101
472.100	-10.097	0.101
472.200	-21.795	0.101
472.300	-26.297	0.101
472.400	-7.286	0.101
472.500	-13.745	0.101
472.600	-8.668	0.101
472.700	-11.039	0.101
472.800	-7.482	0.101
472.900	-17.296	0.101
473.000	-13.957	0.101
473.100	-7.736	0.101
473.200	-8.554	0.101
473.300	-19.963	0.101
473.400	-17.216	0.101
473.500	-7.804	0.101
473.600	-12.699	0.101
473.700	-15.053	0.101
473.800	-13.496	0.101
473.900	-9.512	0.101
474.000	-8.779	0.101
474.100	-19.541	0.101
474.200	-18.941	0.101
474.300	-15.916	0.101
474.400	-10.111	0.101
474.500	-9.115	0.101
474.600	-11.618	0.101
474.700	-21.317	0.101
474.800	-8.179	0.101
474.900	-11.938	0.101
475.000	-12.429	0.101
475.100	-8.818	0.101
475.200	-6.357	0.101
475.300	-19.878	0.101
475.400	-21.936	0.101
475.500	-13.832	0.101
475.600	-8.083	0.101
475.700	-12.350	0.101
475.800	-13.159	0.101
475.900	-14.275	0.101
476.000	-18.782	0.101
476.100	-13.765	0.101
476.200	-10.521	0.101
476.300	-3.135	0.101
476.400	-9.051	0.101
476.500	-4.610	0.101
476.600	-12.184	0.101
476.700	-12.301	0.101
476.800	-14.538	0.101
476.900	-8.212	0.101
477.000	-0.286	0.101
477.100	-14.026	0.101
477.200	-13.870	0.101
477.300	-12.825	0.101
477.400	-13.763	0.101
477.500	-5.438	0.101
477.600	-8.892	0.101
477.700	-13.572	0.101
477.800	-0.029	0.101
477.900	-20.566	0.101
478.000	-14.545	0.101
478.100	-17.991	0.101
478.200	-10.079	0.101
478.300	-14.680	0.101
478.400	-9.373	0.101
478.500	-20.816	0.101
478.600	-8.750	0.101
478.700	-6.236	0.101
478.800	-7.078	0.101
478.900	-19.193	0.101
479.000	-4.769	0.101
479.100	-10.033	0.101
479.200	-6.846	0.101
479.300	-11.463	0.101
479.400	-7.843	0.101
479.500	-13.104	0.101
479.600	-10.533	0.101
479.700	-16.673	0.101
479.800	-14.087	0.101
479.900	-17.583	0.101
480.000	-15.711	0.101
480.100	-20.028	0.101
480.200	-13.295	0.101
480.300	2.135	0.101
480.400	-1.729	0.101
480.500	-4.754	0.101
480.600	3.804	0.101
480.700	-0.706	0.101
480.800	15.122	0.101
480.900	12.665	0.101
481.000	5.168	0.101
481.100	10.789	0.101
481.200	17.769	0.101
481.300	-1.919	0.101
481.400	15.146	0.101
481.500	4.646	0.101
481.600	8.649	0.101
481.700	13.928	0.101
481.800	20.777	0.101
481.900	29.846	0.101
482.000	20.536	0.101
482.100	21.610	0.101
482.200	22.359	0.101
482.300	9.467	0.101
482.400	20.878	0.101
482.500	26.565	0.101
482.600	19.503	0.101
482.700	25.549	0.101
482.800	27.333	0.101
482.900	16.373	0.101
483.000	20.428	0.101
483.100	22.402	0.101
483.200	21.932	0.101
483.300	34.922	0.101
483.400	27.670	0.101
483.500	25.232	0.101
483.600	27.857	0.101
483.700	21.591	0.101
483.800	26.690	0.101
483.900	21.289	0.101
484.000	30.656	0.101
484.100	18.515	0.101
484.200	25.743	0.101
484.300	27.556	0.101
484.400	28.343	0.101
484.500	23.852	0.101
484.600	27.635	0.101
484.700	26.401	0.101
484.800	23.101	0.101
484.900	21.559	0.101
485.000	21.179	0.101
485.100	22.388	0.101
485.200	13.410	0.101
485.300	19.242	0.101
485.400	14.532	0.101
485.500	23.403	0.101
485.600	36.122	0.101
485.700	29.752	0.101
485.800	13.525	0.101
485.900	17.660	0.101
486.000	24.059	0.101
486.100	16.146	0.101
486.200	23.967	0.101
486.300	21.341	0.101
486.400	20.540	0.101
486.500	18.665	0.101
486.600	25.787	0.101
486.700	14.968	0.101
486.800	26.005	0.101
486.900	21.990	0.101
487.000	19.083	0.101
487.100	12.772	0.101
487.200	9.268	0.101
487.300	7.377	0.101
487.400	26.815	0.101
487.500	9.521	0.101
487.600	17.688	0.101
487.700	18.537	0.101
487.800	17.988	0.101
487.900	15.003	0.101
488.000	21.518	0.101
488.100	25.090	0.101
488.200	13.930	0.101
488.300	18.414	0.101
488.400	16.890	0.101
488.500	4.615	0.101
488.600	15.839	0.101
488.700	15.053	0.101
488.800	17.931	0.101
488.900	2.702	0.101
489.000	20.728	0.101
489.100	18.288	0.101
489.200	28.427	0.101
489.300	18.683	0.101
489.400	18.337	0.101
489.500	19.720	0.101
489.600	10.260	0.101
489.700	16.719	0.101
489.800	17.442	0.101
489.900	18.449	0.101
490.000	18.634	0.101
490.100	24.157	0.101
490.200	19.615	0.101
490.300	14.534	0.101
490.400	20.980	0.101
490.500	21.273	0.101
490.600	12.954	0.101
490.700	16.158	0.101
490.800	20.799	0.101
490.900	13.489	0.101
491.000	11.124	0.101
491.100	9.759	0.101
491.200	15.608	0.101
491.300	24.677	0.101
491.400	23.037	0.101
491.500	17.086	0.101
491.600	9.855	0.101
491.700	20.908	0.101
491.800	18.342	0.101
491.900	16.533	0.101
492.000	25.444	0.101
492.100	15.102	0.101
492.200	13.661	0.101
492.300	23.106	0.101
492.400	23.725	0.101
492.500	17.052	0.101
492.600	30.175	0.101
492.700	22.215	0.101
492.800	15.355	0.101
492.900	14.439	0.101
493.000	12.845	0.101
493.100	17.364	0.101
493.200	13.697	0.101
493.300	16.758	0.101
493.400	17.284	0.101
493.500	15.831	0.101
493.600	12.340	0.101
493.700	15.291	0.101
493.800	17.317	0.101
493.900	21.711	0.101
494.000	13.917	0.101
494.100	21.974	0.101
494.200	20.354	0.101
494.300	9.196	0.101
494.400	19.034	0.101
494.500	20.879	0.101
494.600	11.606	0.101
494.700	8.210	0.101
494.800	26.843	0.101
494.900	25.194	0.101
495.000	23.035	0.101
495.100	27.931	0.101
495.200	14.195	0.101
495.300	25.822	0.101
495.400	20.908	0.101
495.500	15.730	0.101
495.600	24.539	0.101
495.700	18.722	0.101
495.800	18.054	0.101
495.900	21.326	0.101
496.000	15.893	0.101
496.100	21.305	0.101
496.200	23.129	0.101
496.300	23.308	0.101
496.400	29.742	0.101
496.500	20.461	0.101
496.600	32.206	0.101
496.700	25.206	0.101
496.800	16.389	0.101
496.900	12.237	0.101
497.000	11.470	0.101
497.100	18.634	0.101
497.200	25.604	0.101
497.300	23.393	0.101
497.400	19.534	0.101
497.500	22.315	0.101
497.600	32.812	0.101
497.700	22.153	0.101
497.800	21.576	0.101
497.900	34.210	0.101
498.000	31.812	0.101
498.100	22.396	0.101
498.200	20.081	0.101
498.300	20.908	0.101
498.400	23.553	0.101
498.500	20.385	0.101
498.600	28.849	0.101
498.700	21.876	0.101
498.800	33.805	0.101
498.900	29.222	0.101
499.000	24.898	0.101
499.100	26.878	0.101
499.200	31.402	0.101
499.300	25.929	0.101
499.400	31.720	0.101
499.500	35.005	0.101
499.600	23.105	0.101
499.700	21.680	0.101
499.800	30.065	0.101
499.900	31.312	0.101
500.000	22.479	0.101
500.100	19.774	0.101
500.200	26.198	0.101
500.300	16.237	0.101
500.400	31.974	0.101
500.500	40.397	0.101
500.600	32.046	0.101
500.700	29.676	0.101
500.800	29.493	0.101
500.900	30.517	0.101
501.000	42.534	0.101
501.100	38.118	0.101
501.200	33.140	0.101
501.300	39.647	0.101
501.400	34.146	0.101
501.500	25.444	0.101
501.600	33.654	0.101
501.700	34.799	0.101
501.800	30.834	0.101
501.900	32.715	0.101
502.000	22.581	0.101
502.100	32.444	0.101
502.200	40.950	0.101
502.300	34.419	0.101
502.400	44.222	0.101
502.500	34.105	0.101
502.600	23.247	0.101
502.700	31.646	0.101
502.800	37.666	0.101
502.900	42.032	0.101
503.000	32.491	0.101
503.100	24.000	0.101
503.200	36.070	0.101
503.300	31.204	0.101
503.400	25.612	0.101
503.500	34.565	0.101
503.600	46.387	0.101
503.700	30.749	0.101
503.800	36.106	0.101
503.900	34.240	0.101
504.000	33.577	0.101
504.100	43.154	0.101
504.200	28.998	0.101
504.300	29.814	0.101
504.400	31.771	0.101
504.500	35.842	0.101
504.600	29.030	0.101
504.700	29.426	0.101
504.800	40.570	0.101
504.900	36.182	0.101
505.000	40.169	0.101
505.100	44.191	0.101
505.200	39.729	0.101
505.300	33.720	0.101
505.400	40.453	0.101
505.500	40.642	0.101
505.600	42.376	0.101
505.700	37.307	0.101
505.800	34.012	0.101
505.900	36.944	0.101
506.000	38.069	0.101
506.100	41.856	0.101
506.200	33.625	0.101
506.300	41.007	0.101
506.400	33.508	0.101
506.500	31.566	0.101
506.600	32.545	0.101
506.700	50.766	0.101
506.800	46.099	0.101
506.900	40.220	0.101
507.000	31.463	0.101
507.100	29.390	0.101
507.200	34.991	0.101
507.300	38.707	0.101
507.400	37.530	0.101
507.500	42.858	0.101
507.600	41.199	0.101
507.700	37.251	0.101
507.800	27.509	0.101
507.900	31.896	0.101
508.000	36.460	0.101
508.100	44.439	0.101
508.200	25.140	0.101
508.300	35.556	0.101
508.400	41.265	0.101
508.500	36.399	0.101
508.600	37.029	0.101
508.700	23.446	0.101
508.800	35.329	0.101
508.900	37.862	0.101
509.000	36.299	0.101
509.100	27.495	0.101
509.200	35.039	0.101
509.300	45.964	0.101
509.400	29.402	0.101
509.500	35.680	0.101
509.600	35.639	0.101
509.700	37.915	0.101
509.800	39.922	0.101
509.900	21.830	0.101
510.000	25.646	0.101
510.100	45.111	0.101
510.200	46.780	0.101
510.300	30.679	0.101
510.400	33.052	0.101
510.500	41.066	0.101
510.600	37.514	0.101
510.700	42.934	0.101
510.800	41.289	0.101
510.900	27.450	0.101
511.000	34.056	0.101
511.100	37.073	0.101
511.200	30.603	0.101
511.300	33.124	0.101
511.400	28.348	0.101
511.500	41.753	0.101
511.600	33.876	0.101
511.700	36.838	0.101
511.800	43.905	0.101
511.900	33.490	0.101
512.000	36.682	0.101
512.100	29.208	0.101
512.200	25.452	0.101
512.300	32.827	0.101
512.400	39.852	0.101
512.500	42.202	0.101
512.600	35.848	0.101
512.700	29.273	0.101
512.800	27.191	0.101
512.900	44.543	0.101
513.000	33.421	0.101
513.100	33.090	0.101
513.200	26.207	0.101
513.300	39.652	0.101
513.400	24.809	0.101
513.500	30.833	0.101
513.600	32.892	0.101
513.700	40.259	0.101
513.800	34.417	0.101
513.900	28.802	0.101
514.000	36.819	0.101
514.100	35.637	0.101
514.200	37.863	0.101
514.300	48.839	0.101
514.400	35.293	0.101
514.500	35.314	0.101
514.600	37.626	0.101
514.700	26.236	0.101
514.800	26.573	0.101
514.900	21.304	0.101
515.000	34.085	0.101
515.100	38.020	0.101
515.200	37.860	0.101
515.300	38.455	0.101
515.400	46.597	0.101
515.500	35.755	0.101
515.600	32.180	0.101
515.700	35.580	0.101
515.800	31.635	0.101
515.900	28.981	0.101
516.000	29.579	0.101
516.100	33.174	0.101
516.200	31.303	0.101
516.300	23.180	0.101
516.400	26.297	0.101
516.500	33.174	0.101
516.600	31.835	0.101
516.700	30.748	0.101
516.800	20.660	0.101
516.900	31.047	0.101
517.000	34.947	0.101
517.100	31.104	0.101
517.200	27.181	0.101
517.300	25.713	0.101
517.400	32.494	0.101
517.500	35.497	0.101
517.600	34.466	0.101
517.700	32.354	0.101
517.800	27.117	0.101
517.900	34.002	0.101
518.000	34.101	0.101
518.100	29.482	0.101
518.200	35.648	0.101
518.300	33.545	0.101
518.400	27.065	0.101
518.500	36.472	0.101
518.600	38.682	0.101
518.700	37.447	0.101
518.800	29.999	0.101
518.900	41.244	0.101
519.000	23.661	0.101
519.100	26.404	0.101
519.200	32.031	0.101
519.300	34.785	0.101
519.400	36.712	0.101
519.500	36.623	0.101
519.600	23.820	0.101
519.700	30.286	0.101
519.800	24.771	0.101
519.900	32.726	0.101
520.000	34.319	0.101
520.100	35.173	0.101
520.200	32.404	0.101
520.300	23.003	0.101
520.400	25.442	0.101
520.500	25.701	0.101
520.600	45.072	0.101
520.700	31.556	0.101
520.800	32.138	0.101
520.900	24.066	0.101
521.000	34.752	0.101
521.100	37.538	0.101
521.200	20.626	0.101
521.300	29.840	0.101
521.400	41.287	0.101
521.500	27.491	0.101
521.600	30.023	0.101
521.700	29.395	0.101
521.800	30.266	0.101
521.900	35.838	0.101
522.000	32.045	0.101
522.100	35.685	0.101
522.200	33.620	0.101
522.300	30.043	0.101
522.400	26.861	0.101
522.500	24.466	0.101
522.600	10.820	0.101
522.700	25.498	0.101
522.800	34.042	0.101
522.900	29.787	0.101
523.000	29.175	0.101
523.100	36.601	0.101
523.200	34.756	0.101
523.300	29.862	0.101
523.400	27.633	0.101
523.500	36.259	0.101
523.600	26.169	0.101
523.700	28.229	0.101
523.800	35.658	0.101
523.900	32.318	0.101
524.000	27.491	0.101
524.100	31.025	0.101
524.200	36.419	0.101
524.300	31.815	0.101
524.400	29.130	0.101
524.500	22.030	0.101
524.600	29.661	0.101
524.700	31.439	0.101
524.800	26.691	0.101
524.900	29.591	0.101
525.000	20.238	0.101
525.100	35.910	0.101
525.200	32.037	0.101
525.300	26.473	0.101
525.400	25.598	0.101
525.500	24.479	0.101
525.600	25.765	0.101
525.700	44.393	0.101
525.800	35.079	0.101
525.900	29.787	0.101
526.000	18.357	0.101
526.100	27.216	0.101
526.200	38.401	0.101
526.300	20.775	0.101
526.400	28.691	0.101
526.500	34.227	0.101
526.600	33.269	0.101
526.700	36.246	0.101
526.800	37.305	0.101
526.900	34.217	0.101
527.000	36.379	0.101
527.100	41.226	0.101
527.200	23.608	0.101
527.300	35.342	0.101
527.400	25.959	0.101
527.500	26.655	0.101
527.600	25.822	0.101
527.700	27.008	0.101
527.800	24.084	0.101
527.900	31.099	0.101
528.000	35.657	0.101
528.100	28.119	0.101
528.200	28.080	0.101
528.300	29.837	0.101
528.400	28.941	0.101
528.500	36.164	0.101
528.600	29.004	0.101
528.700	18.201	0.101
528.800	23.865	0.101
528.900	30.744	0.101
529.000	36.524	0.101
529.100	28.356	0.101
529.200	38.253	0.101
529.300	23.806	0.101
529.400	24.724	0.101
529.500	32.281	0.101
529.600	30.946	0.101
529.700	39.379	0.101
529.800	26.479	0.101
529.900	33.118	0.101
530.000	30.748	0.101
530.100	25.969	0.101
530.200	31.927	0.101
530.300	33.081	0.101
530.400	39.284	0.101
530.500	30.920	0.101
530.600	26.387	0.101
530.700	23.750	0.101
530.800	36.808	0.101
530.900	28.771	0.101
531.000	27.263	0.101
531.100	26.546	0.101
531.200	28.310	0.101
531.300	29.955	0.101
531.400	30.356	0.101
531.500	35.560	0.101
531.600	24.392	0.101
531.700	28.746	0.101
531.800	38.809	0.101
531.900	25.072	0.101
532.000	27.386	0.101
532.100	25.659	0.101
532.200	35.900	0.101
532.300	34.768	0.101
532.400	30.773	0.101
532.500	30.320	0.101
532.600	32.176	0.101
532.700	23.221	0.101
532.800	19.354	0.101
532.900	29.418	0.101
533.000	32.666	0.101
533.100	27.017	0.101
533.200	31.301	0.101
533.300	30.587	0.101
533.400	28.403	0.101
533.500	27.567	0.101
533.600	32.994	0.101
533.700	30.473	0.101
533.800	27.285	0.101
533.900	27.945	0.101
534.000	32.330	0.101
534.100	28.625	0.101
534.200	26.970	0.101
534.300	28.652	0.101
534.400	25.804	0.101
534.500	28.340	0.101
534.600	36.943	0.101
534.700	35.551	0.101
534.800	33.416	0.101
534.900	31.551	0.101
535.000	37.659	0.101
535.100	30.472	0.101
535.200	22.885	0.101
535.300	23.711	0.101
535.400	31.977	0.101
535.500	34.172	0.101
535.600	33.526	0.101
535.700	18.945	0.101
535.800	14.365	0.101
535.900	22.133	0.101
536.000	29.607	0.101
536.100	31.373	0.101
536.200	36.937	0.101
536.300	32.442	0.101
536.400	24.489	0.101
536.500	21.834	0.101
536.600	29.088	0.101
536.700	39.185	0.101
536.800	30.071	0.101
536.900	22.670	0.101
537.000	29.170	0.101
537.100	34.616	0.101
537.200	31.928	0.101
537.300	26.442	0.101
537.400	30.179	0.101
537.500	27.131	0.101
537.600	27.872	0.101
537.700	33.347	0.101
537.800	27.783	0.101
537.900	30.747	0.101
538.000	32.543	0.101
538.100	34.779	0.101
538.200	22.890	0.101
538.300	24.434	0.101
538.400	33.864	0.101
538.500	37.062	0.101
538.600	28.441	0.101
538.700	29.691	0.101
538.800	34.983	0.101
538.900	26.364	0.101
539.000	25.809	0.101
539.100	38.361	0.101
539.200	23.142	0.101
539.300	32.572	0.101
539.400	34.439	0.101
539.500	32.331	0.101
539.600	30.085	0.101
539.700	30.165	0.101
539.800	26.854	0.101
539.900	31.062	0.101
540.000	35.145	0.101
540.100	16.496	0.101
540.200	30.168	0.101
540.300	27.025	0.101
540.400	19.862	0.101
540.500	27.890	0.101
540.600	27.789	0.101
540.700	17.480	0.101
540.800	33.737	0.101
540.900	20.439	0.101
541.000	17.121	0.101
541.100	1.440	0.101
541.200	-3.602	0.101
541.300	6.020	0.101
541.400	5.773	0.101
541.500	12.472	0.101
541.600	12.738	0.101
541.700	-3.943	0.101
541.800	-0.179	0.101
541.900	-3.603	0.101
542.000	3.659	0.101
542.100	-6.239	0.101
542.200	4.193	0.101
542.300	-4.669	0.101
542.400	-10.933	0.101
542.500	-22.558	0.101
542.600	-6.734	0.101
542.700	-6.715	0.101
542.800	-10.217	0.101
542.900	-7.527	0.101
543.000	-12.602	0.101
543.100	-11.686	0.101
543.200	-15.634	0.101
543.300	-9.546	0.101
543.400	-4.023	0.101
543.500	-19.867	0.101
543.600	-3.554	0.101
543.700	-7.787	0.101
543.800	-8.583	0.101
543.900	-13.949	0.101
544.000	-12.837	0.101
544.100	-17.851	0.101
544.200	-15.919	0.101
544.300	-16.254	0.101
544.400	-15.304	0.101
544.500	-18.594	0.101
544.600	-14.845	0.101
544.700	-24.541	0.101
544.800	-20.786	0.101
544.900	-20.627	0.101
545.000	-22.253	0.101
545.100	-4.058	0.101
545.200	-20.426	0.101
545.300	-14.387	0.101
545.400	-5.291	0.101
545.500	-6.148	0.101
545.600	-17.820	0.101
545.700	-13.767	0.101
545.800	-1.476	0.101
545.900	-22.767	0.101
546.000	-18.091	0.101
546.100	-9.197	0.101
546.200	-14.391	0.101
546.300	-14.389	0.101
546.400	-9.183	0.101
546.500	-11.730	0.101
546.600	-15.214	0.101
546.700	-16.727	0.101
546.800	-14.228	0.101
546.900	-22.610	0.101
547.000	-17.559	0.101
547.100	-18.356	0.101
547.200	-5.910	0.101
547.300	-16.158	0.101
547.400	-21.782	0.101
547.500	-25.067	0.101
547.600	-5.373	0.101
547.700	-17.536	0.101
547.800	-8.431	0.101
547.900	-8.460	0.101
548.000	-16.113	0.101
548.100	-22.957	0.101
548.200	-21.308	0.101
548.300	-17.695	0.101
548.400	-7.516	0.101
548.500	-10.067	0.101
548.600	-8.780	0.101
548.700	-9.249	0.101
548.800	-11.264	0.101
548.900	-16.809	0.101
549.000	-13.115	0.101
549.100	-16.650	0.101
549.200	-14.853	0.101
549.300	-13.931	0.101
549.400	-7.394	0.101
549.500	-24.662	0.101
549.600	-14.315	0.101
549.700	-23.308	0.101
549.800	-14.452	0.101
549.900	-16.084	0.101
550.000	-5.643	0.101
550.100	-11.503	0.101
550.200	-8.369	0.101
550.300	-18.312	0.101
550.400	-10.552	0.101
550.500	-11.377	0.101
550.600	-16.168	0.101
550.700	-20.710	0.101
550.800	-20.042	0.101
550.900	-13.633	0.101
551.000	-16.665	0.101
551.100	-19.682	0.101
551.200	-3.042	0.101
551.300	-19.602	0.101
551.400	-13.058	0.101
551.500	-9.953	0.101
551.600	-11.604	0.101
551.700	-6.299	0.101
551.800	-12.204	0.101
551.900	-22.207	0.101
552.000	-14.394	0.101
552.100	-14.661	0.101
552.200	-18.898	0.101
552.300	-14.043	0.101
552.400	-24.607	0.101
552.500	-15.193	0.101
552.600	-13.274	0.101
552.700	-13.741	0.101
552.800	-9.350	0.101
552.900	-9.647	0.101
553.000	-9.331	0.101
553.100	-22.421	0.101
553.200	-10.559	0.101
553.300	-18.490	0.101
553.400	-19.192	0.101
553.500	-12.778	0.101
553.600	-12.769	0.101
553.700	-25.369	0.101
553.800	-17.489	0.101
553.900	-12.666	0.101
554.000	-14.364	0.101
554.100	-10.637	0.101
554.200	-21.274	0.101
554.300	-15.412	0.101
554.400	-19.447	0.101
554.500	-17.237	0.101
554.600	-7.318	0.101
554.700	-12.077	0.101
554.800	-9.154	0.101
554.900	-20.521	0.101
555.000	-22.264	0.101
555.100	-12.881	0.101
555.200	-14.731	0.101
555.300	-20.569	0.101
555.400	-12.664	0.101
555.500	-20.075	0.101
555.600	-10.780	0.101
555.700	-11.876	0.101
555.800	-11.129	0.101
555.900	-22.985	0.101
556.000	-32.256	0.101
556.100	-18.395	0.101
556.200	-13.294	0.101
556.300	-14.319	0.101
556.400	-15.096	0.101
556.500	-21.165	0.101
556.600	-17.819	0.101
556.700	-15.161	0.101
556.800	-13.996	0.101
556.900	-16.294	0.101
557.000	-17.703	0.101
557.100	-22.548	0.101
557.200	-16.990	0.101
557.300	-11.237	0.101
557.400	-15.062	0.101
557.500	-10.501	0.101
557.600	-10.836	0.101
557.700	-22.447	0.101
557.800	-22.200	0.101
557.900	-7.729	0.101
558.000	-21.452	0.101
558.100	-17.521	0.101
558.200	-17.555	0.101
558.300	-19.232	0.101
558.400	-22.628	0.101
558.500	-7.881	0.101
558.600	-18.388	0.101
558.700	-19.460	0.101
558.800	-28.482	0.101
558.900	-15.180	0.101
559.000	-9.246	0.101
559.100	-8.806	0.101
559.200	-6.639	0.101
559.300	-20.548	0.101
559.400	-21.800	0.101
559.500	-20.777	0.101
559.600	-9.086	0.101
559.700	-16.843	0.101
559.800	-17.309	0.101
559.900	-23.896	0.101
560.000	-25.271	0.101
560.100	-17.703	0.101
560.200	-15.266	0.101
560.300	-12.312	0.101
560.400	-22.420	0.101
560.500	-25.431	0.101
560.600	-28.867	0.101
560.700	-12.832	0.101
560.800	-10.034	0.101
560.900	-23.406	0.101
561.000	-13.483	0.101
561.100	-17.258	0.101
561.200	-23.024	0.101
561.300	-26.039	0.101
561.400	-18.259	0.101
561.500	-14.797	0.101
561.600	-26.792	0.101
561.700	-24.537	0.101
561.800	-9.632	0.101
561.900	-20.009	0.101
562.000	-19.970	0.101
562.100	-16.306	0.101
562.200	-24.566	0.101
562.300	-12.033	0.101
562.400	-16.422	0.101
562.500	-20.374	0.101
562.600	-27.026	0.101
562.700	-16.578	0.101
562.800	-19.992	0.101
562.900	-15.807	0.101
563.000	-21.445	0.101
563.100	-17.008	0.101
563.200	-19.844	0.101
563.300	-10.967	0.101
563.400	-23.066	0.101
563.500	-18.398	0.101
563.600	-16.344	0.101
563.700	-24.557	0.101
563.800	-18.003	0.101
563.900	-14.373	0.101
564.000	-13.646	0.101
564.100	-22.220	0.101
564.200	-20.287	0.101
564.300	-11.977	0.101
564.400	-13.898	0.101
564.500	-21.861	0.101
564.600	-9.513	0.101
564.700	-13.328	0.101
564.800	-19.874	0.101
564.900	-29.676	0.101
565.000	-15.443	0.101
565.100	-15.845	0.101
565.200	-32.383	0.101
565.300	-29.794	0.101
565.400	-20.628	0.101
565.500	-17.121	0.101
565.600	-8.496	0.101
565.700	-10.888	0.101
565.800	-23.642	0.101
565.900	-17.157	0.101
566.000	-21.573	0.101
566.100	-18.757	0.101
566.200	-21.637	0.101
566.300	-18.920	0.101
566.400	-16.957	0.101
566.500	-29.674	0.101
566.600	-24.569	0.101
566.700	-26.468	0.101
566.800	-22.647	0.101
566.900	-10.655	0.101
567.000	-12.040	0.101
567.100	-23.200	0.101
567.200	-9.364	0.101
567.300	-15.356	0.101
567.400	-25.482	0.101
567.500	-19.965	0.101
567.600	-27.448	0.101
567.700	-8.329	0.101
567.800	-24.897	0.101
567.900	-28.444	0.101
568.000	-19.391	0.101
568.100	-19.321	0.101
568.200	-12.530	0.101
568.300	-20.765	0.101
568.400	-15.735	0.101
568.500	-20.357	0.101
568.600	-23.406	0.101
568.700	-24.386	0.101
568.800	-22.593	0.101
568.900	-15.215	0.101
569.000	-20.465	0.101
569.100	-20.797	0.101
569.200	-21.985	0.101
569.300	-16.335	0.101
569.400	-25.907	0.101
569.500	-17.725	0.101
569.600	-15.120	0.101
569.700	-5.742	0.101
569.800	-22.916	0.101
569.900	-15.004	0.101
570.000	-25.340	0.101
570.100	-13.443	0.101
570.200	-14.580	0.101
570.300	-18.513	0.101
570.400	-20.547	0.101
570.500	-14.482	0.101
570.600	-32.227	0.101
570.700	-17.897	0.101
570.800	-26.856	0.101
570.900	-17.244	0.101
571.000	-24.573	0.101
571.100	-26.121	0.101
571.200	-23.340	0.101
571.300	-18.345	0.101
571.400	-29.287	0.101
571.500	-12.142	0.101
571.600	-21.140	0.101
571.700	-13.347	0.101
571.800	-22.250	0.101
571.900	-30.218	0.101
572.000	-21.240	0.101
572.100	-18.476	0.101
572.200	-21.124	0.101
572.300	-17.155	0.101
572.400	-27.080	0.101
572.500	-22.882	0.101
572.600	-14.592	0.101
572.700	-27.536	0.101
572.800	-22.883	0.101
572.900	-18.303	0.101
573.000	-26.917	0.101
573.100	-24.243	0.101
573.200	-27.750	0.101
573.300	-17.776	0.101
573.400	-23.191	0.101
573.500	-17.496	0.101
573.600	-24.061	0.101
573.700	-20.262	0.101
573.800	-28.576	0.101
573.900	-20.158	0.101
574.000	-17.784	0.101
574.100	-21.628	0.101
574.200	-31.778	0.101
574.300	-21.333	0.101
574.400	-21.517	0.101
574.500	-18.818	0.101
574.600	-13.470	0.101
574.700	-15.143	0.101
574.800	-25.754	0.101
574.900	-28.433	0.101
575.000	-23.666	0.101
575.100	-18.987	0.101
575.200	-28.338	0.101
575.300	-15.395	0.101
575.400	-19.494	0.101
575.500	-18.357	0.101
575.600	-30.762	0.101
575.700	-23.181	0.101
575.800	-12.105	0.101
575.900	-13.450	0.101
576.000	-21.027	0.101
576.100	-24.518	0.101
576.200	-18.151	0.101
576.300	-24.925	0.101
576.400	-27.051	0.101
576.500	-15.594	0.101
576.600	-18.976	0.101
576.700	-17.315	0.101
576.800	-20.897	0.101
576.900	-23.694	0.101
577.000	-18.474	0.101
577.100	-27.455	0.101
577.200	-25.589	0.101
577.300	-27.862	0.101
577.400	-34.309	0.101
577.500	-15.714	0.101
577.600	-22.818	0.101
577.700	-14.773	0.101
577.800	-15.420	0.101
577.900	-27.663	0.101
578.000	-28.576	0.101
578.100	-33.877	0.101
578.200	-16.789	0.101
578.300	-29.329	0.101
578.400	-18.585	0.101
578.500	-19.438	0.101
578.600	-20.983	0.101
578.700	-22.772	0.101
578.800	-24.840	0.101
578.900	-21.688	0.101
579.000	-17.912	0.101
579.100	-25.596	0.101
579.200	-25.418	0.101
579.300	-23.242	0.101
579.400	-24.019	0.101
579.500	-14.146	0.101
579.600	-23.788	0.101
579.700	-25.027	0.101
579.800	-24.086	0.101
579.900	-19.197	0.101
580.000	-20.293	0.101
580.100	-20.055	0.101
580.200	-24.763	0.101
580.300	-19.381	0.101
580.400	-24.578	0.101
580.500	-20.714	0.101
580.600	-26.506	0.101
580.700	-22.646	0.101
580.800	-24.581	0.101
580.900	-27.025	0.101
581.000	-13.372	0.101
581.100	-21.105	0.101
581.200	-21.011	0.101
581.300	-22.470	0.101
581.400	-14.946	0.101
581.500	-13.353	0.101
581.600	-24.136	0.101
581.700	-22.621	0.101
581.800	-17.440	0.101
581.900	-17.706	0.101
582.000	-16.167	0.101
582.100	-8.988	0.101
582.200	-18.052	0.101
582.300	-20.551	0.101
582.400	-29.240	0.101
582.500	-20.892	0.101
582.600	-27.666	0.101
582.700	-26.421	0.101
582.800	-19.403	0.101
582.900	-17.672	0.101
583.000	-21.419	0.101
583.100	-20.491	0.101
583.200	-21.560	0.101
583.300	-22.500	0.101
583.400	-21.807	0.101
583.500	-15.862	0.101
583.600	-24.453	0.101
583.700	-21.947	0.101
583.800	-18.880	0.101
583.900	-10.425	0.101
584.000	-20.008	0.101
584.100	-15.885	0.101
584.200	-23.003	0.101
584.300	-25.296	0.101
584.400	-18.379	0.101
584.500	-23.287	0.101
584.600	-27.034	0.101
584.700	-34.151	0.101
584.800	-17.534	0.101
584.900	-8.357	0.101
585.000	-22.125	0.101
585.100	-25.453	0.101
585.200	-20.180	0.101
585.300	-24.276	0.101
585.400	-27.344	0.101
585.500	-17.709	0.101
585.600	-19.046	0.101
585.700	-12.978	0.101
585.800	-22.378	0.101
585.900	-23.998	0.101
586.000	-33.570	0.101
586.100	-19.511	0.101
586.200	-24.354	0.101
586.300	-24.925	0.101
586.400	-16.886	0.101
586.500	-13.568	0.101
586.600	-23.458	0.101
586.700	-20.801	0.101
586.800	-23.703	0.101
586.900	-20.894	0.101
587.000	-19.176	0.101
587.100	-20.742	0.101
587.200	-16.966	0.101
587.300	-24.188	0.101
587.400	-24.283	0.101
587.500	-13.166	0.101
587.600	-17.159	0.101
587.700	-21.598	0.101
587.800	-23.505	0.101
587.900	-21.254	0.101
588.000	-27.948	0.101
588.100	-33.752	0.101
588.200	-16.500	0.101
588.300	-23.496	0.101
588.400	-23.053	0.101
588.500	-15.582	0.101
588.600	-26.704	0.101
588.700	-31.798	0.101
588.800	-18.590	0.101
588.900	-23.216	0.101
589.000	-14.346	0.101
589.100	-8.926	0.101
589.200	-16.386	0.101
589.300	-23.709	0.101
589.400	-27.303	0.101
589.500	-22.187	0.101
589.600	-24.985	0.101
589.700	-23.685	0.101
589.800	-11.786	0.101
589.900	-25.586	0.101
590.000	-27.909	0.101
590.100	-14.914	0.101
590.200	-20.376	0.101
590.300	-15.777	0.101
590.400	-17.037	0.101
590.500	-21.760	0.101
590.600	-13.949	0.101
590.700	-16.257	0.101
590.800	-19.822	0.101
590.900	-33.635	0.101
591.000	-21.740	0.101
591.100	-21.098	0.101
591.200	-18.429	0.101
591.300	-24.746	0.101
591.400	-20.575	0.101
591.500	-17.285	0.101
591.600	-16.254	0.101
591.700	-17.565	0.101
591.800	-18.060	0.101
591.900	-26.205	0.101
592.000	-22.379	0.101
592.100	-18.663	0.101
592.200	-22.904	0.101
592.300	-10.106	0.101
592.400	-20.132	0.101
592.500	-22.961	0.101
592.600	-29.107	0.101
592.700	-20.583	0.101
592.800	-11.160	0.101
592.900	-22.301	0.101
593.000	-22.337	0.101
593.100	-24.614	0.101
593.200	-24.118	0.101
593.300	-18.267	0.101
593.400	-17.340	0.101
593.500	-18.766	0.101
593.600	-21.798	0.101
593.700	-19.327	0.101
593.800	-15.131	0.101
593.900	-18.451	0.101
594.000	-17.697	0.101
594.100	-22.127	0.101
594.200	-26.536	0.101
594.300	-26.717	0.101
594.400	-10.187	0.101
594.500	-20.209	0.101
594.600	-11.330	0.101
594.700	-25.330	0.101
594.800	-25.598	0.101
594.900	-26.448	0.101
595.000	-17.685	0.101
595.100	-15.598	0.101
595.200	-24.982	0.101
595.300	-20.201	0.101
595.400	-26.538	0.101
595.500	-28.194	0.101
595.600	-15.862	0.101
595.700	-18.858	0.101
595.800	-11.984	0.101
595.900	-19.112	0.101
596.000	-17.057	0.101
596.100	-17.569	0.101
596.200	-15.646	0.101
596.300	-12.364	0.101
596.400	-7.607	0.101
596.500	-28.627	0.101
596.600	-27.856	0.101
596.700	-20.147	0.101
596.800	-12.205	0.101
596.900	-8.471	0.101
597.000	-18.179	0.101
597.100	-16.619	0.101
597.200	-15.761	0.101
597.300	-20.409	0.101
597.400	-20.455	0.101
597.500	-7.835	0.101
597.600	-16.326	0.101
597.700	-27.792	0.101
597.800	-16.696	0.101
597.900	-19.534	0.101
598.000	-25.774	0.101
598.100	-15.525	0.101
598.200	-11.878	0.101
598.300	-26.904	0.101
598.400	-19.708	0.101
598.500	-18.686	0.101
598.600	-21.202	0.101
598.700	-22.563	0.101
598.800	-16.537	0.101
598.900	-24.647	0.101
599.000	-17.457	0.101
599.100	-32.552	0.101
599.200	-21.277	0.101
599.300	-16.353	0.101
599.400	-17.774	0.101
599.500	-19.253	0.101
599.600	-21.124	0.101
599.700	-14.396	0.101
599.800	-19.382	0.101
599.900	-24.600	0.101
600.000	-14.145	0.101
600.100	-22.797	0.101
600.200	-16.981	0.101
600.300	-16.645	0.101
600.400	-7.955	0.101
600.500	-20.839	0.101
600.600	-19.617	0.101
600.700	-21.888	0.101
600.800	-10.522	0.101
600.900	-18.186	0.101
601.000	-14.122	0.101
601.100	-24.480	0.101
601.200	-18.452	0.101
601.300	-21.063	0.101
601.400	-11.106	0.101
601.500	-11.090	0.101
601.600	-9.040	0.101
601.700	-18.177	0.101
601.800	-8.163	0.101
601.900	-20.116	0.101
602.000	-24.541	0.101
602.100	-26.306	0.101
602.200	-15.940	0.101
602.300	-17.179	0.101
602.400	-16.397	0.101
602.500	-13.458	0.101
602.600	-12.550	0.101
602.700	-19.917	0.101
602.800	-20.813	0.101
602.900	-26.200	0.101
603.000	-13.936	0.101
603.100	-25.056	0.101
603.200	-17.408	0.101
603.300	-20.356	0.101
603.400	-20.185	0.101
603.500	-17.349	0.101
603.600	-23.370	0.101
603.700	-15.037	0.101
603.800	-11.936	0.101
603.900	-23.361	0.101
604.000	-9.569	0.101
604.100	-13.259	0.101
604.200	-13.050	0.101
604.300	-30.299	0.101
604.400	-13.218	0.101
604.500	-17.182	0.101
604.600	-11.446	0.101
604.700	-26.123	0.101
604.800	-16.677	0.101
604.900	-15.327	0.101
605.000	-22.166	0.101
605.100	-22.588	0.101
605.200	-16.105	0.101
605.300	-14.727	0.101
605.400	-26.801	0.101
605.500	-13.216	0.101
605.600	-10.481	0.101
605.700	-15.976	0.101
605.800	-5.859	0.101
605.900	-21.994	0.101
606.000	-16.393	0.101
606.100	-14.700	0.101
606.200	-14.859	0.101
606.300	-24.584	0.101
606.400	-19.679	0.101
606.500	-12.844	0.101
606.600	-18.360	0.101
606.700	-16.108	0.101
606.800	-19.068	0.101
606.900	-29.950	0.101
607.000	-17.341	0.101
607.100	-19.911	0.101
607.200	-11.796	0.101
607.300	-12.418	0.101
607.400	-13.699	0.101
607.500	-20.888	0.101
607.600	-17.183	0.101
607.700	-23.402	0.101
607.800	-20.951	0.101
607.900	-16.957	0.101
608.000	-17.846	0.101
608.100	-17.247	0.101
608.200	-14.098	0.101
608.300	-15.390	0.101
608.400	-12.599	0.101
608.500	-14.911	0.101
608.600	-17.470	0.101
608.700	-17.439	0.101
608.800	-17.912	0.101
608.900	-16.808	0.101
609.000	-15.651	0.101
609.100	-14.170	0.101
609.200	-10.278	0.101
609.300	-15.680	0.101
609.400	-14.061	0.101
609.500	-14.921	0.101
609.600	-9.372	0.101
609.700	-24.987	0.101
609.800	-14.197	0.101
609.900	-19.986	0.101
610.000	-9.772	0.101
610.100	-16.088	0.101
610.200	-16.571	0.101
610.300	-19.659	0.101
610.400	-24.687	0.101
610.500	-20.361	0.101
610.600	-22.006	0.101
610.700	-17.585	0.101
610.800	-22.073	0.101
610.900	-19.694	0.101
611.000	-15.857	0.101
611.100	-32.635	0.101
611.200	-23.761	0.101
611.300	-7.862	0.101
611.400	-11.277	0.101
611.500	-17.581	0.101
611.600	-16.021	0.101
611.700	-25.236	0.101
611.800	-10.574	0.101
611.900	-10.472	0.101
612.000	-18.220	0.101
612.100	-18.339	0.101
612.200	-14.097	0.101
612.300	-13.237	0.101
612.400	-13.787	0.101
612.500	-14.892	0.101
612.600	-20.487	0.101
612.700	-16.544	0.101
612.800	-7.683	0.101
612.900	-12.112	0.101
613.000	-19.591	0.101
613.100	-16.952	0.101
613.200	-20.460	0.101
613.300	-19.020	0.101
613.400	-18.096	0.101
613.500	-16.588	0.101
613.600	-18.639	0.101
613.700	-9.740	0.101
613.800	-10.804	0.101
613.900	-24.333	0.101
614.000	-23.998	0.101
614.100	-22.903	0.101
614.200	-18.018	0.101
614.300	-27.974	0.101
614.400	-22.754	0.101
614.500	-2.411	0.101
614.600	-8.240	0.101
614.700	-12.824	0.101
614.800	-19.040	0.101
614.900	-15.176	0.101
615.000	-15.043	0.101
615.100	-21.570	0.101
615.200	-16.203	0.101
615.300	-17.179	0.101
615.400	-10.603	0.101
615.500	-13.516	0.101
615.600	-17.113	0.101
615.700	-5.934	0.101
615.800	-15.739	0.101
615.900	-14.616	0.101
616.000	-21.322	0.101
616.100	-12.974	0.101
616.200	-18.261	0.101
616.300	-15.740	0.101
616.400	-16.988	0.101
616.500	-14.361	0.101
616.600	-12.349	0.101
616.700	-20.539	0.101
616.800	-21.616	0.101
616.900	-15.268	0.101
617.000	-13.395	0.101
617.100	-21.747	0.101
617.200	-12.044	0.101
617.300	-13.900	0.101
617.400	-14.083	0.101
617.500	-17.756	0.101
617.600	-12.827	0.101
617.700	-28.750	0.101
617.800	-13.296	0.101
617.900	-18.065	0.101
618.000	-18.967	0.101
618.100	-22.236	0.101
618.200	-16.909	0.101
618.300	-22.753	0.101
618.400	-21.050	0.101
618.500	-16.442	0.101
618.600	-4.951	0.101
618.700	-8.292	0.101
618.800	-8.982	0.101
618.900	-17.833	0.101
619.000	-15.747	0.101
619.100	-23.603	0.101
619.200	-10.783	0.101
619.300	-17.097	0.101
619.400	-21.547	0.101
619.500	-22.498	0.101
619.600	-16.682	0.101
619.700	-18.366	0.101
619.800	-12.488	0.101
619.900	-17.866	0.101
620.000	-11.510	0.101
620.100	-15.528	0.101
620.200	-18.352	0.101
620.300	-12.914	0.101
620.400	-17.339	0.101
620.500	-11.426	0.101
620.600	-1.296	0.101
620.700	-9.859	0.101
620.800	-14.632	0.101
620.900	-13.187	0.101
621.000	-10.644	0.101
621.100	-17.072	0.101
621.200	-16.743	0.101
621.300	-20.283	0.101
621.400	-17.023	0.101
621.500	-16.568	0.101
621.600	-17.291	0.101
621.700	-9.470	0.101
621.800	-14.693	0.101
621.900	-22.814	0.101
622.000	-19.610	0.101
622.100	-6.123	0.101
622.200	-18.872	0.101
622.300	-9.284	0.101
622.400	-9.270	0.101
622.500	-10.023	0.101
622.600	-17.799	0.101
622.700	-14.796	0.101
622.800	-21.597	0.101
622.900	-11.192	0.101
623.000	-15.507	0.101
623.100	-18.399	0.101
623.200	-22.483	0.101
623.300	-14.749	0.101
623.400	-14.834	0.101
623.500	-20.649	0.101
623.600	-20.209	0.101
623.700	-15.298	0.101
623.800	-23.025	0.101
623.900	-3.234	0.101
624.000	-16.934	0.101
624.100	-15.837	0.101
624.200	-14.963	0.101
624.300	-8.856	0.101
624.400	-14.227	0.101
624.500	-12.239	0.101
624.600	-11.836	0.101
624.700	-19.140	0.101
624.800	-8.626	0.101
624.900	-16.301	0.101
625.000	-14.047	0.101
625.100	-17.304	0.101
625.200	-12.067	0.101
625.300	-8.975	0.101
625.400	-15.752	0.101
625.500	-18.465	0.101
625.600	-9.662	0.101
625.700	-21.565	0.101
625.800	-19.324	0.101
625.900	-15.903	0.101
626.000	-16.255	0.101
626.100	-4.751	0.101
626.200	-21.265	0.101
626.300	-13.458	0.101
626.400	-18.537	0.101
626.500	-9.300	0.101
626.600	-14.101	0.101
626.700	-8.131	0.101
626.800	-11.857	0.101
626.900	-22.703	0.101
627.000	-13.686	0.101
627.100	-9.057	0.101
627.200	-14.634	0.101
627.300	-16.336	0.101
627.400	-16.892	0.101
627.500	-11.950	0.101
627.600	-26.702	0.101
627.700	-20.599	0.101
627.800	-9.751	0.101
627.900	-3.792	0.101
628.000	-21.602	0.101
628.100	-12.339	0.101
628.200	-9.033	0.101
628.300	-6.343	0.101
628.400	-7.163	0.101
628.500	-10.330	0.101
628.600	-19.710	0.101
628.700	-10.056	0.101
628.800	-14.430	0.101
628.900	-15.879	0.101
629.000	-15.826	0.101
629.100	-24.558	0.101
629.200	-15.365	0.101
629.300	-11.548	0.101
629.400	-17.236	0.101
629.500	-0.820	0.101
629.600	-3.456	0.101
629.700	-19.267	0.101
629.800	-11.203	0.101
629.900	-15.982	0.101
630.000	-12.228	0.101
630.100	-15.053	0.101
630.200	-23.377	0.101
630.300	-6.645	0.101
630.400	-3.958	0.101
630.500	-4.008	0.101
630.600	2.036	0.101
630.700	-4.405	0.101
630.800	-4.872	0.101
630.900	-3.549	0.101
631.000	2.159	0.101
631.100	4.231	0.101
631.200	5.133	0.101
631.300	13.602	0.101
631.400	5.531	0.101
631.500	16.852	0.101
631.600	19.292	0.101
631.700	12.517	0.101
631.800	11.859	0.101
631.900	12.594	0.101
632.000	22.936	0.101
632.100	17.158	0.101
632.200	18.624	0.101
632.300	24.500	0.101
632.400	20.123	0.101
632.500	30.010	0.101
632.600	21.447	0.101
632.700	21.209	0.101
632.800	28.847	0.101
632.900	25.540	0.101
633.000	22.400	0.101
633.100	19.768	0.101
633.200	24.904	0.101
633.300	28.860	0.101
633.400	17.377	0.101
633.500	25.477	0.101
633.600	17.441	0.101
633.700	31.699	0.101
633.800	27.633	0.101
633.900	25.883	0.101
634.000	17.546	0.101
634.100	27.409	0.101
634.200	27.167	0.101
634.300	29.361	0.101
634.400	21.848	0.101
634.500	30.678	0.101
634.600	24.034	0.101
634.700	20.194	0.101
634.800	23.331	0.101
634.900	21.113	0.101
635.000	18.135	0.101
635.100	16.470	0.101
635.200	26.417	0.101
635.300	20.443	0.101
635.400	31.337	0.101
635.500	13.792	0.101
635.600	20.937	0.101
635.700	17.065	0.101
635.800	13.365	0.101
635.900	22.616	0.101
636.000	17.142	0.101
636.100	20.520	0.101
636.200	15.673	0.101
636.300	32.790	0.101
636.400	19.251	0.101
636.500	10.381	0.101
636.600	7.139	0.101
636.700	19.744	0.101
636.800	21.664	0.101
636.900	19.244	0.101
637.000	8.228	0.101
637.100	10.236	0.101
637.200	21.053	0.101
637.300	18.717	0.101
637.400	9.974	0.101
637.500	9.309	0.101
637.600	17.048	0.101
637.700	19.120	0.101
637.800	-0.547	0.101
637.900	14.952	0.101
638.000	26.741	0.101
638.100	25.715	0.101
638.200	8.017	0.101
638.300	15.264	0.101
638.400	10.890	0.101
638.500	4.693	0.101
638.600	12.930	0.101
638.700	13.758	0.101
638.800	8.363	0.101
638.900	16.670	0.101
639.000	15.096	0.101
639.100	23.340	0.101
639.200	9.125	0.101
639.300	16.235	0.101
639.400	14.081	0.101
639.500	17.161	0.101
639.600	14.940	0.101
639.700	19.801	0.101
639.800	13.543	0.101
639.900	3.793	0.101
640.000	20.256	0.101
640.100	19.694	0.101
640.200	10.359	0.101
640.300	12.802	0.101
640.400	12.068	0.101
640.500	8.141	0.101
640.600	17.933	0.101
640.700	22.935	0.101
640.800	13.512	0.101
640.900	13.305	0.101
641.000	10.833	0.101
641.100	19.288	0.101
641.200	0.657	0.101
641.300	9.457	0.101
641.400	13.538	0.101
641.500	18.997	0.101
641.600	12.210	0.101
641.700	11.234	0.101
641.800	17.045	0.101
641.900	21.051	0.101
642.000	10.865	0.101
642.100	22.197	0.101
642.200	15.214	0.101
642.300	4.412	0.101
642.400	4.284	0.101
642.500	14.271	0.101
642.600	25.363	0.101
642.700	19.417	0.101
642.800	16.872	0.101
642.900	15.303	0.101
643.000	18.083	0.101
643.100	10.747	0.101
643.200	3.516	0.101
643.300	17.129	0.101
643.400	19.972	0.101
643.500	18.632	0.101
643.600	26.576	0.101
643.700	10.070	0.101
643.800	6.710	0.101
643.900	19.808	0.101
644.000	5.675	0.101
644.100	16.714	0.101
644.200	9.142	0.101
644.300	20.039	0.101
644.400	14.277	0.101
644.500	12.754	0.101
644.600	15.066	0.101
644.700	27.186	0.101
644.800	10.028	0.101
644.900	26.497	0.101
645.000	13.369	0.101
645.100	11.344	0.101
645.200	8.458	0.101
645.300	26.904	0.101
645.400	14.242	0.101
645.500	6.902	0.101
645.600	17.824	0.101
645.700	18.974	0.101
645.800	10.257	0.101
645.900	16.278	0.101
646.000	18.665	0.101
646.100	26.255	0.101
646.200	7.311	0.101
646.300	19.494	0.101
646.400	23.101	0.101
646.500	27.667	0.101
646.600	14.071	0.101
646.700	19.817	0.101
646.800	23.622	0.101
646.900	11.959	0.101
647.000	5.791	0.101
647.100	22.174	0.101
647.200	27.744	0.101
647.300	18.862	0.101
647.400	26.153	0.101
647.500	21.526	0.101
647.600	20.676	0.101
647.700	21.655	0.101
647.800	11.310	0.101
647.900	8.698	0.101
648.000	12.433	0.101
648.100	19.145	0.101
648.200	18.587	0.101
648.300	24.730	0.101
648.400	21.767	0.101
648.500	28.585	0.101
648.600	21.718	0.101
648.700	26.686	0.101
648.800	20.750	0.101
648.900	20.240	0.101
649.000	23.830	0.101
649.100	21.345	0.101
649.200	22.682	0.101
649.300	30.105	0.101
649.400	31.619	0.101
649.500	18.902	0.101
649.600	26.550	0.101
649.700	26.444	0.101
649.800	13.270	0.101
649.900	22.556	0.101
650.000	25.114	0.101
650.100	29.610	0.101
650.200	31.883	0.101
650.300	30.992	0.101
650.400	27.133	0.101
650.500	32.302	0.101
650.600	22.331	0.101
650.700	27.388	0.101
650.800	26.072	0.101
650.900	30.891	0.101
651.000	35.802	0.101
651.100	23.731	0.101
651.200	26.991	0.101
651.300	33.985	0.101
651.400	29.324	0.101
651.500	28.315	0.101
651.600	32.076	0.101
651.700	23.215	0.101
651.800	30.851	0.101
651.900	27.069	0.101
652.000	24.150	0.101
652.100	34.947	0.101
652.200	36.355	0.101
652.300	30.308	0.101
652.400	31.801	0.101
652.500	25.437	0.101
652.600	24.953	0.101
652.700	37.545	0.101
652.800	32.771	0.101
652.900	26.568	0.101
653.000	36.809	0.101
653.100	32.419	0.101
653.200	26.988	0.101
653.300	36.377	0.101
653.400	36.663	0.101
653.500	30.459	0.101
653.600	38.657	0.101
653.700	32.803	0.101
653.800	29.460	0.101
653.900	26.946	0.101
654.000	35.701	0.101
654.100	35.609	0.101
654.200	38.134	0.101
654.300	19.970	0.101
654.400	45.583	0.101
654.500	34.002	0.101
654.600	35.939	0.101
654.700	31.157	0.101
654.800	45.714	0.101
654.900	29.225	0.101
655.000	29.956	0.101
655.100	43.302	0.101
655.200	40.822	0.101
655.300	38.577	0.101
655.400	29.848	0.101
655.500	38.897	0.101
655.600	30.744	0.101
655.700	43.018	0.101
655.800	30.322	0.101
655.900	31.581	0.101
656.000	32.704	0.101
656.100	23.591	0.101
656.200	20.255	0.101
656.300	30.001	0.101
656.400	38.827	0.101
656.500	31.698	0.101
656.600	45.513	0.101
656.700	38.720	0.101
656.800	38.006	0.101
656.900	38.368	0.101
657.000	34.871	0.101
657.100	35.356	0.101
657.200	45.231	0.101
657.300	31.594	0.101
657.400	38.506	0.101
657.500	30.452	0.101
657.600	42.821	0.101
657.700	36.122	0.101
657.800	34.943	0.101
657.900	40.307	0.101
658.000	38.733	0.101
658.100	24.165	0.101
658.200	39.759	0.101
658.300	43.919	0.101
658.400	47.053	0.101
658.500	45.569	0.101
658.600	35.875	0.101
658.700	26.086	0.101
658.800	36.060	0.101
658.900	29.371	0.101
659.000	31.296	0.101
659.100	30.354	0.101
659.200	35.504	0.101
659.300	36.892	0.101
659.400	42.165	0.101
659.500	34.081	0.101
659.600	37.199	0.101
659.700	39.464	0.101
659.800	29.537	0.101
659.900	26.670	0.101
660.000	30.187	0.101
660.100	37.619	0.101
660.200	35.162	0.101
660.300	38.956	0.101
660.400	38.286	0.101
660.500	27.748	0.101
660.600	25.957	0.101
660.700	26.583	0.101
660.800	36.463	0.101
660.900	44.254	0.101
661.000	42.863	0.101
661.100	29.698	0.101
661.200	30.580	0.101
661.300	26.042	0.101
661.400	44.763	0.101
661.500	33.369	0.101
661.600	33.484	0.101
661.700	32.850	0.101
661.800	31.836	0.101
661.900	24.975	0.101
662.000	38.749	0.101
662.100	23.276	0.101
662.200	45.624	0.101
662.300	30.201	0.101
662.400	30.462	0.101
662.500	29.044	0.101
662.600	33.260	0.101
662.700	30.480	0.101
662.800	35.069	0.101
662.900	34.664	0.101
663.000	33.865	0.101
663.100	30.518	0.101
663.200	42.262	0.101
663.300	35.867	0.101
663.400	32.868	0.101
663.500	33.786	0.101
663.600	29.548	0.101
663.700	20.650	0.101
663.800	29.188	0.101
663.900	20.368	0.101
664.000	42.160	0.101
664.100	26.834	0.101
664.200	35.982	0.101
664.300	37.295	0.101
664.400	36.687	0.101
664.500	31.907	0.101
664.600	32.334	0.101
664.700	24.892	0.101
664.800	33.691	0.101
664.900	30.703	0.101
665.000	34.090	0.101
665.100	25.675	0.101
665.200	28.256	0.101
665.300	30.726	0.101
665.400	41.495	0.101
665.500	28.325	0.101
665.600	39.627	0.101
665.700	25.611	0.101
665.800	32.598	0.101
665.900	25.903	0.101
666.000	30.012	0.101
666.100	36.874	0.101
666.200	31.089	0.101
666.300	31.471	0.101
666.400	26.473	0.101
666.500	27.177	0.101
666.600	21.006	0.101
666.700	34.266	0.101
666.800	29.959	0.101
666.900	31.226	0.101
667.000	35.025	0.101
667.100	21.613	0.101
667.200	32.678	0.101
667.300	34.221	0.101
667.400	39.258	0.101
667.500	36.793	0.101
667.600	32.207	0.101
667.700	32.698	0.101
667.800	32.669	0.101
667.900	34.692	0.101
668.000	30.316	0.101
668.100	35.354	0.101
668.200	32.085	0.101
668.300	30.346	0.101
668.400	33.031	0.101
668.500	32.748	0.101
668.600	29.776	0.101
668.700	21.212	0.101
668.800	33.393	0.101
668.900	30.345	0.101
669.000	25.671	0.101
669.100	30.209	0.101
669.200	27.252	0.101
669.300	28.136	0.101
669.400	34.693	0.101
669.500	34.268	0.101
669.600	32.559	0.101
669.700	26.886	0.101
669.800	24.425	0.101
669.900	28.593	0.101
670.000	30.300	0.101
670.100	32.507	0.101
670.200	29.985	0.101
670.300	30.853	0.101
670.400	36.908	0.101
670.500	25.730	0.101
670.600	24.987	0.101
670.700	30.847	0.101
670.800	24.757	0.101
670.900	34.654	0.101
671.000	32.656	0.101
671.100	24.188	0.101
671.200	28.971	0.101
671.300	31.915	0.101
671.400	35.065	0.101
671.500	39.589	0.101
671.600	27.614	0.101
671.700	28.219	0.101
671.800	40.420	0.101
671.900	21.942	0.101
672.000	27.011	0.101
672.100	23.486	0.101
672.200	32.695	0.101
672.300	31.458	0.101
672.400	24.147	0.101
672.500	29.898	0.101
672.600	31.443	0.101
672.700	31.704	0.101
672.800	39.647	0.101
672.900	24.468	0.101
673.000	19.588	0.101
673.100	22.773	0.101
673.200	34.619	0.101
673.300	28.764	0.101
673.400	22.321	0.101
673.500	25.549	0.101
673.600	27.699	0.101
673.700	30.870	0.101
673.800	33.247	0.101
673.900	35.300	0.101
674.000	25.119	0.101
674.100	24.907	0.101
674.200	35.054	0.101
674.300	31.720	0.101
674.400	36.500	0.101
674.500	31.957	0.101
674.600	39.602	0.101
674.700	24.166	0.101
674.800	31.791	0.101
674.900	27.480	0.101
675.000	27.574	0.101
675.100	35.312	0.101
675.200	29.007	0.101
675.300	17.980	0.101
675.400	21.302	0.101
675.500	43.351	0.101
675.600	32.684	0.101
675.700	31.781	0.101
675.800	34.563	0.101
675.900	15.289	0.101
676.000	29.044	0.101
676.100	27.768	0.101
676.200	30.368	0.101
676.300	20.716	0.101
676.400	37.744	0.101
676.500	31.176	0.101
676.600	31.301	0.101
676.700	24.448	0.101
676.800	28.904	0.101
676.900	25.256	0.101
677.000	31.207	0.101
677.100	38.766	0.101
677.200	30.995	0.101
677.300	29.717	0.101
677.400	27.951	0.101
677.500	20.300	0.101
677.600	40.598	0.101
677.700	33.497	0.101
677.800	25.720	0.101
677.900	36.389	0.101
678.000	32.581	0.101
678.100	25.811	0.101
678.200	25.255	0.101
678.300	35.481	0.101
678.400	29.595	0.101
678.500	36.970	0.101
678.600	29.629	0.101
678.700	25.940	0.101
678.800	38.547	0.101
678.900	29.759	0.101
679.000	23.808	0.101
679.100	27.801	0.101
679.200	28.273	0.101
679.300	25.298	0.101
679.400	30.951	0.101
679.500	24.802	0.101
679.600	26.207	0.101
679.700	28.577	0.101
679.800	37.311	0.101
679.900	28.885	0.101
680.000	34.358	0.101
680.100	26.656	0.101
680.200	27.738	0.101
680.300	30.369	0.101
680.400	26.074	0.101
680.500	28.362	0.101
680.600	25.287	0.101
680.700	35.679	0.101
680.800	31.045	0.101
680.900	30.334	0.101
681.000	26.300	0.101
681.100	23.838	0.101
681.200	27.260	0.101
681.300	26.354	0.101
681.400	28.039	0.101
681.500	39.314	0.101
681.600	36.226	0.101
681.700	26.251	0.101
681.800	17.694	0.101
681.900	23.851	0.101
682.000	32.112	0.101
682.100	36.931	0.101
682.200	36.050	0.101
682.300	28.942	0.101
682.400	21.661	0.101
682.500	26.275	0.101
682.600	21.929	0.101
682.700	23.049	0.101
682.800	25.539	0.101
682.900	28.051	0.101
683.000	35.831	0.101
683.100	31.341	0.101
683.200	34.459	0.101
683.300	24.393	0.101
683.400	30.495	0.101
683.500	28.033	0.101
683.600	32.193	0.101
683.700	34.117	0.101
683.800	23.979	0.101
683.900	27.822	0.101
684.000	32.432	0.101
684.100	35.014	0.101
684.200	10.990	0.101
684.300	37.347	0.101
684.400	27.751	0.101
684.500	23.627	0.101
684.600	23.475	0.101
684.700	30.980	0.101
684.800	31.052	0.101
684.900	27.952	0.101
685.000	41.907	0.101
685.100	27.981	0.101
685.200	30.789	0.101
685.300	18.100	0.101
685.400	27.674	0.101
685.500	31.854	0.101
685.600	26.715	0.101
685.700	26.940	0.101
685.800	32.553	0.101
685.900	31.831	0.101
686.000	24.319	0.101
686.100	30.871	0.101
686.200	25.891	0.101
686.300	22.092	0.101
686.400	21.812	0.101
686.500	30.574	0.101
686.600	22.647	0.101
686.700	31.544	0.101
686.800	35.266	0.101
686.900	35.374	0.101
687.000	25.188	0.101
687.100	26.423	0.101
687.200	31.193	0.101
687.300	28.625	0.101
687.400	30.742	0.101
687.500	26.765	0.101
687.600	23.890	0.101
687.700	38.152	0.101
687.800	24.170	0.101
687.900	21.661	0.101
688.000	37.284	0.101
688.100	40.336	0.101
688.200	28.605	0.101
688.300	25.319	0.101
688.400	23.253	0.101
688.500	27.904	0.101
688.600	16.872	0.101
688.700	33.411	0.101
688.800	31.229	0.101
688.900	30.061	0.101
689.000	27.277	0.101
689.100	24.296	0.101
689.200	31.383	0.101
689.300	25.735	0.101
689.400	30.079	0.101
689.500	32.680	0.101
689.600	24.796	0.101
689.700	27.729	0.101
689.800	31.435	0.101
689.900	36.001	0.101
690.000	25.142	0.101
690.100	24.655	0.101
690.200	26.360	0.101
690.300	30.396	0.101
690.400	16.112	0.101
690.500	39.156	0.101
690.600	23.731	0.101
690.700	24.243	0.101
690.800	10.195	0.101
690.900	17.014	0.101
691.000	15.401	0.101
691.100	18.453	0.101
691.200	-0.958	0.101
691.300	1.888	0.101
691.400	-0.078	0.101
691.500	5.520	0.101
691.600	-9.191	0.101
691.700	-3.155	0.101
691.800	-3.938	0.101
691.900	-4.601	0.101
692.000	1.059	0.101
692.100	5.016	0.101
692.200	-6.532	0.101
692.300	-4.778	0.101
692.400	-9.642	0.101
692.500	-13.476	0.101
692.600	-9.543	0.101
692.700	0.696	0.101
692.800	-8.729	0.101
692.900	-10.713	0.101
693.000	-13.969	0.101
693.100	-4.955	0.101
693.200	-14.434	0.101
693.300	-8.002	0.101
693.400	-13.776	0.101
693.500	-15.250	0.101
693.600	-9.834	0.101
693.700	-6.414	0.101
693.800	-18.259	0.101
693.900	-16.564	0.101
694.000	-12.813	0.101
694.100	-12.329	0.101
694.200	-18.641	0.101
694.300	-15.859	0.101
694.400	-15.136	0.101
694.500	-18.758	0.101
694.600	-16.820	0.101
694.700	-14.921	0.101
694.800	-23.920	0.101
694.900	-18.294	0.101
695.000	-5.832	0.101
695.100	-22.479	0.101
695.200	-20.521	0.101
695.300	-19.151	0.101
695.400	-11.976	0.101
695.500	-5.484	0.101
695.600	-18.328	0.101
695.700	-15.278	0.101
695.800	-19.598	0.101
695.900	-5.974	0.101
696.000	-19.745	0.101
696.100	-17.196	0.101
696.200	-14.812	0.101
696.300	-17.925	0.101
696.400	-24.390	0.101
696.500	-10.831	0.101
696.600	-19.415	0.101
696.700	-15.441	0.101
696.800	-18.056	0.101
696.900	-8.078	0.101
697.000	-9.256	0.101
697.100	-19.138	0.101
697.200	-14.456	0.101
697.300	-15.641	0.101
697.400	-24.999	0.101
697.500	-13.275	0.101
697.600	-21.838	0.101
697.700	-21.465	0.101
697.800	-25.292	0.101
697.900	-9.242	0.101
698.000	-11.278	0.101
698.100	-17.433	0.101
698.200	-14.533	0.101
698.300	-21.363	0.101
698.400	-17.517	0.101
698.500	-11.179	0.101
698.600	-24.012	0.101
698.700	-12.161	0.101
698.800	-19.911	0.101
698.900	-17.107	0.101
699.000	-7.541	0.101
699.100	-8.809	0.101
699.200	-13.929	0.101
699.300	-17.775	0.101
699.400	-20.084	0.101
699.500	-13.255	0.101
699.600	-17.663	0.101
699.700	-9.726	0.101
699.800	-7.352	0.101
699.900	-12.267	0.101
700.000	-13.363	0.101
700.100	-5.668	0.101
700.200	-11.257	0.101
700.300	-19.533	0.101
700.400	-20.505	0.101
700.500	-16.298	0.101
700.600	-17.203	0.101
700.700	-11.381	0.101
700.800	-25.438	0.101
700.900	-17.465	0.101
701.000	-18.626	0.101
701.100	-12.202	0.101
701.200	-17.451	0.101
701.300	-11.040	0.101
701.400	-8.912	0.101
701.500	-7.851	0.101
701.600	-22.077	0.101
701.700	-16.828	0.101
701.800	-22.654	0.101
701.900	-11.301	0.101
702.000	-16.125	0.101
702.100	-21.139	0.101
702.200	-17.742	0.101
702.300	-1.863	0.101
702.400	-20.132	0.101
702.500	-14.238	0.101
702.600	-14.297	0.101
702.700	-17.805	0.101
702.800	-11.930	0.101
702.900	-9.029	0.101
703.000	-21.606	0.101
703.100	-23.060	0.101
703.200	-29.643	0.101
703.300	-15.812	0.101
703.400	-16.222	0.101
703.500	-20.550	0.101
703.600	-4.110	0.101
703.700	-11.955	0.101
703.800	-6.964	0.101
703.900	-18.763	0.101
704.000	-22.871	0.101
704.100	-10.662	0.101
704.200	-15.577	0.101
704.300	-10.246	0.101
704.400	-10.033	0.101
704.500	-16.151	0.101
704.600	-19.787	0.101
704.700	-12.117	0.101
704.800	-24.993	0.101
704.900	-15.667	0.101
705.000	-12.671	0.101
705.100	-10.739	0.101
705.200	-14.447	0.101
705.300	-12.180	0.101
705.400	-17.207	0.101
705.500	-16.469	0.101
705.600	-22.971	0.101
705.700	-20.186	0.101
705.800	-15.813	0.101
705.900	-15.317	0.101
706.000	-17.233	0.101
706.100	-10.202	0.101
706.200	-15.428	0.101
706.300	-13.124	0.101
706.400	-19.826	0.101
706.500	-19.414	0.101
706.600	-18.682	0.101
706.700	-16.911	0.101
706.800	-15.094	0.101
706.900	-22.872	0.101
707.000	-16.477	0.101
707.100	-19.470	0.101
707.200	-17.824	0.101
707.300	-21.326	0.101
707.400	-21.729	0.101
707.500	-12.499	0.101
707.600	-17.470	0.101
707.700	-13.590	0.101
707.800	-7.525	0.101
707.900	-16.537	0.101
708.000	-21.761	0.101
708.100	-12.942	0.101
708.200	-14.631	0.101
708.300	-16.157	0.101
708.400	-18.663	0.101
708.500	-30.881	0.101
708.600	-14.910	0.101
708.700	-12.523	0.101
708.800	-10.342	0.101
708.900	-4.872	0.101
709.000	-18.067	0.101
709.100	-17.925	0.101
709.200	-15.929	0.101
709.300	-22.255	0.101
709.400	-17.375	0.101
709.500	-25.976	0.101
709.600	-17.003	0.101
709.700	-23.998	0.101
709.800	-24.069	0.101
709.900	-18.044	0.101
710.000	-19.205	0.101
710.100	-9.965	0.101
710.200	-19.871	0.101
710.300	-22.954	0.101
710.400	-17.446	0.101
710.500	-25.575	0.101
710.600	-19.326	0.101
710.700	-23.780	0.101
710.800	-22.866	0.101
710.900	-16.584	0.101
711.000	-13.762	0.101
711.100	-19.853	0.101
711.200	-18.770	0.101
711.300	-19.558	0.101
711.400	-12.045	0.101
711.500	-15.154	0.101
711.600	-16.154	0.101
711.700	-24.663	0.101
711.800	-20.009	0.101
711.900	-16.967	0.101
712.000	-16.860	0.101
712.100	-21.875	0.101
712.200	-23.965	0.101
712.300	-16.645	0.101
712.400	-20.557	0.101
712.500	-16.858	0.101
712.600	-21.990	0.101
712.700	-20.751	0.101
712.800	-21.900	0.101
712.900	-18.426	0.101
713.000	-29.589	0.101
713.100	-23.759	0.101
713.200	-24.917	0.101
713.300	-22.690	0.101
713.400	-19.315	0.101
713.500	-14.505	0.101
713.600	-20.087	0.101
713.700	-19.398	0.101
713.800	-19.343	0.101
713.900	-7.900	0.101
714.000	-12.906	0.101
714.100	-24.654	0.101
714.200	-13.676	0.101
714.300	-13.840	0.101
714.400	-24.896	0.101
714.500	-22.529	0.101
714.600	-21.476	0.101
714.700	-26.489	0.101
714.800	-19.856	0.101
714.900	-15.287	0.101
715.000	-25.903	0.101
715.100	-29.349	0.101
715.200	-22.272	0.101
715.300	-14.899	0.101
715.400	-18.736	0.101
715.500	-21.697	0.101
715.600	-12.161	0.101
715.700	-20.614	0.101
715.800	-24.845	0.101
715.900	-27.495	0.101
716.000	-16.318	0.101
716.100	-19.254	0.101
716.200	-19.282	0.101
716.300	-25.986	0.101
716.400	-27.845	0.101
716.500	-26.303	0.101
716.600	-14.411	0.101
716.700	-23.337	0.101
716.800	-16.552	0.101
716.900	-7.876	0.101
717.000	-24.084	0.101
717.100	-21.766	0.101
717.200	-26.794	0.101
717.300	-28.435	0.101
717.400	-25.913	0.101
717.500	-19.080	0.101
717.600	-20.741	0.101
717.700	-21.565	0.101
717.800	-15.184	0.101
717.900	-25.233	0.101
718.000	-23.469	0.101
718.100	-12.734	0.101
718.200	-20.042	0.101
718.300	-15.382	0.101
718.400	-14.441	0.101
718.500	-34.479	0.101
718.600	-16.942	0.101
718.700	-26.877	0.101
718.800	-15.721	0.101
718.900	-12.580	0.101
719.000	-12.992	0.101
719.100	-25.519	0.101
719.200	-25.305	0.101
719.300	-17.235	0.101
719.400	-15.865	0.101
719.500	-23.520	0.101
719.600	-13.693	0.101
719.700	-21.464	0.101
719.800	-33.098	0.101
719.900	-15.756	0.101
720.000	-25.732	0.101
720.100	-21.772	0.101
720.200	-29.653	0.101
720.300	-25.567	0.101
720.400	-14.495	0.101
720.500	-27.968	0.101
720.600	-13.071	0.101
720.700	-21.818	0.101
720.800	-24.964	0.101
720.900	-17.576	0.101
721.000	-14.858	0.101
721.100	-14.498	0.101
721.200	-12.227	0.101
721.300	-13.773	0.101
721.400	-23.299	0.101
721.500	-19.955	0.101
721.600	-30.557	0.101
721.700	-31.329	0.101
721.800	-14.046	0.101
721.900	-22.245	0.101
722.000	-21.940	0.101
722.100	-28.681	0.101
722.200	-22.190	0.101
722.300	-20.376	0.101
722.400	-15.990	0.101
722.500	-13.935	0.101
722.600	-20.369	0.101
722.700	-28.182	0.101
722.800	-24.233	0.101
722.900	-30.139	0.101
723.000	-18.428	0.101
723.100	-25.994	0.101
723.200	-28.440	0.101
723.300	-28.405	0.101
723.400	-25.371	0.101
723.500	-15.826	0.101
723.600	-20.221	0.101
723.700	-26.978	0.101
723.800	-27.539	0.101
723.900	-30.978	0.101
724.000	-19.848	0.101
724.100	-15.876	0.101
724.200	-17.182	0.101
724.300	-23.097	0.101
724.400	-34.176	0.101
724.500	-28.695	0.101
724.600	-18.671	0.101
724.700	-27.786	0.101
724.800	-18.454	0.101
724.900	-25.066	0.101
725.000	-20.825	0.101
725.100	-23.347	0.101
725.200	-21.946	0.101
725.300	-28.587	0.101
725.400	-23.391	0.101
725.500	-27.302	0.101
725.600	-15.785	0.101
725.700	-28.371	0.101
725.800	-28.963	0.101
725.900	-27.938	0.101
726.000	-17.021	0.101
726.100	-31.862	0.101
726.200	-26.845	0.101
726.300	-24.104	0.101
726.400	-17.740	0.101
726.500	-21.279	0.101
726.600	-23.338	0.101
726.700	-19.819	0.101
726.800	-19.471	0.101
726.900	-14.915	0.101
727.000	-24.095	0.101
727.100	-17.813	0.101
727.200	-16.746	0.101
727.300	-21.789	0.101
727.400	-20.043	0.101
727.500	-25.779	0.101
727.600	-28.640	0.101
727.700	-27.039	0.101
727.800	-25.732	0.101
727.900	-31.031	0.101
728.000	-18.803	0.101
728.100	-19.172	0.101
728.200	-31.354	0.101
728.300	-28.652	0.101
728.400	-13.275	0.101
728.500	-16.482	0.101
728.600	-15.571	0.101
728.700	-14.759	0.101
728.800	-26.687	0.101
728.900	-25.838	0.101
729.000	-31.640	0.101
729.100	-31.336	0.101
729.200	-23.266	0.101
729.300	-24.285	0.101
729.400	-13.284	0.101
729.500	-20.955	0.101
729.600	-17.201	0.101
729.700	-30.430	0.101
729.800	-23.303	0.101
729.900	-21.820	0.101
730.000	-26.588	0.101
730.100	-18.142	0.101
730.200	-16.777	0.101
730.300	-24.014	0.101
730.400	-29.574	0.101
730.500	-26.052	0.101
730.600	-17.646	0.101
730.700	-29.985	0.101
730.800	-15.716	0.101
730.900	-25.234	0.101
731.000	-22.214	0.101
731.100	-22.166	0.101
731.200	-21.583	0.101
731.300	-17.620	0.101
731.400	-25.435	0.101
731.500	-19.809	0.101
731.600	-28.397	0.101
731.700	-19.903	0.101
731.800	-26.057	0.101
731.900	-23.542	0.101
732.000	-20.936	0.101
732.100	-21.282	0.101
732.200	-17.649	0.101
732.300	-24.884	0.101
732.400	-20.137	0.101
732.500	-22.625	0.101
732.600	-19.288	0.101
732.700	-16.468	0.101
732.800	-27.669	0.101
732.900	-28.334	0.101
733.000	-20.417	0.101
733.100	-19.376	0.101
733.200	-18.683	0.101
733.300	-23.182	0.101
733.400	-27.048	0.101
733.500	-24.230	0.101
733.600	-19.564	0.101
733.700	-22.259	0.101
733.800	-29.649	0.101
733.900	-15.957	0.101
734.000	-24.122	0.101
734.100	-21.513	0.101
734.200	-24.215	0.101
734.300	-25.727	0.101
734.400	-28.781	0.101
734.500	-28.897	0.101
734.600	-17.698	0.101
734.700	-17.378	0.101
734.800	-13.180	0.101
734.900	-31.967	0.101
735.000	-19.442	0.101
735.100	-11.253	0.101
735.200	-32.036	0.101
735.300	-23.956	0.101
735.400	-19.747	0.101
735.500	-24.342	0.101
735.600	-24.713	0.101
735.700	-18.422	0.101
735.800	-18.789	0.101
735.900	-15.934	0.101
736.000	-20.107	0.101
736.100	-24.857	0.101
736.200	-12.136	0.101
736.300	-20.153	0.101
736.400	-21.727	0.101
736.500	-29.375	0.101
736.600	-30.720	0.101
736.700	-21.244	0.101
736.800	-18.668	0.101
736.900	-16.965	0.101
737.000	-14.393	0.101
737.100	-17.007	0.101
737.200	-27.697	0.101
737.300	-24.687	0.101
737.400	-15.984	0.101
737.500	-21.622	0.101
737.600	-26.369	0.101
737.700	-20.568	0.101
737.800	-16.037	0.101
737.900	-18.204	0.101
738.000	-17.105	0.101
738.100	-17.569	0.101
738.200	-19.957	0.101
738.300	-29.382	0.101
738.400	-14.275	0.101
738.500	-21.459	0.101
738.600	-23.083	0.101
738.700	-27.301	0.101
738.800	-19.208	0.101
738.900	-16.526	0.101
739.000	-20.759	0.101
739.100	-21.423	0.101
739.200	-25.040	0.101
739.300	-18.723	0.101
739.400	-25.192	0.101
739.500	-34.557	0.101
739.600	-21.802	0.101
739.700	-22.483	0.101
739.800	-22.577	0.101
739.900	-22.673	0.101
740.000	-25.730	0.101
740.100	-11.718	0.101
740.200	-23.590	0.101
740.300	-17.498	0.101
740.400	-17.469	0.101
740.500	-24.817	0.101
740.600	-21.115	0.101
740.700	-31.239	0.101
740.800	-28.314	0.101
740.900	-19.384	0.101
741.000	-20.177	0.101
741.100	-28.613	0.101
741.200	-25.487	0.101
741.300	-21.564	0.101
741.400	-17.956	0.101
741.500	-17.850	0.101
741.600	-14.697	0.101
741.700	-20.349	0.101
741.800	-33.300	0.101
741.900	-18.434	0.101
742.000	-17.889	0.101
742.100	-17.848	0.101
742.200	-31.847	0.101
742.300	-23.885	0.101
742.400	-16.582	0.101
742.500	-17.997	0.101
742.600	-14.779	0.101
742.700	-16.763	0.101
742.800	-20.849	0.101
742.900	-24.176	0.101
743.000	-18.685	0.101
743.100	-24.286	0.101
743.200	-17.410	0.101
743.300	-24.230	0.101
743.400	-24.422	0.101
743.500	-14.085	0.101
743.600	-11.310	0.101
743.700	-17.633	0.101
743.800	-26.363	0.101
743.900	-14.633	0.101
744.000	-22.443	0.101
744.100	-12.573	0.101
744.200	-13.978	0.101
744.300	-18.482	0.101
744.400	-29.107	0.101
744.500	-21.726	0.101
744.600	-21.833	0.101
744.700	-18.020	0.101
744.800	-20.794	0.101
744.900	-20.374	0.101
745.000	-15.521	0.101
745.100	-18.969	0.101
745.200	-26.196	0.101
745.300	-25.204	0.101
745.400	-17.990	0.101
745.500	-24.643	0.101
745.600	-20.908	0.101
745.700	-9.928	0.101
745.800	-27.534	0.101
745.900	-12.511	0.101
746.000	-18.918	0.101
746.100	-23.344	0.101
746.200	-26.613	0.101
746.300	-25.123	0.101
746.400	-23.246	0.101
746.500	-28.928	0.101
746.600	-21.838	0.101
746.700	-18.038	0.101
746.800	-23.815	0.101
746.900	-22.541	0.101
747.000	-21.303	0.101
747.100	-14.754	0.101
747.200	-17.844	0.101
747.300	-16.780	0.101
747.400	-22.872	0.101
747.500	-21.305	0.101
747.600	-20.719	0.101
747.700	-15.187	0.101
747.800	-16.762	0.101
747.900	-12.542	0.101
748.000	-21.641	0.101
748.100	-21.914	0.101
748.200	-20.104	0.101
748.300	-20.779	0.101
748.400	-14.985	0.101
748.500	-10.691	0.101
748.600	-11.908	0.101
748.700	-15.620	0.101
748.800	-29.420	0.101
748.900	-26.436	0.101
749.000	-11.663	0.101
749.100	-14.338	0.101
749.200	-19.934	0.101
749.300	-18.316	0.101
749.400	-23.621	0.101
749.500	-18.946	0.101
749.600	-11.667	0.101
749.700	-22.542	0.101
749.800	-19.730	0.101
749.900	-12.671	0.101
750.000	-26.200	0.101
750.100	-21.120	0.101
750.200	-21.715	0.101
750.300	-3.872	0.101
750.400	-24.613	0.101
750.500	-27.726	0.101
750.600	-22.451	0.101
750.700	-20.684	0.101
750.800	-18.681	0.101
750.900	-25.609	0.101
751.000	-24.999	0.101
751.100	-18.381	0.101
751.200	-10.712	0.101
751.300	-8.691	0.101
751.400	-14.695	0.101
751.500	-18.402	0.101
751.600	-24.538	0.101
751.700	-17.451	0.101
751.800	-22.961	0.101
751.900	-12.300	0.101
752.000	-18.165	0.101
752.100	-24.745	0.101
752.200	-20.677	0.101
752.300	-22.672	0.101
752.400	-19.132	0.101
752.500	-16.117	0.101
752.600	-13.159	0.101
752.700	-18.729	0.101
752.800	-23.218	0.101
752.900	-25.560	0.101
753.000	-23.257	0.101
753.100	-12.970	0.101
753.200	-14.066	0.101
753.300	-18.820	0.101
753.400	-26.088	0.101
753.500	-15.041	0.101
753.600	-18.407	0.101
753.700	-17.686	0.101
753.800	-24.577	0.101
753.900	-18.021	0.101
754.000	-14.247	0.101
754.100	-12.182	0.101
754.200	-19.797	0.101
754.300	-22.179	0.101
754.400	-22.114	0.101
754.500	-22.097	0.101
754.600	-25.389	0.101
754.700	-12.781	0.101
754.800	-11.121	0.101
754.900	-15.736	0.101
755.000	-18.448	0.101
755.100	-18.934	0.101
755.200	-21.293	0.101
755.300	-27.378	0.101
755.400	-21.047	0.101
755.500	-20.305	0.101
755.600	-15.566	0.101
755.700	-17.942	0.101
755.800	-17.377	0.101
755.900	-20.229	0.101
756.000	-22.502	0.101
756.100	-13.735	0.101
756.200	-15.794	0.101
756.300	-18.527	0.101
756.400	-25.446	0.101
756.500	-11.563	0.101
756.600	-8.463	0.101
756.700	-16.148	0.101
756.800	-21.534	0.101
756.900	-16.840	0.101
757.000	-17.184	0.101
757.100	-22.829	0.101
757.200	-21.685	0.101
757.300	-18.920	0.101
757.400	-23.341	0.101
757.500	-19.380	0.101
757.600	-13.819	0.101
757.700	-8.519	0.101
757.800	-18.110	0.101
757.900	-17.775	0.101
758.000	-20.664	0.101
758.100	-22.657	0.101
758.200	-15.771	0.101
758.300	-20.221	0.101
758.400	-20.084	0.101
758.500	-16.055	0.101
758.600	-13.519	0.101
758.700	-13.232	0.101
758.800	-18.522	0.101
758.900	-12.798	0.101
759.000	-21.628	0.101
759.100	-16.659	0.101
759.200	-20.060	0.101
759.300	-20.695	0.101
759.400	-25.345	0.101
759.500	-24.291	0.101
759.600	-13.573	0.101
759.700	-8.997	0.101
759.800	-17.661	0.101
759.900	-13.122	0.101
760.000	-20.621	0.101
760.100	-21.218	0.101
760.200	-21.476	0.101
760.300	-5.901	0.101
760.400	-14.062	0.101
760.500	-18.369	0.101
760.600	-11.246	0.101
760.700	-19.781	0.101
760.800	-18.165	0.101
760.900	-11.558	0.101
761.000	-23.274	0.101
761.100	-16.302	0.101
761.200	-15.875	0.101
761.300	-22.608	0.101
761.400	-11.485	0.101
761.500	-14.251	0.101
761.600	-19.630	0.101
761.700	-13.639	0.101
761.800	-23.376	0.101
761.900	-8.891	0.101
762.000	-19.653	0.101
762.100	-20.195	0.101
762.200	-4.131	0.101
762.300	-16.371	0.101
762.400	-23.163	0.101
762.500	-23.931	0.101
762.600	-15.388	0.101
762.700	-10.555	0.101
762.800	-22.424	0.101
762.900	-21.229	0.101
763.000	-26.097	0.101
763.100	-16.389	0.101
763.200	-26.653	0.101
763.300	-10.502	0.101
763.400	-17.039	0.101
763.500	-8.164	0.101
763.600	-9.070	0.101
763.700	-17.248	0.101
763.800	-12.334	0.101
763.900	-26.197	0.101
764.000	-12.032	0.101
764.100	-14.602	0.101
764.200	-26.242	0.101
764.300	-19.485	0.101
764.400	-18.172	0.101
764.500	-12.514	0.101
764.600	-16.446	0.101
764.700	-15.013	0.101
764.800	-7.896	0.101
764.900	-17.800	0.101
765.000	-19.899	0.101
765.100	-17.217	0.101
765.200	-18.817	0.101
765.300	-18.197	0.101
765.400	-19.529	0.101
765.500	-15.971	0.101
765.600	-14.150	0.101
765.700	-15.394	0.101
765.800	-13.313	0.101
765.900	-21.197	0.101
766.000	-16.619	0.101
766.100	-11.835	0.101
766.200	-18.291	0.101
766.300	-21.258	0.101
766.400	-18.201	0.101
766.500	-13.093	0.101
766.600	-11.319	0.101
766.700	-26.508	0.101
766.800	-6.736	0.101
766.900	-7.875	0.101
767.000	-15.447	0.101
767.100	-19.398	0.101
767.200	-12.284	0.101
767.300	-7.988	0.101
767.400	-19.857	0.101
767.500	-17.810	0.101
767.600	-16.752	0.101
767.700	-18.740	0.101
767.800	-11.652	0.101
767.900	-21.232	0.101
768.000	-10.851	0.101
768.100	-15.570	0.101
768.200	-17.589	0.101
768.300	-13.213	0.101
768.400	-18.267	0.101
768.500	-18.680	0.101
768.600	-16.968	0.101
768.700	-15.767	0.101
768.800	-9.354	0.101
768.900	-17.297	0.101
769.000	-11.356	0.101
769.100	-16.202	0.101
769.200	-11.208	0.101
769.300	-19.449	0.101
769.400	-15.223	0.101
769.500	-14.191	0.101
769.600	-11.230	0.101
769.700	-6.556	0.101
769.800	-12.739	0.101
769.900	-14.583	0.101
770.000	-28.310	0.101
770.100	-13.720	0.101
770.200	-11.951	0.101
770.300	-17.374	0.101
770.400	-15.623	0.101
770.500	-18.635	0.101
770.600	-13.504	0.101
770.700	-19.225	0.101
770.800	-12.685	0.101
770.900	-9.774	0.101
771.000	-14.246	0.101
771.100	-19.429	0.101
771.200	-22.378	0.101
771.300	-13.567	0.101
771.400	-16.224	0.101
771.500	-13.099	0.101
771.600	-11.767	0.101
771.700	-17.665	0.101
771.800	-18.938	0.101
771.900	-16.114	0.101
772.000	-13.608	0.101
772.100	-18.916	0.101
772.200	-21.225	0.101
772.300	-13.907	0.101
772.400	-14.652	0.101
772.500	-17.197	0.101
772.600	-18.304	0.101
772.700	-14.174	0.101
772.800	-22.500	0.101
772.900	-16.345	0.101
773.000	-10.914	0.101
773.100	-15.042	0.101
773.200	-11.606	0.101
773.300	-12.823	0.101
773.400	-5.150	0.101
773.500	-13.916	0.101
773.600	-23.636	0.101
773.700	-18.736	0.101
773.800	-21.172	0.101
773.900	-10.591	0.101
774.000	-14.921	0.101
774.100	-14.956	0.101
774.200	-18.795	0.101
774.300	-17.237	0.101
774.400	-24.221	0.101
774.500	-19.599	0.101
774.600	-11.089	0.101
774.700	-8.912	0.101
774.800	-12.423	0.101
774.900	-17.077	0.101
775.000	-16.291	0.101
775.100	-20.515	0.101
775.200	-16.442	0.101
775.300	-12.736	0.101
775.400	-15.699	0.101
775.500	-16.028	0.101
775.600	-20.651	0.101
775.700	-22.317	0.101
775.800	-10.724	0.101
775.900	-8.213	0.101
776.000	-17.720	0.101
776.100	-15.143	0.101
776.200	-13.746	0.101
776.300	-15.577	0.101
776.400	-19.757	0.101
776.500	-15.246	0.101
776.600	-11.767	0.101
776.700	-14.858	0.101
776.800	-14.715	0.101
776.900	-10.994	0.101
777.000	-9.056	0.101
777.100	-9.378	0.101
777.200	-14.309	0.101
777.300	-18.038	0.101
777.400	-15.178	0.101
777.500	-17.119	0.101
777.600	-15.657	0.101
777.700	-12.478	0.101
777.800	-19.450	0.101
777.900	-14.245	0.101
778.000	-18.065	0.101
778.100	-21.764	0.101
778.200	-9.676	0.101
778.300	-5.587	0.101
778.400	-14.451	0.101
778.500	-17.789	0.101
778.600	-14.326	0.101
778.700	-18.013	0.101
778.800	-11.576	0.101
778.900	-8.725	0.101
779.000	-3.297	0.101
779.100	-11.194	0.101
779.200	-13.303	0.101
779.300	-23.345	0.101
779.400	-14.926	0.101
779.500	-10.657	0.101
779.600	-14.021	0.101
779.700	-18.584	0.101
779.800	-14.964	0.101
779.900	-13.609	0.101
780.000	-14.804	0.101
780.100	-22.753	0.101
780.200	-14.493	0.101
780.300	-23.417	0.101
780.400	-15.110	0.101
780.500	-0.618	0.101
780.600	-7.806	0.101
780.700	-4.610	0.101
780.800	-3.562	0.101
780.900	-7.390	0.101
781.000	7.969	0.101
781.100	7.102	0.101
781.200	3.761	0.101
781.300	12.887	0.101
781.400	16.819	0.101
781.500	15.034	0.101
781.600	18.487	0.101
781.700	16.554	0.101
781.800	14.897	0.101
781.900	17.483	0.101
782.000	34.339	0.101
782.100	26.507	0.101
782.200	11.134	0.101
782.300	22.726	0.101
782.400	16.389	0.101
782.500	23.069	0.101
782.600	24.851	0.101
782.700	16.996	0.101
782.800	28.017	0.101
782.900	21.037	0.101
783.000	22.322	0.101
783.100	18.827	0.101
783.200	27.152	0.101
783.300	23.558	0.101
783.400	31.576	0.101
783.500	28.787	0.101
783.600	22.261	0.101
783.700	25.837	0.101
783.800	21.663	0.101
783.900	22.385	0.101
784.000	28.255	0.101
784.100	21.585	0.101
784.200	33.375	0.101
784.300	15.195	0.101
784.400	16.977	0.101
784.500	24.240	0.101
784.600	27.445	0.101
784.700	21.532	0.101
784.800	26.093	0.101
784.900	20.429	0.101
785.000	33.434	0.101
785.100	25.901	0.101
785.200	27.229	0.101
785.300	25.117	0.101
785.400	12.854	0.101
785.500	10.400	0.101
785.600	14.105	0.101
785.700	23.070	0.101
785.800	24.939	0.101
785.900	20.151	0.101
786.000	25.166	0.101
786.100	8.866	0.101
786.200	21.055	0.101
786.300	24.170	0.101
786.400	18.382	0.101
786.500	27.346	0.101
786.600	24.879	0.101
786.700	8.950	0.101
786.800	20.279	0.101
786.900	5.751	0.101
787.000	16.523	0.101
787.100	19.321	0.101
787.200	27.771	0.101
787.300	9.423	0.101
787.400	17.618	0.101
787.500	14.212	0.101
787.600	21.590	0.101
787.700	13.646	0.101
787.800	10.813	0.101
787.900	11.817	0.101
788.000	12.369	0.101
788.100	21.134	0.101
788.200	27.544	0.101
788.300	15.707	0.101
788.400	14.147	0.101
788.500	8.135	0.101
788.600	15.327	0.101
788.700	12.686	0.101
788.800	14.119	0.101
788.900	15.772	0.101
789.000	13.104	0.101
789.100	18.229	0.101
789.200	17.176	0.101
789.300	6.389	0.101
789.400	19.141	0.101
789.500	12.572	0.101
789.600	20.305	0.101
789.700	15.094	0.101
789.800	17.456	0.101
789.900	3.056	0.101
790.000	14.893	0.101
790.100	7.180	0.101
790.200	19.243	0.101
790.300	21.989	0.101
790.400	16.077	0.101
790.500	11.609	0.101
790.600	4.602	0.101
790.700	11.846	0.101
790.800	13.054	0.101
790.900	5.080	0.101
791.000	12.247	0.101
791.100	21.429	0.101
791.200	12.415	0.101
791.300	18.434	0.101
791.400	13.866	0.101
791.500	9.562	0.101
791.600	20.817	0.101
791.700	8.857	0.101
791.800	11.060	0.101
791.900	14.709	0.101
792.000	19.402	0.101
792.100	10.305	0.101
792.200	10.498	0.101
792.300	3.730	0.101
792.400	20.037	0.101
792.500	7.456	0.101
792.600	17.546	0.101
792.700	13.714	0.101
792.800	17.148	0.101
792.900	15.171	0.101
793.000	21.110	0.101
793.100	18.389	0.101
793.200	16.404	0.101
793.300	18.243	0.101
793.400	3.409	0.101
793.500	13.241	0.101
793.600	10.585	0.101
793.700	17.489	0.101
793.800	16.219	0.101
793.900	15.976	0.101
794.000	11.350	0.101
794.100	12.219	0.101
794.200	11.650	0.101
794.300	17.447	0.101
794.400	14.340	0.101
794.500	18.089	0.101
794.600	7.402	0.101
794.700	12.184	0.101
794.800	9.135	0.101
794.900	18.727	0.101
795.000	23.559	0.101
795.100	18.944	0.101
795.200	12.845	0.101
795.300	17.618	0.101
795.400	14.341	0.101
795.500	13.942	0.101
795.600	20.336	0.101
795.700	7.610	0.101
795.800	23.145	0.101
795.900	23.193	0.101
796.000	13.823	0.101
796.100	21.170	0.101
796.200	14.815	0.101
796.300	20.919	0.101
796.400	17.856	0.101
796.500	12.124	0.101
796.600	5.466	0.101
796.700	22.854	0.101
796.800	9.934	0.101
796.900	19.625	0.101
797.000	20.205	0.101
797.100	28.322	0.101
797.200	18.095	0.101
797.300	16.207	0.101
797.400	10.108	0.101
797.500	16.469	0.101
797.600	18.122	0.101
797.700	19.441	0.101
797.800	26.616	0.101
797.900	13.746	0.101
798.000	25.826	0.101
798.100	17.467	0.101
798.200	19.046	0.101
798.300	24.228	0.101
798.400	23.098	0.101
798.500	20.201	0.101
798.600	11.050	0.101
798.700	25.844	0.101
798.800	24.310	0.101
798.900	20.040	0.101
799.000	16.609	0.101
799.100	13.338	0.101
799.200	27.397	0.101
799.300	26.800	0.101
799.400	23.200	0.101
799.500	21.981	0.101
799.600	21.257	0.101
799.700	20.141	0.101
799.800	21.256	0.101
799.900	30.805	0.101
800.000	28.104	0.101
