time /s	I /nA	E /V
0.100	-26.555	0.101
0.200	-18.586	0.101
0.300	-15.990	0.101
0.400	-23.556	0.101
0.500	-20.673	0.101
0.600	-31.000	0.101
0.700	-26.277	0.101
0.800	-19.051	0.101
0.900	-25.837	0.101
1.000	-27.788	0.101
1.100	-23.483	0.101
1.200	-23.420	0.101
1.300	-35.165	0.101
1.400	-28.803	0.101
1.500	-20.921	0.101
1.600	-17.365	0.101
1.700	-14.000	0.101
1.800	-20.564	0.101
1.900	-29.093	0.101
2.000	-31.110	0.101
2.100	-17.753	0.101
2.200	-21.254	0.101
2.300	-13.708	0.101
2.400	-21.296	0.101
2.500	-28.983	0.101
2.600	-28.728	0.101
2.700	-25.899	0.101
2.800	-29.675	0.101
2.900	-22.999	0.101
3.000	-28.390	0.101
3.100	-24.665	0.101
3.200	-12.976	0.101
3.300	-24.409	0.101
3.400	-19.437	0.101
3.500	-24.748	0.101
3.600	-18.548	0.101
3.700	-19.112	0.101
3.800	-24.429	0.101
3.900	-24.578	0.101
4.000	-25.997	0.101
4.100	-34.351	0.101
4.200	-22.840	0.101
4.300	-12.083	0.101
4.400	-18.836	0.101
4.500	-30.382	0.101
4.600	-15.454	0.101
4.700	-27.714	0.101
4.800	-27.761	0.101
4.900	-32.315	0.101
5.000	-21.693	0.101
5.100	-21.859	0.101
5.200	-21.942	0.101
5.300	-20.692	0.101
5.400	-18.917	0.101
5.500	-20.884	0.101
5.600	-25.102	0.101
5.700	-29.372	0.101
5.800	-22.801	0.101
5.900	-30.039	0.101
6.000	-23.219	0.101
6.100	-25.418	0.101
6.200	-30.067	0.101
6.300	-22.943	0.101
6.400	-14.821	0.101
6.500	-21.810	0.101
6.600	-24.444	0.101
6.700	-18.483	0.101
6.800	-18.484	0.101
6.900	-33.560	0.101
7.000	-24.451	0.101
7.100	-29.029	0.101
7.200	-22.544	0.101
7.300	-23.248	0.101
7.400	-17.489	0.101
7.500	-30.904	0.101
7.600	-21.334	0.101
7.700	-34.851	0.101
7.800	-27.120	0.101
7.900	-26.155	0.101
8.000	-18.040	0.101
8.100	-17.537	0.101
8.200	-14.852	0.101
8.300	-24.510	0.101
8.400	-18.567	0.101
8.500	-30.949	0.101
8.600	-28.157	0.101
8.700	-22.248	0.101
8.800	-30.217	0.101
8.900	-24.731	0.101
9.000	-22.012	0.101
9.100	-22.921	0.101
9.200	-17.459	0.101
9.300	-20.583	0.101
9.400	-22.299	0.101
9.500	-18.462	0.101
9.600	-12.706	0.101
9.700	-21.313	0.101
9.800	-29.074	0.101
9.900	-27.881	0.101
10.000	-19.642	0.101
10.100	-24.948	0.101
10.200	-25.100	0.101
10.300	-31.310	0.101
10.400	-28.075	0.101
10.500	-21.642	0.101
10.600	-18.204	0.101
10.700	-28.087	0.101
10.800	-23.264	0.101
10.900	-17.316	0.101
11.000	-16.220	0.101
11.100	-27.204	0.101
11.200	-26.521	0.101
11.300	-26.784	0.101
11.400	-27.470	0.101
11.500	-20.368	0.101
11.600	-21.030	0.101
11.700	-17.232	0.101
11.800	-17.864	0.101
11.900	-27.129	0.101
12.000	-19.133	0.101
12.100	-23.805	0.101
12.200	-24.455	0.101
12.300	-24.841	0.101
12.400	-36.440	0.101
12.500	-16.936	0.101
12.600	-24.403	0.101
12.700	-10.657	0.101
12.800	-15.903	0.101
12.900	-27.583	0.101
13.000	-16.269	0.101
13.100	-28.056	0.101
13.200	-21.355	0.101
13.300	-22.478	0.101
13.400	-29.778	0.101
13.500	-23.057	0.101
13.600	-17.849	0.101
13.700	-21.731	0.101
13.800	-17.276	0.101
13.900	-21.893	0.101
14.000	-27.785	0.101
14.100	-21.224	0.101
14.200	-22.087	0.101
14.300	-26.443	0.101
14.400	-24.914	0.101
14.500	-16.832	0.101
14.600	-11.713	0.101
14.700	-29.482	0.101
14.800	-22.108	0.101
14.900	-26.069	0.101
15.000	-24.806	0.101
15.100	-26.616	0.101
15.200	-30.889	0.101
15.300	-17.826	0.101
15.400	-18.141	0.101
15.500	-17.395	0.101
15.600	-23.781	0.101
15.700	-23.496	0.101
15.800	-20.079	0.101
15.900	-23.724	0.101
16.000	-24.118	0.101
16.100	-28.499	0.101
16.200	-12.492	0.101
16.300	-20.649	0.101
16.400	-17.491	0.101
16.500	-29.212	0.101
16.600	-19.101	0.101
16.700	-27.720	0.101
16.800	-22.438	0.101
16.900	-25.905	0.101
17.000	-16.129	0.101
17.100	-24.065	0.101
17.200	-19.540	0.101
17.300	-33.204	0.101
17.400	-19.765	0.101
17.500	-20.770	0.101
17.600	-17.309	0.101
17.700	-20.463	0.101
17.800	-30.890	0.101
17.900	-25.618	0.101
18.000	-20.133	0.101
18.100	-17.538	0.101
18.200	-20.042	0.101
18.300	-23.959	0.101
18.400	-19.102	0.101
18.500	-22.565	0.101
18.600	-23.777	0.101
18.700	-26.165	0.101
18.800	-20.604	0.101
18.900	-29.539	0.101
19.000	-20.951	0.101
19.100	-24.147	0.101
19.200	-12.834	0.101
19.300	-12.470	0.101
19.400	-15.429	0.101
19.500	-18.633	0.101
19.600	-24.194	0.101
19.700	-23.029	0.101
19.800	-14.951	0.101
19.900	-25.167	0.101
20.000	-21.951	0.101
20.100	-16.509	0.101
20.200	-11.430	0.101
20.300	-28.534	0.101
20.400	-23.068	0.101
20.500	-19.050	0.101
20.600	-21.587	0.101
20.700	-28.254	0.101
20.800	-22.093	0.101
20.900	-23.201	0.101
21.000	-15.416	0.101
21.100	-23.142	0.101
21.200	-30.265	0.101
21.300	-22.620	0.101
21.400	-21.756	0.101
21.500	-20.625	0.101
21.600	-26.806	0.101
21.700	-21.730	0.101
21.800	-11.051	0.101
21.900	-20.425	0.101
22.000	-16.088	0.101
22.100	-19.697	0.101
22.200	-22.960	0.101
22.300	-26.901	0.101
22.400	-27.461	0.101
22.500	-11.459	0.101
22.600	-19.803	0.101
22.700	-20.912	0.101
22.800	-28.901	0.101
22.900	-20.606	0.101
23.000	-21.257	0.101
23.100	-20.274	0.101
23.200	-16.858	0.101
23.300	-25.326	0.101
23.400	-19.669	0.101
23.500	-16.869	0.101
23.600	-20.688	0.101
23.700	-20.576	0.101
23.800	-22.254	0.101
23.900	-26.957	0.101
24.000	-32.225	0.101
24.100	-21.400	0.101
24.200	-14.890	0.101
24.300	-27.321	0.101
24.400	-30.276	0.101
24.500	-26.403	0.101
24.600	-18.502	0.101
24.700	-20.733	0.101
24.800	-20.141	0.101
24.900	-18.477	0.101
25.000	-19.944	0.101
25.100	-19.372	0.101
25.200	-17.942	0.101
25.300	-20.418	0.101
25.400	-18.361	0.101
25.500	-23.544	0.101
25.600	-22.475	0.101
25.700	-19.619	0.101
25.800	-24.762	0.101
25.900	-38.297	0.101
26.000	-23.108	0.101
26.100	-23.763	0.101
26.200	-22.921	0.101
26.300	-11.864	0.101
26.400	-22.526	0.101
26.500	-17.495	0.101
26.600	-23.592	0.101
26.700	-22.663	0.101
26.800	-15.144	0.101
26.900	-22.672	0.101
27.000	-26.818	0.101
27.100	-25.610	0.101
27.200	-13.050	0.101
27.300	-16.248	0.101
27.400	-20.039	0.101
27.500	-21.129	0.101
27.600	-21.293	0.101
27.700	-27.227	0.101
27.800	-15.493	0.101
27.900	-28.745	0.101
28.000	-23.928	0.101
28.100	-21.758	0.101
28.200	-19.446	0.101
28.300	-11.683	0.101
28.400	-15.158	0.101
28.500	-14.561	0.101
28.600	-27.661	0.101
28.700	-16.827	0.101
28.800	-21.430	0.101
28.900	-23.164	0.101
29.000	-23.184	0.101
29.100	-28.123	0.101
29.200	-20.222	0.101
29.300	-21.604	0.101
29.400	-23.316	0.101
29.500	-11.233	0.101
29.600	-27.445	0.101
29.700	-22.088	0.101
29.800	-20.365	0.101
29.900	-23.821	0.101
30.000	-16.727	0.101
30.100	-23.028	0.101
30.200	-21.651	0.101
30.300	-20.950	0.101
30.400	-24.915	0.101
30.500	-18.481	0.101
30.600	-16.013	0.101
30.700	-22.799	0.101
30.800	-25.357	0.101
30.900	-16.881	0.101
31.000	-21.945	0.101
31.100	-12.116	0.101
31.200	-21.753	0.101
31.300	-20.946	0.101
31.400	-17.132	0.101
31.500	-9.393	0.101
31.600	-14.889	0.101
31.700	-18.417	0.101
31.800	-14.602	0.101
31.900	-1.780	0.101
32.000	-8.181	0.101
32.100	-8.585	0.101
32.200	-8.528	0.101
32.300	-11.232	0.101
32.400	-14.140	0.101
32.500	2.032	0.101
32.600	-12.289	0.101
32.700	-6.594	0.101
32.800	-9.454	0.101
32.900	-3.457	0.101
33.000	-4.016	0.101
33.100	-5.237	0.101
33.200	-5.421	0.101
33.300	0.959	0.101
33.400	-2.490	0.101
33.500	-8.435	0.101
33.600	-3.215	0.101
33.700	-4.614	0.101
33.800	5.564	0.101
33.900	-4.916	0.101
34.000	1.153	0.101
34.100	1.085	0.101
34.200	-4.942	0.101
34.300	6.359	0.101
34.400	-1.669	0.101
34.500	4.826	0.101
34.600	-6.448	0.101
34.700	1.554	0.101
34.800	-10.998	0.101
34.900	9.183	0.101
35.000	0.283	0.101
35.100	2.036	0.101
35.200	1.978	0.101
35.300	3.703	0.101
35.400	-3.647	0.101
35.500	7.960	0.101
35.600	-11.295	0.101
35.700	5.989	0.101
35.800	6.425	0.101
35.900	11.209	0.101
36.000	2.600	0.101
36.100	-10.254	0.101
36.200	-4.329	0.101
36.300	5.169	0.101
36.400	1.514	0.101
36.500	0.847	0.101
36.600	5.782	0.101
36.700	3.417	0.101
36.800	1.436	0.101
36.900	4.623	0.101
37.000	-4.145	0.101
37.100	0.270	0.101
37.200	2.528	0.101
37.300	7.425	0.101
37.400	-3.045	0.101
37.500	3.041	0.101
37.600	1.951	0.101
37.700	7.840	0.101
37.800	-2.385	0.101
37.900	-1.225	0.101
38.000	-2.406	0.101
38.100	8.943	0.101
38.200	-7.280	0.101
38.300	17.019	0.101
38.400	4.236	0.101
38.500	1.764	0.101
38.600	12.523	0.101
38.700	3.671	0.101
38.800	-1.953	0.101
38.900	11.392	0.101
39.000	6.758	0.101
39.100	-6.793	0.101
39.200	-1.820	0.101
39.300	5.724	0.101
39.400	-7.764	0.101
39.500	-0.565	0.101
39.600	-2.789	0.101
39.700	7.535	0.101
39.800	-0.353	0.101
39.900	-0.714	0.101
40.000	1.896	0.101
40.100	10.712	0.101
40.200	3.799	0.101
40.300	-2.547	0.101
40.400	5.075	0.101
40.500	10.714	0.101
40.600	2.038	0.101
40.700	-0.933	0.101
40.800	-1.491	0.101
40.900	5.768	0.101
41.000	3.033	0.101
41.100	0.324	0.101
41.200	-0.313	0.101
41.300	5.876	0.101
41.400	6.182	0.101
41.500	8.210	0.101
41.600	4.243	0.101
41.700	4.883	0.101
41.800	-5.623	0.101
41.900	2.771	0.101
42.000	1.737	0.101
42.100	11.657	0.101
42.200	-1.410	0.101
42.300	7.458	0.101
42.400	8.347	0.101
42.500	7.544	0.101
42.600	-1.067	0.101
42.700	10.420	0.101
42.800	6.257	0.101
42.900	3.417	0.101
43.000	-6.827	0.101
43.100	9.359	0.101
43.200	5.434	0.101
43.300	1.424	0.101
43.400	-2.160	0.101
43.500	13.985	0.101
43.600	12.824	0.101
43.700	1.364	0.101
43.800	5.072	0.101
43.900	10.538	0.101
44.000	-8.640	0.101
44.100	14.366	0.101
44.200	-0.333	0.101
44.300	7.623	0.101
44.400	1.737	0.101
44.500	3.951	0.101
44.600	8.102	0.101
44.700	10.347	0.101
44.800	-2.097	0.101
44.900	6.645	0.101
45.000	4.132	0.101
45.100	6.807	0.101
45.200	4.972	0.101
45.300	11.809	0.101
45.400	5.809	0.101
45.500	4.047	0.101
45.600	-3.214	0.101
45.700	8.215	0.101
45.800	-3.735	0.101
45.900	2.610	0.101
46.000	-12.803	0.101
46.100	7.257	0.101
46.200	12.521	0.101
46.300	12.091	0.101
46.400	4.062	0.101
46.500	-0.107	0.101
46.600	-3.124	0.101
46.700	2.392	0.101
46.800	4.191	0.101
46.900	4.069	0.101
47.000	4.418	0.101
47.100	5.728	0.101
47.200	4.262	0.101
47.300	11.130	0.101
47.400	-4.206	0.101
47.500	9.523	0.101
47.600	4.944	0.101
47.700	10.309	0.101
47.800	5.253	0.101
47.900	-2.982	0.101
48.000	4.786	0.101
48.100	8.476	0.101
48.200	2.031	0.101
48.300	-2.229	0.101
48.400	1.048	0.101
48.500	11.316	0.101
48.600	1.878	0.101
48.700	0.603	0.101
48.800	-5.814	0.101
48.900	5.889	0.101
49.000	15.272	0.101
49.100	11.031	0.101
49.200	-0.992	0.101
49.300	16.932	0.101
49.400	6.214	0.101
49.500	1.466	0.101
49.600	-1.602	0.101
49.700	9.327	0.101
49.800	-0.533	0.101
49.900	10.201	0.101
50.000	4.668	0.101
50.100	2.431	0.101
50.200	6.550	0.101
50.300	-3.935	0.101
50.400	-2.230	0.101
50.500	10.143	0.101
50.600	7.499	0.101
50.700	3.610	0.101
50.800	-0.637	0.101
50.900	7.708	0.101
51.000	-3.407	0.101
51.100	6.579	0.101
51.200	7.429	0.101
51.300	-0.068	0.101
51.400	8.933	0.101
51.500	-0.482	0.101
51.600	8.820	0.101
51.700	1.596	0.101
51.800	5.585	0.101
51.900	2.415	0.101
52.000	9.403	0.101
52.100	10.085	0.101
52.200	5.990	0.101
52.300	-0.324	0.101
52.400	6.383	0.101
52.500	5.023	0.101
52.600	8.490	0.101
52.700	7.098	0.101
52.800	2.511	0.101
52.900	8.624	0.101
53.000	3.984	0.101
53.100	6.600	0.101
53.200	2.195	0.101
53.300	2.027	0.101
53.400	12.240	0.101
53.500	8.578	0.101
53.600	2.965	0.101
53.700	12.251	0.101
53.800	5.914	0.101
53.900	-0.707	0.101
54.000	-2.550	0.101
54.100	6.767	0.101
54.200	7.108	0.101
54.300	15.344	0.101
54.400	0.994	0.101
54.500	8.290	0.101
54.600	1.585	0.101
54.700	7.478	0.101
54.800	9.039	0.101
54.900	10.612	0.101
55.000	8.954	0.101
55.100	9.528	0.101
55.200	10.181	0.101
55.300	3.770	0.101
55.400	0.153	0.101
55.500	11.711	0.101
55.600	10.790	0.101
55.700	10.866	0.101
55.800	-1.471	0.101
55.900	0.298	0.101
56.000	7.271	0.101
56.100	17.449	0.101
56.200	12.224	0.101
56.300	4.636	0.101
56.400	11.544	0.101
56.500	1.645	0.101
56.600	4.700	0.101
56.700	8.403	0.101
56.800	3.382	0.101
56.900	5.952	0.101
57.000	4.241	0.101
57.100	13.827	0.101
57.200	10.311	0.101
57.300	-1.190	0.101
57.400	8.100	0.101
57.500	2.512	0.101
57.600	5.133	0.101
57.700	4.187	0.101
57.800	6.397	0.101
57.900	1.265	0.101
58.000	10.086	0.101
58.100	10.011	0.101
58.200	14.935	0.101
58.300	4.628	0.101
58.400	13.077	0.101
58.500	2.522	0.101
58.600	5.234	0.101
58.700	6.759	0.101
58.800	7.669	0.101
58.900	7.991	0.101
59.000	4.236	0.101
59.100	0.950	0.101
59.200	7.087	0.101
59.300	0.989	0.101
59.400	8.866	0.101
59.500	5.482	0.101
59.600	13.051	0.101
59.700	6.571	0.101
59.800	16.913	0.101
59.900	3.812	0.101
60.000	-0.320	0.101
60.100	10.277	0.101
60.200	10.978	0.101
60.300	-1.681	0.101
60.400	0.998	0.101
60.500	7.211	0.101
60.600	17.791	0.101
60.700	17.388	0.101
60.800	9.786	0.101
60.900	7.337	0.101
61.000	11.598	0.101
61.100	6.878	0.101
61.200	-5.423	0.101
61.300	5.277	0.101
61.400	-5.163	0.101
61.500	-3.886	0.101
61.600	10.259	0.101
61.700	13.020	0.101
61.800	3.288	0.101
61.900	3.928	0.101
62.000	8.809	0.101
62.100	2.158	0.101
62.200	7.522	0.101
62.300	3.710	0.101
62.400	19.033	0.101
62.500	9.429	0.101
62.600	10.411	0.101
62.700	10.669	0.101
62.800	-3.857	0.101
62.900	-0.492	0.101
63.000	5.946	0.101
63.100	3.073	0.101
63.200	-0.183	0.101
63.300	-2.957	0.101
63.400	3.703	0.101
63.500	10.209	0.101
63.600	11.522	0.101
63.700	3.604	0.101
63.800	2.417	0.101
63.900	6.595	0.101
64.000	3.621	0.101
64.100	11.471	0.101
64.200	7.844	0.101
64.300	-4.710	0.101
64.400	20.076	0.101
64.500	1.234	0.101
64.600	-2.924	0.101
64.700	1.272	0.101
64.800	10.970	0.101
64.900	7.582	0.101
65.000	1.842	0.101
65.100	8.612	0.101
65.200	4.161	0.101
65.300	5.014	0.101
65.400	15.777	0.101
65.500	-2.120	0.101
65.600	1.910	0.101
65.700	8.062	0.101
65.800	0.788	0.101
65.900	3.083	0.101
66.000	17.344	0.101
66.100	6.389	0.101
66.200	6.195	0.101
66.300	0.238	0.101
66.400	11.464	0.101
66.500	10.654	0.101
66.600	5.194	0.101
66.700	7.474	0.101
66.800	2.828	0.101
66.900	-7.203	0.101
67.000	4.724	0.101
67.100	3.388	0.101
67.200	0.234	0.101
67.300	6.038	0.101
67.400	7.163	0.101
67.500	11.701	0.101
67.600	8.411	0.101
67.700	-9.748	0.101
67.800	4.022	0.101
67.900	5.824	0.101
68.000	7.285	0.101
68.100	-5.362	0.101
68.200	8.976	0.101
68.300	6.843	0.101
68.400	15.099	0.101
68.500	7.992	0.101
68.600	-0.004	0.101
68.700	4.386	0.101
68.800	4.154	0.101
68.900	7.666	0.101
69.000	8.865	0.101
69.100	5.997	0.101
69.200	9.542	0.101
69.300	-2.324	0.101
69.400	6.704	0.101
69.500	7.707	0.101
69.600	2.081	0.101
69.700	2.458	0.101
69.800	4.345	0.101
69.900	5.321	0.101
70.000	2.596	0.101
70.100	-1.518	0.101
70.200	5.769	0.101
70.300	5.562	0.101
70.400	12.923	0.101
70.500	6.011	0.101
70.600	6.728	0.101
70.700	4.633	0.101
70.800	1.815	0.101
70.900	5.226	0.101
71.000	12.669	0.101
71.100	2.718	0.101
71.200	-9.767	0.101
71.300	7.117	0.101
71.400	5.423	0.101
71.500	10.042	0.101
71.600	10.201	0.101
71.700	-2.918	0.101
71.800	2.815	0.101
71.900	4.649	0.101
72.000	-3.091	0.101
72.100	7.090	0.101
72.200	10.013	0.101
72.300	6.282	0.101
72.400	10.782	0.101
72.500	-5.219	0.101
72.600	4.623	0.101
72.700	-0.023	0.101
72.800	8.995	0.101
72.900	10.389	0.101
73.000	10.782	0.101
73.100	0.087	0.101
73.200	-4.727	0.101
73.300	-0.192	0.101
73.400	11.803	0.101
73.500	4.468	0.101
73.600	-0.194	0.101
73.700	2.075	0.101
73.800	4.546	0.101
73.900	-2.483	0.101
74.000	6.943	0.101
74.100	8.939	0.101
74.200	8.497	0.101
74.300	0.400	0.101
74.400	4.736	0.101
74.500	-8.369	0.101
74.600	-2.494	0.101
74.700	8.383	0.101
74.800	-1.337	0.101
74.900	-3.360	0.101
75.000	1.819	0.101
75.100	10.878	0.101
75.200	-0.363	0.101
75.300	0.490	0.101
75.400	5.246	0.101
75.500	1.653	0.101
75.600	8.851	0.101
75.700	1.394	0.101
75.800	1.771	0.101
75.900	2.725	0.101
76.000	9.091	0.101
76.100	-1.620	0.101
76.200	1.741	0.101
76.300	7.070	0.101
76.400	6.394	0.101
76.500	3.827	0.101
76.600	-1.908	0.101
76.700	-1.505	0.101
76.800	10.531	0.101
76.900	-7.241	0.101
77.000	18.073	0.101
77.100	-3.221	0.101
77.200	-4.301	0.101
77.300	10.021	0.101
77.400	11.631	0.101
77.500	8.757	0.101
77.600	2.458	0.101
77.700	11.596	0.101
77.800	7.529	0.101
77.900	-1.293	0.101
78.000	-4.333	0.101
78.100	0.310	0.101
78.200	1.831	0.101
78.300	7.159	0.101
78.400	6.079	0.101
78.500	1.949	0.101
78.600	-5.250	0.101
78.700	2.112	0.101
78.800	5.867	0.101
78.900	-10.625	0.101
79.000	-0.684	0.101
79.100	2.758	0.101
79.200	-2.022	0.101
79.300	11.032	0.101
79.400	2.803	0.101
79.500	10.725	0.101
79.600	4.416	0.101
79.700	4.106	0.101
79.800	0.984	0.101
79.900	7.957	0.101
80.000	-1.737	0.101
80.100	-0.023	0.101
80.200	5.430	0.101
80.300	2.009	0.101
80.400	8.451	0.101
80.500	-4.493	0.101
80.600	1.295	0.101
80.700	-1.145	0.101
80.800	9.648	0.101
80.900	12.149	0.101
81.000	1.817	0.101
81.100	5.682	0.101
81.200	0.913	0.101
81.300	0.686	0.101
81.400	-4.581	0.101
81.500	-3.922	0.101
81.600	10.757	0.101
81.700	2.907	0.101
81.800	2.752	0.101
81.900	5.383	0.101
82.000	-0.334	0.101
82.100	2.489	0.101
82.200	12.724	0.101
82.300	3.066	0.101
82.400	4.859	0.101
82.500	5.787	0.101
82.600	12.597	0.101
82.700	-2.235	0.101
82.800	2.222	0.101
82.900	-3.307	0.101
83.000	4.284	0.101
83.100	-2.260	0.101
83.200	7.208	0.101
83.300	-1.958	0.101
83.400	3.766	0.101
83.500	2.280	0.101
83.600	9.463	0.101
83.700	-2.653	0.101
83.800	3.830	0.101
83.900	1.362	0.101
84.000	-3.148	0.101
84.100	0.401	0.101
84.200	2.425	0.101
84.300	10.714	0.101
84.400	-2.135	0.101
84.500	8.599	0.101
84.600	-0.229	0.101
84.700	4.388	0.101
84.800	5.586	0.101
84.900	-3.438	0.101
85.000	4.007	0.101
85.100	2.646	0.101
85.200	10.355	0.101
85.300	2.902	0.101
85.400	1.045	0.101
85.500	0.015	0.101
85.600	6.724	0.101
85.700	1.638	0.101
85.800	-5.347	0.101
85.900	5.724	0.101
86.000	5.717	0.101
86.100	-4.830	0.101
86.200	5.974	0.101
86.300	0.944	0.101
86.400	8.277	0.101
86.500	2.923	0.101
86.600	-6.401	0.101
86.700	6.503	0.101
86.800	-11.045	0.101
86.900	1.276	0.101
87.000	-2.331	0.101
87.100	4.636	0.101
87.200	11.337	0.101
87.300	15.487	0.101
87.400	2.032	0.101
87.500	5.885	0.101
87.600	2.925	0.101
87.700	4.364	0.101
87.800	-1.383	0.101
87.900	1.359	0.101
88.000	-4.810	0.101
88.100	-0.978	0.101
88.200	12.381	0.101
88.300	1.369	0.101
88.400	1.206	0.101
88.500	15.342	0.101
88.600	8.249	0.101
88.700	-5.619	0.101
88.800	-4.776	0.101
88.900	2.173	0.101
89.000	-3.594	0.101
89.100	-4.972	0.101
89.200	-1.461	0.101
89.300	0.682	0.101
89.400	1.474	0.101
89.500	7.931	0.101
89.600	4.283	0.101
89.700	5.946	0.101
89.800	6.561	0.101
89.900	1.303	0.101
90.000	-7.946	0.101
90.100	3.936	0.101
90.200	9.558	0.101
90.300	5.316	0.101
90.400	6.058	0.101
90.500	2.782	0.101
90.600	5.764	0.101
90.700	2.003	0.101
90.800	-2.166	0.101
90.900	1.667	0.101
91.000	-5.908	0.101
91.100	-0.727	0.101
91.200	-0.078	0.101
91.300	-1.028	0.101
91.400	-11.707	0.101
91.500	-8.301	0.101
91.600	3.963	0.101
91.700	-2.706	0.101
91.800	-6.346	0.101
91.900	2.159	0.101
92.000	-5.536	0.101
92.100	2.783	0.101
92.200	-2.072	0.101
92.300	0.846	0.101
92.400	-12.216	0.101
92.500	-11.304	0.101
92.600	-11.975	0.101
92.700	-10.382	0.101
92.800	-13.187	0.101
92.900	-12.441	0.101
93.000	-14.339	0.101
93.100	-3.096	0.101
93.200	-9.620	0.101
93.300	-6.416	0.101
93.400	-6.003	0.101
93.500	-11.682	0.101
93.600	-5.956	0.101
93.700	-13.199	0.101
93.800	-2.026	0.101
93.900	5.363	0.101
94.000	-11.809	0.101
94.100	-10.166	0.101
94.200	-14.534	0.101
94.300	-11.504	0.101
94.400	-4.383	0.101
94.500	-8.742	0.101
94.600	-4.522	0.101
94.700	-15.103	0.101
94.800	-8.165	0.101
94.900	-4.350	0.101
95.000	-17.152	0.101
95.100	-9.975	0.101
95.200	-3.102	0.101
95.300	-0.508	0.101
95.400	-9.508	0.101
95.500	-14.619	0.101
95.600	-13.525	0.101
95.700	-3.946	0.101
95.800	-12.725	0.101
95.900	-5.638	0.101
96.000	-13.794	0.101
96.100	-15.283	0.101
96.200	-14.238	0.101
96.300	-12.595	0.101
96.400	-10.242	0.101
96.500	-5.469	0.101
96.600	-16.325	0.101
96.700	-27.515	0.101
96.800	-15.338	0.101
96.900	-17.637	0.101
97.000	-13.293	0.101
97.100	-19.156	0.101
97.200	-8.820	0.101
97.300	-6.968	0.101
97.400	-6.016	0.101
97.500	-14.004	0.101
97.600	-19.327	0.101
97.700	-6.609	0.101
97.800	-8.838	0.101
97.900	-18.572	0.101
98.000	-20.822	0.101
98.100	-17.515	0.101
98.200	-2.660	0.101
98.300	-10.204	0.101
98.400	-10.205	0.101
98.500	-19.832	0.101
98.600	-18.704	0.101
98.700	-15.552	0.101
98.800	-20.944	0.101
98.900	-5.775	0.101
99.000	-11.268	0.101
99.100	-9.642	0.101
99.200	-13.795	0.101
99.300	-9.442	0.101
99.400	-11.332	0.101
99.500	-23.956	0.101
99.600	-22.373	0.101
99.700	-12.279	0.101
99.800	-12.262	0.101
99.900	-8.441	0.101
100.000	-19.045	0.101
100.100	-20.474	0.101
100.200	-30.111	0.101
100.300	-21.448	0.101
100.400	-20.077	0.101
100.500	-10.242	0.101
100.600	-21.255	0.101
100.700	-16.242	0.101
100.800	-27.921	0.101
100.900	-16.155	0.101
101.000	-14.854	0.101
101.100	-19.775	0.101
101.200	-21.357	0.101
101.300	-24.307	0.101
101.400	-19.631	0.101
101.500	-16.219	0.101
101.600	-26.690	0.101
101.700	-18.889	0.101
101.800	-24.295	0.101
101.900	-10.985	0.101
102.000	-16.417	0.101
102.100	-12.682	0.101
102.200	-22.065	0.101
102.300	-28.298	0.101
102.400	-19.547	0.101
102.500	-17.513	0.101
102.600	-19.441	0.101
102.700	-14.081	0.101
102.800	-31.370	0.101
102.900	-21.443	0.101
103.000	-22.889	0.101
103.100	-16.369	0.101
103.200	-20.385	0.101
103.300	-17.624	0.101
103.400	-12.784	0.101
103.500	-26.833	0.101
103.600	-23.781	0.101
103.700	-18.151	0.101
103.800	-14.219	0.101
103.900	-18.357	0.101
104.000	-8.235	0.101
104.100	-18.636	0.101
104.200	-20.595	0.101
104.300	-20.375	0.101
104.400	-25.476	0.101
104.500	-14.042	0.101
104.600	-28.405	0.101
104.700	-33.869	0.101
104.800	-27.565	0.101
104.900	-21.511	0.101
105.000	-24.850	0.101
105.100	-17.887	0.101
105.200	-31.208	0.101
105.300	-12.264	0.101
105.400	-19.178	0.101
105.500	-20.151	0.101
105.600	-24.370	0.101
105.700	-19.650	0.101
105.800	-22.595	0.101
105.900	-19.618	0.101
106.000	-10.365	0.101
106.100	-18.286	0.101
106.200	-27.438	0.101
106.300	-19.867	0.101
106.400	-29.848	0.101
106.500	-30.063	0.101
106.600	-27.009	0.101
106.700	-25.207	0.101
106.800	-27.483	0.101
106.900	-29.749	0.101
107.000	-26.514	0.100
107.100	-25.003	0.101
107.200	-25.082	0.101
107.300	-16.522	0.101
107.400	-25.594	0.101
107.500	-25.804	0.101
107.600	-33.536	0.101
107.700	-18.948	0.101
107.800	-30.118	0.101
107.900	-27.826	0.101
108.000	-20.330	0.101
108.100	-25.160	0.101
108.200	-26.428	0.101
108.300	-23.618	0.101
108.400	-28.256	0.101
108.500	-29.645	0.101
108.600	-35.631	0.101
108.700	-26.337	0.101
108.800	-22.195	0.101
108.900	-16.820	0.101
109.000	-20.640	0.101
109.100	-19.917	0.101
109.200	-29.177	0.101
109.300	-26.752	0.101
109.400	-21.392	0.101
109.500	-23.414	0.101
109.600	-33.727	0.101
109.700	-21.161	0.101
109.800	-24.381	0.101
109.900	-19.926	0.101
110.000	-17.190	0.101
110.100	-22.173	0.101
110.200	-26.242	0.101
110.300	-26.067	0.101
110.400	-32.299	0.101
110.500	-25.600	0.101
110.600	-28.680	0.101
110.700	-18.049	0.101
110.800	-23.751	0.101
110.900	-22.578	0.101
111.000	-31.982	0.101
111.100	-22.317	0.101
111.200	-32.544	0.101
111.300	-27.701	0.101
111.400	-31.271	0.101
111.500	-28.887	0.101
111.600	-24.104	0.101
111.700	-16.524	0.101
111.800	-19.972	0.101
111.900	-21.611	0.101
112.000	-24.001	0.101
112.100	-28.215	0.101
112.200	-23.637	0.101
112.300	-28.310	0.101
112.400	-28.716	0.101
112.500	-27.756	0.101
112.600	-22.244	0.101
112.700	-28.960	0.101
112.800	-38.167	0.101
112.900	-14.689	0.101
113.000	-29.480	0.101
113.100	-17.694	0.101
113.200	-30.038	0.101
113.300	-28.292	0.101
113.400	-22.823	0.101
113.500	-22.432	0.101
113.600	-32.892	0.101
113.700	-27.638	0.101
113.800	-16.022	0.101
113.900	-23.090	0.101
114.000	-30.075	0.101
114.100	-33.231	0.101
114.200	-30.657	0.101
114.300	-26.360	0.101
114.400	-19.588	0.101
114.500	-29.693	0.101
114.600	-25.124	0.101
114.700	-29.845	0.101
114.800	-33.537	0.101
114.900	-21.710	0.101
115.000	-13.935	0.101
115.100	-23.495	0.101
115.200	-24.052	0.101
115.300	-24.785	0.101
115.400	-29.999	0.101
115.500	-25.874	0.101
115.600	-25.807	0.101
115.700	-21.512	0.101
115.800	-28.844	0.101
115.900	-17.704	0.101
116.000	-31.669	0.101
116.100	-23.715	0.101
116.200	-33.253	0.101
116.300	-24.831	0.101
116.400	-28.759	0.101
116.500	-17.387	0.101
116.600	-31.887	0.101
116.700	-29.941	0.101
116.800	-23.184	0.101
116.900	-29.523	0.101
117.000	-25.236	0.101
117.100	-27.863	0.101
117.200	-25.358	0.101
117.300	-29.442	0.101
117.400	-19.343	0.101
117.500	-25.051	0.101
117.600	-32.956	0.101
117.700	-30.810	0.101
117.800	-12.102	0.101
117.900	-23.048	0.101
118.000	-24.915	0.101
118.100	-30.612	0.101
118.200	-26.231	0.101
118.300	-30.639	0.101
118.400	-24.752	0.101
118.500	-30.584	0.101
118.600	-32.573	0.101
118.700	-24.739	0.101
118.800	-27.698	0.101
118.900	-19.911	0.101
119.000	-28.130	0.101
119.100	-25.758	0.101
119.200	-24.276	0.101
119.300	-30.861	0.101
119.400	-25.116	0.101
119.500	-17.564	0.101
119.600	-23.836	0.101
119.700	-28.468	0.101
119.800	-34.398	0.101
119.900	-20.415	0.101
120.000	-17.121	0.101
120.100	-19.137	0.101
120.200	-24.652	0.101
120.300	-31.293	0.101
120.400	-23.327	0.101
120.500	-16.039	0.101
120.600	-18.203	0.101
120.700	-23.643	0.101
120.800	-24.485	0.101
120.900	-33.053	0.101
121.000	-38.151	0.101
121.100	-25.770	0.101
121.200	-24.447	0.101
121.300	-34.894	0.101
121.400	-24.612	0.101
121.500	-25.195	0.101
121.600	-31.430	0.101
121.700	-27.015	0.101
121.800	-19.821	0.101
121.900	-27.759	0.101
122.000	-30.436	0.101
122.100	-16.108	0.101
122.200	-17.368	0.101
122.300	-28.434	0.101
122.400	-12.337	0.101
122.500	-23.836	0.101
122.600	-28.642	0.101
122.700	-27.518	0.101
122.800	-22.008	0.101
122.900	-14.488	0.101
123.000	-23.486	0.101
123.100	-22.254	0.101
123.200	-24.621	0.101
123.300	-23.082	0.101
123.400	-21.919	0.101
123.500	-26.413	0.101
123.600	-26.922	0.101
123.700	-30.709	0.101
123.800	-20.057	0.101
123.900	-24.231	0.101
124.000	-31.041	0.101
124.100	-18.926	0.101
124.200	-25.018	0.101
124.300	-21.820	0.101
124.400	-19.916	0.101
124.500	-21.675	0.101
124.600	-23.285	0.101
124.700	-23.495	0.101
124.800	-31.253	0.101
124.900	-26.833	0.101
125.000	-16.503	0.101
125.100	-22.710	0.101
125.200	-19.930	0.101
125.300	-27.782	0.101
125.400	-13.924	0.101
125.500	-36.321	0.101
125.600	-16.111	0.101
125.700	-23.893	0.101
125.800	-26.992	0.101
125.900	-26.613	0.101
126.000	-24.051	0.101
126.100	-24.258	0.101
126.200	-28.728	0.101
126.300	-25.387	0.101
126.400	-24.587	0.101
126.500	-30.247	0.101
126.600	-26.878	0.101
126.700	-16.091	0.101
126.800	-20.250	0.101
126.900	-21.600	0.101
127.000	-11.669	0.101
127.100	-35.099	0.101
127.200	-22.699	0.101
127.300	-20.302	0.101
127.400	-17.039	0.101
127.500	-19.986	0.101
127.600	-26.710	0.101
127.700	-22.358	0.101
127.800	-22.687	0.101
127.900	-22.658	0.101
128.000	-30.288	0.101
128.100	-27.354	0.101
128.200	-16.848	0.101
128.300	-13.768	0.101
128.400	-20.808	0.101
128.500	-23.073	0.101
128.600	-16.725	0.101
128.700	-15.485	0.101
128.800	-11.724	0.101
128.900	-25.926	0.101
129.000	-30.681	0.101
129.100	-21.875	0.101
129.200	-27.806	0.101
129.300	-29.948	0.101
129.400	-29.849	0.101
129.500	-28.507	0.101
129.600	-17.900	0.101
129.700	-15.708	0.101
129.800	-14.574	0.101
129.900	-27.664	0.101
130.000	-23.320	0.101
130.100	-25.009	0.101
130.200	-26.047	0.101
130.300	-20.057	0.101
130.400	-23.935	0.101
130.500	-25.358	0.101
130.600	-26.571	0.101
130.700	-28.899	0.101
130.800	-12.015	0.101
130.900	-23.144	0.101
131.000	-18.770	0.101
131.100	-18.489	0.101
131.200	-18.430	0.101
131.300	-18.170	0.101
131.400	-20.102	0.101
131.500	-24.420	0.101
131.600	-21.883	0.101
131.700	-34.780	0.101
131.800	-18.386	0.101
131.900	-13.187	0.101
132.000	-15.049	0.101
132.100	-23.831	0.101
132.200	-32.197	0.101
132.300	-25.278	0.101
132.400	-18.146	0.101
132.500	-15.702	0.101
132.600	-14.049	0.101
132.700	-20.015	0.101
132.800	-24.331	0.101
132.900	-21.144	0.101
133.000	-23.628	0.101
133.100	-31.515	0.101
133.200	-17.164	0.101
133.300	-28.701	0.101
133.400	-19.323	0.101
133.500	-22.441	0.101
133.600	-18.978	0.101
133.700	-15.766	0.101
133.800	-20.617	0.101
133.900	-13.041	0.101
134.000	-9.880	0.101
134.100	-28.016	0.101
134.200	-21.743	0.101
134.300	-22.208	0.101
134.400	-18.785	0.101
134.500	-29.608	0.101
134.600	-22.787	0.101
134.700	-18.433	0.101
134.800	-29.221	0.101
134.900	-30.045	0.101
135.000	-11.532	0.101
135.100	-22.440	0.101
135.200	-21.543	0.101
135.300	-23.732	0.101
135.400	-26.717	0.101
135.500	-22.239	0.101
135.600	-18.364	0.101
135.700	-16.697	0.101
135.800	-20.865	0.101
135.900	-27.414	0.101
136.000	-34.113	0.101
136.100	-18.451	0.101
136.200	-18.107	0.101
136.300	-21.428	0.101
136.400	-13.814	0.101
136.500	-19.576	0.101
136.600	-18.535	0.101
136.700	-13.266	0.101
136.800	-15.610	0.101
136.900	-25.630	0.101
137.000	-16.248	0.101
137.100	-17.916	0.101
137.200	-21.912	0.101
137.300	-22.914	0.101
137.400	-28.274	0.101
137.500	-26.405	0.101
137.600	-20.875	0.101
137.700	-26.520	0.101
137.800	-14.072	0.101
137.900	-25.482	0.101
138.000	-11.757	0.101
138.100	-16.681	0.101
138.200	-18.004	0.101
138.300	-33.565	0.101
138.400	-22.694	0.101
138.500	-16.491	0.101
138.600	-17.327	0.101
138.700	-17.142	0.101
138.800	-24.680	0.101
138.900	-25.259	0.101
139.000	-19.805	0.101
139.100	-27.953	0.101
139.200	-27.023	0.101
139.300	-19.785	0.101
139.400	-14.794	0.101
139.500	-19.841	0.101
139.600	-13.303	0.101
139.700	-20.683	0.101
139.800	-22.453	0.101
139.900	-32.094	0.101
140.000	-20.043	0.101
140.100	-17.974	0.101
140.200	-27.527	0.101
140.300	-19.809	0.101
140.400	-20.049	0.101
140.500	-18.004	0.101
140.600	-19.438	0.101
140.700	-21.278	0.101
140.800	-20.746	0.101
140.900	-24.196	0.101
141.000	-20.489	0.101
141.100	-17.377	0.101
141.200	-14.542	0.101
141.300	-17.770	0.101
141.400	-18.245	0.101
141.500	-28.047	0.101
141.600	-18.117	0.101
141.700	-22.683	0.101
141.800	-8.590	0.101
141.900	-14.756	0.101
142.000	-15.103	0.101
142.100	-25.187	0.101
142.200	-20.428	0.101
142.300	-17.279	0.101
142.400	-19.048	0.101
142.500	-14.585	0.101
142.600	-25.839	0.101
142.700	-21.173	0.101
142.800	-18.193	0.101
142.900	-27.103	0.101
143.000	-20.855	0.101
143.100	-12.129	0.101
143.200	-19.151	0.101
143.300	-13.164	0.101
143.400	-11.953	0.101
143.500	-13.090	0.101
143.600	-19.290	0.101
143.700	-12.977	0.101
143.800	-14.032	0.101
143.900	-12.398	0.101
144.000	-17.492	0.101
144.100	-28.088	0.101
144.200	-19.395	0.101
144.300	-24.951	0.101
144.400	-22.742	0.101
144.500	-13.392	0.101
144.600	-20.396	0.101
144.700	-18.275	0.101
144.800	-18.924	0.101
144.900	-26.461	0.101
145.000	-11.838	0.101
145.100	-17.883	0.101
145.200	-24.136	0.101
145.300	-21.066	0.101
145.400	-17.086	0.101
145.500	-13.090	0.101
145.600	-15.367	0.101
145.700	-24.466	0.101
145.800	-16.633	0.101
145.900	-18.871	0.101
146.000	-20.704	0.101
146.100	-9.698	0.101
146.200	-15.762	0.101
146.300	-25.417	0.101
146.400	-18.670	0.101
146.500	-8.692	0.101
146.600	-17.254	0.101
146.700	-23.612	0.101
146.800	-28.735	0.101
146.900	-21.621	0.101
147.000	-13.588	0.101
147.100	-27.908	0.101
147.200	-13.594	0.101
147.300	-21.842	0.101
147.400	-20.549	0.101
147.500	-8.552	0.101
147.600	-13.874	0.101
147.700	-8.754	0.101
147.800	-22.075	0.101
147.900	-28.231	0.101
148.000	-24.053	0.101
148.100	-21.123	0.101
148.200	-10.957	0.101
148.300	-20.061	0.101
148.400	-12.444	0.101
148.500	-19.814	0.101
148.600	-13.557	0.101
148.700	-9.384	0.101
148.800	-15.009	0.101
148.900	-14.042	0.101
149.000	-22.314	0.101
149.100	-17.204	0.101
149.200	-20.277	0.101
149.300	-13.701	0.101
149.400	-14.411	0.101
149.500	-6.680	0.101
149.600	-24.995	0.101
149.700	-16.401	0.101
149.800	-19.336	0.101
149.900	-20.113	0.101
150.000	-18.574	0.101
150.100	-7.260	0.101
150.200	-21.712	0.101
150.300	-12.458	0.101
150.400	-23.371	0.101
150.500	-10.530	0.101
150.600	-17.381	0.101
150.700	-20.527	0.101
150.800	-18.380	0.101
150.900	-18.115	0.101
151.000	-19.864	0.101
151.100	-20.539	0.101
151.200	-15.013	0.101
151.300	-17.765	0.101
151.400	-11.948	0.101
151.500	-20.223	0.101
151.600	-20.876	0.101
151.700	-21.761	0.101
151.800	-16.560	0.101
151.900	-8.919	0.101
152.000	-15.380	0.101
152.100	-19.863	0.101
152.200	-17.875	0.101
152.300	-25.252	0.101
152.400	-16.051	0.101
152.500	-16.270	0.101
152.600	-23.052	0.101
152.700	-14.312	0.101
152.800	-11.169	0.101
152.900	-17.402	0.101
153.000	-10.058	0.101
153.100	-17.279	0.101
153.200	-22.213	0.101
153.300	-19.445	0.101
153.400	-8.489	0.101
153.500	-22.144	0.101
153.600	-12.696	0.101
153.700	-13.861	0.101
153.800	-18.687	0.101
153.900	-26.886	0.101
154.000	-21.565	0.101
154.100	-22.451	0.101
154.200	-20.445	0.101
154.300	-16.808	0.101
154.400	-8.910	0.101
154.500	-15.388	0.101
154.600	-7.805	0.101
154.700	-13.425	0.101
154.800	-10.868	0.101
154.900	-10.885	0.101
155.000	-12.640	0.101
155.100	-18.236	0.101
155.200	-11.944	0.101
155.300	-12.961	0.101
155.400	-18.367	0.101
155.500	-15.409	0.101
155.600	-17.121	0.101
155.700	-21.089	0.101
155.800	-11.068	0.101
155.900	-15.712	0.101
156.000	-2.894	0.101
156.100	-9.020	0.101
156.200	-12.107	0.101
156.300	-14.251	0.101
156.400	-14.263	0.101
156.500	-13.263	0.101
156.600	-20.084	0.101
156.700	-13.321	0.101
156.800	-18.076	0.101
156.900	-22.766	0.101
157.000	-24.025	0.101
157.100	-16.837	0.101
157.200	-20.069	0.101
157.300	-12.370	0.101
157.400	-8.959	0.101
157.500	-15.259	0.101
157.600	-11.480	0.101
157.700	-15.346	0.101
157.800	-14.300	0.101
157.900	-20.482	0.101
158.000	-18.419	0.101
158.100	-11.936	0.101
158.200	-8.949	0.101
158.300	-6.497	0.101
158.400	-14.418	0.101
158.500	-14.855	0.101
158.600	-21.106	0.101
158.700	-8.448	0.101
158.800	-3.578	0.101
158.900	-11.410	0.101
159.000	-21.867	0.101
159.100	-16.798	0.101
159.200	-13.367	0.101
159.300	-22.720	0.101
159.400	-13.937	0.101
159.500	-14.968	0.101
159.600	-21.543	0.101
159.700	-13.287	0.101
159.800	-23.811	0.101
159.900	-8.050	0.101
160.000	-13.822	0.101
160.100	-8.064	0.101
160.200	-12.743	0.101
160.300	-20.359	0.101
160.400	-18.631	0.101
160.500	-16.414	0.101
160.600	-12.955	0.101
160.700	-11.354	0.101
160.800	-8.858	0.101
160.900	-16.691	0.101
161.000	-14.389	0.101
161.100	-10.922	0.101
161.200	-16.677	0.101
161.300	-12.522	0.101
161.400	-12.358	0.101
161.500	-22.287	0.101
161.600	-24.418	0.101
161.700	-6.918	0.101
161.800	-4.054	0.101
161.900	-12.694	0.101
162.000	-9.125	0.101
162.100	-11.566	0.101
162.200	-20.911	0.101
162.300	-14.126	0.101
162.400	-15.421	0.101
162.500	-18.562	0.101
162.600	-14.051	0.101
162.700	-11.224	0.101
162.800	-18.926	0.101
162.900	-20.444	0.101
163.000	-11.415	0.101
163.100	-10.553	0.101
163.200	-22.864	0.101
163.300	-15.440	0.101
163.400	-18.468	0.101
163.500	-14.412	0.101
163.600	-17.015	0.101
163.700	-4.732	0.101
163.800	-9.844	0.101
163.900	-11.291	0.101
164.000	-10.722	0.101
164.100	-11.972	0.101
164.200	-12.075	0.101
164.300	-7.162	0.101
164.400	-18.216	0.101
164.500	-5.078	0.101
164.600	-11.098	0.101
164.700	-18.884	0.101
164.800	-14.283	0.101
164.900	-18.164	0.101
165.000	-17.892	0.101
165.100	-18.487	0.101
165.200	-20.385	0.101
165.300	-20.580	0.101
165.400	-21.130	0.101
165.500	-6.774	0.101
165.600	-19.862	0.101
165.700	-11.374	0.101
165.800	-17.822	0.101
165.900	-6.398	0.101
166.000	-8.873	0.101
166.100	-19.790	0.101
166.200	-15.088	0.101
166.300	-9.429	0.101
166.400	-12.870	0.101
166.500	-17.474	0.101
166.600	-12.446	0.101
166.700	-10.016	0.101
166.800	-4.946	0.101
166.900	-9.652	0.101
167.000	-4.922	0.101
167.100	-11.167	0.101
167.200	-20.359	0.101
167.300	-5.260	0.101
167.400	-18.785	0.101
167.500	-8.537	0.101
167.600	-13.351	0.101
167.700	-12.612	0.101
167.800	-11.256	0.101
167.900	-13.621	0.101
168.000	-16.982	0.101
168.100	-10.177	0.101
168.200	-17.405	0.101
168.300	-15.195	0.101
168.400	-10.825	0.101
168.500	-14.089	0.101
168.600	-14.260	0.101
168.700	-7.219	0.101
168.800	-15.820	0.101
168.900	-10.726	0.101
169.000	-18.492	0.101
169.100	-14.454	0.101
169.200	-11.954	0.101
169.300	-15.146	0.101
169.400	-10.996	0.101
169.500	-6.611	0.101
169.600	-9.205	0.101
169.700	-14.235	0.101
169.800	-16.223	0.101
169.900	-20.028	0.101
170.000	-17.876	0.101
170.100	-19.808	0.101
170.200	-9.471	0.101
170.300	-6.213	0.101
170.400	-17.537	0.101
170.500	-11.702	0.101
170.600	-14.910	0.101
170.700	-10.325	0.101
170.800	-16.264	0.101
170.900	-11.606	0.101
171.000	-8.991	0.101
171.100	-13.723	0.101
171.200	-8.529	0.101
171.300	-17.213	0.101
171.400	-16.086	0.101
171.500	-12.163	0.101
171.600	-12.294	0.101
171.700	-8.296	0.101
171.800	-10.715	0.101
171.900	-9.030	0.101
172.000	-9.270	0.101
172.100	-8.995	0.101
172.200	-15.010	0.101
172.300	-13.624	0.101
172.400	-7.303	0.101
172.500	-3.593	0.101
172.600	-20.053	0.101
172.700	-2.928	0.101
172.800	-17.073	0.101
172.900	-9.873	0.101
173.000	-17.462	0.101
173.100	-6.171	0.101
173.200	-16.652	0.101
173.300	-12.895	0.101
173.400	-21.150	0.101
173.500	-5.207	0.101
173.600	-9.324	0.101
173.700	-14.013	0.101
173.800	-17.561	0.101
173.900	-12.423	0.101
174.000	-25.571	0.101
174.100	-12.424	0.101
174.200	-10.840	0.101
174.300	-16.455	0.101
174.400	-7.161	0.101
174.500	-13.546	0.101
174.600	-12.601	0.101
174.700	-12.871	0.101
174.800	-3.182	0.101
174.900	-12.338	0.101
175.000	-21.561	0.101
175.100	-8.877	0.101
175.200	-12.631	0.101
175.300	-3.813	0.101
175.400	-10.248	0.101
175.500	-5.999	0.101
175.600	-12.478	0.101
175.700	-9.015	0.101
175.800	-17.256	0.101
175.900	-16.430	0.101
176.000	-10.341	0.101
176.100	-15.093	0.101
176.200	-8.425	0.101
176.300	-7.555	0.101
176.400	-12.290	0.101
176.500	-9.811	0.101
176.600	-7.080	0.101
176.700	-13.123	0.101
176.800	-14.836	0.101
176.900	-12.354	0.101
177.000	-13.343	0.101
177.100	-7.447	0.101
177.200	-13.908	0.101
177.300	-5.808	0.101
177.400	-8.523	0.101
177.500	-10.715	0.101
177.600	-14.108	0.101
177.700	-7.656	0.101
177.800	-12.647	0.101
177.900	-15.840	0.101
178.000	-9.280	0.101
178.100	-6.373	0.101
178.200	-9.029	0.101
178.300	-21.135	0.101
178.400	-8.411	0.101
178.500	-5.500	0.101
178.600	-12.571	0.101
178.700	-9.058	0.101
178.800	-6.437	0.101
178.900	-16.468	0.101
179.000	-11.638	0.101
179.100	-12.812	0.101
179.200	-13.163	0.101
179.300	-6.364	0.101
179.400	-13.580	0.101
179.500	-16.548	0.101
179.600	-14.096	0.101
179.700	-5.616	0.101
179.800	-12.486	0.101
179.900	-16.616	0.101
180.000	-6.393	0.101
180.100	-5.931	0.101
180.200	-23.236	0.101
180.300	-8.371	0.101
180.400	-12.786	0.101
180.500	-16.427	0.101
180.600	-10.209	0.101
180.700	-14.985	0.101
180.800	-12.387	0.101
180.900	-6.616	0.101
181.000	-15.967	0.101
181.100	-1.605	0.101
181.200	-13.412	0.101
181.300	-11.828	0.101
181.400	-6.529	0.101
181.500	-6.625	0.101
181.600	-6.163	0.101
181.700	-8.197	0.101
181.800	-0.615	0.101
181.900	9.904	0.101
182.000	7.623	0.101
182.100	-2.532	0.101
182.200	-5.849	0.101
182.300	8.630	0.101
182.400	4.217	0.101
182.500	-1.002	0.101
182.600	17.551	0.101
182.700	-0.020	0.101
182.800	12.995	0.101
182.900	-3.544	0.101
183.000	7.825	0.101
183.100	8.903	0.101
183.200	9.237	0.101
183.300	12.818	0.101
183.400	10.877	0.101
183.500	21.368	0.101
183.600	18.420	0.101
183.700	9.049	0.101
183.800	8.404	0.101
183.900	6.983	0.101
184.000	19.955	0.101
184.100	7.206	0.101
184.200	14.451	0.101
184.300	10.669	0.101
184.400	4.297	0.101
184.500	16.883	0.101
184.600	18.259	0.101
184.700	9.498	0.101
184.800	7.490	0.101
184.900	4.743	0.101
185.000	10.960	0.101
185.100	9.492	0.101
185.200	8.506	0.101
185.300	9.675	0.101
185.400	8.828	0.101
185.500	12.200	0.101
185.600	10.076	0.101
185.700	4.922	0.101
185.800	28.049	0.101
185.900	4.564	0.101
186.000	8.521	0.101
186.100	12.062	0.101
186.200	8.657	0.101
186.300	11.978	0.101
186.400	14.632	0.101
186.500	15.391	0.101
186.600	7.799	0.101
186.700	16.705	0.101
186.800	14.448	0.101
186.900	2.802	0.101
187.000	11.214	0.101
187.100	9.255	0.101
187.200	17.938	0.101
187.300	10.877	0.101
187.400	21.252	0.101
187.500	15.883	0.101
187.600	10.689	0.101
187.700	6.803	0.101
187.800	16.975	0.101
187.900	13.748	0.101
188.000	12.002	0.101
188.100	2.492	0.101
188.200	15.990	0.101
188.300	2.186	0.101
188.400	13.252	0.101
188.500	3.478	0.101
188.600	12.938	0.101
188.700	0.738	0.101
188.800	13.622	0.101
188.900	20.561	0.101
189.000	13.400	0.101
189.100	12.210	0.101
189.200	15.436	0.101
189.300	15.188	0.101
189.400	16.664	0.101
189.500	10.121	0.101
189.600	12.386	0.101
189.700	11.810	0.101
189.800	8.219	0.101
189.900	9.573	0.101
190.000	22.172	0.101
190.100	7.365	0.101
190.200	3.006	0.101
190.300	8.795	0.101
190.400	0.596	0.101
190.500	5.330	0.101
190.600	6.788	0.101
190.700	13.889	0.101
190.800	7.147	0.101
190.900	14.268	0.101
191.000	16.457	0.101
191.100	6.383	0.101
191.200	9.933	0.101
191.300	6.168	0.101
191.400	14.273	0.101
191.500	9.288	0.101
191.600	10.504	0.101
191.700	1.667	0.101
191.800	19.126	0.101
191.900	13.379	0.101
192.000	9.483	0.101
192.100	15.507	0.101
192.200	18.794	0.101
192.300	14.622	0.101
192.400	11.971	0.101
192.500	7.759	0.101
192.600	14.349	0.101
192.700	5.348	0.101
192.800	11.536	0.101
192.900	7.726	0.101
193.000	8.403	0.101
193.100	16.266	0.101
193.200	11.552	0.101
193.300	7.572	0.101
193.400	15.082	0.101
193.500	18.569	0.101
193.600	7.667	0.101
193.700	7.692	0.101
193.800	16.031	0.101
193.900	6.781	0.101
194.000	6.895	0.101
194.100	7.985	0.101
194.200	7.816	0.101
194.300	9.347	0.101
194.400	16.829	0.101
194.500	1.145	0.101
194.600	9.712	0.101
194.700	9.954	0.101
194.800	11.630	0.101
194.900	17.470	0.101
195.000	3.720	0.101
195.100	4.713	0.101
195.200	11.525	0.101
195.300	17.491	0.101
195.400	7.142	0.101
195.500	11.902	0.101
195.600	14.946	0.101
195.700	13.883	0.101
195.800	6.759	0.101
195.900	14.170	0.101
196.000	7.280	0.101
196.100	3.153	0.101
196.200	7.226	0.101
196.300	4.483	0.101
196.400	7.850	0.101
196.500	17.215	0.101
196.600	16.739	0.101
196.700	18.427	0.101
196.800	3.502	0.101
196.900	6.035	0.101
197.000	14.994	0.101
197.100	7.856	0.101
197.200	9.620	0.101
197.300	9.242	0.101
197.400	11.673	0.101
197.500	14.062	0.101
197.600	12.543	0.101
197.700	14.428	0.101
197.800	10.093	0.101
197.900	4.940	0.101
198.000	10.298	0.101
198.100	14.253	0.101
198.200	16.353	0.101
198.300	12.315	0.101
198.400	14.390	0.101
198.500	12.040	0.101
198.600	9.512	0.101
198.700	11.805	0.101
198.800	12.736	0.101
198.900	10.819	0.101
199.000	8.571	0.101
199.100	8.716	0.101
199.200	11.384	0.101
199.300	5.058	0.101
199.400	10.466	0.101
199.500	16.410	0.101
199.600	22.766	0.101
199.700	15.641	0.101
199.800	12.518	0.101
199.900	8.503	0.101
200.000	5.242	0.101
200.100	14.970	0.101
200.200	3.848	0.101
200.300	18.398	0.101
200.400	16.093	0.101
200.500	8.514	0.101
200.600	6.199	0.101
200.700	17.885	0.101
200.800	14.481	0.101
200.900	8.444	0.101
201.000	14.731	0.101
201.100	2.125	0.101
201.200	15.117	0.101
201.300	11.636	0.101
201.400	17.239	0.101
201.500	18.305	0.101
201.600	20.575	0.101
201.700	13.009	0.101
201.800	10.209	0.101
201.900	8.378	0.101
202.000	13.005	0.101
202.100	6.870	0.101
202.200	12.012	0.101
202.300	13.051	0.101
202.400	11.301	0.101
202.500	12.250	0.101
202.600	11.250	0.101
202.700	11.614	0.101
202.800	14.485	0.101
202.900	12.469	0.101
203.000	21.451	0.101
203.100	1.044	0.101
203.200	20.447	0.101
203.300	13.325	0.101
203.400	15.485	0.101
203.500	14.312	0.101
203.600	17.136	0.101
203.700	10.098	0.101
203.800	13.201	0.101
203.900	5.236	0.101
204.000	16.621	0.101
204.100	7.408	0.101
204.200	11.343	0.101
204.300	12.267	0.101
204.400	11.874	0.101
204.500	14.031	0.101
204.600	13.847	0.101
204.700	16.269	0.101
204.800	9.295	0.101
204.900	16.309	0.101
205.000	8.455	0.101
205.100	14.460	0.101
205.200	9.663	0.101
205.300	18.667	0.101
205.400	15.652	0.101
205.500	4.161	0.101
205.600	9.329	0.101
205.700	5.942	0.101
205.800	12.923	0.101
205.900	21.556	0.101
206.000	16.996	0.101
206.100	13.600	0.101
206.200	14.690	0.101
206.300	9.117	0.101
206.400	16.535	0.101
206.500	14.167	0.101
206.600	20.900	0.101
206.700	17.782	0.101
206.800	12.482	0.101
206.900	20.632	0.101
207.000	17.334	0.101
207.100	14.776	0.101
207.200	5.068	0.101
207.300	9.395	0.101
207.400	12.592	0.101
207.500	9.740	0.101
207.600	21.654	0.101
207.700	26.970	0.101
207.800	19.648	0.101
207.900	16.692	0.101
208.000	13.188	0.101
208.100	13.827	0.101
208.200	11.208	0.101
208.300	21.690	0.101
208.400	23.208	0.101
208.500	8.892	0.101
208.600	22.429	0.101
208.700	9.686	0.101
208.800	7.965	0.101
208.900	18.492	0.101
209.000	15.587	0.101
209.100	5.963	0.101
209.200	11.920	0.101
209.300	16.988	0.101
209.400	17.924	0.101
209.500	24.209	0.101
209.600	11.239	0.101
209.700	15.757	0.101
209.800	9.689	0.101
209.900	22.039	0.101
210.000	15.919	0.101
210.100	16.703	0.101
210.200	7.572	0.101
210.300	21.061	0.101
210.400	17.121	0.101
210.500	18.332	0.101
210.600	11.584	0.101
210.700	13.545	0.101
210.800	13.842	0.101
210.900	17.714	0.101
211.000	8.018	0.101
211.100	23.400	0.101
211.200	15.214	0.101
211.300	14.305	0.101
211.400	12.743	0.101
211.500	18.624	0.101
211.600	30.132	0.101
211.700	8.273	0.101
211.800	15.317	0.101
211.900	17.896	0.101
212.000	10.144	0.101
212.100	15.123	0.101
212.200	18.772	0.101
212.300	17.546	0.101
212.400	6.047	0.101
212.500	6.369	0.101
212.600	11.817	0.101
212.700	14.983	0.101
212.800	21.047	0.101
212.900	3.438	0.101
213.000	16.684	0.101
213.100	19.221	0.101
213.200	12.958	0.101
213.300	12.380	0.101
213.400	11.527	0.101
213.500	12.064	0.101
213.600	10.137	0.101
213.700	11.333	0.101
213.800	9.198	0.101
213.900	10.755	0.101
214.000	8.868	0.101
214.100	22.541	0.101
214.200	20.002	0.101
214.300	13.916	0.101
214.400	11.538	0.101
214.500	9.479	0.101
214.600	12.517	0.101
214.700	22.700	0.101
214.800	17.506	0.101
214.900	16.771	0.101
215.000	11.088	0.101
215.100	16.842	0.101
215.200	29.067	0.101
215.300	22.425	0.101
215.400	13.302	0.101
215.500	13.480	0.101
215.600	13.184	0.101
215.700	23.967	0.101
215.800	12.808	0.101
215.900	19.404	0.101
216.000	12.141	0.101
216.100	19.316	0.101
216.200	10.206	0.101
216.300	15.835	0.101
216.400	9.439	0.101
216.500	9.847	0.101
216.600	8.092	0.101
216.700	24.004	0.101
216.800	15.942	0.101
216.900	1.056	0.101
217.000	12.041	0.101
217.100	15.159	0.101
217.200	5.237	0.101
217.300	14.288	0.101
217.400	9.963	0.101
217.500	9.628	0.101
217.600	16.942	0.101
217.700	20.068	0.101
217.800	20.926	0.101
217.900	13.423	0.101
218.000	18.399	0.101
218.100	10.309	0.101
218.200	11.934	0.101
218.300	12.760	0.101
218.400	15.413	0.101
218.500	12.315	0.101
218.600	14.555	0.101
218.700	6.613	0.101
218.800	12.579	0.101
218.900	13.653	0.101
219.000	13.694	0.101
219.100	22.488	0.101
219.200	10.397	0.101
219.300	15.178	0.101
219.400	9.383	0.101
219.500	16.244	0.101
219.600	13.401	0.101
219.700	12.913	0.101
219.800	6.580	0.101
219.900	19.807	0.101
220.000	15.036	0.101
220.100	9.688	0.101
220.200	21.431	0.101
220.300	16.628	0.101
220.400	10.219	0.101
220.500	19.588	0.101
220.600	9.855	0.101
220.700	20.219	0.101
220.800	15.366	0.101
220.900	9.634	0.101
221.000	1.832	0.101
221.100	12.432	0.101
221.200	17.305	0.101
221.300	16.020	0.101
221.400	13.801	0.101
221.500	15.496	0.101
221.600	8.450	0.101
221.700	14.621	0.101
221.800	6.816	0.101
221.900	21.632	0.101
222.000	12.852	0.101
222.100	15.990	0.101
222.200	9.997	0.101
222.300	15.109	0.101
222.400	21.879	0.101
222.500	14.208	0.101
222.600	14.167	0.101
222.700	13.477	0.101
222.800	17.924	0.101
222.900	16.662	0.101
223.000	4.419	0.101
223.100	13.410	0.101
223.200	19.599	0.101
223.300	12.296	0.101
223.400	10.924	0.101
223.500	13.674	0.101
223.600	4.112	0.101
223.700	22.836	0.101
223.800	11.376	0.101
223.900	10.110	0.101
224.000	16.188	0.101
224.100	13.171	0.101
224.200	6.085	0.101
224.300	5.908	0.101
224.400	14.229	0.101
224.500	24.261	0.101
224.600	15.334	0.101
224.700	14.797	0.101
224.800	18.771	0.101
224.900	12.915	0.101
225.000	5.848	0.101
225.100	16.615	0.101
225.200	14.716	0.101
225.300	11.162	0.101
225.400	9.785	0.101
225.500	16.312	0.101
225.600	15.027	0.101
225.700	16.684	0.101
225.800	14.084	0.101
225.900	18.577	0.101
226.000	12.320	0.101
226.100	15.337	0.101
226.200	13.739	0.101
226.300	18.491	0.101
226.400	8.626	0.101
226.500	17.927	0.101
226.600	11.320	0.101
226.700	12.452	0.101
226.800	12.138	0.101
226.900	17.561	0.101
227.000	11.689	0.101
227.100	17.891	0.101
227.200	12.200	0.101
227.300	18.813	0.101
227.400	12.609	0.101
227.500	14.562	0.101
227.600	9.081	0.101
227.700	12.891	0.101
227.800	16.272	0.101
227.900	7.186	0.101
228.000	10.433	0.101
228.100	20.751	0.101
228.200	8.975	0.101
228.300	16.630	0.101
228.400	13.696	0.101
228.500	17.858	0.101
228.600	14.933	0.101
228.700	8.882	0.101
228.800	14.060	0.101
228.900	15.589	0.101
229.000	13.959	0.101
229.100	20.253	0.101
229.200	0.509	0.101
229.300	11.955	0.101
229.400	7.863	0.101
229.500	18.835	0.101
229.600	11.177	0.101
229.700	12.696	0.101
229.800	7.501	0.101
229.900	13.341	0.101
230.000	17.053	0.101
230.100	15.222	0.101
230.200	19.377	0.101
230.300	21.484	0.101
230.400	5.978	0.101
230.500	15.435	0.101
230.600	15.765	0.101
230.700	29.662	0.101
230.800	10.630	0.101
230.900	9.038	0.101
231.000	5.754	0.101
231.100	6.109	0.101
231.200	17.014	0.101
231.300	13.717	0.101
231.400	22.119	0.101
231.500	16.428	0.101
231.600	7.476	0.101
231.700	21.808	0.101
231.800	15.252	0.101
231.900	14.396	0.101
232.000	23.056	0.101
232.100	24.593	0.101
232.200	13.190	0.101
232.300	9.121	0.101
232.400	1.669	0.101
232.500	11.981	0.101
232.600	17.159	0.101
232.700	9.395	0.101
232.800	12.811	0.101
232.900	8.813	0.101
233.000	11.858	0.101
233.100	12.431	0.101
233.200	16.590	0.101
233.300	24.705	0.101
233.400	18.149	0.101
233.500	16.075	0.101
233.600	8.535	0.101
233.700	13.314	0.101
233.800	17.534	0.101
233.900	24.768	0.101
234.000	9.679	0.101
234.100	20.016	0.101
234.200	8.684	0.101
234.300	10.984	0.101
234.400	9.297	0.101
234.500	19.242	0.101
234.600	23.789	0.101
234.700	26.325	0.101
234.800	11.709	0.101
234.900	9.568	0.101
235.000	9.251	0.101
235.100	16.450	0.101
235.200	5.150	0.101
235.300	9.840	0.101
235.400	7.962	0.101
235.500	16.273	0.101
235.600	12.131	0.101
235.700	2.528	0.101
235.800	5.186	0.101
235.900	11.268	0.101
236.000	15.661	0.101
236.100	18.174	0.101
236.200	11.136	0.101
236.300	17.528	0.101
236.400	9.938	0.101
236.500	15.355	0.101
236.600	9.323	0.101
236.700	9.218	0.101
236.800	10.388	0.101
236.900	6.037	0.101
237.000	8.379	0.101
237.100	11.499	0.101
237.200	18.363	0.101
237.300	8.147	0.101
237.400	18.598	0.101
237.500	12.852	0.101
237.600	8.408	0.101
237.700	12.130	0.101
237.800	16.693	0.101
237.900	13.817	0.101
238.000	14.770	0.101
238.100	20.039	0.101
238.200	12.646	0.101
238.300	18.535	0.101
238.400	10.965	0.101
238.500	12.564	0.101
238.600	21.585	0.101
238.700	17.233	0.101
238.800	12.032	0.101
238.900	19.141	0.101
239.000	14.966	0.101
239.100	0.536	0.101
239.200	11.995	0.101
239.300	15.850	0.101
239.400	14.408	0.101
239.500	10.096	0.101
239.600	9.478	0.101
239.700	7.559	0.101
239.800	10.448	0.101
239.900	11.630	0.101
240.000	18.930	0.101
240.100	9.722	0.101
240.200	15.664	0.101
240.300	12.294	0.101
240.400	11.879	0.101
240.500	6.867	0.101
240.600	8.169	0.101
240.700	11.853	0.101
240.800	13.850	0.101
240.900	11.055	0.101
241.000	8.295	0.101
241.100	6.573	0.101
241.200	6.685	0.101
241.300	4.722	0.101
241.400	10.619	0.101
241.500	3.707	0.101
241.600	3.327	0.101
241.700	8.153	0.101
241.800	3.397	0.101
241.900	8.650	0.101
242.000	11.640	0.101
242.100	0.153	0.101
242.200	2.803	0.101
242.300	4.085	0.101
242.400	12.562	0.101
242.500	-7.564	0.101
242.600	0.072	0.101
242.700	6.029	0.101
242.800	6.944	0.101
242.900	0.822	0.101
243.000	-2.108	0.101
243.100	1.497	0.101
243.200	3.676	0.101
243.300	-5.479	0.101
243.400	7.647	0.101
243.500	-3.305	0.101
243.600	0.183	0.101
243.700	-7.876	0.101
243.800	2.566	0.101
243.900	-4.576	0.101
244.000	2.114	0.101
244.100	-6.388	0.101
244.200	5.143	0.101
244.300	0.230	0.101
244.400	-5.981	0.101
244.500	-1.220	0.101
244.600	-4.314	0.101
244.700	4.289	0.101
244.800	-0.352	0.101
244.900	0.636	0.101
245.000	-2.122	0.101
245.100	1.997	0.101
245.200	1.015	0.101
245.300	3.183	0.101
245.400	1.653	0.101
245.500	2.270	0.101
245.600	-4.829	0.101
245.700	-1.666	0.101
245.800	4.864	0.101
245.900	-3.339	0.101
246.000	-2.439	0.101
246.100	2.222	0.101
246.200	15.215	0.101
246.300	-12.624	0.101
246.400	-3.046	0.101
246.500	3.144	0.101
246.600	-5.937	0.101
246.700	-5.956	0.101
246.800	4.055	0.101
246.900	-2.603	0.101
247.000	-3.453	0.101
247.100	-5.625	0.101
247.200	-7.125	0.101
247.300	-6.021	0.101
247.400	-1.868	0.101
247.500	-0.391	0.101
247.600	-1.356	0.101
247.700	-4.795	0.101
247.800	-4.870	0.101
247.900	-1.663	0.101
248.000	-10.959	0.101
248.100	-5.752	0.101
248.200	-9.628	0.101
248.300	-7.232	0.101
248.400	-2.344	0.101
248.500	-7.310	0.101
248.600	7.403	0.101
248.700	-11.537	0.101
248.800	-2.038	0.101
248.900	2.431	0.101
249.000	1.117	0.101
249.100	-7.380	0.101
249.200	-8.133	0.101
249.300	-8.556	0.101
249.400	3.048	0.101
249.500	-5.239	0.101
249.600	-2.240	0.101
249.700	-11.361	0.101
249.800	-3.346	0.101
249.900	-4.601	0.101
250.000	-0.432	0.101
250.100	-6.673	0.101
250.200	-7.066	0.101
250.300	-10.174	0.101
250.400	-2.217	0.101
250.500	-10.081	0.101
250.600	1.546	0.101
250.700	0.573	0.101
250.800	-0.294	0.101
250.900	-10.091	0.101
251.000	-7.611	0.101
251.100	-13.266	0.101
251.200	-3.948	0.101
251.300	-0.638	0.101
251.400	1.570	0.101
251.500	-8.084	0.101
251.600	-6.706	0.101
251.700	-11.656	0.101
251.800	-7.062	0.101
251.900	-5.091	0.101
252.000	0.977	0.101
252.100	-7.155	0.101
252.200	-10.839	0.101
252.300	-11.353	0.101
252.400	-12.949	0.101
252.500	-11.004	0.101
252.600	-12.145	0.101
252.700	-16.304	0.101
252.800	-5.205	0.101
252.900	-7.752	0.101
253.000	-5.450	0.101
253.100	-6.550	0.101
253.200	-18.850	0.101
253.300	-9.298	0.101
253.400	-4.159	0.101
253.500	-8.248	0.101
253.600	-16.188	0.101
253.700	-6.707	0.101
253.800	-12.034	0.101
253.900	-5.683	0.101
254.000	1.650	0.101
254.100	-17.153	0.101
254.200	-10.057	0.101
254.300	-0.686	0.101
254.400	5.782	0.101
254.500	1.008	0.101
254.600	-14.038	0.101
254.700	-22.819	0.101
254.800	-5.100	0.101
254.900	-7.985	0.101
255.000	-4.403	0.101
255.100	-16.760	0.101
255.200	-11.162	0.101
255.300	-3.339	0.101
255.400	-5.070	0.101
255.500	-0.802	0.101
255.600	-4.015	0.101
255.700	-13.414	0.101
255.800	-6.381	0.101
255.900	-6.876	0.101
256.000	-6.367	0.101
256.100	-8.758	0.101
256.200	-3.904	0.101
256.300	-10.590	0.101
256.400	-9.192	0.101
256.500	-9.667	0.101
256.600	-7.422	0.101
256.700	-13.723	0.100
256.800	-6.780	0.101
256.900	-7.677	0.101
257.000	-10.064	0.101
257.100	-16.944	0.101
257.200	-7.228	0.101
257.300	-13.422	0.101
257.400	-9.422	0.101
257.500	-5.254	0.101
257.600	-14.462	0.101
257.700	-18.736	0.101
257.800	-8.127	0.101
257.900	-18.479	0.101
258.000	-8.644	0.101
258.100	-10.757	0.101
258.200	-15.706	0.101
258.300	-11.690	0.101
258.400	-16.196	0.101
258.500	-11.798	0.101
258.600	-10.680	0.101
258.700	-22.049	0.101
258.800	-9.060	0.101
258.900	-17.320	0.101
259.000	-21.280	0.101
259.100	-8.714	0.101
259.200	-7.882	0.101
259.300	-21.197	0.101
259.400	-21.060	0.101
259.500	-11.311	0.101
259.600	-7.926	0.101
259.700	-8.015	0.101
259.800	-11.289	0.101
259.900	-11.716	0.101
260.000	-0.839	0.101
260.100	-22.559	0.101
260.200	-17.925	0.101
260.300	-10.052	0.101
260.400	-8.297	0.101
260.500	0.347	0.101
260.600	-9.684	0.101
260.700	-17.245	0.101
260.800	-18.845	0.101
260.900	-8.828	0.101
261.000	-9.805	0.101
261.100	-13.530	0.101
261.200	-1.846	0.101
261.300	-17.485	0.101
261.400	-14.048	0.101
261.500	-19.165	0.101
261.600	-10.148	0.101
261.700	-15.316	0.101
261.800	-13.506	0.101
261.900	-9.578	0.101
262.000	-11.469	0.101
262.100	-15.387	0.101
262.200	-17.390	0.101
262.300	-14.739	0.101
262.400	-22.507	0.101
262.500	-18.527	0.101
262.600	-16.878	0.101
262.700	-10.668	0.101
262.800	-18.377	0.101
262.900	-16.141	0.101
263.000	-15.397	0.101
263.100	-20.054	0.101
263.200	-7.757	0.101
263.300	-14.047	0.101
263.400	-10.929	0.101
263.500	-22.857	0.101
263.600	-15.964	0.101
263.700	-12.097	0.101
263.800	-13.172	0.101
263.900	-18.119	0.101
264.000	-16.595	0.101
264.100	-13.959	0.101
264.200	-6.656	0.101
264.300	-15.424	0.101
264.400	-21.616	0.101
264.500	-18.715	0.101
264.600	-18.065	0.101
264.700	-14.673	0.101
264.800	-6.668	0.101
264.900	-15.871	0.101
265.000	-13.898	0.101
265.100	-14.483	0.101
265.200	-14.643	0.101
265.300	-20.507	0.101
265.400	-9.088	0.101
265.500	-18.337	0.101
265.600	-16.982	0.101
265.700	-16.752	0.101
265.800	-5.825	0.101
265.900	-14.629	0.101
266.000	-11.982	0.101
266.100	-14.400	0.101
266.200	-6.164	0.101
266.300	-24.511	0.101
266.400	-26.934	0.101
266.500	-15.102	0.101
266.600	-8.536	0.101
266.700	-14.835	0.101
266.800	-21.893	0.101
266.900	-18.369	0.101
267.000	-18.188	0.101
267.100	-16.747	0.101
267.200	-7.447	0.101
267.300	-19.478	0.101
267.400	-18.648	0.101
267.500	-18.966	0.101
267.600	-21.594	0.101
267.700	-14.030	0.101
267.800	-10.997	0.101
267.900	-5.127	0.101
268.000	-15.455	0.101
268.100	-14.667	0.101
268.200	-13.594	0.101
268.300	-20.650	0.101
268.400	-13.882	0.101
268.500	-21.413	0.101
268.600	-18.808	0.101
268.700	-19.127	0.101
268.800	-10.364	0.101
268.900	-25.882	0.101
269.000	-5.527	0.101
269.100	-19.151	0.101
269.200	-18.060	0.101
269.300	-15.144	0.101
269.400	-20.250	0.101
269.500	-21.690	0.101
269.600	-12.724	0.101
269.700	-15.927	0.101
269.800	-12.329	0.101
269.900	-12.100	0.101
270.000	-26.721	0.101
270.100	-10.172	0.101
270.200	-14.454	0.101
270.300	-15.737	0.101
270.400	-19.066	0.101
270.500	-19.336	0.101
270.600	-21.299	0.101
270.700	1.970	0.101
270.800	-17.254	0.101
270.900	-16.533	0.101
271.000	-15.887	0.101
271.100	-18.824	0.101
271.200	-16.563	0.101
271.300	-25.532	0.100
271.400	-19.521	0.101
271.500	-10.920	0.101
271.600	-27.815	0.101
271.700	-13.988	0.101
271.800	-14.059	0.101
271.900	-12.442	0.101
272.000	-11.545	0.101
272.100	-16.460	0.101
272.200	-15.569	0.101
272.300	-20.402	0.101
272.400	-22.828	0.101
272.500	-21.969	0.101
272.600	-10.680	0.101
272.700	-12.099	0.101
272.800	-7.834	0.101
272.900	-12.710	0.101
273.000	-21.297	0.101
273.100	-11.408	0.101
273.200	-15.725	0.101
273.300	-18.645	0.100
273.400	-21.113	0.101
273.500	-25.722	0.101
273.600	-19.668	0.101
273.700	-19.895	0.101
273.800	-16.180	0.101
273.900	-16.215	0.101
274.000	-14.455	0.101
274.100	-10.317	0.101
274.200	-20.857	0.101
274.300	-18.013	0.101
274.400	-16.649	0.101
274.500	-17.028	0.101
274.600	-14.978	0.101
274.700	-19.281	0.101
274.800	-15.473	0.101
274.900	-26.232	0.101
275.000	-18.041	0.101
275.100	-17.903	0.101
275.200	-10.139	0.101
275.300	-14.954	0.101
275.400	-17.174	0.101
275.500	-11.267	0.101
275.600	-7.801	0.101
275.700	-26.059	0.101
275.800	-27.217	0.101
275.900	-14.104	0.101
276.000	-24.116	0.101
276.100	-13.899	0.101
276.200	-14.176	0.101
276.300	-13.669	0.101
276.400	-16.635	0.101
276.500	-11.903	0.101
276.600	-22.563	0.101
276.700	-13.476	0.101
276.800	-13.613	0.101
276.900	-13.300	0.101
277.000	-21.487	0.101
277.100	-16.667	0.101
277.200	-19.536	0.101
277.300	-9.804	0.101
277.400	-14.054	0.101
277.500	-15.385	0.101
277.600	-12.597	0.101
277.700	-9.586	0.101
277.800	-25.808	0.101
277.900	-13.317	0.101
278.000	-20.448	0.101
278.100	-17.626	0.101
278.200	-22.731	0.101
278.300	-10.766	0.101
278.400	-10.900	0.101
278.500	-16.229	0.101
278.600	-16.446	0.101
278.700	-9.903	0.101
278.800	-22.257	0.100
278.900	-21.280	0.101
279.000	-17.033	0.101
279.100	-14.604	0.101
279.200	-12.845	0.101
279.300	-10.306	0.101
279.400	-15.594	0.101
279.500	-20.147	0.101
279.600	-15.063	0.101
279.700	-9.521	0.101
279.800	-25.647	0.101
279.900	-11.853	0.101
280.000	-15.002	0.101
280.100	-17.247	0.101
280.200	-17.909	0.101
280.300	-20.587	0.101
280.400	-6.858	0.101
280.500	-19.658	0.101
280.600	-17.247	0.101
280.700	-9.935	0.101
280.800	-12.110	0.101
280.900	-22.278	0.101
281.000	-24.902	0.101
281.100	-14.483	0.101
281.200	-23.687	0.101
281.300	-14.678	0.101
281.400	-19.526	0.101
281.500	-13.608	0.101
281.600	-23.209	0.101
281.700	-18.799	0.101
281.800	-14.865	0.101
281.900	-15.680	0.101
282.000	-19.182	0.101
282.100	-11.993	0.101
282.200	-9.982	0.101
282.300	-16.767	0.101
282.400	-18.294	0.101
282.500	-14.208	0.101
282.600	-18.322	0.101
282.700	-16.389	0.101
282.800	-14.361	0.101
282.900	-17.048	0.101
283.000	-23.867	0.101
283.100	-10.933	0.101
283.200	-27.961	0.101
283.300	-13.876	0.101
283.400	-14.253	0.101
283.500	-0.999	0.101
283.600	-21.169	0.101
283.700	-19.857	0.101
283.800	-18.162	0.101
283.900	-15.746	0.101
284.000	-16.169	0.101
284.100	-7.734	0.101
284.200	-17.094	0.101
284.300	-14.580	0.101
284.400	-16.471	0.101
284.500	-18.577	0.101
284.600	-17.890	0.101
284.700	-14.172	0.101
284.800	-18.462	0.101
284.900	-12.794	0.101
285.000	-19.507	0.101
285.100	-16.837	0.101
285.200	-13.371	0.101
285.300	-8.874	0.101
285.400	-20.409	0.101
285.500	-20.578	0.101
285.600	-13.915	0.101
285.700	-15.088	0.101
285.800	-24.873	0.101
285.900	-11.580	0.101
286.000	-9.396	0.101
286.100	-8.305	0.101
286.200	-6.223	0.101
286.300	-4.636	0.101
286.400	-16.934	0.101
286.500	-7.065	0.101
286.600	-23.853	0.101
286.700	-8.678	0.101
286.800	-22.925	0.101
286.900	-12.940	0.101
287.000	-21.197	0.101
287.100	-16.626	0.101
287.200	-16.643	0.101
287.300	-15.815	0.101
287.400	-10.301	0.101
287.500	-6.414	0.101
287.600	-21.855	0.101
287.700	-19.208	0.101
287.800	-16.724	0.101
287.900	-5.579	0.101
288.000	-17.064	0.101
288.100	-8.695	0.101
288.200	-21.716	0.101
288.300	-2.146	0.101
288.400	-13.020	0.101
288.500	-17.804	0.101
288.600	-21.387	0.101
288.700	-15.989	0.101
288.800	-10.742	0.101
288.900	-18.777	0.101
289.000	-19.768	0.101
289.100	-18.357	0.101
289.200	-14.634	0.101
289.300	-17.114	0.101
289.400	-15.095	0.101
289.500	-22.168	0.101
289.600	-11.560	0.101
289.700	-8.558	0.101
289.800	-16.740	0.101
289.900	-12.157	0.101
290.000	-16.929	0.101
290.100	-18.065	0.101
290.200	-15.656	0.101
290.300	-8.456	0.101
290.400	-1.691	0.101
290.500	-8.478	0.101
290.600	-14.910	0.101
290.700	-22.638	0.101
290.800	-13.922	0.101
290.900	-19.242	0.101
291.000	-14.240	0.101
291.100	-18.395	0.101
291.200	-15.349	0.101
291.300	-18.869	0.101
291.400	-14.605	0.101
291.500	-10.046	0.101
291.600	-4.673	0.101
291.700	-21.693	0.101
291.800	-19.969	0.101
291.900	-6.959	0.101
292.000	-14.931	0.101
292.100	-9.841	0.101
292.200	-11.376	0.101
292.300	-3.284	0.101
292.400	-11.914	0.101
292.500	-16.051	0.101
292.600	-16.421	0.101
292.700	-15.521	0.101
292.800	-26.154	0.101
292.900	-2.569	0.101
293.000	-4.197	0.101
293.100	-7.428	0.101
293.200	-21.626	0.101
293.300	-12.582	0.101
293.400	-18.438	0.101
293.500	-15.998	0.101
293.600	-19.495	0.101
293.700	-19.002	0.101
293.800	-10.657	0.101
293.900	-12.530	0.101
294.000	-15.293	0.101
294.100	-10.825	0.101
294.200	-8.522	0.101
294.300	-21.535	0.101
294.400	-15.454	0.101
294.500	-12.327	0.101
294.600	-12.494	0.101
294.700	-16.457	0.101
294.800	-9.414	0.101
294.900	-5.364	0.101
295.000	-8.641	0.101
295.100	-1.326	0.101
295.200	-6.917	0.101
295.300	-12.792	0.101
295.400	-17.033	0.101
295.500	-16.562	0.101
295.600	-12.277	0.101
295.700	-9.515	0.101
295.800	-20.579	0.101
295.900	-22.445	0.101
296.000	-12.858	0.101
296.100	-17.739	0.101
296.200	-18.848	0.101
296.300	-14.700	0.101
296.400	-15.565	0.101
296.500	-18.946	0.101
296.600	-12.573	0.101
296.700	-3.730	0.101
296.800	-17.388	0.101
296.900	-18.085	0.101
297.000	-17.362	0.101
297.100	-10.790	0.101
297.200	-23.443	0.101
297.300	-18.536	0.101
297.400	-7.479	0.101
297.500	-11.361	0.101
297.600	-11.871	0.101
297.700	-2.983	0.101
297.800	-6.162	0.101
297.900	-12.706	0.101
298.000	-18.667	0.101
298.100	-9.562	0.101
298.200	-22.863	0.101
298.300	-5.517	0.101
298.400	-10.763	0.101
298.500	-6.399	0.101
298.600	-14.343	0.101
298.700	-12.769	0.101
298.800	-5.650	0.101
298.900	-15.113	0.101
299.000	-20.088	0.101
299.100	-22.782	0.101
299.200	-6.126	0.101
299.300	-11.354	0.101
299.400	-17.695	0.101
299.500	-20.099	0.101
299.600	-19.673	0.101
299.700	-1.219	0.101
299.800	-15.987	0.101
299.900	-12.311	0.101
300.000	-10.017	0.101
300.100	0.250	0.101
300.200	-16.602	0.101
300.300	-9.393	0.101
300.400	-10.587	0.101
300.500	-21.724	0.101
300.600	-14.366	0.101
300.700	-10.759	0.101
300.800	-4.775	0.101
300.900	-11.392	0.101
301.000	-4.192	0.101
301.100	-6.018	0.101
301.200	-4.198	0.101
301.300	-6.980	0.101
301.400	-20.509	0.101
301.500	-9.533	0.101
301.600	-7.230	0.101
301.700	-6.111	0.101
301.800	-5.972	0.101
301.900	-10.823	0.101
302.000	-13.328	0.101
302.100	-15.590	0.101
302.200	-15.862	0.101
302.300	-16.019	0.101
302.400	-20.094	0.101
302.500	-9.828	0.101
302.600	-14.327	0.101
302.700	-7.969	0.101
302.800	-3.628	0.101
302.900	-9.935	0.101
303.000	-18.572	0.101
303.100	-22.963	0.101
303.200	-14.866	0.101
303.300	-16.286	0.101
303.400	-7.394	0.101
303.500	-20.165	0.101
303.600	-18.398	0.101
303.700	-14.071	0.101
303.800	-7.267	0.101
303.900	-26.532	0.101
304.000	-10.438	0.101
304.100	-3.285	0.101
304.200	-12.858	0.101
304.300	-12.194	0.101
304.400	-13.917	0.101
304.500	-21.442	0.101
304.600	-16.698	0.101
304.700	-10.824	0.101
304.800	-12.070	0.101
304.900	-15.635	0.101
305.000	-20.764	0.101
305.100	-13.751	0.101
305.200	-1.377	0.101
305.300	-13.726	0.101
305.400	-14.447	0.101
305.500	-13.668	0.101
305.600	-12.934	0.101
305.700	-9.249	0.101
305.800	-13.713	0.101
305.900	-9.231	0.101
306.000	-10.755	0.101
306.100	-13.223	0.101
306.200	-13.659	0.101
306.300	-18.913	0.101
306.400	-9.648	0.101
306.500	-15.047	0.101
306.600	-1.738	0.101
306.700	-8.115	0.101
306.800	-7.996	0.101
306.900	-13.577	0.101
307.000	-7.758	0.101
307.100	-15.946	0.101
307.200	-14.970	0.101
307.300	-13.995	0.101
307.400	-13.096	0.101
307.500	-21.163	0.101
307.600	-8.498	0.101
307.700	-10.016	0.101
307.800	-6.402	0.101
307.900	-18.542	0.101
308.000	-10.466	0.101
308.100	-16.598	0.101
308.200	-11.157	0.101
308.300	-14.788	0.101
308.400	-4.207	0.101
308.500	-0.322	0.101
308.600	-7.536	0.101
308.700	-12.247	0.101
308.800	-7.418	0.101
308.900	-10.472	0.101
309.000	-5.161	0.101
309.100	-14.274	0.101
309.200	-8.447	0.101
309.300	-13.918	0.101
309.400	-21.452	0.101
309.500	-18.864	0.101
309.600	-8.156	0.101
309.700	-5.332	0.101
309.800	-4.011	0.101
309.900	-13.363	0.101
310.000	-25.124	0.101
310.100	-6.909	0.101
310.200	-1.239	0.101
310.300	-16.533	0.101
310.400	-12.589	0.101
310.500	-13.076	0.101
310.600	-10.601	0.101
310.700	-12.752	0.101
310.800	-13.376	0.101
310.900	-16.098	0.101
311.000	-7.412	0.101
311.100	-10.556	0.101
311.200	-2.810	0.101
311.300	-12.471	0.101
311.400	-7.544	0.101
311.500	-5.995	0.101
311.600	-10.749	0.101
311.700	-19.092	0.101
311.800	-11.464	0.101
311.900	-0.478	0.101
312.000	-11.843	0.101
312.100	-9.759	0.101
312.200	-9.158	0.101
312.300	-9.987	0.101
312.400	-8.889	0.101
312.500	-16.779	0.101
312.600	-9.597	0.101
312.700	-15.937	0.101
312.800	-14.182	0.101
312.900	-11.646	0.101
313.000	-10.255	0.101
313.100	-21.632	0.101
313.200	-2.681	0.101
313.300	-3.894	0.101
313.400	-7.087	0.101
313.500	-14.961	0.101
313.600	-17.367	0.101
313.700	-5.980	0.101
313.800	-10.549	0.101
313.900	-19.064	0.101
314.000	-2.667	0.101
314.100	-6.850	0.101
314.200	-6.868	0.101
314.300	-16.071	0.101
314.400	-10.464	0.101
314.500	-14.067	0.101
314.600	-7.928	0.101
314.700	-11.925	0.101
314.800	-5.238	0.101
314.900	-15.926	0.101
315.000	-22.042	0.101
315.100	-4.919	0.101
315.200	-19.987	0.101
315.300	-15.585	0.101
315.400	-7.239	0.101
315.500	-15.154	0.101
315.600	-13.896	0.101
315.700	-13.582	0.101
315.800	-6.044	0.101
315.900	-12.241	0.101
316.000	-8.193	0.101
316.100	-12.964	0.101
316.200	-10.798	0.101
316.300	-12.060	0.101
316.400	-4.370	0.101
316.500	-9.828	0.101
316.600	-5.759	0.101
316.700	-21.101	0.101
316.800	-5.174	0.101
316.900	-13.671	0.100
317.000	-7.869	0.101
317.100	-12.985	0.101
317.200	-14.514	0.101
317.300	-7.393	0.101
317.400	-8.928	0.101
317.500	-4.180	0.101
317.600	-2.354	0.101
317.700	-10.240	0.101
317.800	-11.778	0.101
317.900	-5.405	0.101
318.000	-6.425	0.101
318.100	-12.927	0.101
318.200	-11.596	0.101
318.300	-12.967	0.101
318.400	-11.756	0.101
318.500	-12.521	0.101
318.600	-19.830	0.101
318.700	-14.409	0.101
318.800	-7.886	0.101
318.900	-20.946	0.101
319.000	-14.039	0.101
319.100	-3.525	0.101
319.200	-4.676	0.101
319.300	-9.025	0.101
319.400	-10.663	0.101
319.500	-12.420	0.101
319.600	-9.441	0.101
319.700	-14.462	0.101
319.800	-11.919	0.101
319.900	-10.195	0.101
320.000	-11.396	0.101
320.100	-14.910	0.101
320.200	-10.944	0.101
320.300	-12.704	0.101
320.400	-7.974	0.101
320.500	-16.599	0.101
320.600	-4.803	0.101
320.700	-4.924	0.101
320.800	-8.499	0.101
320.900	-13.991	0.101
321.000	-14.526	0.101
321.100	-6.236	0.101
321.200	0.141	0.101
321.300	-6.394	0.101
321.400	-11.531	0.101
321.500	-0.211	0.101
321.600	-6.962	0.101
321.700	-13.245	0.101
321.800	-23.755	0.101
321.900	-9.183	0.101
322.000	-3.279	0.101
322.100	-3.476	0.101
322.200	-5.731	0.101
322.300	-20.318	0.101
322.400	-14.707	0.101
322.500	-11.520	0.101
322.600	-13.160	0.100
322.700	-14.833	0.101
322.800	-4.798	0.101
322.900	-6.913	0.101
323.000	-11.922	0.101
323.100	-2.020	0.101
323.200	-10.310	0.101
323.300	-13.370	0.101
323.400	-18.440	0.101
323.500	-12.222	0.101
323.600	-11.164	0.101
323.700	-9.625	0.101
323.800	-11.002	0.101
323.900	-16.765	0.101
324.000	-3.633	0.101
324.100	-8.103	0.101
324.200	-7.652	0.101
324.300	-17.022	0.101
324.400	-9.810	0.101
324.500	-12.615	0.101
324.600	-4.778	0.101
324.700	-10.780	0.101
324.800	-12.080	0.101
324.900	-9.767	0.101
325.000	-5.224	0.101
325.100	-15.848	0.101
325.200	-16.005	0.101
325.300	-7.826	0.101
325.400	-11.854	0.101
325.500	-22.346	0.101
325.600	-12.262	0.101
325.700	-8.262	0.101
325.800	1.577	0.101
325.900	-12.866	0.101
326.000	-9.921	0.101
326.100	-10.679	0.101
326.200	-6.601	0.101
326.300	-8.566	0.101
326.400	0.096	0.101
326.500	-13.985	0.101
326.600	-16.508	0.101
326.700	-6.323	0.101
326.800	-15.792	0.101
326.900	-19.053	0.101
327.000	-13.256	0.101
327.100	-9.651	0.101
327.200	-15.723	0.101
327.300	-8.216	0.101
327.400	-5.993	0.101
327.500	-8.278	0.101
327.600	-2.081	0.101
327.700	-5.860	0.101
327.800	-7.073	0.101
327.900	-10.645	0.101
328.000	-5.196	0.101
328.100	-11.764	0.101
328.200	-11.805	0.101
328.300	-7.577	0.101
328.400	-8.588	0.101
328.500	-7.461	0.101
328.600	-12.302	0.101
328.700	-8.514	0.101
328.800	-15.091	0.101
328.900	-1.952	0.101
329.000	-5.464	0.101
329.100	-12.076	0.101
329.200	-13.687	0.101
329.300	-18.107	0.101
329.400	-9.082	0.101
329.500	-11.201	0.101
329.600	-12.794	0.101
329.700	-1.181	0.101
329.800	2.074	0.101
329.900	-20.332	0.101
330.000	-16.192	0.101
330.100	-7.920	0.101
330.200	-7.668	0.101
330.300	-13.056	0.101
330.400	-7.491	0.101
330.500	-14.477	0.101
330.600	-15.952	0.101
330.700	-8.487	0.101
330.800	-14.511	0.101
330.900	-2.290	0.101
331.000	-7.122	0.101
331.100	-6.535	0.101
331.200	3.459	0.101
331.300	-5.393	0.101
331.400	-12.831	0.101
331.500	-12.390	0.101
331.600	4.331	0.101
331.700	-3.379	0.101
331.800	-3.519	0.101
331.900	2.591	0.101
332.000	2.559	0.101
332.100	-2.246	0.101
332.200	5.665	0.100
332.300	10.389	0.101
332.400	5.469	0.101
332.500	16.170	0.101
332.600	10.871	0.101
332.700	6.106	0.101
332.800	-4.482	0.101
332.900	13.617	0.101
333.000	16.106	0.101
333.100	11.024	0.101
333.200	12.930	0.101
333.300	13.391	0.101
333.400	13.333	0.101
333.500	7.876	0.101
333.600	3.413	0.101
333.700	13.930	0.101
333.800	21.143	0.101
333.900	15.772	0.101
334.000	3.434	0.101
334.100	16.011	0.101
334.200	8.770	0.101
334.300	16.006	0.101
334.400	17.178	0.101
334.500	15.600	0.101
334.600	24.828	0.101
334.700	22.701	0.101
334.800	9.362	0.101
334.900	10.849	0.101
335.000	19.912	0.101
335.100	11.337	0.101
335.200	16.477	0.101
335.300	20.477	0.101
335.400	14.872	0.101
335.500	14.398	0.101
335.600	16.347	0.101
335.700	12.735	0.101
335.800	8.924	0.101
335.900	7.374	0.101
336.000	9.728	0.101
336.100	10.505	0.101
336.200	15.508	0.101
336.300	13.429	0.101
336.400	17.132	0.101
336.500	10.297	0.101
336.600	10.122	0.101
336.700	18.237	0.101
336.800	18.215	0.101
336.900	13.625	0.101
337.000	9.957	0.101
337.100	4.761	0.101
337.200	19.508	0.101
337.300	10.089	0.101
337.400	9.672	0.101
337.500	10.650	0.101
337.600	3.167	0.101
337.700	5.723	0.101
337.800	7.708	0.101
337.900	9.681	0.101
338.000	17.485	0.101
338.100	8.073	0.101
338.200	9.150	0.101
338.300	8.246	0.101
338.400	3.798	0.101
338.500	12.234	0.101
338.600	10.647	0.101
338.700	15.784	0.101
338.800	7.257	0.101
338.900	10.324	0.101
339.000	4.285	0.101
339.100	13.262	0.101
339.200	-0.172	0.101
339.300	14.147	0.101
339.400	24.418	0.101
339.500	25.155	0.101
339.600	0.040	0.101
339.700	20.420	0.101
339.800	0.683	0.101
339.900	6.128	0.101
340.000	8.064	0.101
340.100	9.447	0.101
340.200	6.492	0.101
340.300	8.679	0.101
340.400	1.953	0.101
340.500	8.931	0.101
340.600	15.907	0.101
340.700	13.070	0.101
340.800	13.750	0.101
340.900	10.650	0.101
341.000	3.003	0.101
341.100	14.295	0.101
341.200	6.640	0.101
341.300	2.181	0.101
341.400	-6.955	0.101
341.500	19.746	0.101
341.600	5.944	0.101
341.700	7.272	0.101
341.800	9.034	0.101
341.900	12.541	0.101
342.000	0.207	0.101
342.100	17.582	0.101
342.200	12.555	0.101
342.300	-0.897	0.101
342.400	3.645	0.101
342.500	7.540	0.101
342.600	7.935	0.101
342.700	8.801	0.101
342.800	6.945	0.101
342.900	5.351	0.101
343.000	5.823	0.101
343.100	10.540	0.101
343.200	5.118	0.101
343.300	5.694	0.101
343.400	8.115	0.101
343.500	17.326	0.101
343.600	5.064	0.101
343.700	11.781	0.101
343.800	10.986	0.101
343.900	14.732	0.101
344.000	2.817	0.101
344.100	7.948	0.101
344.200	2.836	0.101
344.300	5.265	0.101
344.400	1.863	0.101
344.500	12.472	0.101
344.600	7.278	0.101
344.700	6.399	0.101
344.800	10.525	0.101
344.900	14.020	0.101
345.000	2.873	0.101
345.100	16.882	0.101
345.200	6.931	0.101
345.300	5.131	0.101
345.400	4.215	0.101
345.500	14.022	0.101
345.600	8.423	0.101
345.700	15.726	0.101
345.800	10.336	0.101
345.900	23.188	0.101
346.000	7.084	0.101
346.100	14.641	0.101
346.200	12.408	0.101
346.300	20.471	0.101
346.400	11.072	0.101
346.500	11.503	0.101
346.600	4.378	0.101
346.700	-0.525	0.101
346.800	6.398	0.101
346.900	10.559	0.101
347.000	3.976	0.101
347.100	11.700	0.101
347.200	5.570	0.101
347.300	-1.454	0.101
347.400	5.553	0.101
347.500	13.284	0.101
347.600	3.994	0.101
347.700	4.157	0.101
347.800	4.692	0.101
347.900	11.211	0.101
348.000	7.055	0.101
348.100	15.744	0.101
348.200	8.459	0.101
348.300	10.448	0.101
348.400	5.271	0.101
348.500	13.839	0.101
348.600	11.817	0.101
348.700	8.072	0.101
348.800	0.446	0.101
348.900	7.796	0.101
349.000	6.975	0.101
349.100	10.805	0.101
349.200	23.427	0.101
349.300	20.166	0.101
349.400	9.401	0.101
349.500	4.451	0.101
349.600	3.785	0.101
349.700	11.283	0.101
349.800	12.814	0.101
349.900	3.686	0.101
350.000	8.316	0.101
350.100	11.563	0.101
350.200	16.134	0.101
350.300	11.391	0.101
350.400	14.219	0.101
350.500	12.239	0.101
350.600	18.160	0.101
350.700	14.832	0.101
350.800	7.494	0.101
350.900	15.550	0.101
351.000	15.785	0.101
351.100	14.875	0.101
351.200	9.654	0.101
351.300	11.886	0.101
351.400	5.506	0.101
351.500	14.256	0.101
351.600	15.548	0.101
351.700	17.188	0.101
351.800	5.686	0.101
351.900	17.630	0.101
352.000	12.765	0.101
352.100	14.654	0.101
352.200	10.287	0.101
352.300	11.702	0.101
352.400	7.748	0.101
352.500	15.454	0.101
352.600	4.310	0.101
352.700	9.912	0.101
352.800	0.848	0.101
352.900	3.954	0.101
353.000	18.924	0.101
353.100	11.635	0.101
353.200	12.956	0.101
353.300	8.603	0.101
353.400	8.993	0.101
353.500	16.037	0.101
353.600	3.240	0.101
353.700	24.854	0.101
353.800	25.115	0.101
353.900	21.767	0.101
354.000	11.638	0.101
354.100	15.802	0.101
354.200	-2.465	0.101
354.300	13.520	0.101
354.400	11.883	0.101
354.500	10.396	0.101
354.600	6.359	0.101
354.700	14.146	0.101
354.800	4.348	0.101
354.900	12.114	0.101
355.000	16.779	0.101
355.100	16.282	0.101
355.200	9.434	0.101
355.300	16.817	0.101
355.400	11.991	0.101
355.500	4.540	0.101
355.600	18.745	0.101
355.700	22.407	0.101
355.800	11.955	0.101
355.900	9.333	0.101
356.000	20.661	0.101
356.100	11.354	0.101
356.200	17.640	0.101
356.300	15.043	0.101
356.400	5.874	0.101
356.500	19.200	0.101
356.600	15.412	0.101
356.700	11.689	0.101
356.800	13.657	0.101
356.900	21.190	0.101
357.000	9.056	0.101
357.100	12.043	0.101
357.200	11.083	0.101
357.300	10.126	0.101
357.400	19.219	0.101
357.500	14.997	0.101
357.600	4.169	0.101
357.700	13.270	0.101
357.800	9.968	0.101
357.900	17.566	0.101
358.000	15.067	0.101
358.100	22.758	0.101
358.200	14.645	0.101
358.300	12.246	0.101
358.400	4.916	0.101
358.500	7.009	0.101
358.600	13.368	0.101
358.700	13.332	0.101
358.800	19.236	0.101
358.900	19.402	0.101
359.000	12.909	0.101
359.100	16.345	0.101
359.200	14.059	0.101
359.300	9.496	0.101
359.400	19.947	0.101
359.500	2.481	0.101
359.600	12.404	0.101
359.700	10.286	0.101
359.800	12.273	0.101
359.900	15.198	0.101
360.000	16.813	0.101
360.100	17.536	0.101
360.200	18.910	0.101
360.300	12.660	0.101
360.400	7.837	0.101
360.500	9.501	0.101
360.600	8.743	0.101
360.700	16.211	0.101
360.800	13.398	0.101
360.900	15.760	0.101
361.000	15.306	0.101
361.100	6.058	0.101
361.200	18.531	0.101
361.300	11.238	0.101
361.400	15.604	0.101
361.500	13.672	0.101
361.600	16.225	0.101
361.700	11.939	0.101
361.800	17.753	0.101
361.900	18.646	0.101
362.000	0.076	0.101
362.100	19.429	0.101
362.200	9.588	0.101
362.300	3.570	0.101
362.400	12.548	0.101
362.500	9.214	0.101
362.600	21.150	0.101
362.700	18.073	0.101
362.800	25.304	0.101
362.900	12.262	0.101
363.000	12.626	0.101
363.100	8.927	0.101
363.200	20.072	0.101
363.300	8.758	0.101
363.400	5.168	0.101
363.500	4.948	0.101
363.600	18.618	0.101
363.700	22.357	0.101
363.800	15.537	0.101
363.900	9.702	0.101
364.000	12.174	0.101
364.100	11.582	0.101
364.200	17.174	0.101
364.300	17.387	0.101
364.400	9.493	0.101
364.500	7.641	0.101
364.600	15.474	0.101
364.700	14.821	0.101
364.800	19.899	0.101
364.900	10.417	0.101
365.000	20.407	0.101
365.100	9.728	0.101
365.200	8.913	0.101
365.300	8.631	0.101
365.400	12.863	0.101
365.500	22.539	0.101
365.600	18.975	0.101
365.700	11.799	0.101
365.800	15.604	0.101
365.900	23.226	0.101
366.000	13.051	0.101
366.100	14.833	0.101
366.200	11.189	0.101
366.300	1.100	0.101
366.400	13.851	0.101
366.500	3.932	0.101
366.600	13.298	0.101
366.700	7.871	0.101
366.800	19.142	0.101
366.900	10.409	0.101
367.000	10.130	0.101
367.100	17.045	0.101
367.200	16.515	0.101
367.300	13.051	0.101
367.400	19.354	0.101
367.500	14.433	0.101
367.600	14.883	0.101
367.700	15.018	0.101
367.800	21.336	0.101
367.900	4.511	0.101
368.000	9.266	0.101
368.100	9.577	0.101
368.200	22.940	0.101
368.300	13.435	0.101
368.400	15.528	0.101
368.500	4.441	0.101
368.600	14.724	0.101
368.700	15.186	0.101
368.800	23.234	0.101
368.900	15.692	0.101
369.000	5.146	0.101
369.100	10.121	0.101
369.200	9.563	0.101
369.300	13.867	0.101
369.400	24.611	0.101
369.500	14.569	0.101
369.600	13.929	0.101
369.700	13.142	0.101
369.800	23.496	0.101
369.900	11.723	0.101
370.000	13.671	0.101
370.100	28.698	0.101
370.200	17.098	0.101
370.300	10.972	0.101
370.400	7.427	0.101
370.500	10.430	0.101
370.600	9.040	0.101
370.700	2.767	0.101
370.800	16.825	0.101
370.900	13.890	0.101
371.000	16.278	0.101
371.100	18.104	0.101
371.200	17.533	0.101
371.300	20.683	0.101
371.400	20.685	0.101
371.500	6.894	0.101
371.600	6.763	0.101
371.700	15.443	0.101
371.800	21.133	0.101
371.900	29.045	0.101
372.000	22.885	0.101
372.100	14.403	0.101
372.200	21.288	0.101
372.300	14.385	0.101
372.400	22.652	0.101
372.500	7.947	0.101
372.600	11.355	0.101
372.700	9.747	0.101
372.800	16.258	0.101
372.900	16.589	0.101
373.000	19.927	0.101
373.100	14.784	0.101
373.200	10.456	0.101
373.300	15.591	0.101
373.400	19.901	0.101
373.500	18.370	0.101
373.600	18.378	0.101
373.700	2.337	0.101
373.800	20.605	0.101
373.900	-3.681	0.101
374.000	13.280	0.101
374.100	17.913	0.101
374.200	13.018	0.101
374.300	9.383	0.101
374.400	13.647	0.101
374.500	16.099	0.101
374.600	22.730	0.101
374.700	20.818	0.101
374.800	12.941	0.101
374.900	12.349	0.101
375.000	22.383	0.101
375.100	16.710	0.101
375.200	17.388	0.101
375.300	13.226	0.101
375.400	6.025	0.101
375.500	16.479	0.101
375.600	10.557	0.101
375.700	17.352	0.101
375.800	24.770	0.101
375.900	9.264	0.101
376.000	16.210	0.101
376.100	22.144	0.101
376.200	20.106	0.101
376.300	12.102	0.101
376.400	14.895	0.101
376.500	10.751	0.101
376.600	21.905	0.101
376.700	11.310	0.101
376.800	25.949	0.101
376.900	12.550	0.101
377.000	14.154	0.101
377.100	10.200	0.101
377.200	17.115	0.101
377.300	15.328	0.101
377.400	22.836	0.101
377.500	23.511	0.101
377.600	19.333	0.101
377.700	8.894	0.101
377.800	15.573	0.101
377.900	12.360	0.101
378.000	12.505	0.101
378.100	9.347	0.101
378.200	19.327	0.101
378.300	11.531	0.101
378.400	29.625	0.101
378.500	16.357	0.101
378.600	17.151	0.101
378.700	7.525	0.101
378.800	19.730	0.101
378.900	11.541	0.101
379.000	20.454	0.101
379.100	11.176	0.101
379.200	17.835	0.101
379.300	14.455	0.101
379.400	20.923	0.101
379.500	10.615	0.101
379.600	16.581	0.101
379.700	13.710	0.101
379.800	10.951	0.101
379.900	13.483	0.101
380.000	19.403	0.101
380.100	12.853	0.101
380.200	16.426	0.101
380.300	15.808	0.101
380.400	8.848	0.101
380.500	10.332	0.101
380.600	17.468	0.101
380.700	28.670	0.101
380.800	16.632	0.101
380.900	11.056	0.101
381.000	17.673	0.101
381.100	15.787	0.101
381.200	16.058	0.101
381.300	9.237	0.101
381.400	15.221	0.101
381.500	11.176	0.101
381.600	14.850	0.101
381.700	24.718	0.101
381.800	14.398	0.101
381.900	15.769	0.101
382.000	26.789	0.101
382.100	14.197	0.101
382.200	21.679	0.101
382.300	18.499	0.101
382.400	15.202	0.101
382.500	10.161	0.101
382.600	16.768	0.101
382.700	13.469	0.101
382.800	22.199	0.101
382.900	19.521	0.101
383.000	13.432	0.101
383.100	15.136	0.101
383.200	12.850	0.101
383.300	18.662	0.101
383.400	23.145	0.101
383.500	18.252	0.101
383.600	24.063	0.101
383.700	21.494	0.101
383.800	13.307	0.101
383.900	12.844	0.101
384.000	16.967	0.101
384.100	17.732	0.101
384.200	10.485	0.101
384.300	7.123	0.101
384.400	11.884	0.101
384.500	11.928	0.101
384.600	21.901	0.101
384.700	15.054	0.101
384.800	16.664	0.101
384.900	12.147	0.101
385.000	16.532	0.101
385.100	14.593	0.101
385.200	18.417	0.101
385.300	9.683	0.101
385.400	17.311	0.101
385.500	9.303	0.101
385.600	19.302	0.101
385.700	13.189	0.101
385.800	-1.582	0.101
385.900	6.262	0.101
386.000	16.793	0.101
386.100	19.012	0.101
386.200	13.058	0.101
386.300	24.992	0.101
386.400	14.245	0.101
386.500	5.207	0.101
386.600	8.840	0.101
386.700	12.840	0.101
386.800	11.230	0.101
386.900	26.606	0.101
387.000	18.836	0.101
387.100	16.299	0.101
387.200	11.866	0.101
387.300	19.205	0.101
387.400	12.528	0.101
387.500	13.759	0.101
387.600	11.816	0.101
387.700	17.264	0.101
387.800	14.602	0.101
387.900	15.322	0.101
388.000	14.178	0.101
388.100	14.681	0.101
388.200	11.256	0.101
388.300	19.699	0.101
388.400	19.996	0.101
388.500	19.479	0.101
388.600	18.683	0.101
388.700	11.649	0.101
388.800	9.743	0.101
388.900	10.907	0.101
389.000	15.594	0.101
389.100	12.782	0.101
389.200	8.875	0.101
389.300	18.650	0.101
389.400	16.288	0.101
389.500	19.353	0.101
389.600	18.170	0.101
389.700	15.504	0.101
389.800	8.879	0.101
389.900	16.077	0.101
390.000	17.641	0.101
390.100	20.220	0.101
390.200	10.413	0.101
390.300	21.553	0.101
390.400	13.174	0.101
390.500	19.401	0.101
390.600	21.501	0.101
390.700	22.684	0.101
390.800	10.456	0.101
390.900	14.399	0.101
391.000	8.468	0.101
391.100	7.761	0.101
391.200	6.732	0.101
391.300	13.524	0.101
391.400	0.134	0.101
391.500	5.675	0.101
391.600	11.397	0.101
391.700	11.989	0.101
391.800	19.611	0.101
391.900	10.603	0.101
392.000	11.391	0.101
392.100	5.645	0.101
392.200	5.003	0.101
392.300	11.197	0.101
392.400	15.099	0.101
392.500	-4.393	0.101
392.600	4.516	0.101
392.700	6.655	0.101
392.800	4.534	0.101
392.900	-5.716	0.101
393.000	6.066	0.101
393.100	1.004	0.101
393.200	-0.567	0.101
393.300	9.434	0.101
393.400	-4.313	0.101
393.500	3.602	0.101
393.600	0.308	0.101
393.700	1.365	0.101
393.800	-0.169	0.101
393.900	11.676	0.101
394.000	0.146	0.101
394.100	3.083	0.101
394.200	1.367	0.101
394.300	8.851	0.101
394.400	3.564	0.101
394.500	3.163	0.101
394.600	1.010	0.101
394.700	3.708	0.101
394.800	1.696	0.101
394.900	-2.712	0.101
395.000	-6.109	0.101
395.100	5.722	0.101
395.200	8.458	0.101
395.300	2.799	0.101
395.400	1.164	0.101
395.500	-12.364	0.101
395.600	-7.595	0.101
395.700	3.873	0.101
395.800	-2.691	0.101
395.900	-5.474	0.101
396.000	7.441	0.101
396.100	5.985	0.101
396.200	3.581	0.101
396.300	-2.083	0.101
396.400	-10.330	0.101
396.500	-8.540	0.101
396.600	1.312	0.101
396.700	0.367	0.101
396.800	3.005	0.101
396.900	1.107	0.101
397.000	-5.184	0.101
397.100	9.295	0.101
397.200	-1.075	0.101
397.300	-5.866	0.101
397.400	-10.161	0.101
397.500	-5.711	0.101
397.600	0.741	0.101
397.700	8.864	0.101
397.800	3.123	0.101
397.900	1.141	0.101
398.000	-5.142	0.101
398.100	-0.139	0.101
398.200	1.083	0.101
398.300	3.069	0.101
398.400	3.337	0.101
398.500	-10.612	0.101
398.600	-6.002	0.101
398.700	2.393	0.101
398.800	-5.913	0.101
398.900	-7.084	0.101
399.000	5.552	0.101
399.100	4.102	0.101
399.200	0.064	0.101
399.300	-1.257	0.101
399.400	-1.364	0.101
399.500	-0.708	0.101
399.600	-2.562	0.101
399.700	2.973	0.101
399.800	1.003	0.101
399.900	2.939	0.101
400.000	-4.771	0.101
400.100	-5.927	0.101
400.200	-2.220	0.101
400.300	-2.706	0.101
400.400	4.754	0.101
400.500	6.072	0.101
400.600	-16.106	0.101
400.700	-4.873	0.101
400.800	-15.433	0.101
400.900	0.167	0.101
401.000	2.986	0.101
401.100	2.835	0.101
401.200	-4.080	0.101
401.300	3.941	0.101
401.400	-10.438	0.101
401.500	0.969	0.101
401.600	-5.330	0.101
401.700	5.317	0.101
401.800	-9.615	0.101
401.900	-12.547	0.101
402.000	-10.462	0.101
402.100	5.599	0.101
402.200	-6.544	0.101
402.300	-2.168	0.101
402.400	-2.138	0.101
402.500	5.197	0.101
402.600	-3.609	0.101
402.700	5.570	0.101
402.800	-12.267	0.101
402.900	-8.732	0.101
403.000	-10.693	0.101
403.100	2.351	0.101
403.200	-17.549	0.101
403.300	-9.993	0.101
403.400	3.305	0.101
403.500	-4.099	0.101
403.600	-18.911	0.101
403.700	-5.205	0.101
403.800	1.858	0.101
403.900	-3.602	0.101
404.000	-8.722	0.101
404.100	-10.918	0.101
404.200	-11.825	0.101
404.300	-5.149	0.101
404.400	0.061	0.101
404.500	-2.912	0.101
404.600	-8.568	0.101
404.700	-5.414	0.101
404.800	-8.116	0.101
404.900	-8.711	0.101
405.000	-13.568	0.101
405.100	-5.322	0.101
405.200	-8.269	0.101
405.300	-13.521	0.101
405.400	1.699	0.101
405.500	-3.478	0.101
405.600	-1.595	0.101
405.700	-13.525	0.101
405.800	-6.800	0.101
405.900	-5.666	0.101
406.000	8.040	0.101
406.100	-13.223	0.101
406.200	-9.393	0.101
406.300	-4.485	0.101
406.400	-4.747	0.101
406.500	-5.430	0.101
406.600	-5.147	0.101
406.700	-3.714	0.101
406.800	-2.741	0.101
406.900	-5.028	0.101
407.000	-8.923	0.101
407.100	-4.454	0.101
407.200	-12.419	0.101
407.300	-10.915	0.101
407.400	-7.838	0.101
407.500	2.459	0.101
407.600	5.777	0.101
407.700	3.003	0.101
407.800	-4.327	0.101
407.900	-4.115	0.101
408.000	-7.183	0.101
408.100	-5.927	0.101
408.200	-16.915	0.101
408.300	-8.527	0.101
408.400	-17.078	0.101
408.500	-15.397	0.101
408.600	-0.743	0.101
408.700	5.569	0.101
408.800	-5.748	0.101
408.900	-9.280	0.101
409.000	-13.836	0.101
409.100	-7.384	0.101
409.200	-13.853	0.101
409.300	-5.836	0.101
409.400	-10.282	0.101
409.500	-11.398	0.101
409.600	-8.789	0.101
409.700	-6.721	0.101
409.800	-13.616	0.101
409.900	-4.977	0.101
410.000	-11.377	0.101
410.100	-13.286	0.101
410.200	-9.904	0.101
410.300	-10.607	0.101
410.400	-0.767	0.101
410.500	-10.602	0.101
410.600	-16.654	0.101
410.700	-17.688	0.101
410.800	-11.449	0.101
410.900	-4.553	0.101
411.000	-3.923	0.101
411.100	-14.073	0.101
411.200	-11.969	0.101
411.300	-3.591	0.101
411.400	-7.158	0.101
411.500	-12.092	0.101
411.600	-6.240	0.101
411.700	-11.002	0.101
411.800	-14.046	0.101
411.900	-7.224	0.101
412.000	-7.888	0.101
412.100	-7.870	0.101
412.200	-13.336	0.101
412.300	-3.650	0.101
412.400	-13.462	0.101
412.500	-10.232	0.101
412.600	-7.209	0.101
412.700	-9.205	0.101
412.800	-1.303	0.101
412.900	-8.834	0.101
413.000	-23.692	0.101
413.100	-16.889	0.101
413.200	-9.154	0.101
413.300	-9.518	0.101
413.400	-14.134	0.101
413.500	-6.478	0.101
413.600	-11.800	0.101
413.700	-7.415	0.101
413.800	-17.267	0.101
413.900	-5.977	0.101
414.000	-4.534	0.101
414.100	-13.108	0.101
414.200	-12.035	0.101
414.300	-14.607	0.101
414.400	-15.099	0.101
414.500	-9.592	0.101
414.600	3.094	0.101
414.700	-4.872	0.101
414.800	-11.451	0.101
414.900	-12.031	0.101
415.000	-6.114	0.101
415.100	-13.175	0.101
415.200	-20.659	0.101
415.300	-12.447	0.101
415.400	-11.175	0.101
415.500	-13.724	0.101
415.600	-9.815	0.101
415.700	-16.306	0.101
415.800	-12.942	0.101
415.900	-11.699	0.101
416.000	-9.512	0.101
416.100	-6.647	0.101
416.200	-13.871	0.101
416.300	-14.127	0.101
416.400	-17.984	0.101
416.500	-15.351	0.101
416.600	-16.510	0.101
416.700	-21.889	0.101
416.800	-10.713	0.101
416.900	-9.364	0.101
417.000	-10.231	0.101
417.100	-11.895	0.101
417.200	-8.196	0.101
417.300	-13.242	0.101
417.400	-21.028	0.101
417.500	-12.085	0.101
417.600	-16.304	0.101
417.700	-14.808	0.101
417.800	-0.912	0.101
417.900	-4.019	0.101
418.000	-15.437	0.101
418.100	-18.167	0.101
418.200	-11.865	0.101
418.300	-16.485	0.101
418.400	-12.129	0.101
418.500	-10.450	0.101
418.600	-10.796	0.101
418.700	-18.155	0.101
418.800	-3.888	0.101
418.900	-16.297	0.101
419.000	-14.478	0.101
419.100	-26.283	0.101
419.200	-21.605	0.101
419.300	-8.319	0.101
419.400	-4.554	0.101
419.500	-14.659	0.101
419.600	-7.139	0.101
419.700	-14.326	0.101
419.800	-7.387	0.101
419.900	-6.295	0.101
420.000	-12.295	0.101
420.100	-9.867	0.101
420.200	-13.610	0.101
420.300	-9.255	0.101
420.400	-20.542	0.101
420.500	-12.035	0.101
420.600	-16.471	0.101
420.700	-12.992	0.101
420.800	-11.319	0.101
420.900	-6.729	0.101
421.000	-17.603	0.101
421.100	-19.588	0.101
421.200	-15.019	0.101
421.300	-19.853	0.101
421.400	-18.872	0.101
421.500	-22.036	0.101
421.600	-16.268	0.101
421.700	-14.430	0.101
421.800	-15.392	0.101
421.900	-12.103	0.101
422.000	-5.295	0.101
422.100	-15.618	0.101
422.200	-15.688	0.101
422.300	-7.029	0.101
422.400	-11.401	0.101
422.500	-20.471	0.101
422.600	-6.125	0.101
422.700	-14.140	0.101
422.800	-11.709	0.101
422.900	-14.193	0.101
423.000	-10.566	0.101
423.100	-14.039	0.101
423.200	-13.043	0.101
423.300	-13.565	0.101
423.400	-9.533	0.101
423.500	-10.106	0.101
423.600	-15.284	0.101
423.700	-10.683	0.101
423.800	-9.272	0.101
423.900	-21.237	0.101
424.000	-21.960	0.101
424.100	-6.600	0.101
424.200	-3.495	0.101
424.300	-20.332	0.101
424.400	-11.608	0.101
424.500	-21.919	0.101
424.600	-21.508	0.101
424.700	-11.789	0.101
424.800	-12.879	0.101
424.900	-19.233	0.101
425.000	-18.198	0.101
425.100	-16.860	0.101
425.200	-5.585	0.101
425.300	-23.234	0.101
425.400	-11.989	0.101
425.500	-8.999	0.101
425.600	-14.633	0.101
425.700	-17.651	0.101
425.800	-8.697	0.101
425.900	-12.009	0.101
426.000	-6.842	0.101
426.100	-15.356	0.101
426.200	-10.489	0.101
426.300	-13.053	0.101
426.400	-19.097	0.101
426.500	-20.807	0.101
426.600	-14.773	0.101
426.700	-20.480	0.101
426.800	-12.623	0.101
426.900	-20.740	0.101
427.000	-17.642	0.101
427.100	-13.405	0.101
427.200	-23.409	0.101
427.300	-11.128	0.101
427.400	-7.470	0.101
427.500	-24.808	0.101
427.600	-16.657	0.101
427.700	-10.001	0.101
427.800	-15.383	0.101
427.900	-12.604	0.101
428.000	-18.688	0.101
428.100	-11.905	0.101
428.200	-4.332	0.101
428.300	-16.093	0.101
428.400	-15.027	0.101
428.500	-25.939	0.101
428.600	-11.971	0.101
428.700	-11.345	0.101
428.800	-20.851	0.101
428.900	-17.912	0.101
429.000	-17.368	0.101
429.100	-19.834	0.101
429.200	-13.831	0.101
429.300	-14.946	0.101
429.400	-13.649	0.101
429.500	-15.753	0.101
429.600	-9.654	0.101
429.700	-16.956	0.101
429.800	-13.094	0.101
429.900	-14.974	0.101
430.000	-28.421	0.100
430.100	-8.504	0.101
430.200	-11.165	0.101
430.300	-3.140	0.101
430.400	-13.484	0.101
430.500	-10.741	0.101
430.600	-14.885	0.101
430.700	-7.690	0.101
430.800	-22.428	0.101
430.900	-14.943	0.101
431.000	-8.910	0.101
431.100	-21.956	0.101
431.200	-19.421	0.101
431.300	-20.124	0.101
431.400	-13.583	0.101
431.500	-25.865	0.101
431.600	-13.962	0.101
431.700	-13.016	0.101
431.800	-13.368	0.101
431.900	-17.821	0.101
432.000	-16.231	0.101
432.100	-13.199	0.101
432.200	-12.334	0.100
432.300	-21.354	0.101
432.400	-18.161	0.101
432.500	-18.231	0.101
432.600	-11.816	0.101
432.700	-10.705	0.101
432.800	-10.186	0.101
432.900	-16.643	0.101
433.000	-18.882	0.100
433.100	-3.907	0.101
433.200	-15.034	0.101
433.300	-20.276	0.101
433.400	-10.504	0.101
433.500	-9.425	0.100
433.600	-10.910	0.101
433.700	-16.180	0.101
433.800	-11.703	0.101
433.900	-8.929	0.101
434.000	-17.666	0.101
434.100	-6.697	0.101
434.200	-18.774	0.101
434.300	-18.702	0.101
434.400	-11.804	0.101
434.500	-25.276	0.100
434.600	-7.834	0.101
434.700	-17.532	0.101
434.800	-9.072	0.101
434.900	-15.030	0.101
435.000	-17.543	0.101
435.100	-16.139	0.101
435.200	-11.783	0.101
435.300	-12.140	0.101
435.400	-6.671	0.101
435.500	-21.548	0.101
435.600	-10.428	0.101
435.700	-19.261	0.101
435.800	-15.711	0.101
435.900	-17.792	0.101
436.000	-18.504	0.101
436.100	-21.899	0.101
436.200	-12.921	0.101
436.300	-12.260	0.101
436.400	-11.952	0.101
436.500	-15.998	0.101
436.600	-10.777	0.101
436.700	-12.116	0.101
436.800	-21.272	0.101
436.900	-17.825	0.101
437.000	-15.944	0.101
437.100	-16.014	0.101
437.200	-9.717	0.101
437.300	-14.096	0.101
437.400	-12.522	0.101
437.500	-19.721	0.101
437.600	-16.880	0.101
437.700	-10.922	0.101
437.800	-10.720	0.101
437.900	-17.405	0.101
438.000	-22.737	0.101
438.100	-12.333	0.101
438.200	-15.594	0.101
438.300	-14.907	0.101
438.400	-18.240	0.101
438.500	-13.827	0.101
438.600	-18.172	0.101
438.700	-22.092	0.101
438.800	-12.256	0.101
438.900	-6.028	0.101
439.000	-7.450	0.101
439.100	-15.032	0.101
439.200	-8.214	0.101
439.300	-18.355	0.101
439.400	-13.691	0.101
439.500	-6.115	0.101
439.600	-6.800	0.101
439.700	-24.052	0.101
439.800	-14.987	0.100
439.900	-11.060	0.101
440.000	2.529	0.101
440.100	-20.030	0.101
440.200	-9.847	0.101
440.300	-13.942	0.101
440.400	-12.820	0.101
440.500	-11.532	0.101
440.600	-10.670	0.101
440.700	-13.873	0.101
440.800	-16.667	0.101
440.900	-10.812	0.101
441.000	-12.754	0.101
441.100	-13.902	0.101
441.200	-18.623	0.101
441.300	-13.388	0.101
441.400	-7.444	0.101
441.500	-22.970	0.101
441.600	-7.281	0.101
441.700	-20.072	0.101
441.800	-22.297	0.101
441.900	-23.740	0.101
442.000	-5.813	0.101
442.100	-9.806	0.101
442.200	-18.453	0.101
442.300	-8.748	0.101
442.400	-12.252	0.101
442.500	-10.102	0.101
442.600	-11.651	0.101
442.700	-15.845	0.101
442.800	-12.429	0.101
442.900	-13.975	0.101
443.000	-15.123	0.101
443.100	-14.643	0.101
443.200	-15.448	0.101
443.300	-19.599	0.101
443.400	-7.997	0.101
443.500	-16.750	0.101
443.600	-20.628	0.101
443.700	-20.189	0.101
443.800	-13.411	0.101
443.900	-2.843	0.101
444.000	-5.025	0.101
444.100	-15.398	0.101
444.200	-11.089	0.101
444.300	-10.767	0.101
444.400	-9.127	0.101
444.500	-22.144	0.100
444.600	-21.729	0.101
444.700	-19.694	0.101
444.800	-5.068	0.101
444.900	-12.447	0.101
445.000	-1.806	0.101
445.100	-14.972	0.101
445.200	-22.549	0.101
445.300	-25.046	0.101
445.400	-8.495	0.101
445.500	-8.800	0.101
445.600	-17.074	0.101
445.700	-18.213	0.101
445.800	-19.418	0.100
445.900	-9.709	0.101
446.000	-9.570	0.101
446.100	-0.920	0.101
446.200	-12.306	0.101
446.300	-4.439	0.101
446.400	-12.447	0.101
446.500	-16.088	0.101
446.600	-10.095	0.101
446.700	-10.899	0.101
446.800	-7.981	0.101
446.900	-9.176	0.101
447.000	-11.322	0.101
447.100	-12.409	0.101
447.200	-18.320	0.101
447.300	-11.310	0.101
447.400	-15.430	0.101
447.500	-12.219	0.101
447.600	-13.270	0.101
447.700	-18.493	0.101
447.800	-6.962	0.101
447.900	-13.962	0.101
448.000	-13.510	0.101
448.100	-17.935	0.100
448.200	-16.083	0.101
448.300	-19.397	0.101
448.400	-9.366	0.101
448.500	-13.061	0.101
448.600	-11.533	0.101
448.700	-4.596	0.101
448.800	-12.134	0.101
448.900	-19.988	0.101
449.000	-15.984	0.101
449.100	-9.741	0.101
449.200	-17.751	0.101
449.300	-9.914	0.101
449.400	-6.192	0.101
449.500	-4.219	0.101
449.600	-21.664	0.101
449.700	-11.621	0.101
449.800	-18.935	0.101
449.900	-5.363	0.101
450.000	-15.491	0.101
450.100	-11.810	0.101
450.200	-3.063	0.101
450.300	-6.724	0.101
450.400	-10.650	0.101
450.500	-15.833	0.101
450.600	-2.748	0.101
450.700	-11.771	0.101
450.800	-2.539	0.101
450.900	-13.741	0.101
451.000	-11.631	0.101
451.100	-20.340	0.101
451.200	-12.459	0.101
451.300	-5.730	0.101
451.400	-14.312	0.101
451.500	-17.786	0.101
451.600	-11.137	0.101
451.700	-9.435	0.101
451.800	-11.162	0.101
451.900	-11.714	0.101
452.000	-12.839	0.101
452.100	1.443	0.101
452.200	-8.036	0.101
452.300	-14.211	0.101
452.400	-9.168	0.101
452.500	-19.546	0.101
452.600	-12.351	0.101
452.700	-6.560	0.101
452.800	-8.594	0.101
452.900	-22.229	0.101
453.000	-14.572	0.101
453.100	-14.533	0.101
453.200	-10.552	0.101
453.300	-20.824	0.101
453.400	-20.133	0.101
453.500	-22.204	0.101
453.600	-6.994	0.101
453.700	-15.781	0.101
453.800	-6.064	0.101
453.900	-13.740	0.101
454.000	-11.388	0.101
454.100	-12.725	0.101
454.200	-12.493	0.101
454.300	-10.955	0.101
454.400	-3.242	0.101
454.500	-5.066	0.101
454.600	-11.610	0.101
454.700	-12.301	0.101
454.800	-7.509	0.101
454.900	-9.964	0.101
455.000	-15.163	0.101
455.100	-11.606	0.101
455.200	-11.433	0.101
455.300	-19.648	0.101
455.400	-12.790	0.101
455.500	-13.968	0.101
455.600	-15.632	0.101
455.700	2.870	0.101
455.800	-8.194	0.101
455.900	-22.730	0.101
456.000	-6.895	0.101
456.100	-17.113	0.101
456.200	-8.509	0.101
456.300	-13.861	0.101
456.400	-18.297	0.101
456.500	-22.072	0.101
456.600	-6.870	0.101
456.700	-5.532	0.101
456.800	-12.730	0.101
456.900	-14.016	0.101
457.000	-14.220	0.101
457.100	-22.903	0.101
457.200	-9.698	0.101
457.300	-17.969	0.101
457.400	-6.916	0.101
457.500	-0.929	0.101
457.600	-11.110	0.101
457.700	-0.299	0.101
457.800	-15.426	0.101
457.900	-6.584	0.101
458.000	-7.004	0.101
458.100	-2.436	0.101
458.200	-21.227	0.101
458.300	-16.284	0.101
458.400	-14.896	0.101
458.500	-19.944	0.101
458.600	-20.349	0.101
458.700	-12.439	0.101
458.800	-11.809	0.101
458.900	-9.559	0.101
459.000	1.194	0.101
459.100	-11.691	0.101
459.200	-10.427	0.101
459.300	-10.837	0.101
459.400	-1.121	0.101
459.500	-12.394	0.101
459.600	-16.622	0.101
459.700	-9.601	0.101
459.800	-5.340	0.101
459.900	-11.953	0.101
460.000	-14.650	0.101
460.100	-20.236	0.101
460.200	-14.881	0.101
460.300	-15.544	0.101
460.400	-17.382	0.101
460.500	-13.122	0.101
460.600	-6.964	0.101
460.700	-6.689	0.101
460.800	-12.976	0.101
460.900	-10.899	0.101
461.000	-6.980	0.101
461.100	-4.560	0.101
461.200	-11.365	0.101
461.300	-16.895	0.101
461.400	-8.378	0.101
461.500	-9.269	0.101
461.600	-19.596	0.101
461.700	-6.387	0.101
461.800	2.913	0.101
461.900	-8.877	0.101
462.000	-9.933	0.101
462.100	-16.112	0.101
462.200	-12.954	0.101
462.300	-13.313	0.101
462.400	-18.227	0.101
462.500	-14.399	0.101
462.600	-22.946	0.101
462.700	-7.758	0.101
462.800	-6.361	0.101
462.900	-3.133	0.101
463.000	-10.212	0.101
463.100	-4.495	0.101
463.200	-5.461	0.101
463.300	-2.974	0.101
463.400	-22.974	0.101
463.500	-8.539	0.101
463.600	-9.614	0.101
463.700	-12.582	0.101
463.800	-13.628	0.101
463.900	-11.303	0.101
464.000	-14.024	0.101
464.100	-6.147	0.101
464.200	-14.640	0.101
464.300	1.419	0.101
464.400	-12.742	0.101
464.500	-12.468	0.101
464.600	-7.973	0.101
464.700	-13.645	0.101
464.800	-13.880	0.101
464.900	-22.034	0.101
465.000	-23.168	0.101
465.100	-8.694	0.101
465.200	-2.782	0.101
465.300	-8.749	0.101
465.400	-17.930	0.101
465.500	-4.565	0.101
465.600	-19.219	0.101
465.700	-1.843	0.101
465.800	-7.028	0.101
465.900	-21.192	0.101
466.000	-15.832	0.101
466.100	-13.313	0.101
466.200	-11.406	0.101
466.300	-5.540	0.101
466.400	-19.546	0.101
466.500	-16.746	0.101
466.600	-8.312	0.101
466.700	2.734	0.101
466.800	-22.477	0.101
466.900	-5.428	0.101
467.000	-12.771	0.101
467.100	-6.594	0.101
467.200	-8.119	0.101
467.300	-11.971	0.101
467.400	-11.559	0.101
467.500	-10.949	0.101
467.600	-8.323	0.101
467.700	-11.360	0.101
467.800	-16.292	0.101
467.900	-8.532	0.101
468.000	-6.090	0.101
468.100	-5.016	0.101
468.200	-10.766	0.101
468.300	-10.969	0.101
468.400	-13.167	0.101
468.500	-4.687	0.101
468.600	-12.231	0.101
468.700	-13.943	0.101
468.800	-12.140	0.101
468.900	-10.223	0.101
469.000	-11.387	0.101
469.100	-12.132	0.101
469.200	-18.609	0.101
469.300	-12.112	0.101
469.400	-7.478	0.101
469.500	-2.523	0.101
469.600	-14.335	0.101
469.700	-13.570	0.101
469.800	-11.320	0.101
469.900	-4.813	0.101
470.000	-11.441	0.101
470.100	-4.009	0.101
470.200	-13.753	0.101
470.300	-10.624	0.101
470.400	-15.880	0.101
470.500	-3.650	0.101
470.600	-9.803	0.101
470.700	-16.153	0.101
470.800	-6.258	0.101
470.900	-2.858	0.101
471.000	-11.796	0.101
471.100	-12.175	0.101
471.200	-8.802	0.101
471.300	-14.324	0.101
471.400	-5.883	0.101
471.500	-12.021	0.101
471.600	-16.769	0.101
471.700	-21.811	0.101
471.800	-7.821	0.101
471.900	-7.384	0.101
472.000	-12.306	0.101
472.100	-9.082	0.101
472.200	-7.106	0.101
472.300	-6.901	0.101
472.400	-10.810	0.101
472.500	-8.999	0.101
472.600	-10.565	0.101
472.700	-8.244	0.101
472.800	-4.057	0.101
472.900	-9.489	0.101
473.000	-11.574	0.101
473.100	-11.471	0.101
473.200	-13.131	0.101
473.300	-13.923	0.101
473.400	-3.194	0.101
473.500	-6.891	0.101
473.600	-10.139	0.101
473.700	-14.395	0.101
473.800	-12.252	0.101
473.900	-5.110	0.101
474.000	-12.851	0.101
474.100	-11.780	0.101
474.200	-6.514	0.101
474.300	-5.520	0.101
474.400	-16.242	0.101
474.500	-13.098	0.101
474.600	0.888	0.101
474.700	-10.650	0.101
474.800	-11.087	0.101
474.900	-16.227	0.101
475.000	-13.030	0.101
475.100	-15.433	0.101
475.200	-11.791	0.101
475.300	-7.984	0.101
475.400	-6.755	0.101
475.500	-14.472	0.101
475.600	-12.630	0.101
475.700	-0.897	0.101
475.800	-10.471	0.101
475.900	-8.002	0.101
476.000	-17.492	0.101
476.100	-12.426	0.101
476.200	-9.877	0.101
476.300	-12.743	0.101
476.400	-11.074	0.101
476.500	-3.473	0.101
476.600	-10.208	0.101
476.700	-2.560	0.101
476.800	-4.316	0.101
476.900	-6.783	0.101
477.000	-9.430	0.101
477.100	-9.885	0.101
477.200	-4.674	0.101
477.300	-7.501	0.101
477.400	-19.546	0.101
477.500	-18.976	0.101
477.600	-12.117	0.101
477.700	-2.394	0.101
477.800	-6.893	0.101
477.900	-9.592	0.101
478.000	-7.660	0.101
478.100	-7.197	0.101
478.200	-9.526	0.101
478.300	-10.987	0.101
478.400	-18.818	0.101
478.500	-4.138	0.101
478.600	-5.194	0.101
478.700	-14.712	0.101
478.800	-11.485	0.101
478.900	-11.793	0.101
479.000	1.502	0.101
479.100	-12.290	0.101
479.200	-6.876	0.101
479.300	2.793	0.101
479.400	-12.023	0.101
479.500	-15.000	0.101
479.600	-8.468	0.101
479.700	-13.596	0.101
479.800	-24.459	0.101
479.900	-1.227	0.101
480.000	-0.388	0.101
480.100	-14.342	0.101
480.200	-11.568	0.101
480.300	-9.949	0.101
480.400	-13.771	0.101
480.500	-5.732	0.101
480.600	-15.413	0.101
480.700	-2.061	0.101
480.800	-0.895	0.101
480.900	-2.476	0.101
481.000	-11.827	0.101
481.100	-6.523	0.101
481.200	-8.627	0.101
481.300	3.518	0.101
481.400	-3.966	0.101
481.500	-7.935	0.101
481.600	10.184	0.101
481.700	-0.855	0.101
481.800	-7.394	0.101
481.900	-8.096	0.101
482.000	6.685	0.101
482.100	-1.876	0.101
482.200	8.723	0.101
482.300	7.306	0.101
482.400	0.347	0.101
482.500	-2.746	0.101
482.600	14.684	0.101
482.700	8.098	0.101
482.800	8.463	0.101
482.900	2.940	0.101
483.000	0.739	0.101
483.100	-0.374	0.101
483.200	7.501	0.101
483.300	5.241	0.101
483.400	8.306	0.101
483.500	13.629	0.101
483.600	11.170	0.101
483.700	3.829	0.101
483.800	7.008	0.101
483.900	10.953	0.101
484.000	12.246	0.101
484.100	3.394	0.101
484.200	8.898	0.101
484.300	19.898	0.101
484.400	8.675	0.101
484.500	11.434	0.101
484.600	3.817	0.101
484.700	4.957	0.101
484.800	11.075	0.101
484.900	9.552	0.101
485.000	10.510	0.101
485.100	20.019	0.101
485.200	5.233	0.101
485.300	7.988	0.101
485.400	11.016	0.101
485.500	10.569	0.101
485.600	18.533	0.101
485.700	8.865	0.101
485.800	-0.228	0.101
485.900	9.181	0.101
486.000	10.944	0.101
486.100	11.204	0.101
486.200	18.879	0.101
486.300	17.414	0.101
486.400	4.182	0.101
486.500	-1.138	0.101
486.600	5.806	0.101
486.700	8.164	0.101
486.800	5.856	0.101
486.900	11.511	0.101
487.000	1.964	0.101
487.100	1.922	0.101
487.200	7.158	0.101
487.300	2.455	0.101
487.400	13.984	0.101
487.500	4.742	0.101
487.600	10.263	0.101
487.700	5.047	0.101
487.800	11.462	0.101
487.900	5.994	0.101
488.000	8.243	0.101
488.100	5.536	0.101
488.200	12.085	0.101
488.300	2.031	0.101
488.400	4.544	0.101
488.500	3.368	0.101
488.600	9.078	0.101
488.700	6.565	0.101
488.800	1.918	0.101
488.900	-1.490	0.101
489.000	4.037	0.101
489.100	5.535	0.101
489.200	14.008	0.101
489.300	0.205	0.101
489.400	9.165	0.101
489.500	6.850	0.101
489.600	11.198	0.101
489.700	-1.605	0.101
489.800	1.297	0.101
489.900	3.516	0.101
490.000	3.398	0.101
490.100	10.342	0.101
490.200	14.003	0.101
490.300	10.625	0.101
490.400	10.926	0.101
490.500	5.818	0.101
490.600	1.880	0.101
490.700	0.965	0.101
490.800	3.124	0.101
490.900	4.436	0.101
491.000	12.115	0.101
491.100	6.001	0.101
491.200	20.028	0.101
491.300	3.737	0.101
491.400	4.229	0.101
491.500	4.429	0.101
491.600	-1.461	0.101
491.700	-4.910	0.101
491.800	7.096	0.101
491.900	5.185	0.101
492.000	7.132	0.101
492.100	9.139	0.101
492.200	11.975	0.101
492.300	3.910	0.101
492.400	3.227	0.101
492.500	3.644	0.101
492.600	1.374	0.101
492.700	4.771	0.101
492.800	12.524	0.101
492.900	3.159	0.101
493.000	9.211	0.101
493.100	15.598	0.101
493.200	-1.346	0.101
493.300	7.761	0.101
493.400	0.791	0.101
493.500	7.123	0.101
493.600	5.486	0.101
493.700	-6.489	0.101
493.800	8.742	0.101
493.900	3.218	0.101
494.000	8.000	0.101
494.100	10.756	0.101
494.200	0.137	0.101
494.300	2.666	0.101
494.400	-3.992	0.101
494.500	14.762	0.101
494.600	4.045	0.101
494.700	-4.294	0.101
494.800	13.998	0.101
494.900	0.040	0.101
495.000	13.324	0.101
495.100	3.003	0.101
495.200	1.075	0.101
495.300	8.454	0.101
495.400	3.643	0.101
495.500	-1.399	0.101
495.600	11.284	0.101
495.700	2.470	0.101
495.800	10.224	0.101
495.900	8.446	0.101
496.000	15.993	0.101
496.100	9.590	0.101
496.200	8.408	0.101
496.300	3.299	0.101
496.400	11.258	0.101
496.500	-1.782	0.101
496.600	8.964	0.101
496.700	8.122	0.101
496.800	11.540	0.101
496.900	2.725	0.101
497.000	6.721	0.101
497.100	4.639	0.101
497.200	6.175	0.101
497.300	8.105	0.101
497.400	9.101	0.101
497.500	3.393	0.101
497.600	1.600	0.101
497.700	2.552	0.101
497.800	5.693	0.101
497.900	5.410	0.101
498.000	18.166	0.101
498.100	3.719	0.101
498.200	13.463	0.101
498.300	14.664	0.101
498.400	8.453	0.101
498.500	15.748	0.101
498.600	6.613	0.101
498.700	9.330	0.101
498.800	5.194	0.101
498.900	-1.675	0.101
499.000	7.272	0.101
499.100	12.089	0.101
499.200	11.008	0.101
499.300	12.772	0.101
499.400	12.668	0.101
499.500	12.297	0.101
499.600	2.316	0.101
499.700	6.544	0.101
499.800	4.482	0.101
499.900	0.665	0.101
500.000	7.070	0.101
500.100	9.008	0.101
500.200	13.065	0.101
500.300	17.477	0.101
500.400	10.609	0.101
500.500	11.927	0.101
500.600	15.544	0.101
500.700	11.202	0.101
500.800	13.081	0.101
500.900	6.068	0.101
501.000	13.993	0.101
501.100	10.070	0.101
501.200	17.552	0.101
501.300	6.765	0.101
501.400	-0.511	0.101
501.500	12.092	0.101
501.600	13.831	0.101
501.700	15.559	0.101
501.800	10.464	0.101
501.900	4.963	0.101
502.000	15.249	0.101
502.100	8.090	0.101
502.200	15.740	0.101
502.300	11.574	0.101
502.400	19.214	0.101
502.500	2.486	0.101
502.600	8.606	0.101
502.700	12.274	0.101
502.800	11.187	0.101
502.900	8.450	0.101
503.000	14.275	0.101
503.100	9.878	0.101
503.200	6.582	0.101
503.300	11.400	0.101
503.400	16.580	0.101
503.500	10.805	0.101
503.600	6.668	0.101
503.700	4.605	0.101
503.800	19.041	0.101
503.900	15.926	0.101
504.000	15.617	0.101
504.100	9.033	0.101
504.200	16.517	0.101
504.300	6.602	0.101
504.400	7.717	0.101
504.500	8.415	0.101
504.600	8.340	0.101
504.700	5.235	0.101
504.800	19.107	0.101
504.900	13.338	0.101
505.000	11.028	0.101
505.100	15.634	0.101
505.200	-0.861	0.101
505.300	19.610	0.101
505.400	11.662	0.101
505.500	7.227	0.101
505.600	8.033	0.101
505.700	6.347	0.101
505.800	12.115	0.101
505.900	4.980	0.101
506.000	16.509	0.101
506.100	17.305	0.101
506.200	7.928	0.101
506.300	12.624	0.101
506.400	23.207	0.101
506.500	8.272	0.101
506.600	12.464	0.101
506.700	9.089	0.101
506.800	12.053	0.101
506.900	10.451	0.101
507.000	14.070	0.101
507.100	13.060	0.101
507.200	20.544	0.101
507.300	8.100	0.101
507.400	15.215	0.101
507.500	1.582	0.101
507.600	12.237	0.101
507.700	16.154	0.101
507.800	14.668	0.101
507.900	7.701	0.101
508.000	18.026	0.101
508.100	23.779	0.101
508.200	17.310	0.101
508.300	3.348	0.101
508.400	2.155	0.101
508.500	12.327	0.101
508.600	14.094	0.101
508.700	20.282	0.101
508.800	9.555	0.101
508.900	2.896	0.101
509.000	11.603	0.101
509.100	20.896	0.101
509.200	12.655	0.101
509.300	20.161	0.101
509.400	17.227	0.101
509.500	11.487	0.101
509.600	13.954	0.101
509.700	20.816	0.101
509.800	18.211	0.101
509.900	16.103	0.101
510.000	8.970	0.101
510.100	15.401	0.101
510.200	19.771	0.101
510.300	14.443	0.101
510.400	22.408	0.101
510.500	4.405	0.101
510.600	11.270	0.101
510.700	6.742	0.101
510.800	7.957	0.101
510.900	14.484	0.101
511.000	13.362	0.101
511.100	6.591	0.101
511.200	18.257	0.101
511.300	14.760	0.101
511.400	13.467	0.101
511.500	13.751	0.101
511.600	10.355	0.101
511.700	15.954	0.101
511.800	13.784	0.101
511.900	6.333	0.101
512.000	12.465	0.101
512.100	26.675	0.101
512.200	21.021	0.101
512.300	10.413	0.101
512.400	16.819	0.101
512.500	20.701	0.101
512.600	12.731	0.101
512.700	14.322	0.101
512.800	11.057	0.101
512.900	13.866	0.101
513.000	14.185	0.101
513.100	18.641	0.101
513.200	8.858	0.101
513.300	13.739	0.101
513.400	19.247	0.101
513.500	23.608	0.101
513.600	17.322	0.101
513.700	19.340	0.101
513.800	13.707	0.101
513.900	15.000	0.101
514.000	4.284	0.101
514.100	13.522	0.101
514.200	18.265	0.101
514.300	17.011	0.101
514.400	11.877	0.101
514.500	18.408	0.101
514.600	6.215	0.101
514.700	13.162	0.101
514.800	16.069	0.101
514.900	15.268	0.101
515.000	12.141	0.101
515.100	2.943	0.101
515.200	17.140	0.101
515.300	27.924	0.101
515.400	12.546	0.101
515.500	16.527	0.101
515.600	24.630	0.101
515.700	12.884	0.101
515.800	12.472	0.101
515.900	11.888	0.101
516.000	15.674	0.101
516.100	5.301	0.101
516.200	8.341	0.101
516.300	11.452	0.101
516.400	20.817	0.101
516.500	20.598	0.101
516.600	1.703	0.101
516.700	22.910	0.101
516.800	16.205	0.101
516.900	19.536	0.101
517.000	24.215	0.101
517.100	31.195	0.101
517.200	13.435	0.101
517.300	26.284	0.101
517.400	10.505	0.101
517.500	14.015	0.101
517.600	23.496	0.101
517.700	19.556	0.101
517.800	14.181	0.101
517.900	12.093	0.101
518.000	12.520	0.101
518.100	19.696	0.101
518.200	13.528	0.101
518.300	14.063	0.101
518.400	11.476	0.101
518.500	8.208	0.101
518.600	15.744	0.101
518.700	29.375	0.101
518.800	12.584	0.101
518.900	6.638	0.101
519.000	12.806	0.101
519.100	21.057	0.101
519.200	17.328	0.101
519.300	14.715	0.101
519.400	18.804	0.101
519.500	20.562	0.101
519.600	15.647	0.101
519.700	24.796	0.101
519.800	7.610	0.101
519.900	20.438	0.101
520.000	13.151	0.101
520.100	11.823	0.101
520.200	13.727	0.101
520.300	12.740	0.101
520.400	17.546	0.101
520.500	14.926	0.101
520.600	-0.920	0.101
520.700	12.427	0.101
520.800	8.476	0.101
520.900	25.170	0.101
521.000	16.986	0.101
521.100	15.236	0.101
521.200	1.717	0.101
521.300	17.985	0.101
521.400	23.607	0.101
521.500	29.203	0.101
521.600	15.255	0.101
521.700	27.802	0.101
521.800	7.069	0.101
521.900	18.558	0.101
522.000	12.324	0.101
522.100	10.890	0.101
522.200	16.946	0.101
522.300	21.837	0.101
522.400	20.693	0.101
522.500	18.951	0.101
522.600	18.766	0.101
522.700	27.253	0.101
522.800	14.891	0.101
522.900	13.749	0.101
523.000	16.984	0.101
523.100	5.681	0.101
523.200	21.330	0.101
523.300	20.192	0.101
523.400	17.870	0.101
523.500	16.177	0.101
523.600	7.494	0.101
523.700	8.875	0.101
523.800	13.918	0.101
523.900	16.652	0.101
524.000	17.155	0.101
524.100	27.062	0.101
524.200	19.507	0.101
524.300	21.006	0.101
524.400	12.201	0.101
524.500	11.295	0.101
524.600	19.967	0.101
524.700	26.304	0.101
524.800	19.720	0.101
524.900	14.266	0.101
525.000	15.939	0.101
525.100	19.500	0.101
525.200	16.213	0.101
525.300	16.591	0.101
525.400	20.161	0.101
525.500	17.419	0.101
525.600	12.527	0.101
525.700	3.302	0.101
525.800	19.791	0.101
525.900	14.113	0.101
526.000	18.356	0.101
526.100	18.983	0.101
526.200	18.732	0.101
526.300	11.847	0.101
526.400	21.707	0.101
526.500	18.605	0.101
526.600	18.755	0.101
526.700	17.727	0.101
526.800	7.948	0.101
526.900	9.043	0.101
527.000	21.755	0.101
527.100	16.792	0.101
527.200	15.567	0.101
527.300	16.095	0.101
527.400	12.724	0.101
527.500	19.929	0.101
527.600	20.150	0.101
527.700	24.389	0.101
527.800	20.295	0.101
527.900	11.218	0.101
528.000	12.626	0.101
528.100	11.739	0.101
528.200	18.043	0.101
528.300	25.814	0.101
528.400	17.402	0.101
528.500	22.173	0.101
528.600	15.801	0.101
528.700	15.403	0.101
528.800	12.460	0.101
528.900	23.421	0.101
529.000	15.272	0.101
529.100	15.336	0.101
529.200	18.401	0.101
529.300	21.983	0.101
529.400	15.082	0.101
529.500	22.314	0.101
529.600	10.447	0.101
529.700	21.241	0.101
529.800	20.047	0.101
529.900	13.489	0.101
530.000	19.795	0.101
530.100	14.946	0.101
530.200	19.063	0.101
530.300	16.961	0.101
530.400	16.443	0.101
530.500	10.321	0.101
530.600	19.190	0.101
530.700	25.400	0.101
530.800	19.775	0.101
530.900	17.406	0.101
531.000	16.826	0.101
531.100	15.298	0.101
531.200	9.870	0.101
531.300	8.485	0.101
531.400	18.559	0.101
531.500	22.045	0.101
531.600	12.108	0.101
531.700	18.127	0.101
531.800	13.254	0.101
531.900	28.286	0.101
532.000	19.072	0.101
532.100	15.590	0.101
532.200	6.224	0.101
532.300	26.234	0.101
532.400	15.547	0.101
532.500	14.218	0.101
532.600	15.112	0.101
532.700	24.538	0.101
532.800	16.189	0.101
532.900	17.846	0.101
533.000	14.740	0.101
533.100	6.848	0.101
533.200	6.238	0.101
533.300	14.860	0.101
533.400	23.333	0.101
533.500	19.064	0.101
533.600	19.392	0.101
533.700	16.816	0.101
533.800	19.390	0.101
533.900	26.690	0.101
534.000	21.189	0.101
534.100	16.286	0.101
534.200	19.220	0.101
534.300	12.304	0.101
534.400	15.222	0.101
534.500	18.020	0.101
534.600	9.804	0.101
534.700	8.451	0.101
534.800	10.270	0.101
534.900	19.688	0.101
535.000	18.193	0.101
535.100	8.339	0.101
535.200	15.071	0.101
535.300	13.716	0.101
535.400	17.334	0.101
535.500	14.438	0.101
535.600	7.367	0.101
535.700	24.719	0.101
535.800	25.598	0.101
535.900	19.300	0.101
536.000	19.444	0.101
536.100	9.692	0.101
536.200	9.746	0.101
536.300	14.481	0.101
536.400	21.652	0.101
536.500	13.870	0.101
536.600	22.810	0.101
536.700	22.670	0.101
536.800	16.763	0.101
536.900	19.004	0.101
537.000	26.326	0.101
537.100	25.654	0.101
537.200	23.496	0.101
537.300	13.197	0.101
537.400	18.384	0.101
537.500	14.273	0.101
537.600	14.743	0.101
537.700	18.654	0.101
537.800	13.573	0.101
537.900	16.586	0.101
538.000	19.195	0.101
538.100	10.316	0.101
538.200	21.151	0.101
538.300	14.689	0.101
538.400	15.130	0.101
538.500	7.384	0.101
538.600	10.977	0.101
538.700	18.510	0.101
538.800	22.365	0.101
538.900	17.908	0.101
539.000	15.843	0.101
539.100	14.466	0.101
539.200	9.414	0.101
539.300	15.239	0.101
539.400	19.113	0.101
539.500	10.854	0.101
539.600	22.799	0.101
539.700	16.415	0.101
539.800	17.735	0.101
539.900	15.397	0.101
540.000	12.828	0.101
540.100	15.850	0.101
540.200	15.997	0.101
540.300	14.830	0.101
540.400	20.378	0.101
540.500	15.169	0.101
540.600	23.169	0.101
540.700	27.190	0.101
540.800	8.247	0.101
540.900	20.345	0.101
541.000	13.826	0.101
541.100	22.016	0.101
541.200	6.717	0.101
541.300	3.106	0.101
541.400	24.466	0.101
541.500	18.304	0.101
541.600	13.374	0.101
541.700	4.385	0.101
541.800	5.345	0.101
541.900	11.571	0.101
542.000	16.208	0.101
542.100	14.843	0.101
542.200	8.655	0.101
542.300	11.932	0.101
542.400	8.716	0.101
542.500	2.396	0.101
542.600	7.845	0.101
542.700	13.990	0.101
542.800	12.312	0.101
542.900	3.752	0.101
543.000	-0.392	0.101
543.100	5.170	0.101
543.200	11.878	0.101
543.300	-0.608	0.101
543.400	4.169	0.101
543.500	-0.420	0.101
543.600	2.760	0.101
543.700	11.160	0.101
543.800	0.182	0.101
543.900	3.901	0.101
544.000	4.847	0.101
544.100	-0.121	0.101
544.200	1.632	0.101
544.300	11.436	0.101
544.400	-0.213	0.101
544.500	7.248	0.101
544.600	-6.944	0.101
544.700	-0.192	0.101
544.800	5.386	0.101
544.900	4.842	0.101
545.000	4.632	0.101
545.100	8.165	0.101
545.200	-6.101	0.101
545.300	-3.636	0.101
545.400	8.553	0.101
545.500	1.944	0.101
545.600	5.594	0.101
545.700	13.157	0.101
545.800	-2.623	0.101
545.900	-2.281	0.101
546.000	3.599	0.101
546.100	0.925	0.101
546.200	-1.608	0.101
546.300	-3.552	0.101
546.400	0.042	0.101
546.500	-5.884	0.101
546.600	0.623	0.101
546.700	-7.930	0.101
546.800	6.965	0.101
546.900	1.363	0.101
547.000	7.804	0.101
547.100	7.796	0.101
547.200	3.507	0.101
547.300	-2.913	0.101
547.400	2.116	0.101
547.500	6.136	0.101
547.600	-3.681	0.101
547.700	4.156	0.101
547.800	-4.776	0.101
547.900	3.595	0.101
548.000	2.779	0.101
548.100	-3.583	0.101
548.200	-2.998	0.101
548.300	-4.315	0.101
548.400	-3.103	0.101
548.500	-3.983	0.101
548.600	5.305	0.101
548.700	-0.007	0.101
548.800	-1.387	0.101
548.900	7.028	0.101
549.000	9.704	0.101
549.100	0.952	0.101
549.200	1.107	0.101
549.300	-11.424	0.101
549.400	1.207	0.101
549.500	3.187	0.101
549.600	-1.336	0.101
549.700	-1.351	0.101
549.800	-3.186	0.101
549.900	13.061	0.101
550.000	-2.730	0.101
550.100	-1.372	0.101
550.200	-2.092	0.101
550.300	4.755	0.101
550.400	-0.982	0.101
550.500	-6.745	0.101
550.600	3.136	0.101
550.700	-0.963	0.101
550.800	0.192	0.101
550.900	2.014	0.101
551.000	-5.047	0.100
551.100	-1.979	0.101
551.200	-0.582	0.101
551.300	-8.536	0.100
551.400	3.753	0.101
551.500	1.111	0.101
551.600	-5.386	0.100
551.700	1.828	0.101
551.800	-10.886	0.101
551.900	-2.580	0.101
552.000	1.112	0.101
552.100	-7.087	0.100
552.200	-0.347	0.100
552.300	1.637	0.100
552.400	2.635	0.100
552.500	-4.160	0.100
552.600	-2.216	0.100
552.700	-7.963	0.100
552.800	-9.093	0.100
552.900	-0.198	0.100
553.000	-0.342	0.100
553.100	-4.199	0.100
553.200	-6.899	0.100
553.300	-5.250	0.100
553.400	2.632	0.100
553.500	0.578	0.100
553.600	0.567	0.100
553.700	-11.038	0.100
553.800	-5.005	0.100
553.900	-5.340	0.100
554.000	-4.291	0.100
554.100	1.880	0.100
554.200	-1.364	0.100
554.300	-20.941	0.100
554.400	-3.861	0.100
554.500	-8.800	0.100
554.600	0.146	0.100
554.700	-5.565	0.100
554.800	-2.357	0.100
554.900	-8.462	0.100
555.000	-3.131	0.100
555.100	-6.028	0.100
555.200	-5.366	0.100
555.300	-8.382	0.100
555.400	0.054	0.100
555.500	-8.494	0.100
555.600	-1.181	0.100
555.700	-13.602	0.100
555.800	-11.194	0.100
555.900	-7.162	0.100
556.000	-3.126	0.100
556.100	-14.498	0.100
556.200	2.123	0.100
556.300	-13.118	0.100
556.400	-3.676	0.100
556.500	0.226	0.100
556.600	-3.431	0.100
556.700	-9.976	0.100
556.800	-3.725	0.100
556.900	9.350	0.100
557.000	-8.312	0.100
557.100	-4.570	0.100
557.200	-6.953	0.100
557.300	-11.183	0.100
557.400	3.650	0.100
557.500	-9.349	0.100
557.600	-3.914	0.100
557.700	-6.561	0.100
557.800	-2.780	0.100
557.900	-9.290	0.100
558.000	-16.784	0.100
558.100	-9.734	0.100
558.200	-1.075	0.100
558.300	-0.416	0.100
558.400	-5.529	0.100
558.500	-12.704	0.100
558.600	-15.224	0.100
558.700	-11.483	0.100
558.800	-10.911	0.100
558.900	-10.628	0.100
559.000	3.034	0.100
559.100	-14.225	0.100
559.200	-3.581	0.100
559.300	-14.110	0.100
559.400	-8.218	0.100
559.500	-8.487	0.100
559.600	-11.769	0.100
559.700	-16.011	0.100
559.800	-3.420	0.100
559.900	-4.335	0.100
560.000	-2.164	0.100
560.100	-5.053	0.100
560.200	-6.461	0.100
560.300	-16.170	0.100
560.400	-10.688	0.100
560.500	-11.678	0.100
560.600	-5.301	0.100
560.700	-7.554	0.100
560.800	-5.709	0.100
560.900	-16.250	0.100
561.000	-12.211	0.100
561.100	1.811	0.100
561.200	-9.106	0.100
561.300	-13.946	0.100
561.400	-20.075	0.100
561.500	0.433	0.100
561.600	-11.760	0.100
561.700	-6.622	0.100
561.800	-4.021	0.100
561.900	3.335	0.100
562.000	-15.110	0.100
562.100	-11.234	0.100
562.200	-12.908	0.100
562.300	-9.460	0.100
562.400	-9.516	0.100
562.500	-12.674	0.100
562.600	-3.634	0.100
562.700	-18.036	0.100
562.800	-22.354	0.100
562.900	-7.998	0.100
563.000	-7.080	0.100
563.100	-8.114	0.100
563.200	-7.755	0.100
563.300	-8.907	0.100
563.400	-10.185	0.100
563.500	-7.443	0.100
563.600	-8.070	0.100
563.700	-15.817	0.100
563.800	-2.599	0.100
563.900	-10.117	0.100
564.000	0.604	0.100
564.100	-19.795	0.100
564.200	-6.592	0.100
564.300	-6.551	0.100
564.400	-6.129	0.100
564.500	-19.772	0.100
564.600	-17.155	0.100
564.700	-14.163	0.100
564.800	-4.458	0.100
564.900	-20.129	0.100
565.000	-13.662	0.100
565.100	-10.134	0.100
565.200	-13.594	0.100
565.300	-12.510	0.100
565.400	-4.582	0.100
565.500	-13.623	0.100
565.600	-15.408	0.100
565.700	-13.181	0.100
565.800	-10.009	0.100
565.900	-14.691	0.100
566.000	-10.267	0.100
566.100	-9.032	0.100
566.200	-6.036	0.100
566.300	-7.759	0.100
566.400	-13.763	0.100
566.500	-13.573	0.100
566.600	-19.840	0.100
566.700	-18.831	0.100
566.800	-11.362	0.100
566.900	-22.918	0.100
567.000	-12.573	0.100
567.100	-14.689	0.100
567.200	-0.061	0.100
567.300	-12.131	0.100
567.400	-11.851	0.100
567.500	-18.592	0.100
567.600	-21.937	0.100
567.700	-11.167	0.100
567.800	-14.946	0.100
567.900	-9.360	0.100
568.000	-19.097	0.100
568.100	-10.947	0.100
568.200	-1.049	0.100
568.300	-5.221	0.100
568.400	-10.417	0.100
568.500	-22.845	0.100
568.600	-3.442	0.100
568.700	-13.052	0.100
568.800	-10.723	0.100
568.900	-10.414	0.100
569.000	-7.367	0.100
569.100	-2.894	0.100
569.200	-15.944	0.100
569.300	-20.125	0.100
569.400	-12.668	0.100
569.500	-12.035	0.100
569.600	-4.319	0.100
569.700	-7.910	0.100
569.800	-4.701	0.100
569.900	-14.407	0.100
570.000	-12.878	0.100
570.100	-22.471	0.100
570.200	-7.882	0.100
570.300	-15.253	0.100
570.400	-23.774	0.100
570.500	-17.050	0.100
570.600	-13.179	0.100
570.700	-23.412	0.100
570.800	-15.601	0.100
570.900	-11.989	0.100
571.000	-31.504	0.100
571.100	-21.065	0.100
571.200	-16.219	0.100
571.300	-12.681	0.100
571.400	-6.257	0.100
571.500	-10.427	0.100
571.600	-17.765	0.100
571.700	-3.134	0.100
571.800	-15.485	0.100
571.900	-8.721	0.100
572.000	-15.197	0.100
572.100	-12.138	0.100
572.200	-18.340	0.100
572.300	-15.363	0.101
572.400	-16.242	0.100
572.500	-9.464	0.100
572.600	-16.682	0.100
572.700	-21.099	0.101
572.800	-9.561	0.101
572.900	-16.722	0.101
573.000	-4.498	0.101
573.100	-14.192	0.101
573.200	-16.542	0.101
573.300	-14.888	0.101
573.400	-1.751	0.101
573.500	-16.832	0.101
573.600	-9.922	0.101
573.700	-4.415	0.101
573.800	-9.270	0.101
573.900	-20.031	0.101
574.000	-17.805	0.101
574.100	-9.411	0.101
574.200	-17.523	0.101
574.300	-7.597	0.101
574.400	-8.043	0.101
574.500	-10.364	0.101
574.600	-18.643	0.101
574.700	-18.502	0.100
574.800	-12.984	0.100
574.900	-16.748	0.101
575.000	-24.393	0.101
575.100	-1.500	0.101
575.200	-12.695	0.101
575.300	-23.224	0.101
575.400	-13.904	0.101
575.500	-11.670	0.101
575.600	-12.650	0.101
575.700	-15.118	0.101
575.800	-23.227	0.101
575.900	-8.729	0.101
576.000	-13.679	0.101
576.100	-17.679	0.101
576.200	-18.022	0.101
576.300	-19.768	0.101
576.400	-18.930	0.101
576.500	-21.041	0.101
576.600	-12.602	0.101
576.700	-15.607	0.101
576.800	-16.999	0.101
576.900	-14.642	0.101
577.000	-20.967	0.101
577.100	-15.563	0.101
577.200	-20.699	0.101
577.300	-15.342	0.101
577.400	-21.559	0.100
577.500	-16.411	0.101
577.600	-8.661	0.100
577.700	-16.433	0.101
577.800	-15.076	0.101
577.900	-9.517	0.101
578.000	-19.682	0.101
578.100	-16.012	0.101
578.200	-19.627	0.101
578.300	-15.076	0.101
578.400	-10.138	0.101
578.500	-21.400	0.100
578.600	-13.158	0.101
578.700	-12.539	0.100
578.800	-23.134	0.101
578.900	-14.412	0.101
579.000	-15.422	0.101
579.100	-13.865	0.100
579.200	-17.750	0.101
579.300	-23.957	0.101
579.400	-10.998	0.101
579.500	-23.674	0.101
579.600	-22.639	0.100
579.700	-5.040	0.101
579.800	-17.837	0.101
579.900	-7.257	0.101
580.000	-5.126	0.100
580.100	-14.184	0.101
580.200	-24.936	0.101
580.300	-17.452	0.101
580.400	-18.007	0.101
580.500	-7.544	0.101
580.600	-12.971	0.101
580.700	-18.428	0.101
580.800	-24.206	0.101
580.900	-8.379	0.101
581.000	-9.752	0.101
581.100	-11.346	0.101
581.200	-15.468	0.100
581.300	-5.771	0.101
581.400	-14.681	0.101
581.500	-12.002	0.101
581.600	-14.251	0.101
581.700	-17.976	0.100
581.800	-10.337	0.101
581.900	-17.701	0.101
582.000	-18.876	0.101
582.100	-10.990	0.101
582.200	-28.645	0.101
582.300	-16.799	0.101
582.400	-22.961	0.101
582.500	-8.260	0.101
582.600	-12.102	0.101
582.700	-13.666	0.101
582.800	-14.416	0.101
582.900	-14.974	0.101
583.000	-14.191	0.101
583.100	-8.042	0.101
583.200	-16.345	0.101
583.300	-14.770	0.100
583.400	-18.017	0.101
583.500	-18.290	0.100
583.600	-15.336	0.101
583.700	-7.287	0.101
583.800	-13.305	0.101
583.900	-16.342	0.101
584.000	-11.919	0.101
584.100	-16.811	0.101
584.200	-14.142	0.101
584.300	-9.147	0.101
584.400	-20.365	0.100
584.500	-15.170	0.101
584.600	-6.950	0.101
584.700	-15.612	0.101
584.800	-9.783	0.101
584.900	-16.511	0.101
585.000	-8.819	0.101
585.100	-5.297	0.101
585.200	-22.341	0.100
585.300	-17.042	0.101
585.400	-23.873	0.100
585.500	-13.824	0.101
585.600	-17.667	0.101
585.700	-16.351	0.101
585.800	-13.205	0.101
585.900	-14.237	0.100
586.000	-8.403	0.101
586.100	-15.245	0.101
586.200	-15.051	0.100
586.300	-14.264	0.100
586.400	-17.146	0.101
586.500	-8.249	0.101
586.600	-25.044	0.101
586.700	-14.384	0.101
586.800	-16.977	0.100
586.900	-14.500	0.101
587.000	-14.913	0.101
587.100	-24.284	0.100
587.200	-15.878	0.101
587.300	-17.228	0.101
587.400	-14.622	0.100
587.500	-19.325	0.101
587.600	-10.657	0.101
587.700	-17.094	0.101
587.800	-25.187	0.101
587.900	-14.630	0.101
588.000	-11.050	0.100
588.100	-18.565	0.101
588.200	-9.868	0.100
588.300	-15.985	0.101
588.400	-12.863	0.101
588.500	-16.163	0.101
588.600	-10.774	0.101
588.700	-21.155	0.101
588.800	-9.258	0.101
588.900	-6.303	0.101
589.000	-21.527	0.101
589.100	-16.360	0.101
589.200	-15.651	0.101
589.300	-11.435	0.101
589.400	-20.001	0.101
589.500	-2.070	0.101
589.600	-16.038	0.101
589.700	-4.646	0.101
589.800	-20.073	0.100
589.900	-21.544	0.100
590.000	-12.621	0.101
590.100	-20.806	0.101
590.200	-7.969	0.101
590.300	-9.487	0.101
590.400	-19.698	0.101
590.500	-8.064	0.101
590.600	-21.100	0.101
590.700	-25.819	0.101
590.800	-11.150	0.100
590.900	-1.684	0.101
591.000	-12.980	0.100
591.100	-11.591	0.101
591.200	-22.361	0.101
591.300	-10.901	0.101
591.400	-12.959	0.101
591.500	-14.183	0.101
591.600	-12.670	0.101
591.700	-16.661	0.101
591.800	-17.574	0.101
591.900	-8.975	0.100
592.000	-17.730	0.100
592.100	-7.301	0.100
592.200	-9.896	0.101
592.300	-12.416	0.101
592.400	-20.123	0.101
592.500	-19.088	0.101
592.600	-5.577	0.101
592.700	-1.494	0.100
592.800	-19.499	0.100
592.900	-20.910	0.101
593.000	-9.595	0.101
593.100	-17.730	0.100
593.200	-8.688	0.101
593.300	-1.911	0.101
593.400	-20.142	0.100
593.500	-12.483	0.101
593.600	-9.297	0.100
593.700	-19.135	0.101
593.800	-15.483	0.101
593.900	-12.915	0.101
594.000	-11.919	0.101
594.100	-10.988	0.100
594.200	-17.011	0.101
594.300	-13.485	0.101
594.400	-15.122	0.101
594.500	-11.453	0.101
594.600	-9.286	0.100
594.700	-6.949	0.101
594.800	-15.979	0.101
594.900	-8.790	0.101
595.000	-8.605	0.100
595.100	-19.169	0.101
595.200	-26.672	0.100
595.300	-14.793	0.101
595.400	-14.429	0.101
595.500	-9.339	0.101
595.600	-17.936	0.101
595.700	-2.109	0.101
595.800	-10.649	0.100
595.900	-16.496	0.101
596.000	-19.474	0.101
596.100	-11.297	0.101
596.200	-13.574	0.101
596.300	-14.331	0.101
596.400	-10.727	0.101
596.500	-9.569	0.101
596.600	-10.388	0.101
596.700	-7.338	0.101
596.800	-17.685	0.101
596.900	-9.415	0.101
597.000	-16.234	0.101
597.100	-17.071	0.101
597.200	-18.897	0.101
597.300	-3.368	0.101
597.400	-12.289	0.100
597.500	-22.544	0.101
597.600	-15.715	0.101
597.700	-6.600	0.101
597.800	-12.843	0.101
597.900	-12.341	0.101
598.000	-24.435	0.100
598.100	-5.611	0.101
598.200	-14.467	0.101
598.300	-16.870	0.101
598.400	-10.987	0.101
598.500	-5.911	0.101
598.600	-10.592	0.101
598.700	-15.117	0.101
598.800	-18.969	0.101
598.900	-9.553	0.101
599.000	-14.603	0.101
599.100	-12.769	0.101
599.200	-9.849	0.101
599.300	-20.623	0.101
599.400	-16.592	0.101
599.500	-20.071	0.101
599.600	-17.046	0.101
599.700	-12.458	0.101
599.800	-12.651	0.101
599.900	-16.224	0.101
600.000	-14.213	0.101
600.100	-8.119	0.101
600.200	-3.653	0.101
600.300	-12.873	0.101
600.400	-5.369	0.101
600.500	-10.140	0.101
600.600	-15.010	0.101
600.700	-15.853	0.101
600.800	-10.786	0.101
600.900	-4.746	0.101
601.000	-19.103	0.101
601.100	-5.993	0.101
601.200	-17.834	0.101
601.300	-19.862	0.100
601.400	-15.507	0.101
601.500	-10.871	0.101
601.600	-22.580	0.100
601.700	-6.223	0.101
601.800	-2.984	0.101
601.900	-14.570	0.101
602.000	-19.741	0.101
602.100	-14.519	0.101
602.200	-14.294	0.101
602.300	-13.843	0.101
602.400	-24.780	0.101
602.500	-13.126	0.101
602.600	-6.952	0.101
602.700	-3.210	0.101
602.800	-12.250	0.101
602.900	-6.513	0.101
603.000	-13.006	0.101
603.100	-7.025	0.101
603.200	-11.425	0.101
603.300	-20.136	0.101
603.400	-9.546	0.101
603.500	-7.829	0.101
603.600	-11.855	0.101
603.700	-5.432	0.101
603.800	-12.276	0.101
603.900	-19.154	0.101
604.000	-18.392	0.101
604.100	-9.195	0.100
604.200	-15.099	0.101
604.300	-9.498	0.100
604.400	-17.220	0.100
604.500	-5.410	0.101
604.600	-4.518	0.100
604.700	-12.354	0.101
604.800	-10.331	0.100
604.900	-14.547	0.101
605.000	-10.581	0.101
605.100	-7.432	0.101
605.200	-7.036	0.100
605.300	-9.054	0.100
605.400	-10.621	0.101
605.500	-11.424	0.101
605.600	-7.786	0.101
605.700	-17.364	0.101
605.800	-16.155	0.100
605.900	-19.308	0.101
606.000	-5.503	0.101
606.100	-10.139	0.100
606.200	-16.915	0.101
606.300	-5.427	0.101
606.400	-19.175	0.101
606.500	-14.897	0.101
606.600	-3.714	0.101
606.700	-9.947	0.101
606.800	-10.435	0.101
606.900	-8.008	0.100
607.000	-9.453	0.101
607.100	-20.348	0.101
607.200	0.819	0.101
607.300	-10.055	0.100
607.400	-15.057	0.101
607.500	-17.909	0.100
607.600	-12.024	0.101
607.700	-11.578	0.100
607.800	-14.139	0.101
607.900	-16.718	0.101
608.000	-15.063	0.101
608.100	-8.954	0.101
608.200	-2.818	0.101
608.300	-7.782	0.100
608.400	-10.194	0.101
608.500	-15.273	0.101
608.600	-9.827	0.101
608.700	-9.625	0.101
608.800	-10.755	0.101
608.900	-11.702	0.100
609.000	-11.164	0.101
609.100	-11.510	0.101
609.200	-8.352	0.101
609.300	-11.755	0.101
609.400	-6.521	0.101
609.500	-15.214	0.101
609.600	-7.194	0.101
609.700	-9.438	0.101
609.800	-10.859	0.101
609.900	-10.373	0.101
610.000	-21.495	0.100
610.100	-12.412	0.101
610.200	-12.823	0.101
610.300	-7.250	0.101
610.400	-8.069	0.100
610.500	-15.433	0.101
610.600	-6.318	0.101
610.700	-11.109	0.101
610.800	-6.062	0.101
610.900	-17.050	0.100
611.000	-4.376	0.101
611.100	-9.851	0.100
611.200	1.730	0.101
611.300	-13.084	0.101
611.400	-8.612	0.101
611.500	-13.605	0.101
611.600	-15.370	0.101
611.700	-16.696	0.101
611.800	-12.439	0.101
611.900	-12.383	0.101
612.000	-12.215	0.101
612.100	-12.735	0.101
612.200	-11.623	0.101
612.300	-10.914	0.101
612.400	-7.174	0.101
612.500	-20.084	0.101
612.600	-13.230	0.101
612.700	-13.070	0.101
612.800	-1.151	0.101
612.900	-11.500	0.101
613.000	-11.964	0.101
613.100	-13.209	0.101
613.200	-11.518	0.100
613.300	-15.251	0.100
613.400	0.508	0.100
613.500	-12.316	0.101
613.600	-1.264	0.101
613.700	-13.924	0.101
613.800	-8.605	0.101
613.900	-11.576	0.101
614.000	-4.874	0.101
614.100	-12.452	0.101
614.200	-0.855	0.101
614.300	-13.048	0.101
614.400	-16.371	0.101
614.500	-16.066	0.101
614.600	-12.600	0.101
614.700	-8.102	0.101
614.800	-14.141	0.101
614.900	-6.987	0.101
615.000	-10.528	0.101
615.100	-13.875	0.101
615.200	-19.994	0.101
615.300	-16.283	0.101
615.400	-6.217	0.101
615.500	-10.479	0.101
615.600	-2.425	0.101
615.700	-14.468	0.101
615.800	-1.732	0.101
615.900	-5.700	0.101
616.000	-5.174	0.101
616.100	-13.658	0.101
616.200	-9.357	0.101
616.300	-29.285	0.101
616.400	-17.646	0.100
616.500	-10.702	0.101
616.600	0.004	0.101
616.700	-10.787	0.101
616.800	-6.880	0.101
616.900	-15.048	0.101
617.000	-11.036	0.101
617.100	-10.788	0.100
617.200	-16.144	0.101
617.300	-19.223	0.101
617.400	-10.166	0.101
617.500	-9.389	0.100
617.600	-3.539	0.101
617.700	-3.897	0.101
617.800	-13.628	0.101
617.900	-12.868	0.101
618.000	-14.099	0.101
618.100	-15.269	0.101
618.200	-20.067	0.101
618.300	-8.179	0.101
618.400	-2.303	0.101
618.500	-11.088	0.101
618.600	-12.744	0.101
618.700	-20.762	0.101
618.800	-12.725	0.101
618.900	-21.738	0.101
619.000	-8.154	0.101
619.100	-5.369	0.101
619.200	-4.271	0.101
619.300	-8.521	0.100
619.400	-20.883	0.101
619.500	-15.882	0.101
619.600	-5.537	0.101
619.700	-16.153	0.101
619.800	-6.892	0.101
619.900	-9.259	0.101
620.000	-4.011	0.101
620.100	-10.694	0.101
620.200	-3.784	0.100
620.300	-11.013	0.101
620.400	-16.620	0.101
620.500	-9.521	0.101
620.600	-9.229	0.100
620.700	-10.432	0.101
620.800	-11.721	0.101
620.900	-8.558	0.100
621.000	-9.765	0.100
621.100	-7.233	0.100
621.200	-3.557	0.101
621.300	-17.706	0.101
621.400	-3.797	0.101
621.500	-10.511	0.100
621.600	-14.136	0.101
621.700	-13.608	0.101
621.800	-7.054	0.101
621.900	-11.076	0.100
622.000	-12.966	0.101
622.100	-10.220	0.101
622.200	-7.446	0.101
622.300	-11.009	0.101
622.400	-3.984	0.101
622.500	-14.789	0.100
622.600	-8.501	0.100
622.700	-8.847	0.101
622.800	-8.940	0.100
622.900	-19.967	0.101
623.000	-14.208	0.101
623.100	-4.158	0.101
623.200	-12.217	0.101
623.300	-15.326	0.101
623.400	-14.269	0.101
623.500	-6.445	0.101
623.600	-0.443	0.101
623.700	-9.582	0.101
623.800	-11.533	0.101
623.900	-5.774	0.101
624.000	-1.243	0.101
624.100	-16.941	0.101
624.200	-9.558	0.101
624.300	-12.261	0.101
624.400	-1.825	0.101
624.500	-12.230	0.101
624.600	-3.063	0.101
624.700	-16.336	0.100
624.800	-11.474	0.101
624.900	-15.699	0.101
625.000	-8.780	0.101
625.100	-18.515	0.101
625.200	-4.235	0.101
625.300	-7.403	0.101
625.400	-2.512	0.101
625.500	-11.657	0.101
625.600	-5.421	0.101
625.700	-16.360	0.101
625.800	-6.790	0.101
625.900	-21.430	0.101
626.000	-8.306	0.101
626.100	-5.469	0.100
626.200	-14.796	0.101
626.300	-5.212	0.101
626.400	1.995	0.101
626.500	-6.484	0.101
626.600	-7.020	0.101
626.700	-11.593	0.101
626.800	-4.905	0.101
626.900	-15.725	0.101
627.000	-10.913	0.101
627.100	-7.947	0.101
627.200	-9.231	0.101
627.300	-14.080	0.100
627.400	-17.923	0.100
627.500	-12.154	0.101
627.600	-14.043	0.100
627.700	-6.964	0.101
627.800	-13.095	0.101
627.900	-5.061	0.101
628.000	-4.620	0.101
628.100	-4.926	0.101
628.200	2.259	0.101
628.300	-7.240	0.101
628.400	-8.163	0.101
628.500	-16.571	0.100
628.600	-9.312	0.101
628.700	-7.995	0.101
628.800	0.748	0.101
628.900	-19.573	0.101
629.000	-9.101	0.100
629.100	-14.865	0.100
629.200	-12.754	0.101
629.300	-9.010	0.101
629.400	-3.264	0.101
629.500	-9.073	0.101
629.600	-1.603	0.101
629.700	-12.083	0.101
629.800	-14.071	0.100
629.900	-8.402	0.100
630.000	-8.780	0.100
630.100	-13.862	0.101
630.200	-3.075	0.101
630.300	-8.547	0.101
630.400	-3.292	0.101
630.500	-7.782	0.101
630.600	-14.907	0.101
630.700	-13.502	0.100
630.800	-5.702	0.101
630.900	-3.421	0.101
631.000	-6.045	0.101
631.100	-6.292	0.101
631.200	-13.769	0.101
631.300	-6.851	0.101
631.400	0.716	0.100
631.500	-3.222	0.101
631.600	-3.178	0.101
631.700	-0.256	0.101
631.800	-3.662	0.101
631.900	-4.146	0.100
632.000	-6.502	0.100
632.100	-1.168	0.100
632.200	8.243	0.100
632.300	6.023	0.100
632.400	9.643	0.101
632.500	10.704	0.100
632.600	1.407	0.101
632.700	10.846	0.100
632.800	1.300	0.100
632.900	12.672	0.101
633.000	4.168	0.101
633.100	1.746	0.101
633.200	8.095	0.101
633.300	12.738	0.101
633.400	10.953	0.100
633.500	8.095	0.101
633.600	17.325	0.101
633.700	5.153	0.101
633.800	7.929	0.101
633.900	13.446	0.101
634.000	10.100	0.101
634.100	8.449	0.101
634.200	3.394	0.101
634.300	10.509	0.100
634.400	18.809	0.101
634.500	16.959	0.100
634.600	18.415	0.100
634.700	15.030	0.101
634.800	7.960	0.101
634.900	5.953	0.100
635.000	20.662	0.100
635.100	9.103	0.100
635.200	10.678	0.101
635.300	20.070	0.101
635.400	10.794	0.101
635.500	12.787	0.101
635.600	9.563	0.101
635.700	16.557	0.101
635.800	6.216	0.101
635.900	8.547	0.100
636.000	7.340	0.101
636.100	6.180	0.100
636.200	10.232	0.101
636.300	14.398	0.100
636.400	3.202	0.101
636.500	8.655	0.100
636.600	1.740	0.100
636.700	5.044	0.101
636.800	12.942	0.101
636.900	14.503	0.101
637.000	14.906	0.101
637.100	9.801	0.100
637.200	3.804	0.101
637.300	1.569	0.101
637.400	5.705	0.101
637.500	-4.209	0.101
637.600	-2.955	0.101
637.700	7.832	0.101
637.800	6.051	0.101
637.900	4.340	0.101
638.000	3.975	0.101
638.100	3.276	0.101
638.200	10.407	0.101
638.300	10.769	0.101
638.400	10.747	0.101
638.500	15.615	0.101
638.600	-1.494	0.101
638.700	4.038	0.101
638.800	6.857	0.101
638.900	2.738	0.101
639.000	1.781	0.101
639.100	8.674	0.101
639.200	0.471	0.101
639.300	14.988	0.101
639.400	1.153	0.101
639.500	3.527	0.101
639.600	7.996	0.101
639.700	0.782	0.101
639.800	-1.769	0.101
639.900	2.090	0.101
640.000	8.405	0.101
640.100	2.746	0.101
640.200	1.109	0.101
640.300	2.946	0.101
640.400	2.800	0.101
640.500	2.902	0.101
640.600	5.101	0.100
640.700	10.880	0.101
640.800	19.068	0.101
640.900	7.125	0.101
641.000	-0.783	0.101
641.100	8.264	0.101
641.200	9.880	0.101
641.300	6.412	0.101
641.400	9.408	0.101
641.500	3.786	0.101
641.600	1.763	0.101
641.700	1.312	0.101
641.800	8.819	0.101
641.900	17.730	0.100
642.000	2.351	0.100
642.100	7.241	0.101
642.200	-1.224	0.101
642.300	2.068	0.101
642.400	5.928	0.101
642.500	5.689	0.101
642.600	4.306	0.101
642.700	4.909	0.101
642.800	8.433	0.101
642.900	2.509	0.101
643.000	1.583	0.101
643.100	-6.074	0.101
643.200	11.186	0.101
643.300	12.870	0.101
643.400	3.388	0.101
643.500	2.918	0.101
643.600	8.238	0.101
643.700	10.914	0.101
643.800	9.545	0.101
643.900	12.703	0.101
644.000	5.333	0.101
644.100	-2.712	0.101
644.200	6.641	0.101
644.300	11.424	0.101
644.400	-0.003	0.101
644.500	10.976	0.101
644.600	14.465	0.101
644.700	9.011	0.101
644.800	0.051	0.101
644.900	-3.725	0.101
645.000	0.387	0.101
645.100	11.891	0.101
645.200	13.000	0.101
645.300	14.880	0.101
645.400	2.270	0.101
645.500	9.011	0.101
645.600	7.048	0.101
645.700	1.320	0.101
645.800	3.469	0.101
645.900	14.593	0.101
646.000	5.373	0.101
646.100	16.369	0.101
646.200	3.156	0.101
646.300	12.961	0.101
646.400	10.121	0.101
646.500	3.749	0.101
646.600	-0.252	0.101
646.700	-3.464	0.101
646.800	7.827	0.101
646.900	13.978	0.100
647.000	11.223	0.101
647.100	7.064	0.101
647.200	6.907	0.101
647.300	3.202	0.101
647.400	7.467	0.101
647.500	15.411	0.101
647.600	12.256	0.101
647.700	15.994	0.101
647.800	3.983	0.101
647.900	16.452	0.101
648.000	15.351	0.101
648.100	7.996	0.101
648.200	1.568	0.101
648.300	16.761	0.101
648.400	7.187	0.101
648.500	3.170	0.101
648.600	5.973	0.101
648.700	4.815	0.101
648.800	1.168	0.101
648.900	5.604	0.101
649.000	11.433	0.101
649.100	9.173	0.101
649.200	9.681	0.101
649.300	13.578	0.101
649.400	9.875	0.101
649.500	10.881	0.101
649.600	14.671	0.101
649.700	16.707	0.101
649.800	10.769	0.101
649.900	19.874	0.101
650.000	14.398	0.101
650.100	4.903	0.101
650.200	11.655	0.101
650.300	8.028	0.101
650.400	2.528	0.101
650.500	14.660	0.101
650.600	6.810	0.101
650.700	9.809	0.101
650.800	1.968	0.100
650.900	16.875	0.100
651.000	10.006	0.100
651.100	20.352	0.101
651.200	10.363	0.101
651.300	18.394	0.101
651.400	6.738	0.101
651.500	4.858	0.101
651.600	8.709	0.101
651.700	15.872	0.101
651.800	13.498	0.101
651.900	19.656	0.101
652.000	11.466	0.101
652.100	15.289	0.101
652.200	17.871	0.101
652.300	9.875	0.101
652.400	13.252	0.101
652.500	12.289	0.101
652.600	5.601	0.101
652.700	17.387	0.101
652.800	11.275	0.101
652.900	25.573	0.101
653.000	10.691	0.101
653.100	14.715	0.101
653.200	17.600	0.101
653.300	10.818	0.101
653.400	13.968	0.101
653.500	13.696	0.101
653.600	8.531	0.101
653.700	10.994	0.101
653.800	9.314	0.101
653.900	18.006	0.101
654.000	17.199	0.101
654.100	16.825	0.101
654.200	15.609	0.101
654.300	10.203	0.101
654.400	3.525	0.100
654.500	16.028	0.101
654.600	18.648	0.101
654.700	21.516	0.101
654.800	17.694	0.101
654.900	7.318	0.101
655.000	20.917	0.101
655.100	21.575	0.101
655.200	13.045	0.101
655.300	11.226	0.101
655.400	6.324	0.100
655.500	13.706	0.101
655.600	12.643	0.101
655.700	16.556	0.101
655.800	14.306	0.101
655.900	13.036	0.101
656.000	15.329	0.101
656.100	14.773	0.100
656.200	13.777	0.101
656.300	11.675	0.101
656.400	-0.345	0.101
656.500	16.471	0.101
656.600	10.993	0.101
656.700	25.353	0.101
656.800	15.991	0.101
656.900	14.914	0.101
657.000	15.857	0.101
657.100	25.042	0.101
657.200	16.061	0.101
657.300	19.300	0.101
657.400	-0.016	0.101
657.500	16.958	0.101
657.600	15.615	0.100
657.700	10.450	0.101
657.800	7.445	0.101
657.900	8.826	0.101
658.000	11.803	0.101
658.100	21.309	0.100
658.200	27.044	0.101
658.300	15.001	0.101
658.400	15.173	0.101
658.500	12.083	0.101
658.600	25.097	0.100
658.700	25.781	0.101
658.800	5.209	0.101
658.900	7.970	0.101
659.000	18.162	0.101
659.100	23.181	0.101
659.200	15.726	0.101
659.300	19.288	0.101
659.400	13.592	0.101
659.500	16.437	0.101
659.600	22.639	0.101
659.700	14.562	0.101
659.800	11.717	0.101
659.900	8.334	0.101
660.000	17.548	0.101
660.100	21.437	0.101
660.200	6.729	0.101
660.300	13.742	0.101
660.400	10.908	0.101
660.500	10.799	0.101
660.600	15.508	0.101
660.700	23.238	0.101
660.800	24.576	0.100
660.900	17.477	0.101
661.000	24.595	0.101
661.100	16.012	0.100
661.200	3.028	0.101
661.300	24.277	0.101
661.400	24.871	0.101
661.500	6.275	0.101
661.600	17.285	0.101
661.700	16.974	0.101
661.800	19.304	0.101
661.900	13.674	0.101
662.000	12.751	0.101
662.100	21.508	0.101
662.200	31.869	0.101
662.300	20.624	0.101
662.400	19.855	0.101
662.500	26.770	0.101
662.600	15.301	0.100
662.700	17.141	0.101
662.800	12.628	0.101
662.900	7.097	0.101
663.000	26.655	0.101
663.100	27.399	0.100
663.200	20.525	0.101
663.300	15.756	0.101
663.400	26.151	0.101
663.500	9.915	0.101
663.600	16.606	0.101
663.700	18.596	0.101
663.800	20.328	0.101
663.900	17.337	0.100
664.000	15.361	0.100
664.100	12.413	0.101
664.200	18.922	0.101
664.300	23.651	0.100
664.400	25.474	0.101
664.500	20.917	0.101
664.600	9.486	0.101
664.700	20.543	0.101
664.800	33.551	0.101
664.900	18.491	0.101
665.000	16.728	0.101
665.100	14.903	0.101
665.200	25.689	0.101
665.300	21.280	0.101
665.400	6.384	0.101
665.500	16.035	0.101
665.600	13.183	0.101
665.700	24.357	0.101
665.800	22.749	0.101
665.900	22.760	0.101
666.000	14.268	0.101
666.100	13.173	0.101
666.200	14.907	0.101
666.300	20.505	0.101
666.400	12.063	0.101
666.500	17.260	0.101
666.600	25.163	0.101
666.700	18.848	0.101
666.800	21.509	0.101
666.900	18.997	0.101
667.000	17.212	0.100
667.100	14.505	0.101
667.200	17.353	0.101
667.300	17.324	0.101
667.400	20.796	0.101
667.500	24.395	0.101
667.600	26.873	0.101
667.700	21.467	0.101
667.800	24.405	0.101
667.900	17.846	0.101
668.000	16.485	0.101
668.100	16.520	0.101
668.200	26.003	0.101
668.300	23.052	0.101
668.400	28.445	0.101
668.500	16.032	0.101
668.600	21.824	0.101
668.700	13.971	0.101
668.800	18.609	0.101
668.900	27.026	0.101
669.000	21.963	0.101
669.100	22.777	0.101
669.200	17.499	0.101
669.300	23.283	0.101
669.400	18.178	0.101
669.500	23.366	0.101
669.600	26.792	0.101
669.700	21.959	0.101
669.800	16.186	0.101
669.900	20.592	0.101
670.000	19.048	0.101
670.100	13.277	0.101
670.200	33.177	0.101
670.300	21.184	0.101
670.400	22.507	0.101
670.500	13.580	0.101
670.600	23.769	0.101
670.700	24.184	0.101
670.800	13.498	0.101
670.900	17.822	0.100
671.000	22.062	0.101
671.100	15.430	0.101
671.200	21.488	0.101
671.300	18.630	0.101
671.400	17.604	0.101
671.500	20.580	0.101
671.600	28.118	0.101
671.700	16.376	0.100
671.800	23.068	0.101
671.900	25.814	0.101
672.000	14.740	0.101
672.100	18.873	0.101
672.200	20.690	0.101
672.300	12.765	0.101
672.400	19.773	0.101
672.500	18.289	0.101
672.600	18.789	0.101
672.700	18.857	0.101
672.800	17.951	0.101
672.900	11.734	0.101
673.000	24.681	0.101
673.100	30.807	0.101
673.200	20.353	0.101
673.300	23.187	0.101
673.400	21.902	0.101
673.500	17.582	0.101
673.600	19.944	0.101
673.700	18.169	0.101
673.800	19.068	0.101
673.900	21.152	0.101
674.000	20.900	0.101
674.100	19.049	0.101
674.200	13.856	0.101
674.300	11.203	0.101
674.400	23.129	0.101
674.500	28.124	0.101
674.600	23.517	0.101
674.700	20.536	0.101
674.800	17.242	0.101
674.900	20.258	0.101
675.000	13.825	0.101
675.100	11.991	0.101
675.200	14.725	0.101
675.300	23.560	0.101
675.400	22.430	0.101
675.500	20.006	0.101
675.600	18.214	0.101
675.700	23.561	0.101
675.800	17.955	0.101
675.900	11.644	0.101
676.000	16.871	0.101
676.100	18.343	0.101
676.200	16.328	0.101
676.300	30.784	0.101
676.400	16.205	0.101
676.500	19.470	0.101
676.600	13.151	0.101
676.700	31.537	0.101
676.800	28.908	0.100
676.900	17.669	0.101
677.000	23.539	0.101
677.100	20.295	0.101
677.200	15.009	0.101
677.300	17.820	0.101
677.400	23.257	0.101
677.500	15.406	0.101
677.600	15.613	0.101
677.700	7.375	0.101
677.800	16.103	0.101
677.900	20.917	0.101
678.000	19.088	0.101
678.100	21.733	0.101
678.200	25.463	0.101
678.300	22.653	0.101
678.400	21.100	0.101
678.500	20.760	0.101
678.600	18.065	0.101
678.700	11.119	0.101
678.800	21.076	0.100
678.900	18.638	0.101
679.000	13.373	0.100
679.100	14.799	0.101
679.200	21.615	0.101
679.300	26.621	0.100
679.400	22.544	0.101
679.500	21.411	0.101
679.600	30.231	0.101
679.700	14.878	0.101
679.800	24.829	0.101
679.900	25.866	0.101
680.000	16.308	0.101
680.100	15.317	0.101
680.200	22.342	0.101
680.300	17.355	0.101
680.400	23.061	0.101
680.500	10.677	0.101
680.600	22.537	0.101
680.700	13.587	0.101
680.800	14.621	0.101
680.900	10.470	0.101
681.000	19.867	0.101
681.100	18.716	0.101
681.200	17.266	0.101
681.300	16.753	0.101
681.400	26.488	0.101
681.500	19.622	0.101
681.600	30.618	0.101
681.700	21.843	0.101
681.800	21.709	0.101
681.900	11.047	0.101
682.000	22.960	0.101
682.100	18.156	0.101
682.200	24.573	0.101
682.300	21.132	0.100
682.400	26.745	0.101
682.500	9.865	0.101
682.600	19.311	0.101
682.700	19.670	0.101
682.800	23.152	0.101
682.900	9.150	0.101
683.000	28.758	0.101
683.100	21.488	0.101
683.200	17.126	0.101
683.300	16.749	0.101
683.400	27.000	0.101
683.500	20.092	0.101
683.600	20.962	0.101
683.700	19.031	0.101
683.800	23.421	0.101
683.900	18.961	0.101
684.000	16.448	0.101
684.100	12.840	0.101
684.200	13.408	0.101
684.300	8.852	0.101
684.400	14.071	0.101
684.500	16.116	0.101
684.600	11.308	0.101
684.700	19.186	0.101
684.800	25.466	0.101
684.900	31.870	0.101
685.000	17.097	0.101
685.100	13.629	0.101
685.200	27.577	0.101
685.300	17.591	0.101
685.400	25.901	0.101
685.500	28.099	0.101
685.600	25.158	0.101
685.700	16.149	0.101
685.800	14.656	0.101
685.900	14.193	0.101
686.000	24.521	0.101
686.100	18.735	0.101
686.200	17.174	0.101
686.300	12.194	0.101
686.400	23.438	0.101
686.500	13.257	0.101
686.600	16.177	0.101
686.700	18.312	0.101
686.800	15.286	0.101
686.900	24.186	0.101
687.000	25.498	0.101
687.100	14.813	0.101
687.200	22.895	0.101
687.300	22.432	0.101
687.400	24.734	0.101
687.500	18.564	0.101
687.600	19.153	0.101
687.700	15.960	0.101
687.800	19.160	0.101
687.900	19.212	0.101
688.000	23.471	0.101
688.100	15.400	0.101
688.200	19.981	0.101
688.300	21.062	0.101
688.400	14.732	0.101
688.500	19.115	0.101
688.600	21.003	0.101
688.700	16.450	0.101
688.800	19.105	0.101
688.900	14.276	0.101
689.000	25.570	0.101
689.100	21.804	0.101
689.200	21.318	0.101
689.300	27.545	0.101
689.400	9.840	0.101
689.500	18.577	0.101
689.600	16.357	0.101
689.700	17.419	0.100
689.800	20.555	0.101
689.900	13.095	0.101
690.000	18.572	0.101
690.100	6.850	0.101
690.200	21.489	0.101
690.300	21.250	0.101
690.400	11.183	0.101
690.500	9.105	0.101
690.600	5.826	0.101
690.700	19.160	0.101
690.800	16.937	0.101
690.900	21.761	0.101
691.000	23.417	0.101
691.100	24.494	0.101
691.200	15.758	0.101
691.300	6.813	0.101
691.400	15.100	0.101
691.500	11.587	0.101
691.600	13.275	0.101
691.700	20.615	0.101
691.800	12.256	0.101
691.900	10.720	0.101
692.000	16.166	0.101
692.100	11.509	0.101
692.200	10.779	0.101
692.300	12.810	0.101
692.400	8.692	0.101
692.500	11.073	0.101
692.600	6.820	0.101
692.700	7.373	0.101
692.800	6.421	0.101
692.900	14.896	0.101
693.000	5.679	0.101
693.100	4.228	0.101
693.200	10.997	0.101
693.300	0.344	0.101
693.400	-4.325	0.101
693.500	-0.801	0.101
693.600	-0.632	0.101
693.700	7.312	0.101
693.800	10.042	0.101
693.900	5.986	0.101
694.000	-3.428	0.101
694.100	-3.125	0.101
694.200	4.758	0.101
694.300	9.428	0.101
694.400	4.740	0.101
694.500	1.786	0.101
694.600	4.813	0.101
694.700	0.852	0.101
694.800	4.530	0.101
694.900	9.797	0.101
695.000	6.867	0.101
695.100	2.842	0.101
695.200	-3.235	0.101
695.300	6.812	0.101
695.400	17.337	0.101
695.500	3.926	0.101
695.600	-7.597	0.101
695.700	2.324	0.101
695.800	6.094	0.101
695.900	6.314	0.101
696.000	7.000	0.101
696.100	-1.184	0.101
696.200	-7.705	0.101
696.300	2.577	0.101
696.400	-7.520	0.101
696.500	0.163	0.101
696.600	7.627	0.101
696.700	-2.730	0.101
696.800	-2.291	0.101
696.900	0.107	0.101
697.000	-0.396	0.101
697.100	5.334	0.101
697.200	2.076	0.101
697.300	-0.643	0.101
697.400	4.056	0.101
697.500	-2.194	0.101
697.600	6.866	0.101
697.700	-1.883	0.101
697.800	-2.577	0.101
697.900	-2.271	0.101
698.000	0.166	0.101
698.100	6.053	0.101
698.200	3.472	0.101
698.300	2.527	0.101
698.400	1.199	0.101
698.500	-4.302	0.101
698.600	-8.902	0.101
698.700	-2.030	0.101
698.800	5.178	0.101
698.900	1.254	0.101
699.000	-1.725	0.101
699.100	6.015	0.101
699.200	2.264	0.101
699.300	-1.296	0.101
699.400	-1.680	0.101
699.500	-0.486	0.101
699.600	6.263	0.101
699.700	3.910	0.101
699.800	-1.875	0.101
699.900	-7.124	0.100
700.000	1.159	0.101
700.100	4.980	0.101
700.200	0.341	0.100
700.300	1.630	0.101
700.400	-3.100	0.101
700.500	-2.943	0.101
700.600	-13.058	0.101
700.700	-2.362	0.101
700.800	-3.594	0.101
700.900	-5.606	0.101
701.000	3.130	0.101
701.100	-0.961	0.101
701.200	-1.327	0.101
701.300	11.827	0.101
701.400	3.860	0.101
701.500	-6.857	0.101
701.600	-6.012	0.101
701.700	2.061	0.101
701.800	-3.048	0.101
701.900	-2.305	0.101
702.000	1.317	0.101
702.100	3.742	0.101
702.200	1.618	0.101
702.300	0.831	0.101
702.400	3.476	0.101
702.500	0.712	0.101
702.600	-3.521	0.101
702.700	7.454	0.101
702.800	-1.834	0.101
702.900	6.400	0.101
703.000	-3.642	0.101
703.100	-3.530	0.101
703.200	-8.458	0.101
703.300	10.074	0.101
703.400	-1.668	0.101
703.500	-0.911	0.101
703.600	-4.082	0.101
703.700	-8.796	0.101
703.800	-4.528	0.101
703.900	-4.711	0.101
704.000	-1.108	0.101
704.100	0.663	0.101
704.200	-6.592	0.101
704.300	0.484	0.101
704.400	-13.233	0.101
704.500	-3.905	0.101
704.600	-9.733	0.101
704.700	-2.194	0.101
704.800	-5.936	0.101
704.900	-9.822	0.101
705.000	-10.535	0.101
705.100	-9.364	0.101
705.200	-4.691	0.101
705.300	4.243	0.101
705.400	-3.127	0.101
705.500	8.303	0.101
705.600	-14.382	0.101
705.700	-1.513	0.101
705.800	-13.123	0.101
705.900	3.261	0.101
706.000	-5.510	0.101
706.100	-7.932	0.101
706.200	-12.113	0.101
706.300	-9.774	0.101
706.400	1.580	0.101
706.500	-4.127	0.101
706.600	-12.490	0.101
706.700	-4.678	0.101
706.800	-7.639	0.101
706.900	-8.903	0.101
707.000	2.721	0.101
707.100	3.167	0.101
707.200	-5.511	0.101
707.300	-4.638	0.101
707.400	-7.235	0.101
707.500	-3.490	0.101
707.600	3.852	0.101
707.700	-9.507	0.101
707.800	-8.032	0.101
707.900	-4.883	0.101
708.000	-1.844	0.101
708.100	2.324	0.101
708.200	-12.253	0.101
708.300	-11.015	0.101
708.400	-8.178	0.101
708.500	1.619	0.101
708.600	-8.598	0.101
708.700	1.086	0.101
708.800	-12.733	0.101
708.900	-9.544	0.101
709.000	-1.349	0.101
709.100	0.331	0.101
709.200	-6.275	0.101
709.300	-1.772	0.101
709.400	-3.805	0.101
709.500	-9.736	0.101
709.600	-4.875	0.101
709.700	-5.707	0.101
709.800	-6.491	0.101
709.900	-3.332	0.101
710.000	-9.095	0.101
710.100	-7.946	0.101
710.200	-10.840	0.101
710.300	-8.799	0.101
710.400	-5.554	0.101
710.500	-16.232	0.101
710.600	-10.171	0.101
710.700	-3.194	0.101
710.800	-9.312	0.101
710.900	-8.596	0.101
711.000	-8.599	0.101
711.100	-8.041	0.101
711.200	0.391	0.101
711.300	-2.106	0.101
711.400	-10.092	0.101
711.500	0.211	0.101
711.600	-9.321	0.101
711.700	0.613	0.101
711.800	-19.998	0.101
711.900	-7.226	0.101
712.000	-12.866	0.101
712.100	-7.952	0.101
712.200	-15.076	0.101
712.300	-6.465	0.101
712.400	-2.635	0.101
712.500	-14.155	0.101
712.600	-10.991	0.101
712.700	-3.114	0.101
712.800	-5.320	0.101
712.900	-8.043	0.101
713.000	-9.287	0.101
713.100	-6.409	0.101
713.200	-11.645	0.101
713.300	-6.807	0.101
713.400	-10.930	0.101
713.500	-7.043	0.101
713.600	-13.714	0.101
713.700	-5.259	0.101
713.800	-14.938	0.101
713.900	-7.691	0.101
714.000	-12.611	0.101
714.100	-13.996	0.101
714.200	-12.945	0.101
714.300	-11.369	0.101
714.400	-7.639	0.101
714.500	-0.740	0.101
714.600	-2.070	0.101
714.700	-4.185	0.101
714.800	-14.087	0.101
714.900	-11.867	0.101
715.000	-14.523	0.101
715.100	-7.612	0.101
715.200	-22.099	0.101
715.300	-11.270	0.101
715.400	-13.959	0.101
715.500	-16.157	0.101
715.600	-19.753	0.101
715.700	-8.173	0.101
715.800	-11.797	0.101
715.900	-16.705	0.101
716.000	-13.102	0.101
716.100	-8.661	0.101
716.200	-14.327	0.101
716.300	-0.194	0.101
716.400	-21.177	0.101
716.500	-7.600	0.101
716.600	-12.988	0.101
716.700	2.481	0.101
716.800	-13.924	0.101
716.900	-24.810	0.101
717.000	-12.907	0.101
717.100	-2.355	0.101
717.200	-18.465	0.101
717.300	-18.033	0.101
717.400	-25.283	0.101
717.500	-6.344	0.100
717.600	-10.852	0.101
717.700	-11.965	0.101
717.800	-12.545	0.101
717.900	-9.988	0.101
718.000	-8.600	0.101
718.100	-5.482	0.101
718.200	-13.745	0.101
718.300	-15.689	0.101
718.400	-6.081	0.101
718.500	-16.588	0.101
718.600	-17.122	0.101
718.700	-13.156	0.101
718.800	-20.418	0.101
718.900	-9.571	0.101
719.000	-16.797	0.101
719.100	-12.762	0.101
719.200	-10.172	0.101
719.300	-13.448	0.101
719.400	-11.897	0.101
719.500	-2.496	0.101
719.600	-13.011	0.101
719.700	-8.470	0.101
719.800	-12.320	0.101
719.900	-22.440	0.101
720.000	-8.656	0.101
720.100	-8.661	0.101
720.200	-13.829	0.101
720.300	-12.907	0.101
720.400	-5.837	0.101
720.500	-13.390	0.101
720.600	-5.539	0.101
720.700	-19.422	0.101
720.800	-7.580	0.101
720.900	-8.152	0.101
721.000	-7.460	0.101
721.100	-22.599	0.101
721.200	-10.220	0.101
721.300	-18.417	0.101
721.400	-15.025	0.101
721.500	-19.061	0.101
721.600	-12.552	0.101
721.700	-9.905	0.101
721.800	-10.904	0.101
721.900	-18.372	0.101
722.000	-25.946	0.101
722.100	-12.674	0.101
722.200	-22.300	0.101
722.300	-14.289	0.101
722.400	-12.451	0.101
722.500	-12.878	0.101
722.600	-12.875	0.101
722.700	-18.590	0.101
722.800	-19.714	0.101
722.900	-15.299	0.101
723.000	-18.949	0.101
723.100	-9.026	0.101
723.200	-25.401	0.101
723.300	-10.486	0.101
723.400	-20.321	0.101
723.500	-12.352	0.101
723.600	-9.515	0.101
723.700	-12.338	0.101
723.800	-21.620	0.100
723.900	-7.851	0.101
724.000	-16.931	0.101
724.100	-10.617	0.101
724.200	-8.087	0.100
724.300	-17.715	0.101
724.400	-6.086	0.101
724.500	-20.479	0.101
724.600	-11.368	0.101
724.700	-4.131	0.101
724.800	-2.267	0.101
724.900	-12.290	0.101
725.000	-33.194	0.101
725.100	-22.625	0.101
725.200	-11.857	0.101
725.300	-16.382	0.101
725.400	-13.248	0.101
725.500	-16.530	0.101
725.600	-11.504	0.101
725.700	-14.433	0.101
725.800	-14.942	0.101
725.900	-18.767	0.101
726.000	-4.508	0.101
726.100	-13.723	0.101
726.200	-19.379	0.101
726.300	-12.883	0.101
726.400	-13.451	0.101
726.500	-10.481	0.101
726.600	-8.657	0.101
726.700	-10.166	0.101
726.800	-11.219	0.101
726.900	-14.846	0.101
727.000	-15.521	0.101
727.100	-13.937	0.101
727.200	-20.229	0.100
727.300	-23.838	0.101
727.400	-20.924	0.101
727.500	-19.925	0.101
727.600	-23.469	0.101
727.700	-12.021	0.101
727.800	-12.451	0.101
727.900	-15.427	0.101
728.000	-14.748	0.101
728.100	-17.792	0.101
728.200	-20.006	0.101
728.300	-14.180	0.101
728.400	-13.701	0.101
728.500	-14.978	0.101
728.600	-20.680	0.101
728.700	-14.387	0.101
728.800	-27.774	0.101
728.900	-21.709	0.101
729.000	-18.202	0.101
729.100	-15.917	0.101
729.200	-12.984	0.101
729.300	-17.479	0.101
729.400	-12.797	0.100
729.500	-16.349	0.101
729.600	-11.341	0.101
729.700	-21.726	0.101
729.800	-15.080	0.101
729.900	-17.984	0.101
730.000	-9.965	0.101
730.100	-17.655	0.101
730.200	-13.054	0.101
730.300	-16.410	0.101
730.400	-20.084	0.101
730.500	-13.378	0.101
730.600	-13.374	0.101
730.700	-16.053	0.101
730.800	-17.164	0.101
730.900	-28.822	0.101
731.000	-23.727	0.100
731.100	-23.547	0.101
731.200	-16.878	0.101
731.300	-15.532	0.101
731.400	-8.433	0.101
731.500	-17.598	0.101
731.600	-17.453	0.101
731.700	-3.200	0.101
731.800	-9.120	0.101
731.900	-15.503	0.101
732.000	-13.685	0.101
732.100	-20.409	0.101
732.200	-20.933	0.101
732.300	-15.698	0.101
732.400	-18.552	0.101
732.500	-19.730	0.101
732.600	-15.841	0.101
732.700	-25.622	0.101
732.800	-10.664	0.101
732.900	-20.503	0.101
733.000	-17.857	0.101
733.100	-9.194	0.101
733.200	-11.532	0.101
733.300	-11.630	0.101
733.400	-18.659	0.101
733.500	-18.514	0.101
733.600	-14.529	0.101
733.700	-26.360	0.101
733.800	-5.988	0.101
733.900	-15.029	0.101
734.000	-9.014	0.101
734.100	-11.311	0.101
734.200	-22.206	0.101
734.300	-19.675	0.100
734.400	-10.195	0.101
734.500	-21.524	0.101
734.600	-19.272	0.101
734.700	-11.938	0.101
734.800	-15.136	0.101
734.900	-14.476	0.101
735.000	-11.251	0.101
735.100	-27.342	0.101
735.200	-17.800	0.101
735.300	-14.111	0.101
735.400	-20.259	0.101
735.500	-10.716	0.101
735.600	-13.953	0.101
735.700	-23.275	0.101
735.800	-20.671	0.101
735.900	-15.552	0.101
736.000	-16.367	0.101
736.100	-20.479	0.101
736.200	-11.936	0.101
736.300	-21.778	0.101
736.400	-22.707	0.101
736.500	-23.035	0.101
736.600	-11.776	0.101
736.700	-12.988	0.101
736.800	-15.151	0.101
736.900	-13.034	0.101
737.000	-9.340	0.101
737.100	-10.605	0.101
737.200	-17.168	0.101
737.300	-20.521	0.101
737.400	-19.378	0.101
737.500	-14.279	0.101
737.600	-14.848	0.101
737.700	-16.211	0.101
737.800	-19.051	0.101
737.900	-12.154	0.101
738.000	-11.484	0.101
738.100	-20.374	0.101
738.200	-14.288	0.101
738.300	-14.686	0.101
738.400	-7.871	0.101
738.500	-23.291	0.101
738.600	-8.487	0.101
738.700	-12.163	0.101
738.800	-17.111	0.101
738.900	-26.146	0.101
739.000	-25.374	0.101
739.100	-21.274	0.101
739.200	-11.019	0.101
739.300	-18.168	0.101
739.400	-15.799	0.101
739.500	-18.961	0.101
739.600	-10.600	0.101
739.700	-12.719	0.101
739.800	-15.279	0.101
739.900	-17.794	0.101
740.000	-14.938	0.101
740.100	-10.702	0.101
740.200	-12.251	0.101
740.300	-23.893	0.101
740.400	-20.708	0.101
740.500	-4.961	0.101
740.600	-16.973	0.101
740.700	-22.816	0.101
740.800	-13.524	0.101
740.900	-16.795	0.101
741.000	0.808	0.101
741.100	-22.107	0.101
741.200	-13.388	0.101
741.300	-20.712	0.101
741.400	-15.883	0.101
741.500	-17.469	0.101
741.600	-4.039	0.101
741.700	-15.350	0.101
741.800	-18.744	0.101
741.900	-14.673	0.101
742.000	-10.510	0.101
742.100	-12.800	0.101
742.200	-19.600	0.101
742.300	-9.512	0.101
742.400	-13.132	0.101
742.500	-13.892	0.101
742.600	-14.596	0.101
742.700	-8.786	0.101
742.800	-15.673	0.101
742.900	-15.858	0.101
743.000	-14.091	0.101
743.100	-16.622	0.101
743.200	-18.220	0.101
743.300	-22.236	0.101
743.400	-21.058	0.101
743.500	-0.758	0.101
743.600	-17.322	0.101
743.700	-25.803	0.101
743.800	-11.251	0.101
743.900	-4.045	0.101
744.000	-12.445	0.101
744.100	-14.823	0.101
744.200	-17.719	0.101
744.300	-16.036	0.101
744.400	-14.621	0.101
744.500	-15.793	0.101
744.600	-4.638	0.101
744.700	-22.761	0.101
744.800	-13.921	0.101
744.900	-10.140	0.101
745.000	-19.270	0.101
745.100	-12.305	0.101
745.200	-8.752	0.101
745.300	-17.169	0.101
745.400	-12.085	0.101
745.500	-17.876	0.101
745.600	-14.515	0.101
745.700	-19.831	0.101
745.800	-18.585	0.101
745.900	-11.271	0.101
746.000	-11.582	0.101
746.100	-16.948	0.101
746.200	-19.737	0.101
746.300	-18.626	0.101
746.400	-16.250	0.101
746.500	-1.996	0.101
746.600	-22.192	0.101
746.700	-11.846	0.101
746.800	-13.818	0.101
746.900	-11.803	0.101
747.000	-1.427	0.101
747.100	-7.265	0.101
747.200	-6.053	0.101
747.300	-28.056	0.101
747.400	-14.246	0.101
747.500	-23.243	0.101
747.600	-14.312	0.101
747.700	-10.900	0.101
747.800	-9.081	0.101
747.900	-19.715	0.101
748.000	-13.477	0.101
748.100	-10.066	0.101
748.200	-10.044	0.101
748.300	-18.094	0.101
748.400	-12.590	0.101
748.500	-6.517	0.101
748.600	-15.625	0.101
748.700	-17.126	0.101
748.800	-11.864	0.101
748.900	-12.708	0.101
749.000	-16.645	0.101
749.100	-12.690	0.101
749.200	-14.040	0.101
749.300	-15.293	0.101
749.400	-11.715	0.101
749.500	-9.723	0.101
749.600	-6.829	0.101
749.700	-1.806	0.101
749.800	-15.542	0.101
749.900	-27.190	0.101
750.000	-20.482	0.101
750.100	-13.270	0.101
750.200	-5.405	0.101
750.300	-13.157	0.101
750.400	-5.393	0.101
750.500	-19.059	0.101
750.600	-11.135	0.101
750.700	-11.061	0.101
750.800	-17.428	0.101
750.900	-13.227	0.101
751.000	-19.336	0.101
751.100	-11.351	0.101
751.200	-10.735	0.101
751.300	-13.176	0.101
751.400	-9.995	0.101
751.500	-12.672	0.101
751.600	-18.050	0.101
751.700	-8.730	0.101
751.800	-12.406	0.101
751.900	-14.015	0.101
752.000	-11.331	0.101
752.100	-11.941	0.101
752.200	-10.511	0.101
752.300	-17.791	0.101
752.400	-13.095	0.101
752.500	-13.326	0.101
752.600	-9.045	0.101
752.700	-5.745	0.101
752.800	-10.112	0.101
752.900	-14.834	0.101
753.000	-17.345	0.101
753.100	-12.014	0.101
753.200	-10.900	0.101
753.300	-11.948	0.101
753.400	-14.203	0.101
753.500	-9.959	0.101
753.600	-18.494	0.101
753.700	-8.342	0.101
753.800	-10.739	0.101
753.900	-5.630	0.101
754.000	-4.276	0.101
754.100	-11.143	0.101
754.200	-7.777	0.101
754.300	-12.137	0.101
754.400	-9.419	0.101
754.500	-11.040	0.101
754.600	-14.071	0.101
754.700	-18.612	0.101
754.800	-13.258	0.101
754.900	-17.064	0.101
755.000	-16.019	0.101
755.100	-16.542	0.101
755.200	-11.248	0.101
755.300	-13.917	0.101
755.400	-10.459	0.101
755.500	-5.578	0.101
755.600	-11.454	0.101
755.700	-19.559	0.101
755.800	-19.633	0.101
755.900	4.332	0.101
756.000	-13.250	0.101
756.100	-7.943	0.101
756.200	-12.614	0.101
756.300	-12.978	0.101
756.400	-14.809	0.101
756.500	-0.298	0.101
756.600	-12.881	0.101
756.700	-16.546	0.101
756.800	-14.502	0.101
756.900	-7.319	0.101
757.000	-13.278	0.101
757.100	-25.266	0.101
757.200	-18.211	0.101
757.300	-13.043	0.101
757.400	-7.300	0.101
757.500	-7.449	0.101
757.600	-12.892	0.101
757.700	-21.499	0.101
757.800	-16.451	0.101
757.900	-18.085	0.101
758.000	-13.383	0.101
758.100	-11.380	0.101
758.200	-0.143	0.101
758.300	-15.729	0.101
758.400	-15.657	0.101
758.500	-18.144	0.101
758.600	-21.138	0.101
758.700	-16.165	0.101
758.800	-2.841	0.101
758.900	-6.909	0.101
759.000	-10.112	0.101
759.100	-13.298	0.101
759.200	-18.893	0.101
759.300	-11.907	0.101
759.400	-4.301	0.101
759.500	-10.427	0.101
759.600	-19.032	0.101
759.700	-15.610	0.101
759.800	-16.133	0.101
759.900	-13.083	0.101
760.000	-11.712	0.101
760.100	-16.393	0.101
760.200	-9.308	0.101
760.300	-13.747	0.101
760.400	-9.655	0.101
760.500	-3.836	0.101
760.600	-8.034	0.101
760.700	-5.732	0.101
760.800	-11.571	0.101
760.900	-2.002	0.101
761.000	-21.954	0.101
761.100	-6.635	0.101
761.200	-5.680	0.101
761.300	-15.339	0.101
761.400	-17.169	0.101
761.500	-10.273	0.101
761.600	-12.784	0.101
761.700	-8.002	0.101
761.800	-13.176	0.101
761.900	-11.307	0.101
762.000	-5.478	0.101
762.100	-13.222	0.101
762.200	-12.996	0.101
762.300	-11.560	0.101
762.400	-11.273	0.101
762.500	-7.675	0.101
762.600	-8.449	0.101
762.700	-8.028	0.101
762.800	-14.308	0.101
762.900	4.247	0.101
763.000	-12.848	0.101
763.100	-9.241	0.101
763.200	-10.707	0.101
763.300	-9.693	0.101
763.400	-13.092	0.101
763.500	-17.891	0.101
763.600	-21.461	0.101
763.700	-4.412	0.101
763.800	-10.739	0.101
763.900	0.669	0.101
764.000	-25.121	0.101
764.100	-6.355	0.101
764.200	-20.485	0.101
764.300	-1.144	0.101
764.400	-2.988	0.101
764.500	-10.948	0.101
764.600	-22.029	0.101
764.700	-10.020	0.101
764.800	-21.349	0.101
764.900	1.275	0.101
765.000	-9.989	0.101
765.100	-14.425	0.101
765.200	-12.668	0.101
765.300	-8.680	0.101
765.400	-14.173	0.101
765.500	-16.017	0.101
765.600	-10.770	0.101
765.700	-4.774	0.101
765.800	-9.174	0.101
765.900	-3.552	0.101
766.000	-9.392	0.101
766.100	-10.054	0.101
766.200	-17.891	0.101
766.300	-8.536	0.101
766.400	-24.373	0.101
766.500	-11.923	0.101
766.600	-13.314	0.101
766.700	-8.294	0.101
766.800	-10.652	0.101
766.900	-16.531	0.101
767.000	-19.870	0.101
767.100	-1.879	0.101
767.200	-6.576	0.101
767.300	3.087	0.101
767.400	-14.084	0.101
767.500	-4.964	0.101
767.600	-11.899	0.101
767.700	-7.872	0.101
767.800	-12.757	0.101
767.900	-7.605	0.101
768.000	-9.595	0.101
768.100	-15.577	0.101
768.200	-17.923	0.101
768.300	-2.730	0.101
768.400	-3.902	0.101
768.500	-4.036	0.101
768.600	-21.274	0.101
768.700	-17.491	0.101
768.800	-15.042	0.101
768.900	-7.098	0.101
769.000	-11.639	0.101
769.100	-6.470	0.101
769.200	-3.074	0.101
769.300	-16.455	0.101
769.400	-9.550	0.101
769.500	-8.778	0.101
769.600	-8.380	0.101
769.700	2.265	0.101
769.800	-10.225	0.101
769.900	-19.134	0.101
770.000	-19.301	0.101
770.100	-6.164	0.101
770.200	-10.965	0.101
770.300	-6.597	0.101
770.400	-19.860	0.101
770.500	-8.389	0.101
770.600	-9.040	0.101
770.700	-12.910	0.101
770.800	-6.310	0.101
770.900	-3.868	0.101
771.000	-13.312	0.101
771.100	-9.273	0.101
771.200	-5.792	0.101
771.300	-9.452	0.101
771.400	-14.889	0.101
771.500	-6.924	0.101
771.600	-10.473	0.101
771.700	-13.122	0.101
771.800	-15.604	0.101
771.900	-5.589	0.101
772.000	-8.032	0.101
772.100	-12.470	0.101
772.200	-12.640	0.101
772.300	-0.897	0.101
772.400	-8.765	0.101
772.500	-3.264	0.101
772.600	0.923	0.101
772.700	-12.157	0.101
772.800	-6.046	0.101
772.900	-2.586	0.101
773.000	-7.800	0.101
773.100	-7.122	0.101
773.200	-15.640	0.101
773.300	-9.360	0.101
773.400	-20.748	0.101
773.500	-17.644	0.101
773.600	-14.257	0.101
773.700	-7.853	0.101
773.800	-11.967	0.101
773.900	-1.141	0.101
774.000	-12.331	0.101
774.100	0.721	0.101
774.200	-5.795	0.101
774.300	-9.616	0.101
774.400	2.324	0.101
774.500	0.300	0.101
774.600	-22.660	0.101
774.700	-11.538	0.101
774.800	-19.029	0.101
774.900	-5.905	0.101
775.000	-7.527	0.101
775.100	-6.749	0.101
775.200	-15.371	0.101
775.300	-19.273	0.101
775.400	-17.423	0.101
775.500	-16.705	0.101
775.600	-2.971	0.101
775.700	-7.382	0.101
775.800	-9.906	0.101
775.900	-12.003	0.101
776.000	-10.439	0.101
776.100	-7.132	0.101
776.200	-7.745	0.101
776.300	-1.213	0.101
776.400	-11.402	0.101
776.500	-2.474	0.101
776.600	-1.427	0.101
776.700	-13.078	0.101
776.800	-19.461	0.101
776.900	-13.598	0.101
777.000	-21.645	0.101
777.100	-7.198	0.101
777.200	-3.690	0.101
777.300	-4.355	0.101
777.400	-3.035	0.101
777.500	-7.669	0.101
777.600	-8.042	0.101
777.700	-0.266	0.101
777.800	-18.400	0.101
777.900	-9.594	0.101
778.000	-8.824	0.101
778.100	-14.785	0.101
778.200	-17.952	0.101
778.300	-11.639	0.101
778.400	-10.435	0.101
778.500	-4.801	0.101
778.600	-20.148	0.101
778.700	-7.822	0.101
778.800	-4.819	0.101
778.900	-9.554	0.101
779.000	-6.415	0.101
779.100	-12.261	0.101
779.200	-14.099	0.101
779.300	-8.331	0.101
779.400	-13.675	0.101
779.500	-5.672	0.101
779.600	-8.060	0.101
779.700	-11.621	0.101
779.800	-5.104	0.101
779.900	-10.893	0.101
780.000	-9.932	0.101
780.100	-8.376	0.101
780.200	-11.619	0.101
780.300	-13.968	0.101
780.400	-9.356	0.101
780.500	-9.716	0.101
780.600	-3.433	0.101
780.700	-3.990	0.101
780.800	-3.663	0.101
780.900	-19.655	0.101
781.000	-11.483	0.101
781.100	0.520	0.101
781.200	-8.277	0.101
781.300	-9.064	0.101
781.400	-5.073	0.101
781.500	-3.664	0.101
781.600	5.652	0.101
781.700	-1.500	0.101
781.800	-2.015	0.101
781.900	-1.567	0.101
782.000	1.254	0.101
782.100	3.051	0.101
782.200	1.603	0.101
782.300	15.893	0.101
782.400	-3.431	0.101
782.500	9.841	0.101
782.600	15.860	0.101
782.700	19.268	0.101
782.800	8.958	0.101
782.900	8.585	0.101
783.000	6.588	0.101
783.100	16.715	0.101
783.200	8.382	0.101
783.300	6.139	0.101
783.400	6.357	0.101
783.500	14.972	0.101
783.600	2.586	0.101
783.700	18.031	0.101
783.800	5.451	0.101
783.900	16.825	0.101
784.000	11.761	0.101
784.100	16.500	0.101
784.200	6.612	0.101
784.300	8.800	0.101
784.400	19.540	0.101
784.500	15.405	0.101
784.600	18.724	0.101
784.700	19.814	0.101
784.800	12.972	0.101
784.900	14.436	0.101
785.000	6.721	0.101
785.100	12.975	0.101
785.200	21.657	0.101
785.300	21.117	0.101
785.400	8.305	0.101
785.500	13.553	0.101
785.600	8.504	0.101
785.700	6.041	0.101
785.800	10.387	0.101
785.900	11.300	0.101
786.000	8.323	0.101
786.100	14.093	0.101
786.200	9.579	0.101
786.300	8.905	0.101
786.400	8.258	0.101
786.500	0.485	0.101
786.600	10.314	0.101
786.700	12.068	0.101
786.800	4.259	0.101
786.900	14.889	0.101
787.000	11.769	0.101
787.100	7.269	0.101
787.200	4.790	0.101
787.300	7.918	0.101
787.400	10.983	0.101
787.500	12.614	0.101
787.600	11.418	0.101
787.700	3.490	0.101
787.800	12.589	0.101
787.900	5.902	0.101
788.000	2.797	0.101
788.100	12.313	0.101
788.200	7.494	0.101
788.300	2.304	0.101
788.400	2.049	0.101
788.500	7.949	0.101
788.600	6.126	0.101
788.700	5.890	0.101
788.800	9.339	0.101
788.900	4.951	0.101
789.000	3.994	0.101
789.100	-0.659	0.101
789.200	-2.032	0.101
789.300	5.349	0.101
789.400	15.738	0.101
789.500	2.775	0.101
789.600	5.839	0.101
789.700	2.635	0.101
789.800	9.777	0.101
789.900	7.302	0.101
790.000	5.119	0.101
790.100	-2.543	0.101
790.200	2.041	0.101
790.300	1.494	0.101
790.400	8.855	0.101
790.500	13.462	0.101
790.600	16.228	0.101
790.700	7.208	0.101
790.800	11.693	0.101
790.900	3.853	0.101
791.000	1.468	0.101
791.100	4.710	0.101
791.200	13.551	0.101
791.300	14.334	0.101
791.400	4.294	0.101
791.500	4.256	0.101
791.600	9.121	0.101
791.700	11.438	0.101
791.800	14.596	0.101
791.900	7.353	0.101
792.000	5.101	0.101
792.100	15.573	0.101
792.200	0.118	0.101
792.300	11.687	0.101
792.400	11.388	0.101
792.500	1.893	0.101
792.600	12.498	0.101
792.700	-3.746	0.101
792.800	8.074	0.101
792.900	8.845	0.101
793.000	9.506	0.101
793.100	17.273	0.101
793.200	13.872	0.101
793.300	0.216	0.101
793.400	6.294	0.101
793.500	12.239	0.101
793.600	7.191	0.101
793.700	1.170	0.101
793.800	13.375	0.101
793.900	6.566	0.101
794.000	15.776	0.101
794.100	2.367	0.101
794.200	-4.023	0.101
794.300	17.416	0.101
794.400	8.609	0.101
794.500	5.586	0.101
794.600	16.643	0.101
794.700	6.358	0.101
794.800	5.607	0.101
794.900	10.104	0.101
795.000	13.656	0.101
795.100	9.887	0.101
795.200	5.382	0.101
795.300	7.907	0.101
795.400	1.993	0.101
795.500	11.991	0.101
795.600	20.535	0.101
795.700	8.343	0.101
795.800	1.896	0.101
795.900	9.775	0.101
796.000	15.123	0.101
796.100	-0.037	0.101
796.200	12.821	0.101
796.300	9.407	0.101
796.400	12.161	0.101
796.500	2.744	0.101
796.600	11.100	0.101
796.700	12.379	0.101
796.800	20.252	0.101
796.900	23.504	0.101
797.000	7.527	0.101
797.100	4.960	0.101
797.200	16.283	0.101
797.300	7.049	0.101
797.400	5.769	0.101
797.500	7.221	0.101
797.600	4.410	0.101
797.700	3.697	0.101
797.800	15.897	0.101
797.900	13.641	0.101
798.000	8.331	0.101
798.100	10.524	0.101
798.200	20.881	0.101
798.300	7.158	0.101
798.400	14.151	0.101
798.500	14.495	0.101
798.600	12.718	0.101
798.700	9.421	0.101
798.800	15.229	0.101
798.900	23.279	0.101
799.000	16.310	0.101
799.100	12.599	0.101
799.200	15.755	0.101
799.300	11.239	0.101
799.400	5.109	0.101
799.500	5.816	0.101
799.600	10.334	0.101
799.700	10.492	0.101
799.800	9.874	0.101
799.900	4.720	0.101
800.000	7.598	0.101
