time /s	I /nA	E /V
0.100	-23.376	0.101
0.200	-6.112	0.101
0.300	-19.526	0.101
0.400	-16.303	0.101
0.500	-17.937	0.101
0.600	-21.118	0.101
0.700	-11.561	0.101
0.800	-12.272	0.101
0.900	-9.102	0.101
1.000	-17.184	0.101
1.100	-11.900	0.101
1.200	-5.744	0.101
1.300	-17.794	0.101
1.400	-9.523	0.101
1.500	-14.498	0.101
1.600	-12.891	0.101
1.700	-12.087	0.101
1.800	-9.964	0.101
1.900	-15.223	0.101
2.000	-16.114	0.101
2.100	-11.588	0.101
2.200	-5.318	0.101
2.300	-18.178	0.101
2.400	-16.248	0.101
2.500	-18.149	0.101
2.600	-9.273	0.101
2.700	-13.758	0.101
2.800	-16.405	0.101
2.900	-10.353	0.101
3.000	-9.168	0.101
3.100	-8.957	0.101
3.200	-11.062	0.101
3.300	-17.061	0.101
3.400	-11.752	0.101
3.500	-9.637	0.101
3.600	-9.277	0.101
3.700	-14.041	0.101
3.800	-15.651	0.101
3.900	-15.397	0.101
4.000	-4.439	0.101
4.100	4.671	0.101
4.200	-14.116	0.101
4.300	-18.981	0.101
4.400	-20.053	0.101
4.500	-13.542	0.101
4.600	-11.306	0.101
4.700	-14.747	0.101
4.800	-11.905	0.101
4.900	-21.046	0.101
5.000	-15.352	0.101
5.100	-9.250	0.101
5.200	-5.691	0.101
5.300	-10.449	0.101
5.400	-9.629	0.101
5.500	-12.398	0.101
5.600	-7.737	0.101
5.700	-5.312	0.101
5.800	-9.560	0.101
5.900	-24.021	0.101
6.000	-17.028	0.101
6.100	-11.934	0.101
6.200	-18.733	0.101
6.300	-16.872	0.101
6.400	-13.734	0.101
6.500	-16.990	0.101
6.600	-13.609	0.101
6.700	-6.348	0.101
6.800	-16.940	0.101
6.900	-13.238	0.101
7.000	-16.628	0.101
7.100	-11.263	0.101
7.200	-10.128	0.101
7.300	-9.909	0.101
7.400	-3.893	0.101
7.500	-11.743	0.101
7.600	-21.605	0.101
7.700	-14.366	0.101
7.800	-8.900	0.101
7.900	0.777	0.101
8.000	-8.099	0.101
8.100	-2.506	0.101
8.200	-11.762	0.101
8.300	-7.823	0.101
8.400	-17.959	0.101
8.500	-14.780	0.101
8.600	-12.627	0.101
8.700	-5.325	0.101
8.800	-11.469	0.101
8.900	-6.817	0.101
9.000	-16.000	0.101
9.100	-11.000	0.101
9.200	-16.820	0.101
9.300	-17.982	0.101
9.400	-13.906	0.101
9.500	-4.377	0.101
9.600	-14.497	0.101
9.700	-4.631	0.101
9.800	-19.346	0.101
9.900	-17.307	0.101
10.000	-14.977	0.101
10.100	0.759	0.101
10.200	3.572	0.101
10.300	-11.861	0.101
10.400	-17.897	0.101
10.500	-15.378	0.101
10.600	-14.953	0.101
10.700	-16.982	0.101
10.800	-8.963	0.101
10.900	-15.437	0.101
11.000	-9.386	0.101
11.100	-8.343	0.101
11.200	-6.084	0.101
11.300	-16.497	0.101
11.400	-14.227	0.101
11.500	-6.372	0.101
11.600	-13.551	0.101
11.700	-10.105	0.101
11.800	-12.782	0.101
11.900	-4.631	0.101
12.000	-12.597	0.101
12.100	-4.135	0.101
12.200	-6.469	0.101
12.300	-18.436	0.101
12.400	-19.592	0.101
12.500	-5.340	0.101
12.600	-15.697	0.101
12.700	-4.751	0.101
12.800	-16.793	0.101
12.900	-9.348	0.101
13.000	-17.157	0.101
13.100	-17.288	0.101
13.200	-9.289	0.101
13.300	-8.688	0.101
13.400	-4.710	0.101
13.500	2.721	0.101
13.600	-14.290	0.101
13.700	-11.204	0.101
13.800	-16.527	0.101
13.900	-20.877	0.101
14.000	-16.935	0.101
14.100	-14.806	0.101
14.200	-16.385	0.101
14.300	1.304	0.101
14.400	-16.372	0.101
14.500	-22.465	0.101
14.600	-16.710	0.101
14.700	-7.825	0.101
14.800	-6.073	0.101
14.900	-9.558	0.101
15.000	-1.902	0.101
15.100	-10.508	0.101
15.200	-10.188	0.101
15.300	-17.351	0.101
15.400	-20.662	0.101
15.500	-14.725	0.101
15.600	-18.000	0.101
15.700	-6.196	0.101
15.800	-0.782	0.101
15.900	-7.023	0.101
16.000	-1.256	0.101
16.100	-5.354	0.101
16.200	-2.499	0.101
16.300	-23.927	0.101
16.400	-10.192	0.101
16.500	-6.067	0.101
16.600	-10.662	0.101
16.700	-2.460	0.101
16.800	-11.465	0.101
16.900	-10.800	0.101
17.000	-8.432	0.101
17.100	-0.018	0.101
17.200	-8.369	0.101
17.300	-6.636	0.101
17.400	-15.795	0.101
17.500	-21.630	0.101
17.600	-6.768	0.101
17.700	-12.256	0.101
17.800	-16.012	0.101
17.900	-8.099	0.101
18.000	-4.421	0.101
18.100	-15.064	0.101
18.200	-19.927	0.101
18.300	-13.066	0.101
18.400	-24.544	0.101
18.500	-10.448	0.101
18.600	-19.524	0.101
18.700	-10.682	0.101
18.800	-11.005	0.101
18.900	-3.473	0.101
19.000	-7.907	0.101
19.100	-10.637	0.101
19.200	-7.825	0.101
19.300	-5.767	0.101
19.400	-14.455	0.101
19.500	-22.811	0.101
19.600	-15.500	0.101
19.700	-5.905	0.101
19.800	-9.610	0.101
19.900	-15.904	0.101
20.000	-13.352	0.101
20.100	-16.727	0.101
20.200	-16.996	0.101
20.300	-16.941	0.101
20.400	-2.153	0.101
20.500	-11.861	0.101
20.600	-10.398	0.101
20.700	-13.570	0.101
20.800	-19.049	0.101
20.900	-2.103	0.101
21.000	-15.367	0.101
21.100	-20.604	0.101
21.200	-10.728	0.101
21.300	-12.734	0.101
21.400	-15.398	0.101
21.500	-9.362	0.101
21.600	-10.375	0.101
21.700	-12.799	0.101
21.800	-8.995	0.101
21.900	-2.647	0.101
22.000	-7.748	0.101
22.100	-9.631	0.101
22.200	-8.899	0.101
22.300	-16.559	0.101
22.400	-15.478	0.101
22.500	-14.679	0.101
22.600	-10.384	0.101
22.700	-16.556	0.101
22.800	-8.646	0.101
22.900	-8.875	0.101
23.000	-8.267	0.101
23.100	-13.235	0.101
23.200	-16.541	0.101
23.300	-15.778	0.101
23.400	-1.717	0.101
23.500	-10.443	0.101
23.600	-12.936	0.101
23.700	-14.875	0.101
23.800	-12.796	0.101
23.900	-3.643	0.101
24.000	-5.245	0.101
24.100	-12.366	0.101
24.200	-17.431	0.101
24.300	-21.030	0.101
24.400	-14.920	0.101
24.500	-20.051	0.101
24.600	-11.355	0.101
24.700	-5.864	0.101
24.800	-3.336	0.101
24.900	-26.954	0.101
25.000	-17.264	0.101
25.100	-20.513	0.101
25.200	-7.341	0.101
25.300	-11.613	0.101
25.400	-8.360	0.101
25.500	-16.342	0.101
25.600	-11.360	0.101
25.700	-7.215	0.101
25.800	-10.337	0.101
25.900	-12.211	0.101
26.000	-8.018	0.101
26.100	-12.898	0.101
26.200	-0.696	0.101
26.300	-16.492	0.101
26.400	-8.908	0.101
26.500	-17.253	0.101
26.600	-12.334	0.101
26.700	-4.889	0.101
26.800	-21.830	0.101
26.900	-4.013	0.101
27.000	-3.766	0.101
27.100	-5.839	0.101
27.200	-2.558	0.101
27.300	-15.696	0.101
27.400	-13.420	0.101
27.500	-24.007	0.101
27.600	-17.360	0.101
27.700	-9.402	0.101
27.800	0.109	0.101
27.900	-15.106	0.101
28.000	-2.811	0.101
28.100	-11.874	0.101
28.200	-15.154	0.101
28.300	-0.250	0.101
28.400	-8.825	0.101
28.500	-13.337	0.101
28.600	-12.079	0.101
28.700	-15.263	0.101
28.800	-12.277	0.101
28.900	-17.235	0.101
29.000	-16.060	0.101
29.100	-12.908	0.101
29.200	-12.361	0.101
29.300	-16.646	0.101
29.400	-13.148	0.101
29.500	-14.486	0.101
29.600	-11.132	0.101
29.700	-10.628	0.101
29.800	-4.593	0.101
29.900	-5.835	0.101
30.000	-14.896	0.101
30.100	-0.759	0.101
30.200	-1.660	0.101
30.300	-11.489	0.101
30.400	-5.742	0.101
30.500	-5.917	0.101
30.600	-10.309	0.101
30.700	-3.579	0.101
30.800	-3.655	0.101
30.900	1.195	0.101
31.000	1.619	0.101
31.100	7.653	0.101
31.200	9.034	0.101
31.300	21.088	0.101
31.400	11.866	0.101
31.500	7.740	0.101
31.600	5.324	0.101
31.700	5.333	0.101
31.800	14.308	0.101
31.900	2.335	0.101
32.000	14.825	0.101
32.100	21.056	0.101
32.200	18.845	0.101
32.300	20.237	0.101
32.400	11.631	0.101
32.500	19.890	0.101
32.600	7.333	0.101
32.700	14.869	0.101
32.800	25.879	0.101
32.900	16.414	0.101
33.000	22.377	0.101
33.100	11.577	0.101
33.200	11.231	0.101
33.300	8.346	0.101
33.400	18.648	0.101
33.500	30.312	0.101
33.600	16.079	0.101
33.700	15.140	0.101
33.800	18.965	0.101
33.900	24.686	0.101
34.000	14.349	0.101
34.100	16.857	0.101
34.200	22.437	0.101
34.300	20.754	0.101
34.400	20.091	0.101
34.500	5.518	0.101
34.600	15.061	0.101
34.700	21.921	0.101
34.800	30.091	0.101
34.900	21.864	0.101
35.000	7.250	0.101
35.100	11.403	0.101
35.200	6.839	0.101
35.300	7.013	0.101
35.400	14.306	0.101
35.500	11.606	0.101
35.600	16.504	0.101
35.700	20.039	0.101
35.800	20.019	0.101
35.900	6.650	0.101
36.000	12.526	0.101
36.100	8.439	0.101
36.200	7.516	0.101
36.300	8.092	0.101
36.400	6.691	0.101
36.500	10.117	0.101
36.600	14.994	0.101
36.700	8.420	0.101
36.800	18.721	0.101
36.900	21.401	0.101
37.000	11.658	0.101
37.100	11.717	0.101
37.200	14.761	0.101
37.300	6.702	0.101
37.400	12.719	0.101
37.500	18.742	0.101
37.600	9.900	0.101
37.700	15.523	0.101
37.800	13.511	0.101
37.900	3.178	0.101
38.000	7.696	0.101
38.100	10.944	0.101
38.200	9.891	0.101
38.300	7.691	0.101
38.400	5.690	0.101
38.500	9.231	0.101
38.600	16.554	0.101
38.700	9.570	0.101
38.800	13.809	0.101
38.900	18.435	0.101
39.000	29.972	0.101
39.100	18.066	0.101
39.200	4.045	0.101
39.300	3.291	0.101
39.400	6.503	0.101
39.500	-4.040	0.101
39.600	16.690	0.101
39.700	19.046	0.101
39.800	14.734	0.101
39.900	8.050	0.101
40.000	0.027	0.101
40.100	0.313	0.101
40.200	3.014	0.101
40.300	7.740	0.101
40.400	11.630	0.101
40.500	12.934	0.101
40.600	15.014	0.101
40.700	4.604	0.101
40.800	2.764	0.101
40.900	10.629	0.101
41.000	12.077	0.101
41.100	13.804	0.101
41.200	8.824	0.101
41.300	8.118	0.101
41.400	15.690	0.101
41.500	15.429	0.101
41.600	1.387	0.101
41.700	7.410	0.101
41.800	7.200	0.101
41.900	2.824	0.101
42.000	18.275	0.101
42.100	11.847	0.101
42.200	8.261	0.101
42.300	13.949	0.101
42.400	8.535	0.101
42.500	3.832	0.101
42.600	18.677	0.101
42.700	16.648	0.101
42.800	8.717	0.101
42.900	13.377	0.101
43.000	13.784	0.101
43.100	12.674	0.101
43.200	5.805	0.101
43.300	18.398	0.101
43.400	6.926	0.101
43.500	23.424	0.101
43.600	28.661	0.101
43.700	17.666	0.101
43.800	20.126	0.101
43.900	7.431	0.101
44.000	15.502	0.101
44.100	23.590	0.101
44.200	22.487	0.101
44.300	19.068	0.101
44.400	17.767	0.101
44.500	11.559	0.101
44.600	11.553	0.101
44.700	15.798	0.101
44.800	26.867	0.101
44.900	12.941	0.101
45.000	1.888	0.101
45.100	4.112	0.101
45.200	7.091	0.101
45.300	22.014	0.101
45.400	7.150	0.101
45.500	12.774	0.101
45.600	14.943	0.101
45.700	10.806	0.101
45.800	21.234	0.101
45.900	13.762	0.101
46.000	15.557	0.101
46.100	13.854	0.101
46.200	14.658	0.101
46.300	19.051	0.101
46.400	19.073	0.101
46.500	23.893	0.101
46.600	6.742	0.101
46.700	6.214	0.101
46.800	19.758	0.101
46.900	2.918	0.101
47.000	13.294	0.101
47.100	11.516	0.101
47.200	13.440	0.101
47.300	16.227	0.101
47.400	21.684	0.101
47.500	17.154	0.101
47.600	22.207	0.101
47.700	20.388	0.101
47.800	2.022	0.101
47.900	9.904	0.101
48.000	19.883	0.101
48.100	25.381	0.101
48.200	24.478	0.101
48.300	15.415	0.101
48.400	13.073	0.101
48.500	15.577	0.101
48.600	26.099	0.101
48.700	15.789	0.101
48.800	22.123	0.101
48.900	18.253	0.101
49.000	9.870	0.101
49.100	13.916	0.101
49.200	11.237	0.101
49.300	10.002	0.101
49.400	16.234	0.101
49.500	27.510	0.101
49.600	18.446	0.101
49.700	10.168	0.101
49.800	18.816	0.101
49.900	14.745	0.101
50.000	31.592	0.101
50.100	27.376	0.101
50.200	18.270	0.101
50.300	14.336	0.101
50.400	13.269	0.101
50.500	18.547	0.101
50.600	7.606	0.101
50.700	19.055	0.101
50.800	9.143	0.101
50.900	9.479	0.101
51.000	10.487	0.101
51.100	28.003	0.101
51.200	28.145	0.101
51.300	33.326	0.101
51.400	21.444	0.101
51.500	27.404	0.101
51.600	9.312	0.101
51.700	10.143	0.101
51.800	17.557	0.101
51.900	13.185	0.101
52.000	15.973	0.101
52.100	22.102	0.101
52.200	19.176	0.101
52.300	30.186	0.101
52.400	24.234	0.101
52.500	23.092	0.101
52.600	28.354	0.101
52.700	12.290	0.101
52.800	9.984	0.101
52.900	18.570	0.101
53.000	13.269	0.101
53.100	10.574	0.101
53.200	15.535	0.101
53.300	13.336	0.101
53.400	20.496	0.101
53.500	31.310	0.101
53.600	15.177	0.101
53.700	21.746	0.101
53.800	14.200	0.101
53.900	22.678	0.101
54.000	18.892	0.101
54.100	13.523	0.101
54.200	25.848	0.101
54.300	24.208	0.101
54.400	31.353	0.101
54.500	22.631	0.101
54.600	23.958	0.101
54.700	15.905	0.101
54.800	18.515	0.101
54.900	22.062	0.101
55.000	19.092	0.101
55.100	14.076	0.101
55.200	22.703	0.101
55.300	20.632	0.101
55.400	19.953	0.101
55.500	28.327	0.101
55.600	24.551	0.101
55.700	41.548	0.101
55.800	15.294	0.101
55.900	18.307	0.101
56.000	19.512	0.101
56.100	19.273	0.101
56.200	18.424	0.101
56.300	17.732	0.101
56.400	29.990	0.101
56.500	10.020	0.101
56.600	14.914	0.101
56.700	17.650	0.101
56.800	13.577	0.101
56.900	17.648	0.101
57.000	20.021	0.101
57.100	25.498	0.101
57.200	25.919	0.101
57.300	16.259	0.101
57.400	22.398	0.101
57.500	25.659	0.101
57.600	26.636	0.101
57.700	22.753	0.101
57.800	26.919	0.101
57.900	24.273	0.101
58.000	33.311	0.101
58.100	20.792	0.101
58.200	19.611	0.101
58.300	20.849	0.101
58.400	16.393	0.101
58.500	28.201	0.101
58.600	22.090	0.101
58.700	28.362	0.101
58.800	31.170	0.101
58.900	23.488	0.101
59.000	26.189	0.101
59.100	20.556	0.101
59.200	29.507	0.101
59.300	24.699	0.101
59.400	30.247	0.101
59.500	33.957	0.101
59.600	27.821	0.101
59.700	14.217	0.101
59.800	19.286	0.101
59.900	30.777	0.101
60.000	16.296	0.101
60.100	15.101	0.101
60.200	15.355	0.101
60.300	25.087	0.101
60.400	30.956	0.101
60.500	28.244	0.101
60.600	26.859	0.101
60.700	22.324	0.101
60.800	34.260	0.101
60.900	26.587	0.101
61.000	16.258	0.101
61.100	19.843	0.101
61.200	26.088	0.101
61.300	20.600	0.101
61.400	26.099	0.101
61.500	22.963	0.101
61.600	33.169	0.101
61.700	29.740	0.101
61.800	30.939	0.101
61.900	23.392	0.101
62.000	28.948	0.101
62.100	24.085	0.101
62.200	23.021	0.101
62.300	23.575	0.101
62.400	22.767	0.101
62.500	20.716	0.101
62.600	8.053	0.101
62.700	21.184	0.101
62.800	19.641	0.101
62.900	21.717	0.101
63.000	19.439	0.101
63.100	34.584	0.101
63.200	30.691	0.101
63.300	22.520	0.101
63.400	31.012	0.101
63.500	28.658	0.101
63.600	25.672	0.101
63.700	18.264	0.101
63.800	25.860	0.101
63.900	28.986	0.101
64.000	26.775	0.101
64.100	21.454	0.101
64.200	20.417	0.101
64.300	35.951	0.101
64.400	29.764	0.101
64.500	34.786	0.101
64.600	20.699	0.101
64.700	34.366	0.101
64.800	19.059	0.101
64.900	25.373	0.101
65.000	27.802	0.101
65.100	22.425	0.101
65.200	24.530	0.101
65.300	17.450	0.101
65.400	32.029	0.101
65.500	29.137	0.101
65.600	27.202	0.101
65.700	32.808	0.101
65.800	20.564	0.101
65.900	31.676	0.101
66.000	21.357	0.101
66.100	34.697	0.101
66.200	33.107	0.101
66.300	32.999	0.101
66.400	30.985	0.101
66.500	16.512	0.101
66.600	15.469	0.101
66.700	30.519	0.101
66.800	27.195	0.101
66.900	24.071	0.101
67.000	34.537	0.101
67.100	24.000	0.101
67.200	33.282	0.101
67.300	30.084	0.101
67.400	31.757	0.101
67.500	30.640	0.101
67.600	25.849	0.101
67.700	19.193	0.101
67.800	21.054	0.101
67.900	28.877	0.101
68.000	37.279	0.101
68.100	36.906	0.101
68.200	26.532	0.101
68.300	26.719	0.101
68.400	28.772	0.101
68.500	26.287	0.101
68.600	29.664	0.101
68.700	25.355	0.101
68.800	24.754	0.101
68.900	26.045	0.101
69.000	26.757	0.101
69.100	19.173	0.101
69.200	32.733	0.101
69.300	26.224	0.101
69.400	30.931	0.101
69.500	30.386	0.101
69.600	37.360	0.101
69.700	31.642	0.101
69.800	32.289	0.101
69.900	31.967	0.101
70.000	28.477	0.101
70.100	23.181	0.101
70.200	34.408	0.101
70.300	34.770	0.101
70.400	38.189	0.101
70.500	34.197	0.101
70.600	34.986	0.101
70.700	19.071	0.101
70.800	16.979	0.101
70.900	32.086	0.101
71.000	26.966	0.101
71.100	28.601	0.101
71.200	45.535	0.101
71.300	28.170	0.101
71.400	23.109	0.101
71.500	30.520	0.101
71.600	25.615	0.101
71.700	33.500	0.101
71.800	24.042	0.101
71.900	27.398	0.101
72.000	17.594	0.101
72.100	17.326	0.101
72.200	24.680	0.101
72.300	31.838	0.101
72.400	32.713	0.101
72.500	28.353	0.101
72.600	30.098	0.101
72.700	34.329	0.101
72.800	33.256	0.101
72.900	28.195	0.101
73.000	26.256	0.101
73.100	36.121	0.101
73.200	17.517	0.101
73.300	32.317	0.101
73.400	40.367	0.101
73.500	42.424	0.101
73.600	34.984	0.101
73.700	30.808	0.101
73.800	17.678	0.101
73.900	19.272	0.101
74.000	36.890	0.101
74.100	29.302	0.101
74.200	32.304	0.101
74.300	31.850	0.101
74.400	39.599	0.101
74.500	24.136	0.101
74.600	25.331	0.101
74.700	32.467	0.101
74.800	27.472	0.101
74.900	36.235	0.101
75.000	22.897	0.101
75.100	29.024	0.101
75.200	26.566	0.101
75.300	25.439	0.101
75.400	37.093	0.101
75.500	32.655	0.101
75.600	41.414	0.101
75.700	30.297	0.101
75.800	38.111	0.101
75.900	41.560	0.101
76.000	27.184	0.101
76.100	30.053	0.101
76.200	35.205	0.101
76.300	29.300	0.101
76.400	37.525	0.101
76.500	23.932	0.101
76.600	28.000	0.101
76.700	37.722	0.101
76.800	34.839	0.101
76.900	38.401	0.101
77.000	24.681	0.101
77.100	30.785	0.101
77.200	25.384	0.101
77.300	39.428	0.101
77.400	32.222	0.101
77.500	38.220	0.101
77.600	27.361	0.101
77.700	25.219	0.101
77.800	34.861	0.101
77.900	34.121	0.101
78.000	40.501	0.101
78.100	30.024	0.101
78.200	30.627	0.101
78.300	32.692	0.101
78.400	31.673	0.101
78.500	37.823	0.101
78.600	37.709	0.101
78.700	37.703	0.101
78.800	33.659	0.101
78.900	28.618	0.101
79.000	23.675	0.101
79.100	25.283	0.101
79.200	33.290	0.101
79.300	42.795	0.101
79.400	33.480	0.101
79.500	35.538	0.101
79.600	30.410	0.101
79.700	28.312	0.101
79.800	36.639	0.101
79.900	34.269	0.101
80.000	27.026	0.101
80.100	23.449	0.101
80.200	30.632	0.101
80.300	37.704	0.101
80.400	41.065	0.101
80.500	25.550	0.101
80.600	25.077	0.101
80.700	23.850	0.101
80.800	31.762	0.101
80.900	33.638	0.101
81.000	29.018	0.101
81.100	30.179	0.101
81.200	35.392	0.101
81.300	25.625	0.101
81.400	30.102	0.101
81.500	37.847	0.101
81.600	42.550	0.101
81.700	33.206	0.101
81.800	26.730	0.101
81.900	31.671	0.101
82.000	31.988	0.101
82.100	37.628	0.101
82.200	41.296	0.101
82.300	32.969	0.101
82.400	44.957	0.101
82.500	38.757	0.101
82.600	36.107	0.101
82.700	39.803	0.101
82.800	35.017	0.101
82.900	24.793	0.101
83.000	37.022	0.101
83.100	26.562	0.101
83.200	31.097	0.101
83.300	44.912	0.101
83.400	42.994	0.101
83.500	28.511	0.101
83.600	32.362	0.101
83.700	43.717	0.101
83.800	38.719	0.101
83.900	33.696	0.101
84.000	29.172	0.101
84.100	37.325	0.101
84.200	31.057	0.101
84.300	34.559	0.101
84.400	22.210	0.101
84.500	28.077	0.101
84.600	35.109	0.101
84.700	35.707	0.101
84.800	28.523	0.101
84.900	41.503	0.101
85.000	27.432	0.101
85.100	31.827	0.101
85.200	29.417	0.101
85.300	35.921	0.101
85.400	34.014	0.101
85.500	29.689	0.101
85.600	38.833	0.101
85.700	39.004	0.101
85.800	34.428	0.101
85.900	26.828	0.101
86.000	42.319	0.101
86.100	28.861	0.101
86.200	24.394	0.101
86.300	24.485	0.101
86.400	41.331	0.101
86.500	21.727	0.101
86.600	37.286	0.101
86.700	30.850	0.101
86.800	24.778	0.101
86.900	45.436	0.101
87.000	35.116	0.101
87.100	41.003	0.101
87.200	35.344	0.101
87.300	31.382	0.101
87.400	29.129	0.101
87.500	27.959	0.101
87.600	31.333	0.101
87.700	32.576	0.101
87.800	34.032	0.101
87.900	40.539	0.101
88.000	41.900	0.101
88.100	38.122	0.101
88.200	19.910	0.101
88.300	31.320	0.101
88.400	38.164	0.101
88.500	41.229	0.101
88.600	41.581	0.101
88.700	33.183	0.101
88.800	20.998	0.101
88.900	20.149	0.101
89.000	31.481	0.101
89.100	37.955	0.101
89.200	28.591	0.101
89.300	39.102	0.101
89.400	35.035	0.101
89.500	33.015	0.101
89.600	31.996	0.101
89.700	41.879	0.101
89.800	37.069	0.101
89.900	35.929	0.101
90.000	36.622	0.101
90.100	18.545	0.101
90.200	22.611	0.101
90.300	28.469	0.101
90.400	27.571	0.101
90.500	26.706	0.101
90.600	29.719	0.101
90.700	19.687	0.101
90.800	28.448	0.101
90.900	26.982	0.101
91.000	27.058	0.101
91.100	18.383	0.101
91.200	19.215	0.101
91.300	19.713	0.101
91.400	13.143	0.101
91.500	13.359	0.101
91.600	1.949	0.101
91.700	7.623	0.101
91.800	18.369	0.101
91.900	15.861	0.101
92.000	10.676	0.101
92.100	14.275	0.101
92.200	14.529	0.101
92.300	2.276	0.101
92.400	14.509	0.101
92.500	15.463	0.101
92.600	13.581	0.101
92.700	15.569	0.101
92.800	5.207	0.101
92.900	1.595	0.101
93.000	-1.548	0.101
93.100	-0.380	0.101
93.200	9.061	0.101
93.300	2.419	0.101
93.400	8.220	0.101
93.500	7.884	0.101
93.600	14.383	0.101
93.700	3.433	0.101
93.800	-0.901	0.101
93.900	-12.828	0.101
94.000	3.567	0.101
94.100	-5.296	0.101
94.200	13.436	0.101
94.300	9.221	0.101
94.400	0.430	0.101
94.500	0.176	0.101
94.600	-3.297	0.101
94.700	6.542	0.101
94.800	6.210	0.101
94.900	11.759	0.101
95.000	-3.110	0.101
95.100	0.773	0.101
95.200	12.327	0.101
95.300	4.083	0.101
95.400	11.024	0.101
95.500	3.052	0.101
95.600	6.915	0.101
95.700	-4.300	0.101
95.800	-2.253	0.101
95.900	-1.538	0.101
96.000	13.754	0.101
96.100	10.579	0.101
96.200	3.554	0.101
96.300	-10.843	0.101
96.400	-0.278	0.101
96.500	2.668	0.101
96.600	-0.645	0.101
96.700	-4.268	0.101
96.800	3.158	0.101
96.900	-0.326	0.101
97.000	-1.550	0.101
97.100	-4.274	0.101
97.200	12.428	0.101
97.300	5.519	0.101
97.400	-6.914	0.101
97.500	3.760	0.101
97.600	4.132	0.101
97.700	-2.090	0.101
97.800	3.173	0.101
97.900	-1.720	0.101
98.000	-7.198	0.101
98.100	-4.400	0.101
98.200	6.518	0.101
98.300	6.930	0.101
98.400	1.824	0.101
98.500	2.716	0.101
98.600	0.577	0.101
98.700	-2.240	0.101
98.800	2.312	0.101
98.900	6.647	0.101
99.000	4.986	0.101
99.100	-0.055	0.101
99.200	-3.375	0.101
99.300	3.636	0.101
99.400	4.421	0.101
99.500	3.145	0.101
99.600	2.443	0.101
99.700	-5.552	0.101
99.800	-6.324	0.101
99.900	0.194	0.101
100.000	-2.454	0.101
100.100	10.708	0.101
100.200	7.130	0.101
100.300	7.407	0.101
100.400	4.353	0.101
100.500	-0.263	0.101
100.600	9.693	0.101
100.700	-0.532	0.101
100.800	13.608	0.101
100.900	-0.384	0.101
101.000	-7.202	0.101
101.100	-3.509	0.101
101.200	9.440	0.101
101.300	-1.931	0.101
101.400	1.790	0.101
101.500	12.514	0.101
101.600	2.635	0.101
101.700	-3.559	0.101
101.800	-9.228	0.101
101.900	-5.990	0.101
102.000	-0.108	0.101
102.100	3.232	0.101
102.200	-4.813	0.101
102.300	5.433	0.101
102.400	-0.177	0.101
102.500	-1.686	0.101
102.600	-2.141	0.101
102.700	-8.840	0.101
102.800	8.802	0.101
102.900	3.435	0.101
103.000	-0.050	0.101
103.100	-2.285	0.101
103.200	-4.599	0.101
103.300	0.593	0.101
103.400	-2.138	0.101
103.500	4.064	0.101
103.600	-4.334	0.101
103.700	-1.590	0.101
103.800	-3.812	0.101
103.900	-1.558	0.101
104.000	2.918	0.101
104.100	-8.385	0.101
104.200	-9.687	0.101
104.300	-10.047	0.101
104.400	-11.292	0.101
104.500	-3.349	0.101
104.600	2.606	0.101
104.700	2.714	0.101
104.800	2.559	0.101
104.900	1.652	0.101
105.000	-4.220	0.101
105.100	-1.482	0.101
105.200	-12.601	0.101
105.300	-12.637	0.101
105.400	3.826	0.101
105.500	-7.665	0.101
105.600	0.845	0.101
105.700	-5.134	0.101
105.800	-1.728	0.101
105.900	-2.146	0.101
106.000	-2.924	0.101
106.100	7.296	0.101
106.200	6.896	0.101
106.300	-7.749	0.101
106.400	-10.920	0.101
106.500	-4.985	0.101
106.600	-9.388	0.101
106.700	-3.998	0.101
106.800	-6.787	0.101
106.900	-6.933	0.101
107.000	-4.593	0.101
107.100	-0.312	0.101
107.200	4.407	0.101
107.300	6.503	0.101
107.400	-4.325	0.101
107.500	-5.093	0.101
107.600	-1.855	0.101
107.700	-1.215	0.101
107.800	-4.207	0.101
107.900	-16.847	0.101
108.000	-11.435	0.101
108.100	5.330	0.101
108.200	-9.672	0.101
108.300	-12.404	0.101
108.400	-16.549	0.101
108.500	-16.052	0.101
108.600	-14.882	0.101
108.700	-13.640	0.101
108.800	-8.956	0.101
108.900	-2.704	0.101
109.000	-1.074	0.101
109.100	-4.074	0.101
109.200	-15.640	0.101
109.300	1.135	0.101
109.400	-4.370	0.101
109.500	-4.930	0.101
109.600	-6.175	0.101
109.700	-2.522	0.101
109.800	-3.529	0.101
109.900	-7.683	0.101
110.000	7.865	0.101
110.100	-14.617	0.101
110.200	-13.339	0.101
110.300	-6.107	0.101
110.400	-6.174	0.101
110.500	0.291	0.101
110.600	0.943	0.101
110.700	-11.417	0.101
110.800	-13.543	0.101
110.900	-13.203	0.101
111.000	3.392	0.101
111.100	0.729	0.101
111.200	-5.899	0.101
111.300	-6.542	0.101
111.400	-17.222	0.101
111.500	-8.748	0.101
111.600	-11.355	0.101
111.700	-7.558	0.101
111.800	-12.931	0.101
111.900	1.193	0.101
112.000	-5.075	0.101
112.100	-1.716	0.101
112.200	-7.440	0.101
112.300	-4.439	0.101
112.400	-7.584	0.101
112.500	-11.386	0.101
112.600	-9.501	0.101
112.700	-2.095	0.101
112.800	-3.261	0.101
112.900	-4.899	0.101
113.000	-17.706	0.101
113.100	-7.313	0.101
113.200	-1.619	0.101
113.300	-11.696	0.101
113.400	-0.600	0.101
113.500	-3.038	0.101
113.600	-4.392	0.101
113.700	-12.053	0.101
113.800	-11.110	0.101
113.900	-17.073	0.101
114.000	-5.890	0.101
114.100	-7.311	0.101
114.200	-16.835	0.101
114.300	-15.279	0.101
114.400	-6.902	0.101
114.500	-17.410	0.101
114.600	-3.059	0.101
114.700	-0.462	0.101
114.800	-10.623	0.101
114.900	-9.355	0.101
115.000	-3.012	0.101
115.100	-0.697	0.101
115.200	-0.229	0.101
115.300	-2.321	0.101
115.400	-9.655	0.101
115.500	-7.976	0.101
115.600	-8.432	0.101
115.700	-7.943	0.101
115.800	-4.967	0.101
115.900	-8.998	0.101
116.000	-7.660	0.101
116.100	-4.004	0.101
116.200	-2.409	0.101
116.300	-6.586	0.101
116.400	-13.089	0.101
116.500	-12.008	0.101
116.600	-11.563	0.101
116.700	-8.110	0.101
116.800	-11.844	0.101
116.900	-8.919	0.101
117.000	-15.556	0.101
117.100	-7.225	0.101
117.200	-17.750	0.101
117.300	-10.103	0.101
117.400	-8.126	0.101
117.500	-5.806	0.101
117.600	-11.135	0.101
117.700	-5.773	0.101
117.800	-18.204	0.101
117.900	-14.625	0.101
118.000	-11.797	0.101
118.100	-3.383	0.101
118.200	-2.545	0.101
118.300	-14.087	0.101
118.400	-5.525	0.101
118.500	-12.109	0.101
118.600	-15.130	0.101
118.700	-14.564	0.101
118.800	-13.198	0.101
118.900	-10.155	0.101
119.000	-16.300	0.101
119.100	-8.834	0.101
119.200	-11.676	0.101
119.300	-15.954	0.101
119.400	-21.539	0.101
119.500	-15.071	0.101
119.600	-9.999	0.101
119.700	-12.702	0.101
119.800	-9.921	0.101
119.900	-14.510	0.101
120.000	-4.918	0.101
120.100	-15.307	0.101
120.200	-17.085	0.101
120.300	-10.561	0.101
120.400	-23.865	0.101
120.500	-17.048	0.101
120.600	-9.198	0.101
120.700	-5.906	0.101
120.800	-14.301	0.101
120.900	-18.642	0.101
121.000	-12.950	0.101
121.100	-14.072	0.101
121.200	-9.740	0.101
121.300	-12.359	0.101
121.400	-11.380	0.101
121.500	-8.999	0.101
121.600	6.830	0.101
121.700	-22.396	0.101
121.800	-21.886	0.101
121.900	-17.826	0.101
122.000	-15.598	0.101
122.100	-6.513	0.101
122.200	-4.460	0.101
122.300	-13.274	0.101
122.400	-7.765	0.101
122.500	-23.628	0.101
122.600	-21.444	0.101
122.700	-14.833	0.101
122.800	-10.567	0.101
122.900	-11.418	0.101
123.000	-19.967	0.101
123.100	-13.636	0.101
123.200	-17.442	0.101
123.300	-30.724	0.101
123.400	-13.102	0.101
123.500	-5.766	0.101
123.600	-12.386	0.101
123.700	-25.148	0.101
123.800	-23.065	0.101
123.900	-16.878	0.101
124.000	-28.391	0.101
124.100	-12.515	0.101
124.200	-13.004	0.101
124.300	-12.409	0.101
124.400	-8.943	0.101
124.500	-13.243	0.101
124.600	-13.817	0.101
124.700	-13.549	0.101
124.800	-11.824	0.101
124.900	-5.090	0.101
125.000	-16.347	0.101
125.100	-14.040	0.101
125.200	-13.231	0.101
125.300	-15.365	0.101
125.400	-22.252	0.101
125.500	-12.722	0.101
125.600	-21.360	0.101
125.700	-20.673	0.101
125.800	-10.801	0.101
125.900	-19.924	0.101
126.000	-6.963	0.101
126.100	-9.443	0.101
126.200	-15.265	0.101
126.300	-17.386	0.101
126.400	-6.764	0.101
126.500	-23.895	0.101
126.600	-11.190	0.101
126.700	-12.939	0.101
126.800	-11.367	0.101
126.900	-11.194	0.101
127.000	-12.992	0.101
127.100	-14.252	0.101
127.200	-13.193	0.101
127.300	-17.636	0.101
127.400	-19.343	0.101
127.500	-14.738	0.101
127.600	-15.547	0.101
127.700	-8.910	0.101
127.800	-11.319	0.101
127.900	-16.382	0.101
128.000	-11.026	0.101
128.100	-0.538	0.101
128.200	-19.075	0.101
128.300	-17.924	0.101
128.400	-24.225	0.101
128.500	-10.804	0.101
128.600	-17.018	0.101
128.700	-8.024	0.101
128.800	-22.001	0.101
128.900	-16.379	0.101
129.000	-11.527	0.101
129.100	-17.003	0.101
129.200	-17.482	0.101
129.300	-15.485	0.101
129.400	-4.686	0.101
129.500	-12.595	0.101
129.600	-17.429	0.101
129.700	-15.916	0.101
129.800	-20.411	0.101
129.900	-11.744	0.101
130.000	-15.879	0.101
130.100	-20.205	0.101
130.200	-21.003	0.101
130.300	-14.350	0.101
130.400	-24.205	0.101
130.500	-19.194	0.101
130.600	-14.740	0.101
130.700	-19.252	0.101
130.800	-20.736	0.101
130.900	-11.852	0.101
131.000	-12.266	0.101
131.100	-8.140	0.101
131.200	-13.873	0.101
131.300	-13.917	0.101
131.400	-10.655	0.101
131.500	-12.781	0.101
131.600	-14.129	0.101
131.700	-28.005	0.101
131.800	-28.052	0.101
131.900	-18.428	0.101
132.000	-11.504	0.101
132.100	-17.576	0.101
132.200	-17.371	0.101
132.300	-21.858	0.101
132.400	-26.157	0.101
132.500	-19.277	0.101
132.600	-18.410	0.101
132.700	-12.627	0.101
132.800	-7.496	0.101
132.900	-18.688	0.101
133.000	-24.233	0.101
133.100	-15.493	0.101
133.200	-9.303	0.101
133.300	-18.426	0.101
133.400	-23.064	0.101
133.500	-14.808	0.101
133.600	-16.335	0.101
133.700	-20.294	0.101
133.800	-22.035	0.101
133.900	-14.086	0.101
134.000	-5.813	0.101
134.100	-12.954	0.101
134.200	-17.075	0.101
134.300	-18.331	0.101
134.400	-20.295	0.101
134.500	-14.326	0.101
134.600	0.322	0.101
134.700	-11.741	0.101
134.800	-8.156	0.101
134.900	-23.758	0.101
135.000	-19.583	0.101
135.100	-19.206	0.101
135.200	-19.450	0.101
135.300	-3.937	0.101
135.400	-15.832	0.101
135.500	-18.482	0.101
135.600	-17.435	0.101
135.700	-18.263	0.101
135.800	-16.893	0.101
135.900	-18.452	0.101
136.000	-26.036	0.101
136.100	-11.460	0.101
136.200	-19.657	0.101
136.300	-20.675	0.101
136.400	-24.084	0.101
136.500	-13.757	0.101
136.600	-7.465	0.101
136.700	-13.435	0.101
136.800	-14.227	0.101
136.900	-24.706	0.101
137.000	-11.923	0.101
137.100	-24.863	0.101
137.200	-19.250	0.101
137.300	-16.380	0.101
137.400	-20.937	0.101
137.500	-10.495	0.101
137.600	-15.950	0.101
137.700	-26.254	0.101
137.800	-16.106	0.101
137.900	-21.438	0.101
138.000	-8.971	0.101
138.100	-16.768	0.101
138.200	-14.405	0.101
138.300	-15.334	0.101
138.400	-20.784	0.101
138.500	-16.150	0.101
138.600	-22.786	0.101
138.700	-15.049	0.101
138.800	-16.937	0.101
138.900	-8.897	0.101
139.000	-31.174	0.101
139.100	-19.172	0.101
139.200	-16.182	0.101
139.300	-11.181	0.101
139.400	-13.606	0.101
139.500	-23.127	0.101
139.600	-9.155	0.101
139.700	-15.395	0.101
139.800	-25.156	0.101
139.900	-31.940	0.101
140.000	-17.043	0.101
140.100	-14.882	0.101
140.200	-16.960	0.101
140.300	-9.993	0.101
140.400	-15.648	0.101
140.500	-20.366	0.101
140.600	-13.479	0.101
140.700	-11.836	0.101
140.800	-22.081	0.101
140.900	-26.195	0.101
141.000	-12.555	0.101
141.100	-15.781	0.101
141.200	-14.136	0.101
141.300	-23.730	0.101
141.400	-24.047	0.101
141.500	-19.658	0.101
141.600	-6.745	0.101
141.700	-12.793	0.101
141.800	-22.137	0.101
141.900	-10.705	0.101
142.000	-22.254	0.101
142.100	-22.776	0.101
142.200	-10.704	0.101
142.300	-22.723	0.101
142.400	-15.121	0.101
142.500	-25.174	0.101
142.600	-8.858	0.101
142.700	-22.148	0.101
142.800	-17.721	0.101
142.900	-15.946	0.101
143.000	-24.599	0.101
143.100	-20.585	0.101
143.200	-20.287	0.101
143.300	-24.744	0.101
143.400	-13.910	0.101
143.500	-12.390	0.101
143.600	-19.284	0.101
143.700	-18.533	0.101
143.800	-11.960	0.101
143.900	-22.101	0.101
144.000	-28.028	0.101
144.100	-21.006	0.101
144.200	-13.883	0.101
144.300	-17.582	0.101
144.400	-19.130	0.101
144.500	-4.410	0.101
144.600	-17.825	0.101
144.700	-28.638	0.101
144.800	-15.477	0.101
144.900	-23.215	0.101
145.000	-21.238	0.101
145.100	-12.695	0.101
145.200	-10.090	0.101
145.300	-12.927	0.101
145.400	-9.890	0.101
145.500	-18.388	0.101
145.600	-9.530	0.101
145.700	-16.483	0.101
145.800	-20.875	0.101
145.900	-20.357	0.101
146.000	-9.992	0.101
146.100	-28.678	0.101
146.200	-25.997	0.101
146.300	-13.969	0.101
146.400	-19.314	0.101
146.500	-22.824	0.101
146.600	-13.567	0.101
146.700	-9.546	0.101
146.800	-16.003	0.101
146.900	-23.688	0.101
147.000	-17.341	0.101
147.100	-24.539	0.101
147.200	-21.551	0.101
147.300	-14.524	0.101
147.400	-16.216	0.101
147.500	-9.337	0.101
147.600	-15.228	0.101
147.700	-12.558	0.101
147.800	-16.808	0.101
147.900	-21.266	0.101
148.000	-13.245	0.101
148.100	-25.281	0.101
148.200	-11.921	0.101
148.300	-20.584	0.101
148.400	-18.676	0.101
148.500	-25.240	0.101
148.600	-20.551	0.101
148.700	-20.076	0.101
148.800	-7.094	0.101
148.900	-19.741	0.101
149.000	-10.714	0.101
149.100	-6.606	0.101
149.200	-18.599	0.101
149.300	-21.317	0.101
149.400	-9.971	0.101
149.500	-11.556	0.101
149.600	-15.870	0.101
149.700	-19.038	0.101
149.800	-21.036	0.101
149.900	-16.023	0.101
150.000	-24.488	0.101
150.100	-14.873	0.101
150.200	-19.738	0.101
150.300	-19.903	0.101
150.400	-12.912	0.101
150.500	-10.440	0.101
150.600	-5.887	0.101
150.700	-14.975	0.101
150.800	-14.433	0.101
150.900	-9.646	0.101
151.000	-30.400	0.101
151.100	-23.092	0.101
151.200	-12.626	0.101
151.300	-20.714	0.101
151.400	-5.774	0.101
151.500	-16.285	0.101
151.600	-16.219	0.101
151.700	-21.196	0.101
151.800	-18.896	0.101
151.900	-15.624	0.101
152.000	-24.584	0.101
152.100	-13.835	0.101
152.200	-12.584	0.101
152.300	-12.827	0.101
152.400	-14.895	0.101
152.500	-9.744	0.101
152.600	-16.272	0.101
152.700	-28.368	0.101
152.800	-20.167	0.101
152.900	-18.387	0.101
153.000	-15.867	0.101
153.100	-10.806	0.101
153.200	-28.015	0.101
153.300	-21.272	0.101
153.400	-12.828	0.101
153.500	-14.797	0.101
153.600	-17.286	0.101
153.700	-13.210	0.101
153.800	-17.278	0.101
153.900	-25.802	0.101
154.000	-12.596	0.101
154.100	-17.049	0.101
154.200	-13.737	0.101
154.300	-23.977	0.101
154.400	-6.740	0.101
154.500	-14.938	0.101
154.600	-22.234	0.101
154.700	-26.362	0.101
154.800	-13.118	0.101
154.900	-16.922	0.101
155.000	-8.287	0.101
155.100	-5.598	0.101
155.200	-14.205	0.101
155.300	-14.229	0.101
155.400	-15.506	0.101
155.500	-20.087	0.101
155.600	-6.001	0.101
155.700	-18.382	0.101
155.800	-24.487	0.101
155.900	-10.999	0.101
156.000	-26.014	0.101
156.100	-6.405	0.101
156.200	-12.534	0.101
156.300	-21.912	0.101
156.400	-12.793	0.101
156.500	-9.338	0.101
156.600	-14.319	0.101
156.700	-15.032	0.101
156.800	-16.098	0.101
156.900	-16.089	0.101
157.000	-17.081	0.101
157.100	-20.231	0.101
157.200	-3.538	0.101
157.300	-9.562	0.101
157.400	-16.415	0.101
157.500	-17.256	0.101
157.600	-19.425	0.101
157.700	-20.387	0.101
157.800	-15.556	0.101
157.900	-26.973	0.101
158.000	-14.068	0.101
158.100	-11.836	0.101
158.200	-22.634	0.101
158.300	-13.351	0.101
158.400	-24.835	0.101
158.500	-12.186	0.101
158.600	-9.259	0.101
158.700	-14.930	0.101
158.800	-16.952	0.101
158.900	-14.131	0.101
159.000	-21.732	0.101
159.100	-23.499	0.101
159.200	-13.436	0.101
159.300	-9.822	0.101
159.400	-20.685	0.101
159.500	-20.946	0.101
159.600	-23.629	0.101
159.700	-18.972	0.101
159.800	-13.762	0.101
159.900	-10.417	0.101
160.000	-18.758	0.101
160.100	-23.215	0.101
160.200	-13.368	0.101
160.300	-18.352	0.101
160.400	-17.581	0.101
160.500	-15.750	0.101
160.600	-10.223	0.101
160.700	-13.720	0.101
160.800	-24.554	0.101
160.900	-14.621	0.101
161.000	-12.848	0.101
161.100	-13.490	0.101
161.200	-9.689	0.101
161.300	-17.705	0.101
161.400	-16.924	0.101
161.500	-16.806	0.101
161.600	-14.344	0.101
161.700	-13.697	0.101
161.800	-12.952	0.101
161.900	-12.855	0.101
162.000	-14.370	0.101
162.100	-24.424	0.101
162.200	-13.744	0.101
162.300	-12.409	0.101
162.400	-17.982	0.101
162.500	-14.282	0.101
162.600	-23.971	0.101
162.700	-19.153	0.101
162.800	-24.089	0.101
162.900	-19.118	0.101
163.000	-21.913	0.101
163.100	-12.916	0.101
163.200	-15.788	0.101
163.300	-8.546	0.101
163.400	1.245	0.101
163.500	-26.088	0.101
163.600	-17.611	0.101
163.700	-14.879	0.101
163.800	-8.895	0.101
163.900	-14.537	0.101
164.000	-16.292	0.101
164.100	-12.941	0.101
164.200	-21.932	0.101
164.300	-18.947	0.101
164.400	-7.088	0.101
164.500	-9.724	0.101
164.600	-28.349	0.101
164.700	-18.617	0.101
164.800	-20.609	0.101
164.900	-16.272	0.101
165.000	-17.131	0.101
165.100	-12.119	0.101
165.200	-11.729	0.101
165.300	-20.145	0.101
165.400	-17.794	0.101
165.500	-18.469	0.101
165.600	-22.494	0.101
165.700	-16.868	0.101
165.800	-1.717	0.101
165.900	-7.789	0.101
166.000	-14.374	0.101
166.100	-18.603	0.101
166.200	-29.985	0.101
166.300	-20.838	0.101
166.400	-16.014	0.101
166.500	-12.019	0.101
166.600	-19.581	0.101
166.700	-22.729	0.101
166.800	-10.024	0.101
166.900	-18.581	0.101
167.000	-22.287	0.101
167.100	-14.538	0.101
167.200	-4.449	0.101
167.300	-16.016	0.101
167.400	-16.418	0.101
167.500	-14.384	0.101
167.600	-10.885	0.101
167.700	-13.401	0.101
167.800	-16.175	0.101
167.900	-12.739	0.101
168.000	-18.893	0.101
168.100	-13.110	0.101
168.200	-21.339	0.101
168.300	-12.096	0.101
168.400	-16.908	0.101
168.500	-6.902	0.101
168.600	-17.867	0.101
168.700	-8.179	0.101
168.800	-10.168	0.101
168.900	-7.706	0.101
169.000	-8.003	0.101
169.100	-14.871	0.101
169.200	-17.364	0.101
169.300	-10.022	0.101
169.400	-17.855	0.101
169.500	-9.144	0.101
169.600	-14.142	0.101
169.700	-13.893	0.101
169.800	-23.573	0.101
169.900	-20.103	0.101
170.000	-14.053	0.101
170.100	-14.125	0.101
170.200	-22.645	0.101
170.300	-26.061	0.101
170.400	-21.282	0.101
170.500	-22.212	0.101
170.600	-5.627	0.101
170.700	-3.500	0.101
170.800	-15.615	0.101
170.900	-11.073	0.101
171.000	-6.009	0.101
171.100	-14.808	0.101
171.200	-18.475	0.101
171.300	-20.173	0.101
171.400	-22.739	0.101
171.500	-29.726	0.101
171.600	-19.417	0.101
171.700	0.822	0.101
171.800	-11.844	0.101
171.900	-19.264	0.101
172.000	-12.108	0.101
172.100	-23.533	0.101
172.200	-27.854	0.101
172.300	-14.973	0.101
172.400	-27.516	0.101
172.500	-20.985	0.101
172.600	-3.994	0.101
172.700	-9.915	0.101
172.800	-9.246	0.101
172.900	-12.723	0.101
173.000	-14.764	0.101
173.100	-21.547	0.101
173.200	-10.523	0.101
173.300	-7.599	0.101
173.400	-14.549	0.101
173.500	-12.336	0.101
173.600	-16.336	0.101
173.700	-11.801	0.101
173.800	-13.585	0.101
173.900	-21.763	0.101
174.000	-24.045	0.101
174.100	-18.136	0.101
174.200	-5.443	0.101
174.300	-9.268	0.101
174.400	-15.047	0.101
174.500	-13.026	0.101
174.600	-10.651	0.101
174.700	-10.950	0.101
174.800	-20.039	0.101
174.900	-12.354	0.101
175.000	-13.951	0.101
175.100	-22.405	0.101
175.200	-18.263	0.101
175.300	-12.718	0.101
175.400	-22.610	0.101
175.500	-9.444	0.101
175.600	-15.637	0.101
175.700	-11.643	0.101
175.800	-15.215	0.101
175.900	-15.824	0.101
176.000	-14.745	0.101
176.100	-20.412	0.101
176.200	-26.590	0.101
176.300	-23.212	0.101
176.400	-11.570	0.101
176.500	-7.707	0.101
176.600	-9.188	0.101
176.700	-11.461	0.101
176.800	-19.719	0.101
176.900	-17.036	0.101
177.000	-16.241	0.101
177.100	-16.532	0.101
177.200	-23.648	0.101
177.300	-28.865	0.101
177.400	-16.532	0.101
177.500	-9.024	0.101
177.600	-21.475	0.101
177.700	-17.982	0.101
177.800	-2.420	0.101
177.900	-16.169	0.101
178.000	-6.909	0.101
178.100	-17.504	0.101
178.200	-14.126	0.101
178.300	-3.080	0.101
178.400	-4.834	0.101
178.500	-16.009	0.101
178.600	-22.508	0.101
178.700	-16.848	0.101
178.800	-11.841	0.101
178.900	-13.387	0.101
179.000	-10.583	0.101
179.100	-17.687	0.101
179.200	-16.789	0.101
179.300	-9.342	0.101
179.400	-5.235	0.101
179.500	-28.069	0.101
179.600	-17.784	0.101
179.700	-12.223	0.101
179.800	-25.094	0.101
179.900	-15.453	0.101
180.000	-11.495	0.101
180.100	-10.613	0.101
180.200	-11.752	0.101
180.300	-10.151	0.101
180.400	-7.846	0.101
180.500	-8.547	0.101
180.600	-8.457	0.101
180.700	1.070	0.101
180.800	-6.943	0.101
180.900	-0.516	0.101
181.000	-2.901	0.101
181.100	2.973	0.101
181.200	0.055	0.101
181.300	-9.043	0.101
181.400	0.187	0.101
181.500	5.059	0.101
181.600	9.739	0.101
181.700	3.258	0.101
181.800	9.328	0.101
181.900	-2.186	0.101
182.000	8.878	0.101
182.100	24.959	0.101
182.200	15.038	0.101
182.300	14.833	0.101
182.400	25.810	0.101
182.500	12.892	0.101
182.600	18.208	0.101
182.700	13.496	0.101
182.800	0.580	0.101
182.900	6.448	0.101
183.000	23.118	0.101
183.100	19.464	0.101
183.200	14.607	0.101
183.300	16.662	0.101
183.400	8.405	0.101
183.500	16.172	0.101
183.600	17.714	0.101
183.700	15.146	0.101
183.800	7.652	0.101
183.900	9.307	0.101
184.000	26.285	0.101
184.100	17.396	0.101
184.200	15.705	0.101
184.300	21.428	0.101
184.400	30.371	0.101
184.500	19.123	0.101
184.600	26.929	0.101
184.700	27.347	0.101
184.800	25.113	0.101
184.900	9.176	0.101
185.000	14.880	0.101
185.100	11.779	0.101
185.200	7.041	0.101
185.300	23.270	0.101
185.400	21.026	0.101
185.500	28.558	0.101
185.600	18.461	0.101
185.700	7.739	0.101
185.800	14.037	0.101
185.900	12.216	0.101
186.000	19.011	0.101
186.100	17.733	0.101
186.200	11.303	0.101
186.300	26.425	0.101
186.400	12.336	0.101
186.500	11.151	0.101
186.600	12.420	0.101
186.700	21.141	0.101
186.800	13.577	0.101
186.900	12.698	0.101
187.000	17.781	0.101
187.100	23.812	0.101
187.200	5.274	0.101
187.300	19.430	0.101
187.400	14.790	0.101
187.500	23.574	0.101
187.600	15.918	0.101
187.700	9.896	0.101
187.800	8.504	0.101
187.900	12.516	0.101
188.000	18.959	0.101
188.100	19.496	0.101
188.200	6.734	0.101
188.300	3.326	0.101
188.400	16.689	0.101
188.500	8.392	0.101
188.600	12.119	0.101
188.700	5.036	0.101
188.800	7.739	0.101
188.900	11.185	0.101
189.000	17.437	0.101
189.100	14.501	0.101
189.200	10.737	0.101
189.300	15.424	0.101
189.400	16.850	0.101
189.500	7.033	0.101
189.600	9.319	0.101
189.700	7.937	0.101
189.800	27.655	0.101
189.900	21.791	0.101
190.000	10.915	0.101
190.100	11.729	0.101
190.200	16.918	0.101
190.300	7.356	0.101
190.400	11.437	0.101
190.500	12.727	0.101
190.600	9.156	0.101
190.700	13.503	0.101
190.800	14.460	0.101
190.900	12.978	0.101
191.000	6.145	0.101
191.100	13.836	0.101
191.200	14.700	0.101
191.300	10.973	0.101
191.400	22.571	0.101
191.500	10.012	0.101
191.600	10.106	0.101
191.700	23.764	0.101
191.800	14.556	0.101
191.900	12.609	0.101
192.000	7.525	0.101
192.100	5.874	0.101
192.200	16.403	0.101
192.300	18.057	0.101
192.400	9.805	0.101
192.500	16.265	0.101
192.600	17.070	0.101
192.700	24.446	0.101
192.800	9.643	0.101
192.900	6.162	0.101
193.000	11.999	0.101
193.100	18.073	0.101
193.200	10.878	0.101
193.300	13.215	0.101
193.400	13.716	0.101
193.500	14.517	0.101
193.600	10.935	0.101
193.700	16.863	0.101
193.800	20.212	0.101
193.900	20.890	0.101
194.000	14.473	0.101
194.100	13.233	0.101
194.200	11.854	0.101
194.300	26.086	0.101
194.400	16.686	0.101
194.500	13.881	0.101
194.600	6.594	0.101
194.700	9.414	0.101
194.800	12.535	0.101
194.900	21.188	0.101
195.000	23.202	0.101
195.100	14.177	0.101
195.200	15.301	0.101
195.300	24.220	0.101
195.400	23.393	0.101
195.500	24.432	0.101
195.600	14.823	0.101
195.700	6.840	0.101
195.800	20.342	0.101
195.900	18.131	0.101
196.000	12.426	0.101
196.100	7.123	0.101
196.200	21.247	0.101
196.300	25.136	0.101
196.400	17.476	0.101
196.500	27.471	0.101
196.600	20.440	0.101
196.700	13.487	0.101
196.800	10.802	0.101
196.900	22.434	0.101
197.000	23.048	0.101
197.100	8.310	0.101
197.200	17.882	0.101
197.300	19.964	0.101
197.400	14.694	0.101
197.500	26.142	0.101
197.600	22.736	0.101
197.700	21.876	0.101
197.800	7.192	0.101
197.900	16.866	0.101
198.000	13.962	0.101
198.100	16.620	0.101
198.200	27.363	0.101
198.300	28.198	0.101
198.400	14.623	0.101
198.500	16.916	0.101
198.600	18.391	0.101
198.700	15.230	0.101
198.800	20.195	0.101
198.900	17.379	0.101
199.000	10.769	0.101
199.100	18.219	0.101
199.200	30.873	0.101
199.300	11.517	0.101
199.400	16.053	0.101
199.500	28.251	0.101
199.600	17.257	0.101
199.700	15.971	0.101
199.800	33.100	0.101
199.900	28.033	0.101
200.000	11.522	0.101
200.100	17.147	0.101
200.200	29.290	0.101
200.300	25.967	0.101
200.400	27.071	0.101
200.500	25.826	0.101
200.600	15.565	0.101
200.700	16.613	0.101
200.800	22.154	0.101
200.900	23.879	0.101
201.000	16.424	0.101
201.100	25.831	0.101
201.200	24.539	0.101
201.300	13.093	0.101
201.400	19.119	0.101
201.500	26.677	0.101
201.600	38.235	0.101
201.700	29.410	0.101
201.800	24.262	0.101
201.900	34.166	0.101
202.000	24.807	0.101
202.100	18.182	0.101
202.200	26.211	0.101
202.300	20.437	0.101
202.400	14.945	0.101
202.500	17.492	0.101
202.600	29.714	0.101
202.700	22.697	0.101
202.800	31.069	0.101
202.900	36.534	0.101
203.000	30.007	0.101
203.100	33.835	0.101
203.200	26.829	0.101
203.300	26.225	0.101
203.400	23.502	0.101
203.500	23.647	0.101
203.600	28.560	0.101
203.700	21.438	0.101
203.800	17.429	0.101
203.900	21.667	0.101
204.000	27.339	0.101
204.100	31.983	0.101
204.200	33.565	0.101
204.300	36.142	0.101
204.400	26.533	0.101
204.500	37.396	0.101
204.600	29.244	0.101
204.700	29.557	0.101
204.800	18.190	0.101
204.900	22.353	0.101
205.000	16.986	0.101
205.100	29.182	0.101
205.200	37.845	0.101
205.300	28.291	0.101
205.400	27.299	0.101
205.500	32.410	0.101
205.600	22.601	0.101
205.700	44.701	0.101
205.800	41.898	0.101
205.900	33.696	0.101
206.000	27.165	0.101
206.100	24.453	0.101
206.200	25.931	0.101
206.300	28.681	0.101
206.400	32.307	0.101
206.500	30.375	0.101
206.600	28.076	0.101
206.700	25.128	0.101
206.800	18.862	0.101
206.900	29.836	0.101
207.000	26.525	0.101
207.100	42.445	0.101
207.200	28.127	0.101
207.300	20.321	0.101
207.400	35.636	0.101
207.500	23.717	0.101
207.600	29.080	0.101
207.700	22.117	0.101
207.800	24.652	0.101
207.900	25.234	0.101
208.000	35.905	0.101
208.100	28.808	0.101
208.200	32.585	0.101
208.300	31.058	0.101
208.400	24.162	0.101
208.500	30.984	0.101
208.600	30.746	0.101
208.700	26.368	0.101
208.800	29.014	0.101
208.900	25.659	0.101
209.000	44.500	0.101
209.100	40.167	0.101
209.200	34.294	0.101
209.300	32.778	0.101
209.400	33.274	0.101
209.500	40.460	0.101
209.600	37.475	0.101
209.700	31.560	0.101
209.800	22.353	0.101
209.900	39.567	0.101
210.000	44.234	0.101
210.100	34.410	0.101
210.200	29.300	0.101
210.300	38.503	0.101
210.400	34.926	0.101
210.500	38.854	0.101
210.600	26.979	0.101
210.700	31.063	0.101
210.800	24.023	0.101
210.900	33.641	0.101
211.000	27.901	0.101
211.100	37.179	0.101
211.200	29.680	0.101
211.300	36.466	0.101
211.400	39.683	0.101
211.500	43.150	0.101
211.600	29.091	0.101
211.700	25.374	0.101
211.800	19.736	0.101
211.900	23.194	0.101
212.000	35.377	0.101
212.100	33.686	0.101
212.200	29.617	0.101
212.300	38.344	0.101
212.400	35.774	0.101
212.500	35.767	0.101
212.600	32.317	0.101
212.700	37.311	0.101
212.800	30.539	0.101
212.900	33.539	0.101
213.000	43.787	0.101
213.100	38.356	0.101
213.200	22.201	0.101
213.300	26.641	0.101
213.400	34.200	0.101
213.500	29.526	0.101
213.600	41.773	0.101
213.700	44.215	0.101
213.800	37.686	0.101
213.900	24.510	0.101
214.000	29.958	0.101
214.100	24.695	0.101
214.200	38.558	0.101
214.300	42.384	0.101
214.400	44.819	0.101
214.500	31.682	0.101
214.600	30.228	0.101
214.700	31.881	0.101
214.800	24.736	0.101
214.900	28.438	0.101
215.000	44.250	0.101
215.100	38.682	0.101
215.200	36.056	0.101
215.300	30.723	0.101
215.400	30.055	0.101
215.500	31.591	0.101
215.600	35.140	0.101
215.700	37.637	0.101
215.800	29.959	0.101
215.900	23.996	0.101
216.000	34.451	0.101
216.100	36.545	0.101
216.200	35.575	0.101
216.300	39.499	0.101
216.400	29.221	0.101
216.500	32.221	0.101
216.600	33.108	0.101
216.700	35.653	0.101
216.800	30.690	0.101
216.900	34.534	0.101
217.000	44.216	0.101
217.100	42.940	0.101
217.200	44.758	0.101
217.300	36.726	0.101
217.400	29.865	0.101
217.500	40.314	0.101
217.600	46.254	0.101
217.700	46.989	0.101
217.800	33.351	0.101
217.900	36.818	0.101
218.000	36.089	0.101
218.100	34.756	0.101
218.200	27.547	0.101
218.300	37.546	0.101
218.400	43.986	0.101
218.500	32.281	0.101
218.600	39.411	0.101
218.700	43.421	0.101
218.800	38.676	0.101
218.900	41.540	0.101
219.000	29.481	0.101
219.100	44.763	0.101
219.200	33.275	0.101
219.300	38.080	0.101
219.400	36.349	0.101
219.500	32.361	0.101
219.600	38.912	0.101
219.700	38.446	0.101
219.800	42.118	0.101
219.900	47.673	0.101
220.000	33.921	0.101
220.100	31.125	0.101
220.200	35.836	0.101
220.300	38.121	0.101
220.400	26.257	0.101
220.500	51.076	0.101
220.600	37.542	0.101
220.700	34.485	0.101
220.800	30.560	0.101
220.900	43.417	0.101
221.000	40.278	0.101
221.100	39.350	0.101
221.200	30.667	0.101
221.300	29.978	0.101
221.400	35.776	0.101
221.500	37.499	0.101
221.600	29.967	0.101
221.700	35.699	0.101
221.800	30.499	0.101
221.900	32.427	0.101
222.000	36.526	0.101
222.100	43.588	0.101
222.200	38.138	0.101
222.300	35.489	0.101
222.400	37.164	0.101
222.500	34.973	0.101
222.600	38.620	0.101
222.700	36.652	0.101
222.800	36.629	0.101
222.900	30.985	0.101
223.000	38.128	0.101
223.100	33.358	0.101
223.200	28.816	0.101
223.300	39.414	0.101
223.400	35.741	0.101
223.500	38.845	0.101
223.600	34.723	0.101
223.700	24.764	0.101
223.800	35.931	0.101
223.900	47.718	0.101
224.000	35.568	0.101
224.100	38.914	0.101
224.200	43.647	0.101
224.300	35.681	0.101
224.400	33.703	0.101
224.500	28.685	0.101
224.600	45.143	0.101
224.700	27.918	0.101
224.800	44.564	0.101
224.900	47.038	0.101
225.000	43.307	0.101
225.100	35.091	0.101
225.200	33.982	0.101
225.300	44.290	0.101
225.400	27.918	0.101
225.500	38.960	0.101
225.600	42.228	0.101
225.700	29.614	0.101
225.800	37.690	0.101
225.900	45.828	0.101
226.000	44.159	0.101
226.100	42.369	0.101
226.200	31.918	0.101
226.300	28.038	0.101
226.400	40.562	0.101
226.500	44.094	0.101
226.600	33.522	0.101
226.700	30.053	0.101
226.800	37.765	0.101
226.900	42.211	0.101
227.000	39.980	0.101
227.100	40.287	0.101
227.200	39.627	0.101
227.300	46.565	0.101
227.400	30.837	0.101
227.500	34.951	0.101
227.600	30.869	0.101
227.700	37.864	0.101
227.800	50.817	0.101
227.900	40.191	0.101
228.000	26.664	0.101
228.100	35.086	0.101
228.200	31.971	0.101
228.300	37.469	0.101
228.400	38.114	0.101
228.500	31.614	0.101
228.600	28.636	0.101
228.700	42.173	0.101
228.800	31.864	0.101
228.900	45.366	0.101
229.000	42.923	0.101
229.100	42.301	0.101
229.200	47.700	0.101
229.300	38.116	0.101
229.400	43.991	0.101
229.500	38.883	0.101
229.600	42.058	0.101
229.700	40.790	0.101
229.800	36.374	0.101
229.900	41.904	0.101
230.000	36.262	0.101
230.100	40.452	0.101
230.200	38.113	0.101
230.300	29.312	0.101
230.400	37.210	0.101
230.500	35.223	0.101
230.600	35.727	0.101
230.700	38.493	0.101
230.800	38.355	0.101
230.900	27.890	0.101
231.000	48.024	0.101
231.100	50.324	0.101
231.200	33.855	0.101
231.300	36.279	0.101
231.400	35.953	0.101
231.500	43.126	0.101
231.600	38.549	0.101
231.700	48.701	0.101
231.800	44.699	0.101
231.900	34.235	0.101
232.000	33.466	0.101
232.100	24.135	0.101
232.200	35.569	0.101
232.300	41.030	0.101
232.400	44.462	0.101
232.500	37.517	0.101
232.600	42.700	0.101
232.700	35.670	0.101
232.800	39.665	0.101
232.900	42.304	0.101
233.000	38.471	0.101
233.100	32.876	0.101
233.200	37.463	0.101
233.300	42.908	0.101
233.400	29.326	0.101
233.500	37.305	0.101
233.600	41.447	0.101
233.700	25.980	0.101
233.800	43.097	0.101
233.900	32.116	0.101
234.000	33.282	0.101
234.100	29.040	0.101
234.200	26.012	0.101
234.300	42.005	0.101
234.400	43.808	0.101
234.500	33.956	0.101
234.600	37.525	0.101
234.700	29.125	0.101
234.800	40.761	0.101
234.900	36.400	0.101
235.000	35.517	0.101
235.100	40.234	0.101
235.200	46.803	0.101
235.300	43.683	0.101
235.400	37.333	0.101
235.500	27.090	0.101
235.600	24.582	0.101
235.700	45.847	0.101
235.800	33.859	0.101
235.900	37.353	0.101
236.000	32.190	0.101
236.100	32.668	0.101
236.200	36.831	0.101
236.300	35.482	0.101
236.400	45.506	0.101
236.500	39.438	0.101
236.600	40.257	0.101
236.700	27.564	0.101
236.800	42.281	0.101
236.900	33.849	0.101
237.000	35.227	0.101
237.100	40.748	0.101
237.200	35.678	0.101
237.300	35.120	0.101
237.400	29.700	0.101
237.500	48.652	0.101
237.600	46.945	0.101
237.700	40.328	0.101
237.800	37.973	0.101
237.900	49.508	0.101
238.000	44.836	0.101
238.100	26.241	0.101
238.200	39.305	0.101
238.300	35.183	0.101
238.400	37.212	0.101
238.500	41.309	0.101
238.600	41.843	0.101
238.700	35.759	0.101
238.800	36.820	0.101
238.900	36.438	0.101
239.000	36.506	0.101
239.100	26.303	0.101
239.200	30.356	0.101
239.300	35.690	0.101
239.400	41.063	0.101
239.500	35.699	0.101
239.600	45.970	0.101
239.700	39.549	0.101
239.800	32.975	0.101
239.900	38.494	0.101
240.000	41.824	0.101
240.100	40.215	0.101
240.200	38.183	0.101
240.300	29.645	0.101
240.400	27.898	0.101
240.500	31.212	0.101
240.600	24.473	0.101
240.700	37.784	0.101
240.800	26.412	0.101
240.900	22.585	0.101
241.000	29.510	0.101
241.100	20.824	0.101
241.200	14.161	0.101
241.300	10.643	0.101
241.400	21.063	0.101
241.500	15.069	0.101
241.600	16.469	0.101
241.700	10.265	0.101
241.800	31.602	0.101
241.900	16.375	0.101
242.000	6.168	0.101
242.100	9.191	0.101
242.200	17.038	0.101
242.300	9.241	0.101
242.400	10.643	0.101
242.500	7.790	0.101
242.600	7.307	0.101
242.700	0.465	0.101
242.800	-7.794	0.101
242.900	6.643	0.101
243.000	7.304	0.101
243.100	3.656	0.101
243.200	-5.534	0.101
243.300	4.652	0.101
243.400	8.507	0.101
243.500	7.452	0.101
243.600	-10.447	0.101
243.700	5.568	0.101
243.800	1.925	0.101
243.900	-2.843	0.101
244.000	-2.005	0.101
244.100	-9.722	0.101
244.200	-12.403	0.101
244.300	7.206	0.101
244.400	1.351	0.101
244.500	-1.435	0.101
244.600	6.450	0.101
244.700	2.232	0.101
244.800	-0.120	0.101
244.900	1.319	0.101
245.000	3.308	0.101
245.100	3.204	0.101
245.200	-2.796	0.101
245.300	1.256	0.101
245.400	9.570	0.101
245.500	5.158	0.101
245.600	-0.290	0.101
245.700	2.526	0.101
245.800	-4.590	0.101
245.900	-1.772	0.101
246.000	1.912	0.101
246.100	-0.934	0.101
246.200	-3.189	0.101
246.300	12.703	0.101
246.400	0.820	0.101
246.500	-5.370	0.101
246.600	-9.480	0.101
246.700	-3.435	0.101
246.800	1.056	0.101
246.900	1.970	0.101
247.000	-10.463	0.101
247.100	-3.699	0.101
247.200	-1.790	0.101
247.300	-13.543	0.101
247.400	-5.292	0.101
247.500	-6.924	0.101
247.600	-8.543	0.101
247.700	-0.997	0.101
247.800	5.470	0.101
247.900	2.541	0.101
248.000	-7.207	0.101
248.100	-2.506	0.101
248.200	4.455	0.101
248.300	-5.700	0.101
248.400	-5.564	0.101
248.500	-8.999	0.101
248.600	-2.969	0.101
248.700	-9.934	0.101
248.800	-3.786	0.101
248.900	-0.440	0.101
249.000	-6.399	0.101
249.100	-6.722	0.101
249.200	-10.567	0.101
249.300	-7.350	0.101
249.400	2.053	0.101
249.500	-5.017	0.101
249.600	-4.104	0.101
249.700	10.629	0.101
249.800	5.556	0.101
249.900	-14.516	0.101
250.000	-1.270	0.101
250.100	-2.607	0.101
250.200	-5.680	0.101
250.300	2.138	0.101
250.400	3.281	0.101
250.500	3.251	0.101
250.600	-9.500	0.101
250.700	-7.095	0.101
250.800	-5.752	0.101
250.900	-6.239	0.101
251.000	-11.045	0.101
251.100	-5.022	0.101
251.200	-10.922	0.101
251.300	-9.542	0.101
251.400	-6.395	0.101
251.500	-2.275	0.101
251.600	-10.117	0.101
251.700	0.328	0.101
251.800	4.342	0.101
251.900	-3.740	0.101
252.000	-3.639	0.101
252.100	0.573	0.101
252.200	-0.894	0.101
252.300	-19.471	0.101
252.400	-3.428	0.101
252.500	-2.839	0.101
252.600	0.670	0.101
252.700	-15.328	0.101
252.800	-8.720	0.101
252.900	-17.043	0.101
253.000	-8.572	0.101
253.100	-7.450	0.101
253.200	1.527	0.101
253.300	-4.005	0.101
253.400	-5.061	0.101
253.500	-1.072	0.101
253.600	-8.970	0.101
253.700	-9.816	0.101
253.800	4.258	0.101
253.900	-11.164	0.101
254.000	-1.100	0.101
254.100	-11.690	0.101
254.200	-9.240	0.101
254.300	-12.857	0.101
254.400	-5.991	0.101
254.500	-3.802	0.101
254.600	-19.730	0.101
254.700	-11.589	0.101
254.800	-6.576	0.101
254.900	-6.923	0.101
255.000	-2.149	0.101
255.100	-8.175	0.101
255.200	-9.045	0.101
255.300	-3.243	0.101
255.400	-13.701	0.101
255.500	7.983	0.101
255.600	-3.635	0.101
255.700	2.498	0.101
255.800	-12.917	0.101
255.900	-13.166	0.101
256.000	-14.969	0.101
256.100	-14.811	0.101
256.200	-4.031	0.101
256.300	-10.850	0.101
256.400	-14.902	0.101
256.500	-9.144	0.101
256.600	-3.691	0.101
256.700	-6.777	0.101
256.800	-5.078	0.101
256.900	-11.396	0.101
257.000	-12.379	0.101
257.100	1.082	0.101
257.200	-17.466	0.101
257.300	-16.371	0.101
257.400	-17.393	0.101
257.500	-4.638	0.101
257.600	-5.607	0.101
257.700	-3.448	0.101
257.800	-12.507	0.101
257.900	-1.278	0.101
258.000	-9.206	0.101
258.100	-12.109	0.101
258.200	-11.051	0.101
258.300	-13.130	0.101
258.400	-20.435	0.101
258.500	-14.000	0.101
258.600	-8.741	0.101
258.700	-10.701	0.101
258.800	-6.981	0.101
258.900	-22.449	0.101
259.000	-13.287	0.101
259.100	-16.617	0.101
259.200	-5.307	0.101
259.300	-15.751	0.101
259.400	-14.760	0.101
259.500	-21.273	0.101
259.600	-1.204	0.101
259.700	-13.171	0.101
259.800	-10.807	0.101
259.900	-11.037	0.101
260.000	-24.188	0.101
260.100	-10.133	0.101
260.200	-8.361	0.101
260.300	-9.584	0.101
260.400	-0.050	0.101
260.500	-6.955	0.101
260.600	-16.780	0.101
260.700	-8.442	0.101
260.800	-12.641	0.101
260.900	-15.132	0.101
261.000	-7.136	0.101
261.100	-8.033	0.101
261.200	-7.625	0.101
261.300	-9.483	0.101
261.400	-22.330	0.101
261.500	-11.665	0.101
261.600	-2.127	0.101
261.700	-17.960	0.101
261.800	-20.731	0.101
261.900	-1.759	0.101
262.000	-2.641	0.101
262.100	-20.026	0.101
262.200	-13.494	0.101
262.300	-17.060	0.101
262.400	-16.394	0.101
262.500	-11.262	0.101
262.600	-16.271	0.101
262.700	-6.985	0.101
262.800	-12.122	0.101
262.900	-20.314	0.101
263.000	-19.745	0.101
263.100	-10.315	0.101
263.200	-10.187	0.101
263.300	-16.793	0.101
263.400	-15.881	0.101
263.500	-14.206	0.101
263.600	-8.710	0.101
263.700	-10.174	0.101
263.800	-12.894	0.101
263.900	-13.516	0.101
264.000	-14.380	0.101
264.100	-19.085	0.101
264.200	-4.670	0.101
264.300	-12.127	0.101
264.400	-13.568	0.101
264.500	-16.885	0.101
264.600	-13.744	0.101
264.700	-16.588	0.101
264.800	-13.590	0.101
264.900	-15.736	0.101
265.000	-26.277	0.101
265.100	-12.909	0.101
265.200	-22.949	0.101
265.300	-21.126	0.101
265.400	-17.358	0.101
265.500	-14.962	0.101
265.600	-13.839	0.101
265.700	-21.739	0.101
265.800	-16.944	0.101
265.900	-18.772	0.101
266.000	-18.948	0.101
266.100	-15.275	0.101
266.200	-12.785	0.101
266.300	-13.716	0.101
266.400	-25.611	0.101
266.500	-16.989	0.101
266.600	-11.567	0.101
266.700	-22.476	0.101
266.800	-10.340	0.101
266.900	-4.737	0.101
267.000	-9.875	0.101
267.100	-13.027	0.101
267.200	-23.328	0.101
267.300	-19.597	0.101
267.400	-15.823	0.101
267.500	-24.976	0.101
267.600	-15.294	0.101
267.700	-20.335	0.101
267.800	-15.282	0.101
267.900	-14.216	0.101
268.000	-16.607	0.101
268.100	-14.777	0.101
268.200	-15.261	0.101
268.300	-15.241	0.101
268.400	-14.413	0.101
268.500	-14.853	0.101
268.600	-24.452	0.101
268.700	-17.078	0.101
268.800	-14.067	0.101
268.900	-27.140	0.101
269.000	-21.809	0.101
269.100	-25.733	0.101
269.200	-17.266	0.101
269.300	-4.855	0.101
269.400	-19.249	0.101
269.500	-22.533	0.101
269.600	-15.949	0.101
269.700	-18.592	0.101
269.800	-21.148	0.101
269.900	-15.730	0.101
270.000	-21.980	0.101
270.100	-16.621	0.101
270.200	-21.549	0.101
270.300	-22.206	0.101
270.400	-17.999	0.101
270.500	-14.930	0.101
270.600	-10.017	0.101
270.700	-13.618	0.101
270.800	-26.815	0.101
270.900	-16.193	0.101
271.000	-24.996	0.101
271.100	-26.963	0.101
271.200	-21.530	0.101
271.300	-22.095	0.101
271.400	-22.949	0.101
271.500	-10.592	0.101
271.600	-29.526	0.101
271.700	-20.768	0.101
271.800	-11.686	0.101
271.900	-17.951	0.101
272.000	-13.268	0.101
272.100	-22.398	0.101
272.200	-19.883	0.101
272.300	-27.104	0.101
272.400	-17.456	0.101
272.500	-20.337	0.101
272.600	-22.492	0.101
272.700	-24.579	0.101
272.800	-20.151	0.101
272.900	-25.173	0.101
273.000	-24.015	0.101
273.100	-9.155	0.101
273.200	-13.869	0.101
273.300	-13.386	0.101
273.400	-23.499	0.101
273.500	-20.010	0.101
273.600	-24.094	0.101
273.700	-22.645	0.101
273.800	-21.161	0.101
273.900	-14.735	0.101
274.000	-21.623	0.101
274.100	-12.514	0.101
274.200	-14.854	0.101
274.300	-29.229	0.101
274.400	-19.837	0.101
274.500	-20.015	0.101
274.600	-17.161	0.101
274.700	-19.372	0.101
274.800	-25.176	0.101
274.900	-25.151	0.101
275.000	-27.874	0.101
275.100	-22.989	0.101
275.200	-15.312	0.101
275.300	-14.415	0.101
275.400	-29.071	0.101
275.500	-23.630	0.101
275.600	-20.654	0.101
275.700	-16.642	0.101
275.800	-27.322	0.101
275.900	-17.652	0.101
276.000	-23.468	0.101
276.100	-17.223	0.101
276.200	-24.211	0.101
276.300	-22.748	0.101
276.400	-24.834	0.101
276.500	-33.554	0.101
276.600	-11.981	0.101
276.700	-10.723	0.101
276.800	-19.714	0.101
276.900	-21.714	0.101
277.000	-18.277	0.101
277.100	-9.397	0.101
277.200	-17.702	0.101
277.300	-27.980	0.101
277.400	-21.425	0.101
277.500	-24.706	0.101
277.600	-22.629	0.101
277.700	-26.009	0.101
277.800	-18.883	0.101
277.900	-13.411	0.101
278.000	-23.943	0.101
278.100	-15.801	0.101
278.200	-12.882	0.101
278.300	-20.173	0.101
278.400	-26.450	0.101
278.500	-21.208	0.101
278.600	-25.758	0.101
278.700	-17.325	0.101
278.800	-20.962	0.101
278.900	-1.848	0.101
279.000	-25.556	0.101
279.100	-4.294	0.101
279.200	-24.801	0.101
279.300	-37.748	0.101
279.400	-18.971	0.101
279.500	-14.219	0.101
279.600	-22.179	0.101
279.700	-27.467	0.101
279.800	-20.285	0.101
279.900	-21.313	0.101
280.000	-17.098	0.101
280.100	-12.928	0.101
280.200	-22.240	0.101
280.300	-25.715	0.101
280.400	-22.265	0.101
280.500	-31.989	0.101
280.600	-19.688	0.101
280.700	-23.525	0.101
280.800	-25.254	0.101
280.900	-12.606	0.101
281.000	-17.545	0.101
281.100	-29.039	0.101
281.200	-28.388	0.101
281.300	-16.417	0.101
281.400	-18.676	0.101
281.500	-23.671	0.101
281.600	-19.080	0.101
281.700	-14.797	0.101
281.800	-21.141	0.101
281.900	-32.264	0.101
282.000	-21.498	0.101
282.100	-26.212	0.101
282.200	-25.807	0.101
282.300	-23.365	0.101
282.400	-12.145	0.101
282.500	-24.136	0.101
282.600	-22.910	0.101
282.700	-24.428	0.101
282.800	-18.641	0.101
282.900	-21.133	0.101
283.000	-16.326	0.101
283.100	-23.234	0.101
283.200	-19.163	0.101
283.300	-23.887	0.101
283.400	-23.423	0.101
283.500	-21.814	0.101
283.600	-22.131	0.101
283.700	-14.735	0.101
283.800	-17.579	0.101
283.900	-26.821	0.101
284.000	-25.052	0.101
284.100	-25.495	0.101
284.200	-10.308	0.101
284.300	-19.360	0.101
284.400	-17.665	0.101
284.500	-28.003	0.101
284.600	-20.083	0.101
284.700	-14.361	0.101
284.800	-21.559	0.101
284.900	-12.403	0.101
285.000	-14.863	0.101
285.100	-20.597	0.101
285.200	-26.884	0.101
285.300	-24.706	0.101
285.400	-16.921	0.101
285.500	-22.951	0.101
285.600	-28.503	0.101
285.700	-15.620	0.101
285.800	-27.124	0.101
285.900	-29.299	0.101
286.000	-14.555	0.101
286.100	-18.362	0.101
286.200	-12.595	0.101
286.300	-23.094	0.101
286.400	-24.499	0.101
286.500	-19.931	0.101
286.600	-19.273	0.101
286.700	-21.518	0.101
286.800	-17.927	0.101
286.900	-10.390	0.101
287.000	-14.414	0.101
287.100	-17.877	0.101
287.200	-30.022	0.101
287.300	-26.844	0.101
287.400	-20.622	0.101
287.500	-11.506	0.101
287.600	-21.599	0.101
287.700	-28.039	0.101
287.800	-38.295	0.101
287.900	-11.657	0.101
288.000	-17.173	0.101
288.100	-15.426	0.101
288.200	-17.179	0.101
288.300	-13.010	0.101
288.400	-16.302	0.101
288.500	-17.249	0.101
288.600	-17.847	0.101
288.700	-23.394	0.101
288.800	-23.278	0.101
288.900	-19.263	0.101
289.000	-16.685	0.101
289.100	-32.573	0.101
289.200	-27.684	0.101
289.300	-18.764	0.101
289.400	-14.337	0.101
289.500	-21.715	0.101
289.600	-24.050	0.101
289.700	-17.775	0.101
289.800	-19.963	0.101
289.900	-13.517	0.101
290.000	-28.764	0.101
290.100	-18.791	0.101
290.200	-17.725	0.101
290.300	-25.516	0.101
290.400	-18.574	0.101
290.500	-26.878	0.101
290.600	-10.565	0.101
290.700	-20.888	0.101
290.800	-23.129	0.101
290.900	-14.740	0.101
291.000	-28.434	0.101
291.100	-25.805	0.101
291.200	-10.449	0.101
291.300	-17.253	0.101
291.400	-17.524	0.101
291.500	-25.167	0.101
291.600	-14.659	0.101
291.700	-17.896	0.101
291.800	-17.594	0.101
291.900	-21.191	0.101
292.000	-18.842	0.101
292.100	-30.946	0.101
292.200	-14.600	0.101
292.300	-20.061	0.101
292.400	-18.217	0.101
292.500	-16.631	0.101
292.600	-15.244	0.101
292.700	-13.126	0.101
292.800	-24.427	0.101
292.900	-15.404	0.101
293.000	-11.833	0.101
293.100	-14.873	0.101
293.200	-21.056	0.101
293.300	-21.344	0.101
293.400	-23.437	0.101
293.500	-19.725	0.101
293.600	-20.233	0.101
293.700	-20.481	0.101
293.800	-29.936	0.101
293.900	-15.433	0.101
294.000	-11.318	0.101
294.100	-20.907	0.101
294.200	-19.889	0.101
294.300	-26.615	0.101
294.400	-21.906	0.101
294.500	-22.924	0.101
294.600	-16.715	0.101
294.700	-17.175	0.101
294.800	-20.641	0.101
294.900	-25.122	0.101
295.000	-19.966	0.101
295.100	-18.768	0.101
295.200	-15.048	0.101
295.300	-16.383	0.101
295.400	-10.742	0.101
295.500	-16.387	0.101
295.600	-24.398	0.101
295.700	-23.802	0.101
295.800	-23.790	0.101
295.900	-15.574	0.101
296.000	-23.447	0.101
296.100	-16.742	0.101
296.200	-7.532	0.101
296.300	-22.949	0.101
296.400	-15.970	0.101
296.500	-17.854	0.101
296.600	-14.992	0.101
296.700	-21.771	0.101
296.800	-25.306	0.101
296.900	-27.877	0.101
297.000	-24.841	0.101
297.100	-21.431	0.101
297.200	-21.130	0.101
297.300	-12.086	0.101
297.400	-22.085	0.101
297.500	-19.700	0.101
297.600	-8.672	0.101
297.700	-10.154	0.101
297.800	-19.517	0.101
297.900	-15.616	0.101
298.000	-20.146	0.101
298.100	-19.169	0.101
298.200	-18.307	0.101
298.300	-17.455	0.101
298.400	-17.262	0.101
298.500	-12.039	0.101
298.600	-22.715	0.101
298.700	-15.837	0.101
298.800	-15.540	0.101
298.900	-21.451	0.101
299.000	-21.615	0.101
299.100	-20.251	0.101
299.200	-14.324	0.101
299.300	-22.845	0.101
299.400	-13.702	0.101
299.500	-23.632	0.101
299.600	-8.437	0.101
299.700	-10.724	0.101
299.800	-13.834	0.101
299.900	-32.168	0.101
300.000	-23.874	0.101
300.100	-25.019	0.101
300.200	-23.055	0.101
300.300	-25.094	0.101
300.400	-19.620	0.101
300.500	-20.030	0.101
300.600	-14.689	0.101
300.700	-15.351	0.101
300.800	2.873	0.101
300.900	-18.393	0.101
301.000	-14.709	0.101
301.100	-25.670	0.101
301.200	-26.110	0.101
301.300	-20.427	0.101
301.400	-12.137	0.101
301.500	-17.607	0.101
301.600	-20.499	0.101
301.700	-20.033	0.101
301.800	-8.942	0.101
301.900	-14.098	0.101
302.000	-25.475	0.101
302.100	-27.912	0.101
302.200	-19.196	0.101
302.300	-8.016	0.101
302.400	-14.386	0.101
302.500	-23.869	0.101
302.600	-25.198	0.101
302.700	-18.758	0.101
302.800	-24.380	0.101
302.900	-20.531	0.101
303.000	-28.979	0.101
303.100	-11.665	0.101
303.200	-31.445	0.101
303.300	-23.714	0.101
303.400	-13.891	0.101
303.500	-13.570	0.101
303.600	-25.466	0.101
303.700	-23.378	0.101
303.800	-22.022	0.101
303.900	-30.103	0.101
304.000	-22.139	0.101
304.100	-17.738	0.101
304.200	-14.462	0.101
304.300	-17.275	0.101
304.400	-13.809	0.101
304.500	-19.707	0.101
304.600	-25.292	0.101
304.700	-18.289	0.101
304.800	-21.160	0.101
304.900	-22.055	0.101
305.000	-9.531	0.101
305.100	-17.442	0.101
305.200	-8.119	0.101
305.300	-23.245	0.101
305.400	-18.456	0.101
305.500	-28.079	0.101
305.600	-28.903	0.101
305.700	-17.940	0.101
305.800	-18.969	0.101
305.900	-14.246	0.101
306.000	-22.694	0.101
306.100	-18.564	0.101
306.200	-21.391	0.101
306.300	-25.847	0.101
306.400	-28.058	0.101
306.500	-17.743	0.101
306.600	-4.344	0.101
306.700	-18.263	0.101
306.800	-16.828	0.101
306.900	-20.315	0.101
307.000	-12.283	0.101
307.100	-11.993	0.101
307.200	-24.359	0.101
307.300	-23.383	0.101
307.400	-11.003	0.101
307.500	-17.303	0.101
307.600	-16.836	0.101
307.700	-15.869	0.101
307.800	-15.277	0.101
307.900	-22.327	0.101
308.000	-23.690	0.101
308.100	-24.081	0.101
308.200	-17.329	0.101
308.300	-19.626	0.101
308.400	-6.850	0.101
308.500	-15.418	0.101
308.600	-19.515	0.101
308.700	-18.535	0.101
308.800	-5.131	0.101
308.900	-18.959	0.101
309.000	-24.295	0.101
309.100	-18.061	0.101
309.200	-25.692	0.101
309.300	-22.299	0.101
309.400	-13.986	0.101
309.500	-4.367	0.101
309.600	-15.778	0.101
309.700	-16.306	0.101
309.800	-27.639	0.101
309.900	-32.542	0.101
310.000	-17.155	0.101
310.100	-7.674	0.101
310.200	-19.327	0.101
310.300	-13.436	0.101
310.400	-16.073	0.101
310.500	-11.596	0.101
310.600	-19.079	0.101
310.700	-18.321	0.101
310.800	-22.251	0.101
310.900	-12.000	0.101
311.000	-12.594	0.101
311.100	-7.972	0.101
311.200	-2.428	0.101
311.300	-19.650	0.101
311.400	-18.506	0.101
311.500	-15.661	0.101
311.600	-13.352	0.101
311.700	-19.625	0.101
311.800	-18.556	0.101
311.900	-22.944	0.101
312.000	-20.275	0.101
312.100	-20.102	0.101
312.200	-15.963	0.101
312.300	-29.970	0.101
312.400	-21.638	0.101
312.500	-16.493	0.101
312.600	-6.808	0.101
312.700	-18.284	0.101
312.800	-19.196	0.101
312.900	-11.386	0.101
313.000	-19.015	0.101
313.100	-15.380	0.101
313.200	-22.651	0.101
313.300	-18.119	0.101
313.400	-16.167	0.101
313.500	-17.680	0.101
313.600	-27.067	0.101
313.700	-7.579	0.101
313.800	-11.071	0.101
313.900	-31.326	0.101
314.000	-22.122	0.101
314.100	-20.575	0.101
314.200	-10.067	0.101
314.300	-26.403	0.101
314.400	-10.403	0.101
314.500	-16.059	0.101
314.600	-9.060	0.101
314.700	-23.483	0.101
314.800	-17.326	0.101
314.900	-15.684	0.101
315.000	-21.605	0.101
315.100	-22.735	0.101
315.200	-11.231	0.101
315.300	-13.277	0.101
315.400	-15.666	0.101
315.500	-14.968	0.101
315.600	-16.771	0.101
315.700	-16.652	0.101
315.800	-17.803	0.101
315.900	-7.259	0.101
316.000	-26.303	0.101
316.100	-10.243	0.101
316.200	-8.974	0.101
316.300	-17.337	0.101
316.400	-22.202	0.101
316.500	-16.418	0.101
316.600	-16.791	0.101
316.700	-7.527	0.101
316.800	-17.755	0.101
316.900	-20.327	0.101
317.000	-19.351	0.101
317.100	-17.057	0.101
317.200	-20.979	0.101
317.300	-11.929	0.101
317.400	-11.004	0.101
317.500	-9.247	0.101
317.600	-22.380	0.101
317.700	-19.882	0.101
317.800	-16.664	0.101
317.900	-21.323	0.101
318.000	-22.465	0.101
318.100	-12.834	0.101
318.200	-10.567	0.101
318.300	-16.689	0.101
318.400	-25.266	0.101
318.500	-9.580	0.101
318.600	-10.158	0.101
318.700	-20.196	0.101
318.800	-19.980	0.101
318.900	-16.892	0.101
319.000	-19.257	0.101
319.100	-14.527	0.101
319.200	-9.819	0.101
319.300	-14.594	0.101
319.400	-15.401	0.101
319.500	-15.978	0.101
319.600	-22.392	0.101
319.700	-16.668	0.101
319.800	-26.376	0.101
319.900	-12.365	0.101
320.000	-8.115	0.101
320.100	-16.749	0.101
320.200	-29.445	0.101
320.300	-22.178	0.101
320.400	-12.869	0.101
320.500	-12.628	0.101
320.600	-14.547	0.101
320.700	-18.860	0.101
320.800	-22.050	0.101
320.900	-22.239	0.101
321.000	-17.361	0.101
321.100	-21.105	0.101
321.200	-22.859	0.101
321.300	-25.227	0.101
321.400	-24.072	0.101
321.500	-12.333	0.101
321.600	-12.416	0.101
321.700	-11.884	0.101
321.800	-10.483	0.101
321.900	-4.975	0.101
322.000	-23.001	0.101
322.100	-11.154	0.101
322.200	-22.381	0.101
322.300	-19.156	0.101
322.400	-11.173	0.101
322.500	-13.028	0.101
322.600	-15.646	0.101
322.700	-15.800	0.101
322.800	-12.312	0.101
322.900	-16.647	0.101
323.000	-24.447	0.101
323.100	-18.694	0.101
323.200	-17.968	0.101
323.300	-27.762	0.101
323.400	-20.693	0.101
323.500	-10.448	0.101
323.600	-29.127	0.101
323.700	-16.422	0.101
323.800	-17.540	0.101
323.900	-15.333	0.101
324.000	-22.701	0.101
324.100	-16.454	0.101
324.200	-13.498	0.101
324.300	-11.511	0.101
324.400	-12.222	0.101
324.500	-13.450	0.101
324.600	-17.140	0.101
324.700	-19.232	0.101
324.800	-23.438	0.101
324.900	-18.336	0.101
325.000	-18.727	0.101
325.100	-21.278	0.101
325.200	-27.653	0.101
325.300	-10.011	0.101
325.400	-10.158	0.101
325.500	-18.247	0.101
325.600	-14.672	0.101
325.700	-14.944	0.101
325.800	-11.885	0.101
325.900	-16.436	0.101
326.000	-16.081	0.101
326.100	-8.459	0.101
326.200	-12.795	0.101
326.300	-18.387	0.101
326.400	-17.701	0.101
326.500	-16.061	0.101
326.600	-15.364	0.101
326.700	-15.055	0.101
326.800	-10.370	0.101
326.900	-13.896	0.101
327.000	-29.626	0.101
327.100	-10.479	0.101
327.200	-19.311	0.101
327.300	-19.373	0.101
327.400	-13.860	0.101
327.500	-17.002	0.101
327.600	-9.941	0.101
327.700	-19.276	0.101
327.800	-20.600	0.101
327.900	-11.019	0.101
328.000	-14.801	0.101
328.100	-15.121	0.101
328.200	-16.491	0.101
328.300	-25.787	0.101
328.400	-13.692	0.101
328.500	-17.370	0.101
328.600	-18.073	0.101
328.700	-13.295	0.101
328.800	-11.365	0.101
328.900	-14.177	0.101
329.000	-11.624	0.101
329.100	-20.412	0.101
329.200	-12.154	0.101
329.300	-13.812	0.101
329.400	-16.391	0.101
329.500	-26.345	0.101
329.600	-18.866	0.101
329.700	-15.123	0.101
329.800	-8.739	0.101
329.900	-12.477	0.101
330.000	-11.493	0.101
330.100	-19.336	0.101
330.200	-10.613	0.101
330.300	-18.844	0.101
330.400	-18.979	0.101
330.500	-11.123	0.101
330.600	-7.277	0.101
330.700	0.172	0.101
330.800	0.998	0.101
330.900	-9.446	0.101
331.000	-1.561	0.101
331.100	1.230	0.101
331.200	3.226	0.101
331.300	-4.325	0.101
331.400	-4.965	0.101
331.500	1.512	0.101
331.600	4.747	0.101
331.700	7.814	0.101
331.800	16.412	0.101
331.900	20.262	0.101
332.000	8.283	0.101
332.100	12.860	0.101
332.200	8.981	0.101
332.300	9.440	0.101
332.400	15.005	0.101
332.500	19.931	0.101
332.600	17.043	0.101
332.700	16.265	0.101
332.800	16.012	0.101
332.900	14.790	0.101
333.000	12.014	0.101
333.100	18.884	0.101
333.200	10.294	0.101
333.300	15.579	0.101
333.400	10.548	0.101
333.500	10.726	0.101
333.600	21.064	0.101
333.700	22.786	0.101
333.800	27.274	0.101
333.900	15.590	0.101
334.000	22.193	0.101
334.100	21.649	0.101
334.200	16.521	0.101
334.300	24.061	0.101
334.400	18.097	0.101
334.500	3.078	0.101
334.600	13.228	0.101
334.700	20.661	0.101
334.800	18.819	0.101
334.900	10.106	0.101
335.000	12.252	0.101
335.100	25.094	0.101
335.200	25.612	0.101
335.300	30.672	0.101
335.400	9.151	0.101
335.500	12.401	0.101
335.600	15.438	0.101
335.700	10.662	0.101
335.800	15.929	0.101
335.900	9.860	0.101
336.000	18.276	0.101
336.100	28.192	0.101
336.200	22.125	0.101
336.300	16.386	0.101
336.400	20.038	0.101
336.500	14.596	0.101
336.600	23.421	0.101
336.700	21.773	0.101
336.800	16.717	0.101
336.900	17.256	0.101
337.000	12.451	0.101
337.100	5.912	0.101
337.200	0.994	0.101
337.300	9.988	0.101
337.400	9.941	0.101
337.500	12.489	0.101
337.600	18.369	0.101
337.700	16.922	0.101
337.800	16.025	0.101
337.900	12.684	0.101
338.000	11.950	0.101
338.100	6.420	0.101
338.200	3.181	0.101
338.300	11.882	0.101
338.400	14.255	0.101
338.500	16.861	0.101
338.600	10.780	0.101
338.700	15.316	0.101
338.800	15.907	0.101
338.900	27.310	0.101
339.000	23.767	0.101
339.100	10.461	0.101
339.200	15.970	0.101
339.300	6.499	0.101
339.400	10.935	0.101
339.500	12.195	0.101
339.600	14.143	0.101
339.700	15.649	0.101
339.800	16.116	0.101
339.900	14.185	0.101
340.000	19.271	0.101
340.100	6.580	0.101
340.200	20.931	0.101
340.300	6.650	0.101
340.400	12.318	0.101
340.500	16.770	0.101
340.600	19.268	0.101
340.700	11.698	0.101
340.800	11.158	0.101
340.900	17.530	0.101
341.000	9.004	0.101
341.100	7.157	0.101
341.200	6.411	0.101
341.300	12.441	0.101
341.400	8.800	0.101
341.500	16.727	0.101
341.600	23.021	0.101
341.700	19.083	0.101
341.800	14.139	0.101
341.900	10.440	0.101
342.000	16.910	0.101
342.100	12.175	0.101
342.200	11.885	0.101
342.300	13.299	0.101
342.400	8.486	0.101
342.500	3.252	0.101
342.600	11.371	0.101
342.700	12.348	0.101
342.800	19.975	0.101
342.900	13.650	0.101
343.000	14.311	0.101
343.100	20.242	0.101
343.200	13.690	0.101
343.300	22.515	0.101
343.400	25.209	0.101
343.500	19.482	0.101
343.600	25.537	0.101
343.700	14.886	0.101
343.800	17.854	0.101
343.900	14.176	0.101
344.000	16.337	0.101
344.100	6.942	0.101
344.200	4.244	0.101
344.300	11.670	0.101
344.400	23.050	0.101
344.500	20.799	0.101
344.600	16.998	0.101
344.700	14.037	0.101
344.800	5.964	0.101
344.900	11.337	0.101
345.000	19.503	0.101
345.100	19.300	0.101
345.200	16.168	0.101
345.300	20.621	0.101
345.400	17.232	0.101
345.500	19.979	0.101
345.600	17.304	0.101
345.700	8.392	0.101
345.800	11.924	0.101
345.900	7.421	0.101
346.000	9.754	0.101
346.100	17.675	0.101
346.200	20.628	0.101
346.300	14.034	0.101
346.400	9.819	0.101
346.500	27.042	0.101
346.600	19.903	0.101
346.700	10.366	0.101
346.800	20.571	0.101
346.900	13.910	0.101
347.000	24.787	0.101
347.100	16.618	0.101
347.200	21.115	0.101
347.300	19.171	0.101
347.400	20.040	0.101
347.500	12.927	0.101
347.600	27.173	0.101
347.700	22.031	0.101
347.800	11.508	0.101
347.900	24.764	0.101
348.000	13.069	0.101
348.100	14.945	0.101
348.200	16.020	0.101
348.300	21.162	0.101
348.400	17.114	0.101
348.500	22.459	0.101
348.600	10.372	0.101
348.700	17.452	0.101
348.800	16.488	0.101
348.900	13.451	0.101
349.000	18.400	0.101
349.100	21.880	0.101
349.200	20.018	0.101
349.300	17.690	0.101
349.400	17.843	0.101
349.500	18.608	0.101
349.600	16.403	0.101
349.700	22.306	0.101
349.800	14.871	0.101
349.900	23.435	0.101
350.000	38.323	0.101
350.100	25.419	0.101
350.200	19.943	0.101
350.300	23.442	0.101
350.400	25.929	0.101
350.500	26.766	0.101
350.600	26.153	0.101
350.700	18.225	0.101
350.800	22.562	0.101
350.900	24.431	0.101
351.000	20.381	0.101
351.100	16.912	0.101
351.200	31.543	0.101
351.300	21.509	0.101
351.400	22.259	0.101
351.500	22.659	0.101
351.600	23.715	0.101
351.700	28.544	0.101
351.800	34.842	0.101
351.900	17.076	0.101
352.000	16.857	0.101
352.100	35.950	0.101
352.200	32.459	0.101
352.300	19.126	0.101
352.400	30.781	0.101
352.500	19.727	0.101
352.600	18.162	0.101
352.700	34.821	0.101
352.800	24.036	0.101
352.900	29.604	0.101
353.000	25.188	0.101
353.100	26.882	0.101
353.200	32.857	0.101
353.300	35.633	0.101
353.400	29.946	0.101
353.500	39.405	0.101
353.600	29.529	0.101
353.700	27.757	0.101
353.800	25.361	0.101
353.900	14.379	0.101
354.000	25.247	0.101
354.100	27.320	0.101
354.200	30.104	0.101
354.300	23.930	0.101
354.400	20.607	0.101
354.500	17.782	0.101
354.600	24.219	0.101
354.700	29.472	0.101
354.800	37.905	0.101
354.900	28.566	0.101
355.000	35.631	0.101
355.100	35.020	0.101
355.200	33.435	0.101
355.300	28.330	0.101
355.400	31.581	0.101
355.500	26.988	0.101
355.600	27.352	0.101
355.700	27.805	0.101
355.800	33.366	0.101
355.900	39.022	0.101
356.000	37.771	0.101
356.100	33.861	0.101
356.200	40.155	0.101
356.300	27.971	0.101
356.400	28.030	0.101
356.500	37.084	0.101
356.600	20.919	0.101
356.700	29.967	0.101
356.800	33.897	0.101
356.900	37.784	0.101
357.000	39.131	0.101
357.100	29.079	0.101
357.200	28.664	0.101
357.300	32.099	0.101
357.400	25.170	0.101
357.500	29.391	0.101
357.600	40.500	0.101
357.700	30.419	0.101
357.800	41.193	0.101
357.900	39.441	0.101
358.000	43.178	0.101
358.100	28.957	0.101
358.200	29.987	0.101
358.300	34.734	0.101
358.400	25.560	0.101
358.500	29.490	0.101
358.600	31.396	0.101
358.700	34.102	0.101
358.800	35.672	0.101
358.900	41.516	0.101
359.000	34.507	0.101
359.100	31.292	0.101
359.200	36.173	0.101
359.300	35.027	0.101
359.400	31.622	0.101
359.500	39.011	0.101
359.600	36.795	0.101
359.700	31.965	0.101
359.800	37.808	0.101
359.900	26.644	0.101
360.000	31.960	0.101
360.100	27.735	0.101
360.200	30.645	0.101
360.300	35.308	0.101
360.400	28.921	0.101
360.500	46.254	0.101
360.600	49.316	0.101
360.700	34.422	0.101
360.800	26.641	0.101
360.900	35.034	0.101
361.000	41.040	0.101
361.100	51.095	0.101
361.200	45.587	0.101
361.300	34.717	0.101
361.400	29.208	0.101
361.500	38.385	0.101
361.600	36.775	0.101
361.700	40.978	0.101
361.800	43.241	0.101
361.900	42.159	0.101
362.000	45.436	0.101
362.100	30.528	0.101
362.200	33.255	0.101
362.300	38.452	0.101
362.400	36.013	0.101
362.500	35.794	0.101
362.600	41.963	0.101
362.700	29.452	0.101
362.800	28.158	0.101
362.900	36.858	0.101
363.000	39.427	0.101
363.100	32.480	0.101
363.200	46.212	0.101
363.300	44.087	0.101
363.400	35.936	0.101
363.500	27.028	0.101
363.600	33.964	0.101
363.700	43.817	0.101
363.800	30.206	0.101
363.900	39.864	0.101
364.000	36.053	0.101
364.100	37.662	0.101
364.200	27.167	0.101
364.300	42.803	0.101
364.400	43.993	0.101
364.500	36.191	0.101
364.600	40.049	0.101
364.700	47.246	0.101
364.800	44.535	0.101
364.900	36.319	0.101
365.000	50.011	0.101
365.100	37.730	0.101
365.200	38.404	0.101
365.300	36.285	0.101
365.400	32.712	0.101
365.500	37.243	0.101
365.600	29.975	0.101
365.700	42.671	0.101
365.800	36.003	0.101
365.900	33.895	0.101
366.000	31.488	0.101
366.100	39.583	0.101
366.200	43.958	0.101
366.300	48.524	0.101
366.400	29.586	0.101
366.500	22.810	0.101
366.600	39.207	0.101
366.700	35.952	0.101
366.800	55.048	0.101
366.900	43.102	0.101
367.000	44.704	0.101
367.100	37.848	0.101
367.200	38.493	0.101
367.300	36.838	0.101
367.400	31.191	0.101
367.500	23.363	0.101
367.600	34.569	0.101
367.700	34.952	0.101
367.800	32.402	0.101
367.900	42.621	0.101
368.000	46.265	0.101
368.100	43.570	0.101
368.200	37.251	0.101
368.300	43.335	0.101
368.400	40.772	0.101
368.500	40.813	0.101
368.600	42.660	0.101
368.700	35.396	0.101
368.800	47.461	0.101
368.900	46.573	0.101
369.000	33.234	0.101
369.100	36.377	0.101
369.200	43.746	0.101
369.300	38.697	0.101
369.400	36.821	0.101
369.500	44.648	0.101
369.600	46.711	0.101
369.700	33.417	0.101
369.800	39.763	0.101
369.900	33.938	0.101
370.000	38.335	0.101
370.100	43.115	0.101
370.200	31.548	0.101
370.300	34.957	0.101
370.400	29.677	0.101
370.500	38.795	0.101
370.600	38.998	0.101
370.700	32.529	0.101
370.800	38.432	0.101
370.900	38.487	0.101
371.000	40.612	0.101
371.100	32.757	0.101
371.200	41.666	0.101
371.300	55.373	0.101
371.400	41.431	0.101
371.500	41.971	0.101
371.600	32.747	0.101
371.700	41.795	0.101
371.800	32.352	0.101
371.900	31.665	0.101
372.000	40.499	0.101
372.100	41.611	0.101
372.200	43.487	0.101
372.300	36.900	0.101
372.400	32.403	0.101
372.500	44.903	0.101
372.600	42.951	0.101
372.700	47.577	0.101
372.800	40.401	0.101
372.900	31.864	0.101
373.000	40.661	0.101
373.100	40.523	0.101
373.200	41.320	0.101
373.300	38.377	0.101
373.400	35.363	0.101
373.500	29.145	0.101
373.600	36.208	0.101
373.700	43.487	0.101
373.800	38.954	0.101
373.900	42.563	0.101
374.000	31.862	0.101
374.100	39.368	0.101
374.200	31.982	0.101
374.300	31.077	0.101
374.400	41.796	0.101
374.500	52.448	0.101
374.600	35.565	0.101
374.700	41.080	0.101
374.800	41.746	0.101
374.900	44.959	0.101
375.000	41.079	0.101
375.100	42.959	0.101
375.200	45.485	0.101
375.300	35.894	0.101
375.400	23.636	0.101
375.500	31.015	0.101
375.600	40.052	0.101
375.700	47.353	0.101
375.800	46.537	0.101
375.900	30.533	0.101
376.000	27.855	0.101
376.100	39.694	0.101
376.200	33.336	0.101
376.300	38.860	0.101
376.400	46.573	0.101
376.500	39.563	0.101
376.600	36.364	0.101
376.700	30.242	0.101
376.800	40.928	0.101
376.900	34.780	0.101
377.000	31.190	0.101
377.100	53.103	0.101
377.200	34.434	0.101
377.300	47.659	0.101
377.400	48.429	0.101
377.500	40.090	0.101
377.600	37.649	0.101
377.700	40.574	0.101
377.800	33.823	0.101
377.900	32.689	0.101
378.000	42.865	0.101
378.100	46.125	0.101
378.200	42.387	0.101
378.300	39.081	0.101
378.400	35.066	0.101
378.500	41.806	0.101
378.600	37.383	0.101
378.700	42.631	0.101
378.800	38.482	0.101
378.900	39.058	0.101
379.000	31.847	0.101
379.100	31.752	0.101
379.200	41.548	0.101
379.300	39.878	0.101
379.400	43.505	0.101
379.500	52.848	0.101
379.600	35.190	0.101
379.700	29.868	0.101
379.800	34.333	0.101
379.900	46.418	0.101
380.000	45.776	0.101
380.100	40.822	0.101
380.200	35.962	0.101
380.300	42.901	0.101
380.400	29.487	0.101
380.500	37.554	0.101
380.600	43.254	0.101
380.700	42.459	0.101
380.800	37.370	0.101
380.900	31.351	0.101
381.000	35.650	0.101
381.100	41.905	0.101
381.200	48.388	0.101
381.300	37.278	0.101
381.400	36.308	0.101
381.500	39.453	0.101
381.600	35.992	0.101
381.700	41.658	0.101
381.800	41.082	0.101
381.900	35.807	0.101
382.000	37.020	0.101
382.100	45.642	0.101
382.200	41.645	0.101
382.300	46.182	0.101
382.400	31.190	0.101
382.500	32.587	0.101
382.600	44.174	0.101
382.700	35.869	0.101
382.800	50.240	0.101
382.900	41.139	0.101
383.000	26.859	0.101
383.100	42.519	0.101
383.200	44.038	0.101
383.300	41.446	0.101
383.400	38.534	0.101
383.500	40.968	0.101
383.600	31.694	0.101
383.700	31.620	0.101
383.800	30.339	0.101
383.900	35.826	0.101
384.000	39.096	0.101
384.100	42.077	0.101
384.200	37.566	0.101
384.300	36.671	0.101
384.400	33.163	0.101
384.500	35.493	0.101
384.600	25.788	0.101
384.700	39.506	0.101
384.800	30.660	0.101
384.900	37.066	0.101
385.000	41.593	0.101
385.100	29.875	0.101
385.200	37.592	0.101
385.300	34.442	0.101
385.400	36.221	0.101
385.500	36.348	0.101
385.600	36.733	0.101
385.700	44.824	0.101
385.800	41.154	0.101
385.900	29.827	0.101
386.000	50.357	0.101
386.100	40.965	0.101
386.200	41.302	0.101
386.300	44.919	0.101
386.400	38.692	0.101
386.500	39.024	0.101
386.600	35.306	0.101
386.700	43.909	0.101
386.800	42.936	0.101
386.900	47.451	0.101
387.000	41.816	0.101
387.100	27.142	0.101
387.200	36.654	0.101
387.300	42.371	0.101
387.400	27.231	0.101
387.500	50.932	0.101
387.600	40.500	0.101
387.700	38.472	0.101
387.800	33.522	0.101
387.900	40.320	0.101
388.000	30.713	0.101
388.100	41.469	0.101
388.200	33.912	0.101
388.300	34.346	0.101
388.400	31.214	0.101
388.500	38.329	0.101
388.600	37.052	0.101
388.700	50.158	0.101
388.800	40.868	0.101
388.900	37.623	0.101
389.000	33.932	0.101
389.100	36.721	0.101
389.200	42.741	0.101
389.300	47.860	0.101
389.400	38.921	0.101
389.500	38.524	0.101
389.600	32.059	0.101
389.700	30.192	0.101
389.800	31.017	0.101
389.900	42.142	0.101
390.000	46.255	0.101
390.100	40.841	0.101
390.200	36.899	0.101
390.300	43.495	0.101
390.400	35.074	0.101
390.500	26.768	0.101
390.600	32.908	0.101
390.700	24.429	0.101
390.800	20.450	0.101
390.900	22.241	0.101
391.000	28.211	0.101
391.100	26.033	0.101
391.200	15.998	0.101
391.300	11.253	0.101
391.400	17.902	0.101
391.500	12.068	0.101
391.600	15.193	0.101
391.700	13.001	0.101
391.800	11.875	0.101
391.900	4.416	0.101
392.000	6.007	0.101
392.100	-0.147	0.101
392.200	1.902	0.101
392.300	4.565	0.101
392.400	4.367	0.101
392.500	-3.256	0.101
392.600	12.697	0.101
392.700	-2.391	0.101
392.800	11.903	0.101
392.900	0.127	0.101
393.000	5.196	0.101
393.100	0.206	0.101
393.200	10.641	0.101
393.300	3.942	0.101
393.400	-13.816	0.101
393.500	-5.123	0.101
393.600	-5.535	0.101
393.700	-9.887	0.101
393.800	-8.569	0.101
393.900	-5.781	0.101
394.000	0.829	0.101
394.100	-7.534	0.101
394.200	-4.054	0.101
394.300	-0.779	0.101
394.400	-9.411	0.101
394.500	0.464	0.101
394.600	5.775	0.101
394.700	17.235	0.101
394.800	-0.728	0.101
394.900	-10.413	0.101
395.000	-11.333	0.101
395.100	-4.967	0.101
395.200	-11.719	0.101
395.300	-9.877	0.101
395.400	-4.193	0.101
395.500	-5.381	0.101
395.600	-14.342	0.101
395.700	-2.963	0.101
395.800	1.073	0.101
395.900	-7.036	0.101
396.000	1.074	0.101
396.100	-11.672	0.101
396.200	0.839	0.101
396.300	-12.694	0.101
396.400	4.165	0.101
396.500	-4.560	0.101
396.600	-10.559	0.101
396.700	7.025	0.101
396.800	-4.360	0.101
396.900	-7.727	0.101
397.000	-9.591	0.101
397.100	-4.116	0.101
397.200	-9.713	0.101
397.300	-10.538	0.101
397.400	-7.072	0.101
397.500	-4.105	0.101
397.600	-4.163	0.101
397.700	-1.560	0.101
397.800	-7.675	0.101
397.900	10.007	0.101
398.000	-1.101	0.101
398.100	-4.736	0.101
398.200	-7.967	0.101
398.300	-6.398	0.101
398.400	-20.258	0.101
398.500	-8.528	0.101
398.600	-8.105	0.101
398.700	0.963	0.101
398.800	8.743	0.101
398.900	3.622	0.101
399.000	-12.649	0.101
399.100	-4.035	0.101
399.200	-1.004	0.101
399.300	-9.165	0.101
399.400	-12.738	0.101
399.500	-3.457	0.101
399.600	-17.751	0.101
399.700	1.206	0.101
399.800	-12.401	0.101
399.900	-6.639	0.101
400.000	-11.211	0.101
400.100	-4.582	0.101
400.200	6.446	0.101
400.300	-7.887	0.101
400.400	-1.562	0.101
400.500	-0.707	0.101
400.600	-9.287	0.101
400.700	-8.974	0.101
400.800	-9.564	0.101
400.900	-4.899	0.101
401.000	-2.280	0.101
401.100	-11.177	0.101
401.200	-10.284	0.101
401.300	-4.807	0.101
401.400	-4.142	0.101
401.500	-4.812	0.101
401.600	-4.545	0.101
401.700	-2.728	0.101
401.800	-6.956	0.101
401.900	-15.785	0.101
402.000	-7.966	0.101
402.100	-6.727	0.101
402.200	1.016	0.101
402.300	-13.589	0.101
402.400	-2.650	0.101
402.500	-4.454	0.101
402.600	-9.864	0.101
402.700	-26.175	0.101
402.800	1.236	0.101
402.900	2.718	0.101
403.000	-13.364	0.101
403.100	-17.706	0.101
403.200	-2.954	0.101
403.300	-28.683	0.101
403.400	-7.243	0.101
403.500	-6.782	0.101
403.600	-4.613	0.101
403.700	-6.798	0.101
403.800	-1.059	0.101
403.900	-4.664	0.101
404.000	-10.638	0.101
404.100	-14.226	0.101
404.200	-3.982	0.101
404.300	-12.485	0.101
404.400	-2.993	0.101
404.500	-14.709	0.101
404.600	-19.156	0.101
404.700	-7.839	0.101
404.800	-18.357	0.101
404.900	-16.694	0.101
405.000	-8.569	0.101
405.100	-16.043	0.101
405.200	1.460	0.101
405.300	-5.128	0.101
405.400	-0.849	0.101
405.500	-12.468	0.101
405.600	-16.658	0.101
405.700	-4.895	0.101
405.800	-8.878	0.101
405.900	-10.479	0.101
406.000	-0.657	0.101
406.100	-13.331	0.101
406.200	-16.547	0.101
406.300	-3.830	0.101
406.400	-5.525	0.101
406.500	-30.269	0.101
406.600	-17.897	0.101
406.700	-4.112	0.101
406.800	-14.165	0.101
406.900	-8.225	0.101
407.000	-19.357	0.101
407.100	-19.135	0.101
407.200	-11.642	0.101
407.300	-12.807	0.101
407.400	-10.097	0.101
407.500	-20.882	0.101
407.600	-14.470	0.101
407.700	-10.897	0.101
407.800	-17.197	0.101
407.900	-7.499	0.101
408.000	-9.836	0.101
408.100	-17.557	0.101
408.200	-3.790	0.101
408.300	-10.675	0.101
408.400	-11.709	0.101
408.500	-15.234	0.101
408.600	-17.989	0.101
408.700	-9.359	0.101
408.800	-13.084	0.101
408.900	-21.297	0.101
409.000	-9.191	0.101
409.100	-10.021	0.101
409.200	-9.640	0.101
409.300	-10.237	0.101
409.400	-13.473	0.101
409.500	-19.814	0.101
409.600	-27.994	0.101
409.700	-15.214	0.101
409.800	-10.717	0.101
409.900	-27.198	0.101
410.000	-13.061	0.101
410.100	-14.653	0.101
410.200	-5.933	0.101
410.300	-6.671	0.101
410.400	-14.343	0.101
410.500	-14.233	0.101
410.600	-15.168	0.101
410.700	-14.236	0.101
410.800	-11.055	0.101
410.900	-16.260	0.101
411.000	-10.991	0.101
411.100	-27.172	0.101
411.200	-22.324	0.101
411.300	-21.119	0.101
411.400	-21.580	0.101
411.500	-11.087	0.101
411.600	-17.602	0.101
411.700	-3.783	0.101
411.800	-13.489	0.101
411.900	-17.625	0.101
412.000	-22.189	0.101
412.100	-27.937	0.101
412.200	-15.361	0.101
412.300	-14.628	0.101
412.400	-1.930	0.101
412.500	0.862	0.101
412.600	-12.355	0.101
412.700	-20.228	0.101
412.800	-18.905	0.101
412.900	-19.082	0.101
413.000	-14.729	0.101
413.100	-16.065	0.101
413.200	-25.761	0.101
413.300	-19.271	0.101
413.400	-22.124	0.101
413.500	-26.648	0.101
413.600	-19.632	0.101
413.700	-7.560	0.101
413.800	-22.272	0.101
413.900	-11.419	0.101
414.000	-18.524	0.101
414.100	-17.597	0.101
414.200	-22.806	0.101
414.300	-19.797	0.101
414.400	-9.547	0.101
414.500	-25.335	0.101
414.600	-18.610	0.101
414.700	-7.399	0.101
414.800	-21.291	0.101
414.900	-13.877	0.101
415.000	-17.592	0.101
415.100	-15.661	0.101
415.200	-19.377	0.101
415.300	-5.474	0.101
415.400	-16.832	0.101
415.500	-13.568	0.101
415.600	-16.939	0.101
415.700	-13.620	0.101
415.800	-18.172	0.101
415.900	-5.089	0.101
416.000	-16.551	0.101
416.100	-14.981	0.101
416.200	-23.157	0.101
416.300	-14.509	0.101
416.400	-20.121	0.101
416.500	-22.776	0.101
416.600	-22.987	0.101
416.700	-26.267	0.101
416.800	-32.646	0.101
416.900	-31.342	0.101
417.000	-14.259	0.101
417.100	-14.588	0.101
417.200	-21.514	0.101
417.300	-23.899	0.101
417.400	-17.373	0.101
417.500	-16.844	0.101
417.600	-21.719	0.101
417.700	-18.615	0.101
417.800	-23.618	0.101
417.900	-14.112	0.101
418.000	-21.817	0.101
418.100	-30.187	0.101
418.200	-27.263	0.101
418.300	-31.744	0.101
418.400	-21.908	0.101
418.500	-27.621	0.101
418.600	-15.886	0.101
418.700	-9.794	0.101
418.800	-22.677	0.101
418.900	-15.598	0.101
419.000	-12.974	0.101
419.100	-16.610	0.101
419.200	-18.559	0.101
419.300	-20.004	0.101
419.400	-22.915	0.101
419.500	-21.400	0.101
419.600	-15.403	0.101
419.700	-30.876	0.101
419.800	-22.438	0.101
419.900	-23.477	0.101
420.000	-21.572	0.101
420.100	-10.937	0.101
420.200	-18.659	0.101
420.300	-19.270	0.101
420.400	-15.402	0.101
420.500	-23.253	0.101
420.600	-20.510	0.101
420.700	-23.747	0.101
420.800	-25.467	0.101
420.900	-29.233	0.101
421.000	-34.777	0.101
421.100	-14.867	0.101
421.200	-15.419	0.101
421.300	-27.027	0.101
421.400	-26.691	0.101
421.500	-22.749	0.101
421.600	-11.810	0.101
421.700	-30.602	0.101
421.800	-24.716	0.101
421.900	-21.257	0.101
422.000	-12.679	0.101
422.100	-13.818	0.101
422.200	-26.813	0.101
422.300	-24.850	0.101
422.400	-14.494	0.101
422.500	-26.781	0.101
422.600	-24.711	0.101
422.700	-28.062	0.101
422.800	-20.479	0.101
422.900	-31.102	0.101
423.000	-23.108	0.101
423.100	-13.966	0.101
423.200	-23.049	0.101
423.300	-18.126	0.101
423.400	-12.070	0.101
423.500	-21.359	0.101
423.600	-28.467	0.101
423.700	-18.380	0.101
423.800	-23.465	0.101
423.900	-28.794	0.101
424.000	-23.960	0.101
424.100	-12.031	0.101
424.200	-16.288	0.101
424.300	-30.580	0.101
424.400	-24.133	0.101
424.500	-30.027	0.101
424.600	-27.492	0.101
424.700	-20.916	0.101
424.800	-17.642	0.101
424.900	-21.230	0.101
425.000	-28.315	0.101
425.100	-29.012	0.101
425.200	-18.411	0.101
425.300	-17.614	0.101
425.400	-18.089	0.101
425.500	-16.876	0.101
425.600	-27.049	0.101
425.700	-17.516	0.101
425.800	-23.281	0.101
425.900	-18.255	0.101
426.000	-22.423	0.101
426.100	-24.449	0.101
426.200	-24.858	0.101
426.300	-28.381	0.101
426.400	-17.939	0.101
426.500	-20.856	0.101
426.600	-8.542	0.101
426.700	-19.826	0.101
426.800	-24.968	0.101
426.900	-25.536	0.101
427.000	-23.619	0.101
427.100	-26.229	0.101
427.200	-23.798	0.101
427.300	-18.751	0.101
427.400	-23.346	0.101
427.500	-27.314	0.101
427.600	-28.267	0.101
427.700	-33.381	0.101
427.800	-25.595	0.101
427.900	-13.263	0.101
428.000	-26.818	0.101
428.100	-22.585	0.101
428.200	-20.174	0.101
428.300	-23.911	0.101
428.400	-18.645	0.101
428.500	-18.219	0.101
428.600	-31.571	0.101
428.700	-28.279	0.101
428.800	-31.301	0.101
428.900	-25.041	0.101
429.000	-24.784	0.101
429.100	-17.415	0.101
429.200	-35.581	0.101
429.300	-22.189	0.101
429.400	-20.350	0.101
429.500	-29.577	0.101
429.600	-18.534	0.101
429.700	-19.689	0.101
429.800	-23.989	0.101
429.900	-19.601	0.101
430.000	-29.806	0.101
430.100	-21.955	0.101
430.200	-19.539	0.101
430.300	-12.523	0.101
430.400	-29.700	0.101
430.500	-19.096	0.101
430.600	-26.082	0.101
430.700	-23.773	0.101
430.800	-12.888	0.101
430.900	-24.902	0.101
431.000	-21.668	0.101
431.100	-21.283	0.101
431.200	-21.136	0.101
431.300	-32.259	0.101
431.400	-29.800	0.101
431.500	-15.192	0.101
431.600	-25.943	0.101
431.700	-29.348	0.101
431.800	-10.950	0.101
431.900	-17.608	0.101
432.000	-30.557	0.101
432.100	-19.488	0.101
432.200	-29.140	0.101
432.300	-17.784	0.101
432.400	-19.761	0.101
432.500	-22.478	0.101
432.600	-31.279	0.101
432.700	-33.117	0.101
432.800	-21.906	0.101
432.900	-17.206	0.101
433.000	-12.883	0.101
433.100	-29.024	0.101
433.200	-27.061	0.101
433.300	-31.410	0.101
433.400	-27.517	0.101
433.500	-28.799	0.101
433.600	-21.843	0.101
433.700	-23.940	0.101
433.800	-10.350	0.101
433.900	-12.985	0.101
434.000	-18.734	0.101
434.100	-11.440	0.101
434.200	-30.511	0.101
434.300	-25.567	0.101
434.400	-23.740	0.101
434.500	-26.419	0.101
434.600	-19.736	0.101
434.700	-21.638	0.101
434.800	-27.745	0.101
434.900	-28.764	0.101
435.000	-17.137	0.101
435.100	-27.314	0.101
435.200	-19.503	0.101
435.300	-33.157	0.101
435.400	-19.593	0.101
435.500	-23.987	0.101
435.600	-21.772	0.101
435.700	-24.116	0.101
435.800	-29.757	0.101
435.900	-26.969	0.101
436.000	-27.637	0.101
436.100	-25.864	0.101
436.200	-24.250	0.101
436.300	-11.071	0.101
436.400	-24.020	0.101
436.500	-28.858	0.101
436.600	-32.705	0.101
436.700	-24.379	0.101
436.800	-16.334	0.101
436.900	-22.163	0.101
437.000	-24.405	0.101
437.100	-17.910	0.101
437.200	-15.133	0.101
437.300	-12.997	0.101
437.400	-30.310	0.101
437.500	-24.944	0.101
437.600	-16.321	0.101
437.700	-12.996	0.101
437.800	-20.934	0.101
437.900	-29.768	0.101
438.000	-20.812	0.101
438.100	-27.390	0.101
438.200	-26.559	0.101
438.300	-26.908	0.101
438.400	-27.978	0.101
438.500	-24.328	0.101
438.600	-16.041	0.101
438.700	-17.632	0.101
438.800	-21.777	0.101
438.900	-20.820	0.101
439.000	-21.195	0.101
439.100	-14.935	0.101
439.200	-24.472	0.101
439.300	-8.329	0.101
439.400	-25.154	0.101
439.500	-19.817	0.101
439.600	-27.725	0.101
439.700	-22.299	0.101
439.800	-22.994	0.101
439.900	-19.345	0.101
440.000	-19.783	0.101
440.100	-20.055	0.101
440.200	-15.315	0.101
440.300	-13.042	0.101
440.400	-26.712	0.101
440.500	-23.443	0.101
440.600	-32.635	0.101
440.700	-11.012	0.101
440.800	-26.707	0.101
440.900	-7.789	0.101
441.000	-22.698	0.101
441.100	-24.888	0.101
441.200	-19.442	0.101
441.300	-20.434	0.101
441.400	-26.543	0.101
441.500	-19.651	0.101
441.600	-20.337	0.101
441.700	-16.749	0.101
441.800	-18.251	0.101
441.900	-17.499	0.101
442.000	-22.356	0.101
442.100	-13.142	0.101
442.200	-24.764	0.101
442.300	-37.505	0.101
442.400	-22.679	0.101
442.500	-24.980	0.101
442.600	-25.945	0.101
442.700	-17.993	0.101
442.800	-26.855	0.101
442.900	-32.736	0.101
443.000	-27.179	0.101
443.100	-24.745	0.101
443.200	-33.639	0.101
443.300	-12.750	0.101
443.400	-17.256	0.101
443.500	-26.148	0.101
443.600	-22.101	0.101
443.700	-23.646	0.101
443.800	-16.289	0.101
443.900	-23.518	0.101
444.000	-11.194	0.101
444.100	-16.745	0.101
444.200	-17.329	0.101
444.300	-18.916	0.101
444.400	-20.574	0.101
444.500	-26.006	0.101
444.600	-16.354	0.101
444.700	-22.497	0.101
444.800	-19.728	0.101
444.900	-19.926	0.101
445.000	-23.504	0.101
445.100	-18.202	0.101
445.200	-18.024	0.101
445.300	-27.261	0.101
445.400	-23.189	0.101
445.500	-18.699	0.101
445.600	-19.483	0.101
445.700	-24.753	0.101
445.800	-18.354	0.101
445.900	-27.928	0.101
446.000	-24.521	0.101
446.100	-21.283	0.101
446.200	-12.771	0.101
446.300	-20.025	0.101
446.400	-29.735	0.101
446.500	-15.337	0.101
446.600	-14.185	0.101
446.700	-20.220	0.101
446.800	-29.955	0.101
446.900	-20.177	0.101
447.000	-16.214	0.101
447.100	-22.408	0.101
447.200	-23.547	0.101
447.300	-19.112	0.101
447.400	-15.233	0.101
447.500	-29.459	0.101
447.600	-39.205	0.101
447.700	-23.492	0.101
447.800	-14.895	0.101
447.900	-9.497	0.101
448.000	-10.206	0.101
448.100	-23.899	0.101
448.200	-30.299	0.101
448.300	-25.256	0.101
448.400	-24.017	0.101
448.500	-20.766	0.101
448.600	-6.080	0.101
448.700	-13.929	0.101
448.800	-14.701	0.101
448.900	-17.176	0.101
449.000	-23.453	0.101
449.100	-31.610	0.101
449.200	-31.326	0.101
449.300	-17.550	0.101
449.400	-22.585	0.101
449.500	-21.894	0.101
449.600	-25.000	0.101
449.700	-23.587	0.101
449.800	-9.880	0.101
449.900	-19.795	0.101
450.000	-20.937	0.101
450.100	-16.558	0.101
450.200	-20.603	0.101
450.300	-27.361	0.101
450.400	-24.953	0.101
450.500	-26.581	0.101
450.600	-21.905	0.101
450.700	-17.122	0.101
450.800	-15.188	0.101
450.900	-17.247	0.101
451.000	-27.955	0.101
451.100	-25.180	0.101
451.200	-27.641	0.101
451.300	-31.496	0.101
451.400	-12.943	0.101
451.500	-11.559	0.101
451.600	-16.524	0.101
451.700	-20.628	0.101
451.800	-24.918	0.101
451.900	-18.914	0.101
452.000	-17.324	0.101
452.100	-20.526	0.101
452.200	-28.980	0.101
452.300	-27.741	0.101
452.400	-22.113	0.101
452.500	-13.512	0.101
452.600	-18.493	0.101
452.700	-17.664	0.101
452.800	-32.088	0.101
452.900	-19.454	0.101
453.000	-16.512	0.101
453.100	-18.373	0.101
453.200	-16.876	0.101
453.300	-26.367	0.101
453.400	-12.687	0.101
453.500	-9.056	0.101
453.600	-24.858	0.101
453.700	-28.147	0.101
453.800	-27.611	0.101
453.900	-22.920	0.101
454.000	-13.881	0.101
454.100	-18.605	0.101
454.200	-8.564	0.101
454.300	-12.679	0.101
454.400	-17.793	0.101
454.500	-18.534	0.101
454.600	-25.824	0.101
454.700	-24.670	0.101
454.800	-22.167	0.101
454.900	-28.203	0.101
455.000	-18.888	0.101
455.100	-19.917	0.101
455.200	-20.508	0.101
455.300	-26.669	0.101
455.400	-31.484	0.101
455.500	-14.758	0.101
455.600	-25.348	0.101
455.700	-9.742	0.101
455.800	-28.475	0.101
455.900	-13.140	0.101
456.000	-18.181	0.101
456.100	-22.469	0.101
456.200	-18.209	0.101
456.300	-20.914	0.101
456.400	-24.708	0.101
456.500	-11.589	0.101
456.600	-10.790	0.101
456.700	-27.167	0.101
456.800	-24.716	0.101
456.900	-22.711	0.101
457.000	-3.701	0.101
457.100	-24.180	0.101
457.200	-25.683	0.101
457.300	-30.040	0.101
457.400	-32.469	0.101
457.500	-16.303	0.101
457.600	-29.622	0.101
457.700	-15.399	0.101
457.800	-18.495	0.101
457.900	-25.812	0.101
458.000	-29.582	0.101
458.100	-15.271	0.101
458.200	-16.730	0.101
458.300	-14.601	0.101
458.400	-22.975	0.101
458.500	-20.723	0.101
458.600	-16.469	0.101
458.700	-29.238	0.101
458.800	-13.546	0.101
458.900	-17.721	0.101
459.000	-19.048	0.101
459.100	-16.560	0.101
459.200	-18.300	0.101
459.300	-21.715	0.101
459.400	-20.220	0.101
459.500	-13.827	0.101
459.600	-14.837	0.101
459.700	-3.799	0.101
459.800	-11.876	0.101
459.900	-30.924	0.101
460.000	-25.312	0.101
460.100	-23.475	0.101
460.200	-21.849	0.101
460.300	-22.342	0.101
460.400	-20.980	0.101
460.500	-23.230	0.101
460.600	-15.407	0.101
460.700	-15.237	0.101
460.800	-24.137	0.101
460.900	-24.267	0.101
461.000	-24.340	0.101
461.100	-20.499	0.101
461.200	-7.725	0.101
461.300	-12.238	0.101
461.400	-17.517	0.101
461.500	-12.104	0.101
461.600	-25.102	0.101
461.700	-17.696	0.101
461.800	-16.656	0.101
461.900	-20.836	0.101
462.000	-17.919	0.101
462.100	-7.509	0.101
462.200	-19.390	0.101
462.300	-23.363	0.101
462.400	-18.116	0.101
462.500	-20.082	0.101
462.600	-14.427	0.101
462.700	-20.053	0.101
462.800	-24.877	0.101
462.900	-16.716	0.101
463.000	-29.312	0.101
463.100	-20.871	0.101
463.200	-11.048	0.101
463.300	-15.255	0.101
463.400	-16.487	0.101
463.500	-18.747	0.101
463.600	-18.447	0.101
463.700	-19.291	0.101
463.800	-17.875	0.101
463.900	-19.582	0.101
464.000	-17.467	0.101
464.100	-16.309	0.101
464.200	-19.297	0.101
464.300	-20.195	0.101
464.400	-23.602	0.101
464.500	-22.686	0.101
464.600	-17.960	0.101
464.700	-13.154	0.101
464.800	-26.891	0.101
464.900	-26.955	0.101
465.000	-16.916	0.101
465.100	-16.018	0.101
465.200	-21.442	0.101
465.300	-14.509	0.101
465.400	-19.346	0.101
465.500	-16.569	0.101
465.600	-15.378	0.101
465.700	-22.626	0.101
465.800	-12.821	0.101
465.900	-17.054	0.101
466.000	-11.570	0.101
466.100	-15.408	0.101
466.200	-16.603	0.101
466.300	-34.966	0.101
466.400	-20.600	0.101
466.500	-18.258	0.101
466.600	-20.486	0.101
466.700	-32.077	0.101
466.800	-18.609	0.101
466.900	-29.217	0.101
467.000	-15.737	0.101
467.100	-13.831	0.101
467.200	-27.378	0.101
467.300	-21.626	0.101
467.400	-25.593	0.101
467.500	-18.344	0.101
467.600	-15.832	0.101
467.700	-14.180	0.101
467.800	-23.322	0.101
467.900	-22.570	0.101
468.000	-20.488	0.101
468.100	-3.283	0.101
468.200	-19.007	0.101
468.300	-26.076	0.101
468.400	-15.774	0.101
468.500	-11.731	0.101
468.600	-27.958	0.101
468.700	-16.651	0.101
468.800	-24.669	0.101
468.900	-19.584	0.101
469.000	-7.396	0.101
469.100	-12.116	0.101
469.200	-10.759	0.101
469.300	-19.091	0.101
469.400	-22.408	0.101
469.500	-21.606	0.101
469.600	-8.414	0.101
469.700	-22.603	0.101
469.800	-20.055	0.101
469.900	-19.458	0.101
470.000	-16.618	0.101
470.100	-16.431	0.101
470.200	-12.239	0.101
470.300	-19.486	0.101
470.400	-17.119	0.101
470.500	-25.541	0.101
470.600	-15.904	0.101
470.700	-15.305	0.101
470.800	-25.327	0.101
470.900	-25.352	0.101
471.000	-24.462	0.101
471.100	-20.163	0.101
471.200	-21.965	0.101
471.300	-16.577	0.101
471.400	-15.692	0.101
471.500	-18.416	0.101
471.600	-20.596	0.101
471.700	-16.133	0.101
471.800	-14.707	0.101
471.900	-20.975	0.101
472.000	-9.080	0.101
472.100	-10.803	0.101
472.200	-9.933	0.101
472.300	-21.152	0.101
472.400	-20.783	0.101
472.500	-26.840	0.101
472.600	-13.608	0.101
472.700	-20.470	0.101
472.800	-21.379	0.101
472.900	-5.672	0.101
473.000	-22.722	0.101
473.100	-21.405	0.101
473.200	-14.730	0.101
473.300	-16.611	0.101
473.400	-1.822	0.101
473.500	-17.566	0.101
473.600	-17.767	0.101
473.700	-32.612	0.101
473.800	-22.779	0.101
473.900	-12.029	0.101
474.000	-16.700	0.101
474.100	-10.382	0.101
474.200	-7.480	0.101
474.300	-18.735	0.101
474.400	-17.170	0.101
474.500	-20.609	0.101
474.600	-13.336	0.101
474.700	-11.284	0.101
474.800	-16.865	0.101
474.900	-16.320	0.101
475.000	-20.965	0.101
475.100	-18.604	0.101
475.200	-12.368	0.101
475.300	-17.998	0.101
475.400	-10.344	0.101
475.500	-17.215	0.101
475.600	-21.607	0.101
475.700	-25.853	0.101
475.800	-25.538	0.101
475.900	-22.576	0.101
476.000	-21.938	0.101
476.100	-20.167	0.101
476.200	-12.285	0.101
476.300	-13.279	0.101
476.400	-18.442	0.101
476.500	-13.672	0.101
476.600	-13.192	0.101
476.700	-18.179	0.101
476.800	-24.868	0.101
476.900	-25.855	0.101
477.000	-18.445	0.101
477.100	-22.958	0.101
477.200	-18.241	0.101
477.300	-15.925	0.101
477.400	-10.006	0.101
477.500	0.025	0.101
477.600	-23.095	0.101
477.700	-20.713	0.101
477.800	-26.468	0.101
477.900	-13.882	0.101
478.000	-22.004	0.101
478.100	-15.057	0.101
478.200	-20.019	0.101
478.300	-27.446	0.101
478.400	-21.723	0.101
478.500	-17.823	0.101
478.600	-25.476	0.101
478.700	-15.513	0.101
478.800	-11.594	0.101
478.900	-4.573	0.101
479.000	-10.647	0.101
479.100	-18.589	0.101
479.200	-20.390	0.101
479.300	-8.938	0.101
479.400	-9.356	0.101
479.500	-16.278	0.101
479.600	-15.956	0.101
479.700	-18.362	0.101
479.800	-19.192	0.101
479.900	-24.833	0.101
480.000	-22.535	0.101
480.100	-7.752	0.101
480.200	-21.471	0.101
480.300	-27.718	0.101
480.400	-9.634	0.101
480.500	-9.085	0.101
480.600	-14.352	0.101
480.700	-9.117	0.101
480.800	-5.902	0.101
480.900	-9.671	0.101
481.000	-4.462	0.101
481.100	0.627	0.101
481.200	5.306	0.101
481.300	7.771	0.101
481.400	3.426	0.101
481.500	8.064	0.101
481.600	6.869	0.101
481.700	3.637	0.101
481.800	4.950	0.101
481.900	2.167	0.101
482.000	5.196	0.101
482.100	8.879	0.101
482.200	12.512	0.101
482.300	3.631	0.101
482.400	19.884	0.101
482.500	15.012	0.101
482.600	10.739	0.101
482.700	19.898	0.101
482.800	10.782	0.101
482.900	11.928	0.101
483.000	20.407	0.101
483.100	20.520	0.101
483.200	18.599	0.101
483.300	17.087	0.101
483.400	16.438	0.101
483.500	8.992	0.101
483.600	14.246	0.101
483.700	17.762	0.101
483.800	16.207	0.101
483.900	23.187	0.101
484.000	21.586	0.101
484.100	18.742	0.101
484.200	11.216	0.101
484.300	18.592	0.101
484.400	15.569	0.101
484.500	22.062	0.101
484.600	20.816	0.101
484.700	19.578	0.101
484.800	5.538	0.101
484.900	23.121	0.101
485.000	26.887	0.101
485.100	27.239	0.101
485.200	13.096	0.101
485.300	13.760	0.101
485.400	22.144	0.101
485.500	17.242	0.101
485.600	8.895	0.101
485.700	6.574	0.101
485.800	15.805	0.101
485.900	15.587	0.101
486.000	8.405	0.101
486.100	6.875	0.101
486.200	21.322	0.101
486.300	21.684	0.101
486.400	18.932	0.101
486.500	20.182	0.101
486.600	16.932	0.101
486.700	15.135	0.101
486.800	7.905	0.101
486.900	11.454	0.101
487.000	21.383	0.101
487.100	10.648	0.101
487.200	8.635	0.101
487.300	13.205	0.101
487.400	2.936	0.101
487.500	14.746	0.101
487.600	2.962	0.101
487.700	11.125	0.101
487.800	4.475	0.101
487.900	17.783	0.101
488.000	15.698	0.101
488.100	10.824	0.101
488.200	12.527	0.101
488.300	16.176	0.101
488.400	16.744	0.101
488.500	17.686	0.101
488.600	13.065	0.101
488.700	21.339	0.101
488.800	11.672	0.101
488.900	12.517	0.101
489.000	5.099	0.101
489.100	9.433	0.101
489.200	6.326	0.101
489.300	14.401	0.101
489.400	14.162	0.101
489.500	14.668	0.101
489.600	7.791	0.101
489.700	12.222	0.101
489.800	9.179	0.101
489.900	12.212	0.101
490.000	13.227	0.101
490.100	12.550	0.101
490.200	13.435	0.101
490.300	14.293	0.101
490.400	0.549	0.101
490.500	3.920	0.101
490.600	12.676	0.101
490.700	22.970	0.101
490.800	11.104	0.101
490.900	9.507	0.101
491.000	13.644	0.101
491.100	11.858	0.101
491.200	-0.274	0.101
491.300	13.322	0.101
491.400	11.444	0.101
491.500	16.069	0.101
491.600	13.011	0.101
491.700	11.754	0.101
491.800	10.200	0.101
491.900	6.574	0.101
492.000	21.562	0.101
492.100	14.125	0.101
492.200	8.312	0.101
492.300	7.938	0.101
492.400	0.487	0.101
492.500	16.571	0.101
492.600	20.057	0.101
492.700	15.016	0.101
492.800	16.320	0.101
492.900	20.654	0.101
493.000	10.964	0.101
493.100	9.186	0.101
493.200	16.044	0.101
493.300	18.109	0.101
493.400	14.459	0.101
493.500	11.659	0.101
493.600	13.489	0.101
493.700	7.059	0.101
493.800	7.329	0.101
493.900	11.741	0.101
494.000	11.488	0.101
494.100	14.931	0.101
494.200	14.082	0.101
494.300	17.886	0.101
494.400	18.522	0.101
494.500	18.193	0.101
494.600	15.432	0.101
494.700	11.747	0.101
494.800	11.020	0.101
494.900	17.659	0.101
495.000	19.975	0.101
495.100	11.923	0.101
495.200	21.443	0.101
495.300	9.631	0.101
495.400	17.514	0.101
495.500	22.378	0.101
495.600	7.300	0.101
495.700	15.346	0.101
495.800	11.584	0.101
495.900	14.748	0.101
496.000	9.883	0.101
496.100	12.397	0.101
496.200	23.099	0.101
496.300	18.797	0.101
496.400	17.806	0.101
496.500	18.267	0.101
496.600	12.971	0.101
496.700	16.516	0.101
496.800	23.561	0.101
496.900	21.616	0.101
497.000	10.122	0.101
497.100	20.065	0.101
497.200	22.897	0.101
497.300	24.373	0.101
497.400	22.788	0.100
497.500	20.956	0.101
497.600	21.089	0.101
497.700	7.083	0.101
497.800	23.613	0.101
497.900	20.965	0.101
498.000	18.726	0.101
498.100	15.839	0.101
498.200	20.897	0.101
498.300	25.631	0.101
498.400	26.620	0.101
498.500	11.734	0.101
498.600	24.165	0.101
498.700	17.103	0.101
498.800	30.912	0.101
498.900	14.570	0.101
499.000	25.881	0.101
499.100	15.860	0.100
499.200	8.610	0.100
499.300	25.138	0.101
499.400	27.818	0.100
499.500	23.647	0.100
499.600	12.272	0.101
499.700	18.924	0.101
499.800	24.148	0.100
499.900	22.198	0.101
500.000	25.533	0.100
500.100	18.632	0.100
500.200	13.353	0.100
500.300	21.356	0.101
500.400	18.696	0.100
500.500	19.759	0.100
500.600	27.114	0.100
500.700	20.190	0.101
500.800	34.222	0.101
500.900	24.034	0.101
501.000	12.324	0.101
501.100	18.899	0.100
501.200	30.082	0.100
501.300	21.499	0.100
501.400	24.830	0.101
501.500	23.067	0.100
501.600	14.273	0.100
501.700	21.813	0.100
501.800	26.800	0.100
501.900	32.856	0.100
502.000	27.945	0.100
502.100	28.400	0.100
502.200	32.702	0.100
502.300	24.736	0.100
502.400	28.575	0.100
502.500	22.751	0.100
502.600	13.523	0.100
502.700	25.945	0.100
502.800	26.301	0.100
502.900	23.146	0.100
503.000	31.222	0.100
503.100	33.211	0.101
503.200	27.811	0.100
503.300	33.613	0.101
503.400	20.553	0.100
503.500	21.099	0.100
503.600	22.179	0.100
503.700	30.293	0.100
503.800	26.726	0.100
503.900	27.939	0.100
504.000	29.380	0.100
504.100	35.066	0.100
504.200	28.689	0.100
504.300	31.644	0.100
504.400	24.647	0.100
504.500	24.220	0.100
504.600	21.909	0.100
504.700	29.021	0.100
504.800	32.326	0.100
504.900	20.749	0.100
505.000	25.106	0.100
505.100	41.801	0.100
505.200	37.228	0.100
505.300	35.787	0.100
505.400	28.193	0.100
505.500	39.266	0.100
505.600	16.408	0.100
505.700	22.193	0.100
505.800	27.744	0.100
505.900	32.625	0.100
506.000	25.651	0.100
506.100	28.528	0.100
506.200	30.947	0.100
506.300	29.616	0.100
506.400	38.993	0.100
506.500	38.947	0.100
506.600	36.439	0.100
506.700	33.054	0.100
506.800	35.796	0.100
506.900	35.862	0.100
507.000	38.618	0.100
507.100	35.044	0.100
507.200	31.253	0.100
507.300	28.671	0.100
507.400	36.452	0.100
507.500	31.008	0.100
507.600	30.909	0.100
507.700	30.072	0.100
507.800	38.011	0.100
507.900	31.791	0.100
508.000	45.744	0.100
508.100	36.894	0.100
508.200	21.843	0.100
508.300	23.283	0.100
508.400	46.127	0.100
508.500	33.695	0.100
508.600	41.279	0.100
508.700	47.983	0.100
508.800	38.527	0.100
508.900	35.073	0.100
509.000	30.612	0.100
509.100	41.678	0.100
509.200	32.459	0.100
509.300	31.129	0.100
509.400	41.406	0.100
509.500	33.269	0.100
509.600	30.588	0.100
509.700	39.802	0.100
509.800	25.987	0.100
509.900	27.990	0.100
510.000	40.721	0.100
510.100	35.828	0.100
510.200	21.461	0.100
510.300	42.193	0.100
510.400	43.833	0.100
510.500	29.070	0.100
510.600	43.899	0.100
510.700	37.086	0.100
510.800	27.311	0.100
510.900	49.233	0.100
511.000	41.778	0.100
511.100	33.259	0.100
511.200	39.556	0.100
511.300	43.169	0.100
511.400	43.756	0.100
511.500	33.630	0.100
511.600	43.825	0.100
511.700	32.281	0.100
511.800	36.123	0.100
511.900	38.064	0.100
512.000	52.908	0.100
512.100	51.157	0.100
512.200	38.578	0.100
512.300	44.407	0.100
512.400	36.325	0.100
512.500	45.469	0.100
512.600	32.317	0.100
512.700	25.241	0.100
512.800	34.973	0.100
512.900	33.623	0.100
513.000	30.705	0.100
513.100	28.860	0.100
513.200	22.785	0.100
513.300	33.302	0.100
513.400	42.724	0.100
513.500	43.420	0.100
513.600	43.255	0.100
513.700	34.211	0.100
513.800	35.561	0.100
513.900	32.928	0.100
514.000	35.712	0.100
514.100	32.348	0.100
514.200	39.905	0.100
514.300	40.471	0.100
514.400	38.757	0.100
514.500	38.263	0.100
514.600	46.080	0.100
514.700	39.778	0.100
514.800	27.766	0.100
514.900	38.746	0.100
515.000	44.209	0.100
515.100	43.329	0.100
515.200	35.543	0.100
515.300	40.100	0.100
515.400	39.863	0.100
515.500	33.563	0.100
515.600	33.446	0.100
515.700	32.502	0.100
515.800	44.427	0.100
515.900	36.493	0.100
516.000	40.373	0.100
516.100	35.706	0.100
516.200	32.974	0.100
516.300	39.143	0.100
516.400	35.269	0.100
516.500	27.801	0.100
516.600	36.164	0.100
516.700	49.070	0.100
516.800	46.396	0.100
516.900	40.363	0.100
517.000	44.383	0.100
517.100	28.848	0.100
517.200	39.058	0.100
517.300	38.230	0.100
517.400	46.842	0.100
517.500	31.504	0.100
517.600	47.622	0.100
517.700	44.025	0.100
517.800	41.061	0.100
517.900	42.871	0.100
518.000	35.612	0.100
518.100	40.053	0.100
518.200	36.948	0.100
518.300	31.466	0.100
518.400	40.821	0.100
518.500	48.116	0.100
518.600	39.168	0.100
518.700	34.879	0.100
518.800	32.912	0.100
518.900	41.065	0.100
519.000	36.342	0.100
519.100	39.098	0.100
519.200	42.813	0.100
519.300	39.795	0.100
519.400	31.983	0.100
519.500	36.444	0.100
519.600	43.556	0.100
519.700	24.625	0.100
519.800	39.623	0.100
519.900	32.739	0.100
520.000	35.665	0.100
520.100	40.754	0.100
520.200	45.517	0.100
520.300	44.442	0.100
520.400	28.375	0.100
520.500	33.267	0.100
520.600	41.202	0.100
520.700	46.790	0.100
520.800	32.210	0.100
520.900	38.474	0.100
521.000	40.014	0.100
521.100	41.452	0.100
521.200	32.038	0.100
521.300	32.388	0.100
521.400	42.259	0.100
521.500	42.377	0.100
521.600	34.541	0.100
521.700	34.995	0.100
521.800	47.477	0.100
521.900	56.093	0.100
522.000	37.517	0.100
522.100	30.914	0.100
522.200	40.744	0.100
522.300	47.606	0.100
522.400	39.266	0.100
522.500	19.183	0.100
522.600	44.025	0.100
522.700	33.695	0.100
522.800	35.607	0.100
522.900	41.465	0.100
523.000	47.130	0.100
523.100	41.165	0.100
523.200	36.105	0.100
523.300	36.884	0.100
523.400	40.048	0.100
523.500	35.774	0.100
523.600	34.865	0.100
523.700	27.264	0.100
523.800	32.010	0.100
523.900	44.188	0.100
524.000	48.382	0.100
524.100	37.353	0.100
524.200	42.300	0.100
524.300	41.485	0.100
524.400	37.159	0.100
524.500	38.855	0.100
524.600	47.911	0.100
524.700	35.675	0.100
524.800	41.985	0.100
524.900	37.545	0.100
525.000	41.317	0.100
525.100	43.796	0.100
525.200	33.622	0.100
525.300	42.027	0.100
525.400	46.459	0.100
525.500	42.972	0.100
525.600	31.568	0.100
525.700	45.400	0.100
525.800	29.936	0.100
525.900	35.126	0.100
526.000	30.539	0.100
526.100	25.442	0.100
526.200	39.990	0.100
526.300	44.117	0.100
526.400	24.973	0.100
526.500	32.133	0.100
526.600	44.960	0.100
526.700	44.228	0.100
526.800	39.592	0.100
526.900	37.930	0.100
527.000	33.098	0.100
527.100	38.143	0.100
527.200	38.886	0.100
527.300	45.936	0.100
527.400	55.069	0.100
527.500	45.825	0.100
527.600	30.309	0.100
527.700	42.451	0.100
527.800	37.130	0.100
527.900	29.472	0.100
528.000	32.880	0.100
528.100	32.813	0.100
528.200	34.259	0.100
528.300	41.261	0.100
528.400	52.685	0.100
528.500	39.732	0.100
528.600	37.177	0.100
528.700	38.604	0.100
528.800	33.418	0.100
528.900	41.304	0.100
529.000	29.473	0.100
529.100	41.201	0.100
529.200	45.882	0.100
529.300	52.895	0.100
529.400	33.725	0.100
529.500	24.655	0.100
529.600	41.362	0.100
529.700	52.493	0.100
529.800	44.249	0.100
529.900	46.298	0.100
530.000	34.350	0.100
530.100	32.835	0.100
530.200	44.415	0.100
530.300	30.103	0.100
530.400	40.096	0.100
530.500	42.621	0.100
530.600	35.004	0.100
530.700	38.145	0.100
530.800	41.985	0.100
530.900	37.677	0.100
531.000	40.349	0.100
531.100	43.457	0.100
531.200	38.695	0.100
531.300	52.134	0.100
531.400	37.617	0.100
531.500	32.350	0.100
531.600	37.923	0.100
531.700	53.948	0.100
531.800	45.868	0.100
531.900	38.802	0.100
532.000	38.645	0.100
532.100	33.601	0.100
532.200	45.964	0.100
532.300	36.821	0.100
532.400	40.159	0.100
532.500	40.783	0.100
532.600	29.476	0.100
532.700	41.624	0.100
532.800	36.914	0.100
532.900	37.848	0.100
533.000	34.646	0.100
533.100	41.124	0.100
533.200	39.858	0.100
533.300	36.840	0.100
533.400	33.052	0.100
533.500	40.170	0.100
533.600	47.667	0.100
533.700	42.211	0.100
533.800	47.574	0.100
533.900	32.144	0.100
534.000	38.080	0.100
534.100	39.831	0.100
534.200	42.670	0.100
534.300	39.021	0.100
534.400	37.106	0.100
534.500	33.642	0.100
534.600	41.101	0.100
534.700	38.016	0.100
534.800	36.738	0.100
534.900	45.250	0.100
535.000	52.016	0.100
535.100	50.245	0.100
535.200	43.117	0.100
535.300	40.045	0.100
535.400	34.267	0.100
535.500	32.383	0.100
535.600	31.811	0.100
535.700	45.506	0.100
535.800	42.277	0.100
535.900	35.522	0.100
536.000	37.437	0.100
536.100	31.325	0.100
536.200	36.102	0.100
536.300	40.101	0.100
536.400	39.346	0.100
536.500	32.161	0.100
536.600	35.748	0.100
536.700	30.064	0.100
536.800	36.975	0.100
536.900	40.531	0.100
537.000	39.345	0.100
537.100	40.723	0.100
537.200	22.397	0.100
537.300	44.121	0.100
537.400	42.700	0.100
537.500	46.124	0.100
537.600	36.891	0.100
537.700	28.768	0.100
537.800	41.089	0.100
537.900	40.097	0.100
538.000	39.325	0.100
538.100	38.542	0.100
538.200	31.640	0.100
538.300	45.201	0.100
538.400	49.049	0.100
538.500	36.239	0.100
538.600	40.487	0.100
538.700	35.534	0.100
538.800	26.394	0.100
538.900	36.440	0.100
539.000	43.635	0.100
539.100	28.653	0.100
539.200	35.107	0.100
539.300	24.971	0.100
539.400	40.355	0.100
539.500	40.999	0.100
539.600	44.485	0.100
539.700	38.642	0.100
539.800	43.373	0.100
539.900	39.357	0.100
540.000	48.266	0.100
540.100	23.293	0.100
540.200	39.740	0.100
540.300	30.856	0.100
540.400	30.727	0.100
540.500	32.158	0.100
540.600	27.567	0.100
540.700	29.939	0.100
540.800	25.978	0.100
540.900	26.096	0.100
541.000	20.933	0.100
541.100	34.771	0.100
541.200	11.546	0.100
541.300	21.734	0.100
541.400	21.847	0.100
541.500	20.089	0.100
541.600	14.713	0.100
541.700	17.431	0.100
541.800	1.622	0.100
541.900	19.256	0.100
542.000	11.991	0.100
542.100	0.376	0.100
542.200	7.233	0.100
542.300	13.821	0.100
542.400	0.007	0.100
542.500	4.266	0.100
542.600	8.036	0.100
542.700	10.805	0.100
542.800	14.240	0.100
542.900	-2.364	0.100
543.000	-10.677	0.100
543.100	-3.370	0.100
543.200	4.985	0.100
543.300	-2.900	0.100
543.400	10.993	0.100
543.500	-4.682	0.100
543.600	1.783	0.100
543.700	-1.187	0.100
543.800	-13.833	0.100
543.900	-7.989	0.100
544.000	-2.011	0.100
544.100	-6.003	0.100
544.200	-5.174	0.100
544.300	3.879	0.100
544.400	-1.465	0.100
544.500	-0.137	0.100
544.600	4.749	0.100
544.700	-7.056	0.100
544.800	-15.047	0.100
544.900	-25.760	0.100
545.000	-10.500	0.100
545.100	-4.060	0.100
545.200	-5.310	0.100
545.300	-4.616	0.100
545.400	-1.554	0.100
545.500	-6.325	0.100
545.600	0.699	0.100
545.700	-0.089	0.100
545.800	-3.169	0.100
545.900	-1.224	0.100
546.000	-6.407	0.100
546.100	-7.589	0.100
546.200	-7.550	0.100
546.300	-14.182	0.100
546.400	-6.206	0.100
546.500	-6.225	0.100
546.600	-3.569	0.100
546.700	-14.024	0.100
546.800	-1.870	0.100
546.900	-11.721	0.100
547.000	-7.836	0.100
547.100	8.139	0.100
547.200	-1.371	0.100
547.300	-3.955	0.100
547.400	-3.173	0.100
547.500	-8.201	0.100
547.600	-0.558	0.100
547.700	-7.147	0.100
547.800	-4.298	0.100
547.900	-7.378	0.100
548.000	-9.734	0.100
548.100	-5.665	0.100
548.200	-9.446	0.100
548.300	-11.763	0.100
548.400	-1.038	0.100
548.500	-8.914	0.100
548.600	-1.098	0.100
548.700	-14.792	0.100
548.800	-8.785	0.100
548.900	1.753	0.100
549.000	0.143	0.100
549.100	-7.630	0.100
549.200	-12.741	0.100
549.300	-9.979	0.100
549.400	-12.315	0.100
549.500	-14.124	0.100
549.600	-12.626	0.100
549.700	-9.719	0.100
549.800	-8.130	0.100
549.900	-0.448	0.100
550.000	-12.838	0.100
550.100	-5.855	0.100
550.200	1.106	0.100
550.300	13.682	0.100
550.400	-4.991	0.100
550.500	-8.228	0.100
550.600	-8.047	0.100
550.700	-4.489	0.100
550.800	-11.807	0.100
550.900	-14.208	0.100
551.000	-11.143	0.100
551.100	-2.918	0.100
551.200	-7.492	0.100
551.300	-8.221	0.100
551.400	-10.225	0.100
551.500	-3.448	0.100
551.600	-9.381	0.100
551.700	-1.476	0.100
551.800	-3.588	0.100
551.900	-19.966	0.100
552.000	-13.923	0.100
552.100	-5.519	0.100
552.200	-3.892	0.100
552.300	-19.658	0.100
552.400	-16.952	0.100
552.500	-4.881	0.100
552.600	-13.076	0.100
552.700	-11.116	0.100
552.800	-8.467	0.100
552.900	-12.206	0.100
553.000	-8.204	0.100
553.100	-1.313	0.101
553.200	-2.426	0.100
553.300	-3.845	0.100
553.400	-15.165	0.100
553.500	1.870	0.101
553.600	-13.344	0.100
553.700	-3.424	0.101
553.800	4.500	0.101
553.900	-19.535	0.101
554.000	-20.648	0.100
554.100	-12.425	0.100
554.200	-7.508	0.101
554.300	-8.718	0.101
554.400	-7.192	0.101
554.500	-16.045	0.101
554.600	-21.380	0.101
554.700	-15.721	0.101
554.800	-12.827	0.101
554.900	-8.301	0.101
555.000	-1.837	0.101
555.100	-10.432	0.101
555.200	-14.347	0.101
555.300	-15.568	0.101
555.400	-2.762	0.101
555.500	-11.114	0.101
555.600	-13.469	0.101
555.700	-11.047	0.101
555.800	-18.778	0.101
555.900	-19.467	0.101
556.000	-9.035	0.101
556.100	-4.841	0.101
556.200	-13.141	0.101
556.300	-12.179	0.101
556.400	-10.501	0.101
556.500	-21.128	0.101
556.600	-17.988	0.101
556.700	-22.077	0.101
556.800	-12.097	0.101
556.900	-10.375	0.101
557.000	-7.795	0.101
557.100	-14.558	0.101
557.200	-13.210	0.101
557.300	-11.699	0.101
557.400	-16.925	0.101
557.500	-22.924	0.101
557.600	-17.539	0.101
557.700	-16.315	0.101
557.800	-12.638	0.101
557.900	-13.477	0.101
558.000	-14.254	0.101
558.100	-21.064	0.101
558.200	-22.389	0.101
558.300	-3.652	0.101
558.400	-17.607	0.101
558.500	-25.877	0.101
558.600	-16.643	0.101
558.700	-21.184	0.101
558.800	-13.522	0.101
558.900	-10.548	0.101
559.000	-1.381	0.101
559.100	-7.483	0.101
559.200	-16.529	0.101
559.300	-11.463	0.101
559.400	-16.520	0.101
559.500	-22.340	0.101
559.600	-20.257	0.101
559.700	-18.428	0.101
559.800	-10.184	0.101
559.900	-19.443	0.101
560.000	-17.016	0.101
560.100	-19.758	0.101
560.200	-23.760	0.101
560.300	-8.682	0.101
560.400	-14.019	0.101
560.500	-5.211	0.101
560.600	-21.153	0.101
560.700	-15.203	0.101
560.800	-21.234	0.101
560.900	-23.970	0.101
561.000	-29.849	0.101
561.100	-15.489	0.101
561.200	-17.665	0.101
561.300	-6.611	0.101
561.400	-5.020	0.101
561.500	-18.730	0.101
561.600	-5.569	0.101
561.700	-13.834	0.101
561.800	-15.332	0.101
561.900	-10.937	0.101
562.000	-14.076	0.101
562.100	-13.807	0.101
562.200	-17.657	0.101
562.300	-22.144	0.101
562.400	-17.196	0.101
562.500	-11.621	0.101
562.600	-17.887	0.101
562.700	-19.567	0.101
562.800	-18.268	0.101
562.900	-20.994	0.101
563.000	-25.151	0.101
563.100	-24.023	0.101
563.200	-14.424	0.101
563.300	-14.041	0.101
563.400	-9.245	0.101
563.500	-25.666	0.101
563.600	-21.329	0.101
563.700	-18.108	0.101
563.800	-17.112	0.101
563.900	-9.318	0.101
564.000	-16.756	0.101
564.100	-25.198	0.101
564.200	-25.696	0.101
564.300	-14.315	0.101
564.400	-20.108	0.101
564.500	-15.340	0.101
564.600	-14.882	0.101
564.700	-27.063	0.101
564.800	-21.222	0.101
564.900	-20.191	0.101
565.000	-25.615	0.101
565.100	-19.725	0.101
565.200	-21.665	0.101
565.300	-22.867	0.101
565.400	-12.479	0.101
565.500	-32.915	0.101
565.600	-19.678	0.101
565.700	-16.470	0.101
565.800	-26.160	0.101
565.900	-14.391	0.101
566.000	-1.777	0.101
566.100	-11.159	0.101
566.200	-22.492	0.101
566.300	-24.517	0.101
566.400	-11.424	0.101
566.500	-25.583	0.101
566.600	-9.002	0.101
566.700	-22.236	0.101
566.800	-15.434	0.101
566.900	-19.727	0.101
567.000	-14.421	0.101
567.100	-18.390	0.101
567.200	-13.691	0.101
567.300	-19.353	0.101
567.400	-15.113	0.101
567.500	-32.842	0.101
567.600	-26.101	0.101
567.700	-23.879	0.101
567.800	-14.433	0.101
567.900	-19.932	0.101
568.000	-11.813	0.101
568.100	-9.902	0.101
568.200	-11.050	0.101
568.300	-22.572	0.101
568.400	-23.088	0.101
568.500	-28.187	0.101
568.600	-26.016	0.101
568.700	-19.549	0.101
568.800	-18.530	0.101
568.900	-20.545	0.101
569.000	-17.589	0.101
569.100	-25.578	0.101
569.200	-28.068	0.101
569.300	-35.240	0.101
569.400	-22.791	0.101
569.500	-23.925	0.101
569.600	-20.045	0.101
569.700	-14.469	0.101
569.800	-15.144	0.101
569.900	-12.085	0.101
570.000	-14.880	0.101
570.100	-21.228	0.101
570.200	-23.810	0.101
570.300	-15.740	0.101
570.400	-14.952	0.101
570.500	-35.490	0.101
570.600	-22.267	0.101
570.700	-23.061	0.101
570.800	-21.602	0.101
570.900	-12.333	0.101
571.000	-16.540	0.101
571.100	-18.597	0.101
571.200	-20.675	0.101
571.300	-26.718	0.101
571.400	-28.094	0.101
571.500	-21.898	0.101
571.600	-23.554	0.101
571.700	-21.789	0.101
571.800	-19.152	0.101
571.900	-14.425	0.101
572.000	-19.538	0.101
572.100	-32.309	0.101
572.200	-28.666	0.101
572.300	-19.396	0.101
572.400	-19.576	0.101
572.500	-23.193	0.101
572.600	-37.682	0.101
572.700	-25.596	0.101
572.800	-23.129	0.101
572.900	-26.139	0.101
573.000	-30.184	0.101
573.100	-30.371	0.101
573.200	-26.504	0.101
573.300	-19.591	0.101
573.400	-21.895	0.101
573.500	-23.023	0.101
573.600	-17.460	0.101
573.700	-24.014	0.101
573.800	-23.754	0.101
573.900	-19.338	0.101
574.000	-28.897	0.101
574.100	-19.565	0.101
574.200	-21.482	0.101
574.300	-20.160	0.101
574.400	-22.744	0.101
574.500	-32.826	0.101
574.600	-28.573	0.101
574.700	-23.458	0.101
574.800	-21.798	0.101
574.900	-28.477	0.101
575.000	-14.445	0.101
575.100	-26.177	0.101
575.200	-22.537	0.101
575.300	-17.518	0.101
575.400	-30.578	0.101
575.500	-32.018	0.101
575.600	-9.422	0.101
575.700	-14.468	0.101
575.800	-17.680	0.101
575.900	-31.305	0.101
576.000	-36.845	0.101
576.100	-23.640	0.101
576.200	-35.621	0.101
576.300	-27.449	0.101
576.400	-19.866	0.101
576.500	-20.441	0.101
576.600	-20.814	0.101
576.700	-29.930	0.101
576.800	-18.036	0.101
576.900	-15.456	0.101
577.000	-14.725	0.101
577.100	-23.148	0.101
577.200	-16.643	0.101
577.300	-25.241	0.101
577.400	-34.026	0.101
577.500	-30.722	0.101
577.600	-21.051	0.101
577.700	-20.983	0.101
577.800	-11.927	0.101
577.900	-18.937	0.101
578.000	-22.624	0.101
578.100	-27.996	0.101
578.200	-24.908	0.101
578.300	-29.128	0.101
578.400	-18.461	0.101
578.500	-28.863	0.101
578.600	-25.270	0.101
578.700	-27.378	0.101
578.800	-32.981	0.101
578.900	-35.937	0.101
579.000	-30.979	0.101
579.100	-19.399	0.101
579.200	-30.705	0.101
579.300	-23.796	0.101
579.400	-20.272	0.101
579.500	-21.471	0.101
579.600	-17.609	0.101
579.700	-14.961	0.101
579.800	-28.547	0.101
579.900	-19.600	0.101
580.000	-33.743	0.101
580.100	-24.981	0.101
580.200	-16.295	0.101
580.300	-18.724	0.101
580.400	-26.360	0.101
580.500	-28.535	0.101
580.600	-23.910	0.101
580.700	-13.266	0.101
580.800	-22.611	0.101
580.900	-35.880	0.101
581.000	-32.145	0.101
581.100	-24.979	0.101
581.200	-18.994	0.101
581.300	-22.908	0.101
581.400	-24.851	0.101
581.500	-21.279	0.101
581.600	-22.129	0.101
581.700	-24.575	0.101
581.800	-21.318	0.101
581.900	-32.090	0.101
582.000	-20.477	0.101
582.100	-16.335	0.101
582.200	-16.035	0.101
582.300	-27.920	0.101
582.400	-38.517	0.101
582.500	-17.000	0.101
582.600	-23.900	0.101
582.700	-31.633	0.101
582.800	-31.496	0.101
582.900	-22.307	0.101
583.000	-31.275	0.101
583.100	-35.276	0.101
583.200	-19.525	0.101
583.300	-26.224	0.101
583.400	-24.524	0.101
583.500	-24.217	0.101
583.600	-29.012	0.101
583.700	-27.755	0.101
583.800	-18.518	0.101
583.900	-19.711	0.101
584.000	-16.668	0.101
584.100	-13.486	0.101
584.200	-18.790	0.101
584.300	-34.427	0.101
584.400	-27.565	0.101
584.500	-24.801	0.101
584.600	-23.260	0.101
584.700	-18.237	0.101
584.800	-19.984	0.101
584.900	-21.320	0.101
585.000	-19.803	0.101
585.100	-30.480	0.101
585.200	-29.150	0.101
585.300	-29.769	0.101
585.400	-24.138	0.101
585.500	-25.917	0.101
585.600	-19.054	0.101
585.700	-14.275	0.101
585.800	-20.435	0.101
585.900	-26.077	0.101
586.000	-18.512	0.101
586.100	-20.741	0.101
586.200	-27.633	0.101
586.300	-20.767	0.101
586.400	-24.343	0.101
586.500	-35.188	0.101
586.600	-23.808	0.101
586.700	-21.506	0.101
586.800	-28.157	0.101
586.900	-27.702	0.101
587.000	-15.372	0.101
587.100	-15.961	0.101
587.200	-30.698	0.101
587.300	-23.064	0.101
587.400	-22.786	0.101
587.500	-22.120	0.101
587.600	-18.098	0.101
587.700	-21.556	0.101
587.800	-25.823	0.101
587.900	-29.797	0.101
588.000	-11.247	0.101
588.100	-20.074	0.101
588.200	-23.166	0.101
588.300	-21.635	0.101
588.400	-24.421	0.101
588.500	-25.261	0.101
588.600	-29.058	0.101
588.700	-39.042	0.101
588.800	-25.828	0.101
588.900	-16.169	0.101
589.000	-19.755	0.101
589.100	-22.020	0.101
589.200	-14.222	0.101
589.300	-24.813	0.101
589.400	-19.650	0.101
589.500	-15.304	0.101
589.600	-18.739	0.101
589.700	-31.554	0.101
589.800	-25.737	0.101
589.900	-23.388	0.101
590.000	-26.090	0.101
590.100	-23.910	0.101
590.200	-22.165	0.101
590.300	-28.468	0.101
590.400	-23.949	0.101
590.500	-23.972	0.101
590.600	-28.448	0.101
590.700	-28.121	0.101
590.800	-29.104	0.101
590.900	-15.839	0.101
591.000	-13.531	0.101
591.100	-17.431	0.101
591.200	-12.177	0.101
591.300	-20.449	0.101
591.400	-26.059	0.101
591.500	-25.325	0.101
591.600	-26.756	0.101
591.700	-28.244	0.101
591.800	-25.493	0.101
591.900	-15.152	0.101
592.000	-30.379	0.101
592.100	-23.134	0.101
592.200	-21.157	0.101
592.300	-24.618	0.101
592.400	-24.999	0.101
592.500	-24.186	0.101
592.600	-26.385	0.101
592.700	-21.701	0.101
592.800	-20.113	0.101
592.900	-21.152	0.101
593.000	-21.831	0.101
593.100	-20.138	0.101
593.200	-23.381	0.101
593.300	-28.925	0.101
593.400	-25.838	0.101
593.500	-18.457	0.101
593.600	-13.404	0.101
593.700	-19.525	0.101
593.800	-19.501	0.101
593.900	-11.059	0.101
594.000	-26.175	0.101
594.100	-31.720	0.101
594.200	-29.935	0.101
594.300	-27.650	0.101
594.400	-23.129	0.101
594.500	-18.278	0.101
594.600	-24.981	0.101
594.700	-18.129	0.101
594.800	-26.626	0.101
594.900	-21.885	0.101
595.000	-16.320	0.101
595.100	-18.608	0.101
595.200	-17.280	0.101
595.300	-25.822	0.101
595.400	-25.982	0.101
595.500	-16.543	0.101
595.600	-32.627	0.101
595.700	-28.072	0.101
595.800	-18.070	0.101
595.900	-24.876	0.101
596.000	-31.845	0.101
596.100	-16.729	0.101
596.200	-27.159	0.101
596.300	-10.670	0.101
596.400	-26.762	0.101
596.500	-27.460	0.101
596.600	-24.539	0.101
596.700	-24.836	0.101
596.800	-14.450	0.101
596.900	-23.941	0.101
597.000	-19.831	0.101
597.100	-30.430	0.101
597.200	-26.931	0.101
597.300	-18.791	0.101
597.400	-15.895	0.101
597.500	-18.074	0.101
597.600	-17.875	0.101
597.700	-20.155	0.101
597.800	-23.506	0.101
597.900	-17.226	0.101
598.000	-18.890	0.101
598.100	-18.093	0.101
598.200	-20.864	0.101
598.300	-14.258	0.101
598.400	-23.724	0.101
598.500	-22.103	0.101
598.600	-25.579	0.101
598.700	-27.339	0.101
598.800	-16.472	0.101
598.900	-14.983	0.101
599.000	-14.063	0.101
599.100	-28.808	0.101
599.200	-29.245	0.101
599.300	-18.969	0.101
599.400	-20.424	0.101
599.500	-22.233	0.101
599.600	-27.695	0.101
599.700	-25.862	0.101
599.800	-22.359	0.101
599.900	-23.104	0.101
600.000	-17.449	0.101
600.100	-13.107	0.101
600.200	-21.744	0.101
600.300	-22.276	0.101
600.400	-18.110	0.101
600.500	-10.050	0.101
600.600	-23.488	0.101
600.700	-21.383	0.101
600.800	-12.483	0.101
600.900	-24.436	0.101
601.000	-28.848	0.101
601.100	-29.188	0.101
601.200	-19.980	0.101
601.300	-27.422	0.101
601.400	-25.116	0.101
601.500	-3.050	0.101
601.600	-16.408	0.101
601.700	-25.809	0.101
601.800	-39.867	0.101
601.900	-21.349	0.101
602.000	-23.759	0.101
602.100	-21.606	0.101
602.200	-26.120	0.101
602.300	-32.266	0.101
602.400	-12.026	0.101
602.500	-15.989	0.101
602.600	-23.244	0.101
602.700	-31.529	0.101
602.800	-15.592	0.101
602.900	-18.547	0.101
603.000	-13.059	0.101
603.100	-25.188	0.101
603.200	-22.924	0.101
603.300	-23.255	0.101
603.400	-18.419	0.101
603.500	-20.053	0.101
603.600	-23.977	0.101
603.700	-23.028	0.101
603.800	-23.782	0.101
603.900	-31.117	0.101
604.000	-19.651	0.101
604.100	-22.623	0.101
604.200	-15.597	0.101
604.300	-18.980	0.101
604.400	-6.028	0.101
604.500	-19.262	0.101
604.600	-26.459	0.101
604.700	-20.426	0.101
604.800	-17.689	0.101
604.900	-16.566	0.101
605.000	-14.052	0.101
605.100	-25.128	0.101
605.200	-25.892	0.101
605.300	-23.916	0.101
605.400	-22.864	0.101
605.500	-24.548	0.101
605.600	-14.784	0.101
605.700	-21.718	0.101
605.800	-34.326	0.101
605.900	-29.010	0.101
606.000	-18.573	0.101
606.100	-13.416	0.101
606.200	-16.702	0.101
606.300	-19.515	0.101
606.400	-27.532	0.101
606.500	-26.083	0.101
606.600	-22.698	0.101
606.700	-26.182	0.101
606.800	-12.712	0.101
606.900	-11.721	0.101
607.000	-26.782	0.101
607.100	-24.441	0.101
607.200	-17.883	0.101
607.300	-12.099	0.101
607.400	-19.026	0.101
607.500	-21.614	0.101
607.600	-24.538	0.101
607.700	-24.404	0.101
607.800	-25.049	0.101
607.900	-15.564	0.101
608.000	-18.784	0.101
608.100	-26.023	0.101
608.200	-20.184	0.101
608.300	-21.137	0.101
608.400	-12.359	0.101
608.500	-26.608	0.101
608.600	-19.436	0.101
608.700	-14.839	0.101
608.800	-24.153	0.101
608.900	-17.227	0.101
609.000	-11.737	0.101
609.100	-14.225	0.101
609.200	-20.582	0.101
609.300	-23.693	0.101
609.400	-17.116	0.101
609.500	-25.438	0.101
609.600	-25.238	0.101
609.700	-11.064	0.101
609.800	-7.115	0.101
609.900	-21.667	0.101
610.000	-13.902	0.101
610.100	-25.752	0.101
610.200	-19.335	0.101
610.300	-24.376	0.101
610.400	-14.328	0.101
610.500	-14.779	0.101
610.600	-18.948	0.101
610.700	-30.937	0.101
610.800	-22.304	0.101
610.900	-27.622	0.101
611.000	-28.570	0.101
611.100	-13.593	0.101
611.200	-23.144	0.101
611.300	-13.057	0.101
611.400	-15.438	0.101
611.500	-25.673	0.101
611.600	-17.234	0.101
611.700	-20.692	0.101
611.800	-17.166	0.101
611.900	-22.850	0.101
612.000	-19.103	0.101
612.100	-13.583	0.101
612.200	-8.283	0.101
612.300	-21.455	0.101
612.400	-21.484	0.101
612.500	-16.738	0.101
612.600	-23.587	0.101
612.700	-22.425	0.101
612.800	-27.083	0.101
612.900	-21.618	0.101
613.000	-26.775	0.101
613.100	-13.778	0.101
613.200	-23.424	0.101
613.300	-17.800	0.101
613.400	-25.050	0.101
613.500	-25.517	0.101
613.600	-24.911	0.101
613.700	-8.755	0.101
613.800	-16.225	0.101
613.900	-17.408	0.101
614.000	-14.133	0.101
614.100	-17.169	0.101
614.200	-19.958	0.101
614.300	-17.292	0.101
614.400	-23.717	0.101
614.500	-30.602	0.101
614.600	-20.522	0.101
614.700	-18.533	0.101
614.800	-16.368	0.101
614.900	-31.991	0.101
615.000	-20.096	0.101
615.100	-16.088	0.101
615.200	-17.114	0.101
615.300	-18.830	0.101
615.400	-23.732	0.101
615.500	-21.562	0.101
615.600	-15.262	0.101
615.700	-14.541	0.101
615.800	-18.217	0.101
615.900	-25.396	0.101
616.000	-16.275	0.101
616.100	-18.456	0.101
616.200	-32.854	0.101
616.300	-21.352	0.101
616.400	-24.205	0.101
616.500	-16.862	0.101
616.600	-22.125	0.101
616.700	-8.146	0.101
616.800	-18.412	0.101
616.900	-28.217	0.101
617.000	-18.267	0.101
617.100	-15.991	0.101
617.200	-18.441	0.101
617.300	-13.444	0.101
617.400	-23.210	0.101
617.500	-6.538	0.101
617.600	-15.406	0.101
617.700	-18.897	0.101
617.800	-24.324	0.101
617.900	-21.657	0.101
618.000	-25.160	0.101
618.100	-9.155	0.101
618.200	-20.041	0.101
618.300	-12.480	0.101
618.400	-11.813	0.101
618.500	-19.131	0.101
618.600	-20.078	0.101
618.700	-22.614	0.101
618.800	-19.712	0.101
618.900	-20.334	0.101
619.000	-24.280	0.101
619.100	-34.200	0.101
619.200	-10.855	0.101
619.300	-12.939	0.101
619.400	-15.426	0.101
619.500	-20.409	0.101
619.600	-21.309	0.101
619.700	-22.313	0.101
619.800	-14.243	0.101
619.900	-24.082	0.101
620.000	-22.417	0.101
620.100	-23.638	0.101
620.200	-25.533	0.101
620.300	-24.298	0.101
620.400	-23.506	0.101
620.500	-18.454	0.101
620.600	-11.065	0.101
620.700	-17.558	0.101
620.800	-17.299	0.101
620.900	-17.094	0.101
621.000	-14.667	0.101
621.100	-21.501	0.101
621.200	-12.096	0.101
621.300	-14.376	0.101
621.400	-15.434	0.101
621.500	-18.130	0.101
621.600	-23.283	0.101
621.700	-14.766	0.101
621.800	-18.812	0.101
621.900	-21.046	0.101
622.000	-20.843	0.101
622.100	-24.875	0.101
622.200	-23.823	0.101
622.300	-24.125	0.101
622.400	-12.277	0.101
622.500	-15.356	0.101
622.600	-13.880	0.101
622.700	-17.297	0.101
622.800	-30.053	0.101
622.900	-15.865	0.101
623.000	-11.283	0.101
623.100	-19.912	0.101
623.200	-20.951	0.101
623.300	-29.338	0.101
623.400	-19.146	0.101
623.500	-15.247	0.101
623.600	-23.843	0.101
623.700	-14.804	0.101
623.800	-18.021	0.101
623.900	-24.180	0.101
624.000	-37.684	0.101
624.100	-19.044	0.101
624.200	-21.819	0.101
624.300	-20.551	0.101
624.400	-11.268	0.101
624.500	-15.326	0.101
624.600	-9.763	0.101
624.700	-7.256	0.101
624.800	-8.327	0.101
624.900	-9.349	0.101
625.000	-23.171	0.101
625.100	-19.540	0.101
625.200	-16.822	0.101
625.300	-23.794	0.101
625.400	-24.671	0.101
625.500	-18.462	0.101
625.600	-20.355	0.101
625.700	-17.677	0.101
625.800	-19.887	0.101
625.900	-7.244	0.101
626.000	-19.840	0.101
626.100	-9.305	0.101
626.200	-12.437	0.101
626.300	-28.459	0.101
626.400	-20.487	0.101
626.500	-23.169	0.101
626.600	-7.012	0.101
626.700	-22.058	0.101
626.800	-5.778	0.101
626.900	-13.393	0.101
627.000	-25.547	0.101
627.100	-11.673	0.101
627.200	-16.065	0.101
627.300	-13.102	0.101
627.400	-11.148	0.101
627.500	-17.067	0.101
627.600	-21.501	0.101
627.700	-19.164	0.101
627.800	-17.103	0.101
627.900	-27.091	0.101
628.000	-26.913	0.101
628.100	-19.001	0.101
628.200	-22.177	0.101
628.300	-22.125	0.101
628.400	-7.021	0.101
628.500	-7.489	0.101
628.600	-20.857	0.101
628.700	-21.898	0.101
628.800	-15.228	0.101
628.900	-21.910	0.101
629.000	-25.530	0.101
629.100	-22.130	0.101
629.200	-7.971	0.101
629.300	-7.943	0.101
629.400	-12.955	0.101
629.500	-16.345	0.101
629.600	-4.624	0.101
629.700	-8.822	0.101
629.800	-20.398	0.101
629.900	-14.130	0.101
630.000	-18.931	0.101
630.100	-14.989	0.101
630.200	-15.508	0.101
630.300	-18.659	0.101
630.400	-18.178	0.101
630.500	-21.053	0.101
630.600	-8.484	0.101
630.700	-8.135	0.101
630.800	-12.692	0.101
630.900	-5.681	0.101
631.000	2.863	0.101
631.100	-5.483	0.101
631.200	-2.878	0.101
631.300	-5.179	0.101
631.400	3.684	0.101
631.500	7.586	0.101
631.600	4.474	0.101
631.700	14.231	0.101
631.800	2.273	0.101
631.900	10.788	0.101
632.000	8.409	0.101
632.100	5.712	0.101
632.200	3.053	0.101
632.300	13.361	0.101
632.400	19.198	0.101
632.500	12.941	0.101
632.600	18.948	0.101
632.700	9.542	0.101
632.800	14.589	0.101
632.900	12.627	0.101
633.000	2.288	0.101
633.100	20.580	0.101
633.200	17.242	0.101
633.300	26.567	0.101
633.400	16.078	0.101
633.500	15.758	0.101
633.600	11.360	0.101
633.700	30.352	0.101
633.800	16.448	0.101
633.900	16.548	0.101
634.000	19.738	0.101
634.100	20.880	0.101
634.200	10.499	0.101
634.300	18.653	0.101
634.400	23.606	0.101
634.500	25.098	0.101
634.600	27.463	0.101
634.700	11.350	0.101
634.800	10.730	0.101
634.900	15.604	0.101
635.000	19.162	0.101
635.100	14.881	0.101
635.200	27.274	0.101
635.300	21.530	0.101
635.400	19.161	0.101
635.500	18.404	0.101
635.600	13.100	0.101
635.700	17.320	0.101
635.800	17.605	0.101
635.900	10.543	0.101
636.000	19.589	0.101
636.100	17.216	0.101
636.200	19.199	0.101
636.300	15.872	0.101
636.400	19.498	0.101
636.500	25.166	0.101
636.600	6.744	0.101
636.700	5.686	0.101
636.800	11.569	0.101
636.900	21.078	0.101
637.000	13.770	0.101
637.100	14.705	0.101
637.200	13.913	0.101
637.300	10.219	0.101
637.400	11.434	0.101
637.500	17.689	0.101
637.600	13.249	0.101
637.700	13.550	0.101
637.800	12.509	0.101
637.900	2.305	0.101
638.000	13.037	0.101
638.100	5.297	0.101
638.200	11.400	0.101
638.300	5.297	0.101
638.400	8.804	0.101
638.500	17.126	0.101
638.600	16.899	0.101
638.700	14.001	0.101
638.800	-1.417	0.101
638.900	3.415	0.101
639.000	11.779	0.101
639.100	15.721	0.101
639.200	23.078	0.101
639.300	8.086	0.101
639.400	20.984	0.101
639.500	13.320	0.101
639.600	1.615	0.101
639.700	18.831	0.101
639.800	24.010	0.101
639.900	14.318	0.101
640.000	3.566	0.101
640.100	0.072	0.101
640.200	14.112	0.101
640.300	12.063	0.101
640.400	14.995	0.101
640.500	12.391	0.101
640.600	11.115	0.101
640.700	-0.204	0.101
640.800	16.823	0.101
640.900	20.581	0.101
641.000	14.975	0.101
641.100	9.795	0.101
641.200	14.188	0.101
641.300	15.183	0.101
641.400	2.818	0.101
641.500	6.249	0.101
641.600	18.971	0.101
641.700	15.452	0.101
641.800	15.515	0.101
641.900	8.975	0.101
642.000	2.957	0.101
642.100	13.094	0.101
642.200	22.120	0.101
642.300	15.788	0.101
642.400	19.005	0.101
642.500	11.642	0.101
642.600	13.752	0.101
642.700	9.635	0.101
642.800	6.275	0.101
642.900	7.013	0.101
643.000	17.304	0.101
643.100	10.915	0.101
643.200	19.117	0.101
643.300	19.801	0.101
643.400	15.628	0.101
643.500	7.058	0.101
643.600	12.186	0.101
643.700	6.174	0.101
643.800	7.525	0.101
643.900	13.977	0.101
644.000	14.388	0.101
644.100	18.935	0.101
644.200	26.385	0.101
644.300	5.526	0.101
644.400	3.854	0.101
644.500	11.153	0.101
644.600	20.629	0.101
644.700	19.054	0.101
644.800	7.566	0.101
644.900	17.691	0.101
645.000	13.493	0.101
645.100	7.478	0.101
645.200	17.741	0.101
645.300	29.528	0.101
645.400	18.705	0.101
645.500	11.542	0.101
645.600	9.720	0.101
645.700	14.299	0.101
645.800	12.612	0.101
645.900	23.049	0.101
646.000	15.684	0.101
646.100	11.284	0.101
646.200	22.910	0.101
646.300	19.464	0.101
646.400	17.343	0.101
646.500	28.415	0.101
646.600	10.369	0.101
646.700	14.822	0.101
646.800	17.498	0.101
646.900	21.959	0.101
647.000	10.799	0.101
647.100	12.192	0.101
647.200	15.979	0.101
647.300	19.351	0.101
647.400	14.912	0.101
647.500	18.054	0.101
647.600	13.039	0.101
647.700	4.182	0.101
647.800	11.919	0.101
647.900	24.515	0.101
648.000	20.614	0.101
648.100	21.486	0.101
648.200	22.053	0.101
648.300	14.269	0.101
648.400	27.610	0.101
648.500	24.121	0.101
648.600	20.457	0.101
648.700	6.938	0.101
648.800	13.272	0.101
648.900	24.196	0.101
649.000	12.938	0.101
649.100	27.400	0.101
649.200	23.831	0.101
649.300	21.640	0.101
649.400	15.113	0.101
649.500	20.207	0.101
649.600	12.679	0.101
649.700	16.503	0.101
649.800	22.484	0.101
649.900	27.113	0.101
650.000	27.412	0.101
650.100	22.217	0.101
650.200	13.826	0.101
650.300	27.667	0.101
650.400	27.759	0.101
650.500	22.704	0.101
650.600	15.967	0.101
650.700	22.603	0.101
650.800	20.661	0.101
650.900	29.413	0.101
651.000	21.096	0.101
651.100	18.063	0.101
651.200	21.579	0.101
651.300	23.772	0.101
651.400	34.016	0.101
651.500	16.245	0.101
651.600	20.612	0.101
651.700	26.304	0.101
651.800	16.559	0.101
651.900	26.160	0.101
652.000	27.924	0.101
652.100	28.266	0.101
652.200	18.774	0.101
652.300	17.066	0.101
652.400	13.944	0.101
652.500	21.951	0.101
652.600	22.649	0.101
652.700	18.381	0.101
652.800	37.253	0.101
652.900	34.323	0.101
653.000	20.532	0.101
653.100	32.805	0.101
653.200	30.128	0.101
653.300	22.693	0.101
653.400	29.974	0.101
653.500	28.200	0.101
653.600	15.320	0.101
653.700	8.486	0.101
653.800	22.632	0.101
653.900	34.926	0.101
654.000	31.267	0.101
654.100	37.669	0.101
654.200	32.014	0.101
654.300	31.999	0.101
654.400	35.914	0.101
654.500	38.011	0.101
654.600	20.553	0.101
654.700	27.302	0.101
654.800	28.443	0.101
654.900	28.829	0.101
655.000	28.101	0.101
655.100	30.412	0.101
655.200	25.583	0.101
655.300	26.437	0.101
655.400	23.725	0.101
655.500	29.017	0.101
655.600	26.360	0.101
655.700	38.225	0.101
655.800	41.540	0.101
655.900	24.993	0.101
656.000	26.348	0.101
656.100	24.346	0.101
656.200	16.441	0.101
656.300	38.086	0.101
656.400	34.528	0.101
656.500	25.681	0.101
656.600	25.038	0.101
656.700	29.888	0.101
656.800	28.525	0.101
656.900	26.352	0.101
657.000	30.115	0.101
657.100	33.900	0.101
657.200	33.105	0.101
657.300	30.931	0.101
657.400	40.878	0.101
657.500	33.010	0.101
657.600	33.277	0.101
657.700	34.707	0.101
657.800	34.786	0.101
657.900	36.948	0.101
658.000	37.734	0.101
658.100	42.160	0.101
658.200	34.080	0.101
658.300	35.729	0.101
658.400	38.096	0.101
658.500	34.472	0.101
658.600	26.541	0.101
658.700	28.305	0.101
658.800	22.063	0.101
658.900	32.233	0.101
659.000	40.847	0.101
659.100	42.747	0.101
659.200	33.967	0.101
659.300	40.582	0.101
659.400	47.682	0.101
659.500	38.255	0.101
659.600	37.784	0.101
659.700	39.427	0.101
659.800	26.514	0.101
659.900	36.690	0.101
660.000	28.297	0.101
660.100	38.595	0.101
660.200	36.798	0.101
660.300	24.403	0.101
660.400	34.193	0.101
660.500	40.652	0.101
660.600	32.566	0.101
660.700	39.015	0.101
660.800	35.523	0.101
660.900	30.700	0.101
661.000	42.153	0.101
661.100	32.505	0.101
661.200	39.105	0.101
661.300	41.578	0.101
661.400	36.213	0.101
661.500	37.001	0.101
661.600	26.249	0.101
661.700	34.614	0.101
661.800	39.215	0.101
661.900	24.216	0.101
662.000	40.809	0.101
662.100	47.155	0.101
662.200	38.246	0.101
662.300	43.162	0.101
662.400	29.737	0.101
662.500	36.726	0.101
662.600	38.500	0.101
662.700	33.807	0.101
662.800	44.410	0.101
662.900	41.875	0.101
663.000	47.160	0.101
663.100	35.155	0.101
663.200	43.099	0.101
663.300	48.560	0.101
663.400	42.142	0.101
663.500	39.674	0.101
663.600	39.278	0.101
663.700	42.673	0.101
663.800	43.457	0.101
663.900	32.983	0.101
664.000	27.305	0.101
664.100	26.043	0.101
664.200	34.115	0.101
664.300	39.289	0.101
664.400	44.981	0.101
664.500	40.048	0.101
664.600	32.003	0.101
664.700	46.823	0.101
664.800	40.685	0.101
664.900	47.367	0.101
665.000	30.831	0.101
665.100	34.510	0.101
665.200	26.223	0.101
665.300	28.782	0.101
665.400	54.021	0.101
665.500	36.639	0.101
665.600	38.219	0.101
665.700	41.511	0.101
665.800	49.411	0.101
665.900	43.450	0.101
666.000	45.817	0.101
666.100	36.726	0.101
666.200	31.490	0.101
666.300	33.656	0.101
666.400	34.868	0.101
666.500	30.613	0.101
666.600	28.931	0.101
666.700	34.321	0.101
666.800	41.837	0.101
666.900	36.755	0.101
667.000	34.149	0.101
667.100	26.938	0.101
667.200	42.412	0.101
667.300	50.625	0.101
667.400	43.722	0.101
667.500	36.579	0.101
667.600	45.469	0.101
667.700	39.059	0.101
667.800	43.702	0.101
667.900	36.897	0.101
668.000	18.780	0.101
668.100	36.554	0.101
668.200	42.601	0.101
668.300	42.384	0.101
668.400	43.652	0.101
668.500	41.310	0.101
668.600	38.154	0.101
668.700	36.361	0.101
668.800	34.586	0.101
668.900	37.973	0.101
669.000	42.523	0.101
669.100	36.990	0.101
669.200	41.074	0.101
669.300	37.406	0.101
669.400	35.556	0.101
669.500	44.571	0.101
669.600	40.419	0.101
669.700	37.463	0.101
669.800	45.216	0.101
669.900	33.148	0.101
670.000	41.833	0.101
670.100	43.504	0.101
670.200	48.168	0.101
670.300	39.852	0.101
670.400	35.118	0.101
670.500	48.233	0.101
670.600	36.124	0.101
670.700	34.484	0.101
670.800	41.306	0.101
670.900	36.195	0.101
671.000	39.107	0.101
671.100	34.223	0.101
671.200	42.805	0.101
671.300	40.455	0.101
671.400	30.111	0.101
671.500	36.747	0.101
671.600	45.751	0.101
671.700	41.567	0.101
671.800	37.549	0.101
671.900	38.476	0.101
672.000	42.143	0.101
672.100	34.924	0.101
672.200	40.152	0.101
672.300	33.177	0.101
672.400	41.767	0.101
672.500	42.607	0.101
672.600	42.001	0.101
672.700	34.716	0.101
672.800	43.089	0.101
672.900	40.000	0.101
673.000	32.303	0.101
673.100	38.002	0.101
673.200	31.079	0.101
673.300	41.925	0.101
673.400	54.837	0.101
673.500	58.465	0.101
673.600	42.065	0.101
673.700	34.407	0.101
673.800	36.271	0.101
673.900	37.162	0.101
674.000	36.455	0.101
674.100	40.047	0.101
674.200	38.537	0.101
674.300	35.874	0.101
674.400	44.776	0.101
674.500	38.058	0.101
674.600	46.701	0.101
674.700	37.853	0.101
674.800	31.851	0.101
674.900	29.780	0.101
675.000	44.731	0.101
675.100	46.802	0.101
675.200	35.404	0.101
675.300	32.147	0.101
675.400	28.523	0.101
675.500	33.284	0.101
675.600	39.833	0.101
675.700	34.371	0.101
675.800	41.587	0.101
675.900	42.806	0.101
676.000	43.540	0.101
676.100	47.878	0.101
676.200	56.431	0.101
676.300	37.303	0.101
676.400	36.624	0.101
676.500	40.252	0.101
676.600	37.394	0.101
676.700	35.515	0.101
676.800	33.782	0.101
676.900	46.359	0.101
677.000	40.804	0.101
677.100	47.620	0.101
677.200	38.728	0.101
677.300	30.091	0.101
677.400	41.554	0.101
677.500	37.740	0.101
677.600	38.420	0.101
677.700	40.110	0.101
677.800	43.143	0.101
677.900	42.618	0.101
678.000	31.941	0.101
678.100	39.315	0.101
678.200	44.339	0.101
678.300	33.610	0.101
678.400	38.261	0.101
678.500	33.592	0.101
678.600	42.322	0.101
678.700	30.735	0.101
678.800	30.955	0.101
678.900	36.590	0.101
679.000	35.474	0.101
679.100	41.365	0.101
679.200	45.617	0.101
679.300	40.862	0.101
679.400	32.256	0.101
679.500	40.568	0.101
679.600	47.838	0.101
679.700	38.677	0.101
679.800	34.439	0.101
679.900	33.694	0.101
680.000	37.111	0.101
680.100	32.634	0.101
680.200	40.066	0.101
680.300	37.610	0.101
680.400	39.792	0.101
680.500	44.405	0.101
680.600	42.732	0.101
680.700	39.962	0.101
680.800	37.497	0.101
680.900	32.497	0.101
681.000	40.372	0.101
681.100	53.318	0.101
681.200	38.643	0.101
681.300	37.347	0.101
681.400	32.694	0.101
681.500	41.757	0.101
681.600	48.646	0.101
681.700	45.511	0.101
681.800	42.671	0.101
681.900	50.182	0.101
682.000	39.578	0.101
682.100	42.635	0.101
682.200	30.711	0.101
682.300	40.064	0.101
682.400	37.452	0.101
682.500	38.559	0.101
682.600	41.998	0.101
682.700	39.245	0.101
682.800	37.456	0.101
682.900	36.904	0.101
683.000	40.458	0.101
683.100	37.525	0.101
683.200	47.806	0.101
683.300	36.509	0.101
683.400	35.344	0.101
683.500	28.427	0.101
683.600	36.581	0.101
683.700	39.889	0.101
683.800	36.430	0.101
683.900	41.690	0.101
684.000	44.984	0.101
684.100	33.882	0.101
684.200	37.580	0.101
684.300	43.338	0.101
684.400	46.663	0.101
684.500	42.313	0.101
684.600	36.399	0.101
684.700	37.058	0.101
684.800	47.203	0.101
684.900	23.861	0.101
685.000	38.225	0.101
685.100	38.110	0.101
685.200	41.802	0.101
685.300	55.600	0.101
685.400	31.962	0.101
685.500	34.399	0.101
685.600	41.271	0.101
685.700	43.358	0.101
685.800	35.801	0.101
685.900	55.050	0.101
686.000	33.006	0.101
686.100	37.613	0.101
686.200	26.418	0.101
686.300	39.568	0.101
686.400	39.451	0.101
686.500	32.409	0.101
686.600	44.698	0.101
686.700	43.696	0.101
686.800	47.858	0.101
686.900	38.548	0.101
687.000	31.887	0.101
687.100	35.203	0.101
687.200	38.990	0.101
687.300	48.575	0.101
687.400	37.780	0.101
687.500	37.781	0.101
687.600	38.282	0.101
687.700	29.124	0.101
687.800	46.208	0.101
687.900	42.746	0.101
688.000	43.897	0.101
688.100	41.823	0.101
688.200	38.378	0.101
688.300	37.638	0.101
688.400	40.663	0.101
688.500	40.356	0.101
688.600	42.624	0.101
688.700	45.100	0.101
688.800	33.126	0.101
688.900	38.022	0.101
689.000	34.059	0.101
689.100	40.921	0.101
689.200	31.832	0.101
689.300	34.589	0.101
689.400	39.925	0.101
689.500	47.233	0.101
689.600	36.576	0.101
689.700	34.029	0.101
689.800	41.040	0.101
689.900	34.440	0.101
690.000	19.999	0.101
690.100	35.477	0.101
690.200	32.317	0.101
690.300	41.562	0.101
690.400	42.843	0.101
690.500	34.544	0.101
690.600	38.484	0.101
690.700	33.993	0.101
690.800	36.830	0.101
690.900	29.243	0.101
691.000	22.367	0.101
691.100	24.701	0.101
691.200	17.966	0.101
691.300	10.401	0.101
691.400	10.249	0.101
691.500	17.111	0.101
691.600	18.527	0.101
691.700	13.524	0.101
691.800	11.713	0.101
691.900	19.713	0.101
692.000	14.651	0.101
692.100	2.580	0.101
692.200	13.422	0.101
692.300	9.247	0.101
692.400	-0.559	0.101
692.500	7.456	0.101
692.600	3.824	0.101
692.700	-0.107	0.101
692.800	7.086	0.101
692.900	0.674	0.101
693.000	-10.991	0.101
693.100	-5.184	0.101
693.200	1.241	0.101
693.300	9.060	0.101
693.400	-5.780	0.101
693.500	4.535	0.101
693.600	-0.939	0.101
693.700	7.694	0.101
693.800	9.656	0.101
693.900	2.389	0.101
694.000	-2.427	0.101
694.100	-4.579	0.101
694.200	-10.916	0.101
694.300	-9.928	0.101
694.400	-2.058	0.101
694.500	-12.406	0.101
694.600	-7.937	0.101
694.700	-7.585	0.101
694.800	-9.597	0.101
694.900	-3.224	0.101
695.000	-10.776	0.101
695.100	-20.064	0.101
695.200	-2.920	0.101
695.300	-17.596	0.101
695.400	-7.633	0.101
695.500	-0.953	0.101
695.600	-8.441	0.101
695.700	-11.589	0.101
695.800	-9.477	0.101
695.900	-6.929	0.101
696.000	-13.322	0.101
696.100	-1.158	0.101
696.200	-6.437	0.101
696.300	2.059	0.101
696.400	-3.244	0.101
696.500	-2.151	0.101
696.600	-5.324	0.101
696.700	-10.998	0.101
696.800	-5.423	0.101
696.900	1.944	0.101
697.000	0.945	0.101
697.100	-3.772	0.101
697.200	-2.223	0.101
697.300	-3.868	0.101
697.400	-8.340	0.101
697.500	-4.622	0.101
697.600	2.438	0.101
697.700	-11.751	0.101
697.800	-0.087	0.101
697.900	-14.756	0.101
698.000	-4.549	0.101
698.100	-2.881	0.101
698.200	-6.968	0.101
698.300	-20.651	0.101
698.400	-11.560	0.101
698.500	1.693	0.101
698.600	-9.229	0.101
698.700	-19.436	0.101
698.800	-23.945	0.101
698.900	-6.945	0.101
699.000	-13.000	0.101
699.100	-0.446	0.101
699.200	-11.102	0.101
699.300	-2.028	0.101
699.400	-12.255	0.101
699.500	-2.893	0.101
699.600	-3.957	0.101
699.700	-5.419	0.101
699.800	-2.168	0.101
699.900	-9.881	0.101
700.000	-12.294	0.101
700.100	-13.285	0.101
700.200	-9.088	0.101
700.300	-2.734	0.101
700.400	-20.180	0.101
700.500	-8.914	0.101
700.600	-5.256	0.101
700.700	-7.116	0.101
700.800	-11.290	0.101
700.900	-5.167	0.101
701.000	-10.130	0.101
701.100	-6.023	0.101
701.200	-6.815	0.101
701.300	-12.449	0.101
701.400	-15.432	0.101
701.500	-20.959	0.101
701.600	-2.813	0.101
701.700	-7.220	0.101
701.800	-7.730	0.101
701.900	-9.041	0.101
702.000	-12.726	0.101
702.100	-10.822	0.101
702.200	-7.415	0.101
702.300	-12.007	0.101
702.400	-0.168	0.101
702.500	-7.115	0.101
702.600	-6.895	0.101
702.700	-8.240	0.101
702.800	-15.645	0.101
702.900	-24.821	0.101
703.000	-4.591	0.101
703.100	-7.427	0.101
703.200	-7.125	0.101
703.300	-8.506	0.101
703.400	-15.377	0.101
703.500	-17.060	0.101
703.600	-14.739	0.101
703.700	-20.661	0.101
703.800	-8.208	0.101
703.900	-18.683	0.101
704.000	-18.727	0.101
704.100	-8.347	0.101
704.200	0.414	0.101
704.300	-17.380	0.101
704.400	-13.627	0.101
704.500	-20.671	0.101
704.600	-13.381	0.101
704.700	-12.132	0.101
704.800	-10.967	0.101
704.900	-14.567	0.101
705.000	-15.392	0.101
705.100	-4.022	0.101
705.200	-10.964	0.101
705.300	-13.564	0.101
705.400	-7.083	0.101
705.500	-10.336	0.101
705.600	-9.040	0.101
705.700	-14.578	0.101
705.800	-13.317	0.101
705.900	-4.160	0.101
706.000	-11.403	0.101
706.100	-8.043	0.101
706.200	-16.038	0.101
706.300	-19.085	0.101
706.400	-21.376	0.101
706.500	-14.502	0.101
706.600	-17.539	0.101
706.700	-15.700	0.101
706.800	-15.031	0.101
706.900	-7.497	0.101
707.000	-17.588	0.101
707.100	-13.745	0.101
707.200	-10.642	0.101
707.300	-9.155	0.101
707.400	-5.620	0.101
707.500	-17.969	0.101
707.600	-12.603	0.101
707.700	-16.730	0.101
707.800	-30.777	0.101
707.900	-14.416	0.101
708.000	-6.883	0.101
708.100	-7.226	0.101
708.200	-11.751	0.101
708.300	-11.836	0.101
708.400	-15.549	0.101
708.500	-14.426	0.101
708.600	-21.805	0.101
708.700	-23.477	0.101
708.800	-8.711	0.101
708.900	-21.199	0.101
709.000	-23.607	0.101
709.100	-9.629	0.101
709.200	-13.972	0.101
709.300	-7.270	0.101
709.400	-16.034	0.101
709.500	-18.815	0.101
709.600	-27.160	0.101
709.700	-22.496	0.101
709.800	-16.845	0.101
709.900	-13.324	0.101
710.000	-7.334	0.101
710.100	-10.541	0.101
710.200	-10.104	0.101
710.300	-17.587	0.101
710.400	-16.670	0.101
710.500	-21.892	0.101
710.600	-25.745	0.101
710.700	-13.120	0.101
710.800	-14.168	0.101
710.900	-27.604	0.101
711.000	-16.828	0.101
711.100	-18.241	0.101
711.200	-14.174	0.101
711.300	-22.227	0.101
711.400	-14.755	0.101
711.500	-6.705	0.101
711.600	-25.857	0.101
711.700	-23.314	0.101
711.800	-23.663	0.101
711.900	-28.984	0.101
712.000	-20.326	0.101
712.100	-13.899	0.101
712.200	-22.368	0.101
712.300	-25.860	0.101
712.400	-21.983	0.101
712.500	-21.279	0.101
712.600	-10.275	0.101
712.700	-24.732	0.101
712.800	-14.709	0.101
712.900	-18.128	0.101
713.000	-28.248	0.101
713.100	-23.913	0.101
713.200	-17.998	0.101
713.300	-12.275	0.101
713.400	-19.245	0.101
713.500	-23.979	0.101
713.600	-24.208	0.101
713.700	-17.305	0.101
713.800	-11.001	0.101
713.900	-21.710	0.101
714.000	-13.969	0.101
714.100	-22.281	0.101
714.200	-15.950	0.101
714.300	-22.970	0.101
714.400	-11.592	0.101
714.500	-23.130	0.101
714.600	-19.620	0.101
714.700	-25.900	0.101
714.800	-22.920	0.101
714.900	-23.038	0.101
715.000	-16.894	0.101
715.100	-23.521	0.101
715.200	-23.682	0.101
715.300	-8.464	0.101
715.400	-18.312	0.101
715.500	-27.255	0.101
715.600	-19.198	0.101
715.700	-16.757	0.101
715.800	-24.593	0.101
715.900	-15.155	0.101
716.000	-21.890	0.101
716.100	-18.135	0.101
716.200	-15.169	0.101
716.300	-23.316	0.101
716.400	-18.601	0.101
716.500	-17.758	0.101
716.600	-17.986	0.101
716.700	-23.596	0.101
716.800	-13.963	0.101
716.900	-22.354	0.101
717.000	-29.961	0.101
717.100	-29.452	0.101
717.200	-31.379	0.101
717.300	-12.182	0.101
717.400	-17.833	0.101
717.500	-23.085	0.101
717.600	-26.309	0.101
717.700	-15.598	0.101
717.800	-27.051	0.101
717.900	-26.787	0.101
718.000	-24.704	0.101
718.100	-11.931	0.101
718.200	-21.280	0.101
718.300	-27.099	0.101
718.400	-30.987	0.101
718.500	-25.083	0.101
718.600	-43.793	0.101
718.700	-26.884	0.101
718.800	-17.898	0.101
718.900	-16.736	0.101
719.000	-20.385	0.101
719.100	-9.801	0.101
719.200	-27.290	0.101
719.300	-27.102	0.101
719.400	-26.499	0.101
719.500	-21.642	0.101
719.600	-21.348	0.101
719.700	-24.812	0.101
719.800	-21.181	0.101
719.900	-18.329	0.101
720.000	-16.514	0.101
720.100	-25.056	0.101
720.200	-10.334	0.101
720.300	-18.895	0.101
720.400	-19.249	0.101
720.500	-34.978	0.101
720.600	-22.109	0.101
720.700	-21.033	0.101
720.800	-22.663	0.101
720.900	-20.558	0.101
721.000	-31.901	0.101
721.100	-29.812	0.101
721.200	-26.903	0.101
721.300	-18.178	0.101
721.400	-26.468	0.101
721.500	-25.060	0.101
721.600	-23.328	0.101
721.700	-24.477	0.101
721.800	-14.118	0.101
721.900	-21.996	0.101
722.000	-26.638	0.101
722.100	-30.751	0.101
722.200	-27.055	0.101
722.300	-23.793	0.101
722.400	-19.835	0.101
722.500	-20.384	0.101
722.600	-31.919	0.101
722.700	-25.108	0.101
722.800	-30.367	0.101
722.900	-29.312	0.101
723.000	-25.597	0.101
723.100	-31.515	0.101
723.200	-20.910	0.101
723.300	-21.080	0.101
723.400	-20.017	0.101
723.500	-32.052	0.101
723.600	-13.945	0.101
723.700	-31.057	0.101
723.800	-25.987	0.101
723.900	-22.703	0.101
724.000	-31.158	0.101
724.100	-30.058	0.101
724.200	-28.710	0.101
724.300	-20.116	0.101
724.400	-15.603	0.101
724.500	-19.999	0.101
724.600	-14.433	0.101
724.700	-16.133	0.101
724.800	-22.280	0.101
724.900	-24.631	0.101
725.000	-24.150	0.101
725.100	-30.044	0.101
725.200	-30.384	0.101
725.300	-27.508	0.101
725.400	-20.083	0.101
725.500	-20.459	0.101
725.600	-16.437	0.101
725.700	-29.667	0.101
725.800	-21.985	0.101
725.900	-16.020	0.101
726.000	-22.766	0.101
726.100	-24.345	0.101
726.200	-35.797	0.101
726.300	-20.781	0.101
726.400	-17.376	0.101
726.500	-22.971	0.101
726.600	-23.067	0.101
726.700	-20.765	0.101
726.800	-13.014	0.101
726.900	-19.281	0.101
727.000	-25.957	0.101
727.100	-14.446	0.101
727.200	-26.146	0.101
727.300	-29.043	0.101
727.400	-20.000	0.101
727.500	-23.344	0.101
727.600	-29.041	0.101
727.700	-31.311	0.101
727.800	-25.189	0.101
727.900	-18.721	0.101
728.000	-16.035	0.101
728.100	-16.143	0.101
728.200	-24.021	0.101
728.300	-22.204	0.101
728.400	-25.785	0.101
728.500	-23.261	0.101
728.600	-23.021	0.101
728.700	-31.699	0.101
728.800	-31.238	0.101
728.900	-20.111	0.101
729.000	-21.893	0.101
729.100	-26.508	0.101
729.200	-25.160	0.101
729.300	-21.019	0.101
729.400	-30.100	0.101
729.500	-27.626	0.101
729.600	-20.517	0.101
729.700	-30.820	0.101
729.800	-21.845	0.101
729.900	-22.585	0.101
730.000	-19.890	0.101
730.100	-23.336	0.101
730.200	-26.645	0.101
730.300	-37.286	0.101
730.400	-27.475	0.101
730.500	-29.209	0.101
730.600	-13.852	0.101
730.700	-17.772	0.101
730.800	-26.300	0.101
730.900	-18.873	0.101
731.000	-36.219	0.101
731.100	-37.525	0.101
731.200	-25.689	0.101
731.300	-30.599	0.101
731.400	-19.725	0.101
731.500	-22.060	0.101
731.600	-24.500	0.101
731.700	-18.442	0.101
731.800	-20.454	0.101
731.900	-30.366	0.101
732.000	-35.819	0.101
732.100	-17.911	0.101
732.200	-21.332	0.101
732.300	-18.879	0.101
732.400	-26.359	0.101
732.500	-23.946	0.101
732.600	-36.201	0.101
732.700	-18.701	0.101
732.800	-22.521	0.101
732.900	-14.312	0.101
733.000	-19.590	0.101
733.100	-20.571	0.101
733.200	-25.425	0.101
733.300	-24.574	0.101
733.400	-22.534	0.101
733.500	-30.537	0.101
733.600	-28.191	0.101
733.700	-28.993	0.101
733.800	-23.527	0.101
733.900	-25.227	0.101
734.000	-20.709	0.101
734.100	-17.326	0.101
734.200	-21.373	0.101
734.300	-32.099	0.101
734.400	-26.398	0.101
734.500	-26.804	0.101
734.600	-22.698	0.101
734.700	-22.143	0.101
734.800	-25.895	0.101
734.900	-28.351	0.101
735.000	-36.210	0.101
735.100	-31.138	0.101
735.200	-21.412	0.101
735.300	-17.166	0.101
735.400	-16.273	0.101
735.500	-26.345	0.101
735.600	-18.043	0.101
735.700	-28.262	0.101
735.800	-30.562	0.101
735.900	-30.255	0.101
736.000	-16.162	0.101
736.100	-23.716	0.101
736.200	-30.361	0.101
736.300	-27.554	0.101
736.400	-27.980	0.101
736.500	-25.643	0.101
736.600	-16.665	0.101
736.700	-8.535	0.101
736.800	-23.242	0.101
736.900	-28.332	0.101
737.000	-29.546	0.101
737.100	-24.136	0.101
737.200	-32.059	0.101
737.300	-28.214	0.101
737.400	-28.433	0.101
737.500	-18.022	0.101
737.600	-28.467	0.101
737.700	-32.580	0.101
737.800	-29.521	0.101
737.900	-27.438	0.101
738.000	-18.183	0.101
738.100	-6.972	0.101
738.200	-24.400	0.101
738.300	-30.325	0.101
738.400	-37.548	0.101
738.500	-20.676	0.101
738.600	-17.092	0.101
738.700	-24.152	0.101
738.800	-18.333	0.101
738.900	-34.484	0.101
739.000	-23.892	0.101
739.100	-18.960	0.101
739.200	-25.611	0.101
739.300	-25.447	0.101
739.400	-23.024	0.101
739.500	-41.236	0.101
739.600	-29.494	0.101
739.700	-15.080	0.101
739.800	-18.090	0.101
739.900	-21.641	0.101
740.000	-32.740	0.101
740.100	-28.694	0.101
740.200	-28.020	0.101
740.300	-22.067	0.101
740.400	-15.810	0.101
740.500	-25.275	0.101
740.600	-30.250	0.101
740.700	-26.043	0.101
740.800	-20.802	0.101
740.900	-19.937	0.101
741.000	-16.397	0.101
741.100	-18.931	0.101
741.200	-30.330	0.101
741.300	-16.299	0.101
741.400	-17.423	0.101
741.500	-37.209	0.101
741.600	-28.658	0.101
741.700	-28.751	0.101
741.800	-23.751	0.101
741.900	-18.564	0.101
742.000	-28.744	0.101
742.100	-21.156	0.101
742.200	-21.093	0.101
742.300	-25.770	0.101
742.400	-12.827	0.101
742.500	-23.714	0.101
742.600	-13.813	0.101
742.700	-23.709	0.101
742.800	-20.505	0.101
742.900	-15.656	0.101
743.000	-31.991	0.101
743.100	-18.667	0.101
743.200	-27.475	0.101
743.300	-29.107	0.101
743.400	-24.908	0.101
743.500	-22.913	0.101
743.600	-15.937	0.101
743.700	-21.395	0.101
743.800	-22.320	0.101
743.900	-14.577	0.101
744.000	-28.496	0.101
744.100	-22.714	0.101
744.200	-22.824	0.101
744.300	-32.866	0.101
744.400	-26.584	0.101
744.500	-42.567	0.101
744.600	-26.208	0.101
744.700	-26.163	0.101
744.800	-26.405	0.101
744.900	-33.264	0.101
745.000	-15.558	0.101
745.100	-27.237	0.101
745.200	-27.295	0.101
745.300	-21.776	0.101
745.400	-25.632	0.101
745.500	-20.015	0.101
745.600	-27.524	0.101
745.700	-23.878	0.101
745.800	-26.039	0.101
745.900	-17.180	0.101
746.000	-20.004	0.101
746.100	-18.876	0.101
746.200	-20.276	0.101
746.300	-14.766	0.101
746.400	-15.896	0.101
746.500	-27.346	0.101
746.600	-22.119	0.101
746.700	-23.292	0.101
746.800	-29.895	0.101
746.900	-22.561	0.101
747.000	-9.805	0.101
747.100	-19.353	0.101
747.200	-23.020	0.101
747.300	-11.506	0.101
747.400	-18.359	0.101
747.500	-18.306	0.101
747.600	-26.305	0.101
747.700	-29.179	0.101
747.800	-24.670	0.101
747.900	-23.742	0.101
748.000	-28.361	0.101
748.100	-25.000	0.101
748.200	-20.837	0.101
748.300	-31.921	0.101
748.400	-25.337	0.101
748.500	-18.153	0.101
748.600	-23.985	0.101
748.700	-20.666	0.101
748.800	-21.392	0.101
748.900	-21.601	0.101
749.000	-27.368	0.101
749.100	-23.104	0.101
749.200	-9.282	0.101
749.300	-25.551	0.101
749.400	-24.788	0.101
749.500	-11.503	0.101
749.600	-28.508	0.101
749.700	-32.765	0.101
749.800	-26.381	0.101
749.900	-18.961	0.101
750.000	-26.286	0.101
750.100	-16.988	0.101
750.200	-16.800	0.101
750.300	-19.630	0.101
750.400	-24.158	0.101
750.500	-25.289	0.101
750.600	-23.390	0.101
750.700	-21.915	0.101
750.800	-24.865	0.101
750.900	-21.048	0.101
751.000	-28.702	0.101
751.100	-17.864	0.101
751.200	-32.285	0.101
751.300	-24.295	0.101
751.400	-27.613	0.101
751.500	-22.208	0.101
751.600	-20.215	0.101
751.700	-25.158	0.101
751.800	-16.511	0.101
751.900	-21.029	0.101
752.000	-23.597	0.101
752.100	-23.914	0.101
752.200	-27.441	0.101
752.300	-23.143	0.101
752.400	-17.378	0.101
752.500	-21.777	0.101
752.600	-29.246	0.101
752.700	-20.157	0.101
752.800	-18.320	0.101
752.900	-32.188	0.101
753.000	-32.423	0.101
753.100	-29.373	0.101
753.200	-25.199	0.101
753.300	-10.347	0.101
753.400	-19.624	0.101
753.500	-29.949	0.101
753.600	-22.102	0.101
753.700	-19.634	0.101
753.800	-11.868	0.101
753.900	-17.303	0.101
754.000	-21.651	0.101
754.100	-18.827	0.101
754.200	-18.708	0.101
754.300	-17.862	0.101
754.400	-11.195	0.101
754.500	-23.095	0.101
754.600	-26.150	0.101
754.700	-15.749	0.101
754.800	-15.765	0.101
754.900	-23.441	0.101
755.000	-23.257	0.101
755.100	-11.568	0.101
755.200	-26.561	0.101
755.300	-27.783	0.101
755.400	-24.047	0.101
755.500	-19.446	0.101
755.600	-23.605	0.101
755.700	-14.076	0.101
755.800	-23.238	0.101
755.900	-15.106	0.101
756.000	-26.059	0.101
756.100	-30.425	0.101
756.200	-30.394	0.101
756.300	-19.069	0.101
756.400	-26.414	0.101
756.500	-20.086	0.101
756.600	-28.189	0.101
756.700	-24.830	0.101
756.800	-30.395	0.101
756.900	-15.179	0.101
757.000	-20.813	0.101
757.100	-17.064	0.101
757.200	-18.936	0.101
757.300	-9.266	0.101
757.400	-14.666	0.101
757.500	-26.179	0.101
757.600	-24.188	0.101
757.700	-21.950	0.101
757.800	-20.474	0.101
757.900	-20.818	0.101
758.000	-23.965	0.101
758.100	-29.531	0.101
758.200	-13.791	0.101
758.300	-25.406	0.101
758.400	-14.881	0.101
758.500	-20.311	0.101
758.600	-23.841	0.101
758.700	-30.017	0.101
758.800	-16.890	0.101
758.900	-19.826	0.101
759.000	-16.164	0.101
759.100	-27.287	0.101
759.200	-18.259	0.101
759.300	-17.821	0.101
759.400	-8.783	0.101
759.500	-8.767	0.101
759.600	-20.009	0.101
759.700	-20.103	0.101
759.800	-17.579	0.101
759.900	-36.326	0.101
760.000	-24.113	0.101
760.100	-30.752	0.101
760.200	-24.028	0.101
760.300	-23.569	0.101
760.400	-14.183	0.101
760.500	-16.977	0.101
760.600	-14.589	0.101
760.700	-18.671	0.101
760.800	-17.780	0.101
760.900	-23.865	0.101
761.000	-18.363	0.101
761.100	-26.770	0.101
761.200	-28.061	0.101
761.300	-25.172	0.101
761.400	-16.005	0.101
761.500	-19.474	0.101
761.600	-27.221	0.101
761.700	-18.105	0.101
761.800	-20.352	0.101
761.900	-17.498	0.101
762.000	-12.925	0.101
762.100	-3.176	0.101
762.200	-25.923	0.101
762.300	-26.975	0.101
762.400	-16.952	0.101
762.500	-24.137	0.101
762.600	-19.858	0.101
762.700	-28.146	0.101
762.800	-17.789	0.101
762.900	-19.809	0.101
763.000	-24.085	0.101
763.100	-23.409	0.101
763.200	-24.685	0.101
763.300	-12.076	0.101
763.400	-22.595	0.101
763.500	-16.310	0.101
763.600	-18.638	0.101
763.700	-17.651	0.101
763.800	-24.870	0.101
763.900	-21.872	0.101
764.000	-18.337	0.101
764.100	-21.880	0.101
764.200	-22.201	0.101
764.300	-25.480	0.101
764.400	-20.248	0.101
764.500	-24.237	0.101
764.600	-26.812	0.101
764.700	-22.493	0.101
764.800	-17.432	0.101
764.900	-25.151	0.101
765.000	-20.955	0.101
765.100	-16.498	0.101
765.200	-17.948	0.101
765.300	-23.057	0.101
765.400	-12.654	0.101
765.500	-20.829	0.101
765.600	-17.609	0.101
765.700	-16.671	0.101
765.800	-17.594	0.101
765.900	-17.465	0.101
766.000	-24.346	0.101
766.100	-29.606	0.101
766.200	-22.967	0.101
766.300	-13.964	0.101
766.400	-15.000	0.101
766.500	-21.917	0.101
766.600	-22.367	0.101
766.700	-23.257	0.101
766.800	-28.153	0.101
766.900	-22.861	0.101
767.000	-13.816	0.101
767.100	-28.834	0.101
767.200	-24.308	0.101
767.300	-18.265	0.101
767.400	-6.499	0.101
767.500	-9.092	0.101
767.600	-18.603	0.101
767.700	-34.447	0.101
767.800	-21.524	0.101
767.900	-19.154	0.101
768.000	-11.853	0.101
768.100	-13.270	0.101
768.200	-15.569	0.101
768.300	-19.735	0.101
768.400	-16.810	0.101
768.500	-13.759	0.101
768.600	-19.263	0.101
768.700	-28.093	0.101
768.800	-28.358	0.101
768.900	-19.131	0.101
769.000	-13.359	0.101
769.100	-14.731	0.101
769.200	-21.151	0.101
769.300	-22.695	0.101
769.400	-25.290	0.101
769.500	-20.307	0.101
769.600	-18.662	0.101
769.700	-20.512	0.101
769.800	-14.435	0.101
769.900	-24.404	0.101
770.000	-26.350	0.101
770.100	-21.219	0.101
770.200	-7.719	0.101
770.300	-8.055	0.101
770.400	-16.472	0.101
770.500	-19.525	0.101
770.600	-21.555	0.101
770.700	-20.464	0.101
770.800	-29.082	0.101
770.900	-16.043	0.101
771.000	-20.632	0.101
771.100	-28.601	0.101
771.200	-20.447	0.101
771.300	-17.833	0.101
771.400	-10.365	0.101
771.500	-15.266	0.101
771.600	-6.947	0.101
771.700	-9.193	0.101
771.800	-26.575	0.101
771.900	-21.026	0.101
772.000	-26.014	0.101
772.100	-22.081	0.101
772.200	-13.543	0.101
772.300	-12.642	0.101
772.400	-23.642	0.101
772.500	-40.043	0.101
772.600	-33.596	0.101
772.700	-20.538	0.101
772.800	-17.703	0.101
772.900	-8.846	0.101
773.000	-31.375	0.101
773.100	-13.450	0.101
773.200	-17.302	0.101
773.300	-14.494	0.101
773.400	-25.442	0.101
773.500	-24.115	0.101
773.600	-15.934	0.101
773.700	-14.538	0.101
773.800	-17.965	0.101
773.900	-15.888	0.101
774.000	-28.827	0.101
774.100	-13.923	0.101
774.200	-21.176	0.101
774.300	-17.732	0.101
774.400	-12.756	0.101
774.500	-17.526	0.101
774.600	1.258	0.101
774.700	-22.825	0.101
774.800	-22.702	0.101
774.900	-17.275	0.101
775.000	-19.631	0.101
775.100	-21.785	0.101
775.200	-32.383	0.101
775.300	-21.446	0.101
775.400	-16.635	0.101
775.500	-25.956	0.101
775.600	-28.477	0.101
775.700	-14.810	0.101
775.800	-19.043	0.101
775.900	-14.505	0.101
776.000	-18.870	0.101
776.100	-16.673	0.101
776.200	-19.103	0.101
776.300	-12.591	0.101
776.400	-19.597	0.101
776.500	-20.172	0.101
776.600	-15.354	0.101
776.700	-19.849	0.101
776.800	-20.853	0.101
776.900	-28.156	0.101
777.000	-14.233	0.101
777.100	-13.564	0.101
777.200	-8.094	0.101
777.300	-15.527	0.101
777.400	-19.072	0.101
777.500	-21.074	0.101
777.600	-19.644	0.101
777.700	-20.579	0.101
777.800	-10.553	0.101
777.900	-13.918	0.101
778.000	-25.128	0.101
778.100	-17.629	0.101
778.200	-23.579	0.101
778.300	-22.316	0.101
778.400	-21.494	0.101
778.500	-12.587	0.101
778.600	-16.236	0.101
778.700	-12.175	0.101
778.800	-25.314	0.101
778.900	-20.478	0.101
779.000	-13.330	0.101
779.100	-21.219	0.101
779.200	-25.590	0.101
779.300	-23.666	0.101
779.400	-10.399	0.101
779.500	-20.538	0.101
779.600	-20.817	0.101
779.700	-16.620	0.101
779.800	-13.196	0.101
779.900	-11.535	0.101
780.000	-9.072	0.101
780.100	-21.176	0.101
780.200	-16.178	0.101
780.300	-13.917	0.101
780.400	-14.999	0.101
780.500	-20.931	0.101
780.600	-7.514	0.101
780.700	-10.113	0.101
780.800	-9.464	0.101
780.900	-9.313	0.101
781.000	2.601	0.101
781.100	-1.325	0.101
781.200	-2.196	0.101
781.300	3.032	0.101
781.400	6.853	0.101
781.500	-0.852	0.101
781.600	5.010	0.101
781.700	5.781	0.101
781.800	7.814	0.101
781.900	11.704	0.101
782.000	7.061	0.101
782.100	8.646	0.101
782.200	11.295	0.101
782.300	4.858	0.101
782.400	6.895	0.101
782.500	14.657	0.101
782.600	9.082	0.101
782.700	23.083	0.101
782.800	7.910	0.101
782.900	8.154	0.101
783.000	15.132	0.101
783.100	32.155	0.101
783.200	12.003	0.101
783.300	18.464	0.101
783.400	18.206	0.101
783.500	15.851	0.101
783.600	19.649	0.101
783.700	18.824	0.101
783.800	9.786	0.101
783.900	6.685	0.101
784.000	10.944	0.101
784.100	25.458	0.101
784.200	18.550	0.101
784.300	17.615	0.101
784.400	13.883	0.101
784.500	10.249	0.101
784.600	21.874	0.101
784.700	24.940	0.101
784.800	25.509	0.101
784.900	22.250	0.101
785.000	14.737	0.101
785.100	7.898	0.101
785.200	22.428	0.101
785.300	14.460	0.101
785.400	15.244	0.101
785.500	18.948	0.101
785.600	14.974	0.101
785.700	20.606	0.101
785.800	21.819	0.101
785.900	10.071	0.101
786.000	20.193	0.101
786.100	14.628	0.101
786.200	16.726	0.101
786.300	12.529	0.101
786.400	18.959	0.101
786.500	13.539	0.101
786.600	21.489	0.101
786.700	13.844	0.101
786.800	19.995	0.101
786.900	15.915	0.101
787.000	11.784	0.101
787.100	11.066	0.101
787.200	8.192	0.101
787.300	13.880	0.101
787.400	12.736	0.101
787.500	14.961	0.101
787.600	12.954	0.101
787.700	13.028	0.101
787.800	16.576	0.101
787.900	17.372	0.101
788.000	13.257	0.101
788.100	5.272	0.101
788.200	22.873	0.101
788.300	22.488	0.101
788.400	31.257	0.101
788.500	10.676	0.101
788.600	9.181	0.101
788.700	4.656	0.101
788.800	5.767	0.101
788.900	8.073	0.101
789.000	15.065	0.101
789.100	16.027	0.101
789.200	12.180	0.101
789.300	15.726	0.101
789.400	9.373	0.101
789.500	18.442	0.101
789.600	4.810	0.101
789.700	14.442	0.101
789.800	7.837	0.101
789.900	4.171	0.101
790.000	5.235	0.101
790.100	10.981	0.101
790.200	13.033	0.101
790.300	-3.879	0.101
790.400	3.333	0.101
790.500	17.465	0.101
790.600	18.670	0.101
790.700	6.063	0.101
790.800	7.797	0.101
790.900	14.039	0.101
791.000	1.349	0.101
791.100	17.660	0.101
791.200	16.118	0.101
791.300	10.270	0.101
791.400	21.001	0.101
791.500	13.573	0.101
791.600	7.740	0.101
791.700	8.742	0.101
791.800	14.109	0.101
791.900	18.278	0.101
792.000	11.183	0.101
792.100	15.581	0.101
792.200	19.094	0.101
792.300	14.139	0.101
792.400	11.044	0.101
792.500	17.664	0.101
792.600	29.444	0.101
792.700	13.822	0.101
792.800	8.036	0.101
792.900	10.434	0.101
793.000	14.005	0.101
793.100	8.726	0.101
793.200	10.848	0.101
793.300	26.813	0.101
793.400	12.888	0.101
793.500	19.911	0.101
793.600	4.780	0.101
793.700	9.398	0.101
793.800	24.001	0.101
793.900	12.686	0.101
794.000	10.606	0.101
794.100	6.678	0.101
794.200	15.349	0.101
794.300	10.827	0.101
794.400	10.942	0.101
794.500	19.553	0.101
794.600	13.682	0.101
794.700	13.678	0.101
794.800	19.191	0.101
794.900	14.322	0.101
795.000	11.918	0.101
795.100	12.498	0.101
795.200	16.426	0.101
795.300	9.616	0.101
795.400	16.761	0.101
795.500	-0.449	0.101
795.600	21.966	0.101
795.700	11.474	0.101
795.800	18.643	0.101
795.900	17.919	0.101
796.000	21.801	0.101
796.100	18.555	0.101
796.200	13.988	0.101
796.300	15.005	0.101
796.400	15.117	0.101
796.500	9.894	0.101
796.600	9.991	0.101
796.700	19.831	0.101
796.800	17.131	0.101
796.900	24.696	0.101
797.000	18.130	0.101
797.100	6.664	0.101
797.200	13.266	0.101
797.300	20.184	0.101
797.400	18.402	0.101
797.500	19.563	0.101
797.600	14.220	0.101
797.700	17.780	0.101
797.800	19.039	0.101
797.900	23.007	0.101
798.000	21.521	0.101
798.100	14.545	0.101
798.200	13.282	0.101
798.300	8.021	0.101
798.400	22.258	0.101
798.500	21.724	0.101
798.600	21.821	0.101
798.700	31.820	0.101
798.800	18.788	0.101
798.900	19.323	0.101
799.000	18.511	0.101
799.100	13.790	0.101
799.200	26.410	0.101
799.300	27.078	0.101
799.400	21.171	0.101
799.500	22.200	0.101
799.600	22.792	0.101
799.700	23.538	0.101
799.800	24.074	0.101
799.900	22.295	0.101
800.000	21.916	0.101
