time /s	I /nA	E /V
0.100	-25.709	0.101
0.200	-6.913	0.101
0.300	-4.608	0.101
0.400	-9.181	0.101
0.500	-14.636	0.101
0.600	-10.844	0.101
0.700	-11.142	0.101
0.800	-20.026	0.101
0.900	-17.059	0.101
1.000	-19.906	0.101
1.100	-6.990	0.101
1.200	-11.488	0.101
1.300	-8.365	0.101
1.400	-15.646	0.101
1.500	-16.553	0.101
1.600	-13.949	0.101
1.700	-11.535	0.101
1.800	-12.112	0.101
1.900	1.394	0.101
2.000	-20.286	0.101
2.100	-21.053	0.101
2.200	-13.135	0.101
2.300	-16.907	0.101
2.400	-4.247	0.101
2.500	-11.515	0.101
2.600	-20.746	0.101
2.700	-10.869	0.101
2.800	-12.515	0.101
2.900	-21.184	0.101
3.000	0.024	0.101
3.100	-6.039	0.101
3.200	-1.081	0.101
3.300	-11.973	0.101
3.400	-14.447	0.101
3.500	-9.172	0.101
3.600	-18.021	0.101
3.700	-3.708	0.101
3.800	-2.309	0.101
3.900	-3.851	0.101
4.000	-13.400	0.101
4.100	-16.062	0.101
4.200	-9.048	0.101
4.300	-17.815	0.101
4.400	-14.806	0.101
4.500	-9.603	0.101
4.600	-11.351	0.101
4.700	-7.658	0.101
4.800	-5.528	0.101
4.900	-15.269	0.101
5.000	-15.854	0.101
5.100	-6.196	0.101
5.200	-5.605	0.101
5.300	-22.061	0.101
5.400	-14.085	0.101
5.500	-8.719	0.101
5.600	-19.875	0.101
5.700	-11.411	0.101
5.800	-7.920	0.101
5.900	-7.097	0.101
6.000	-11.206	0.101
6.100	-7.215	0.101
6.200	-11.586	0.101
6.300	-20.114	0.101
6.400	-15.042	0.101
6.500	1.118	0.101
6.600	-2.385	0.101
6.700	-18.380	0.101
6.800	-18.740	0.101
6.900	-12.711	0.101
7.000	-6.976	0.101
7.100	-18.934	0.101
7.200	-11.028	0.101
7.300	-11.315	0.101
7.400	-10.658	0.101
7.500	-5.731	0.101
7.600	-7.872	0.101
7.700	-14.053	0.101
7.800	-17.079	0.101
7.900	-6.296	0.101
8.000	-6.897	0.101
8.100	-21.408	0.101
8.200	-14.591	0.101
8.300	-11.973	0.101
8.400	-10.583	0.101
8.500	-13.011	0.101
8.600	-10.384	0.101
8.700	-14.914	0.101
8.800	-25.509	0.101
8.900	-6.205	0.101
9.000	-9.394	0.101
9.100	-3.458	0.101
9.200	-5.400	0.101
9.300	-14.620	0.101
9.400	-15.931	0.101
9.500	-12.178	0.101
9.600	-2.783	0.101
9.700	-12.044	0.101
9.800	-16.495	0.101
9.900	-7.896	0.101
10.000	-2.150	0.101
10.100	-15.181	0.101
10.200	-14.631	0.101
10.300	-18.213	0.101
10.400	-6.506	0.101
10.500	-2.859	0.101
10.600	-8.473	0.101
10.700	-0.045	0.101
10.800	-1.452	0.101
10.900	-15.693	0.101
11.000	-3.516	0.101
11.100	-4.731	0.101
11.200	-16.968	0.101
11.300	-12.429	0.101
11.400	-8.228	0.101
11.500	-6.155	0.101
11.600	-17.173	0.101
11.700	-20.134	0.101
11.800	-12.775	0.101
11.900	-2.648	0.101
12.000	-2.474	0.101
12.100	-12.212	0.101
12.200	-13.114	0.101
12.300	-15.911	0.101
12.400	-21.531	0.101
12.500	-9.698	0.101
12.600	-0.561	0.101
12.700	-5.146	0.101
12.800	-3.292	0.101
12.900	-9.114	0.101
13.000	-12.539	0.101
13.100	-5.502	0.101
13.200	1.314	0.101
13.300	-10.090	0.101
13.400	-14.222	0.101
13.500	-8.181	0.101
13.600	-11.531	0.101
13.700	-9.888	0.101
13.800	-16.340	0.101
13.900	-16.767	0.101
14.000	-3.912	0.101
14.100	-6.093	0.101
14.200	-7.270	0.101
14.300	-15.965	0.101
14.400	-11.881	0.101
14.500	0.820	0.101
14.600	-20.319	0.101
14.700	-17.447	0.101
14.800	-16.575	0.101
14.900	-13.582	0.101
15.000	-9.944	0.101
15.100	-7.771	0.101
15.200	-6.815	0.101
15.300	-3.624	0.101
15.400	-9.504	0.101
15.500	-6.953	0.101
15.600	-0.550	0.101
15.700	-15.412	0.101
15.800	-1.263	0.101
15.900	-12.476	0.101
16.000	-8.200	0.101
16.100	-27.195	0.101
16.200	-11.097	0.101
16.300	-19.125	0.101
16.400	-3.815	0.101
16.500	-9.440	0.101
16.600	-6.535	0.101
16.700	-0.062	0.101
16.800	-7.085	0.101
16.900	-8.664	0.101
17.000	-10.358	0.101
17.100	-3.667	0.101
17.200	-6.600	0.101
17.300	-16.868	0.101
17.400	-7.583	0.101
17.500	-27.141	0.101
17.600	-14.835	0.101
17.700	-4.977	0.101
17.800	-13.147	0.101
17.900	-12.942	0.101
18.000	-8.027	0.101
18.100	-6.112	0.101
18.200	-9.460	0.101
18.300	-2.934	0.101
18.400	-11.157	0.101
18.500	-2.360	0.101
18.600	-9.800	0.101
18.700	-10.322	0.101
18.800	-8.574	0.101
18.900	-15.927	0.101
19.000	-14.994	0.101
19.100	-11.919	0.101
19.200	-10.436	0.101
19.300	-20.246	0.101
19.400	-5.750	0.101
19.500	2.294	0.101
19.600	5.293	0.101
19.700	-12.698	0.101
19.800	-22.243	0.101
19.900	-9.435	0.101
20.000	-0.318	0.101
20.100	-12.867	0.101
20.200	-9.637	0.101
20.300	-13.339	0.101
20.400	-29.346	0.101
20.500	-6.726	0.101
20.600	-4.630	0.101
20.700	12.583	0.101
20.800	-2.632	0.101
20.900	-5.095	0.101
21.000	-15.810	0.101
21.100	-21.300	0.101
21.200	-3.409	0.101
21.300	-0.043	0.101
21.400	-15.639	0.101
21.500	-7.155	0.101
21.600	-7.110	0.101
21.700	-6.042	0.101
21.800	-6.502	0.101
21.900	-6.765	0.101
22.000	-22.000	0.101
22.100	-8.530	0.101
22.200	-16.510	0.101
22.300	-8.277	0.101
22.400	2.718	0.101
22.500	-3.224	0.101
22.600	-6.780	0.101
22.700	-7.367	0.101
22.800	-10.995	0.101
22.900	-5.711	0.101
23.000	-16.539	0.101
23.100	-22.007	0.101
23.200	-9.116	0.101
23.300	10.924	0.101
23.400	-11.599	0.101
23.500	-10.408	0.101
23.600	-17.105	0.101
23.700	-5.261	0.101
23.800	-5.458	0.101
23.900	-6.151	0.101
24.000	-18.653	0.101
24.100	2.581	0.101
24.200	-11.607	0.101
24.300	-14.336	0.101
24.400	-3.983	0.101
24.500	-12.414	0.101
24.600	-16.166	0.101
24.700	-1.361	0.101
24.800	-17.155	0.101
24.900	-21.323	0.101
25.000	-6.255	0.101
25.100	-5.161	0.101
25.200	-0.222	0.101
25.300	-9.962	0.101
25.400	-13.562	0.101
25.500	-9.949	0.101
25.600	-17.034	0.101
25.700	-8.938	0.101
25.800	-7.741	0.101
25.900	-12.754	0.101
26.000	5.229	0.101
26.100	-2.407	0.101
26.200	-15.594	0.101
26.300	-19.418	0.101
26.400	-17.450	0.101
26.500	-17.443	0.101
26.600	-16.269	0.101
26.700	-6.470	0.101
26.800	-17.217	0.101
26.900	-3.993	0.101
27.000	-4.138	0.101
27.100	-13.075	0.101
27.200	-6.369	0.101
27.300	-12.070	0.101
27.400	-24.094	0.101
27.500	-13.376	0.101
27.600	-7.848	0.101
27.700	-14.079	0.101
27.800	-12.778	0.101
27.900	-25.873	0.101
28.000	-11.968	0.101
28.100	0.394	0.101
28.200	-2.467	0.101
28.300	-7.107	0.101
28.400	-14.997	0.101
28.500	-9.332	0.101
28.600	-12.928	0.101
28.700	-11.904	0.101
28.800	-3.345	0.101
28.900	-13.244	0.101
29.000	-19.017	0.101
29.100	-10.645	0.101
29.200	-1.365	0.101
29.300	-3.261	0.101
29.400	-18.747	0.101
29.500	-4.649	0.101
29.600	0.039	0.101
29.700	-10.706	0.101
29.800	-16.402	0.101
29.900	-20.001	0.101
30.000	-9.742	0.101
30.100	-8.204	0.101
30.200	-12.338	0.101
30.300	-3.570	0.101
30.400	-5.023	0.101
30.500	-5.980	0.101
30.600	-0.732	0.101
30.700	-13.826	0.101
30.800	0.494	0.101
30.900	10.389	0.101
31.000	9.612	0.101
31.100	9.762	0.101
31.200	9.157	0.101
31.300	-5.587	0.101
31.400	15.354	0.101
31.500	8.068	0.101
31.600	5.761	0.101
31.700	10.661	0.101
31.800	12.626	0.101
31.900	13.882	0.101
32.000	15.947	0.101
32.100	5.913	0.101
32.200	7.939	0.101
32.300	6.461	0.101
32.400	16.197	0.101
32.500	16.947	0.101
32.600	12.090	0.101
32.700	13.205	0.101
32.800	14.849	0.101
32.900	14.852	0.101
33.000	16.149	0.101
33.100	5.149	0.101
33.200	12.338	0.101
33.300	12.959	0.101
33.400	14.663	0.101
33.500	7.450	0.101
33.600	25.204	0.101
33.700	14.475	0.101
33.800	22.344	0.101
33.900	30.753	0.101
34.000	23.698	0.101
34.100	9.165	0.101
34.200	24.093	0.101
34.300	24.279	0.101
34.400	25.264	0.101
34.500	18.423	0.101
34.600	28.037	0.101
34.700	19.147	0.101
34.800	27.950	0.101
34.900	16.905	0.101
35.000	20.120	0.101
35.100	23.906	0.101
35.200	24.169	0.101
35.300	15.123	0.101
35.400	18.346	0.101
35.500	25.457	0.101
35.600	24.845	0.101
35.700	27.086	0.101
35.800	25.985	0.101
35.900	29.568	0.101
36.000	25.958	0.101
36.100	28.235	0.101
36.200	31.411	0.101
36.300	31.195	0.101
36.400	26.154	0.101
36.500	29.695	0.101
36.600	24.045	0.101
36.700	31.103	0.101
36.800	22.151	0.101
36.900	32.187	0.101
37.000	34.252	0.101
37.100	30.642	0.101
37.200	32.166	0.101
37.300	45.139	0.101
37.400	34.471	0.101
37.500	31.058	0.101
37.600	42.638	0.101
37.700	29.170	0.101
37.800	38.159	0.101
37.900	40.235	0.101
38.000	40.129	0.101
38.100	37.832	0.101
38.200	39.698	0.101
38.300	33.784	0.101
38.400	42.043	0.101
38.500	30.948	0.101
38.600	47.887	0.101
38.700	50.071	0.101
38.800	41.649	0.101
38.900	56.688	0.101
39.000	45.617	0.101
39.100	44.357	0.101
39.200	44.517	0.101
39.300	59.559	0.101
39.400	34.323	0.101
39.500	39.486	0.101
39.600	41.192	0.101
39.700	36.830	0.101
39.800	43.441	0.101
39.900	40.123	0.101
40.000	39.450	0.101
40.100	50.594	0.101
40.200	39.917	0.101
40.300	45.064	0.101
40.400	49.223	0.101
40.500	50.819	0.101
40.600	44.769	0.101
40.700	46.601	0.101
40.800	48.153	0.101
40.900	40.534	0.101
41.000	44.562	0.101
41.100	45.601	0.101
41.200	40.780	0.101
41.300	50.838	0.101
41.400	50.086	0.101
41.500	47.216	0.101
41.600	30.565	0.101
41.700	32.041	0.101
41.800	35.107	0.101
41.900	30.032	0.101
42.000	39.692	0.101
42.100	44.693	0.101
42.200	42.602	0.101
42.300	39.074	0.101
42.400	46.218	0.101
42.500	47.583	0.101
42.600	40.743	0.101
42.700	44.199	0.101
42.800	35.559	0.101
42.900	27.346	0.101
43.000	27.773	0.101
43.100	42.250	0.101
43.200	40.093	0.101
43.300	41.377	0.101
43.400	31.894	0.101
43.500	34.886	0.101
43.600	46.069	0.101
43.700	37.492	0.101
43.800	33.289	0.101
43.900	36.301	0.101
44.000	48.121	0.101
44.100	31.199	0.101
44.200	42.122	0.101
44.300	30.640	0.101
44.400	35.497	0.101
44.500	33.050	0.101
44.600	33.102	0.101
44.700	24.205	0.101
44.800	27.036	0.101
44.900	27.096	0.101
45.000	40.379	0.101
45.100	27.509	0.101
45.200	28.049	0.101
45.300	33.113	0.101
45.400	22.191	0.101
45.500	25.195	0.101
45.600	26.896	0.101
45.700	25.088	0.101
45.800	31.490	0.101
45.900	34.738	0.101
46.000	20.227	0.101
46.100	20.124	0.101
46.200	28.353	0.101
46.300	43.592	0.101
46.400	31.749	0.101
46.500	28.443	0.101
46.600	27.340	0.101
46.700	21.837	0.101
46.800	28.263	0.101
46.900	34.585	0.101
47.000	22.918	0.101
47.100	22.325	0.101
47.200	27.202	0.101
47.300	20.500	0.101
47.400	16.099	0.101
47.500	31.401	0.101
47.600	22.381	0.101
47.700	25.062	0.101
47.800	31.028	0.101
47.900	21.192	0.101
48.000	21.936	0.101
48.100	19.641	0.101
48.200	15.968	0.101
48.300	37.511	0.101
48.400	11.934	0.101
48.500	19.829	0.101
48.600	33.208	0.101
48.700	13.599	0.101
48.800	15.518	0.101
48.900	13.065	0.101
49.000	27.107	0.101
49.100	18.464	0.101
49.200	21.856	0.101
49.300	19.392	0.101
49.400	18.212	0.101
49.500	26.638	0.101
49.600	23.271	0.101
49.700	21.753	0.101
49.800	10.596	0.101
49.900	16.478	0.101
50.000	5.667	0.101
50.100	24.630	0.101
50.200	13.806	0.101
50.300	15.965	0.101
50.400	17.183	0.101
50.500	23.066	0.101
50.600	22.779	0.101
50.700	12.027	0.101
50.800	13.831	0.101
50.900	20.799	0.101
51.000	19.110	0.101
51.100	25.234	0.101
51.200	19.988	0.101
51.300	18.789	0.101
51.400	15.179	0.101
51.500	10.170	0.101
51.600	12.649	0.101
51.700	16.194	0.101
51.800	5.761	0.101
51.900	13.458	0.101
52.000	16.498	0.101
52.100	22.544	0.101
52.200	11.231	0.101
52.300	22.202	0.101
52.400	13.523	0.101
52.500	15.272	0.101
52.600	26.694	0.101
52.700	18.423	0.101
52.800	12.241	0.101
52.900	9.606	0.101
53.000	17.848	0.101
53.100	6.765	0.101
53.200	14.846	0.101
53.300	19.082	0.101
53.400	11.646	0.101
53.500	26.056	0.101
53.600	9.202	0.101
53.700	15.572	0.101
53.800	13.168	0.101
53.900	8.924	0.101
54.000	17.442	0.101
54.100	23.304	0.101
54.200	14.653	0.101
54.300	10.161	0.101
54.400	17.190	0.101
54.500	18.665	0.101
54.600	23.712	0.101
54.700	11.616	0.101
54.800	7.752	0.101
54.900	18.013	0.101
55.000	15.964	0.101
55.100	24.247	0.101
55.200	26.548	0.101
55.300	6.862	0.101
55.400	14.756	0.101
55.500	6.360	0.101
55.600	18.643	0.101
55.700	17.853	0.101
55.800	13.981	0.101
55.900	11.197	0.101
56.000	10.250	0.101
56.100	12.073	0.101
56.200	22.696	0.101
56.300	22.123	0.101
56.400	13.376	0.101
56.500	19.588	0.101
56.600	33.732	0.101
56.700	13.468	0.101
56.800	13.820	0.101
56.900	11.131	0.101
57.000	8.022	0.101
57.100	4.602	0.101
57.200	5.997	0.101
57.300	2.322	0.101
57.400	1.067	0.101
57.500	13.159	0.101
57.600	22.663	0.101
57.700	25.989	0.101
57.800	17.953	0.101
57.900	16.759	0.101
58.000	8.638	0.101
58.100	11.895	0.101
58.200	28.934	0.101
58.300	14.637	0.101
58.400	11.244	0.101
58.500	19.962	0.101
58.600	23.311	0.101
58.700	10.577	0.101
58.800	19.912	0.101
58.900	8.196	0.101
59.000	22.370	0.101
59.100	0.421	0.101
59.200	19.341	0.101
59.300	20.405	0.101
59.400	20.920	0.101
59.500	15.364	0.101
59.600	21.935	0.101
59.700	12.466	0.101
59.800	21.269	0.101
59.900	9.455	0.101
60.000	16.587	0.101
60.100	6.369	0.101
60.200	11.511	0.101
60.300	11.590	0.101
60.400	15.912	0.101
60.500	19.708	0.101
60.600	16.226	0.101
60.700	27.961	0.101
60.800	10.132	0.101
60.900	2.077	0.101
61.000	18.243	0.101
61.100	19.106	0.101
61.200	14.498	0.101
61.300	13.706	0.101
61.400	15.100	0.101
61.500	5.058	0.101
61.600	11.060	0.101
61.700	11.713	0.101
61.800	22.796	0.101
61.900	22.862	0.101
62.000	16.054	0.101
62.100	28.334	0.101
62.200	28.824	0.101
62.300	21.467	0.101
62.400	17.900	0.101
62.500	20.865	0.101
62.600	8.042	0.101
62.700	-0.006	0.101
62.800	13.296	0.101
62.900	25.433	0.101
63.000	21.123	0.101
63.100	16.667	0.101
63.200	19.299	0.101
63.300	14.840	0.101
63.400	16.985	0.101
63.500	12.095	0.101
63.600	20.973	0.101
63.700	22.988	0.101
63.800	18.204	0.101
63.900	18.623	0.101
64.000	19.323	0.101
64.100	17.854	0.101
64.200	6.966	0.101
64.300	20.729	0.101
64.400	16.477	0.101
64.500	10.017	0.101
64.600	18.291	0.101
64.700	15.649	0.101
64.800	13.393	0.101
64.900	27.312	0.101
65.000	19.517	0.101
65.100	24.629	0.101
65.200	11.538	0.101
65.300	10.353	0.101
65.400	24.108	0.101
65.500	11.934	0.101
65.600	20.965	0.101
65.700	27.184	0.101
65.800	31.738	0.101
65.900	28.805	0.101
66.000	17.201	0.101
66.100	15.846	0.101
66.200	20.714	0.101
66.300	20.665	0.101
66.400	12.844	0.101
66.500	8.420	0.101
66.600	7.223	0.101
66.700	16.798	0.101
66.800	14.748	0.101
66.900	29.810	0.101
67.000	16.744	0.101
67.100	7.300	0.101
67.200	17.612	0.101
67.300	15.984	0.101
67.400	22.464	0.101
67.500	26.943	0.101
67.600	20.216	0.101
67.700	14.525	0.101
67.800	17.373	0.101
67.900	20.361	0.101
68.000	18.445	0.101
68.100	19.954	0.101
68.200	18.071	0.101
68.300	13.407	0.101
68.400	16.593	0.101
68.500	24.494	0.101
68.600	16.675	0.101
68.700	18.590	0.101
68.800	27.112	0.101
68.900	19.701	0.101
69.000	18.018	0.101
69.100	6.056	0.101
69.200	14.319	0.101
69.300	26.023	0.101
69.400	33.387	0.101
69.500	21.881	0.101
69.600	20.723	0.101
69.700	12.289	0.101
69.800	20.373	0.101
69.900	19.155	0.101
70.000	11.023	0.101
70.100	18.905	0.101
70.200	26.731	0.101
70.300	29.949	0.101
70.400	29.185	0.101
70.500	19.091	0.101
70.600	14.509	0.101
70.700	23.429	0.101
70.800	14.774	0.101
70.900	13.955	0.101
71.000	18.409	0.101
71.100	23.396	0.101
71.200	19.721	0.101
71.300	7.391	0.101
71.400	15.163	0.101
71.500	20.831	0.101
71.600	18.768	0.101
71.700	16.743	0.101
71.800	25.063	0.101
71.900	16.046	0.101
72.000	27.547	0.101
72.100	18.774	0.101
72.200	19.842	0.101
72.300	14.422	0.101
72.400	19.887	0.101
72.500	32.400	0.101
72.600	29.220	0.101
72.700	21.672	0.101
72.800	13.649	0.101
72.900	10.461	0.101
73.000	30.258	0.101
73.100	26.209	0.101
73.200	5.813	0.101
73.300	14.626	0.101
73.400	22.988	0.101
73.500	21.163	0.101
73.600	11.822	0.101
73.700	24.789	0.101
73.800	23.811	0.101
73.900	29.702	0.101
74.000	11.060	0.101
74.100	20.283	0.101
74.200	18.893	0.101
74.300	21.446	0.101
74.400	22.614	0.101
74.500	19.935	0.101
74.600	17.720	0.101
74.700	30.658	0.101
74.800	25.735	0.101
74.900	9.620	0.101
75.000	23.008	0.101
75.100	23.477	0.101
75.200	18.171	0.101
75.300	24.307	0.101
75.400	18.107	0.101
75.500	19.655	0.101
75.600	28.372	0.101
75.700	24.837	0.101
75.800	18.174	0.101
75.900	15.337	0.101
76.000	23.011	0.101
76.100	24.793	0.101
76.200	19.488	0.101
76.300	23.362	0.101
76.400	29.737	0.101
76.500	17.475	0.101
76.600	26.781	0.101
76.700	15.518	0.101
76.800	5.912	0.101
76.900	19.559	0.101
77.000	23.478	0.101
77.100	18.469	0.101
77.200	22.990	0.101
77.300	28.898	0.101
77.400	19.598	0.101
77.500	11.399	0.101
77.600	20.650	0.101
77.700	32.278	0.101
77.800	28.944	0.101
77.900	25.063	0.101
78.000	20.945	0.101
78.100	19.217	0.101
78.200	20.285	0.101
78.300	20.935	0.101
78.400	10.519	0.101
78.500	27.694	0.101
78.600	16.739	0.101
78.700	19.498	0.101
78.800	24.094	0.101
78.900	25.685	0.101
79.000	23.993	0.101
79.100	10.953	0.101
79.200	22.392	0.101
79.300	20.991	0.101
79.400	20.590	0.101
79.500	13.495	0.101
79.600	15.733	0.101
79.700	24.011	0.101
79.800	14.246	0.101
79.900	33.160	0.101
80.000	29.168	0.101
80.100	28.075	0.101
80.200	23.469	0.101
80.300	18.911	0.101
80.400	29.012	0.101
80.500	26.838	0.101
80.600	21.995	0.101
80.700	24.376	0.101
80.800	16.188	0.101
80.900	21.395	0.101
81.000	18.544	0.101
81.100	23.227	0.101
81.200	19.114	0.101
81.300	29.048	0.101
81.400	25.885	0.101
81.500	17.654	0.101
81.600	16.631	0.101
81.700	16.567	0.101
81.800	16.713	0.101
81.900	14.580	0.101
82.000	15.771	0.101
82.100	23.696	0.101
82.200	23.762	0.101
82.300	32.691	0.101
82.400	27.671	0.101
82.500	22.858	0.101
82.600	24.683	0.101
82.700	21.997	0.101
82.800	25.088	0.101
82.900	21.767	0.101
83.000	27.645	0.101
83.100	25.737	0.101
83.200	15.694	0.101
83.300	37.658	0.101
83.400	30.712	0.101
83.500	31.661	0.101
83.600	15.410	0.101
83.700	28.549	0.101
83.800	25.878	0.101
83.900	19.652	0.101
84.000	28.048	0.101
84.100	23.472	0.101
84.200	14.508	0.101
84.300	34.332	0.101
84.400	34.032	0.101
84.500	22.731	0.101
84.600	34.422	0.101
84.700	27.921	0.101
84.800	23.171	0.101
84.900	17.808	0.101
85.000	39.774	0.101
85.100	21.546	0.101
85.200	28.501	0.101
85.300	19.477	0.101
85.400	25.825	0.101
85.500	18.005	0.101
85.600	27.353	0.101
85.700	23.421	0.101
85.800	23.298	0.101
85.900	20.635	0.101
86.000	20.731	0.101
86.100	19.562	0.101
86.200	28.975	0.101
86.300	24.052	0.101
86.400	24.142	0.101
86.500	15.739	0.101
86.600	18.075	0.101
86.700	17.993	0.101
86.800	21.808	0.101
86.900	23.036	0.101
87.000	24.418	0.101
87.100	24.483	0.101
87.200	21.277	0.101
87.300	24.484	0.101
87.400	32.719	0.101
87.500	22.069	0.101
87.600	27.082	0.101
87.700	24.700	0.101
87.800	32.698	0.101
87.900	23.715	0.101
88.000	21.838	0.101
88.100	29.877	0.101
88.200	19.743	0.101
88.300	23.275	0.101
88.400	27.382	0.101
88.500	33.985	0.101
88.600	20.965	0.101
88.700	25.485	0.101
88.800	27.058	0.101
88.900	15.932	0.101
89.000	15.806	0.101
89.100	29.836	0.101
89.200	30.984	0.101
89.300	26.958	0.101
89.400	26.825	0.101
89.500	26.020	0.101
89.600	19.319	0.101
89.700	16.098	0.101
89.800	25.396	0.101
89.900	15.922	0.101
90.000	15.176	0.101
90.100	22.632	0.101
90.200	19.670	0.101
90.300	15.642	0.101
90.400	14.415	0.101
90.500	23.729	0.101
90.600	24.417	0.101
90.700	19.444	0.101
90.800	7.721	0.101
90.900	6.683	0.101
91.000	12.273	0.101
91.100	2.655	0.101
91.200	5.934	0.101
91.300	4.528	0.101
91.400	4.535	0.101
91.500	-1.785	0.101
91.600	13.398	0.101
91.700	1.841	0.101
91.800	3.802	0.101
91.900	-0.519	0.101
92.000	4.920	0.101
92.100	-4.592	0.101
92.200	3.628	0.101
92.300	-6.850	0.101
92.400	-15.485	0.101
92.500	-3.210	0.101
92.600	-3.562	0.101
92.700	-8.492	0.101
92.800	-5.691	0.101
92.900	4.957	0.101
93.000	-13.223	0.101
93.100	-17.845	0.101
93.200	-6.357	0.101
93.300	-18.565	0.101
93.400	-13.095	0.101
93.500	3.749	0.101
93.600	-1.475	0.101
93.700	-13.636	0.101
93.800	-23.777	0.101
93.900	-30.924	0.101
94.000	-16.697	0.101
94.100	-17.894	0.101
94.200	-20.785	0.101
94.300	-14.294	0.101
94.400	-5.528	0.101
94.500	-17.891	0.101
94.600	-13.229	0.101
94.700	-21.718	0.101
94.800	-15.962	0.101
94.900	-12.801	0.101
95.000	-21.914	0.101
95.100	-32.081	0.101
95.200	-15.945	0.101
95.300	-12.936	0.101
95.400	-16.662	0.101
95.500	-21.270	0.101
95.600	-24.522	0.101
95.700	-19.312	0.101
95.800	-22.517	0.101
95.900	-25.317	0.101
96.000	-13.997	0.101
96.100	-22.121	0.101
96.200	-17.849	0.101
96.300	-28.776	0.101
96.400	-24.832	0.101
96.500	-18.872	0.101
96.600	-15.740	0.101
96.700	-19.252	0.101
96.800	-25.171	0.101
96.900	-24.712	0.101
97.000	-17.282	0.101
97.100	-16.059	0.101
97.200	-10.956	0.101
97.300	-23.194	0.101
97.400	-24.588	0.101
97.500	-29.194	0.101
97.600	-17.115	0.101
97.700	-17.281	0.101
97.800	-11.885	0.101
97.900	-23.926	0.101
98.000	-7.917	0.101
98.100	-13.176	0.101
98.200	-32.369	0.101
98.300	-24.640	0.101
98.400	-20.320	0.101
98.500	-20.243	0.101
98.600	-11.474	0.101
98.700	-27.675	0.101
98.800	-16.116	0.101
98.900	-10.868	0.101
99.000	-18.306	0.101
99.100	-23.960	0.101
99.200	-19.350	0.101
99.300	-22.645	0.101
99.400	-12.596	0.101
99.500	-18.638	0.101
99.600	-26.867	0.101
99.700	-14.879	0.101
99.800	-14.939	0.101
99.900	-14.517	0.101
100.000	-8.256	0.101
100.100	-17.301	0.101
100.200	-17.598	0.101
100.300	-14.313	0.101
100.400	-9.144	0.101
100.500	-30.312	0.101
100.600	-14.619	0.101
100.700	-17.691	0.101
100.800	-14.712	0.101
100.900	-16.410	0.101
101.000	-15.958	0.101
101.100	-1.400	0.101
101.200	-9.103	0.101
101.300	-20.449	0.101
101.400	-14.113	0.101
101.500	-14.912	0.101
101.600	-12.804	0.101
101.700	-10.197	0.101
101.800	-18.085	0.101
101.900	-9.310	0.101
102.000	-7.126	0.101
102.100	-14.036	0.101
102.200	-17.149	0.101
102.300	-19.136	0.101
102.400	0.676	0.101
102.500	-21.165	0.101
102.600	-11.906	0.101
102.700	-10.432	0.101
102.800	-18.210	0.101
102.900	-9.574	0.101
103.000	-11.458	0.101
103.100	-13.064	0.101
103.200	-18.176	0.101
103.300	-25.200	0.101
103.400	-7.969	0.101
103.500	-20.251	0.101
103.600	-29.025	0.101
103.700	-8.808	0.101
103.800	-14.180	0.101
103.900	-10.877	0.101
104.000	-16.524	0.101
104.100	-4.466	0.101
104.200	-19.714	0.101
104.300	-13.393	0.101
104.400	-9.173	0.101
104.500	-13.020	0.101
104.600	-22.599	0.101
104.700	-18.345	0.101
104.800	-8.748	0.101
104.900	-13.171	0.101
105.000	-19.889	0.101
105.100	-20.737	0.101
105.200	-6.928	0.101
105.300	-21.458	0.101
105.400	-5.425	0.101
105.500	-6.144	0.101
105.600	-11.912	0.101
105.700	-8.564	0.101
105.800	-14.238	0.101
105.900	-18.593	0.101
106.000	-15.925	0.101
106.100	-5.100	0.101
106.200	-12.853	0.101
106.300	-11.323	0.101
106.400	-11.870	0.101
106.500	-4.696	0.101
106.600	1.675	0.101
106.700	-11.627	0.101
106.800	-19.531	0.101
106.900	-14.017	0.101
107.000	-13.399	0.101
107.100	-10.270	0.101
107.200	-23.048	0.101
107.300	-17.771	0.101
107.400	-6.590	0.101
107.500	-9.315	0.101
107.600	-6.427	0.101
107.700	-2.878	0.101
107.800	-9.297	0.101
107.900	-13.181	0.101
108.000	-10.666	0.101
108.100	-18.221	0.101
108.200	-16.614	0.101
108.300	2.680	0.101
108.400	-8.483	0.101
108.500	-5.571	0.101
108.600	-12.388	0.101
108.700	-14.479	0.101
108.800	-20.334	0.101
108.900	-17.359	0.101
109.000	-19.242	0.101
109.100	-18.854	0.101
109.200	-8.018	0.101
109.300	-13.843	0.101
109.400	-7.664	0.101
109.500	-9.339	0.101
109.600	-17.790	0.101
109.700	-13.565	0.101
109.800	-9.092	0.101
109.900	-12.414	0.101
110.000	-8.520	0.101
110.100	-8.311	0.101
110.200	-20.181	0.101
110.300	-12.014	0.101
110.400	-21.177	0.101
110.500	-23.495	0.101
110.600	-3.950	0.101
110.700	-9.181	0.101
110.800	-8.448	0.101
110.900	-15.750	0.101
111.000	-11.838	0.101
111.100	-21.259	0.101
111.200	-0.729	0.101
111.300	-15.306	0.101
111.400	-23.398	0.101
111.500	-9.704	0.101
111.600	-11.480	0.101
111.700	-10.071	0.101
111.800	-5.972	0.101
111.900	-9.422	0.101
112.000	-23.648	0.101
112.100	-14.229	0.101
112.200	-11.131	0.101
112.300	-16.116	0.101
112.400	-9.270	0.101
112.500	-1.437	0.101
112.600	-17.267	0.101
112.700	-22.350	0.101
112.800	-10.910	0.101
112.900	-5.446	0.101
113.000	-11.290	0.101
113.100	-13.608	0.101
113.200	-20.886	0.101
113.300	-7.214	0.101
113.400	-6.403	0.101
113.500	-7.924	0.101
113.600	-15.889	0.101
113.700	-9.790	0.101
113.800	-10.011	0.101
113.900	-15.564	0.101
114.000	-20.383	0.101
114.100	-16.929	0.101
114.200	-13.086	0.101
114.300	-10.599	0.101
114.400	-17.539	0.101
114.500	-12.503	0.101
114.600	-12.617	0.101
114.700	-11.895	0.101
114.800	-1.773	0.101
114.900	-15.934	0.101
115.000	-18.641	0.101
115.100	-25.238	0.101
115.200	-11.793	0.101
115.300	-18.263	0.101
115.400	-4.381	0.101
115.500	-2.829	0.101
115.600	-6.935	0.101
115.700	-19.441	0.101
115.800	-17.588	0.101
115.900	-9.060	0.101
116.000	-18.695	0.101
116.100	-14.699	0.101
116.200	-14.759	0.101
116.300	-19.165	0.101
116.400	-15.296	0.101
116.500	-4.713	0.101
116.600	-14.538	0.101
116.700	-11.196	0.101
116.800	-7.762	0.101
116.900	-13.876	0.101
117.000	-16.909	0.101
117.100	-10.944	0.101
117.200	-8.017	0.101
117.300	-18.798	0.101
117.400	-10.042	0.101
117.500	-21.466	0.101
117.600	-7.169	0.101
117.700	-8.296	0.101
117.800	-14.562	0.101
117.900	-11.409	0.101
118.000	-6.191	0.101
118.100	-6.429	0.101
118.200	-21.570	0.101
118.300	-20.944	0.101
118.400	-18.836	0.101
118.500	-21.659	0.101
118.600	-4.655	0.101
118.700	-18.022	0.101
118.800	-16.653	0.101
118.900	-17.138	0.101
119.000	-12.864	0.101
119.100	-11.730	0.101
119.200	-2.943	0.101
119.300	-10.158	0.101
119.400	-13.660	0.101
119.500	-12.849	0.101
119.600	-14.735	0.101
119.700	-5.687	0.101
119.800	-17.436	0.101
119.900	-19.005	0.101
120.000	-17.000	0.101
120.100	-21.370	0.101
120.200	-13.314	0.101
120.300	-14.664	0.101
120.400	-13.361	0.101
120.500	-11.441	0.101
120.600	-14.792	0.101
120.700	-18.766	0.101
120.800	-6.714	0.101
120.900	-14.540	0.101
121.000	-6.521	0.101
121.100	-22.993	0.101
121.200	-15.008	0.101
121.300	-19.838	0.101
121.400	-6.568	0.101
121.500	-11.542	0.101
121.600	-13.447	0.101
121.700	-7.069	0.101
121.800	-18.277	0.101
121.900	-20.828	0.101
122.000	-8.607	0.101
122.100	-9.447	0.101
122.200	-7.087	0.101
122.300	-10.849	0.101
122.400	-17.104	0.101
122.500	-16.984	0.101
122.600	-14.107	0.101
122.700	-15.190	0.101
122.800	-22.745	0.101
122.900	-15.285	0.101
123.000	-7.868	0.101
123.100	-11.926	0.101
123.200	-11.113	0.101
123.300	-14.820	0.101
123.400	-23.416	0.101
123.500	-27.383	0.101
123.600	-18.088	0.101
123.700	-7.330	0.101
123.800	-16.984	0.101
123.900	-26.722	0.101
124.000	-9.261	0.101
124.100	-10.625	0.101
124.200	-21.362	0.101
124.300	-3.196	0.101
124.400	-7.029	0.101
124.500	-15.253	0.101
124.600	-11.276	0.101
124.700	-13.961	0.101
124.800	-2.635	0.101
124.900	-14.870	0.101
125.000	-17.565	0.101
125.100	-8.211	0.101
125.200	-19.406	0.101
125.300	-12.174	0.101
125.400	-7.520	0.101
125.500	-13.114	0.101
125.600	-14.220	0.101
125.700	-14.548	0.101
125.800	-28.999	0.101
125.900	-18.224	0.101
126.000	-16.454	0.101
126.100	-24.490	0.101
126.200	-15.754	0.101
126.300	-7.042	0.101
126.400	-20.970	0.101
126.500	-7.155	0.101
126.600	-11.103	0.101
126.700	-11.334	0.101
126.800	-15.870	0.101
126.900	-21.501	0.101
127.000	-17.807	0.101
127.100	-16.199	0.101
127.200	-20.613	0.101
127.300	-19.550	0.101
127.400	-15.111	0.101
127.500	-16.206	0.101
127.600	-19.547	0.101
127.700	-29.885	0.101
127.800	-17.858	0.101
127.900	-14.553	0.101
128.000	-7.006	0.101
128.100	-9.935	0.101
128.200	-26.620	0.101
128.300	-15.551	0.101
128.400	-21.248	0.101
128.500	-7.998	0.101
128.600	-15.230	0.101
128.700	-15.329	0.101
128.800	-21.929	0.101
128.900	-20.069	0.101
129.000	-21.273	0.101
129.100	-14.534	0.101
129.200	-21.327	0.101
129.300	-11.326	0.101
129.400	-10.303	0.101
129.500	-13.368	0.101
129.600	-13.699	0.101
129.700	-10.348	0.101
129.800	-19.219	0.101
129.900	-22.226	0.101
130.000	-19.479	0.101
130.100	-26.775	0.101
130.200	-10.404	0.101
130.300	-9.380	0.101
130.400	-22.000	0.101
130.500	-24.307	0.101
130.600	-21.814	0.101
130.700	-11.319	0.101
130.800	-17.795	0.101
130.900	-18.781	0.101
131.000	-12.343	0.101
131.100	-17.278	0.101
131.200	-23.477	0.101
131.300	-6.291	0.101
131.400	-12.474	0.101
131.500	-17.633	0.101
131.600	-24.640	0.101
131.700	-20.908	0.101
131.800	-26.293	0.101
131.900	-16.654	0.101
132.000	-17.529	0.101
132.100	-10.745	0.101
132.200	-16.844	0.101
132.300	-11.962	0.101
132.400	-15.110	0.101
132.500	-11.741	0.101
132.600	-13.919	0.101
132.700	-13.710	0.101
132.800	-6.842	0.101
132.900	-12.570	0.101
133.000	-17.388	0.101
133.100	-19.138	0.101
133.200	-10.828	0.101
133.300	-15.562	0.101
133.400	-5.955	0.101
133.500	-16.780	0.101
133.600	-15.354	0.101
133.700	-16.321	0.101
133.800	-17.009	0.101
133.900	-14.377	0.101
134.000	-12.478	0.101
134.100	-11.392	0.101
134.200	-7.418	0.101
134.300	-11.779	0.101
134.400	-14.139	0.101
134.500	-5.976	0.101
134.600	-19.873	0.101
134.700	-16.870	0.101
134.800	-19.625	0.101
134.900	-26.203	0.101
135.000	-26.477	0.101
135.100	-32.531	0.101
135.200	-11.399	0.101
135.300	-17.875	0.101
135.400	-12.026	0.101
135.500	-16.223	0.101
135.600	-7.331	0.101
135.700	-16.267	0.101
135.800	-15.462	0.101
135.900	-16.023	0.101
136.000	-11.543	0.101
136.100	-11.810	0.101
136.200	-27.462	0.101
136.300	-6.652	0.101
136.400	-10.544	0.101
136.500	-12.416	0.101
136.600	-25.594	0.101
136.700	-30.431	0.101
136.800	-19.348	0.101
136.900	-14.663	0.101
137.000	-19.452	0.101
137.100	-13.411	0.101
137.200	-13.329	0.101
137.300	-11.321	0.101
137.400	-12.032	0.101
137.500	-12.551	0.101
137.600	-21.887	0.101
137.700	-18.061	0.101
137.800	-16.197	0.101
137.900	-19.405	0.101
138.000	-15.384	0.101
138.100	-11.896	0.101
138.200	-9.520	0.101
138.300	-8.526	0.101
138.400	-19.050	0.101
138.500	-18.683	0.101
138.600	-13.250	0.101
138.700	-16.232	0.101
138.800	-5.928	0.101
138.900	-10.261	0.101
139.000	-11.012	0.101
139.100	-17.478	0.101
139.200	-18.178	0.101
139.300	-10.961	0.101
139.400	-19.230	0.101
139.500	-8.698	0.101
139.600	-13.037	0.101
139.700	-18.184	0.101
139.800	-12.346	0.101
139.900	-18.213	0.101
140.000	-19.621	0.101
140.100	-22.059	0.101
140.200	-14.495	0.101
140.300	-23.114	0.101
140.400	-9.925	0.101
140.500	-14.456	0.101
140.600	-9.936	0.101
140.700	-15.489	0.101
140.800	-7.714	0.101
140.900	-21.740	0.101
141.000	-16.987	0.101
141.100	-24.282	0.101
141.200	-9.724	0.101
141.300	-14.899	0.101
141.400	-7.470	0.101
141.500	-1.542	0.101
141.600	-18.646	0.101
141.700	-23.378	0.101
141.800	-27.320	0.101
141.900	-18.211	0.101
142.000	4.044	0.101
142.100	-11.467	0.101
142.200	-10.615	0.101
142.300	-14.404	0.101
142.400	-18.492	0.101
142.500	-9.424	0.101
142.600	-10.699	0.101
142.700	-13.735	0.101
142.800	-10.692	0.101
142.900	-12.969	0.101
143.000	-18.158	0.101
143.100	-20.415	0.101
143.200	-14.698	0.101
143.300	-24.910	0.101
143.400	-25.191	0.101
143.500	-13.717	0.101
143.600	-22.465	0.101
143.700	-8.927	0.101
143.800	-11.728	0.101
143.900	-19.956	0.101
144.000	-23.737	0.101
144.100	-8.379	0.101
144.200	-8.798	0.101
144.300	-8.882	0.101
144.400	-20.039	0.101
144.500	-10.107	0.101
144.600	-20.298	0.101
144.700	-19.283	0.101
144.800	-8.836	0.101
144.900	-12.845	0.101
145.000	-8.832	0.101
145.100	-20.447	0.101
145.200	-13.846	0.101
145.300	-24.348	0.101
145.400	-25.281	0.101
145.500	-18.663	0.101
145.600	-9.214	0.101
145.700	-11.202	0.101
145.800	-15.712	0.101
145.900	-18.282	0.101
146.000	-11.896	0.101
146.100	-15.068	0.101
146.200	-27.496	0.101
146.300	-15.129	0.101
146.400	-8.032	0.101
146.500	-8.420	0.101
146.600	-11.312	0.101
146.700	-9.796	0.101
146.800	-17.658	0.101
146.900	-8.870	0.101
147.000	-20.069	0.101
147.100	-19.833	0.101
147.200	-11.021	0.101
147.300	-17.190	0.101
147.400	-17.176	0.101
147.500	-12.762	0.101
147.600	-27.344	0.101
147.700	-14.434	0.101
147.800	-16.057	0.101
147.900	-23.291	0.101
148.000	-27.086	0.101
148.100	-18.680	0.101
148.200	-11.058	0.101
148.300	-20.123	0.101
148.400	-4.856	0.101
148.500	-15.937	0.101
148.600	-21.118	0.101
148.700	-16.216	0.101
148.800	-20.263	0.101
148.900	-4.487	0.101
149.000	-8.973	0.101
149.100	-5.058	0.101
149.200	-13.260	0.101
149.300	-16.023	0.101
149.400	-17.150	0.101
149.500	-17.098	0.101
149.600	-20.600	0.101
149.700	-9.318	0.101
149.800	-14.393	0.101
149.900	-22.528	0.101
150.000	-12.634	0.101
150.100	-13.888	0.101
150.200	-15.905	0.101
150.300	-19.125	0.101
150.400	-18.589	0.101
150.500	-8.125	0.101
150.600	-15.258	0.101
150.700	-20.744	0.101
150.800	-13.468	0.101
150.900	-8.490	0.101
151.000	-23.648	0.101
151.100	-19.315	0.101
151.200	-15.537	0.101
151.300	-11.139	0.101
151.400	-14.209	0.101
151.500	-16.400	0.101
151.600	-12.621	0.101
151.700	-10.961	0.101
151.800	-22.103	0.101
151.900	-24.365	0.101
152.000	-19.436	0.101
152.100	-22.451	0.101
152.200	-7.108	0.101
152.300	-18.077	0.101
152.400	-12.636	0.101
152.500	-9.567	0.101
152.600	-7.257	0.101
152.700	-4.639	0.101
152.800	-22.312	0.101
152.900	7.055	0.101
153.000	-12.944	0.101
153.100	-16.467	0.101
153.200	-16.150	0.101
153.300	-16.438	0.101
153.400	-16.769	0.101
153.500	-14.120	0.101
153.600	-6.179	0.101
153.700	-11.373	0.101
153.800	-4.519	0.101
153.900	-12.180	0.101
154.000	-16.654	0.101
154.100	-22.639	0.101
154.200	-20.382	0.101
154.300	-13.836	0.101
154.400	-23.487	0.101
154.500	-22.688	0.101
154.600	-25.561	0.101
154.700	-18.443	0.101
154.800	1.893	0.101
154.900	-9.947	0.101
155.000	-9.877	0.101
155.100	-9.791	0.101
155.200	-15.857	0.101
155.300	-9.155	0.101
155.400	-13.495	0.101
155.500	-15.334	0.101
155.600	-14.625	0.101
155.700	-15.909	0.101
155.800	-9.273	0.101
155.900	-18.179	0.101
156.000	-12.656	0.101
156.100	-15.527	0.101
156.200	-16.397	0.101
156.300	-15.043	0.101
156.400	-9.858	0.101
156.500	-12.021	0.101
156.600	-12.581	0.101
156.700	-17.652	0.101
156.800	-21.271	0.101
156.900	-11.381	0.101
157.000	-9.068	0.101
157.100	-6.777	0.101
157.200	-9.765	0.101
157.300	-13.367	0.101
157.400	-6.327	0.101
157.500	-0.654	0.101
157.600	-20.198	0.101
157.700	-16.475	0.101
157.800	-17.396	0.101
157.900	-20.783	0.101
158.000	-23.872	0.101
158.100	-17.229	0.101
158.200	-3.634	0.101
158.300	-13.271	0.101
158.400	-4.580	0.101
158.500	-27.292	0.101
158.600	-16.927	0.101
158.700	-20.616	0.101
158.800	-18.207	0.101
158.900	-12.502	0.101
159.000	-10.767	0.101
159.100	-19.178	0.101
159.200	-14.115	0.101
159.300	-12.893	0.101
159.400	-8.672	0.101
159.500	-15.173	0.101
159.600	-18.194	0.101
159.700	-12.888	0.101
159.800	-20.723	0.101
159.900	-14.552	0.101
160.000	-5.334	0.101
160.100	-3.801	0.101
160.200	-11.671	0.101
160.300	-11.760	0.101
160.400	-11.595	0.101
160.500	-12.006	0.101
160.600	-10.116	0.101
160.700	-13.112	0.101
160.800	-24.659	0.101
160.900	-22.312	0.101
161.000	-9.755	0.101
161.100	-15.515	0.101
161.200	-5.200	0.101
161.300	-14.248	0.101
161.400	-0.386	0.101
161.500	-10.037	0.101
161.600	-14.353	0.101
161.700	-19.315	0.101
161.800	3.621	0.101
161.900	-19.907	0.101
162.000	-24.288	0.101
162.100	-10.446	0.101
162.200	-14.402	0.101
162.300	-15.797	0.101
162.400	-5.951	0.101
162.500	-15.941	0.101
162.600	-18.964	0.101
162.700	-20.946	0.101
162.800	-8.233	0.101
162.900	-9.790	0.101
163.000	-12.840	0.101
163.100	-3.148	0.101
163.200	-10.969	0.101
163.300	-13.655	0.101
163.400	-15.431	0.101
163.500	-22.048	0.101
163.600	-15.880	0.101
163.700	-13.901	0.101
163.800	-14.588	0.101
163.900	-12.393	0.101
164.000	-1.800	0.101
164.100	-12.841	0.101
164.200	-8.609	0.101
164.300	-10.267	0.101
164.400	-28.390	0.101
164.500	-16.119	0.101
164.600	-13.923	0.101
164.700	-8.799	0.101
164.800	-7.114	0.101
164.900	-7.877	0.101
165.000	-19.116	0.101
165.100	-17.909	0.101
165.200	-2.065	0.101
165.300	-10.527	0.101
165.400	-9.964	0.101
165.500	-13.035	0.101
165.600	-10.576	0.101
165.700	-3.596	0.101
165.800	-9.813	0.101
165.900	-17.949	0.101
166.000	-3.194	0.101
166.100	-10.021	0.101
166.200	-14.267	0.101
166.300	-24.239	0.101
166.400	-15.710	0.101
166.500	-14.326	0.101
166.600	-15.161	0.101
166.700	-9.086	0.101
166.800	-9.224	0.101
166.900	-23.142	0.101
167.000	-23.855	0.101
167.100	-10.285	0.101
167.200	-23.160	0.101
167.300	-10.786	0.101
167.400	2.406	0.101
167.500	-20.216	0.101
167.600	-20.511	0.101
167.700	-16.326	0.101
167.800	-22.757	0.101
167.900	-8.356	0.101
168.000	-11.693	0.101
168.100	-13.956	0.101
168.200	-8.333	0.101
168.300	-23.239	0.101
168.400	-20.421	0.101
168.500	-13.515	0.101
168.600	-8.595	0.101
168.700	-20.878	0.101
168.800	-13.844	0.101
168.900	-21.390	0.101
169.000	-15.049	0.101
169.100	-2.082	0.101
169.200	-16.447	0.101
169.300	-14.123	0.101
169.400	-4.587	0.101
169.500	-9.516	0.101
169.600	-10.853	0.101
169.700	-9.601	0.101
169.800	-17.181	0.101
169.900	-12.708	0.101
170.000	-15.472	0.101
170.100	-15.831	0.101
170.200	-12.409	0.101
170.300	-10.156	0.101
170.400	-12.902	0.101
170.500	-10.220	0.101
170.600	-13.649	0.101
170.700	-15.712	0.101
170.800	-15.974	0.101
170.900	-19.806	0.101
171.000	-18.894	0.101
171.100	-6.195	0.101
171.200	-8.298	0.101
171.300	-4.458	0.101
171.400	-6.429	0.101
171.500	-5.449	0.101
171.600	-14.168	0.101
171.700	-21.736	0.101
171.800	-20.239	0.101
171.900	-19.667	0.101
172.000	-15.576	0.101
172.100	-8.429	0.101
172.200	-5.058	0.101
172.300	-19.869	0.101
172.400	-8.654	0.101
172.500	-21.173	0.101
172.600	-9.536	0.101
172.700	-12.307	0.101
172.800	-9.841	0.101
172.900	-7.564	0.101
173.000	-19.941	0.101
173.100	-5.468	0.101
173.200	-14.519	0.101
173.300	-7.818	0.101
173.400	-9.751	0.101
173.500	-8.525	0.101
173.600	-26.223	0.101
173.700	-6.608	0.101
173.800	0.328	0.101
173.900	-18.165	0.101
174.000	-25.669	0.101
174.100	-8.071	0.101
174.200	-8.475	0.101
174.300	-7.879	0.101
174.400	-21.999	0.101
174.500	-5.551	0.101
174.600	-6.689	0.101
174.700	-17.459	0.101
174.800	-15.182	0.101
174.900	-6.075	0.101
175.000	-17.273	0.101
175.100	-12.228	0.101
175.200	-2.879	0.101
175.300	-18.552	0.101
175.400	-16.509	0.101
175.500	-10.246	0.101
175.600	-5.595	0.101
175.700	-21.763	0.101
175.800	-4.142	0.101
175.900	-10.607	0.101
176.000	-13.312	0.101
176.100	-3.805	0.101
176.200	-6.068	0.101
176.300	-7.244	0.101
176.400	-7.843	0.101
176.500	-23.114	0.101
176.600	-16.966	0.101
176.700	-11.205	0.101
176.800	-9.516	0.101
176.900	-4.979	0.101
177.000	-8.175	0.101
177.100	-14.886	0.101
177.200	-11.899	0.101
177.300	-35.220	0.101
177.400	-18.870	0.101
177.500	-0.774	0.101
177.600	-12.456	0.101
177.700	-8.954	0.101
177.800	-9.540	0.101
177.900	-8.419	0.101
178.000	-8.424	0.101
178.100	-27.078	0.101
178.200	-19.174	0.101
178.300	-9.185	0.101
178.400	-14.661	0.101
178.500	-8.685	0.101
178.600	-13.186	0.101
178.700	-11.669	0.101
178.800	-17.607	0.101
178.900	-7.837	0.101
179.000	2.985	0.101
179.100	-24.489	0.101
179.200	-17.128	0.101
179.300	-12.551	0.101
179.400	-11.911	0.101
179.500	-11.770	0.101
179.600	-9.427	0.101
179.700	-8.643	0.101
179.800	-18.060	0.101
179.900	-6.356	0.101
180.000	-7.821	0.101
180.100	-6.388	0.101
180.200	-18.514	0.101
180.300	-6.918	0.101
180.400	-0.014	0.101
180.500	2.996	0.101
180.600	0.621	0.101
180.700	-2.074	0.101
180.800	4.589	0.101
180.900	7.986	0.101
181.000	-0.416	0.101
181.100	-5.616	0.101
181.200	2.578	0.101
181.300	12.428	0.101
181.400	-1.593	0.101
181.500	9.495	0.101
181.600	-0.861	0.101
181.700	-3.947	0.101
181.800	-0.067	0.101
181.900	17.923	0.101
182.000	16.786	0.101
182.100	3.676	0.101
182.200	12.634	0.101
182.300	6.834	0.101
182.400	16.849	0.101
182.500	29.187	0.101
182.600	10.327	0.101
182.700	21.499	0.101
182.800	16.655	0.101
182.900	10.543	0.101
183.000	24.573	0.101
183.100	13.027	0.101
183.200	21.406	0.101
183.300	19.107	0.101
183.400	13.022	0.101
183.500	18.314	0.101
183.600	27.944	0.101
183.700	13.139	0.101
183.800	16.524	0.101
183.900	10.544	0.101
184.000	11.808	0.101
184.100	25.171	0.101
184.200	28.225	0.101
184.300	14.886	0.101
184.400	15.206	0.101
184.500	4.844	0.101
184.600	20.210	0.101
184.700	15.543	0.101
184.800	19.822	0.101
184.900	13.486	0.101
185.000	13.116	0.101
185.100	9.485	0.101
185.200	5.863	0.101
185.300	22.072	0.101
185.400	22.131	0.101
185.500	21.749	0.101
185.600	13.388	0.101
185.700	10.161	0.101
185.800	12.371	0.101
185.900	17.712	0.101
186.000	14.590	0.101
186.100	15.714	0.101
186.200	16.720	0.101
186.300	4.486	0.101
186.400	24.443	0.101
186.500	14.457	0.101
186.600	26.616	0.101
186.700	21.336	0.101
186.800	24.977	0.101
186.900	5.333	0.101
187.000	8.531	0.101
187.100	15.543	0.101
187.200	11.080	0.101
187.300	28.659	0.101
187.400	17.206	0.101
187.500	16.938	0.101
187.600	13.510	0.101
187.700	18.915	0.101
187.800	8.107	0.101
187.900	16.964	0.101
188.000	24.050	0.101
188.100	19.878	0.101
188.200	17.386	0.101
188.300	26.079	0.101
188.400	8.967	0.101
188.500	27.251	0.101
188.600	26.211	0.101
188.700	19.596	0.101
188.800	37.032	0.101
188.900	27.718	0.101
189.000	24.984	0.101
189.100	20.547	0.101
189.200	36.135	0.101
189.300	29.386	0.101
189.400	19.516	0.101
189.500	20.165	0.101
189.600	17.882	0.101
189.700	29.136	0.101
189.800	25.550	0.101
189.900	15.272	0.101
190.000	21.620	0.101
190.100	19.050	0.101
190.200	27.742	0.101
190.300	34.870	0.101
190.400	38.650	0.101
190.500	24.889	0.101
190.600	19.757	0.101
190.700	24.834	0.101
190.800	28.418	0.101
190.900	28.593	0.101
191.000	35.539	0.101
191.100	34.256	0.101
191.200	23.685	0.101
191.300	21.473	0.101
191.400	37.420	0.101
191.500	27.039	0.101
191.600	29.674	0.101
191.700	38.923	0.101
191.800	26.561	0.101
191.900	24.851	0.101
192.000	35.029	0.101
192.100	30.411	0.101
192.200	29.263	0.101
192.300	22.920	0.101
192.400	36.940	0.101
192.500	37.299	0.101
192.600	34.383	0.101
192.700	24.091	0.101
192.800	39.760	0.101
192.900	49.094	0.101
193.000	50.165	0.101
193.100	26.626	0.101
193.200	31.984	0.101
193.300	42.683	0.101
193.400	27.836	0.101
193.500	38.722	0.101
193.600	42.684	0.101
193.700	27.348	0.101
193.800	35.968	0.101
193.900	37.368	0.101
194.000	43.609	0.101
194.100	28.705	0.101
194.200	38.958	0.101
194.300	38.231	0.101
194.400	38.119	0.101
194.500	39.459	0.101
194.600	40.450	0.101
194.700	31.070	0.101
194.800	34.297	0.101
194.900	43.666	0.101
195.000	44.989	0.101
195.100	40.940	0.101
195.200	50.694	0.101
195.300	40.389	0.101
195.400	46.217	0.101
195.500	49.258	0.101
195.600	27.604	0.101
195.700	41.476	0.101
195.800	25.765	0.101
195.900	38.735	0.101
196.000	44.463	0.101
196.100	33.447	0.101
196.200	35.190	0.101
196.300	38.086	0.101
196.400	46.711	0.101
196.500	35.502	0.101
196.600	41.326	0.101
196.700	42.143	0.101
196.800	39.819	0.101
196.900	45.318	0.101
197.000	53.879	0.101
197.100	35.181	0.101
197.200	35.411	0.101
197.300	33.910	0.101
197.400	38.854	0.101
197.500	36.639	0.101
197.600	39.266	0.101
197.700	49.335	0.101
197.800	42.160	0.101
197.900	40.427	0.101
198.000	40.255	0.101
198.100	55.539	0.101
198.200	41.618	0.101
198.300	35.071	0.101
198.400	36.381	0.101
198.500	38.374	0.101
198.600	41.911	0.101
198.700	41.301	0.101
198.800	38.912	0.101
198.900	35.974	0.101
199.000	34.743	0.101
199.100	36.280	0.101
199.200	39.331	0.101
199.300	49.328	0.101
199.400	39.561	0.101
199.500	51.661	0.101
199.600	33.319	0.101
199.700	49.549	0.101
199.800	30.303	0.101
199.900	41.213	0.101
200.000	45.384	0.101
200.100	36.068	0.101
200.200	32.461	0.101
200.300	39.468	0.101
200.400	41.212	0.101
200.500	55.371	0.101
200.600	41.331	0.101
200.700	36.732	0.101
200.800	46.154	0.101
200.900	46.611	0.101
201.000	45.447	0.101
201.100	39.309	0.101
201.200	45.916	0.101
201.300	38.611	0.101
201.400	42.283	0.101
201.500	39.876	0.101
201.600	39.811	0.101
201.700	35.876	0.101
201.800	40.384	0.101
201.900	44.692	0.101
202.000	36.443	0.101
202.100	44.960	0.101
202.200	47.454	0.101
202.300	40.115	0.101
202.400	38.223	0.101
202.500	27.610	0.101
202.600	40.522	0.101
202.700	39.933	0.101
202.800	32.112	0.101
202.900	37.852	0.101
203.000	45.808	0.101
203.100	26.389	0.101
203.200	31.924	0.101
203.300	37.198	0.101
203.400	32.225	0.101
203.500	48.299	0.101
203.600	39.843	0.101
203.700	41.073	0.101
203.800	26.985	0.101
203.900	43.557	0.101
204.000	39.882	0.101
204.100	42.205	0.101
204.200	38.135	0.101
204.300	42.781	0.101
204.400	37.257	0.101
204.500	32.938	0.101
204.600	34.982	0.101
204.700	39.202	0.101
204.800	37.249	0.101
204.900	45.421	0.101
205.000	32.622	0.101
205.100	30.596	0.101
205.200	38.026	0.101
205.300	50.237	0.101
205.400	41.079	0.101
205.500	38.592	0.101
205.600	42.014	0.101
205.700	33.668	0.101
205.800	29.206	0.101
205.900	35.922	0.101
206.000	44.022	0.101
206.100	42.483	0.101
206.200	35.043	0.101
206.300	40.300	0.101
206.400	37.240	0.101
206.500	31.070	0.101
206.600	31.013	0.101
206.700	40.501	0.101
206.800	41.394	0.101
206.900	47.218	0.101
207.000	32.781	0.101
207.100	38.402	0.101
207.200	41.694	0.101
207.300	26.143	0.101
207.400	34.404	0.101
207.500	35.319	0.101
207.600	36.811	0.101
207.700	25.597	0.101
207.800	30.663	0.101
207.900	26.572	0.101
208.000	36.629	0.101
208.100	42.247	0.101
208.200	34.438	0.101
208.300	46.226	0.101
208.400	39.760	0.101
208.500	37.489	0.101
208.600	32.068	0.101
208.700	40.771	0.101
208.800	38.300	0.101
208.900	34.704	0.101
209.000	24.985	0.101
209.100	30.853	0.101
209.200	36.753	0.101
209.300	44.195	0.101
209.400	34.947	0.101
209.500	30.239	0.101
209.600	43.063	0.101
209.700	41.138	0.101
209.800	36.477	0.101
209.900	39.228	0.101
210.000	18.495	0.101
210.100	25.468	0.101
210.200	30.003	0.101
210.300	39.636	0.101
210.400	41.900	0.101
210.500	35.866	0.101
210.600	24.833	0.101
210.700	32.443	0.101
210.800	40.637	0.101
210.900	35.548	0.101
211.000	30.170	0.101
211.100	33.835	0.101
211.200	28.922	0.101
211.300	42.897	0.101
211.400	39.758	0.101
211.500	37.254	0.101
211.600	39.511	0.101
211.700	39.287	0.101
211.800	27.538	0.101
211.900	40.476	0.101
212.000	33.271	0.101
212.100	26.418	0.101
212.200	27.072	0.101
212.300	32.506	0.101
212.400	40.594	0.101
212.500	34.834	0.101
212.600	44.604	0.101
212.700	36.029	0.101
212.800	40.496	0.101
212.900	26.530	0.101
213.000	31.537	0.101
213.100	41.195	0.101
213.200	35.146	0.101
213.300	43.829	0.101
213.400	44.631	0.101
213.500	34.500	0.101
213.600	32.970	0.101
213.700	35.933	0.101
213.800	49.091	0.101
213.900	41.477	0.101
214.000	28.924	0.101
214.100	35.144	0.101
214.200	38.521	0.101
214.300	31.282	0.101
214.400	26.203	0.101
214.500	30.211	0.101
214.600	39.234	0.101
214.700	43.240	0.101
214.800	35.892	0.101
214.900	42.428	0.101
215.000	36.673	0.101
215.100	32.691	0.101
215.200	28.048	0.101
215.300	29.736	0.101
215.400	37.448	0.101
215.500	34.338	0.101
215.600	28.896	0.101
215.700	28.795	0.101
215.800	41.429	0.101
215.900	38.136	0.101
216.000	38.970	0.101
216.100	40.321	0.101
216.200	47.196	0.101
216.300	28.382	0.101
216.400	30.413	0.101
216.500	23.132	0.101
216.600	29.035	0.101
216.700	30.899	0.101
216.800	28.892	0.101
216.900	31.358	0.101
217.000	33.073	0.101
217.100	40.602	0.101
217.200	21.826	0.101
217.300	33.811	0.101
217.400	32.679	0.101
217.500	33.827	0.101
217.600	35.587	0.101
217.700	37.931	0.101
217.800	47.459	0.101
217.900	45.945	0.101
218.000	36.524	0.101
218.100	37.738	0.101
218.200	27.874	0.101
218.300	35.540	0.101
218.400	38.895	0.101
218.500	39.076	0.101
218.600	32.195	0.101
218.700	26.993	0.101
218.800	36.080	0.101
218.900	37.619	0.101
219.000	29.965	0.101
219.100	35.509	0.101
219.200	30.086	0.101
219.300	27.809	0.101
219.400	34.253	0.101
219.500	26.458	0.101
219.600	23.374	0.101
219.700	37.216	0.101
219.800	45.921	0.101
219.900	45.030	0.101
220.000	37.094	0.101
220.100	38.745	0.101
220.200	28.506	0.101
220.300	39.291	0.101
220.400	38.836	0.101
220.500	35.319	0.101
220.600	35.391	0.101
220.700	35.193	0.101
220.800	39.930	0.101
220.900	31.415	0.101
221.000	27.177	0.101
221.100	31.556	0.101
221.200	30.923	0.101
221.300	44.666	0.101
221.400	34.782	0.101
221.500	34.307	0.101
221.600	27.128	0.101
221.700	31.459	0.101
221.800	33.961	0.101
221.900	31.795	0.101
222.000	28.800	0.101
222.100	43.905	0.101
222.200	39.267	0.101
222.300	41.178	0.101
222.400	39.277	0.101
222.500	44.155	0.101
222.600	34.581	0.101
222.700	24.761	0.101
222.800	23.488	0.101
222.900	33.109	0.101
223.000	30.193	0.101
223.100	30.229	0.101
223.200	32.188	0.101
223.300	39.257	0.101
223.400	35.280	0.101
223.500	43.882	0.101
223.600	45.708	0.101
223.700	29.869	0.101
223.800	25.565	0.101
223.900	27.019	0.101
224.000	40.232	0.101
224.100	34.433	0.101
224.200	28.865	0.101
224.300	27.990	0.101
224.400	32.899	0.101
224.500	36.483	0.101
224.600	31.646	0.101
224.700	42.746	0.101
224.800	29.651	0.101
224.900	29.954	0.101
225.000	36.632	0.101
225.100	38.842	0.101
225.200	37.270	0.101
225.300	41.666	0.101
225.400	34.299	0.101
225.500	40.988	0.101
225.600	24.865	0.101
225.700	19.339	0.101
225.800	37.348	0.101
225.900	37.006	0.101
226.000	28.474	0.101
226.100	31.408	0.101
226.200	29.892	0.101
226.300	24.103	0.101
226.400	31.122	0.101
226.500	34.884	0.101
226.600	33.079	0.101
226.700	30.306	0.101
226.800	35.530	0.101
226.900	34.487	0.101
227.000	37.532	0.101
227.100	28.608	0.101
227.200	31.210	0.101
227.300	38.721	0.101
227.400	32.137	0.101
227.500	41.727	0.101
227.600	32.695	0.101
227.700	30.427	0.101
227.800	36.964	0.101
227.900	35.470	0.101
228.000	37.301	0.101
228.100	21.719	0.101
228.200	37.054	0.101
228.300	46.282	0.101
228.400	31.627	0.101
228.500	28.953	0.101
228.600	35.640	0.101
228.700	35.871	0.101
228.800	29.407	0.101
228.900	32.519	0.101
229.000	27.288	0.101
229.100	38.651	0.101
229.200	44.935	0.101
229.300	29.224	0.101
229.400	40.607	0.101
229.500	38.785	0.101
229.600	33.708	0.101
229.700	43.402	0.101
229.800	36.642	0.101
229.900	33.203	0.101
230.000	23.236	0.101
230.100	34.936	0.101
230.200	32.500	0.101
230.300	33.178	0.101
230.400	34.479	0.101
230.500	40.490	0.101
230.600	40.159	0.101
230.700	23.356	0.101
230.800	40.029	0.101
230.900	46.315	0.101
231.000	47.453	0.101
231.100	36.194	0.101
231.200	40.379	0.101
231.300	32.254	0.101
231.400	32.275	0.101
231.500	39.404	0.101
231.600	45.780	0.101
231.700	35.347	0.101
231.800	27.417	0.101
231.900	29.921	0.101
232.000	31.967	0.101
232.100	36.496	0.101
232.200	31.791	0.101
232.300	43.501	0.101
232.400	33.298	0.101
232.500	30.757	0.101
232.600	36.123	0.101
232.700	32.872	0.101
232.800	31.959	0.101
232.900	38.521	0.101
233.000	26.814	0.101
233.100	28.690	0.101
233.200	46.824	0.101
233.300	31.028	0.101
233.400	37.016	0.101
233.500	29.841	0.101
233.600	21.212	0.101
233.700	29.558	0.101
233.800	37.618	0.101
233.900	35.405	0.101
234.000	28.283	0.101
234.100	36.699	0.101
234.200	28.563	0.101
234.300	37.066	0.101
234.400	33.913	0.101
234.500	31.854	0.101
234.600	36.446	0.101
234.700	31.469	0.101
234.800	25.198	0.101
234.900	35.879	0.101
235.000	24.084	0.101
235.100	42.257	0.101
235.200	39.857	0.101
235.300	27.475	0.101
235.400	32.002	0.101
235.500	44.775	0.101
235.600	46.913	0.101
235.700	32.604	0.101
235.800	28.029	0.101
235.900	32.894	0.101
236.000	42.243	0.101
236.100	27.574	0.101
236.200	19.932	0.101
236.300	31.534	0.101
236.400	35.068	0.101
236.500	34.797	0.101
236.600	48.750	0.101
236.700	33.517	0.101
236.800	22.409	0.101
236.900	27.973	0.101
237.000	28.015	0.101
237.100	38.962	0.101
237.200	29.818	0.101
237.300	33.615	0.101
237.400	35.893	0.101
237.500	35.745	0.101
237.600	34.092	0.101
237.700	38.934	0.101
237.800	36.422	0.101
237.900	31.802	0.101
238.000	19.876	0.101
238.100	37.874	0.101
238.200	28.571	0.101
238.300	28.637	0.101
238.400	24.245	0.101
238.500	35.303	0.101
238.600	35.381	0.101
238.700	28.938	0.101
238.800	39.703	0.101
238.900	37.203	0.101
239.000	45.055	0.101
239.100	34.097	0.101
239.200	19.809	0.101
239.300	33.700	0.101
239.400	27.953	0.101
239.500	36.354	0.101
239.600	37.207	0.101
239.700	33.439	0.101
239.800	36.863	0.101
239.900	51.327	0.101
240.000	44.264	0.101
240.100	25.283	0.101
240.200	43.713	0.101
240.300	27.500	0.101
240.400	29.364	0.101
240.500	27.692	0.101
240.600	30.536	0.101
240.700	27.395	0.101
240.800	25.158	0.101
240.900	20.594	0.101
241.000	14.273	0.101
241.100	24.521	0.101
241.200	16.548	0.101
241.300	13.233	0.101
241.400	18.343	0.101
241.500	16.268	0.101
241.600	21.524	0.101
241.700	9.365	0.101
241.800	8.514	0.101
241.900	18.981	0.101
242.000	12.268	0.101
242.100	8.762	0.101
242.200	11.604	0.101
242.300	4.121	0.101
242.400	5.140	0.101
242.500	2.106	0.101
242.600	-1.337	0.101
242.700	-3.315	0.101
242.800	0.811	0.101
242.900	-6.937	0.101
243.000	-1.342	0.101
243.100	-0.153	0.101
243.200	2.390	0.101
243.300	3.822	0.101
243.400	6.890	0.101
243.500	-3.039	0.101
243.600	-15.278	0.101
243.700	-2.414	0.101
243.800	-0.109	0.101
243.900	-5.277	0.101
244.000	-10.585	0.101
244.100	-6.249	0.101
244.200	-2.301	0.101
244.300	-10.442	0.101
244.400	-7.052	0.101
244.500	-1.434	0.101
244.600	-9.932	0.101
244.700	-12.913	0.101
244.800	1.695	0.101
244.900	-5.788	0.101
245.000	-6.104	0.101
245.100	-6.227	0.101
245.200	-9.775	0.101
245.300	-7.896	0.101
245.400	-3.411	0.101
245.500	-14.234	0.101
245.600	-3.666	0.101
245.700	-4.716	0.101
245.800	-12.638	0.101
245.900	-9.441	0.101
246.000	-8.391	0.101
246.100	-14.910	0.101
246.200	-9.054	0.101
246.300	-2.334	0.101
246.400	1.443	0.101
246.500	-20.834	0.101
246.600	-6.351	0.101
246.700	-2.776	0.101
246.800	-12.787	0.101
246.900	-18.982	0.101
247.000	-11.604	0.101
247.100	-20.536	0.101
247.200	-10.025	0.101
247.300	-6.450	0.101
247.400	-8.466	0.101
247.500	-6.712	0.101
247.600	2.674	0.101
247.700	-4.980	0.101
247.800	-4.383	0.101
247.900	-22.920	0.101
248.000	-13.369	0.101
248.100	2.436	0.101
248.200	-8.739	0.101
248.300	-17.022	0.101
248.400	-13.627	0.101
248.500	-9.077	0.101
248.600	-7.684	0.101
248.700	-7.102	0.101
248.800	-5.003	0.101
248.900	-2.616	0.101
249.000	-8.203	0.101
249.100	-12.598	0.101
249.200	-16.290	0.101
249.300	-5.900	0.101
249.400	-9.131	0.101
249.500	-9.957	0.101
249.600	-3.499	0.101
249.700	-7.904	0.101
249.800	-11.652	0.101
249.900	-0.327	0.101
250.000	-8.080	0.101
250.100	-10.903	0.101
250.200	-14.468	0.101
250.300	-9.073	0.101
250.400	-13.148	0.101
250.500	-7.344	0.101
250.600	-20.798	0.101
250.700	-17.049	0.101
250.800	-13.577	0.101
250.900	-13.230	0.101
251.000	-3.369	0.101
251.100	-3.682	0.101
251.200	-12.905	0.101
251.300	-12.284	0.101
251.400	-17.337	0.101
251.500	-8.081	0.101
251.600	1.026	0.101
251.700	-10.427	0.101
251.800	-12.719	0.101
251.900	-5.871	0.101
252.000	-9.710	0.101
252.100	-10.538	0.101
252.200	-1.716	0.101
252.300	-3.368	0.101
252.400	-11.171	0.101
252.500	-8.710	0.101
252.600	-7.108	0.101
252.700	-6.104	0.101
252.800	-15.348	0.101
252.900	-13.409	0.101
253.000	-1.505	0.101
253.100	-19.213	0.101
253.200	-3.920	0.101
253.300	10.708	0.101
253.400	-1.496	0.101
253.500	-11.076	0.101
253.600	-9.221	0.101
253.700	-22.894	0.101
253.800	-12.182	0.101
253.900	-7.296	0.101
254.000	-6.895	0.101
254.100	-14.186	0.101
254.200	-9.314	0.101
254.300	-5.174	0.101
254.400	-4.145	0.101
254.500	-9.384	0.101
254.600	-20.723	0.101
254.700	-15.291	0.101
254.800	-19.632	0.101
254.900	-23.088	0.101
255.000	-11.063	0.101
255.100	-13.081	0.101
255.200	-20.780	0.101
255.300	-10.283	0.101
255.400	-10.251	0.101
255.500	-19.982	0.101
255.600	-11.613	0.101
255.700	-6.773	0.101
255.800	-2.687	0.101
255.900	-12.244	0.101
256.000	0.064	0.101
256.100	-27.053	0.101
256.200	-28.911	0.101
256.300	-12.662	0.101
256.400	-11.187	0.101
256.500	-17.517	0.101
256.600	-8.414	0.101
256.700	-11.213	0.101
256.800	-9.026	0.101
256.900	-16.117	0.101
257.000	-15.730	0.101
257.100	-16.338	0.101
257.200	-8.888	0.101
257.300	-4.042	0.101
257.400	-9.400	0.101
257.500	-13.088	0.101
257.600	-14.110	0.101
257.700	-10.792	0.101
257.800	-19.459	0.101
257.900	-27.045	0.101
258.000	-17.602	0.101
258.100	-12.807	0.101
258.200	-12.436	0.101
258.300	-9.917	0.101
258.400	-7.641	0.101
258.500	-13.531	0.101
258.600	-11.326	0.101
258.700	-3.327	0.101
258.800	-5.229	0.101
258.900	-11.691	0.101
259.000	-16.712	0.101
259.100	-23.261	0.101
259.200	-21.878	0.101
259.300	-17.676	0.101
259.400	-16.909	0.101
259.500	-6.824	0.101
259.600	-9.022	0.101
259.700	-14.901	0.101
259.800	-24.484	0.101
259.900	-8.033	0.101
260.000	-2.732	0.101
260.100	2.105	0.101
260.200	-9.130	0.101
260.300	-8.242	0.101
260.400	-20.812	0.101
260.500	-20.362	0.101
260.600	-16.031	0.101
260.700	-1.536	0.101
260.800	-17.516	0.101
260.900	-18.734	0.101
261.000	-27.946	0.101
261.100	-12.842	0.101
261.200	-13.263	0.101
261.300	-12.228	0.101
261.400	-17.920	0.101
261.500	-4.511	0.101
261.600	-14.865	0.101
261.700	-16.040	0.101
261.800	-5.184	0.101
261.900	-18.036	0.101
262.000	-16.562	0.101
262.100	-20.457	0.101
262.200	-14.981	0.101
262.300	-24.969	0.101
262.400	-23.209	0.101
262.500	-19.910	0.101
262.600	-3.017	0.101
262.700	-11.875	0.101
262.800	-15.874	0.101
262.900	-16.702	0.101
263.000	-23.760	0.101
263.100	-17.464	0.101
263.200	-8.317	0.101
263.300	-18.389	0.101
263.400	-32.559	0.101
263.500	-11.867	0.101
263.600	-10.371	0.101
263.700	-17.835	0.101
263.800	-23.193	0.101
263.900	-20.777	0.101
264.000	-21.443	0.101
264.100	-6.656	0.101
264.200	-11.331	0.101
264.300	-18.748	0.101
264.400	-19.633	0.101
264.500	-12.036	0.101
264.600	-21.648	0.101
264.700	-24.630	0.101
264.800	-10.026	0.101
264.900	-20.405	0.101
265.000	-13.991	0.101
265.100	-10.399	0.101
265.200	-8.636	0.101
265.300	-15.352	0.101
265.400	-20.800	0.101
265.500	-21.547	0.101
265.600	-13.270	0.101
265.700	-13.136	0.101
265.800	-16.666	0.101
265.900	-19.522	0.101
266.000	-17.272	0.101
266.100	-13.558	0.101
266.200	-24.191	0.101
266.300	-17.449	0.101
266.400	-27.598	0.101
266.500	-25.788	0.101
266.600	-8.791	0.101
266.700	-20.413	0.101
266.800	-29.355	0.101
266.900	-4.990	0.101
267.000	-10.690	0.101
267.100	-19.483	0.101
267.200	-24.812	0.101
267.300	-14.068	0.101
267.400	-22.031	0.101
267.500	-16.327	0.101
267.600	-17.250	0.101
267.700	-15.107	0.101
267.800	-22.367	0.101
267.900	-13.837	0.101
268.000	-13.350	0.101
268.100	-11.828	0.101
268.200	-25.334	0.101
268.300	-17.069	0.101
268.400	-23.749	0.101
268.500	-20.591	0.101
268.600	-23.829	0.101
268.700	-11.393	0.101
268.800	-10.065	0.101
268.900	-20.161	0.101
269.000	-23.040	0.101
269.100	-16.452	0.101
269.200	-9.964	0.101
269.300	-21.485	0.101
269.400	-24.847	0.101
269.500	-21.887	0.101
269.600	-18.843	0.101
269.700	-20.088	0.101
269.800	-1.981	0.101
269.900	-12.793	0.101
270.000	-16.106	0.101
270.100	-11.219	0.101
270.200	-18.706	0.101
270.300	-19.833	0.101
270.400	-19.733	0.101
270.500	-17.824	0.101
270.600	-11.724	0.101
270.700	-10.649	0.101
270.800	-10.568	0.101
270.900	-27.329	0.101
271.000	-22.022	0.101
271.100	-23.956	0.101
271.200	-17.135	0.101
271.300	-32.675	0.101
271.400	-17.833	0.101
271.500	-11.356	0.101
271.600	-21.022	0.101
271.700	-22.447	0.101
271.800	-14.330	0.101
271.900	-19.283	0.101
272.000	-23.702	0.101
272.100	-14.263	0.101
272.200	-21.177	0.101
272.300	-22.689	0.101
272.400	-19.395	0.101
272.500	-16.997	0.101
272.600	-31.518	0.101
272.700	-22.618	0.101
272.800	-29.233	0.101
272.900	-27.762	0.101
273.000	-26.430	0.101
273.100	-12.895	0.101
273.200	-14.947	0.101
273.300	-12.166	0.101
273.400	-20.849	0.101
273.500	-17.245	0.101
273.600	-24.143	0.101
273.700	-11.221	0.101
273.800	-25.744	0.101
273.900	-13.436	0.101
274.000	-31.696	0.101
274.100	-14.375	0.101
274.200	-7.025	0.101
274.300	-12.435	0.101
274.400	-16.367	0.101
274.500	-15.198	0.101
274.600	-13.631	0.101
274.700	-13.500	0.101
274.800	-22.339	0.101
274.900	-23.613	0.101
275.000	-11.733	0.101
275.100	-18.375	0.101
275.200	-18.898	0.101
275.300	-24.624	0.101
275.400	-18.310	0.101
275.500	-12.509	0.101
275.600	-25.994	0.101
275.700	-16.328	0.101
275.800	-22.083	0.101
275.900	-22.016	0.101
276.000	-27.852	0.101
276.100	-17.525	0.101
276.200	-21.848	0.101
276.300	-16.926	0.101
276.400	-23.648	0.101
276.500	-24.231	0.101
276.600	-24.326	0.101
276.700	-25.764	0.101
276.800	-14.791	0.101
276.900	-17.265	0.101
277.000	-32.897	0.101
277.100	-22.333	0.101
277.200	-30.162	0.101
277.300	-22.944	0.101
277.400	-12.978	0.101
277.500	-10.458	0.101
277.600	-11.056	0.101
277.700	-8.328	0.101
277.800	-8.612	0.101
277.900	-15.742	0.101
278.000	-11.079	0.101
278.100	-23.181	0.101
278.200	-18.409	0.101
278.300	-18.823	0.101
278.400	-22.797	0.101
278.500	-27.015	0.101
278.600	-38.607	0.101
278.700	-23.099	0.101
278.800	-17.529	0.101
278.900	-20.400	0.101
279.000	-21.393	0.101
279.100	-31.777	0.101
279.200	-1.754	0.101
279.300	-18.046	0.101
279.400	-23.184	0.101
279.500	-17.480	0.101
279.600	-26.028	0.101
279.700	-12.821	0.101
279.800	-13.026	0.101
279.900	-13.854	0.101
280.000	-24.837	0.101
280.100	-16.649	0.101
280.200	-14.914	0.101
280.300	-28.311	0.101
280.400	-30.542	0.101
280.500	-25.850	0.101
280.600	-24.095	0.101
280.700	-14.876	0.101
280.800	-14.511	0.101
280.900	-18.584	0.101
281.000	-14.123	0.101
281.100	-32.766	0.101
281.200	-15.627	0.101
281.300	-15.042	0.101
281.400	-21.992	0.101
281.500	-31.752	0.101
281.600	-15.558	0.101
281.700	-23.333	0.101
281.800	-13.341	0.101
281.900	-21.810	0.101
282.000	-19.016	0.101
282.100	-22.593	0.101
282.200	-13.828	0.101
282.300	-28.343	0.101
282.400	-16.795	0.101
282.500	-26.495	0.101
282.600	-20.984	0.101
282.700	-21.574	0.101
282.800	-12.315	0.101
282.900	-20.622	0.101
283.000	-21.098	0.101
283.100	-26.911	0.101
283.200	-22.180	0.101
283.300	-26.325	0.101
283.400	-17.562	0.101
283.500	-11.897	0.101
283.600	-19.255	0.101
283.700	-25.685	0.101
283.800	-12.770	0.101
283.900	-23.742	0.101
284.000	-10.924	0.101
284.100	-11.736	0.101
284.200	-23.961	0.101
284.300	-21.554	0.101
284.400	-15.932	0.101
284.500	-14.217	0.101
284.600	-12.982	0.101
284.700	-20.245	0.101
284.800	-28.418	0.101
284.900	-23.667	0.101
285.000	-16.892	0.101
285.100	-17.549	0.101
285.200	-16.017	0.101
285.300	-15.242	0.101
285.400	-24.817	0.101
285.500	-14.490	0.101
285.600	-26.363	0.101
285.700	-13.533	0.101
285.800	-21.358	0.101
285.900	-9.643	0.101
286.000	-14.887	0.101
286.100	-13.815	0.101
286.200	-21.789	0.101
286.300	-10.922	0.101
286.400	-13.265	0.101
286.500	-23.351	0.101
286.600	-20.475	0.101
286.700	-23.190	0.101
286.800	-12.693	0.101
286.900	-18.841	0.101
287.000	-15.253	0.101
287.100	-19.684	0.101
287.200	-22.216	0.101
287.300	-28.092	0.101
287.400	-30.057	0.101
287.500	-23.386	0.101
287.600	-20.589	0.101
287.700	-23.831	0.101
287.800	-27.621	0.101
287.900	-26.972	0.101
288.000	-29.848	0.101
288.100	-15.355	0.101
288.200	-16.895	0.101
288.300	-19.625	0.101
288.400	-13.829	0.101
288.500	-28.438	0.101
288.600	-11.574	0.101
288.700	-15.792	0.101
288.800	-15.935	0.101
288.900	-17.642	0.101
289.000	-12.669	0.101
289.100	-13.580	0.101
289.200	-22.158	0.101
289.300	-18.226	0.101
289.400	-26.885	0.101
289.500	-19.138	0.101
289.600	-17.923	0.101
289.700	-14.414	0.101
289.800	-12.356	0.101
289.900	-27.889	0.101
290.000	-23.739	0.101
290.100	-23.612	0.101
290.200	-21.608	0.101
290.300	-20.165	0.101
290.400	-7.191	0.101
290.500	-23.161	0.101
290.600	-31.235	0.101
290.700	-32.083	0.101
290.800	-25.997	0.101
290.900	-13.753	0.101
291.000	-20.267	0.101
291.100	-14.183	0.101
291.200	-18.843	0.101
291.300	-22.789	0.101
291.400	-21.719	0.101
291.500	-23.328	0.101
291.600	-23.046	0.101
291.700	-18.580	0.101
291.800	-25.132	0.101
291.900	-8.985	0.101
292.000	-23.513	0.101
292.100	-8.814	0.101
292.200	-13.643	0.101
292.300	-22.139	0.101
292.400	-21.087	0.101
292.500	-21.064	0.101
292.600	-19.494	0.101
292.700	-7.899	0.101
292.800	-24.716	0.101
292.900	-18.925	0.101
293.000	-16.133	0.101
293.100	-13.582	0.101
293.200	-9.230	0.101
293.300	-19.859	0.101
293.400	-22.456	0.101
293.500	-20.933	0.101
293.600	-17.715	0.101
293.700	-4.129	0.101
293.800	-6.502	0.101
293.900	-21.246	0.101
294.000	-22.882	0.101
294.100	-32.045	0.101
294.200	-24.017	0.101
294.300	-10.687	0.101
294.400	-24.700	0.101
294.500	-20.287	0.101
294.600	-22.024	0.101
294.700	-11.350	0.101
294.800	-19.067	0.101
294.900	-18.638	0.101
295.000	-16.356	0.101
295.100	-9.193	0.101
295.200	-30.503	0.101
295.300	-24.126	0.101
295.400	-21.335	0.101
295.500	-21.481	0.101
295.600	-14.935	0.101
295.700	-18.677	0.101
295.800	-13.281	0.101
295.900	-16.116	0.101
296.000	-33.428	0.101
296.100	-30.133	0.101
296.200	-30.490	0.101
296.300	-20.877	0.101
296.400	-11.800	0.101
296.500	-11.675	0.101
296.600	-17.417	0.101
296.700	-6.636	0.101
296.800	-17.545	0.101
296.900	-17.094	0.101
297.000	-13.203	0.101
297.100	-24.471	0.101
297.200	-13.592	0.101
297.300	-17.156	0.101
297.400	-18.574	0.101
297.500	-26.521	0.101
297.600	-22.840	0.101
297.700	-17.140	0.101
297.800	-9.906	0.101
297.900	-17.672	0.101
298.000	-19.283	0.101
298.100	-8.883	0.101
298.200	-23.985	0.101
298.300	-16.110	0.101
298.400	-11.667	0.101
298.500	-17.798	0.101
298.600	-15.068	0.101
298.700	-13.421	0.101
298.800	-12.020	0.101
298.900	-10.713	0.101
299.000	-27.835	0.101
299.100	-11.330	0.101
299.200	-27.265	0.101
299.300	-21.490	0.101
299.400	-23.352	0.101
299.500	-19.292	0.101
299.600	-26.065	0.101
299.700	-22.336	0.101
299.800	-13.812	0.101
299.900	-15.959	0.101
300.000	-19.561	0.101
300.100	-17.500	0.101
300.200	-21.747	0.101
300.300	-27.897	0.101
300.400	-14.560	0.101
300.500	-7.970	0.101
300.600	-10.044	0.101
300.700	-19.811	0.101
300.800	-25.731	0.101
300.900	-21.379	0.101
301.000	-12.253	0.101
301.100	-19.063	0.101
301.200	-22.169	0.101
301.300	-9.186	0.101
301.400	-9.201	0.101
301.500	-14.673	0.101
301.600	-10.540	0.101
301.700	-22.911	0.101
301.800	-25.641	0.101
301.900	-17.186	0.101
302.000	-16.363	0.101
302.100	-25.782	0.101
302.200	-9.452	0.101
302.300	-18.311	0.101
302.400	-14.795	0.101
302.500	-15.885	0.101
302.600	-4.927	0.101
302.700	-25.502	0.101
302.800	-24.533	0.101
302.900	-18.980	0.101
303.000	-14.709	0.101
303.100	-21.662	0.101
303.200	-19.747	0.101
303.300	-23.951	0.101
303.400	-21.275	0.101
303.500	-19.158	0.101
303.600	-21.820	0.101
303.700	-17.744	0.101
303.800	-11.289	0.101
303.900	-13.213	0.101
304.000	-19.381	0.101
304.100	-19.305	0.101
304.200	-19.751	0.101
304.300	-14.143	0.101
304.400	-16.805	0.101
304.500	-26.826	0.101
304.600	-15.868	0.101
304.700	-5.650	0.101
304.800	-15.870	0.101
304.900	-18.418	0.101
305.000	-27.280	0.101
305.100	-17.812	0.101
305.200	-11.391	0.101
305.300	-19.573	0.101
305.400	-22.713	0.101
305.500	-16.128	0.101
305.600	-8.198	0.101
305.700	-21.590	0.101
305.800	-28.529	0.101
305.900	-10.282	0.101
306.000	-15.287	0.101
306.100	-11.631	0.101
306.200	-6.360	0.101
306.300	-14.541	0.101
306.400	-13.065	0.101
306.500	-26.333	0.101
306.600	-21.251	0.101
306.700	-20.746	0.101
306.800	-7.479	0.101
306.900	-15.977	0.101
307.000	-13.769	0.101
307.100	-9.668	0.101
307.200	-21.349	0.101
307.300	-34.781	0.101
307.400	-19.320	0.101
307.500	-15.746	0.101
307.600	-7.955	0.101
307.700	-15.372	0.101
307.800	-12.369	0.101
307.900	-4.906	0.101
308.000	-15.834	0.101
308.100	-12.026	0.101
308.200	-10.702	0.101
308.300	-22.686	0.101
308.400	-17.124	0.101
308.500	-20.780	0.101
308.600	-16.002	0.101
308.700	-20.674	0.101
308.800	-18.684	0.101
308.900	-16.664	0.101
309.000	-9.876	0.101
309.100	-14.593	0.101
309.200	-23.988	0.101
309.300	-20.805	0.101
309.400	-31.712	0.101
309.500	-28.220	0.101
309.600	-19.108	0.101
309.700	-10.096	0.101
309.800	-12.410	0.101
309.900	-15.401	0.101
310.000	-17.147	0.101
310.100	-13.911	0.101
310.200	-23.623	0.101
310.300	-15.442	0.101
310.400	-16.521	0.101
310.500	-13.024	0.101
310.600	-14.095	0.101
310.700	-19.754	0.101
310.800	-26.951	0.101
310.900	-14.575	0.101
311.000	-15.595	0.101
311.100	-12.421	0.101
311.200	-21.439	0.101
311.300	-13.083	0.101
311.400	-10.506	0.101
311.500	-17.110	0.101
311.600	-23.884	0.101
311.700	-20.560	0.101
311.800	-6.373	0.101
311.900	-19.501	0.101
312.000	-21.014	0.101
312.100	-12.132	0.101
312.200	-22.849	0.101
312.300	-14.257	0.101
312.400	-18.238	0.101
312.500	-17.696	0.101
312.600	-26.644	0.101
312.700	-17.610	0.101
312.800	-12.965	0.101
312.900	-7.388	0.101
313.000	-7.943	0.101
313.100	-16.677	0.101
313.200	-13.142	0.101
313.300	-17.865	0.101
313.400	-8.397	0.101
313.500	-18.129	0.101
313.600	-30.039	0.101
313.700	-23.930	0.101
313.800	-19.691	0.101
313.900	-19.097	0.101
314.000	-17.431	0.101
314.100	-17.305	0.101
314.200	-19.508	0.101
314.300	-16.421	0.101
314.400	-5.239	0.101
314.500	-6.523	0.101
314.600	-21.890	0.101
314.700	-15.116	0.100
314.800	-18.490	0.100
314.900	-10.892	0.100
315.000	-21.750	0.100
315.100	-16.800	0.100
315.200	-9.693	0.100
315.300	-8.547	0.100
315.400	-16.080	0.100
315.500	-19.095	0.100
315.600	-23.900	0.100
315.700	-28.884	0.100
315.800	-25.330	0.100
315.900	-13.324	0.100
316.000	-22.012	0.100
316.100	-13.759	0.100
316.200	-11.862	0.100
316.300	-24.330	0.100
316.400	-30.084	0.100
316.500	-15.805	0.100
316.600	-10.022	0.100
316.700	-10.335	0.100
316.800	-8.969	0.100
316.900	-18.233	0.100
317.000	-16.708	0.100
317.100	-14.192	0.100
317.200	-10.258	0.100
317.300	-12.168	0.100
317.400	-30.284	0.100
317.500	-22.018	0.100
317.600	-14.429	0.100
317.700	-18.475	0.100
317.800	-1.571	0.100
317.900	-17.076	0.100
318.000	-26.456	0.100
318.100	-22.401	0.100
318.200	-18.179	0.100
318.300	-19.200	0.100
318.400	-9.160	0.100
318.500	-18.064	0.100
318.600	-9.569	0.100
318.700	-9.970	0.100
318.800	-21.243	0.100
318.900	-29.624	0.100
319.000	-10.532	0.100
319.100	-13.438	0.100
319.200	-12.070	0.100
319.300	-25.992	0.100
319.400	-24.485	0.100
319.500	-20.926	0.100
319.600	-16.291	0.100
319.700	-11.099	0.100
319.800	-19.033	0.100
319.900	-17.137	0.100
320.000	-16.712	0.100
320.100	-8.367	0.100
320.200	-11.847	0.100
320.300	-16.345	0.100
320.400	-11.376	0.100
320.500	-15.055	0.100
320.600	-26.753	0.100
320.700	-19.137	0.100
320.800	-11.022	0.100
320.900	-6.361	0.100
321.000	-8.666	0.100
321.100	-17.737	0.100
321.200	-13.423	0.100
321.300	-19.725	0.100
321.400	-20.496	0.100
321.500	-20.338	0.100
321.600	-17.016	0.100
321.700	-17.446	0.100
321.800	-10.546	0.100
321.900	-14.955	0.100
322.000	-21.003	0.100
322.100	-25.516	0.100
322.200	-27.730	0.100
322.300	-18.344	0.100
322.400	-17.926	0.100
322.500	-10.856	0.100
322.600	-18.946	0.100
322.700	-23.338	0.100
322.800	-16.220	0.100
322.900	-18.098	0.100
323.000	-17.044	0.100
323.100	-17.899	0.100
323.200	-15.152	0.100
323.300	-25.442	0.100
323.400	-18.404	0.100
323.500	-1.476	0.100
323.600	-9.015	0.100
323.700	-17.130	0.100
323.800	-20.914	0.100
323.900	-20.773	0.100
324.000	-10.057	0.100
324.100	-22.976	0.100
324.200	-27.121	0.100
324.300	-12.622	0.100
324.400	-9.717	0.100
324.500	-7.618	0.100
324.600	-11.923	0.100
324.700	-10.451	0.100
324.800	-16.170	0.100
324.900	-25.134	0.100
325.000	-37.946	0.100
325.100	-27.715	0.100
325.200	-21.642	0.100
325.300	-12.980	0.100
325.400	-22.760	0.100
325.500	-23.709	0.100
325.600	-12.856	0.100
325.700	-19.468	0.100
325.800	-8.855	0.100
325.900	-9.390	0.100
326.000	-14.234	0.100
326.100	-10.059	0.100
326.200	-12.956	0.100
326.300	-10.975	0.100
326.400	-15.287	0.100
326.500	-14.640	0.100
326.600	-22.109	0.100
326.700	-15.678	0.100
326.800	-13.749	0.100
326.900	-18.475	0.100
327.000	-9.374	0.100
327.100	-8.713	0.100
327.200	-2.071	0.100
327.300	-20.580	0.100
327.400	-12.174	0.100
327.500	-22.878	0.100
327.600	-16.676	0.100
327.700	-13.945	0.100
327.800	-22.388	0.100
327.900	-14.866	0.100
328.000	-13.149	0.100
328.100	-19.894	0.100
328.200	-16.511	0.100
328.300	-19.942	0.100
328.400	-10.261	0.100
328.500	-11.085	0.100
328.600	-17.732	0.100
328.700	-13.847	0.100
328.800	-28.340	0.100
328.900	-17.293	0.100
329.000	-19.491	0.100
329.100	-19.689	0.100
329.200	-24.336	0.100
329.300	-15.248	0.100
329.400	-15.962	0.100
329.500	-18.109	0.100
329.600	-24.693	0.100
329.700	-16.170	0.100
329.800	-15.332	0.100
329.900	-16.689	0.100
330.000	-10.035	0.100
330.100	-19.038	0.100
330.200	-13.716	0.100
330.300	-11.556	0.100
330.400	-15.925	0.100
330.500	-8.590	0.100
330.600	-10.395	0.100
330.700	-5.799	0.100
330.800	1.846	0.100
330.900	6.989	0.100
331.000	-4.065	0.100
331.100	-1.258	0.100
331.200	5.193	0.100
331.300	6.597	0.100
331.400	12.506	0.100
331.500	10.637	0.101
331.600	5.973	0.101
331.700	8.270	0.101
331.800	10.137	0.101
331.900	9.666	0.101
332.000	11.104	0.101
332.100	10.426	0.101
332.200	8.362	0.101
332.300	16.709	0.101
332.400	12.420	0.101
332.500	7.283	0.101
332.600	12.616	0.101
332.700	17.982	0.101
332.800	11.149	0.101
332.900	25.627	0.101
333.000	22.934	0.101
333.100	13.503	0.101
333.200	24.219	0.101
333.300	12.726	0.101
333.400	6.283	0.101
333.500	14.736	0.101
333.600	28.608	0.101
333.700	11.244	0.101
333.800	10.320	0.101
333.900	28.047	0.101
334.000	17.001	0.101
334.100	15.607	0.101
334.200	2.351	0.101
334.300	0.317	0.101
334.400	8.006	0.101
334.500	9.802	0.101
334.600	10.105	0.101
334.700	17.283	0.101
334.800	10.047	0.101
334.900	17.237	0.101
335.000	5.843	0.101
335.100	14.650	0.101
335.200	18.997	0.101
335.300	22.661	0.101
335.400	18.714	0.101
335.500	1.084	0.101
335.600	-4.506	0.101
335.700	9.114	0.101
335.800	9.201	0.101
335.900	16.312	0.101
336.000	1.351	0.101
336.100	4.265	0.101
336.200	16.246	0.101
336.300	11.102	0.101
336.400	9.538	0.101
336.500	12.373	0.101
336.600	8.105	0.101
336.700	9.768	0.101
336.800	5.470	0.101
336.900	1.243	0.101
337.000	4.075	0.101
337.100	21.439	0.101
337.200	28.583	0.101
337.300	21.857	0.101
337.400	4.679	0.101
337.500	23.850	0.101
337.600	15.853	0.101
337.700	21.147	0.101
337.800	16.161	0.101
337.900	24.650	0.101
338.000	14.938	0.101
338.100	15.343	0.101
338.200	14.372	0.101
338.300	4.563	0.101
338.400	11.335	0.101
338.500	11.193	0.101
338.600	19.264	0.101
338.700	6.842	0.101
338.800	15.009	0.101
338.900	17.681	0.101
339.000	17.063	0.101
339.100	5.092	0.101
339.200	14.499	0.101
339.300	15.466	0.101
339.400	12.387	0.101
339.500	23.052	0.101
339.600	13.526	0.101
339.700	11.443	0.101
339.800	8.936	0.101
339.900	12.790	0.101
340.000	17.598	0.101
340.100	21.441	0.101
340.200	27.163	0.101
340.300	21.877	0.101
340.400	22.320	0.101
340.500	37.015	0.101
340.600	28.625	0.101
340.700	16.557	0.101
340.800	11.654	0.101
340.900	19.269	0.101
341.000	13.611	0.101
341.100	14.936	0.101
341.200	16.114	0.101
341.300	23.850	0.101
341.400	26.471	0.101
341.500	23.262	0.101
341.600	11.745	0.101
341.700	20.504	0.101
341.800	27.118	0.101
341.900	19.369	0.101
342.000	16.044	0.101
342.100	13.485	0.101
342.200	22.399	0.101
342.300	27.239	0.101
342.400	34.435	0.101
342.500	20.057	0.101
342.600	16.467	0.101
342.700	32.303	0.101
342.800	18.715	0.101
342.900	23.093	0.101
343.000	24.775	0.101
343.100	35.230	0.101
343.200	27.153	0.101
343.300	21.399	0.101
343.400	31.479	0.101
343.500	29.015	0.101
343.600	19.836	0.101
343.700	25.233	0.101
343.800	20.121	0.101
343.900	40.280	0.101
344.000	22.964	0.101
344.100	29.515	0.101
344.200	27.460	0.101
344.300	37.390	0.101
344.400	37.618	0.101
344.500	30.917	0.101
344.600	33.956	0.101
344.700	23.890	0.101
344.800	30.136	0.101
344.900	30.554	0.101
345.000	46.229	0.101
345.100	46.273	0.101
345.200	32.395	0.101
345.300	28.317	0.101
345.400	42.989	0.101
345.500	40.145	0.101
345.600	27.091	0.101
345.700	22.899	0.101
345.800	35.768	0.101
345.900	24.255	0.101
346.000	45.597	0.101
346.100	32.581	0.101
346.200	31.423	0.101
346.300	40.272	0.101
346.400	38.458	0.101
346.500	34.497	0.101
346.600	39.656	0.101
346.700	39.642	0.101
346.800	39.634	0.101
346.900	40.074	0.101
347.000	44.284	0.101
347.100	47.722	0.101
347.200	45.153	0.101
347.300	44.917	0.101
347.400	40.176	0.101
347.500	45.069	0.101
347.600	39.267	0.101
347.700	35.605	0.101
347.800	39.609	0.101
347.900	29.856	0.101
348.000	41.959	0.101
348.100	35.953	0.101
348.200	38.837	0.101
348.300	44.819	0.101
348.400	47.142	0.101
348.500	33.625	0.101
348.600	32.786	0.101
348.700	39.378	0.101
348.800	40.203	0.101
348.900	48.321	0.101
349.000	37.247	0.101
349.100	44.930	0.101
349.200	42.148	0.101
349.300	42.919	0.101
349.400	48.153	0.101
349.500	45.294	0.101
349.600	51.644	0.101
349.700	48.166	0.101
349.800	40.246	0.101
349.900	36.843	0.101
350.000	45.012	0.101
350.100	43.681	0.101
350.200	42.612	0.101
350.300	37.843	0.101
350.400	43.562	0.101
350.500	44.136	0.101
350.600	45.399	0.101
350.700	40.505	0.101
350.800	41.647	0.101
350.900	39.176	0.101
351.000	31.097	0.101
351.100	37.404	0.101
351.200	31.901	0.101
351.300	37.843	0.101
351.400	47.598	0.101
351.500	39.087	0.101
351.600	45.165	0.101
351.700	39.222	0.101
351.800	47.375	0.101
351.900	41.934	0.101
352.000	47.237	0.101
352.100	47.803	0.101
352.200	44.856	0.101
352.300	41.559	0.101
352.400	39.610	0.101
352.500	36.203	0.101
352.600	44.011	0.101
352.700	36.873	0.101
352.800	37.014	0.101
352.900	45.558	0.101
353.000	47.951	0.101
353.100	50.506	0.101
353.200	34.429	0.101
353.300	43.902	0.101
353.400	34.694	0.101
353.500	41.868	0.101
353.600	45.882	0.101
353.700	32.946	0.101
353.800	35.651	0.101
353.900	40.538	0.101
354.000	48.517	0.101
354.100	37.267	0.101
354.200	29.021	0.101
354.300	27.280	0.101
354.400	43.908	0.101
354.500	43.536	0.101
354.600	47.782	0.101
354.700	49.177	0.101
354.800	32.838	0.101
354.900	32.346	0.101
355.000	41.594	0.101
355.100	48.975	0.101
355.200	37.351	0.101
355.300	40.640	0.101
355.400	45.596	0.101
355.500	21.117	0.101
355.600	48.156	0.101
355.700	51.038	0.101
355.800	28.179	0.101
355.900	40.447	0.101
356.000	45.398	0.101
356.100	34.520	0.101
356.200	28.114	0.101
356.300	35.109	0.101
356.400	38.508	0.101
356.500	41.707	0.101
356.600	38.371	0.101
356.700	50.189	0.101
356.800	41.953	0.101
356.900	46.465	0.101
357.000	48.140	0.101
357.100	42.024	0.101
357.200	38.054	0.101
357.300	46.265	0.101
357.400	48.996	0.101
357.500	51.530	0.101
357.600	39.203	0.101
357.700	39.567	0.101
357.800	31.146	0.101
357.900	49.332	0.101
358.000	33.752	0.101
358.100	46.234	0.101
358.200	46.733	0.101
358.300	44.231	0.101
358.400	36.399	0.101
358.500	30.862	0.101
358.600	47.316	0.101
358.700	51.339	0.101
358.800	34.013	0.101
358.900	36.927	0.101
359.000	28.974	0.101
359.100	35.614	0.101
359.200	31.498	0.101
359.300	40.528	0.101
359.400	36.217	0.101
359.500	32.743	0.101
359.600	44.636	0.101
359.700	40.755	0.101
359.800	38.943	0.101
359.900	35.909	0.101
360.000	39.757	0.101
360.100	46.227	0.101
360.200	44.931	0.101
360.300	33.243	0.101
360.400	28.749	0.101
360.500	40.621	0.101
360.600	42.383	0.101
360.700	42.399	0.101
360.800	44.615	0.101
360.900	37.405	0.101
361.000	42.791	0.101
361.100	34.043	0.101
361.200	29.830	0.101
361.300	45.577	0.101
361.400	46.790	0.101
361.500	29.826	0.101
361.600	43.232	0.101
361.700	49.834	0.101
361.800	39.116	0.101
361.900	53.487	0.101
362.000	48.789	0.101
362.100	36.596	0.101
362.200	38.822	0.101
362.300	35.979	0.101
362.400	33.944	0.101
362.500	32.879	0.101
362.600	28.424	0.101
362.700	36.281	0.101
362.800	34.099	0.101
362.900	32.838	0.101
363.000	35.998	0.101
363.100	47.462	0.101
363.200	51.214	0.101
363.300	41.945	0.101
363.400	19.093	0.101
363.500	43.518	0.101
363.600	36.505	0.101
363.700	40.187	0.101
363.800	40.275	0.101
363.900	42.607	0.101
364.000	42.751	0.101
364.100	45.228	0.101
364.200	37.981	0.101
364.300	33.357	0.101
364.400	26.334	0.101
364.500	36.394	0.101
364.600	32.339	0.101
364.700	34.307	0.101
364.800	35.691	0.101
364.900	42.202	0.101
365.000	25.106	0.101
365.100	39.588	0.101
365.200	54.211	0.101
365.300	32.260	0.101
365.400	41.387	0.101
365.500	41.958	0.101
365.600	40.402	0.101
365.700	35.632	0.101
365.800	39.996	0.101
365.900	37.330	0.101
366.000	40.959	0.101
366.100	47.271	0.101
366.200	31.989	0.101
366.300	32.783	0.101
366.400	35.230	0.101
366.500	28.724	0.101
366.600	40.813	0.101
366.700	41.444	0.101
366.800	44.665	0.101
366.900	43.733	0.101
367.000	40.205	0.101
367.100	39.536	0.101
367.200	31.158	0.101
367.300	34.356	0.101
367.400	35.217	0.101
367.500	42.244	0.101
367.600	37.395	0.101
367.700	27.127	0.101
367.800	34.811	0.101
367.900	44.205	0.101
368.000	38.167	0.101
368.100	36.137	0.101
368.200	43.249	0.101
368.300	40.378	0.101
368.400	37.212	0.101
368.500	41.610	0.101
368.600	37.449	0.101
368.700	48.709	0.101
368.800	45.578	0.101
368.900	33.351	0.101
369.000	33.762	0.101
369.100	31.516	0.101
369.200	37.848	0.101
369.300	33.161	0.101
369.400	38.199	0.101
369.500	37.594	0.101
369.600	48.103	0.101
369.700	38.689	0.101
369.800	34.922	0.101
369.900	34.760	0.101
370.000	36.487	0.101
370.100	41.788	0.101
370.200	41.401	0.101
370.300	32.473	0.101
370.400	28.500	0.101
370.500	39.760	0.101
370.600	44.707	0.101
370.700	44.179	0.101
370.800	42.951	0.101
370.900	22.705	0.101
371.000	31.731	0.101
371.100	43.736	0.101
371.200	47.245	0.101
371.300	49.026	0.101
371.400	31.761	0.101
371.500	44.480	0.101
371.600	28.561	0.101
371.700	41.155	0.101
371.800	35.829	0.101
371.900	34.884	0.101
372.000	30.845	0.101
372.100	38.159	0.101
372.200	38.206	0.101
372.300	27.220	0.101
372.400	24.855	0.101
372.500	36.927	0.101
372.600	45.023	0.101
372.700	34.705	0.101
372.800	55.458	0.101
372.900	38.935	0.101
373.000	33.780	0.101
373.100	33.923	0.101
373.200	38.967	0.101
373.300	42.006	0.101
373.400	37.165	0.101
373.500	31.129	0.101
373.600	32.290	0.101
373.700	27.264	0.101
373.800	36.091	0.101
373.900	38.633	0.101
374.000	35.937	0.101
374.100	45.719	0.101
374.200	37.534	0.101
374.300	41.146	0.101
374.400	26.587	0.101
374.500	37.844	0.101
374.600	32.620	0.101
374.700	31.730	0.101
374.800	38.239	0.101
374.900	33.086	0.101
375.000	42.683	0.101
375.100	37.633	0.101
375.200	35.130	0.101
375.300	34.614	0.101
375.400	37.778	0.101
375.500	38.802	0.101
375.600	42.559	0.101
375.700	32.646	0.101
375.800	33.269	0.101
375.900	47.910	0.101
376.000	35.340	0.101
376.100	29.154	0.101
376.200	48.200	0.101
376.300	37.341	0.101
376.400	38.891	0.101
376.500	43.207	0.101
376.600	45.392	0.101
376.700	41.583	0.101
376.800	38.368	0.101
376.900	38.887	0.101
377.000	30.941	0.101
377.100	38.498	0.101
377.200	29.583	0.101
377.300	27.266	0.101
377.400	52.451	0.101
377.500	31.641	0.101
377.600	52.541	0.101
377.700	41.816	0.101
377.800	34.277	0.101
377.900	35.010	0.101
378.000	34.623	0.101
378.100	41.462	0.101
378.200	38.481	0.101
378.300	37.019	0.101
378.400	41.925	0.101
378.500	33.625	0.101
378.600	36.576	0.101
378.700	34.043	0.101
378.800	21.419	0.101
378.900	23.576	0.101
379.000	37.349	0.101
379.100	33.439	0.101
379.200	43.601	0.101
379.300	38.718	0.101
379.400	40.684	0.101
379.500	37.519	0.101
379.600	45.918	0.101
379.700	46.112	0.101
379.800	41.612	0.101
379.900	33.933	0.101
380.000	35.165	0.101
380.100	36.256	0.101
380.200	35.844	0.101
380.300	50.334	0.101
380.400	39.184	0.101
380.500	34.506	0.101
380.600	31.734	0.101
380.700	41.282	0.101
380.800	44.031	0.101
380.900	32.411	0.101
381.000	47.446	0.101
381.100	31.730	0.101
381.200	36.222	0.101
381.300	32.923	0.101
381.400	33.541	0.101
381.500	42.196	0.101
381.600	32.036	0.101
381.700	33.996	0.101
381.800	44.689	0.101
381.900	46.885	0.101
382.000	39.462	0.101
382.100	41.193	0.101
382.200	36.134	0.101
382.300	33.646	0.101
382.400	34.643	0.101
382.500	41.423	0.101
382.600	40.518	0.101
382.700	42.188	0.101
382.800	32.926	0.101
382.900	25.908	0.101
383.000	30.185	0.101
383.100	34.378	0.101
383.200	46.917	0.101
383.300	30.573	0.101
383.400	26.493	0.101
383.500	44.551	0.101
383.600	36.519	0.101
383.700	28.956	0.101
383.800	40.917	0.101
383.900	43.127	0.101
384.000	26.356	0.101
384.100	46.270	0.101
384.200	36.766	0.101
384.300	39.874	0.101
384.400	40.159	0.101
384.500	38.668	0.101
384.600	27.873	0.101
384.700	37.401	0.101
384.800	33.971	0.101
384.900	37.338	0.101
385.000	39.919	0.101
385.100	33.804	0.101
385.200	39.230	0.101
385.300	43.207	0.101
385.400	39.833	0.101
385.500	51.426	0.101
385.600	33.021	0.101
385.700	37.357	0.101
385.800	47.341	0.101
385.900	22.147	0.101
386.000	28.151	0.101
386.100	40.511	0.101
386.200	43.715	0.101
386.300	34.912	0.101
386.400	22.860	0.101
386.500	44.980	0.101
386.600	49.192	0.101
386.700	28.643	0.101
386.800	41.860	0.101
386.900	30.639	0.101
387.000	35.470	0.101
387.100	30.267	0.101
387.200	40.409	0.101
387.300	28.556	0.101
387.400	33.170	0.101
387.500	37.761	0.101
387.600	37.631	0.101
387.700	35.048	0.101
387.800	27.256	0.101
387.900	46.922	0.101
388.000	48.241	0.101
388.100	30.651	0.101
388.200	32.584	0.101
388.300	30.400	0.101
388.400	38.223	0.101
388.500	31.761	0.101
388.600	36.662	0.101
388.700	45.637	0.101
388.800	43.624	0.101
388.900	36.435	0.101
389.000	34.441	0.101
389.100	21.767	0.101
389.200	26.490	0.101
389.300	44.825	0.101
389.400	37.222	0.101
389.500	47.382	0.101
389.600	36.004	0.101
389.700	36.111	0.101
389.800	33.018	0.101
389.900	35.314	0.101
390.000	48.355	0.101
390.100	41.410	0.101
390.200	33.977	0.101
390.300	26.427	0.101
390.400	34.728	0.101
390.500	26.767	0.101
390.600	29.890	0.101
390.700	22.979	0.101
390.800	22.727	0.101
390.900	21.702	0.101
391.000	20.974	0.101
391.100	31.674	0.101
391.200	21.150	0.101
391.300	13.020	0.101
391.400	18.095	0.101
391.500	10.761	0.101
391.600	9.933	0.101
391.700	13.197	0.101
391.800	5.349	0.101
391.900	17.932	0.101
392.000	6.708	0.101
392.100	12.105	0.101
392.200	-4.722	0.101
392.300	8.819	0.101
392.400	3.994	0.101
392.500	1.686	0.101
392.600	5.600	0.101
392.700	-1.649	0.101
392.800	7.725	0.101
392.900	11.732	0.101
393.000	6.896	0.101
393.100	-10.708	0.101
393.200	0.640	0.101
393.300	-6.034	0.101
393.400	-0.359	0.101
393.500	5.119	0.101
393.600	-8.818	0.101
393.700	-4.547	0.101
393.800	-7.009	0.101
393.900	-15.924	0.101
394.000	-8.678	0.101
394.100	1.741	0.101
394.200	11.905	0.101
394.300	-8.138	0.101
394.400	-6.913	0.101
394.500	-1.513	0.101
394.600	-10.851	0.101
394.700	-11.471	0.101
394.800	-12.289	0.101
394.900	3.755	0.101
395.000	-5.417	0.101
395.100	2.461	0.101
395.200	-3.034	0.101
395.300	-11.770	0.101
395.400	-4.336	0.101
395.500	-18.787	0.101
395.600	-7.933	0.101
395.700	-8.505	0.101
395.800	-5.034	0.101
395.900	-2.210	0.101
396.000	-18.515	0.101
396.100	-1.468	0.101
396.200	-6.000	0.101
396.300	-3.398	0.101
396.400	-9.012	0.101
396.500	-8.333	0.101
396.600	-15.047	0.101
396.700	-17.448	0.101
396.800	-11.295	0.101
396.900	-2.480	0.101
397.000	-6.141	0.101
397.100	-12.350	0.101
397.200	-11.696	0.101
397.300	-4.779	0.101
397.400	2.424	0.101
397.500	-11.663	0.101
397.600	-10.635	0.101
397.700	-13.192	0.101
397.800	-8.645	0.101
397.900	-0.478	0.101
398.000	-11.002	0.101
398.100	-9.422	0.101
398.200	-21.094	0.101
398.300	-19.389	0.101
398.400	-1.411	0.101
398.500	-8.278	0.101
398.600	-4.343	0.101
398.700	2.657	0.101
398.800	-0.114	0.101
398.900	-12.559	0.101
399.000	-8.660	0.101
399.100	2.733	0.101
399.200	-5.396	0.101
399.300	4.645	0.101
399.400	-1.861	0.101
399.500	-14.216	0.101
399.600	-15.490	0.101
399.700	-9.263	0.101
399.800	-2.431	0.101
399.900	-16.757	0.101
400.000	-4.922	0.101
400.100	-13.326	0.101
400.200	-13.774	0.101
400.300	-2.152	0.101
400.400	-14.263	0.101
400.500	-12.645	0.101
400.600	-5.895	0.101
400.700	-13.442	0.101
400.800	-13.839	0.101
400.900	-11.377	0.101
401.000	1.361	0.101
401.100	-18.330	0.101
401.200	-14.564	0.101
401.300	-14.894	0.101
401.400	-12.858	0.101
401.500	-17.639	0.101
401.600	5.413	0.101
401.700	-4.646	0.101
401.800	-4.007	0.101
401.900	-14.079	0.101
402.000	-10.363	0.101
402.100	-12.896	0.101
402.200	-9.498	0.101
402.300	-10.862	0.101
402.400	-15.847	0.101
402.500	-20.355	0.101
402.600	-7.760	0.101
402.700	-16.033	0.101
402.800	-6.374	0.101
402.900	-19.008	0.101
403.000	-5.771	0.101
403.100	-7.666	0.101
403.200	-14.093	0.101
403.300	-12.276	0.101
403.400	-10.263	0.101
403.500	-6.507	0.101
403.600	-24.472	0.101
403.700	-8.514	0.101
403.800	-26.088	0.101
403.900	-2.255	0.101
404.000	-4.198	0.101
404.100	-9.151	0.101
404.200	-8.239	0.101
404.300	-5.728	0.101
404.400	-16.420	0.101
404.500	-12.463	0.101
404.600	-11.623	0.101
404.700	-5.400	0.101
404.800	-17.518	0.101
404.900	-15.349	0.101
405.000	-13.333	0.101
405.100	-21.919	0.101
405.200	-19.139	0.101
405.300	-13.882	0.101
405.400	-14.915	0.101
405.500	-10.079	0.101
405.600	-10.897	0.101
405.700	-13.109	0.101
405.800	-8.576	0.101
405.900	-15.289	0.101
406.000	-15.709	0.101
406.100	-15.798	0.101
406.200	-17.630	0.101
406.300	-19.794	0.101
406.400	-23.392	0.101
406.500	-8.147	0.101
406.600	-21.704	0.101
406.700	-9.646	0.101
406.800	-10.757	0.101
406.900	-22.214	0.101
407.000	-26.812	0.101
407.100	-6.415	0.101
407.200	-15.295	0.101
407.300	-12.807	0.101
407.400	-3.980	0.101
407.500	-17.394	0.101
407.600	-21.980	0.101
407.700	-15.887	0.101
407.800	-21.031	0.101
407.900	-15.710	0.101
408.000	-11.874	0.101
408.100	-13.936	0.101
408.200	-5.502	0.101
408.300	-17.464	0.101
408.400	-11.790	0.101
408.500	-4.497	0.101
408.600	-13.974	0.101
408.700	-23.511	0.101
408.800	-9.863	0.101
408.900	-13.405	0.101
409.000	-4.504	0.101
409.100	-14.525	0.101
409.200	-29.306	0.101
409.300	-10.229	0.101
409.400	-21.249	0.101
409.500	-12.921	0.101
409.600	-10.402	0.101
409.700	-17.355	0.101
409.800	-16.254	0.101
409.900	-9.395	0.101
410.000	-15.485	0.101
410.100	-12.327	0.101
410.200	-12.589	0.101
410.300	-12.124	0.101
410.400	-14.618	0.101
410.500	-20.077	0.101
410.600	-23.209	0.101
410.700	-17.460	0.101
410.800	-12.144	0.101
410.900	-9.023	0.101
411.000	-6.824	0.101
411.100	-16.586	0.101
411.200	-22.117	0.101
411.300	-21.420	0.101
411.400	-22.235	0.101
411.500	-8.773	0.101
411.600	-10.275	0.101
411.700	-14.080	0.101
411.800	-12.838	0.101
411.900	-18.399	0.101
412.000	-22.185	0.101
412.100	-26.072	0.101
412.200	-22.765	0.101
412.300	-18.504	0.101
412.400	-8.289	0.101
412.500	-17.501	0.101
412.600	-17.491	0.101
412.700	-15.914	0.101
412.800	-17.518	0.101
412.900	-14.432	0.101
413.000	-17.055	0.101
413.100	-16.892	0.101
413.200	-2.654	0.101
413.300	-21.135	0.101
413.400	-21.830	0.101
413.500	-25.872	0.101
413.600	-22.469	0.101
413.700	-16.469	0.101
413.800	-11.083	0.101
413.900	-14.282	0.101
414.000	-18.059	0.101
414.100	-20.976	0.101
414.200	-21.730	0.101
414.300	-9.946	0.101
414.400	-17.800	0.101
414.500	-19.689	0.101
414.600	-18.768	0.101
414.700	-25.851	0.101
414.800	-12.020	0.101
414.900	-21.783	0.101
415.000	-14.983	0.101
415.100	-21.644	0.101
415.200	-17.452	0.101
415.300	-7.123	0.101
415.400	-13.435	0.101
415.500	-18.660	0.101
415.600	-22.672	0.101
415.700	-27.535	0.101
415.800	-10.552	0.101
415.900	-18.440	0.101
416.000	-21.597	0.101
416.100	-32.350	0.101
416.200	-29.805	0.101
416.300	-26.085	0.101
416.400	-18.629	0.101
416.500	-7.680	0.101
416.600	-22.333	0.101
416.700	-6.277	0.101
416.800	-23.133	0.101
416.900	-19.201	0.101
417.000	-23.327	0.101
417.100	-21.665	0.101
417.200	-22.363	0.101
417.300	-23.764	0.101
417.400	-12.109	0.101
417.500	-25.195	0.101
417.600	-15.868	0.101
417.700	-19.024	0.101
417.800	-17.376	0.101
417.900	-35.015	0.101
418.000	-26.311	0.101
418.100	-19.412	0.101
418.200	-26.970	0.101
418.300	-20.710	0.101
418.400	-18.883	0.101
418.500	-25.377	0.101
418.600	-22.429	0.101
418.700	-19.989	0.101
418.800	-14.510	0.101
418.900	-28.487	0.101
419.000	-25.135	0.101
419.100	-25.998	0.101
419.200	-23.592	0.101
419.300	-13.832	0.101
419.400	-21.559	0.101
419.500	-22.437	0.101
419.600	-33.274	0.101
419.700	-18.794	0.101
419.800	-25.757	0.101
419.900	-31.612	0.101
420.000	-22.122	0.101
420.100	-25.714	0.101
420.200	-25.777	0.101
420.300	-21.649	0.101
420.400	-29.641	0.101
420.500	-21.216	0.101
420.600	-19.277	0.101
420.700	-22.372	0.101
420.800	-19.052	0.101
420.900	-13.676	0.101
421.000	-17.801	0.101
421.100	-20.833	0.101
421.200	-25.530	0.101
421.300	-28.472	0.101
421.400	-21.118	0.101
421.500	-21.600	0.101
421.600	-22.911	0.101
421.700	-20.773	0.101
421.800	-16.616	0.101
421.900	-22.956	0.101
422.000	-29.429	0.101
422.100	-17.793	0.101
422.200	-17.461	0.101
422.300	-20.278	0.101
422.400	-23.792	0.101
422.500	-22.806	0.101
422.600	-31.753	0.101
422.700	-22.410	0.101
422.800	-29.206	0.101
422.900	-10.926	0.101
423.000	-26.633	0.101
423.100	-21.143	0.101
423.200	-16.415	0.101
423.300	-17.504	0.101
423.400	-26.876	0.101
423.500	-23.152	0.101
423.600	-20.345	0.101
423.700	-20.599	0.101
423.800	-28.140	0.101
423.900	-29.260	0.101
424.000	-35.455	0.101
424.100	-22.732	0.101
424.200	-19.015	0.101
424.300	-24.364	0.101
424.400	-20.987	0.101
424.500	-26.637	0.101
424.600	-29.232	0.101
424.700	-21.423	0.101
424.800	-19.700	0.101
424.900	-25.172	0.101
425.000	-17.640	0.101
425.100	-26.096	0.101
425.200	-21.177	0.101
425.300	-22.898	0.101
425.400	-14.011	0.101
425.500	-23.360	0.101
425.600	-29.409	0.101
425.700	-26.609	0.101
425.800	-26.360	0.101
425.900	-17.392	0.101
426.000	-19.930	0.101
426.100	-20.842	0.101
426.200	-24.187	0.101
426.300	-25.851	0.101
426.400	-16.811	0.101
426.500	-30.376	0.101
426.600	-18.569	0.101
426.700	-20.336	0.101
426.800	-25.353	0.101
426.900	-17.760	0.101
427.000	-18.624	0.101
427.100	-19.244	0.101
427.200	-26.749	0.101
427.300	-21.619	0.101
427.400	-24.004	0.101
427.500	-29.008	0.101
427.600	-15.886	0.101
427.700	-6.113	0.101
427.800	-27.619	0.101
427.900	-26.764	0.101
428.000	-27.894	0.101
428.100	-23.502	0.101
428.200	-33.392	0.101
428.300	-20.744	0.101
428.400	-16.254	0.101
428.500	-28.212	0.101
428.600	-29.578	0.101
428.700	-20.773	0.101
428.800	-24.070	0.101
428.900	-14.795	0.101
429.000	-10.372	0.101
429.100	-28.951	0.101
429.200	-27.985	0.101
429.300	-24.011	0.101
429.400	-32.900	0.101
429.500	-31.882	0.101
429.600	-17.522	0.101
429.700	-18.949	0.101
429.800	-32.841	0.101
429.900	-23.484	0.101
430.000	-17.829	0.101
430.100	-19.938	0.101
430.200	-22.591	0.101
430.300	-27.291	0.101
430.400	-22.229	0.101
430.500	-24.826	0.101
430.600	-32.308	0.101
430.700	-23.814	0.101
430.800	-21.940	0.101
430.900	-15.545	0.101
431.000	-27.084	0.101
431.100	-32.635	0.101
431.200	-39.039	0.101
431.300	-30.429	0.101
431.400	-28.625	0.101
431.500	-22.690	0.101
431.600	-13.511	0.101
431.700	-25.906	0.101
431.800	-22.778	0.101
431.900	-16.274	0.101
432.000	-22.802	0.101
432.100	-33.655	0.101
432.200	-16.635	0.101
432.300	-15.246	0.101
432.400	-23.270	0.101
432.500	-15.753	0.101
432.600	-25.174	0.101
432.700	-13.887	0.101
432.800	-21.532	0.101
432.900	-24.394	0.101
433.000	-12.009	0.101
433.100	-15.660	0.101
433.200	-20.072	0.101
433.300	-16.784	0.101
433.400	-21.110	0.101
433.500	-29.603	0.101
433.600	-27.813	0.101
433.700	-23.010	0.101
433.800	-18.245	0.101
433.900	-18.914	0.101
434.000	-25.014	0.101
434.100	-28.155	0.101
434.200	-27.576	0.101
434.300	-27.252	0.101
434.400	-33.131	0.101
434.500	-28.759	0.101
434.600	-37.849	0.101
434.700	-20.631	0.101
434.800	-23.270	0.101
434.900	-28.942	0.101
435.000	-14.493	0.101
435.100	-25.887	0.101
435.200	-20.384	0.101
435.300	-13.026	0.101
435.400	-17.793	0.101
435.500	-29.784	0.101
435.600	-24.963	0.101
435.700	-18.388	0.101
435.800	-20.808	0.101
435.900	-29.522	0.101
436.000	-19.816	0.101
436.100	-14.970	0.101
436.200	-19.711	0.101
436.300	-30.881	0.101
436.400	-14.266	0.101
436.500	-17.074	0.101
436.600	-25.309	0.101
436.700	-24.878	0.101
436.800	-24.646	0.101
436.900	-19.631	0.101
437.000	-27.748	0.101
437.100	-23.567	0.101
437.200	-18.640	0.101
437.300	-19.563	0.101
437.400	-16.969	0.101
437.500	-21.265	0.101
437.600	-16.843	0.101
437.700	-24.549	0.101
437.800	-29.875	0.101
437.900	-16.528	0.101
438.000	-10.177	0.101
438.100	-17.132	0.101
438.200	-11.010	0.101
438.300	-36.618	0.101
438.400	-22.376	0.101
438.500	-26.250	0.101
438.600	-24.636	0.101
438.700	-6.447	0.101
438.800	-21.410	0.101
438.900	-11.776	0.101
439.000	-22.603	0.101
439.100	-27.346	0.101
439.200	-23.676	0.101
439.300	-12.440	0.101
439.400	-34.669	0.101
439.500	-23.688	0.101
439.600	-26.567	0.101
439.700	-16.472	0.101
439.800	-30.822	0.101
439.900	-34.382	0.101
440.000	-19.231	0.101
440.100	-36.935	0.101
440.200	-22.567	0.101
440.300	-22.137	0.101
440.400	-15.690	0.101
440.500	-25.026	0.101
440.600	-17.547	0.101
440.700	-13.685	0.101
440.800	-19.825	0.101
440.900	-22.724	0.101
441.000	-11.836	0.101
441.100	-23.256	0.101
441.200	-21.049	0.101
441.300	-19.156	0.101
441.400	-10.613	0.101
441.500	-24.026	0.101
441.600	-16.292	0.101
441.700	-18.454	0.101
441.800	-11.470	0.101
441.900	-21.454	0.101
442.000	-27.077	0.101
442.100	-29.466	0.101
442.200	-24.368	0.101
442.300	-30.032	0.101
442.400	-16.293	0.101
442.500	-27.809	0.101
442.600	-23.473	0.101
442.700	-20.123	0.101
442.800	-27.367	0.101
442.900	-27.051	0.101
443.000	-21.196	0.101
443.100	-25.770	0.101
443.200	-25.019	0.101
443.300	-15.902	0.101
443.400	-20.958	0.101
443.500	-22.893	0.101
443.600	-21.460	0.101
443.700	-22.872	0.101
443.800	-11.745	0.101
443.900	-22.981	0.101
444.000	-20.709	0.101
444.100	-14.561	0.101
444.200	-23.499	0.101
444.300	-23.363	0.101
444.400	-19.653	0.101
444.500	-29.081	0.101
444.600	-32.409	0.101
444.700	-20.315	0.101
444.800	-24.898	0.101
444.900	-17.622	0.101
445.000	-27.661	0.101
445.100	-33.516	0.101
445.200	-31.460	0.101
445.300	-23.634	0.101
445.400	-16.032	0.101
445.500	-23.067	0.101
445.600	-23.684	0.101
445.700	-26.104	0.101
445.800	-16.750	0.101
445.900	-21.709	0.101
446.000	-22.281	0.101
446.100	-13.301	0.101
446.200	-17.636	0.101
446.300	-24.569	0.101
446.400	-31.070	0.101
446.500	-16.448	0.101
446.600	-11.893	0.101
446.700	-18.637	0.101
446.800	-24.762	0.101
446.900	-3.595	0.101
447.000	-28.478	0.101
447.100	-26.935	0.101
447.200	-21.381	0.101
447.300	-18.670	0.101
447.400	-27.484	0.101
447.500	-11.053	0.101
447.600	-13.175	0.101
447.700	-25.315	0.101
447.800	-12.063	0.101
447.900	-24.059	0.101
448.000	-22.064	0.101
448.100	-16.288	0.101
448.200	-26.089	0.101
448.300	-27.703	0.101
448.400	-21.297	0.101
448.500	-26.750	0.101
448.600	-16.741	0.101
448.700	-18.762	0.101
448.800	-24.467	0.101
448.900	-22.497	0.101
449.000	-12.047	0.101
449.100	-9.109	0.101
449.200	-15.158	0.101
449.300	-23.909	0.101
449.400	-14.684	0.101
449.500	-19.317	0.101
449.600	-23.145	0.101
449.700	-22.306	0.101
449.800	-26.254	0.101
449.900	-27.422	0.101
450.000	-19.430	0.101
450.100	-24.930	0.101
450.200	-14.723	0.101
450.300	-13.245	0.101
450.400	-14.758	0.101
450.500	-11.014	0.101
450.600	-25.122	0.101
450.700	-22.099	0.101
450.800	-31.382	0.101
450.900	-25.396	0.101
451.000	-21.121	0.101
451.100	-13.411	0.101
451.200	-21.019	0.101
451.300	-20.540	0.101
451.400	-15.708	0.101
451.500	-24.132	0.101
451.600	-15.437	0.101
451.700	-17.779	0.101
451.800	-27.420	0.101
451.900	-30.468	0.101
452.000	-24.426	0.101
452.100	-27.677	0.101
452.200	-16.921	0.101
452.300	-19.569	0.101
452.400	-26.346	0.101
452.500	-15.915	0.101
452.600	-13.471	0.101
452.700	-15.434	0.101
452.800	-20.561	0.101
452.900	-28.438	0.101
453.000	-16.122	0.101
453.100	-15.130	0.101
453.200	-23.917	0.101
453.300	-24.257	0.101
453.400	-25.314	0.101
453.500	-28.023	0.101
453.600	-20.816	0.101
453.700	-21.990	0.101
453.800	-23.282	0.101
453.900	-26.297	0.101
454.000	-17.070	0.101
454.100	-16.273	0.101
454.200	-14.598	0.101
454.300	-18.224	0.101
454.400	-20.848	0.101
454.500	-4.760	0.101
454.600	-22.130	0.101
454.700	-19.609	0.101
454.800	-15.604	0.101
454.900	-6.742	0.101
455.000	-26.276	0.101
455.100	-18.288	0.101
455.200	-10.132	0.101
455.300	-15.975	0.101
455.400	-29.696	0.101
455.500	-17.077	0.101
455.600	-13.073	0.101
455.700	-18.768	0.101
455.800	-23.657	0.101
455.900	-14.618	0.101
456.000	-19.783	0.101
456.100	-15.799	0.101
456.200	-19.372	0.101
456.300	-17.109	0.101
456.400	-25.738	0.101
456.500	-23.894	0.101
456.600	-17.713	0.101
456.700	-19.742	0.101
456.800	-16.454	0.101
456.900	-20.357	0.101
457.000	-27.606	0.101
457.100	-25.607	0.101
457.200	-27.517	0.101
457.300	-25.698	0.101
457.400	-21.653	0.101
457.500	-21.586	0.101
457.600	-14.453	0.101
457.700	-12.876	0.101
457.800	-16.001	0.101
457.900	-22.589	0.101
458.000	-23.528	0.101
458.100	-16.788	0.101
458.200	-16.873	0.101
458.300	-31.162	0.101
458.400	-21.167	0.101
458.500	-17.150	0.101
458.600	-14.983	0.101
458.700	-16.146	0.101
458.800	-12.651	0.101
458.900	-19.533	0.101
459.000	-10.894	0.101
459.100	-25.078	0.101
459.200	-21.335	0.101
459.300	-17.056	0.101
459.400	-12.951	0.101
459.500	-11.311	0.101
459.600	-18.296	0.101
459.700	-23.835	0.101
459.800	-17.156	0.101
459.900	-23.287	0.101
460.000	-13.815	0.101
460.100	-13.892	0.101
460.200	-17.459	0.101
460.300	-10.220	0.101
460.400	-11.957	0.101
460.500	-22.265	0.101
460.600	-19.536	0.101
460.700	-17.541	0.101
460.800	-24.582	0.101
460.900	-19.613	0.101
461.000	-18.195	0.101
461.100	-13.655	0.101
461.200	-13.848	0.101
461.300	-22.852	0.101
461.400	-15.768	0.101
461.500	-23.246	0.101
461.600	-26.434	0.101
461.700	-12.297	0.101
461.800	-16.197	0.101
461.900	-14.906	0.101
462.000	-24.076	0.101
462.100	-23.755	0.101
462.200	-20.155	0.101
462.300	-9.884	0.101
462.400	-10.447	0.101
462.500	-10.251	0.101
462.600	-4.178	0.101
462.700	-22.309	0.101
462.800	-32.777	0.101
462.900	-22.216	0.101
463.000	-30.172	0.101
463.100	-21.267	0.101
463.200	-23.118	0.101
463.300	-11.129	0.101
463.400	-16.281	0.101
463.500	-20.160	0.101
463.600	-25.585	0.101
463.700	-13.375	0.101
463.800	-7.809	0.101
463.900	-19.083	0.101
464.000	-17.150	0.101
464.100	-33.993	0.101
464.200	-32.122	0.101
464.300	-4.196	0.101
464.400	-16.833	0.101
464.500	-27.362	0.101
464.600	-16.223	0.101
464.700	-15.528	0.101
464.800	-18.836	0.101
464.900	-15.187	0.101
465.000	-19.916	0.101
465.100	-14.235	0.101
465.200	-11.953	0.101
465.300	-10.055	0.101
465.400	-13.474	0.101
465.500	-12.615	0.101
465.600	-9.920	0.101
465.700	-10.727	0.101
465.800	-16.634	0.101
465.900	-24.728	0.101
466.000	-15.021	0.101
466.100	-30.455	0.101
466.200	-16.024	0.101
466.300	-24.527	0.101
466.400	-28.370	0.101
466.500	-22.402	0.101
466.600	-12.657	0.101
466.700	-11.838	0.101
466.800	-18.546	0.101
466.900	-9.989	0.101
467.000	-20.251	0.101
467.100	-12.971	0.101
467.200	-15.294	0.101
467.300	-15.342	0.101
467.400	-7.536	0.101
467.500	-28.377	0.101
467.600	-29.343	0.101
467.700	-18.442	0.101
467.800	-14.777	0.101
467.900	-22.859	0.101
468.000	-11.362	0.101
468.100	-14.531	0.101
468.200	-22.590	0.101
468.300	-15.311	0.101
468.400	-18.512	0.101
468.500	-28.664	0.101
468.600	-14.190	0.101
468.700	-15.235	0.101
468.800	-16.556	0.101
468.900	-8.697	0.101
469.000	-19.820	0.101
469.100	-21.858	0.101
469.200	-19.590	0.101
469.300	-6.186	0.101
469.400	-12.897	0.101
469.500	-29.077	0.101
469.600	-24.412	0.101
469.700	-29.795	0.101
469.800	-18.758	0.101
469.900	-15.247	0.101
470.000	-21.706	0.101
470.100	-22.481	0.101
470.200	-23.959	0.101
470.300	-14.307	0.101
470.400	-13.903	0.101
470.500	-9.142	0.101
470.600	-15.657	0.101
470.700	-18.548	0.101
470.800	-21.824	0.101
470.900	-2.663	0.101
471.000	-18.527	0.101
471.100	-29.621	0.101
471.200	-31.274	0.101
471.300	-24.619	0.101
471.400	-10.729	0.101
471.500	-8.232	0.101
471.600	-26.557	0.101
471.700	-11.205	0.101
471.800	-11.905	0.101
471.900	-20.372	0.101
472.000	-18.314	0.101
472.100	-11.406	0.101
472.200	-9.984	0.101
472.300	-15.624	0.101
472.400	-18.623	0.101
472.500	-13.108	0.101
472.600	-22.300	0.101
472.700	-19.256	0.101
472.800	-12.936	0.101
472.900	-23.094	0.101
473.000	-21.099	0.101
473.100	-11.536	0.101
473.200	-14.349	0.101
473.300	-26.696	0.101
473.400	-23.720	0.101
473.500	-15.853	0.101
473.600	-9.190	0.101
473.700	-21.019	0.101
473.800	-23.133	0.101
473.900	-12.549	0.101
474.000	-9.642	0.101
474.100	-21.950	0.101
474.200	-12.868	0.101
474.300	-15.842	0.101
474.400	-25.781	0.101
474.500	-18.105	0.101
474.600	-30.743	0.101
474.700	-13.881	0.101
474.800	-19.738	0.101
474.900	-25.741	0.101
475.000	-11.164	0.101
475.100	-17.970	0.101
475.200	-22.408	0.101
475.300	-27.015	0.101
475.400	-16.691	0.101
475.500	-11.664	0.101
475.600	-7.503	0.101
475.700	-13.613	0.101
475.800	-18.881	0.101
475.900	-27.687	0.101
476.000	-22.540	0.101
476.100	-19.007	0.101
476.200	-18.366	0.101
476.300	-13.763	0.101
476.400	-24.425	0.101
476.500	-24.968	0.101
476.600	-16.154	0.101
476.700	-15.789	0.101
476.800	-8.559	0.101
476.900	-8.482	0.101
477.000	-18.913	0.101
477.100	-14.295	0.101
477.200	-28.774	0.101
477.300	-10.613	0.101
477.400	-3.622	0.101
477.500	-21.740	0.101
477.600	-14.418	0.101
477.700	-15.723	0.101
477.800	-14.176	0.101
477.900	-14.565	0.101
478.000	-25.540	0.101
478.100	-8.028	0.101
478.200	-9.994	0.101
478.300	-9.287	0.101
478.400	-17.912	0.101
478.500	-26.417	0.101
478.600	-22.501	0.101
478.700	-10.555	0.101
478.800	-26.540	0.101
478.900	-19.380	0.101
479.000	-21.373	0.101
479.100	-10.586	0.101
479.200	-0.196	0.101
479.300	-13.519	0.101
479.400	-22.260	0.101
479.500	-24.849	0.101
479.600	-21.247	0.101
479.700	-15.602	0.101
479.800	-7.665	0.101
479.900	-10.982	0.101
480.000	-16.762	0.101
480.100	-14.323	0.101
480.200	-21.549	0.101
480.300	-13.790	0.101
480.400	-18.474	0.101
480.500	-18.523	0.101
480.600	-10.383	0.101
480.700	1.918	0.101
480.800	-10.452	0.101
480.900	-4.560	0.101
481.000	6.471	0.101
481.100	14.946	0.101
481.200	2.396	0.101
481.300	-0.351	0.101
481.400	-0.715	0.101
481.500	7.154	0.101
481.600	7.941	0.101
481.700	10.772	0.101
481.800	-3.990	0.101
481.900	5.839	0.101
482.000	9.898	0.101
482.100	21.194	0.101
482.200	18.212	0.101
482.300	8.642	0.101
482.400	26.214	0.101
482.500	20.558	0.101
482.600	10.182	0.101
482.700	12.089	0.101
482.800	17.628	0.101
482.900	17.522	0.101
483.000	3.907	0.101
483.100	12.219	0.101
483.200	22.713	0.101
483.300	15.432	0.101
483.400	18.586	0.101
483.500	17.180	0.101
483.600	19.141	0.101
483.700	27.412	0.101
483.800	21.694	0.101
483.900	14.848	0.101
484.000	10.459	0.101
484.100	-0.106	0.101
484.200	6.756	0.101
484.300	18.742	0.101
484.400	22.636	0.101
484.500	24.295	0.101
484.600	15.784	0.101
484.700	15.486	0.101
484.800	20.089	0.101
484.900	12.177	0.101
485.000	5.570	0.101
485.100	20.177	0.101
485.200	17.481	0.101
485.300	15.543	0.101
485.400	0.290	0.101
485.500	8.724	0.101
485.600	6.420	0.101
485.700	2.550	0.101
485.800	14.219	0.101
485.900	3.024	0.101
486.000	14.070	0.101
486.100	13.825	0.101
486.200	11.016	0.101
486.300	1.774	0.101
486.400	9.079	0.101
486.500	4.960	0.101
486.600	15.131	0.101
486.700	13.708	0.101
486.800	20.490	0.101
486.900	21.639	0.101
487.000	9.380	0.101
487.100	9.678	0.101
487.200	10.421	0.101
487.300	3.092	0.101
487.400	8.841	0.101
487.500	15.266	0.101
487.600	-0.679	0.101
487.700	18.946	0.101
487.800	24.404	0.101
487.900	13.321	0.101
488.000	18.368	0.101
488.100	19.346	0.101
488.200	20.861	0.101
488.300	7.259	0.101
488.400	0.619	0.101
488.500	11.402	0.101
488.600	8.223	0.101
488.700	17.469	0.101
488.800	20.542	0.101
488.900	11.827	0.101
489.000	13.807	0.101
489.100	17.889	0.101
489.200	15.096	0.101
489.300	19.803	0.101
489.400	11.072	0.101
489.500	9.741	0.101
489.600	13.266	0.101
489.700	12.220	0.101
489.800	11.978	0.101
489.900	21.762	0.101
490.000	18.277	0.101
490.100	17.273	0.101
490.200	3.659	0.101
490.300	10.328	0.101
490.400	12.934	0.101
490.500	15.644	0.101
490.600	15.140	0.101
490.700	26.796	0.101
490.800	15.518	0.101
490.900	17.598	0.101
491.000	9.375	0.101
491.100	15.287	0.101
491.200	22.414	0.101
491.300	19.773	0.101
491.400	15.083	0.101
491.500	24.153	0.101
491.600	14.088	0.101
491.700	3.158	0.101
491.800	7.332	0.101
491.900	13.029	0.101
492.000	17.946	0.101
492.100	7.726	0.101
492.200	21.472	0.101
492.300	20.264	0.101
492.400	26.029	0.101
492.500	19.833	0.101
492.600	17.280	0.101
492.700	13.430	0.101
492.800	23.922	0.101
492.900	15.023	0.101
493.000	14.150	0.101
493.100	18.033	0.101
493.200	23.154	0.101
493.300	25.285	0.101
493.400	26.944	0.101
493.500	28.257	0.101
493.600	23.396	0.101
493.700	25.637	0.101
493.800	6.769	0.101
493.900	22.520	0.101
494.000	31.277	0.101
494.100	25.514	0.101
494.200	30.645	0.101
494.300	39.930	0.101
494.400	25.694	0.101
494.500	25.524	0.101
494.600	28.688	0.101
494.700	28.044	0.101
494.800	30.141	0.101
494.900	31.303	0.101
495.000	18.903	0.101
495.100	29.998	0.101
495.200	34.337	0.101
495.300	25.512	0.101
495.400	33.475	0.101
495.500	25.221	0.101
495.600	33.228	0.101
495.700	34.881	0.101
495.800	25.038	0.101
495.900	31.834	0.101
496.000	31.547	0.101
496.100	33.977	0.101
496.200	37.783	0.101
496.300	22.863	0.101
496.400	29.193	0.101
496.500	23.920	0.101
496.600	39.906	0.101
496.700	35.333	0.101
496.800	38.303	0.101
496.900	34.026	0.101
497.000	30.749	0.101
497.100	34.141	0.101
497.200	34.781	0.101
497.300	34.825	0.101
497.400	30.469	0.101
497.500	36.644	0.101
497.600	36.493	0.101
497.700	37.160	0.101
497.800	25.474	0.101
497.900	37.762	0.101
498.000	45.109	0.101
498.100	49.944	0.101
498.200	33.168	0.101
498.300	35.038	0.101
498.400	41.751	0.101
498.500	46.194	0.101
498.600	25.471	0.101
498.700	35.456	0.101
498.800	29.233	0.101
498.900	40.794	0.101
499.000	45.487	0.101
499.100	33.376	0.101
499.200	40.532	0.101
499.300	35.124	0.101
499.400	41.334	0.101
499.500	52.925	0.101
499.600	45.369	0.101
499.700	31.190	0.101
499.800	55.551	0.101
499.900	42.531	0.101
500.000	40.820	0.101
500.100	37.353	0.101
500.200	36.848	0.101
500.300	37.584	0.101
500.400	50.782	0.101
500.500	40.808	0.101
500.600	42.972	0.101
500.700	44.195	0.101
500.800	29.194	0.101
500.900	32.984	0.101
501.000	21.739	0.101
501.100	36.739	0.101
501.200	31.004	0.101
501.300	49.470	0.101
501.400	48.874	0.101
501.500	56.481	0.101
501.600	38.597	0.101
501.700	50.110	0.101
501.800	39.678	0.101
501.900	52.067	0.101
502.000	46.252	0.101
502.100	38.177	0.101
502.200	39.948	0.101
502.300	35.438	0.101
502.400	38.635	0.101
502.500	35.837	0.101
502.600	36.235	0.101
502.700	43.724	0.101
502.800	44.260	0.101
502.900	47.935	0.101
503.000	35.873	0.101
503.100	46.477	0.101
503.200	42.909	0.101
503.300	37.745	0.101
503.400	33.348	0.101
503.500	49.339	0.101
503.600	44.573	0.101
503.700	34.299	0.101
503.800	35.016	0.101
503.900	31.265	0.101
504.000	37.244	0.101
504.100	41.813	0.101
504.200	46.018	0.101
504.300	47.537	0.101
504.400	57.906	0.101
504.500	51.639	0.101
504.600	46.401	0.101
504.700	37.900	0.101
504.800	43.478	0.101
504.900	34.371	0.101
505.000	51.352	0.101
505.100	38.852	0.101
505.200	35.974	0.101
505.300	38.420	0.101
505.400	32.796	0.101
505.500	40.688	0.101
505.600	34.343	0.101
505.700	39.513	0.101
505.800	35.837	0.101
505.900	45.261	0.101
506.000	48.912	0.101
506.100	55.923	0.101
506.200	39.329	0.101
506.300	37.947	0.101
506.400	33.571	0.101
506.500	43.030	0.101
506.600	45.428	0.101
506.700	41.683	0.101
506.800	39.150	0.101
506.900	44.008	0.101
507.000	41.628	0.101
507.100	50.769	0.101
507.200	58.795	0.101
507.300	39.713	0.101
507.400	54.032	0.101
507.500	36.279	0.101
507.600	28.512	0.101
507.700	35.988	0.101
507.800	36.851	0.101
507.900	35.232	0.101
508.000	26.476	0.101
508.100	40.760	0.101
508.200	42.555	0.101
508.300	51.051	0.101
508.400	47.150	0.101
508.500	39.188	0.101
508.600	44.220	0.101
508.700	40.237	0.101
508.800	43.740	0.101
508.900	37.676	0.101
509.000	27.848	0.101
509.100	46.911	0.101
509.200	49.831	0.101
509.300	38.422	0.101
509.400	30.170	0.101
509.500	45.191	0.101
509.600	35.743	0.101
509.700	44.150	0.101
509.800	34.890	0.101
509.900	46.813	0.101
510.000	43.404	0.101
510.100	44.758	0.101
510.200	37.769	0.101
510.300	37.541	0.101
510.400	40.004	0.101
510.500	33.513	0.101
510.600	42.502	0.101
510.700	39.542	0.101
510.800	43.272	0.101
510.900	36.186	0.101
511.000	53.089	0.101
511.100	21.683	0.101
511.200	41.211	0.101
511.300	47.172	0.101
511.400	33.253	0.101
511.500	42.696	0.101
511.600	40.648	0.101
511.700	38.017	0.101
511.800	38.085	0.101
511.900	43.381	0.101
512.000	27.232	0.101
512.100	29.535	0.101
512.200	32.760	0.101
512.300	43.468	0.101
512.400	29.015	0.101
512.500	41.421	0.101
512.600	36.369	0.101
512.700	42.229	0.101
512.800	42.594	0.101
512.900	39.755	0.101
513.000	37.570	0.101
513.100	34.179	0.101
513.200	32.847	0.101
513.300	30.681	0.101
513.400	23.993	0.101
513.500	38.353	0.101
513.600	35.326	0.101
513.700	45.898	0.101
513.800	51.260	0.101
513.900	41.600	0.101
514.000	22.927	0.101
514.100	38.796	0.101
514.200	35.637	0.101
514.300	35.633	0.101
514.400	32.104	0.101
514.500	38.675	0.101
514.600	41.500	0.101
514.700	46.317	0.101
514.800	43.924	0.101
514.900	41.493	0.101
515.000	42.801	0.101
515.100	38.626	0.101
515.200	39.035	0.101
515.300	41.999	0.101
515.400	40.879	0.101
515.500	46.750	0.101
515.600	45.103	0.101
515.700	42.712	0.101
515.800	30.053	0.101
515.900	37.607	0.101
516.000	30.017	0.101
516.100	37.624	0.101
516.200	47.716	0.101
516.300	57.216	0.101
516.400	37.794	0.101
516.500	41.352	0.101
516.600	39.161	0.101
516.700	35.030	0.101
516.800	31.502	0.101
516.900	33.292	0.101
517.000	34.373	0.101
517.100	22.738	0.101
517.200	38.041	0.101
517.300	35.767	0.101
517.400	38.392	0.101
517.500	32.785	0.101
517.600	38.683	0.101
517.700	43.198	0.101
517.800	42.912	0.101
517.900	41.498	0.101
518.000	33.919	0.101
518.100	38.893	0.101
518.200	43.321	0.101
518.300	45.520	0.101
518.400	38.119	0.101
518.500	43.063	0.101
518.600	43.651	0.101
518.700	37.806	0.101
518.800	21.380	0.101
518.900	26.361	0.101
519.000	23.385	0.101
519.100	32.853	0.101
519.200	33.979	0.101
519.300	46.329	0.101
519.400	37.635	0.101
519.500	38.298	0.101
519.600	38.495	0.101
519.700	34.435	0.101
519.800	38.808	0.101
519.900	42.520	0.101
520.000	39.934	0.101
520.100	42.843	0.101
520.200	38.106	0.101
520.300	46.713	0.101
520.400	37.784	0.101
520.500	39.645	0.101
520.600	39.569	0.101
520.700	44.423	0.101
520.800	47.119	0.101
520.900	39.410	0.101
521.000	32.052	0.101
521.100	38.424	0.101
521.200	45.191	0.101
521.300	38.262	0.101
521.400	45.037	0.101
521.500	46.320	0.101
521.600	52.291	0.101
521.700	35.386	0.101
521.800	38.297	0.101
521.900	31.057	0.101
522.000	34.542	0.101
522.100	41.482	0.101
522.200	45.231	0.101
522.300	28.751	0.101
522.400	42.451	0.101
522.500	45.884	0.101
522.600	38.347	0.101
522.700	44.805	0.101
522.800	40.798	0.101
522.900	27.867	0.101
523.000	39.686	0.101
523.100	31.263	0.101
523.200	44.442	0.101
523.300	39.512	0.101
523.400	44.817	0.101
523.500	42.697	0.101
523.600	38.025	0.101
523.700	47.203	0.101
523.800	29.462	0.101
523.900	31.639	0.101
524.000	43.018	0.101
524.100	32.275	0.101
524.200	42.179	0.101
524.300	42.933	0.101
524.400	34.291	0.101
524.500	29.795	0.101
524.600	43.357	0.101
524.700	43.939	0.101
524.800	46.710	0.101
524.900	45.599	0.101
525.000	33.906	0.101
525.100	33.003	0.101
525.200	30.860	0.101
525.300	43.373	0.101
525.400	43.923	0.101
525.500	32.986	0.101
525.600	31.464	0.101
525.700	33.677	0.101
525.800	50.822	0.101
525.900	36.093	0.101
526.000	50.207	0.101
526.100	36.821	0.101
526.200	43.103	0.101
526.300	32.231	0.101
526.400	37.390	0.101
526.500	37.269	0.101
526.600	30.035	0.101
526.700	34.294	0.101
526.800	40.280	0.101
526.900	40.161	0.101
527.000	31.239	0.101
527.100	46.298	0.101
527.200	33.194	0.101
527.300	41.273	0.101
527.400	48.910	0.101
527.500	39.184	0.101
527.600	42.859	0.101
527.700	46.804	0.101
527.800	43.614	0.101
527.900	39.354	0.101
528.000	41.255	0.101
528.100	38.246	0.101
528.200	39.502	0.101
528.300	28.436	0.101
528.400	32.131	0.101
528.500	31.790	0.101
528.600	36.333	0.101
528.700	33.253	0.101
528.800	38.091	0.101
528.900	28.953	0.101
529.000	45.204	0.101
529.100	38.737	0.101
529.200	30.147	0.101
529.300	30.060	0.101
529.400	34.683	0.101
529.500	36.681	0.101
529.600	40.448	0.101
529.700	45.351	0.101
529.800	38.989	0.101
529.900	27.381	0.101
530.000	41.265	0.101
530.100	43.804	0.101
530.200	37.494	0.101
530.300	20.999	0.101
530.400	33.806	0.101
530.500	36.710	0.101
530.600	35.535	0.101
530.700	44.201	0.101
530.800	42.337	0.101
530.900	34.431	0.101
531.000	30.338	0.101
531.100	36.662	0.101
531.200	46.095	0.101
531.300	36.026	0.101
531.400	36.086	0.101
531.500	42.216	0.101
531.600	47.605	0.101
531.700	36.737	0.101
531.800	34.048	0.101
531.900	35.313	0.101
532.000	35.969	0.101
532.100	37.345	0.101
532.200	42.637	0.101
532.300	39.507	0.101
532.400	48.290	0.101
532.500	36.447	0.101
532.600	34.751	0.101
532.700	35.256	0.101
532.800	35.681	0.101
532.900	37.269	0.101
533.000	41.512	0.101
533.100	44.701	0.101
533.200	41.197	0.101
533.300	36.359	0.101
533.400	36.814	0.101
533.500	47.023	0.101
533.600	37.255	0.101
533.700	33.995	0.101
533.800	43.046	0.101
533.900	41.577	0.101
534.000	42.874	0.101
534.100	43.058	0.101
534.200	42.331	0.101
534.300	42.073	0.101
534.400	26.099	0.101
534.500	32.419	0.101
534.600	23.390	0.101
534.700	33.338	0.101
534.800	33.558	0.101
534.900	34.761	0.101
535.000	28.290	0.101
535.100	41.042	0.101
535.200	33.860	0.101
535.300	25.774	0.101
535.400	43.424	0.101
535.500	37.913	0.101
535.600	33.225	0.101
535.700	21.594	0.101
535.800	38.635	0.101
535.900	31.152	0.101
536.000	43.935	0.101
536.100	38.421	0.101
536.200	30.541	0.101
536.300	38.918	0.101
536.400	39.955	0.101
536.500	43.357	0.101
536.600	34.667	0.101
536.700	47.255	0.101
536.800	24.735	0.101
536.900	30.913	0.101
537.000	33.717	0.101
537.100	33.476	0.101
537.200	42.872	0.101
537.300	38.833	0.101
537.400	33.959	0.101
537.500	36.376	0.101
537.600	41.243	0.101
537.700	38.998	0.101
537.800	44.911	0.101
537.900	30.204	0.101
538.000	27.422	0.101
538.100	42.965	0.101
538.200	33.378	0.101
538.300	41.055	0.101
538.400	41.353	0.101
538.500	36.720	0.101
538.600	38.035	0.101
538.700	33.946	0.101
538.800	34.945	0.101
538.900	40.894	0.101
539.000	44.398	0.101
539.100	35.155	0.101
539.200	26.044	0.101
539.300	31.813	0.101
539.400	48.042	0.101
539.500	44.733	0.101
539.600	24.263	0.101
539.700	31.924	0.101
539.800	37.809	0.101
539.900	41.844	0.101
540.000	34.089	0.101
540.100	29.435	0.101
540.200	30.038	0.101
540.300	37.156	0.101
540.400	24.454	0.101
540.500	37.346	0.101
540.600	36.663	0.101
540.700	26.272	0.101
540.800	18.200	0.101
540.900	29.039	0.101
541.000	28.777	0.101
541.100	20.039	0.101
541.200	22.243	0.101
541.300	18.532	0.101
541.400	21.690	0.101
541.500	20.957	0.101
541.600	16.097	0.101
541.700	11.950	0.101
541.800	3.578	0.101
541.900	14.062	0.101
542.000	2.623	0.101
542.100	13.869	0.101
542.200	10.892	0.101
542.300	13.621	0.101
542.400	1.987	0.101
542.500	-2.814	0.101
542.600	-3.333	0.101
542.700	18.475	0.101
542.800	8.758	0.101
542.900	-6.404	0.101
543.000	-7.919	0.101
543.100	-0.418	0.101
543.200	3.862	0.101
543.300	0.095	0.101
543.400	6.935	0.101
543.500	-0.780	0.101
543.600	-7.185	0.101
543.700	-13.697	0.101
543.800	-6.396	0.101
543.900	-3.233	0.101
544.000	4.243	0.101
544.100	8.469	0.101
544.200	-4.650	0.101
544.300	-17.946	0.101
544.400	-1.124	0.101
544.500	-2.462	0.101
544.600	-15.640	0.101
544.700	-11.939	0.101
544.800	-6.666	0.101
544.900	-12.459	0.101
545.000	-6.837	0.101
545.100	4.486	0.101
545.200	2.316	0.101
545.300	-12.437	0.101
545.400	-13.918	0.101
545.500	-9.448	0.101
545.600	-15.718	0.101
545.700	-11.437	0.101
545.800	-4.557	0.101
545.900	-9.800	0.101
546.000	-0.398	0.101
546.100	-14.060	0.101
546.200	-0.608	0.101
546.300	-8.456	0.101
546.400	-8.357	0.101
546.500	-10.075	0.101
546.600	-6.593	0.101
546.700	-7.880	0.101
546.800	-14.178	0.101
546.900	-3.509	0.101
547.000	-9.143	0.101
547.100	-13.805	0.101
547.200	-10.972	0.101
547.300	-6.444	0.101
547.400	-10.747	0.101
547.500	-7.492	0.101
547.600	2.544	0.101
547.700	-5.384	0.101
547.800	-15.319	0.101
547.900	-11.968	0.101
548.000	-16.632	0.101
548.100	-12.071	0.101
548.200	-14.566	0.101
548.300	-6.859	0.101
548.400	6.602	0.101
548.500	-6.700	0.101
548.600	-8.049	0.101
548.700	-16.868	0.101
548.800	-13.660	0.101
548.900	-5.234	0.101
549.000	-4.717	0.101
549.100	1.764	0.101
549.200	-11.796	0.101
549.300	-20.609	0.101
549.400	-8.494	0.101
549.500	-6.606	0.101
549.600	-6.627	0.101
549.700	-13.795	0.101
549.800	-6.848	0.101
549.900	-3.964	0.101
550.000	-7.802	0.101
550.100	-1.759	0.101
550.200	-4.098	0.101
550.300	-16.913	0.101
550.400	2.149	0.101
550.500	1.411	0.101
550.600	-10.636	0.101
550.700	-15.666	0.101
550.800	-12.862	0.101
550.900	-4.583	0.101
551.000	-12.941	0.101
551.100	-14.552	0.101
551.200	-19.937	0.101
551.300	-11.145	0.101
551.400	9.033	0.101
551.500	-17.435	0.101
551.600	-16.196	0.101
551.700	-4.629	0.101
551.800	-10.983	0.101
551.900	-17.284	0.101
552.000	-16.723	0.101
552.100	-23.178	0.101
552.200	-9.222	0.101
552.300	-9.983	0.101
552.400	-12.891	0.101
552.500	-8.863	0.101
552.600	-9.987	0.101
552.700	-11.553	0.101
552.800	-16.252	0.101
552.900	-25.945	0.101
553.000	-13.925	0.101
553.100	-7.881	0.101
553.200	-13.585	0.101
553.300	-4.590	0.101
553.400	-19.924	0.101
553.500	-13.254	0.101
553.600	-13.434	0.101
553.700	-7.289	0.101
553.800	-11.330	0.101
553.900	-7.806	0.101
554.000	-15.412	0.101
554.100	-16.599	0.101
554.200	-12.415	0.101
554.300	-11.536	0.101
554.400	-20.737	0.101
554.500	-17.237	0.101
554.600	-14.851	0.101
554.700	-11.563	0.101
554.800	-12.219	0.101
554.900	-20.774	0.101
555.000	-5.163	0.101
555.100	-7.501	0.101
555.200	-8.607	0.101
555.300	-11.727	0.101
555.400	-6.537	0.101
555.500	-9.227	0.101
555.600	-10.548	0.101
555.700	-19.321	0.101
555.800	-9.043	0.101
555.900	-5.635	0.101
556.000	-20.172	0.101
556.100	-14.210	0.101
556.200	-11.638	0.101
556.300	-20.207	0.101
556.400	-16.840	0.101
556.500	-18.011	0.101
556.600	-20.725	0.101
556.700	-17.837	0.101
556.800	-9.039	0.101
556.900	-14.591	0.101
557.000	-14.855	0.101
557.100	-6.822	0.101
557.200	-23.642	0.101
557.300	-12.755	0.101
557.400	-5.212	0.101
557.500	-12.124	0.101
557.600	-19.125	0.101
557.700	-25.944	0.101
557.800	-20.664	0.101
557.900	-22.065	0.101
558.000	-13.284	0.101
558.100	-31.156	0.101
558.200	-19.625	0.101
558.300	-14.945	0.101
558.400	-17.303	0.101
558.500	-13.088	0.101
558.600	-4.906	0.101
558.700	-14.724	0.101
558.800	-13.375	0.101
558.900	-11.559	0.101
559.000	-23.291	0.101
559.100	-16.973	0.101
559.200	-20.611	0.101
559.300	-14.361	0.101
559.400	-24.388	0.101
559.500	-12.118	0.101
559.600	-16.312	0.101
559.700	-12.276	0.101
559.800	-16.206	0.101
559.900	-13.782	0.101
560.000	-3.743	0.101
560.100	-7.575	0.101
560.200	-12.246	0.101
560.300	-3.182	0.101
560.400	-23.812	0.101
560.500	-8.176	0.101
560.600	-21.782	0.101
560.700	-20.076	0.101
560.800	-19.336	0.101
560.900	-21.475	0.101
561.000	-24.697	0.101
561.100	-19.286	0.101
561.200	-7.720	0.101
561.300	-18.274	0.101
561.400	-22.494	0.101
561.500	-21.033	0.101
561.600	-23.609	0.101
561.700	-31.278	0.101
561.800	-13.973	0.101
561.900	-12.706	0.101
562.000	-24.277	0.101
562.100	-17.234	0.101
562.200	-23.882	0.101
562.300	-21.080	0.101
562.400	-13.149	0.101
562.500	-21.138	0.101
562.600	-17.483	0.101
562.700	-23.027	0.101
562.800	-22.951	0.101
562.900	-22.567	0.101
563.000	-10.939	0.101
563.100	-17.307	0.101
563.200	-20.257	0.101
563.300	-21.822	0.101
563.400	-23.909	0.101
563.500	-11.036	0.101
563.600	-9.419	0.101
563.700	-12.711	0.101
563.800	-27.751	0.101
563.900	-11.315	0.101
564.000	-19.216	0.101
564.100	-12.887	0.101
564.200	-21.185	0.101
564.300	-29.600	0.101
564.400	-27.537	0.101
564.500	-32.468	0.101
564.600	-24.690	0.101
564.700	-26.247	0.101
564.800	-33.212	0.101
564.900	-9.224	0.101
565.000	-14.922	0.101
565.100	-10.598	0.101
565.200	-18.371	0.101
565.300	-22.124	0.101
565.400	-15.893	0.101
565.500	-20.021	0.101
565.600	-26.342	0.101
565.700	-13.788	0.101
565.800	-17.326	0.101
565.900	-16.227	0.101
566.000	-25.894	0.101
566.100	-18.859	0.101
566.200	-8.881	0.101
566.300	-8.476	0.101
566.400	-13.674	0.101
566.500	-18.977	0.101
566.600	-28.999	0.101
566.700	-36.250	0.101
566.800	-28.351	0.101
566.900	-16.452	0.101
567.000	-29.117	0.101
567.100	-23.131	0.101
567.200	-28.519	0.101
567.300	-27.291	0.101
567.400	-26.958	0.101
567.500	-16.980	0.101
567.600	-11.151	0.101
567.700	-28.502	0.101
567.800	-20.611	0.101
567.900	-17.892	0.101
568.000	-21.584	0.101
568.100	-25.620	0.101
568.200	-15.516	0.101
568.300	-19.623	0.101
568.400	-15.701	0.101
568.500	-15.146	0.101
568.600	-6.604	0.101
568.700	-14.343	0.101
568.800	-21.752	0.101
568.900	-19.653	0.101
569.000	-28.120	0.101
569.100	-30.540	0.101
569.200	-18.001	0.101
569.300	-30.024	0.101
569.400	-24.742	0.101
569.500	-27.689	0.101
569.600	-28.889	0.101
569.700	-23.629	0.101
569.800	-24.662	0.101
569.900	-14.516	0.101
570.000	-24.237	0.101
570.100	-37.596	0.101
570.200	-20.508	0.101
570.300	-30.543	0.101
570.400	-18.791	0.101
570.500	-34.826	0.101
570.600	-18.950	0.101
570.700	-17.038	0.101
570.800	-21.777	0.101
570.900	-31.090	0.101
571.000	-20.081	0.101
571.100	-12.944	0.101
571.200	-19.603	0.101
571.300	-19.677	0.101
571.400	-8.095	0.101
571.500	-28.567	0.101
571.600	-25.704	0.101
571.700	-16.904	0.101
571.800	-33.218	0.101
571.900	-19.843	0.101
572.000	-17.701	0.101
572.100	-13.004	0.101
572.200	-26.310	0.101
572.300	-19.667	0.101
572.400	-22.066	0.101
572.500	-20.649	0.101
572.600	-9.128	0.101
572.700	-16.323	0.101
572.800	-23.116	0.101
572.900	-33.051	0.101
573.000	-32.833	0.101
573.100	-23.183	0.101
573.200	-28.412	0.101
573.300	-20.335	0.101
573.400	-12.533	0.101
573.500	-20.232	0.101
573.600	-15.152	0.101
573.700	-14.145	0.101
573.800	-10.077	0.101
573.900	-31.620	0.101
574.000	-26.040	0.101
574.100	-19.987	0.101
574.200	-29.118	0.101
574.300	-27.335	0.101
574.400	-20.083	0.101
574.500	-15.478	0.101
574.600	-25.114	0.101
574.700	-28.426	0.101
574.800	-38.589	0.101
574.900	-32.091	0.101
575.000	-20.718	0.101
575.100	-21.942	0.101
575.200	-14.327	0.101
575.300	-16.304	0.101
575.400	-26.456	0.101
575.500	-24.917	0.101
575.600	-26.927	0.101
575.700	-24.440	0.101
575.800	-18.491	0.101
575.900	-20.551	0.101
576.000	-12.941	0.101
576.100	-35.700	0.101
576.200	-30.169	0.101
576.300	-9.825	0.101
576.400	-17.203	0.101
576.500	-26.721	0.101
576.600	-34.958	0.101
576.700	-30.886	0.101
576.800	-22.591	0.101
576.900	-28.056	0.101
577.000	-23.322	0.101
577.100	-18.662	0.101
577.200	-19.587	0.101
577.300	-19.594	0.101
577.400	-19.501	0.101
577.500	-13.519	0.101
577.600	-21.079	0.101
577.700	-9.236	0.101
577.800	-17.440	0.101
577.900	-25.958	0.101
578.000	-23.305	0.101
578.100	-24.127	0.101
578.200	-28.321	0.101
578.300	-26.565	0.101
578.400	-31.660	0.101
578.500	-28.920	0.101
578.600	-29.622	0.101
578.700	-12.783	0.101
578.800	-28.294	0.101
578.900	-22.347	0.101
579.000	-17.478	0.101
579.100	-25.922	0.101
579.200	-34.946	0.101
579.300	-30.859	0.101
579.400	-22.645	0.101
579.500	-26.725	0.101
579.600	-22.180	0.101
579.700	-34.085	0.101
579.800	-18.203	0.101
579.900	-21.536	0.101
580.000	-26.180	0.101
580.100	-24.392	0.101
580.200	-27.888	0.101
580.300	-22.234	0.101
580.400	-24.547	0.101
580.500	-22.041	0.101
580.600	-21.060	0.101
580.700	-19.752	0.101
580.800	-25.935	0.101
580.900	-17.272	0.101
581.000	-11.570	0.101
581.100	-17.202	0.101
581.200	-33.133	0.101
581.300	-37.528	0.101
581.400	-20.321	0.101
581.500	-18.793	0.101
581.600	-22.946	0.101
581.700	-27.072	0.101
581.800	-24.958	0.101
581.900	-9.151	0.101
582.000	-4.928	0.101
582.100	-21.851	0.101
582.200	-16.185	0.101
582.300	-23.293	0.101
582.400	-23.076	0.101
582.500	-24.747	0.101
582.600	-27.192	0.101
582.700	-23.446	0.101
582.800	-21.214	0.101
582.900	-20.071	0.101
583.000	-27.135	0.101
583.100	-33.576	0.101
583.200	-23.150	0.101
583.300	-8.850	0.101
583.400	-7.623	0.101
583.500	-24.660	0.101
583.600	-17.897	0.101
583.700	-24.002	0.101
583.800	-23.269	0.101
583.900	-29.401	0.101
584.000	-21.609	0.101
584.100	-24.480	0.101
584.200	-23.237	0.101
584.300	-14.939	0.101
584.400	-30.678	0.101
584.500	-26.437	0.101
584.600	-28.436	0.101
584.700	-30.082	0.101
584.800	-26.002	0.101
584.900	-19.207	0.101
585.000	-30.573	0.101
585.100	-20.826	0.101
585.200	-24.210	0.101
585.300	-18.729	0.101
585.400	-21.072	0.101
585.500	-18.708	0.101
585.600	-24.123	0.101
585.700	-18.658	0.101
585.800	-20.763	0.101
585.900	-19.915	0.101
586.000	-10.683	0.101
586.100	-23.217	0.101
586.200	-23.094	0.101
586.300	-19.532	0.101
586.400	-16.424	0.101
586.500	-17.447	0.101
586.600	-18.637	0.101
586.700	-17.590	0.101
586.800	-24.738	0.101
586.900	-33.330	0.101
587.000	-21.173	0.101
587.100	-22.521	0.101
587.200	-24.352	0.101
587.300	-10.804	0.101
587.400	-27.910	0.101
587.500	-22.293	0.101
587.600	-19.984	0.101
587.700	-30.266	0.101
587.800	-25.553	0.101
587.900	-24.327	0.101
588.000	-23.154	0.101
588.100	-28.091	0.101
588.200	-10.616	0.101
588.300	-21.232	0.101
588.400	-25.206	0.101
588.500	-18.526	0.101
588.600	-27.483	0.101
588.700	-23.629	0.101
588.800	-15.114	0.101
588.900	-22.010	0.101
589.000	-22.061	0.101
589.100	-28.981	0.101
589.200	-23.491	0.101
589.300	-29.495	0.101
589.400	-29.430	0.101
589.500	-17.647	0.101
589.600	-20.684	0.101
589.700	-22.120	0.101
589.800	-22.033	0.101
589.900	-30.738	0.101
590.000	-29.436	0.101
590.100	-26.429	0.101
590.200	-19.994	0.101
590.300	-20.113	0.101
590.400	-18.574	0.101
590.500	-29.198	0.101
590.600	-33.003	0.101
590.700	-31.775	0.101
590.800	-29.499	0.101
590.900	-17.045	0.101
591.000	-24.000	0.101
591.100	-23.544	0.101
591.200	-25.892	0.101
591.300	-6.180	0.101
591.400	-16.524	0.101
591.500	-30.484	0.101
591.600	-18.277	0.101
591.700	-18.467	0.101
591.800	-34.881	0.101
591.900	-29.157	0.101
592.000	-22.708	0.101
592.100	-17.547	0.101
592.200	-18.894	0.101
592.300	-19.308	0.101
592.400	-20.204	0.101
592.500	-29.727	0.101
592.600	-22.745	0.101
592.700	-29.951	0.101
592.800	-17.367	0.101
592.900	-15.188	0.101
593.000	-22.054	0.101
593.100	-13.386	0.101
593.200	-20.063	0.101
593.300	-25.769	0.101
593.400	-29.656	0.101
593.500	-22.489	0.101
593.600	-18.517	0.101
593.700	-13.030	0.101
593.800	-22.123	0.101
593.900	-18.412	0.101
594.000	-16.076	0.101
594.100	-20.486	0.101
594.200	-22.630	0.101
594.300	-21.169	0.101
594.400	-22.030	0.101
594.500	-31.386	0.101
594.600	-33.819	0.101
594.700	-19.084	0.101
594.800	-25.412	0.101
594.900	-11.757	0.101
595.000	-17.410	0.101
595.100	-18.035	0.101
595.200	-27.849	0.101
595.300	-27.046	0.101
595.400	-22.821	0.101
595.500	-21.090	0.101
595.600	-8.448	0.101
595.700	-17.844	0.101
595.800	-20.648	0.101
595.900	-21.564	0.101
596.000	-18.456	0.101
596.100	-30.998	0.101
596.200	-15.664	0.101
596.300	-17.341	0.101
596.400	-12.316	0.101
596.500	-14.934	0.101
596.600	-16.754	0.101
596.700	-22.987	0.101
596.800	-25.722	0.101
596.900	-17.470	0.101
597.000	-20.745	0.101
597.100	-18.718	0.101
597.200	-15.473	0.101
597.300	-32.632	0.101
597.400	-23.588	0.101
597.500	-15.485	0.101
597.600	-23.852	0.101
597.700	-23.729	0.101
597.800	-27.622	0.101
597.900	-13.756	0.101
598.000	-13.319	0.101
598.100	-25.035	0.101
598.200	-17.860	0.101
598.300	-26.895	0.101
598.400	-28.026	0.101
598.500	-23.906	0.101
598.600	-14.532	0.101
598.700	-13.063	0.101
598.800	-32.351	0.101
598.900	-22.803	0.101
599.000	-18.744	0.101
599.100	-19.147	0.101
599.200	-25.713	0.101
599.300	-14.494	0.101
599.400	-21.560	0.101
599.500	-14.230	0.101
599.600	-23.492	0.101
599.700	-13.789	0.101
599.800	-22.182	0.101
599.900	-21.444	0.101
600.000	-25.798	0.101
600.100	-21.785	0.101
600.200	-22.651	0.101
600.300	-25.190	0.101
600.400	-23.855	0.101
600.500	-25.437	0.101
600.600	-15.963	0.101
600.700	-24.208	0.101
600.800	-20.049	0.101
600.900	-23.819	0.101
601.000	-27.647	0.101
601.100	-14.095	0.101
601.200	-21.039	0.101
601.300	-10.377	0.101
601.400	-13.701	0.101
601.500	-16.922	0.101
601.600	-22.263	0.101
601.700	-13.030	0.101
601.800	-14.982	0.101
601.900	-29.975	0.101
602.000	-26.756	0.101
602.100	-32.019	0.101
602.200	-25.761	0.101
602.300	-23.767	0.101
602.400	-12.625	0.101
602.500	-17.805	0.101
602.600	-29.564	0.101
602.700	-20.845	0.101
602.800	-19.828	0.101
602.900	-21.779	0.101
603.000	-21.811	0.101
603.100	-8.957	0.101
603.200	-13.887	0.101
603.300	-26.705	0.101
603.400	-24.379	0.101
603.500	-21.861	0.101
603.600	-16.195	0.101
603.700	-22.729	0.101
603.800	-19.154	0.101
603.900	-31.428	0.101
604.000	-26.121	0.101
604.100	-18.668	0.101
604.200	-18.346	0.101
604.300	-22.783	0.101
604.400	-28.292	0.101
604.500	-16.839	0.101
604.600	-15.042	0.101
604.700	-16.684	0.101
604.800	-22.591	0.101
604.900	-22.109	0.101
605.000	-24.396	0.101
605.100	-31.028	0.101
605.200	-22.149	0.101
605.300	-14.565	0.101
605.400	-22.857	0.101
605.500	-17.198	0.101
605.600	-20.212	0.101
605.700	-7.396	0.101
605.800	-30.776	0.101
605.900	-25.906	0.101
606.000	-17.692	0.101
606.100	-12.554	0.101
606.200	-17.368	0.101
606.300	-2.411	0.101
606.400	-11.207	0.101
606.500	-19.383	0.101
606.600	-30.718	0.101
606.700	-20.043	0.101
606.800	-16.860	0.101
606.900	-29.993	0.101
607.000	-34.215	0.101
607.100	-28.050	0.101
607.200	-19.374	0.101
607.300	-18.364	0.101
607.400	-12.437	0.101
607.500	-10.307	0.101
607.600	-15.556	0.101
607.700	-24.420	0.101
607.800	-20.500	0.101
607.900	-18.468	0.101
608.000	-22.213	0.101
608.100	-19.267	0.101
608.200	-18.860	0.101
608.300	-30.335	0.101
608.400	-25.403	0.101
608.500	-9.279	0.101
608.600	-17.165	0.101
608.700	-26.694	0.101
608.800	-20.473	0.101
608.900	-17.355	0.101
609.000	-6.916	0.101
609.100	-28.833	0.101
609.200	-15.706	0.101
609.300	-16.559	0.101
609.400	-18.741	0.101
609.500	-12.765	0.101
609.600	-16.819	0.101
609.700	-14.404	0.101
609.800	-18.956	0.101
609.900	-16.930	0.101
610.000	-20.609	0.101
610.100	-13.502	0.101
610.200	-17.267	0.101
610.300	-23.871	0.101
610.400	-3.869	0.101
610.500	-15.682	0.101
610.600	-23.468	0.101
610.700	-30.474	0.101
610.800	-20.950	0.101
610.900	-26.589	0.101
611.000	-19.304	0.101
611.100	-11.589	0.101
611.200	-22.121	0.101
611.300	-20.008	0.101
611.400	-22.828	0.101
611.500	-16.139	0.101
611.600	-27.453	0.101
611.700	-23.006	0.101
611.800	-20.740	0.101
611.900	-17.439	0.101
612.000	-8.898	0.101
612.100	-16.114	0.101
612.200	-11.578	0.101
612.300	-23.195	0.101
612.400	-20.134	0.101
612.500	-23.736	0.101
612.600	-20.007	0.101
612.700	-16.448	0.101
612.800	-28.225	0.101
612.900	-18.799	0.101
613.000	-16.718	0.101
613.100	-16.413	0.101
613.200	-15.960	0.101
613.300	-17.328	0.101
613.400	-28.145	0.101
613.500	-27.124	0.101
613.600	-25.226	0.101
613.700	-18.728	0.101
613.800	-13.528	0.101
613.900	-20.374	0.101
614.000	-17.613	0.101
614.100	-22.962	0.101
614.200	-16.277	0.101
614.300	-23.883	0.101
614.400	-20.361	0.101
614.500	-22.709	0.101
614.600	-10.562	0.101
614.700	-6.977	0.101
614.800	-1.001	0.101
614.900	-24.929	0.101
615.000	-14.238	0.101
615.100	-10.995	0.101
615.200	-13.446	0.101
615.300	-28.027	0.101
615.400	-28.825	0.101
615.500	-12.497	0.101
615.600	-4.546	0.101
615.700	-23.790	0.101
615.800	-21.047	0.101
615.900	-15.384	0.101
616.000	-14.310	0.101
616.100	-14.941	0.101
616.200	-31.651	0.101
616.300	-22.692	0.101
616.400	-18.258	0.101
616.500	-24.096	0.101
616.600	-10.643	0.101
616.700	-20.923	0.101
616.800	-21.537	0.101
616.900	-19.440	0.101
617.000	-24.782	0.101
617.100	-19.976	0.101
617.200	-17.842	0.101
617.300	-23.226	0.101
617.400	-11.422	0.101
617.500	-1.391	0.101
617.600	-16.593	0.101
617.700	-25.318	0.101
617.800	-17.726	0.101
617.900	-21.542	0.101
618.000	-16.460	0.101
618.100	-16.123	0.101
618.200	-9.896	0.101
618.300	-21.815	0.101
618.400	-17.761	0.101
618.500	-11.650	0.101
618.600	-7.407	0.101
618.700	-18.439	0.101
618.800	-23.351	0.101
618.900	-21.619	0.101
619.000	-21.900	0.101
619.100	-19.899	0.101
619.200	-26.448	0.101
619.300	-36.854	0.101
619.400	-17.669	0.101
619.500	-19.697	0.101
619.600	-15.253	0.101
619.700	-15.382	0.101
619.800	-16.554	0.101
619.900	-27.362	0.101
620.000	-24.009	0.101
620.100	-21.663	0.101
620.200	-16.213	0.101
620.300	-16.969	0.101
620.400	-24.278	0.101
620.500	-31.817	0.101
620.600	-10.409	0.101
620.700	-16.439	0.101
620.800	-16.376	0.101
620.900	-14.280	0.101
621.000	-13.658	0.101
621.100	-20.143	0.101
621.200	-24.878	0.101
621.300	-23.001	0.101
621.400	-14.422	0.101
621.500	-21.664	0.101
621.600	-15.330	0.101
621.700	-8.224	0.101
621.800	-13.634	0.101
621.900	-15.331	0.101
622.000	-12.057	0.101
622.100	-19.528	0.101
622.200	-34.440	0.101
622.300	-7.645	0.101
622.400	-3.375	0.101
622.500	-15.084	0.101
622.600	-17.140	0.101
622.700	-14.712	0.101
622.800	-18.275	0.101
622.900	-27.638	0.101
623.000	-21.373	0.101
623.100	-23.804	0.101
623.200	-16.500	0.101
623.300	-20.197	0.101
623.400	-19.389	0.101
623.500	-8.538	0.101
623.600	-3.798	0.101
623.700	-16.987	0.101
623.800	-20.679	0.101
623.900	-29.777	0.101
624.000	-25.668	0.101
624.100	-17.884	0.101
624.200	-11.158	0.101
624.300	-9.605	0.101
624.400	-15.038	0.101
624.500	-28.937	0.101
624.600	-18.086	0.101
624.700	-24.517	0.101
624.800	-16.771	0.101
624.900	-18.642	0.101
625.000	-19.460	0.101
625.100	-15.018	0.101
625.200	-26.485	0.101
625.300	-22.454	0.101
625.400	-19.589	0.101
625.500	-1.332	0.101
625.600	-4.260	0.101
625.700	-23.019	0.101
625.800	-19.137	0.101
625.900	-20.398	0.101
626.000	-11.792	0.101
626.100	-22.402	0.101
626.200	-21.288	0.101
626.300	-22.259	0.101
626.400	-17.369	0.101
626.500	-5.986	0.101
626.600	-15.329	0.101
626.700	-17.956	0.101
626.800	-16.747	0.101
626.900	-16.744	0.101
627.000	-27.267	0.101
627.100	-12.378	0.101
627.200	-18.689	0.101
627.300	-7.086	0.101
627.400	-20.288	0.101
627.500	-18.525	0.101
627.600	-19.276	0.101
627.700	-15.647	0.101
627.800	-17.902	0.101
627.900	-17.591	0.101
628.000	-23.791	0.101
628.100	-8.463	0.101
628.200	-20.406	0.101
628.300	-10.666	0.101
628.400	-22.644	0.101
628.500	-9.805	0.101
628.600	-18.670	0.101
628.700	-24.267	0.101
628.800	-16.114	0.101
628.900	-21.254	0.101
629.000	-25.740	0.101
629.100	-25.429	0.101
629.200	-18.776	0.101
629.300	-17.873	0.101
629.400	-3.653	0.101
629.500	-16.635	0.101
629.600	-13.779	0.101
629.700	-19.699	0.101
629.800	-13.315	0.101
629.900	-22.115	0.101
630.000	-28.929	0.101
630.100	-20.624	0.101
630.200	-28.366	0.101
630.300	-13.587	0.101
630.400	-13.855	0.101
630.500	-10.370	0.101
630.600	-11.722	0.101
630.700	-12.039	0.101
630.800	-0.927	0.101
630.900	-12.358	0.101
631.000	-0.677	0.101
631.100	-2.006	0.101
631.200	-0.940	0.101
631.300	-5.301	0.101
631.400	9.205	0.101
631.500	7.676	0.101
631.600	-1.480	0.101
631.700	19.735	0.101
631.800	4.905	0.101
631.900	-0.701	0.101
632.000	16.558	0.101
632.100	7.946	0.101
632.200	12.825	0.101
632.300	22.015	0.101
632.400	16.235	0.101
632.500	8.109	0.101
632.600	6.119	0.101
632.700	20.491	0.101
632.800	26.551	0.101
632.900	16.381	0.101
633.000	11.811	0.101
633.100	10.218	0.101
633.200	19.124	0.101
633.300	20.772	0.101
633.400	17.185	0.101
633.500	28.643	0.101
633.600	20.324	0.101
633.700	4.028	0.101
633.800	15.929	0.101
633.900	17.094	0.101
634.000	18.095	0.101
634.100	15.582	0.101
634.200	26.675	0.101
634.300	14.513	0.101
634.400	7.756	0.101
634.500	8.850	0.101
634.600	15.744	0.101
634.700	19.106	0.101
634.800	19.120	0.101
634.900	19.214	0.101
635.000	18.191	0.101
635.100	7.848	0.101
635.200	7.885	0.101
635.300	21.298	0.101
635.400	12.272	0.101
635.500	6.696	0.101
635.600	15.353	0.101
635.700	2.858	0.101
635.800	9.293	0.101
635.900	13.705	0.101
636.000	13.675	0.101
636.100	16.956	0.101
636.200	14.068	0.101
636.300	3.930	0.101
636.400	-6.962	0.101
636.500	15.207	0.101
636.600	4.198	0.101
636.700	5.340	0.101
636.800	8.990	0.101
636.900	5.784	0.101
637.000	17.073	0.101
637.100	4.868	0.101
637.200	3.189	0.101
637.300	19.783	0.101
637.400	17.701	0.101
637.500	9.844	0.101
637.600	8.173	0.101
637.700	23.620	0.101
637.800	15.351	0.101
637.900	1.704	0.101
638.000	-0.621	0.101
638.100	15.991	0.101
638.200	7.724	0.101
638.300	23.323	0.101
638.400	23.699	0.101
638.500	13.133	0.101
638.600	17.022	0.101
638.700	17.276	0.101
638.800	7.052	0.101
638.900	11.022	0.101
639.000	9.200	0.101
639.100	18.093	0.101
639.200	19.362	0.101
639.300	15.934	0.101
639.400	5.439	0.101
639.500	10.132	0.101
639.600	8.645	0.101
639.700	4.524	0.101
639.800	23.170	0.101
639.900	19.345	0.101
640.000	3.854	0.101
640.100	16.115	0.101
640.200	10.128	0.101
640.300	17.731	0.101
640.400	11.561	0.101
640.500	17.765	0.101
640.600	13.802	0.101
640.700	12.596	0.101
640.800	8.271	0.101
640.900	22.245	0.101
641.000	10.698	0.101
641.100	17.947	0.101
641.200	4.604	0.101
641.300	17.092	0.101
641.400	18.014	0.101
641.500	12.875	0.101
641.600	15.252	0.101
641.700	16.175	0.101
641.800	5.278	0.101
641.900	31.398	0.101
642.000	27.905	0.101
642.100	15.394	0.101
642.200	17.245	0.101
642.300	25.109	0.101
642.400	14.127	0.101
642.500	3.518	0.101
642.600	14.278	0.101
642.700	20.309	0.101
642.800	8.885	0.101
642.900	20.608	0.101
643.000	34.177	0.101
643.100	18.650	0.101
643.200	27.973	0.101
643.300	17.712	0.101
643.400	23.371	0.101
643.500	18.083	0.101
643.600	13.545	0.101
643.700	23.798	0.101
643.800	23.452	0.101
643.900	33.860	0.101
644.000	34.199	0.101
644.100	15.525	0.101
644.200	19.069	0.101
644.300	10.299	0.101
644.400	30.062	0.101
644.500	24.815	0.101
644.600	32.749	0.101
644.700	27.334	0.101
644.800	25.064	0.101
644.900	31.792	0.101
645.000	17.500	0.101
645.100	18.468	0.101
645.200	32.402	0.101
645.300	29.043	0.101
645.400	34.061	0.101
645.500	34.020	0.101
645.600	23.280	0.101
645.700	32.091	0.101
645.800	28.190	0.101
645.900	15.219	0.101
646.000	33.293	0.101
646.100	32.527	0.101
646.200	28.679	0.101
646.300	25.308	0.101
646.400	23.246	0.101
646.500	24.387	0.101
646.600	30.483	0.101
646.700	29.831	0.101
646.800	18.429	0.101
646.900	34.488	0.101
647.000	37.008	0.101
647.100	37.363	0.101
647.200	38.371	0.101
647.300	23.469	0.101
647.400	36.773	0.101
647.500	43.492	0.101
647.600	33.709	0.101
647.700	22.782	0.101
647.800	42.770	0.101
647.900	27.367	0.101
648.000	38.992	0.101
648.100	37.117	0.101
648.200	40.138	0.101
648.300	34.851	0.101
648.400	30.168	0.101
648.500	30.846	0.101
648.600	34.357	0.101
648.700	44.452	0.101
648.800	42.744	0.101
648.900	39.154	0.101
649.000	27.638	0.101
649.100	28.485	0.101
649.200	37.561	0.101
649.300	42.149	0.101
649.400	33.902	0.101
649.500	25.253	0.101
649.600	37.592	0.101
649.700	40.093	0.101
649.800	46.308	0.101
649.900	40.437	0.101
650.000	39.087	0.101
650.100	47.523	0.101
650.200	32.331	0.101
650.300	31.499	0.101
650.400	34.685	0.101
650.500	43.689	0.101
650.600	37.042	0.101
650.700	42.379	0.101
650.800	44.238	0.101
650.900	35.961	0.101
651.000	56.419	0.101
651.100	44.115	0.101
651.200	31.064	0.101
651.300	37.391	0.101
651.400	42.612	0.101
651.500	47.427	0.101
651.600	37.509	0.101
651.700	43.336	0.101
651.800	50.076	0.101
651.900	28.210	0.101
652.000	41.610	0.101
652.100	28.826	0.101
652.200	43.121	0.101
652.300	45.531	0.101
652.400	41.612	0.101
652.500	42.951	0.101
652.600	56.170	0.101
652.700	48.326	0.101
652.800	39.747	0.101
652.900	38.819	0.101
653.000	34.064	0.101
653.100	35.663	0.101
653.200	40.302	0.101
653.300	45.508	0.101
653.400	48.981	0.101
653.500	45.568	0.101
653.600	32.418	0.101
653.700	37.962	0.101
653.800	44.313	0.101
653.900	37.595	0.101
654.000	41.585	0.101
654.100	42.205	0.101
654.200	38.393	0.101
654.300	34.772	0.101
654.400	37.080	0.101
654.500	28.819	0.101
654.600	47.813	0.101
654.700	38.131	0.101
654.800	38.308	0.101
654.900	50.070	0.101
655.000	52.633	0.101
655.100	38.136	0.101
655.200	37.152	0.101
655.300	34.881	0.101
655.400	42.981	0.101
655.500	44.101	0.101
655.600	52.023	0.101
655.700	38.482	0.101
655.800	41.614	0.101
655.900	42.599	0.101
656.000	43.406	0.101
656.100	44.463	0.101
656.200	47.652	0.101
656.300	39.665	0.101
656.400	39.089	0.101
656.500	32.656	0.101
656.600	41.590	0.101
656.700	44.323	0.101
656.800	38.179	0.101
656.900	43.320	0.101
657.000	37.702	0.101
657.100	42.753	0.101
657.200	35.098	0.101
657.300	39.728	0.101
657.400	42.675	0.101
657.500	35.125	0.101
657.600	42.081	0.101
657.700	52.797	0.101
657.800	43.529	0.101
657.900	44.868	0.101
658.000	42.517	0.101
658.100	32.886	0.101
658.200	25.224	0.101
658.300	49.170	0.101
658.400	37.265	0.101
658.500	41.595	0.101
658.600	44.007	0.101
658.700	31.759	0.101
658.800	35.836	0.101
658.900	37.917	0.101
659.000	45.274	0.101
659.100	42.047	0.101
659.200	45.003	0.101
659.300	39.071	0.101
659.400	42.882	0.101
659.500	46.920	0.101
659.600	46.069	0.101
659.700	39.678	0.101
659.800	29.995	0.101
659.900	43.918	0.101
660.000	34.101	0.101
660.100	39.234	0.101
660.200	40.125	0.101
660.300	44.713	0.101
660.400	50.166	0.101
660.500	40.245	0.101
660.600	34.425	0.101
660.700	41.989	0.101
660.800	46.326	0.101
660.900	36.343	0.101
661.000	44.061	0.101
661.100	32.836	0.101
661.200	35.467	0.101
661.300	44.052	0.101
661.400	43.895	0.101
661.500	28.835	0.101
661.600	40.843	0.101
661.700	42.320	0.101
661.800	32.665	0.101
661.900	33.190	0.101
662.000	47.544	0.101
662.100	39.437	0.101
662.200	35.464	0.101
662.300	34.339	0.101
662.400	39.922	0.101
662.500	47.028	0.101
662.600	49.402	0.101
662.700	33.567	0.101
662.800	44.623	0.101
662.900	32.324	0.101
663.000	32.910	0.101
663.100	45.088	0.101
663.200	42.480	0.101
663.300	40.592	0.101
663.400	39.892	0.101
663.500	37.544	0.101
663.600	34.667	0.101
663.700	41.695	0.101
663.800	41.367	0.101
663.900	34.101	0.101
664.000	31.390	0.101
664.100	42.075	0.101
664.200	34.535	0.101
664.300	46.375	0.101
664.400	42.406	0.101
664.500	24.144	0.101
664.600	30.669	0.101
664.700	38.472	0.101
664.800	36.892	0.101
664.900	38.587	0.101
665.000	26.113	0.101
665.100	42.581	0.101
665.200	39.702	0.101
665.300	38.946	0.101
665.400	33.083	0.101
665.500	33.993	0.101
665.600	46.188	0.101
665.700	44.236	0.101
665.800	43.390	0.101
665.900	39.592	0.101
666.000	47.330	0.101
666.100	33.488	0.101
666.200	37.302	0.101
666.300	37.023	0.101
666.400	31.603	0.101
666.500	31.187	0.101
666.600	37.319	0.101
666.700	46.556	0.101
666.800	38.265	0.101
666.900	40.169	0.101
667.000	47.747	0.101
667.100	49.688	0.101
667.200	46.077	0.101
667.300	36.863	0.101
667.400	24.102	0.101
667.500	38.227	0.101
667.600	30.057	0.101
667.700	33.227	0.101
667.800	39.250	0.101
667.900	33.168	0.101
668.000	33.933	0.101
668.100	30.225	0.101
668.200	45.169	0.101
668.300	48.125	0.101
668.400	47.815	0.101
668.500	26.504	0.101
668.600	35.872	0.101
668.700	44.433	0.101
668.800	40.018	0.101
668.900	48.729	0.101
669.000	40.808	0.101
669.100	43.499	0.101
669.200	39.903	0.101
669.300	32.563	0.101
669.400	43.643	0.101
669.500	33.637	0.101
669.600	45.166	0.101
669.700	47.487	0.101
669.800	37.356	0.101
669.900	23.364	0.101
670.000	41.936	0.101
670.100	42.135	0.101
670.200	32.818	0.101
670.300	39.648	0.101
670.400	42.581	0.101
670.500	39.177	0.101
670.600	35.197	0.101
670.700	48.894	0.101
670.800	38.799	0.101
670.900	40.470	0.101
671.000	38.339	0.101
671.100	30.648	0.101
671.200	31.741	0.101
671.300	45.061	0.101
671.400	40.559	0.101
671.500	31.405	0.101
671.600	35.209	0.101
671.700	36.448	0.101
671.800	43.945	0.101
671.900	55.382	0.101
672.000	53.546	0.101
672.100	30.923	0.101
672.200	31.054	0.101
672.300	35.850	0.101
672.400	47.595	0.101
672.500	45.430	0.101
672.600	39.746	0.101
672.700	42.209	0.101
672.800	34.675	0.101
672.900	37.343	0.101
673.000	43.613	0.101
673.100	33.424	0.101
673.200	35.902	0.101
673.300	33.311	0.101
673.400	38.079	0.101
673.500	42.369	0.101
673.600	48.751	0.101
673.700	47.613	0.101
673.800	45.019	0.101
673.900	35.717	0.101
674.000	37.499	0.101
674.100	33.637	0.101
674.200	38.263	0.101
674.300	32.182	0.101
674.400	27.955	0.101
674.500	34.440	0.101
674.600	44.195	0.101
674.700	35.216	0.101
674.800	32.160	0.101
674.900	40.127	0.101
675.000	33.392	0.101
675.100	45.856	0.101
675.200	28.458	0.101
675.300	34.061	0.101
675.400	30.174	0.101
675.500	35.582	0.101
675.600	36.758	0.101
675.700	29.408	0.101
675.800	34.210	0.101
675.900	41.707	0.101
676.000	33.715	0.101
676.100	42.437	0.101
676.200	41.232	0.101
676.300	46.210	0.101
676.400	50.835	0.101
676.500	39.366	0.101
676.600	28.532	0.101
676.700	48.755	0.101
676.800	42.410	0.101
676.900	46.649	0.101
677.000	37.692	0.101
677.100	46.170	0.101
677.200	37.484	0.101
677.300	37.562	0.101
677.400	39.022	0.101
677.500	28.787	0.101
677.600	33.346	0.101
677.700	38.202	0.101
677.800	46.263	0.101
677.900	44.580	0.101
678.000	43.423	0.101
678.100	34.351	0.101
678.200	39.736	0.101
678.300	33.149	0.101
678.400	39.988	0.101
678.500	30.418	0.101
678.600	45.715	0.101
678.700	50.753	0.101
678.800	41.202	0.101
678.900	49.358	0.101
679.000	44.990	0.101
679.100	31.757	0.101
679.200	35.209	0.101
679.300	39.744	0.101
679.400	42.845	0.101
679.500	43.951	0.101
679.600	41.230	0.101
679.700	36.786	0.101
679.800	45.636	0.101
679.900	28.392	0.101
680.000	41.686	0.101
680.100	29.613	0.101
680.200	30.716	0.101
680.300	27.489	0.101
680.400	43.511	0.101
680.500	30.651	0.101
680.600	29.169	0.101
680.700	39.572	0.101
680.800	46.511	0.101
680.900	47.937	0.101
681.000	38.911	0.101
681.100	42.712	0.101
681.200	33.041	0.101
681.300	40.520	0.101
681.400	36.579	0.101
681.500	34.986	0.101
681.600	30.998	0.101
681.700	38.265	0.101
681.800	37.021	0.101
681.900	41.640	0.101
682.000	36.630	0.101
682.100	37.687	0.101
682.200	33.809	0.101
682.300	38.556	0.101
682.400	37.965	0.101
682.500	38.092	0.101
682.600	44.885	0.101
682.700	34.581	0.101
682.800	40.840	0.101
682.900	39.486	0.101
683.000	34.866	0.101
683.100	33.664	0.101
683.200	51.717	0.101
683.300	44.668	0.101
683.400	39.259	0.101
683.500	30.663	0.101
683.600	40.761	0.101
683.700	31.776	0.101
683.800	34.128	0.101
683.900	33.645	0.101
684.000	31.700	0.101
684.100	41.480	0.101
684.200	41.071	0.101
684.300	30.380	0.101
684.400	18.669	0.101
684.500	43.233	0.101
684.600	48.038	0.101
684.700	28.615	0.101
684.800	33.558	0.101
684.900	36.760	0.101
685.000	44.325	0.101
685.100	44.938	0.101
685.200	31.427	0.101
685.300	46.571	0.101
685.400	38.174	0.101
685.500	39.443	0.101
685.600	38.774	0.101
685.700	26.134	0.101
685.800	27.988	0.101
685.900	34.840	0.101
686.000	30.219	0.101
686.100	42.799	0.101
686.200	39.075	0.101
686.300	41.910	0.101
686.400	33.662	0.101
686.500	34.844	0.101
686.600	35.243	0.101
686.700	40.378	0.101
686.800	43.497	0.101
686.900	52.000	0.101
687.000	42.447	0.101
687.100	43.657	0.101
687.200	35.826	0.101
687.300	29.822	0.101
687.400	23.016	0.101
687.500	40.818	0.101
687.600	38.426	0.101
687.700	31.785	0.101
687.800	33.088	0.101
687.900	32.085	0.101
688.000	48.965	0.101
688.100	49.944	0.101
688.200	31.173	0.101
688.300	35.520	0.101
688.400	43.677	0.101
688.500	36.078	0.101
688.600	42.590	0.101
688.700	41.780	0.101
688.800	37.196	0.101
688.900	28.416	0.101
689.000	41.481	0.101
689.100	48.760	0.101
689.200	37.196	0.101
689.300	36.698	0.101
689.400	29.046	0.101
689.500	40.425	0.101
689.600	39.202	0.101
689.700	37.747	0.101
689.800	32.447	0.101
689.900	37.459	0.101
690.000	27.253	0.101
690.100	36.148	0.101
690.200	43.146	0.101
690.300	36.021	0.101
690.400	40.015	0.101
690.500	34.313	0.101
690.600	48.335	0.101
690.700	27.371	0.101
690.800	26.551	0.101
690.900	23.635	0.101
691.000	25.698	0.101
691.100	23.004	0.101
691.200	21.289	0.101
691.300	21.558	0.101
691.400	18.835	0.101
691.500	19.695	0.101
691.600	9.734	0.101
691.700	8.187	0.101
691.800	18.537	0.101
691.900	18.171	0.101
692.000	15.466	0.101
692.100	18.371	0.101
692.200	5.844	0.101
692.300	6.952	0.101
692.400	2.679	0.101
692.500	-7.015	0.101
692.600	3.310	0.101
692.700	2.039	0.101
692.800	6.309	0.101
692.900	-3.903	0.101
693.000	-4.954	0.101
693.100	-4.807	0.101
693.200	-0.416	0.101
693.300	-6.733	0.101
693.400	0.102	0.101
693.500	-6.083	0.101
693.600	0.545	0.101
693.700	1.511	0.101
693.800	-3.654	0.101
693.900	-0.352	0.101
694.000	-6.325	0.101
694.100	-11.594	0.101
694.200	-12.184	0.101
694.300	5.725	0.101
694.400	-7.285	0.101
694.500	-10.807	0.101
694.600	-11.077	0.101
694.700	-11.685	0.101
694.800	-2.697	0.101
694.900	-2.337	0.101
695.000	2.575	0.101
695.100	-4.407	0.101
695.200	-6.922	0.101
695.300	-7.627	0.101
695.400	-8.118	0.101
695.500	-6.730	0.101
695.600	-7.919	0.101
695.700	-1.936	0.101
695.800	-1.460	0.101
695.900	-2.552	0.101
696.000	-13.048	0.101
696.100	-7.800	0.101
696.200	-5.697	0.101
696.300	-8.306	0.101
696.400	-13.128	0.101
696.500	-6.812	0.101
696.600	-7.898	0.101
696.700	-14.248	0.101
696.800	-9.534	0.101
696.900	-14.946	0.101
697.000	-11.932	0.101
697.100	-5.967	0.101
697.200	-14.261	0.101
697.300	-14.787	0.101
697.400	-13.511	0.101
697.500	-7.045	0.101
697.600	-5.056	0.101
697.700	-12.242	0.101
697.800	-14.866	0.101
697.900	-12.190	0.101
698.000	-12.109	0.101
698.100	-15.974	0.101
698.200	-17.721	0.101
698.300	-12.950	0.101
698.400	-0.047	0.101
698.500	-2.141	0.101
698.600	-15.776	0.101
698.700	-9.706	0.101
698.800	-19.254	0.101
698.900	-11.184	0.101
699.000	0.098	0.101
699.100	-4.749	0.101
699.200	-8.802	0.101
699.300	-7.631	0.101
699.400	-14.431	0.101
699.500	-6.318	0.101
699.600	-11.912	0.101
699.700	-5.847	0.101
699.800	-1.854	0.101
699.900	-6.369	0.101
700.000	-10.138	0.101
700.100	-12.071	0.101
700.200	-19.727	0.101
700.300	-7.553	0.101
700.400	-3.568	0.101
700.500	-1.973	0.101
700.600	-11.995	0.101
700.700	-6.769	0.101
700.800	-14.138	0.101
700.900	-23.933	0.101
701.000	-14.949	0.101
701.100	0.371	0.101
701.200	-10.982	0.101
701.300	-4.555	0.101
701.400	-11.107	0.101
701.500	-14.250	0.101
701.600	-11.175	0.101
701.700	-15.658	0.101
701.800	-9.704	0.101
701.900	-9.985	0.101
702.000	-8.615	0.101
702.100	-17.121	0.101
702.200	-12.838	0.101
702.300	-14.275	0.101
702.400	-9.886	0.101
702.500	-10.102	0.101
702.600	-7.068	0.101
702.700	0.290	0.101
702.800	-4.621	0.101
702.900	-7.612	0.101
703.000	-19.311	0.101
703.100	-10.872	0.101
703.200	-17.252	0.101
703.300	-5.701	0.101
703.400	-9.644	0.101
703.500	-19.276	0.101
703.600	-7.010	0.101
703.700	-5.176	0.101
703.800	-16.362	0.101
703.900	-15.041	0.101
704.000	-15.538	0.101
704.100	-20.672	0.101
704.200	-12.240	0.101
704.300	-17.125	0.101
704.400	-12.318	0.101
704.500	-8.547	0.101
704.600	-18.729	0.101
704.700	-17.052	0.101
704.800	-17.611	0.101
704.900	-3.139	0.101
705.000	-11.933	0.101
705.100	-18.809	0.101
705.200	-9.795	0.101
705.300	-18.484	0.101
705.400	-16.698	0.101
705.500	-2.248	0.101
705.600	-13.042	0.101
705.700	-21.552	0.101
705.800	-17.558	0.101
705.900	-11.341	0.101
706.000	-14.302	0.101
706.100	-3.650	0.101
706.200	-2.211	0.101
706.300	-20.037	0.101
706.400	-3.581	0.101
706.500	-13.800	0.101
706.600	-12.405	0.101
706.700	-10.496	0.101
706.800	-17.873	0.101
706.900	-24.862	0.101
707.000	-17.441	0.101
707.100	-26.542	0.101
707.200	-10.034	0.101
707.300	-18.652	0.101
707.400	-15.205	0.101
707.500	-14.609	0.101
707.600	-18.345	0.101
707.700	-29.710	0.101
707.800	-24.792	0.101
707.900	-23.147	0.101
708.000	-4.555	0.101
708.100	-12.613	0.101
708.200	-13.748	0.101
708.300	-13.761	0.101
708.400	-24.326	0.101
708.500	-11.144	0.101
708.600	-17.604	0.101
708.700	-23.733	0.101
708.800	-16.583	0.101
708.900	-11.725	0.101
709.000	-12.627	0.101
709.100	-13.726	0.101
709.200	-12.335	0.101
709.300	-16.015	0.101
709.400	-14.928	0.101
709.500	-18.894	0.101
709.600	-16.622	0.101
709.700	-16.965	0.101
709.800	-14.411	0.101
709.900	-14.761	0.101
710.000	-25.710	0.101
710.100	-20.885	0.101
710.200	-11.286	0.101
710.300	-13.295	0.101
710.400	-15.842	0.101
710.500	-19.192	0.101
710.600	-29.091	0.101
710.700	-13.958	0.101
710.800	-12.769	0.101
710.900	-13.463	0.101
711.000	-18.070	0.101
711.100	-17.213	0.101
711.200	-22.679	0.101
711.300	-29.280	0.101
711.400	-21.439	0.101
711.500	-11.306	0.101
711.600	-17.335	0.101
711.700	-10.572	0.101
711.800	-8.981	0.101
711.900	-13.542	0.101
712.000	-22.934	0.101
712.100	-19.306	0.101
712.200	-14.495	0.101
712.300	-15.240	0.101
712.400	-17.784	0.101
712.500	-27.864	0.101
712.600	-13.886	0.101
712.700	-26.719	0.101
712.800	-22.157	0.101
712.900	-30.162	0.101
713.000	-27.989	0.101
713.100	-15.093	0.101
713.200	-17.899	0.101
713.300	-14.507	0.101
713.400	-21.976	0.101
713.500	-25.379	0.101
713.600	-14.213	0.101
713.700	-19.281	0.101
713.800	-25.191	0.101
713.900	-25.518	0.101
714.000	-12.963	0.101
714.100	-19.398	0.101
714.200	-14.279	0.101
714.300	-14.891	0.101
714.400	-12.637	0.101
714.500	-27.460	0.101
714.600	-19.755	0.101
714.700	-28.335	0.101
714.800	-25.369	0.101
714.900	-16.527	0.101
715.000	-18.166	0.101
715.100	-18.947	0.101
715.200	-19.891	0.101
715.300	-29.011	0.101
715.400	-14.908	0.101
715.500	-23.266	0.101
715.600	-24.771	0.101
715.700	-25.918	0.101
715.800	-20.734	0.101
715.900	-16.418	0.101
716.000	-23.777	0.101
716.100	-25.203	0.101
716.200	-17.422	0.101
716.300	-30.807	0.101
716.400	-22.070	0.101
716.500	-17.495	0.101
716.600	-18.547	0.101
716.700	-29.152	0.101
716.800	-17.642	0.101
716.900	-26.984	0.101
717.000	-15.374	0.101
717.100	-16.920	0.101
717.200	-16.190	0.101
717.300	-32.670	0.101
717.400	-13.776	0.101
717.500	-3.742	0.101
717.600	-30.541	0.101
717.700	-32.290	0.101
717.800	-18.479	0.101
717.900	-22.052	0.101
718.000	-22.929	0.101
718.100	-27.957	0.101
718.200	-14.897	0.101
718.300	-24.429	0.101
718.400	-18.628	0.101
718.500	-25.309	0.101
718.600	-13.767	0.101
718.700	-8.854	0.101
718.800	-18.641	0.101
718.900	-30.952	0.101
719.000	-31.323	0.101
719.100	-21.015	0.101
719.200	-28.931	0.101
719.300	-34.140	0.101
719.400	-17.853	0.101
719.500	-22.009	0.101
719.600	-15.359	0.101
719.700	-24.414	0.101
719.800	-27.310	0.101
719.900	-28.874	0.101
720.000	-22.890	0.101
720.100	-24.603	0.101
720.200	-12.036	0.101
720.300	-14.637	0.101
720.400	-20.659	0.101
720.500	-26.664	0.101
720.600	-23.047	0.101
720.700	-19.120	0.101
720.800	-21.063	0.101
720.900	-19.795	0.101
721.000	-24.757	0.101
721.100	-25.548	0.101
721.200	-24.578	0.101
721.300	-31.793	0.101
721.400	-31.874	0.101
721.500	-24.188	0.101
721.600	-24.339	0.101
721.700	-23.996	0.101
721.800	-34.968	0.101
721.900	-28.613	0.101
722.000	-18.539	0.101
722.100	-11.715	0.101
722.200	-14.659	0.101
722.300	-34.135	0.101
722.400	-33.743	0.101
722.500	-26.823	0.101
722.600	-19.048	0.101
722.700	-15.087	0.101
722.800	-10.534	0.101
722.900	-24.751	0.101
723.000	-20.813	0.101
723.100	-11.273	0.101
723.200	-20.360	0.101
723.300	-23.978	0.101
723.400	-25.735	0.101
723.500	-31.577	0.101
723.600	-27.695	0.101
723.700	-15.873	0.101
723.800	-29.090	0.101
723.900	-15.582	0.101
724.000	-23.138	0.101
724.100	-31.062	0.101
724.200	-29.199	0.101
724.300	-32.440	0.101
724.400	-25.555	0.101
724.500	-20.832	0.101
724.600	-29.782	0.101
724.700	-18.496	0.101
724.800	-27.785	0.101
724.900	-25.230	0.101
725.000	-23.992	0.101
725.100	-16.708	0.101
725.200	-21.114	0.101
725.300	-27.814	0.101
725.400	-23.831	0.101
725.500	-33.414	0.101
725.600	-25.755	0.101
725.700	-19.615	0.101
725.800	-20.345	0.101
725.900	-26.159	0.101
726.000	-25.570	0.101
726.100	-32.756	0.101
726.200	-22.368	0.101
726.300	-20.590	0.101
726.400	-20.876	0.101
726.500	-27.281	0.101
726.600	-25.248	0.101
726.700	-27.410	0.101
726.800	-33.711	0.101
726.900	-27.419	0.101
727.000	-28.482	0.101
727.100	-8.646	0.101
727.200	-16.982	0.101
727.300	-18.064	0.101
727.400	-29.474	0.101
727.500	-35.057	0.101
727.600	-32.517	0.101
727.700	-16.131	0.101
727.800	-26.566	0.101
727.900	-18.928	0.101
728.000	-29.404	0.101
728.100	-26.228	0.101
728.200	-20.259	0.101
728.300	-24.088	0.101
728.400	-22.723	0.101
728.500	-23.372	0.101
728.600	-30.831	0.101
728.700	-37.374	0.101
728.800	-22.621	0.101
728.900	-24.935	0.101
729.000	-21.288	0.101
729.100	-35.440	0.101
729.200	-21.600	0.101
729.300	-17.734	0.101
729.400	-31.492	0.101
729.500	-14.907	0.101
729.600	-27.584	0.101
729.700	-32.951	0.101
729.800	-24.725	0.101
729.900	-13.626	0.101
730.000	-28.824	0.101
730.100	-32.135	0.101
730.200	-21.302	0.101
730.300	-25.640	0.101
730.400	-16.056	0.101
730.500	-22.454	0.101
730.600	-27.034	0.101
730.700	-18.595	0.101
730.800	-28.228	0.101
730.900	-15.939	0.101
731.000	-20.280	0.101
731.100	-21.324	0.101
731.200	-20.579	0.101
731.300	-30.723	0.101
731.400	-18.517	0.101
731.500	-27.726	0.101
731.600	-35.813	0.101
731.700	-24.914	0.101
731.800	-34.267	0.101
731.900	-15.786	0.101
732.000	-28.818	0.101
732.100	-15.218	0.101
732.200	-18.072	0.101
732.300	-25.941	0.101
732.400	-30.593	0.101
732.500	-33.630	0.101
732.600	-27.662	0.101
732.700	-29.026	0.101
732.800	-24.605	0.101
732.900	-14.264	0.101
733.000	-19.009	0.101
733.100	-24.417	0.101
733.200	-40.974	0.101
733.300	-29.157	0.101
733.400	-35.435	0.101
733.500	-14.001	0.101
733.600	-18.970	0.101
733.700	-11.661	0.101
733.800	-26.266	0.101
733.900	-26.795	0.101
734.000	-23.810	0.101
734.100	-29.154	0.101
734.200	-20.860	0.101
734.300	-20.295	0.101
734.400	-20.587	0.101
734.500	-14.719	0.101
734.600	-7.142	0.101
734.700	-25.728	0.101
734.800	-22.504	0.101
734.900	-25.028	0.101
735.000	-40.747	0.101
735.100	-28.604	0.101
735.200	-31.133	0.101
735.300	-29.514	0.101
735.400	-25.107	0.101
735.500	-25.029	0.101
735.600	-32.445	0.101
735.700	-21.647	0.101
735.800	-15.361	0.101
735.900	-17.092	0.101
736.000	-23.988	0.101
736.100	-31.177	0.101
736.200	-35.667	0.101
736.300	-26.294	0.101
736.400	-18.370	0.101
736.500	-19.820	0.101
736.600	-26.444	0.101
736.700	-21.873	0.101
736.800	-17.641	0.101
736.900	-22.827	0.101
737.000	-25.242	0.101
737.100	-28.218	0.101
737.200	-23.249	0.101
737.300	-24.497	0.101
737.400	-22.590	0.101
737.500	-22.220	0.101
737.600	-24.619	0.101
737.700	-14.154	0.101
737.800	-30.568	0.101
737.900	-28.863	0.101
738.000	-28.599	0.101
738.100	-17.323	0.101
738.200	-14.455	0.101
738.300	-22.733	0.101
738.400	-22.294	0.101
738.500	-23.197	0.101
738.600	-21.769	0.101
738.700	-29.475	0.101
738.800	-27.711	0.101
738.900	-15.038	0.101
739.000	-19.477	0.101
739.100	-24.144	0.101
739.200	-29.404	0.101
739.300	-28.520	0.101
739.400	-26.605	0.101
739.500	-16.303	0.101
739.600	-20.172	0.101
739.700	-24.184	0.101
739.800	-12.699	0.101
739.900	-25.676	0.101
740.000	-28.065	0.101
740.100	-20.114	0.101
740.200	-19.733	0.101
740.300	-24.825	0.101
740.400	-19.300	0.101
740.500	-24.618	0.101
740.600	-22.837	0.101
740.700	-28.154	0.101
740.800	-22.785	0.101
740.900	-27.640	0.101
741.000	-31.692	0.101
741.100	-28.828	0.101
741.200	-25.187	0.101
741.300	-23.172	0.101
741.400	-24.956	0.101
741.500	-25.289	0.101
741.600	-28.195	0.101
741.700	-16.768	0.101
741.800	-23.207	0.101
741.900	-16.510	0.101
742.000	-24.952	0.101
742.100	-31.102	0.101
742.200	-35.203	0.101
742.300	-28.461	0.101
742.400	-18.111	0.101
742.500	-26.102	0.101
742.600	-20.450	0.101
742.700	-30.636	0.101
742.800	-17.581	0.101
742.900	-31.091	0.101
743.000	-28.493	0.101
743.100	-6.402	0.101
743.200	-27.824	0.101
743.300	-14.990	0.101
743.400	-7.841	0.101
743.500	-21.153	0.101
743.600	-30.842	0.101
743.700	-24.752	0.101
743.800	-17.998	0.101
743.900	-13.860	0.101
744.000	-29.589	0.101
744.100	-26.895	0.101
744.200	-27.506	0.101
744.300	-30.766	0.101
744.400	-24.881	0.101
744.500	-19.027	0.101
744.600	-20.946	0.101
744.700	-20.177	0.101
744.800	-21.979	0.101
744.900	-22.003	0.101
745.000	-22.207	0.101
745.100	-16.793	0.101
745.200	-28.184	0.101
745.300	-21.452	0.101
745.400	-24.077	0.101
745.500	-34.766	0.101
745.600	-27.101	0.101
745.700	-16.581	0.101
745.800	-20.367	0.101
745.900	-22.962	0.101
746.000	-21.740	0.101
746.100	-17.921	0.101
746.200	-16.827	0.101
746.300	-14.749	0.101
746.400	-27.394	0.101
746.500	-18.975	0.101
746.600	-32.968	0.101
746.700	-22.640	0.101
746.800	-20.636	0.101
746.900	-27.159	0.101
747.000	-23.876	0.101
747.100	-19.211	0.101
747.200	-11.174	0.101
747.300	-20.355	0.101
747.400	-28.820	0.101
747.500	-20.444	0.101
747.600	-20.757	0.101
747.700	-23.946	0.101
747.800	-24.431	0.101
747.900	-18.776	0.101
748.000	-22.903	0.101
748.100	-12.057	0.101
748.200	-21.392	0.101
748.300	-29.322	0.101
748.400	-21.589	0.101
748.500	-22.606	0.101
748.600	-10.723	0.101
748.700	-23.366	0.101
748.800	-31.792	0.101
748.900	-35.617	0.101
749.000	-12.863	0.101
749.100	-27.366	0.101
749.200	-24.213	0.101
749.300	-26.785	0.101
749.400	-23.098	0.101
749.500	-28.243	0.101
749.600	-17.992	0.101
749.700	-27.207	0.101
749.800	-15.967	0.101
749.900	-24.208	0.101
750.000	-20.643	0.101
750.100	-15.246	0.101
750.200	-19.928	0.101
750.300	-12.845	0.101
750.400	-17.339	0.101
750.500	-26.928	0.101
750.600	-30.346	0.101
750.700	-18.347	0.101
750.800	-13.155	0.101
750.900	-19.412	0.101
751.000	-12.321	0.101
751.100	-18.410	0.101
751.200	-18.365	0.101
751.300	-19.070	0.101
751.400	-18.356	0.101
751.500	-21.992	0.101
751.600	-13.851	0.101
751.700	-34.703	0.101
751.800	-19.777	0.101
751.900	-13.130	0.101
752.000	-27.342	0.101
752.100	-18.957	0.101
752.200	-24.704	0.101
752.300	-26.412	0.101
752.400	-25.022	0.101
752.500	-22.708	0.101
752.600	-27.622	0.101
752.700	-28.089	0.101
752.800	-26.306	0.101
752.900	-28.070	0.101
753.000	-13.838	0.101
753.100	-16.536	0.101
753.200	-18.920	0.101
753.300	-18.224	0.101
753.400	-20.274	0.101
753.500	-16.820	0.101
753.600	-22.200	0.101
753.700	-28.192	0.101
753.800	-24.854	0.101
753.900	-18.900	0.101
754.000	-18.284	0.101
754.100	-14.437	0.101
754.200	-24.936	0.101
754.300	-17.612	0.101
754.400	-20.144	0.101
754.500	-20.423	0.101
754.600	-22.864	0.101
754.700	-25.325	0.101
754.800	-22.088	0.101
754.900	-19.472	0.101
755.000	-22.506	0.101
755.100	-18.216	0.101
755.200	-17.433	0.101
755.300	-9.155	0.101
755.400	-18.180	0.101
755.500	-27.552	0.101
755.600	-17.064	0.101
755.700	-13.432	0.101
755.800	-21.688	0.101
755.900	-16.476	0.101
756.000	-24.286	0.101
756.100	-20.061	0.101
756.200	-19.009	0.101
756.300	-18.726	0.101
756.400	-19.420	0.101
756.500	-7.792	0.101
756.600	-8.228	0.101
756.700	-26.211	0.101
756.800	-29.795	0.101
756.900	-26.027	0.101
757.000	-32.247	0.101
757.100	-29.297	0.101
757.200	-16.311	0.101
757.300	-20.368	0.101
757.400	-19.304	0.101
757.500	-27.817	0.101
757.600	-32.398	0.101
757.700	-15.306	0.101
757.800	-19.897	0.101
757.900	-4.038	0.101
758.000	-31.196	0.101
758.100	-24.549	0.101
758.200	-20.407	0.101
758.300	-13.136	0.101
758.400	-18.071	0.101
758.500	-21.378	0.101
758.600	-18.357	0.101
758.700	-26.906	0.101
758.800	-16.927	0.101
758.900	-21.160	0.101
759.000	-21.916	0.101
759.100	-30.977	0.101
759.200	-16.526	0.101
759.300	-25.997	0.101
759.400	-8.724	0.101
759.500	-15.543	0.101
759.600	-30.166	0.101
759.700	-19.542	0.101
759.800	-26.788	0.101
759.900	-30.968	0.101
760.000	-15.558	0.101
760.100	-15.611	0.101
760.200	-3.465	0.101
760.300	-8.868	0.101
760.400	-18.041	0.101
760.500	-17.468	0.101
760.600	-19.321	0.101
760.700	-29.219	0.101
760.800	-16.789	0.101
760.900	-11.308	0.101
761.000	-16.186	0.101
761.100	-11.921	0.101
761.200	-24.358	0.101
761.300	-17.865	0.101
761.400	-25.157	0.101
761.500	-17.871	0.101
761.600	-38.147	0.101
761.700	-29.027	0.101
761.800	-17.111	0.101
761.900	-16.166	0.101
762.000	-23.570	0.101
762.100	-10.723	0.101
762.200	-6.729	0.101
762.300	-20.635	0.101
762.400	-29.336	0.101
762.500	-16.643	0.101
762.600	-19.835	0.101
762.700	-22.388	0.101
762.800	-24.494	0.101
762.900	-17.052	0.101
763.000	-12.263	0.101
763.100	-26.547	0.101
763.200	-24.369	0.101
763.300	-14.991	0.101
763.400	-17.050	0.101
763.500	-29.019	0.101
763.600	-19.562	0.101
763.700	-14.261	0.101
763.800	-18.922	0.101
763.900	-21.249	0.101
764.000	-16.950	0.101
764.100	-14.991	0.101
764.200	-21.760	0.101
764.300	-30.889	0.101
764.400	-29.144	0.101
764.500	-27.407	0.101
764.600	-30.098	0.101
764.700	-19.744	0.101
764.800	-17.861	0.101
764.900	-9.318	0.101
765.000	-23.092	0.101
765.100	-24.674	0.101
765.200	-19.819	0.101
765.300	-20.844	0.101
765.400	-21.496	0.101
765.500	-14.163	0.101
765.600	-22.497	0.101
765.700	-21.247	0.101
765.800	-20.961	0.101
765.900	-13.263	0.101
766.000	-19.106	0.101
766.100	-28.601	0.101
766.200	-5.338	0.101
766.300	-17.135	0.101
766.400	-20.333	0.101
766.500	-18.457	0.101
766.600	-16.967	0.101
766.700	-18.166	0.101
766.800	-13.832	0.101
766.900	-20.487	0.101
767.000	-18.576	0.101
767.100	-28.698	0.101
767.200	-25.463	0.101
767.300	-21.482	0.101
767.400	-11.933	0.101
767.500	-18.653	0.101
767.600	-6.268	0.101
767.700	-16.960	0.101
767.800	-20.252	0.101
767.900	-23.204	0.101
768.000	-22.700	0.101
768.100	-6.719	0.101
768.200	-15.197	0.101
768.300	-25.865	0.101
768.400	-20.942	0.101
768.500	-20.467	0.101
768.600	-20.037	0.101
768.700	-29.553	0.101
768.800	-20.581	0.101
768.900	-14.987	0.101
769.000	-13.446	0.101
769.100	-14.736	0.101
769.200	-22.772	0.101
769.300	-17.885	0.101
769.400	-8.510	0.101
769.500	-9.731	0.101
769.600	-9.859	0.101
769.700	-5.028	0.101
769.800	-21.248	0.101
769.900	-22.968	0.101
770.000	-19.454	0.101
770.100	-23.327	0.101
770.200	-21.189	0.101
770.300	-17.385	0.101
770.400	-16.564	0.101
770.500	-23.536	0.101
770.600	-27.645	0.101
770.700	-24.844	0.101
770.800	-19.775	0.101
770.900	-17.674	0.101
771.000	-21.189	0.101
771.100	-22.548	0.101
771.200	-16.154	0.101
771.300	-14.364	0.101
771.400	-16.722	0.101
771.500	-15.464	0.101
771.600	-29.529	0.101
771.700	-22.928	0.101
771.800	-14.428	0.101
771.900	-21.934	0.101
772.000	-25.159	0.101
772.100	-12.787	0.101
772.200	-19.433	0.101
772.300	-33.943	0.101
772.400	-23.759	0.101
772.500	0.026	0.101
772.600	-25.274	0.101
772.700	-15.910	0.101
772.800	-15.198	0.101
772.900	-15.644	0.101
773.000	-10.484	0.101
773.100	-13.107	0.101
773.200	-20.184	0.101
773.300	-24.103	0.101
773.400	-13.988	0.101
773.500	-13.071	0.101
773.600	-12.674	0.101
773.700	-26.466	0.101
773.800	-29.420	0.101
773.900	-26.046	0.101
774.000	-8.144	0.101
774.100	-15.192	0.101
774.200	-25.611	0.101
774.300	-17.167	0.101
774.400	-12.228	0.101
774.500	-24.055	0.101
774.600	-17.963	0.101
774.700	-26.554	0.101
774.800	-13.548	0.101
774.900	-18.310	0.101
775.000	-16.041	0.101
775.100	-20.780	0.101
775.200	-12.488	0.101
775.300	-14.717	0.101
775.400	-27.743	0.101
775.500	-13.333	0.101
775.600	-21.064	0.101
775.700	-14.617	0.101
775.800	-24.108	0.101
775.900	-22.088	0.101
776.000	-5.661	0.101
776.100	-12.239	0.101
776.200	-15.117	0.101
776.300	-16.497	0.101
776.400	-12.313	0.101
776.500	-20.211	0.101
776.600	-29.018	0.101
776.700	-34.780	0.101
776.800	-12.682	0.101
776.900	-9.848	0.101
777.000	-13.391	0.101
777.100	-15.255	0.101
777.200	-24.679	0.101
777.300	-12.839	0.101
777.400	-21.071	0.101
777.500	-26.042	0.101
777.600	-15.952	0.101
777.700	-18.925	0.101
777.800	-12.176	0.101
777.900	-17.980	0.101
778.000	-14.084	0.101
778.100	-17.697	0.101
778.200	-23.037	0.101
778.300	-15.425	0.101
778.400	-23.995	0.101
778.500	-9.650	0.101
778.600	-16.185	0.101
778.700	-21.208	0.101
778.800	-15.909	0.101
778.900	-11.727	0.101
779.000	-29.615	0.101
779.100	-13.009	0.101
779.200	-20.788	0.101
779.300	-16.043	0.101
779.400	-20.949	0.101
779.500	-23.329	0.101
779.600	-29.932	0.101
779.700	-19.622	0.101
779.800	-4.593	0.101
779.900	-16.705	0.101
780.000	-26.852	0.101
780.100	-33.175	0.101
780.200	-24.593	0.101
780.300	-20.193	0.101
780.400	-15.630	0.101
780.500	-11.280	0.101
780.600	-10.843	0.101
780.700	-11.832	0.101
780.800	-13.857	0.101
780.900	-11.914	0.101
781.000	-5.050	0.101
781.100	2.440	0.101
781.200	-3.887	0.101
781.300	-5.145	0.101
781.400	3.300	0.101
781.500	3.383	0.101
781.600	17.099	0.101
781.700	-3.230	0.101
781.800	5.083	0.101
781.900	9.231	0.101
782.000	6.117	0.101
782.100	12.727	0.101
782.200	9.594	0.101
782.300	13.908	0.101
782.400	24.283	0.101
782.500	12.343	0.101
782.600	14.591	0.101
782.700	28.037	0.101
782.800	11.772	0.101
782.900	17.410	0.101
783.000	10.933	0.101
783.100	12.012	0.101
783.200	17.864	0.101
783.300	16.086	0.101
783.400	6.305	0.101
783.500	18.265	0.101
783.600	3.081	0.101
783.700	10.286	0.101
783.800	12.003	0.101
783.900	26.044	0.101
784.000	23.062	0.101
784.100	9.593	0.101
784.200	20.331	0.101
784.300	29.200	0.101
784.400	2.735	0.101
784.500	5.058	0.101
784.600	9.208	0.101
784.700	20.175	0.101
784.800	12.706	0.101
784.900	15.789	0.101
785.000	16.604	0.101
785.100	16.013	0.101
785.200	13.065	0.101
785.300	18.101	0.101
785.400	5.694	0.101
785.500	6.681	0.101
785.600	10.022	0.101
785.700	19.243	0.101
785.800	29.383	0.101
785.900	13.497	0.101
786.000	4.999	0.101
786.100	12.560	0.101
786.200	9.623	0.101
786.300	3.951	0.101
786.400	3.272	0.101
786.500	0.966	0.101
786.600	5.618	0.101
786.700	9.260	0.101
786.800	16.863	0.101
786.900	15.830	0.101
787.000	4.396	0.101
787.100	17.533	0.101
787.200	8.041	0.101
787.300	12.379	0.101
787.400	-0.162	0.101
787.500	13.218	0.101
787.600	20.298	0.101
787.700	7.970	0.101
787.800	6.685	0.101
787.900	12.085	0.101
788.000	-7.452	0.101
788.100	8.426	0.101
788.200	8.513	0.101
788.300	6.893	0.101
788.400	10.384	0.101
788.500	15.838	0.101
788.600	18.433	0.101
788.700	-3.732	0.101
788.800	17.663	0.101
788.900	17.411	0.101
789.000	17.064	0.101
789.100	14.078	0.101
789.200	5.721	0.101
789.300	0.491	0.101
789.400	17.344	0.101
789.500	11.184	0.101
789.600	4.636	0.101
789.700	10.465	0.101
789.800	6.009	0.101
789.900	15.713	0.101
790.000	14.786	0.101
790.100	17.218	0.101
790.200	13.041	0.101
790.300	7.350	0.101
790.400	19.917	0.101
790.500	12.057	0.101
790.600	19.381	0.101
790.700	9.290	0.101
790.800	20.749	0.101
790.900	17.328	0.101
791.000	3.180	0.101
791.100	14.259	0.101
791.200	15.833	0.101
791.300	27.852	0.101
791.400	14.757	0.101
791.500	2.425	0.101
791.600	10.848	0.101
791.700	19.434	0.101
791.800	17.338	0.101
791.900	20.777	0.101
792.000	10.021	0.101
792.100	9.845	0.101
792.200	12.722	0.101
792.300	23.723	0.101
792.400	22.033	0.101
792.500	20.806	0.101
792.600	20.620	0.101
792.700	18.742	0.101
792.800	10.589	0.101
792.900	25.324	0.101
793.000	33.469	0.101
793.100	24.787	0.101
793.200	24.932	0.101
793.300	10.503	0.101
793.400	17.703	0.101
793.500	14.843	0.101
793.600	14.456	0.101
793.700	23.094	0.101
793.800	21.669	0.101
793.900	24.406	0.101
794.000	21.029	0.101
794.100	13.565	0.101
794.200	16.471	0.101
794.300	17.950	0.101
794.400	23.949	0.101
794.500	18.984	0.101
794.600	24.124	0.101
794.700	21.350	0.101
794.800	28.028	0.101
794.900	24.932	0.101
795.000	23.685	0.101
795.100	20.759	0.101
795.200	16.787	0.101
795.300	15.180	0.101
795.400	26.520	0.101
795.500	29.438	0.101
795.600	23.014	0.101
795.700	9.561	0.101
795.800	32.953	0.101
795.900	21.246	0.101
796.000	22.763	0.101
796.100	23.772	0.101
796.200	24.193	0.101
796.300	17.559	0.101
796.400	39.737	0.101
796.500	34.307	0.101
796.600	30.081	0.101
796.700	22.889	0.101
796.800	20.329	0.101
796.900	26.084	0.101
797.000	34.310	0.101
797.100	27.323	0.101
797.200	15.982	0.101
797.300	26.235	0.101
797.400	20.433	0.101
797.500	26.566	0.101
797.600	27.410	0.101
797.700	27.479	0.101
797.800	35.935	0.101
797.900	32.127	0.101
798.000	31.194	0.101
798.100	39.642	0.101
798.200	39.536	0.101
798.300	31.802	0.101
798.400	35.894	0.101
798.500	37.004	0.101
798.600	35.726	0.101
798.700	32.902	0.101
798.800	20.155	0.101
798.900	39.323	0.101
799.000	40.751	0.101
799.100	35.756	0.101
799.200	32.331	0.101
799.300	37.978	0.101
799.400	41.179	0.101
799.500	31.757	0.101
799.600	33.391	0.101
799.700	35.202	0.101
799.800	30.695	0.101
799.900	31.527	0.101
800.000	49.217	0.101
