time /s	I /nA	E /V
0.100	-13.385	0.101
0.200	-24.154	0.101
0.300	-9.555	0.101
0.400	-11.189	0.101
0.500	-5.669	0.101
0.600	-14.121	0.101
0.700	-8.527	0.101
0.800	-5.791	0.101
0.900	-15.162	0.101
1.000	-16.333	0.101
1.100	-12.000	0.101
1.200	-11.329	0.101
1.300	-17.709	0.101
1.400	-24.860	0.101
1.500	-11.471	0.101
1.600	-8.022	0.101
1.700	-17.017	0.101
1.800	-17.915	0.101
1.900	0.119	0.101
2.000	-14.003	0.101
2.100	-17.807	0.101
2.200	-14.677	0.101
2.300	-8.411	0.101
2.400	-17.477	0.101
2.500	-5.140	0.101
2.600	-6.916	0.101
2.700	-11.630	0.101
2.800	-15.836	0.101
2.900	-6.122	0.101
3.000	-6.316	0.101
3.100	-12.207	0.101
3.200	-4.033	0.101
3.300	-16.073	0.101
3.400	-13.681	0.101
3.500	-9.730	0.101
3.600	-2.816	0.101
3.700	-15.333	0.101
3.800	-7.744	0.101
3.900	-7.965	0.101
4.000	-14.219	0.101
4.100	-14.555	0.101
4.200	-18.379	0.101
4.300	-26.529	0.101
4.400	-2.363	0.101
4.500	-2.473	0.101
4.600	-9.783	0.101
4.700	-15.552	0.101
4.800	-10.564	0.101
4.900	-16.208	0.101
5.000	-13.460	0.101
5.100	-14.440	0.101
5.200	-18.195	0.101
5.300	-14.613	0.101
5.400	-12.979	0.101
5.500	-11.731	0.101
5.600	-10.424	0.101
5.700	-11.910	0.101
5.800	-6.101	0.101
5.900	-14.917	0.101
6.000	-17.160	0.101
6.100	-7.773	0.101
6.200	-15.062	0.101
6.300	5.983	0.101
6.400	0.007	0.101
6.500	-16.000	0.101
6.600	-15.469	0.101
6.700	-13.930	0.101
6.800	-18.025	0.101
6.900	-16.795	0.101
7.000	-21.791	0.101
7.100	-11.982	0.101
7.200	-7.880	0.101
7.300	-22.634	0.101
7.400	-16.025	0.101
7.500	-15.065	0.101
7.600	-15.921	0.101
7.700	-2.201	0.101
7.800	1.133	0.101
7.900	-4.977	0.101
8.000	-10.213	0.101
8.100	-15.337	0.101
8.200	-19.465	0.101
8.300	-21.431	0.101
8.400	-7.844	0.101
8.500	-11.779	0.101
8.600	-19.536	0.101
8.700	-1.482	0.101
8.800	-11.415	0.101
8.900	-16.924	0.101
9.000	-7.894	0.101
9.100	-17.669	0.101
9.200	-15.061	0.101
9.300	-7.053	0.101
9.400	-0.658	0.101
9.500	-2.831	0.101
9.600	-17.676	0.101
9.700	-6.141	0.101
9.800	-9.365	0.101
9.900	-13.429	0.101
10.000	-13.226	0.101
10.100	-5.632	0.101
10.200	-8.206	0.101
10.300	-22.778	0.101
10.400	-9.948	0.101
10.500	-11.234	0.101
10.600	-9.384	0.101
10.700	-9.232	0.101
10.800	-11.642	0.101
10.900	-13.941	0.101
11.000	-13.881	0.101
11.100	-22.080	0.101
11.200	-12.988	0.101
11.300	-17.220	0.101
11.400	-5.141	0.101
11.500	-3.748	0.101
11.600	-7.516	0.101
11.700	-13.122	0.101
11.800	-9.970	0.101
11.900	-16.184	0.101
12.000	-13.802	0.101
12.100	-14.223	0.101
12.200	-6.980	0.101
12.300	-7.744	0.101
12.400	-6.521	0.101
12.500	-17.682	0.101
12.600	-15.789	0.101
12.700	-10.735	0.101
12.800	-1.520	0.101
12.900	-8.177	0.101
13.000	-6.406	0.101
13.100	-14.971	0.101
13.200	-18.067	0.101
13.300	-11.224	0.101
13.400	-22.653	0.101
13.500	-20.375	0.101
13.600	-14.201	0.101
13.700	-2.696	0.101
13.800	-6.871	0.101
13.900	-14.610	0.101
14.000	-15.113	0.101
14.100	-14.259	0.101
14.200	-17.514	0.101
14.300	-17.585	0.101
14.400	-4.843	0.101
14.500	-13.099	0.101
14.600	-2.948	0.101
14.700	-19.256	0.101
14.800	-19.631	0.101
14.900	-5.566	0.101
15.000	-2.693	0.101
15.100	-13.695	0.101
15.200	-11.864	0.101
15.300	-18.072	0.101
15.400	-12.089	0.101
15.500	-13.560	0.101
15.600	-9.169	0.101
15.700	-14.801	0.101
15.800	-15.534	0.101
15.900	-11.160	0.101
16.000	-12.270	0.101
16.100	-15.434	0.101
16.200	-23.615	0.101
16.300	-16.909	0.101
16.400	-3.088	0.101
16.500	-17.499	0.101
16.600	-0.848	0.101
16.700	-9.127	0.101
16.800	-11.123	0.101
16.900	-14.313	0.101
17.000	-20.650	0.101
17.100	-13.981	0.101
17.200	-11.033	0.101
17.300	-18.867	0.101
17.400	-9.560	0.101
17.500	-5.847	0.101
17.600	-12.187	0.101
17.700	-15.907	0.101
17.800	-19.404	0.101
17.900	-19.998	0.101
18.000	-6.127	0.101
18.100	-0.462	0.101
18.200	-0.537	0.101
18.300	-12.858	0.101
18.400	-8.569	0.101
18.500	-17.309	0.101
18.600	-14.825	0.101
18.700	-0.854	0.101
18.800	-3.416	0.101
18.900	-8.451	0.101
19.000	-25.168	0.101
19.100	-8.293	0.101
19.200	-5.884	0.101
19.300	-6.871	0.101
19.400	-9.846	0.101
19.500	-20.869	0.101
19.600	-13.312	0.101
19.700	-10.239	0.101
19.800	-3.277	0.101
19.900	-7.716	0.101
20.000	-12.843	0.101
20.100	-13.287	0.101
20.200	-15.300	0.101
20.300	-20.680	0.101
20.400	-2.970	0.101
20.500	-15.047	0.101
20.600	-6.375	0.101
20.700	-11.788	0.101
20.800	-5.572	0.101
20.900	-23.255	0.101
21.000	-8.731	0.101
21.100	2.428	0.101
21.200	-16.721	0.101
21.300	-13.873	0.101
21.400	-6.435	0.101
21.500	-1.217	0.101
21.600	-11.401	0.101
21.700	-12.671	0.101
21.800	-15.022	0.101
21.900	-26.934	0.101
22.000	-8.184	0.101
22.100	-11.263	0.101
22.200	-10.118	0.101
22.300	-4.006	0.101
22.400	-6.388	0.101
22.500	-6.372	0.101
22.600	-15.835	0.101
22.700	-24.034	0.101
22.800	-8.626	0.101
22.900	-15.635	0.101
23.000	-17.426	0.101
23.100	-3.489	0.101
23.200	-9.458	0.101
23.300	-9.943	0.101
23.400	-22.284	0.101
23.500	-7.980	0.101
23.600	-10.444	0.101
23.700	-6.894	0.101
23.800	-10.768	0.101
23.900	-0.321	0.101
24.000	-5.767	0.101
24.100	-13.296	0.101
24.200	-10.364	0.101
24.300	-12.684	0.101
24.400	-11.037	0.101
24.500	-7.166	0.101
24.600	-12.085	0.101
24.700	-8.322	0.101
24.800	-16.226	0.101
24.900	-4.504	0.101
25.000	-14.231	0.101
25.100	-15.756	0.101
25.200	-10.516	0.101
25.300	-18.319	0.101
25.400	-19.478	0.101
25.500	-6.330	0.101
25.600	-13.360	0.101
25.700	-19.139	0.101
25.800	-5.326	0.101
25.900	-5.899	0.101
26.000	-12.712	0.101
26.100	-19.194	0.101
26.200	4.325	0.101
26.300	-8.326	0.101
26.400	-17.194	0.101
26.500	-9.204	0.101
26.600	-8.461	0.101
26.700	-7.145	0.101
26.800	-4.834	0.101
26.900	-14.962	0.101
27.000	-18.982	0.101
27.100	-10.694	0.101
27.200	-3.082	0.101
27.300	-8.670	0.101
27.400	-15.379	0.101
27.500	-18.354	0.101
27.600	-28.937	0.101
27.700	-8.930	0.101
27.800	-5.216	0.101
27.900	-5.047	0.101
28.000	-11.048	0.101
28.100	-6.802	0.101
28.200	-12.842	0.101
28.300	-9.955	0.101
28.400	-6.843	0.101
28.500	-3.787	0.101
28.600	-18.440	0.101
28.700	-20.588	0.101
28.800	-9.682	0.101
28.900	-9.332	0.101
29.000	-16.171	0.101
29.100	-12.320	0.101
29.200	-12.861	0.101
29.300	-16.410	0.101
29.400	-14.815	0.101
29.500	-2.806	0.101
29.600	-4.471	0.101
29.700	-13.235	0.101
29.800	-20.121	0.101
29.900	-15.458	0.101
30.000	-7.225	0.101
30.100	-5.182	0.101
30.200	-5.145	0.101
30.300	-13.359	0.101
30.400	-7.383	0.101
30.500	-12.238	0.101
30.600	-2.381	0.101
30.700	0.832	0.101
30.800	5.638	0.101
30.900	1.304	0.101
31.000	-2.086	0.101
31.100	14.766	0.101
31.200	3.328	0.101
31.300	16.333	0.101
31.400	6.104	0.101
31.500	3.811	0.101
31.600	7.164	0.101
31.700	8.998	0.101
31.800	2.144	0.101
31.900	17.563	0.101
32.000	3.769	0.101
32.100	10.105	0.101
32.200	23.969	0.101
32.300	19.629	0.101
32.400	17.114	0.101
32.500	19.560	0.101
32.600	18.271	0.101
32.700	28.734	0.101
32.800	13.162	0.101
32.900	20.119	0.101
33.000	15.353	0.101
33.100	9.747	0.101
33.200	15.298	0.101
33.300	27.878	0.101
33.400	25.074	0.101
33.500	20.385	0.101
33.600	13.291	0.101
33.700	21.959	0.101
33.800	17.343	0.101
33.900	27.773	0.101
34.000	16.634	0.101
34.100	17.419	0.101
34.200	25.324	0.101
34.300	24.416	0.101
34.400	15.112	0.101
34.500	22.111	0.101
34.600	12.190	0.101
34.700	14.069	0.101
34.800	5.292	0.101
34.900	19.894	0.101
35.000	21.734	0.101
35.100	32.653	0.101
35.200	19.230	0.101
35.300	11.536	0.101
35.400	14.554	0.101
35.500	17.919	0.101
35.600	6.373	0.101
35.700	26.640	0.101
35.800	15.543	0.101
35.900	17.264	0.101
36.000	12.140	0.101
36.100	8.818	0.101
36.200	7.992	0.101
36.300	4.405	0.101
36.400	15.634	0.101
36.500	4.479	0.101
36.600	7.367	0.101
36.700	13.165	0.101
36.800	2.944	0.101
36.900	2.483	0.101
37.000	20.490	0.101
37.100	10.967	0.101
37.200	19.854	0.101
37.300	8.861	0.101
37.400	8.141	0.101
37.500	13.992	0.101
37.600	10.750	0.101
37.700	8.094	0.101
37.800	11.856	0.101
37.900	13.548	0.101
38.000	14.108	0.101
38.100	-9.261	0.101
38.200	-2.196	0.101
38.300	4.731	0.101
38.400	22.410	0.101
38.500	19.204	0.101
38.600	10.032	0.101
38.700	11.625	0.101
38.800	9.369	0.101
38.900	8.099	0.101
39.000	7.882	0.101
39.100	12.343	0.101
39.200	1.749	0.101
39.300	11.941	0.101
39.400	27.216	0.101
39.500	12.496	0.101
39.600	10.040	0.101
39.700	2.617	0.101
39.800	11.122	0.101
39.900	3.014	0.101
40.000	11.165	0.101
40.100	8.188	0.101
40.200	15.076	0.101
40.300	9.108	0.101
40.400	9.091	0.101
40.500	14.013	0.101
40.600	6.755	0.101
40.700	10.845	0.101
40.800	5.278	0.101
40.900	18.470	0.101
41.000	22.521	0.101
41.100	14.548	0.101
41.200	8.163	0.101
41.300	7.357	0.101
41.400	6.513	0.101
41.500	26.131	0.101
41.600	13.498	0.101
41.700	12.254	0.101
41.800	13.176	0.101
41.900	1.512	0.101
42.000	8.496	0.101
42.100	10.261	0.101
42.200	18.176	0.101
42.300	18.861	0.101
42.400	10.732	0.101
42.500	9.228	0.101
42.600	15.875	0.101
42.700	12.671	0.101
42.800	10.303	0.101
42.900	4.994	0.101
43.000	19.675	0.101
43.100	23.369	0.101
43.200	12.568	0.101
43.300	5.429	0.101
43.400	16.095	0.101
43.500	1.582	0.101
43.600	-0.371	0.101
43.700	19.211	0.101
43.800	18.677	0.101
43.900	9.281	0.101
44.000	13.946	0.101
44.100	25.934	0.101
44.200	8.679	0.101
44.300	15.901	0.101
44.400	12.421	0.101
44.500	11.368	0.101
44.600	24.966	0.101
44.700	20.769	0.101
44.800	6.747	0.101
44.900	-1.387	0.101
45.000	13.488	0.101
45.100	17.966	0.101
45.200	9.131	0.101
45.300	21.459	0.101
45.400	18.234	0.101
45.500	14.742	0.101
45.600	12.433	0.101
45.700	18.922	0.101
45.800	15.451	0.101
45.900	16.151	0.101
46.000	15.629	0.101
46.100	21.816	0.101
46.200	10.345	0.101
46.300	25.291	0.101
46.400	20.863	0.101
46.500	13.547	0.101
46.600	21.200	0.101
46.700	17.568	0.101
46.800	23.017	0.101
46.900	18.582	0.101
47.000	19.177	0.101
47.100	16.929	0.101
47.200	16.110	0.101
47.300	12.300	0.101
47.400	14.967	0.101
47.500	19.328	0.101
47.600	21.071	0.101
47.700	20.143	0.101
47.800	16.101	0.101
47.900	21.226	0.101
48.000	15.907	0.101
48.100	19.040	0.101
48.200	14.416	0.101
48.300	11.984	0.101
48.400	14.845	0.101
48.500	10.481	0.101
48.600	18.306	0.101
48.700	18.495	0.101
48.800	16.888	0.101
48.900	16.783	0.101
49.000	15.479	0.101
49.100	29.480	0.101
49.200	19.200	0.101
49.300	20.318	0.101
49.400	21.372	0.101
49.500	26.812	0.101
49.600	11.830	0.101
49.700	28.545	0.101
49.800	19.303	0.101
49.900	21.779	0.101
50.000	11.381	0.101
50.100	20.325	0.101
50.200	22.929	0.101
50.300	21.143	0.101
50.400	13.524	0.101
50.500	18.914	0.101
50.600	24.424	0.101
50.700	21.910	0.101
50.800	16.196	0.101
50.900	19.651	0.101
51.000	20.885	0.101
51.100	24.350	0.101
51.200	16.716	0.101
51.300	21.528	0.101
51.400	13.084	0.101
51.500	18.300	0.101
51.600	15.921	0.101
51.700	12.026	0.101
51.800	19.831	0.101
51.900	22.801	0.101
52.000	20.329	0.101
52.100	21.327	0.101
52.200	24.276	0.101
52.300	28.428	0.101
52.400	29.744	0.101
52.500	20.062	0.101
52.600	17.772	0.101
52.700	20.150	0.101
52.800	14.195	0.101
52.900	24.994	0.101
53.000	26.577	0.101
53.100	34.235	0.101
53.200	29.334	0.101
53.300	22.517	0.101
53.400	15.384	0.101
53.500	20.736	0.101
53.600	19.983	0.101
53.700	19.669	0.101
53.800	19.183	0.101
53.900	28.364	0.101
54.000	29.995	0.101
54.100	32.077	0.101
54.200	30.470	0.101
54.300	22.485	0.101
54.400	23.265	0.101
54.500	18.032	0.101
54.600	22.533	0.101
54.700	9.320	0.101
54.800	23.554	0.101
54.900	29.085	0.101
55.000	35.574	0.101
55.100	27.170	0.101
55.200	34.401	0.101
55.300	26.613	0.101
55.400	28.164	0.101
55.500	26.716	0.101
55.600	26.547	0.101
55.700	23.629	0.101
55.800	15.159	0.101
55.900	21.220	0.101
56.000	15.655	0.101
56.100	34.056	0.101
56.200	39.280	0.101
56.300	30.162	0.101
56.400	28.332	0.101
56.500	29.625	0.101
56.600	20.622	0.101
56.700	26.582	0.101
56.800	27.523	0.101
56.900	27.138	0.101
57.000	31.867	0.101
57.100	19.611	0.101
57.200	34.661	0.101
57.300	13.674	0.101
57.400	25.349	0.101
57.500	32.377	0.101
57.600	30.229	0.101
57.700	24.354	0.101
57.800	29.757	0.101
57.900	37.866	0.101
58.000	17.584	0.101
58.100	24.942	0.101
58.200	28.222	0.101
58.300	31.098	0.101
58.400	18.925	0.101
58.500	31.492	0.101
58.600	24.222	0.101
58.700	38.525	0.101
58.800	32.992	0.101
58.900	21.430	0.101
59.000	34.818	0.101
59.100	35.517	0.101
59.200	28.994	0.101
59.300	24.962	0.101
59.400	36.434	0.101
59.500	27.348	0.101
59.600	27.212	0.101
59.700	37.663	0.101
59.800	29.591	0.101
59.900	33.548	0.101
60.000	25.015	0.101
60.100	23.217	0.101
60.200	36.295	0.101
60.300	29.728	0.101
60.400	25.767	0.101
60.500	30.727	0.101
60.600	41.768	0.101
60.700	28.101	0.101
60.800	29.572	0.101
60.900	28.427	0.101
61.000	25.749	0.101
61.100	35.292	0.101
61.200	36.534	0.101
61.300	31.663	0.101
61.400	34.609	0.101
61.500	17.666	0.101
61.600	30.516	0.101
61.700	21.485	0.101
61.800	31.522	0.101
61.900	29.924	0.101
62.000	26.189	0.101
62.100	25.101	0.101
62.200	31.168	0.101
62.300	27.396	0.101
62.400	28.443	0.101
62.500	23.939	0.101
62.600	40.112	0.101
62.700	40.552	0.101
62.800	24.620	0.101
62.900	34.337	0.101
63.000	24.535	0.101
63.100	22.409	0.101
63.200	21.825	0.101
63.300	36.111	0.101
63.400	32.739	0.101
63.500	25.257	0.101
63.600	32.520	0.101
63.700	28.931	0.101
63.800	36.795	0.101
63.900	33.975	0.101
64.000	19.882	0.101
64.100	33.371	0.101
64.200	38.456	0.101
64.300	31.613	0.101
64.400	25.928	0.101
64.500	29.743	0.101
64.600	22.553	0.101
64.700	32.538	0.101
64.800	36.683	0.101
64.900	29.804	0.101
65.000	41.769	0.101
65.100	33.026	0.101
65.200	23.153	0.101
65.300	24.710	0.101
65.400	40.201	0.101
65.500	25.519	0.101
65.600	34.229	0.101
65.700	29.040	0.101
65.800	31.026	0.101
65.900	30.454	0.101
66.000	38.338	0.101
66.100	39.922	0.101
66.200	35.937	0.101
66.300	38.799	0.101
66.400	25.205	0.101
66.500	23.359	0.101
66.600	36.280	0.101
66.700	29.086	0.101
66.800	27.010	0.101
66.900	28.485	0.101
67.000	36.508	0.101
67.100	26.873	0.101
67.200	33.995	0.101
67.300	27.204	0.101
67.400	31.417	0.101
67.500	22.953	0.101
67.600	22.909	0.101
67.700	22.164	0.101
67.800	27.599	0.101
67.900	30.455	0.101
68.000	34.867	0.101
68.100	31.489	0.101
68.200	32.126	0.101
68.300	39.058	0.101
68.400	29.401	0.101
68.500	31.030	0.101
68.600	26.758	0.101
68.700	32.485	0.101
68.800	37.613	0.101
68.900	35.440	0.101
69.000	40.512	0.101
69.100	25.440	0.101
69.200	31.875	0.101
69.300	15.791	0.101
69.400	24.241	0.101
69.500	34.838	0.101
69.600	37.314	0.101
69.700	23.466	0.101
69.800	33.504	0.101
69.900	29.746	0.101
70.000	37.875	0.101
70.100	39.353	0.101
70.200	31.942	0.101
70.300	34.842	0.101
70.400	44.346	0.101
70.500	27.566	0.101
70.600	30.983	0.101
70.700	30.794	0.101
70.800	31.952	0.101
70.900	30.501	0.101
71.000	26.059	0.101
71.100	32.180	0.101
71.200	33.963	0.101
71.300	30.775	0.101
71.400	35.160	0.101
71.500	39.477	0.101
71.600	42.601	0.101
71.700	30.246	0.101
71.800	23.767	0.101
71.900	40.681	0.101
72.000	35.510	0.101
72.100	35.390	0.101
72.200	24.200	0.101
72.300	32.452	0.101
72.400	31.504	0.101
72.500	30.492	0.101
72.600	28.212	0.101
72.700	37.135	0.101
72.800	26.245	0.101
72.900	26.347	0.101
73.000	26.425	0.101
73.100	30.372	0.101
73.200	26.789	0.101
73.300	34.145	0.101
73.400	31.932	0.101
73.500	41.270	0.101
73.600	40.843	0.101
73.700	36.473	0.101
73.800	23.804	0.101
73.900	27.117	0.101
74.000	31.951	0.101
74.100	30.815	0.101
74.200	27.185	0.101
74.300	23.791	0.101
74.400	39.677	0.101
74.500	41.670	0.101
74.600	31.503	0.101
74.700	39.146	0.101
74.800	37.500	0.101
74.900	23.757	0.101
75.000	30.939	0.101
75.100	30.606	0.101
75.200	32.452	0.101
75.300	30.560	0.101
75.400	32.085	0.101
75.500	34.667	0.101
75.600	48.856	0.101
75.700	36.794	0.101
75.800	31.849	0.101
75.900	29.079	0.101
76.000	22.692	0.101
76.100	28.502	0.101
76.200	35.450	0.101
76.300	23.474	0.101
76.400	25.134	0.101
76.500	45.260	0.101
76.600	31.005	0.101
76.700	36.216	0.101
76.800	32.713	0.101
76.900	32.188	0.101
77.000	32.654	0.101
77.100	35.924	0.101
77.200	36.586	0.101
77.300	28.775	0.101
77.400	35.315	0.101
77.500	43.477	0.101
77.600	42.851	0.101
77.700	25.387	0.101
77.800	25.656	0.101
77.900	26.848	0.101
78.000	30.768	0.101
78.100	28.815	0.101
78.200	35.403	0.101
78.300	32.209	0.101
78.400	35.812	0.101
78.500	40.021	0.101
78.600	31.314	0.101
78.700	23.348	0.101
78.800	30.665	0.101
78.900	36.937	0.101
79.000	27.302	0.101
79.100	33.819	0.101
79.200	29.350	0.101
79.300	29.177	0.101
79.400	32.184	0.101
79.500	33.916	0.101
79.600	25.085	0.101
79.700	42.132	0.101
79.800	31.073	0.101
79.900	40.115	0.101
80.000	39.015	0.101
80.100	29.792	0.101
80.200	27.638	0.101
80.300	35.545	0.101
80.400	34.034	0.101
80.500	39.395	0.101
80.600	29.836	0.101
80.700	30.251	0.101
80.800	25.414	0.101
80.900	39.632	0.101
81.000	37.643	0.101
81.100	30.770	0.101
81.200	42.026	0.101
81.300	34.973	0.101
81.400	24.611	0.101
81.500	28.264	0.101
81.600	31.371	0.101
81.700	35.273	0.101
81.800	35.402	0.101
81.900	12.801	0.101
82.000	41.836	0.101
82.100	30.422	0.101
82.200	30.727	0.101
82.300	34.701	0.101
82.400	41.031	0.101
82.500	35.194	0.101
82.600	43.904	0.101
82.700	21.885	0.101
82.800	30.732	0.101
82.900	47.121	0.101
83.000	29.386	0.101
83.100	28.106	0.101
83.200	41.243	0.101
83.300	32.620	0.101
83.400	32.616	0.101
83.500	35.386	0.101
83.600	32.390	0.101
83.700	29.949	0.101
83.800	36.374	0.101
83.900	38.192	0.101
84.000	33.700	0.101
84.100	39.223	0.101
84.200	31.950	0.101
84.300	20.628	0.101
84.400	27.470	0.101
84.500	36.475	0.101
84.600	40.740	0.101
84.700	33.347	0.101
84.800	34.995	0.101
84.900	24.811	0.101
85.000	39.274	0.101
85.100	33.441	0.101
85.200	38.303	0.101
85.300	27.802	0.101
85.400	31.023	0.101
85.500	35.115	0.101
85.600	30.186	0.101
85.700	39.157	0.101
85.800	28.410	0.101
85.900	33.178	0.101
86.000	39.410	0.101
86.100	38.750	0.101
86.200	38.519	0.101
86.300	36.323	0.101
86.400	29.462	0.101
86.500	29.091	0.101
86.600	17.606	0.101
86.700	36.965	0.101
86.800	32.013	0.101
86.900	21.967	0.101
87.000	36.451	0.101
87.100	34.350	0.101
87.200	28.882	0.101
87.300	41.484	0.101
87.400	33.087	0.101
87.500	23.974	0.101
87.600	42.009	0.101
87.700	34.035	0.101
87.800	40.776	0.101
87.900	35.207	0.101
88.000	40.241	0.101
88.100	27.765	0.101
88.200	39.860	0.101
88.300	19.849	0.101
88.400	29.319	0.101
88.500	45.418	0.101
88.600	29.899	0.101
88.700	47.610	0.101
88.800	36.116	0.101
88.900	26.507	0.101
89.000	30.631	0.101
89.100	35.031	0.101
89.200	28.050	0.101
89.300	25.953	0.101
89.400	24.257	0.101
89.500	34.203	0.101
89.600	40.985	0.101
89.700	31.452	0.101
89.800	39.035	0.101
89.900	36.381	0.101
90.000	40.636	0.101
90.100	38.863	0.101
90.200	31.351	0.101
90.300	34.916	0.101
90.400	32.569	0.101
90.500	17.936	0.101
90.600	17.778	0.101
90.700	31.152	0.101
90.800	15.043	0.101
90.900	24.225	0.101
91.000	17.506	0.101
91.100	20.377	0.101
91.200	17.732	0.101
91.300	21.480	0.101
91.400	22.404	0.101
91.500	19.437	0.101
91.600	16.011	0.101
91.700	15.073	0.101
91.800	10.596	0.101
91.900	11.543	0.101
92.000	7.801	0.101
92.100	13.349	0.101
92.200	12.530	0.101
92.300	12.098	0.101
92.400	8.059	0.101
92.500	-2.148	0.101
92.600	7.395	0.101
92.700	11.685	0.101
92.800	6.923	0.101
92.900	6.286	0.101
93.000	5.285	0.101
93.100	4.109	0.101
93.200	10.007	0.101
93.300	9.671	0.101
93.400	1.974	0.101
93.500	8.358	0.101
93.600	-3.479	0.101
93.700	-1.544	0.101
93.800	3.058	0.101
93.900	3.111	0.101
94.000	0.400	0.101
94.100	-1.430	0.101
94.200	-2.126	0.101
94.300	4.072	0.101
94.400	2.923	0.101
94.500	0.298	0.101
94.600	-2.457	0.101
94.700	-7.967	0.101
94.800	5.872	0.101
94.900	1.033	0.101
95.000	12.746	0.101
95.100	6.133	0.101
95.200	4.437	0.101
95.300	0.281	0.101
95.400	3.497	0.101
95.500	1.805	0.101
95.600	0.260	0.101
95.700	0.643	0.101
95.800	-5.224	0.101
95.900	3.741	0.101
96.000	-5.179	0.101
96.100	1.922	0.101
96.200	4.730	0.101
96.300	-2.620	0.101
96.400	2.371	0.101
96.500	-3.264	0.101
96.600	-3.869	0.101
96.700	-0.427	0.101
96.800	12.319	0.101
96.900	-8.802	0.101
97.000	-8.767	0.101
97.100	-12.190	0.101
97.200	3.748	0.101
97.300	-7.371	0.101
97.400	-9.125	0.101
97.500	-0.760	0.101
97.600	-4.362	0.101
97.700	-0.827	0.101
97.800	5.247	0.101
97.900	-6.463	0.101
98.000	-11.997	0.101
98.100	-7.639	0.101
98.200	-4.825	0.101
98.300	1.578	0.101
98.400	8.940	0.101
98.500	3.151	0.101
98.600	0.730	0.101
98.700	0.808	0.101
98.800	1.761	0.101
98.900	-8.085	0.101
99.000	-7.725	0.101
99.100	-9.516	0.101
99.200	6.280	0.101
99.300	4.146	0.101
99.400	3.583	0.101
99.500	-1.867	0.101
99.600	-0.701	0.101
99.700	9.119	0.101
99.800	14.577	0.101
99.900	-1.731	0.101
100.000	-7.983	0.101
100.100	-12.290	0.101
100.200	15.355	0.101
100.300	3.734	0.101
100.400	9.408	0.101
100.500	1.173	0.101
100.600	-6.131	0.101
100.700	-3.496	0.101
100.800	6.816	0.101
100.900	-10.880	0.101
101.000	-2.622	0.101
101.100	-2.989	0.101
101.200	-2.405	0.101
101.300	-14.007	0.101
101.400	-5.066	0.101
101.500	1.046	0.101
101.600	7.322	0.101
101.700	-2.387	0.101
101.800	-5.958	0.101
101.900	-10.779	0.101
102.000	0.183	0.101
102.100	5.658	0.101
102.200	3.496	0.101
102.300	-1.317	0.101
102.400	-0.724	0.101
102.500	-15.943	0.101
102.600	-7.750	0.101
102.700	3.353	0.101
102.800	-3.804	0.101
102.900	-1.236	0.101
103.000	-3.534	0.101
103.100	-6.848	0.101
103.200	-8.932	0.101
103.300	-3.831	0.101
103.400	-0.966	0.101
103.500	-6.103	0.101
103.600	5.998	0.101
103.700	-7.432	0.101
103.800	-12.388	0.101
103.900	-4.190	0.101
104.000	-1.491	0.101
104.100	-6.850	0.101
104.200	-4.575	0.101
104.300	-6.751	0.101
104.400	-5.659	0.101
104.500	-3.883	0.101
104.600	-10.621	0.101
104.700	2.883	0.101
104.800	-5.158	0.101
104.900	1.920	0.101
105.000	-1.867	0.101
105.100	-7.133	0.101
105.200	0.619	0.101
105.300	-7.650	0.101
105.400	-7.959	0.101
105.500	-2.683	0.101
105.600	-7.644	0.101
105.700	-2.765	0.101
105.800	-5.308	0.101
105.900	-4.534	0.101
106.000	-1.638	0.101
106.100	-3.869	0.101
106.200	-5.374	0.101
106.300	-10.718	0.101
106.400	-15.973	0.101
106.500	-12.116	0.101
106.600	-2.918	0.101
106.700	-4.738	0.101
106.800	-3.515	0.101
106.900	-5.528	0.101
107.000	-2.279	0.101
107.100	-4.635	0.101
107.200	2.452	0.101
107.300	-2.876	0.101
107.400	-5.135	0.101
107.500	-10.591	0.101
107.600	-14.782	0.101
107.700	-12.778	0.101
107.800	-15.657	0.101
107.900	-12.340	0.101
108.000	-9.251	0.101
108.100	-6.671	0.101
108.200	-2.259	0.101
108.300	-6.794	0.101
108.400	3.850	0.101
108.500	1.965	0.101
108.600	-1.677	0.101
108.700	-11.490	0.101
108.800	-1.209	0.101
108.900	-0.703	0.101
109.000	-4.462	0.101
109.100	-5.769	0.101
109.200	-0.815	0.101
109.300	-15.553	0.101
109.400	-13.074	0.101
109.500	-12.520	0.101
109.600	-7.104	0.101
109.700	-8.560	0.101
109.800	-16.243	0.101
109.900	-7.867	0.101
110.000	-2.278	0.101
110.100	1.931	0.101
110.200	8.831	0.101
110.300	-9.313	0.101
110.400	-4.980	0.101
110.500	0.863	0.101
110.600	-2.801	0.101
110.700	-4.832	0.101
110.800	2.500	0.101
110.900	-4.262	0.101
111.000	-10.943	0.101
111.100	-12.106	0.101
111.200	-0.671	0.101
111.300	-10.439	0.101
111.400	-16.914	0.101
111.500	-13.107	0.101
111.600	-15.426	0.101
111.700	-15.479	0.101
111.800	-11.542	0.101
111.900	-18.697	0.101
112.000	-5.188	0.101
112.100	-3.614	0.101
112.200	-4.775	0.101
112.300	2.292	0.101
112.400	-14.623	0.101
112.500	-16.426	0.101
112.600	-11.808	0.101
112.700	-8.131	0.101
112.800	-10.048	0.101
112.900	-4.891	0.101
113.000	-8.129	0.101
113.100	-9.965	0.101
113.200	-9.015	0.101
113.300	-11.647	0.101
113.400	-11.587	0.101
113.500	-13.007	0.101
113.600	-16.129	0.101
113.700	-18.309	0.101
113.800	-10.913	0.101
113.900	-15.837	0.101
114.000	-2.352	0.101
114.100	-7.845	0.101
114.200	-18.047	0.101
114.300	-9.909	0.101
114.400	-20.477	0.101
114.500	-13.734	0.101
114.600	-12.195	0.101
114.700	-7.032	0.101
114.800	0.377	0.101
114.900	-2.853	0.101
115.000	-12.940	0.101
115.100	-20.205	0.101
115.200	-13.769	0.101
115.300	-11.993	0.101
115.400	-6.203	0.101
115.500	3.109	0.101
115.600	-15.374	0.101
115.700	-4.070	0.101
115.800	-18.178	0.101
115.900	-13.704	0.101
116.000	-6.129	0.101
116.100	-3.674	0.101
116.200	-5.292	0.101
116.300	-18.237	0.101
116.400	-16.272	0.101
116.500	-18.558	0.101
116.600	-23.415	0.101
116.700	-11.474	0.101
116.800	-17.583	0.101
116.900	-14.685	0.101
117.000	1.205	0.101
117.100	2.899	0.101
117.200	-18.746	0.101
117.300	-18.095	0.101
117.400	-21.467	0.101
117.500	-13.980	0.101
117.600	-16.176	0.101
117.700	-19.233	0.101
117.800	-4.804	0.101
117.900	-13.261	0.101
118.000	-13.023	0.101
118.100	-3.606	0.101
118.200	-11.414	0.101
118.300	-10.947	0.101
118.400	-19.044	0.101
118.500	-18.013	0.101
118.600	-23.317	0.101
118.700	-23.334	0.101
118.800	-24.038	0.101
118.900	-10.070	0.101
119.000	-2.409	0.101
119.100	-8.609	0.101
119.200	-23.098	0.101
119.300	-9.699	0.101
119.400	-14.777	0.101
119.500	-10.239	0.101
119.600	-7.988	0.101
119.700	-13.544	0.101
119.800	-22.504	0.101
119.900	-12.382	0.101
120.000	-29.231	0.101
120.100	-24.203	0.101
120.200	-12.603	0.101
120.300	-14.995	0.101
120.400	-10.577	0.101
120.500	-19.477	0.101
120.600	-20.960	0.101
120.700	-18.695	0.101
120.800	-13.254	0.101
120.900	-5.444	0.101
121.000	-18.754	0.101
121.100	-7.333	0.101
121.200	-15.033	0.101
121.300	-11.847	0.101
121.400	-13.166	0.101
121.500	-11.095	0.101
121.600	-6.336	0.101
121.700	-14.352	0.101
121.800	-22.838	0.101
121.900	-19.662	0.101
122.000	-2.360	0.101
122.100	-5.024	0.101
122.200	-19.597	0.101
122.300	-24.219	0.101
122.400	-20.548	0.101
122.500	-13.958	0.101
122.600	-24.009	0.101
122.700	-3.157	0.101
122.800	-8.351	0.101
122.900	-23.942	0.101
123.000	-21.232	0.101
123.100	-16.437	0.101
123.200	-16.780	0.101
123.300	-18.519	0.101
123.400	-12.808	0.101
123.500	-6.801	0.101
123.600	-21.880	0.101
123.700	-26.036	0.101
123.800	-25.339	0.101
123.900	-20.782	0.101
124.000	-14.085	0.101
124.100	-24.673	0.101
124.200	-17.725	0.101
124.300	-9.358	0.101
124.400	-18.630	0.101
124.500	-12.618	0.101
124.600	-14.154	0.101
124.700	-16.311	0.101
124.800	-16.550	0.101
124.900	-16.104	0.101
125.000	-14.456	0.101
125.100	-14.909	0.101
125.200	-16.366	0.101
125.300	-10.544	0.101
125.400	-5.459	0.101
125.500	-13.660	0.101
125.600	-19.842	0.101
125.700	-24.771	0.101
125.800	-12.042	0.101
125.900	-10.187	0.101
126.000	-15.030	0.101
126.100	-21.526	0.101
126.200	-21.939	0.101
126.300	-19.232	0.101
126.400	-22.210	0.101
126.500	-24.275	0.101
126.600	-28.580	0.101
126.700	-21.266	0.101
126.800	-21.759	0.101
126.900	-19.212	0.101
127.000	-26.925	0.101
127.100	0.014	0.101
127.200	-25.051	0.101
127.300	-24.483	0.101
127.400	-10.039	0.101
127.500	-13.413	0.101
127.600	-19.490	0.101
127.700	-14.377	0.101
127.800	-27.172	0.101
127.900	-18.818	0.101
128.000	-14.116	0.101
128.100	-17.859	0.101
128.200	-17.460	0.101
128.300	-7.303	0.101
128.400	-11.894	0.101
128.500	-19.308	0.101
128.600	-14.298	0.101
128.700	-22.413	0.101
128.800	-25.837	0.101
128.900	-11.754	0.101
129.000	-18.615	0.101
129.100	-11.731	0.101
129.200	-20.239	0.101
129.300	-16.923	0.101
129.400	-29.119	0.101
129.500	-25.934	0.101
129.600	-15.061	0.101
129.700	-14.494	0.101
129.800	-14.527	0.101
129.900	-17.320	0.101
130.000	-16.373	0.101
130.100	-14.391	0.101
130.200	-16.468	0.101
130.300	-13.548	0.101
130.400	-35.039	0.101
130.500	-14.184	0.101
130.600	-16.385	0.101
130.700	-22.735	0.101
130.800	-14.624	0.101
130.900	-14.437	0.101
131.000	-14.327	0.101
131.100	-16.635	0.101
131.200	-17.383	0.101
131.300	-18.658	0.101
131.400	-10.248	0.101
131.500	-22.181	0.101
131.600	-25.514	0.101
131.700	-25.032	0.101
131.800	-15.346	0.101
131.900	-22.952	0.101
132.000	-15.247	0.101
132.100	-14.689	0.101
132.200	-15.436	0.101
132.300	-28.658	0.101
132.400	-20.112	0.101
132.500	-12.515	0.101
132.600	-13.679	0.101
132.700	-24.933	0.101
132.800	-8.138	0.101
132.900	-14.157	0.101
133.000	-19.054	0.101
133.100	-17.045	0.101
133.200	-17.046	0.101
133.300	-15.161	0.101
133.400	-20.921	0.101
133.500	-31.931	0.101
133.600	-33.830	0.101
133.700	-16.033	0.101
133.800	-18.078	0.101
133.900	-13.709	0.101
134.000	-13.968	0.101
134.100	-8.726	0.101
134.200	-20.759	0.101
134.300	-14.501	0.101
134.400	-11.528	0.101
134.500	-15.846	0.101
134.600	-16.956	0.101
134.700	-20.397	0.101
134.800	-10.995	0.101
134.900	-16.885	0.101
135.000	-23.545	0.101
135.100	-18.185	0.101
135.200	-16.947	0.101
135.300	-27.601	0.101
135.400	-7.140	0.101
135.500	-16.429	0.101
135.600	-12.452	0.101
135.700	-10.461	0.101
135.800	-16.154	0.101
135.900	-22.766	0.101
136.000	-21.076	0.101
136.100	-11.441	0.101
136.200	-14.827	0.101
136.300	-16.940	0.101
136.400	-24.517	0.101
136.500	-20.747	0.101
136.600	-17.166	0.101
136.700	-16.219	0.101
136.800	-19.131	0.101
136.900	-24.959	0.101
137.000	-21.586	0.101
137.100	-17.670	0.101
137.200	-21.515	0.101
137.300	-21.131	0.101
137.400	-13.632	0.101
137.500	-20.650	0.101
137.600	-21.748	0.101
137.700	-18.415	0.101
137.800	-8.034	0.101
137.900	-16.126	0.101
138.000	-22.984	0.101
138.100	-18.388	0.101
138.200	-25.772	0.101
138.300	-12.323	0.101
138.400	-26.782	0.101
138.500	-26.582	0.101
138.600	-20.534	0.101
138.700	-19.041	0.101
138.800	-19.500	0.101
138.900	-18.899	0.101
139.000	-12.825	0.101
139.100	-13.846	0.101
139.200	-6.215	0.101
139.300	-16.347	0.101
139.400	-22.392	0.101
139.500	-18.004	0.101
139.600	-17.820	0.101
139.700	-15.980	0.101
139.800	-11.083	0.101
139.900	-25.377	0.101
140.000	-18.141	0.101
140.100	-28.983	0.101
140.200	-19.292	0.101
140.300	-20.943	0.101
140.400	-18.293	0.101
140.500	-16.649	0.101
140.600	-18.717	0.101
140.700	-20.539	0.101
140.800	-16.729	0.101
140.900	-22.008	0.101
141.000	-16.824	0.101
141.100	-18.991	0.101
141.200	-17.890	0.101
141.300	-15.714	0.101
141.400	-25.526	0.101
141.500	-19.679	0.101
141.600	-21.534	0.101
141.700	-26.844	0.101
141.800	-23.279	0.101
141.900	-11.701	0.101
142.000	-17.055	0.101
142.100	-10.244	0.101
142.200	-15.825	0.101
142.300	-16.930	0.101
142.400	-21.198	0.101
142.500	-21.681	0.101
142.600	-30.352	0.101
142.700	-20.093	0.101
142.800	-13.690	0.101
142.900	-11.418	0.101
143.000	-10.451	0.101
143.100	-14.791	0.101
143.200	-20.999	0.101
143.300	-19.094	0.101
143.400	-33.135	0.101
143.500	-22.155	0.101
143.600	-13.617	0.101
143.700	-20.255	0.101
143.800	-17.643	0.101
143.900	-16.810	0.101
144.000	-18.782	0.101
144.100	-14.424	0.101
144.200	-18.630	0.101
144.300	-13.225	0.101
144.400	-26.247	0.101
144.500	-20.582	0.101
144.600	-10.597	0.101
144.700	-9.344	0.101
144.800	-11.189	0.101
144.900	-22.952	0.101
145.000	-19.891	0.101
145.100	-22.399	0.101
145.200	-12.665	0.101
145.300	-22.699	0.101
145.400	-16.018	0.101
145.500	-14.700	0.101
145.600	-14.860	0.101
145.700	-11.861	0.101
145.800	-23.215	0.101
145.900	-17.721	0.101
146.000	-12.122	0.101
146.100	-13.672	0.101
146.200	-23.791	0.101
146.300	-22.567	0.101
146.400	-28.553	0.101
146.500	-22.426	0.101
146.600	-21.901	0.101
146.700	-14.472	0.101
146.800	-19.371	0.101
146.900	-13.318	0.101
147.000	-22.281	0.101
147.100	-20.764	0.101
147.200	-15.386	0.101
147.300	-12.309	0.101
147.400	-14.585	0.101
147.500	-7.346	0.101
147.600	-17.051	0.101
147.700	-22.338	0.101
147.800	-21.510	0.101
147.900	-29.949	0.101
148.000	-22.133	0.101
148.100	-17.866	0.101
148.200	-16.426	0.101
148.300	-21.741	0.101
148.400	-14.337	0.101
148.500	-10.191	0.101
148.600	-16.360	0.101
148.700	-17.481	0.101
148.800	-18.453	0.101
148.900	-17.613	0.101
149.000	-5.636	0.101
149.100	-22.447	0.101
149.200	-12.555	0.101
149.300	-20.775	0.101
149.400	-26.347	0.101
149.500	-22.154	0.101
149.600	-17.448	0.101
149.700	-15.952	0.101
149.800	-15.587	0.101
149.900	-18.559	0.101
150.000	-23.554	0.101
150.100	-7.950	0.101
150.200	-18.971	0.101
150.300	-16.351	0.101
150.400	-33.761	0.101
150.500	-9.514	0.101
150.600	-19.089	0.101
150.700	-25.156	0.101
150.800	-16.338	0.101
150.900	-16.858	0.101
151.000	-4.079	0.101
151.100	-20.847	0.101
151.200	-22.497	0.101
151.300	-16.672	0.101
151.400	-19.756	0.101
151.500	-16.721	0.101
151.600	-21.172	0.101
151.700	-23.190	0.101
151.800	-18.520	0.101
151.900	-15.109	0.101
152.000	-14.030	0.101
152.100	-6.897	0.101
152.200	-19.471	0.101
152.300	-23.059	0.101
152.400	-19.411	0.101
152.500	-11.991	0.101
152.600	-17.559	0.101
152.700	-27.339	0.101
152.800	-15.988	0.101
152.900	-9.838	0.101
153.000	-26.200	0.101
153.100	-22.576	0.101
153.200	-12.693	0.101
153.300	-22.307	0.101
153.400	-14.119	0.101
153.500	-20.717	0.101
153.600	-19.679	0.101
153.700	-18.338	0.101
153.800	-16.427	0.101
153.900	-18.111	0.101
154.000	-20.933	0.101
154.100	-16.605	0.101
154.200	-18.606	0.101
154.300	-9.111	0.101
154.400	-9.500	0.101
154.500	-17.846	0.101
154.600	-25.552	0.101
154.700	-14.651	0.101
154.800	-9.634	0.101
154.900	-6.354	0.101
155.000	-29.562	0.101
155.100	-18.518	0.101
155.200	-18.121	0.101
155.300	-9.603	0.101
155.400	-14.285	0.101
155.500	-18.639	0.101
155.600	-21.742	0.101
155.700	-20.265	0.101
155.800	-14.491	0.101
155.900	-6.616	0.101
156.000	-15.538	0.101
156.100	-24.398	0.101
156.200	-21.767	0.101
156.300	-23.401	0.101
156.400	-15.327	0.101
156.500	-9.791	0.101
156.600	-9.872	0.101
156.700	-17.887	0.101
156.800	-8.216	0.101
156.900	-7.346	0.101
157.000	-20.706	0.101
157.100	-15.875	0.101
157.200	-13.029	0.101
157.300	-16.819	0.101
157.400	-16.989	0.101
157.500	-10.126	0.101
157.600	-10.396	0.101
157.700	-12.385	0.101
157.800	-22.522	0.101
157.900	-24.232	0.101
158.000	-19.684	0.101
158.100	-8.042	0.101
158.200	-7.816	0.101
158.300	-18.158	0.101
158.400	-12.238	0.101
158.500	-17.617	0.101
158.600	-20.422	0.101
158.700	-16.374	0.101
158.800	-15.530	0.101
158.900	-9.855	0.101
159.000	-25.752	0.101
159.100	-19.918	0.101
159.200	-12.811	0.101
159.300	-15.764	0.101
159.400	-10.676	0.101
159.500	-25.167	0.101
159.600	-14.968	0.101
159.700	-8.684	0.101
159.800	-22.432	0.101
159.900	-17.697	0.101
160.000	-17.370	0.101
160.100	-20.659	0.101
160.200	-22.066	0.101
160.300	-16.744	0.101
160.400	-7.648	0.101
160.500	-18.254	0.101
160.600	-8.466	0.101
160.700	-12.017	0.101
160.800	-14.269	0.101
160.900	-17.008	0.101
161.000	-18.955	0.101
161.100	-8.305	0.101
161.200	0.096	0.101
161.300	-20.859	0.101
161.400	-23.045	0.101
161.500	-16.724	0.101
161.600	-21.412	0.101
161.700	-6.943	0.101
161.800	-14.982	0.101
161.900	-10.775	0.101
162.000	-14.533	0.101
162.100	-23.819	0.101
162.200	-19.653	0.101
162.300	-15.088	0.101
162.400	-20.691	0.101
162.500	-17.224	0.101
162.600	-16.066	0.101
162.700	-11.605	0.101
162.800	-9.870	0.101
162.900	-11.959	0.101
163.000	-8.342	0.101
163.100	-24.372	0.101
163.200	-18.907	0.101
163.300	-27.705	0.101
163.400	-33.325	0.101
163.500	-32.159	0.101
163.600	-24.199	0.101
163.700	-6.328	0.101
163.800	-21.149	0.101
163.900	-2.116	0.101
164.000	-9.713	0.101
164.100	-5.210	0.101
164.200	-10.027	0.101
164.300	-12.634	0.101
164.400	-18.601	0.101
164.500	-19.871	0.101
164.600	-20.694	0.101
164.700	-27.886	0.101
164.800	-10.721	0.101
164.900	-8.797	0.101
165.000	-16.725	0.101
165.100	-10.505	0.101
165.200	-6.770	0.101
165.300	-14.069	0.101
165.400	-19.797	0.101
165.500	-17.574	0.101
165.600	-18.104	0.101
165.700	-17.695	0.101
165.800	-15.532	0.101
165.900	-21.548	0.101
166.000	-14.197	0.101
166.100	-16.095	0.101
166.200	-20.302	0.101
166.300	-21.499	0.101
166.400	-13.282	0.101
166.500	-14.068	0.101
166.600	-13.339	0.101
166.700	-20.984	0.101
166.800	-20.464	0.101
166.900	-4.040	0.101
167.000	-12.140	0.101
167.100	-9.165	0.101
167.200	-18.636	0.101
167.300	-12.384	0.101
167.400	-7.026	0.101
167.500	-20.674	0.101
167.600	-28.203	0.101
167.700	-25.154	0.101
167.800	-19.937	0.101
167.900	-9.446	0.101
168.000	-10.299	0.101
168.100	-2.528	0.101
168.200	-10.403	0.101
168.300	-10.185	0.101
168.400	-13.816	0.101
168.500	-12.645	0.101
168.600	-14.451	0.101
168.700	-8.130	0.101
168.800	-28.274	0.101
168.900	-9.218	0.101
169.000	-13.759	0.101
169.100	-19.411	0.101
169.200	-15.141	0.101
169.300	-14.827	0.101
169.400	-15.215	0.101
169.500	-22.602	0.101
169.600	-21.642	0.101
169.700	-23.098	0.101
169.800	-11.458	0.101
169.900	-13.557	0.101
170.000	-14.516	0.101
170.100	-16.473	0.101
170.200	-19.542	0.101
170.300	-11.472	0.101
170.400	-21.110	0.101
170.500	-18.724	0.101
170.600	-6.393	0.101
170.700	-10.311	0.101
170.800	-14.113	0.101
170.900	-15.646	0.101
171.000	-19.811	0.101
171.100	-8.687	0.101
171.200	-9.445	0.101
171.300	-9.295	0.101
171.400	-20.647	0.101
171.500	-12.449	0.101
171.600	-15.815	0.101
171.700	-14.608	0.101
171.800	-14.197	0.101
171.900	-6.124	0.101
172.000	-10.804	0.101
172.100	-15.709	0.101
172.200	-13.119	0.101
172.300	-27.618	0.101
172.400	-24.460	0.101
172.500	-15.022	0.101
172.600	-7.212	0.101
172.700	-16.653	0.101
172.800	-14.354	0.101
172.900	-18.308	0.101
173.000	-18.519	0.101
173.100	-4.950	0.101
173.200	-4.347	0.101
173.300	-9.998	0.101
173.400	-18.798	0.101
173.500	-27.515	0.101
173.600	-5.638	0.101
173.700	-11.371	0.101
173.800	-13.240	0.101
173.900	-18.558	0.101
174.000	-16.924	0.101
174.100	-18.929	0.101
174.200	-17.294	0.101
174.300	-11.501	0.101
174.400	-11.682	0.101
174.500	-11.891	0.101
174.600	-25.867	0.101
174.700	-17.700	0.101
174.800	-26.050	0.101
174.900	-22.348	0.101
175.000	-16.912	0.101
175.100	-16.439	0.101
175.200	-12.676	0.101
175.300	-12.254	0.101
175.400	-24.633	0.101
175.500	-15.489	0.101
175.600	-16.078	0.101
175.700	-7.698	0.101
175.800	-8.802	0.101
175.900	-14.057	0.101
176.000	-14.167	0.101
176.100	-10.245	0.101
176.200	-17.348	0.101
176.300	-6.170	0.101
176.400	-5.245	0.101
176.500	-20.261	0.101
176.600	-8.445	0.101
176.700	-18.828	0.101
176.800	-14.828	0.101
176.900	-12.068	0.101
177.000	-10.896	0.101
177.100	-24.143	0.101
177.200	-10.869	0.101
177.300	-8.063	0.101
177.400	-22.253	0.101
177.500	-11.707	0.101
177.600	-11.771	0.101
177.700	-8.727	0.101
177.800	-19.342	0.101
177.900	-32.344	0.101
178.000	-10.196	0.101
178.100	-1.126	0.101
178.200	-5.322	0.101
178.300	-14.351	0.101
178.400	-13.887	0.101
178.500	-7.490	0.101
178.600	-8.946	0.101
178.700	-23.776	0.101
178.800	-7.829	0.101
178.900	-16.193	0.101
179.000	-9.368	0.101
179.100	-15.742	0.101
179.200	-10.555	0.101
179.300	-14.322	0.101
179.400	-6.509	0.101
179.500	-10.282	0.101
179.600	-18.370	0.101
179.700	-20.851	0.101
179.800	-10.504	0.101
179.900	-16.131	0.101
180.000	-12.871	0.101
180.100	-12.353	0.101
180.200	-18.678	0.101
180.300	-17.026	0.101
180.400	-19.767	0.101
180.500	-20.469	0.101
180.600	-10.825	0.101
180.700	-8.148	0.101
180.800	-5.239	0.101
180.900	10.940	0.101
181.000	9.120	0.101
181.100	7.531	0.101
181.200	10.046	0.101
181.300	10.377	0.101
181.400	17.757	0.101
181.500	8.869	0.101
181.600	8.626	0.101
181.700	12.059	0.101
181.800	8.245	0.101
181.900	0.743	0.101
182.000	-2.897	0.101
182.100	11.122	0.101
182.200	16.661	0.101
182.300	6.090	0.101
182.400	13.257	0.101
182.500	6.953	0.101
182.600	6.495	0.101
182.700	14.290	0.101
182.800	13.479	0.101
182.900	15.213	0.101
183.000	18.350	0.101
183.100	18.236	0.101
183.200	19.848	0.101
183.300	11.192	0.101
183.400	13.791	0.101
183.500	14.096	0.101
183.600	26.262	0.101
183.700	19.386	0.101
183.800	21.075	0.101
183.900	24.459	0.101
184.000	16.751	0.101
184.100	22.897	0.101
184.200	15.364	0.101
184.300	17.027	0.101
184.400	9.600	0.101
184.500	18.433	0.101
184.600	16.160	0.101
184.700	20.673	0.101
184.800	18.338	0.101
184.900	14.762	0.101
185.000	26.664	0.101
185.100	24.258	0.101
185.200	18.091	0.101
185.300	19.287	0.101
185.400	21.531	0.101
185.500	22.025	0.101
185.600	14.992	0.101
185.700	9.533	0.101
185.800	17.846	0.101
185.900	24.125	0.101
186.000	11.315	0.101
186.100	10.681	0.101
186.200	13.507	0.101
186.300	14.299	0.101
186.400	10.734	0.101
186.500	20.218	0.101
186.600	22.173	0.101
186.700	13.828	0.101
186.800	5.476	0.101
186.900	3.999	0.101
187.000	10.029	0.101
187.100	18.008	0.101
187.200	13.485	0.101
187.300	6.809	0.101
187.400	22.283	0.101
187.500	12.141	0.101
187.600	6.401	0.101
187.700	13.127	0.101
187.800	11.939	0.101
187.900	8.202	0.101
188.000	4.441	0.101
188.100	16.920	0.101
188.200	12.238	0.101
188.300	11.777	0.101
188.400	-1.231	0.101
188.500	13.990	0.101
188.600	20.387	0.101
188.700	17.709	0.101
188.800	10.028	0.101
188.900	13.528	0.101
189.000	13.467	0.101
189.100	24.502	0.101
189.200	12.173	0.101
189.300	9.678	0.101
189.400	7.240	0.101
189.500	2.666	0.101
189.600	9.185	0.101
189.700	10.685	0.101
189.800	6.767	0.101
189.900	2.221	0.101
190.000	12.067	0.101
190.100	11.434	0.101
190.200	12.195	0.101
190.300	9.759	0.101
190.400	12.802	0.101
190.500	18.591	0.101
190.600	10.617	0.101
190.700	16.307	0.101
190.800	9.342	0.101
190.900	13.871	0.101
191.000	0.821	0.101
191.100	10.980	0.101
191.200	16.040	0.101
191.300	15.770	0.101
191.400	7.505	0.101
191.500	4.524	0.101
191.600	11.652	0.101
191.700	9.533	0.101
191.800	22.417	0.101
191.900	18.340	0.101
192.000	14.647	0.101
192.100	18.437	0.101
192.200	12.219	0.101
192.300	20.286	0.101
192.400	1.429	0.101
192.500	8.776	0.101
192.600	1.680	0.101
192.700	3.923	0.101
192.800	15.434	0.101
192.900	10.102	0.101
193.000	21.216	0.101
193.100	13.537	0.101
193.200	25.678	0.101
193.300	9.733	0.101
193.400	-3.912	0.101
193.500	13.123	0.101
193.600	9.116	0.101
193.700	16.161	0.101
193.800	13.911	0.101
193.900	20.690	0.101
194.000	8.796	0.101
194.100	22.261	0.101
194.200	18.060	0.101
194.300	18.762	0.101
194.400	21.189	0.101
194.500	9.814	0.101
194.600	10.811	0.101
194.700	21.377	0.101
194.800	24.133	0.101
194.900	21.237	0.101
195.000	17.016	0.101
195.100	15.593	0.101
195.200	22.695	0.101
195.300	11.873	0.101
195.400	20.422	0.101
195.500	14.912	0.101
195.600	9.267	0.101
195.700	19.816	0.101
195.800	27.606	0.101
195.900	20.862	0.101
196.000	24.353	0.101
196.100	19.530	0.101
196.200	12.768	0.101
196.300	22.338	0.101
196.400	14.440	0.101
196.500	8.639	0.101
196.600	19.503	0.101
196.700	19.993	0.101
196.800	15.759	0.101
196.900	17.250	0.101
197.000	19.839	0.101
197.100	18.663	0.101
197.200	15.980	0.101
197.300	24.359	0.101
197.400	18.162	0.101
197.500	8.777	0.101
197.600	18.031	0.101
197.700	22.405	0.101
197.800	17.800	0.101
197.900	29.776	0.101
198.000	29.651	0.101
198.100	20.858	0.101
198.200	26.079	0.101
198.300	18.354	0.101
198.400	21.301	0.101
198.500	13.705	0.101
198.600	28.442	0.101
198.700	18.226	0.101
198.800	14.853	0.101
198.900	30.596	0.101
199.000	18.987	0.101
199.100	17.180	0.101
199.200	21.767	0.101
199.300	24.727	0.101
199.400	19.563	0.101
199.500	28.733	0.101
199.600	13.115	0.101
199.700	23.457	0.101
199.800	22.622	0.101
199.900	30.744	0.101
200.000	19.622	0.101
200.100	26.212	0.101
200.200	32.369	0.101
200.300	30.931	0.101
200.400	22.079	0.101
200.500	33.759	0.101
200.600	28.328	0.101
200.700	24.327	0.101
200.800	32.173	0.101
200.900	14.211	0.101
201.000	25.480	0.101
201.100	28.248	0.101
201.200	30.849	0.101
201.300	33.125	0.101
201.400	27.047	0.101
201.500	26.909	0.101
201.600	33.096	0.101
201.700	21.108	0.101
201.800	25.240	0.101
201.900	30.394	0.101
202.000	18.995	0.101
202.100	17.278	0.101
202.200	20.810	0.101
202.300	28.672	0.101
202.400	34.225	0.101
202.500	29.114	0.101
202.600	30.061	0.101
202.700	22.649	0.101
202.800	28.575	0.101
202.900	34.477	0.101
203.000	33.366	0.101
203.100	27.709	0.101
203.200	27.268	0.101
203.300	30.660	0.101
203.400	29.615	0.101
203.500	31.321	0.101
203.600	25.738	0.101
203.700	28.717	0.101
203.800	22.450	0.101
203.900	31.075	0.101
204.000	22.025	0.101
204.100	35.000	0.101
204.200	25.581	0.101
204.300	30.322	0.101
204.400	32.450	0.101
204.500	33.653	0.101
204.600	25.419	0.101
204.700	28.758	0.101
204.800	36.316	0.101
204.900	32.567	0.101
205.000	29.094	0.101
205.100	35.065	0.101
205.200	35.617	0.101
205.300	30.496	0.101
205.400	26.711	0.101
205.500	32.587	0.101
205.600	28.655	0.101
205.700	38.093	0.101
205.800	27.126	0.101
205.900	37.272	0.101
206.000	40.336	0.101
206.100	33.130	0.101
206.200	45.247	0.101
206.300	44.901	0.101
206.400	27.260	0.101
206.500	26.085	0.101
206.600	34.562	0.101
206.700	42.523	0.101
206.800	30.234	0.101
206.900	30.384	0.101
207.000	26.936	0.101
207.100	35.812	0.101
207.200	36.206	0.101
207.300	34.778	0.101
207.400	35.493	0.101
207.500	30.926	0.101
207.600	36.302	0.101
207.700	29.229	0.101
207.800	37.493	0.101
207.900	35.973	0.101
208.000	34.182	0.101
208.100	39.869	0.101
208.200	32.959	0.101
208.300	30.927	0.101
208.400	31.963	0.101
208.500	35.265	0.101
208.600	41.648	0.101
208.700	43.454	0.101
208.800	37.184	0.101
208.900	40.397	0.101
209.000	33.616	0.101
209.100	34.222	0.101
209.200	33.201	0.101
209.300	34.716	0.101
209.400	34.900	0.101
209.500	39.983	0.101
209.600	37.813	0.101
209.700	51.392	0.101
209.800	31.268	0.101
209.900	28.801	0.101
210.000	39.719	0.101
210.100	34.053	0.101
210.200	22.132	0.101
210.300	37.835	0.101
210.400	46.933	0.101
210.500	38.384	0.101
210.600	32.348	0.101
210.700	37.737	0.101
210.800	29.072	0.101
210.900	30.464	0.101
211.000	45.952	0.101
211.100	42.047	0.101
211.200	38.163	0.101
211.300	36.232	0.101
211.400	37.558	0.101
211.500	36.494	0.101
211.600	39.362	0.101
211.700	41.033	0.101
211.800	34.199	0.101
211.900	17.505	0.101
212.000	42.835	0.101
212.100	33.702	0.101
212.200	29.539	0.101
212.300	34.803	0.101
212.400	32.061	0.101
212.500	31.961	0.101
212.600	30.446	0.101
212.700	38.928	0.101
212.800	38.945	0.101
212.900	31.897	0.101
213.000	41.849	0.101
213.100	32.407	0.101
213.200	30.202	0.101
213.300	30.423	0.101
213.400	29.575	0.101
213.500	38.428	0.101
213.600	34.297	0.101
213.700	33.131	0.101
213.800	34.598	0.101
213.900	28.391	0.101
214.000	34.934	0.101
214.100	28.551	0.101
214.200	43.412	0.101
214.300	43.411	0.101
214.400	37.738	0.101
214.500	51.003	0.101
214.600	41.250	0.101
214.700	33.802	0.101
214.800	33.579	0.101
214.900	32.763	0.101
215.000	29.172	0.101
215.100	45.213	0.101
215.200	39.672	0.101
215.300	37.430	0.101
215.400	38.950	0.101
215.500	30.487	0.101
215.600	39.446	0.101
215.700	30.059	0.101
215.800	37.698	0.101
215.900	43.065	0.101
216.000	34.937	0.101
216.100	33.763	0.101
216.200	40.862	0.101
216.300	48.098	0.101
216.400	31.665	0.101
216.500	37.534	0.101
216.600	35.405	0.101
216.700	36.776	0.101
216.800	36.407	0.101
216.900	38.193	0.101
217.000	25.614	0.101
217.100	37.141	0.101
217.200	37.579	0.101
217.300	41.869	0.101
217.400	34.292	0.101
217.500	39.297	0.101
217.600	37.088	0.101
217.700	34.015	0.101
217.800	48.285	0.101
217.900	48.178	0.101
218.000	26.252	0.101
218.100	34.635	0.101
218.200	40.201	0.101
218.300	44.554	0.101
218.400	38.047	0.101
218.500	40.970	0.101
218.600	36.985	0.101
218.700	41.258	0.101
218.800	37.820	0.101
218.900	36.340	0.101
219.000	38.331	0.101
219.100	39.327	0.101
219.200	17.950	0.101
219.300	32.808	0.101
219.400	40.488	0.101
219.500	35.477	0.101
219.600	32.089	0.101
219.700	44.828	0.101
219.800	44.393	0.101
219.900	34.807	0.101
220.000	28.940	0.101
220.100	32.762	0.101
220.200	41.164	0.101
220.300	39.899	0.101
220.400	31.322	0.101
220.500	32.986	0.101
220.600	34.642	0.101
220.700	31.122	0.101
220.800	36.666	0.101
220.900	44.458	0.101
221.000	37.035	0.101
221.100	36.067	0.101
221.200	36.101	0.101
221.300	37.983	0.101
221.400	47.629	0.101
221.500	37.620	0.101
221.600	35.595	0.101
221.700	30.313	0.101
221.800	30.730	0.101
221.900	32.270	0.101
222.000	38.572	0.101
222.100	30.001	0.101
222.200	36.261	0.101
222.300	45.248	0.101
222.400	36.056	0.101
222.500	43.984	0.101
222.600	35.429	0.101
222.700	36.519	0.101
222.800	36.565	0.101
222.900	40.223	0.101
223.000	35.003	0.101
223.100	22.857	0.101
223.200	41.005	0.101
223.300	39.163	0.101
223.400	39.667	0.101
223.500	41.590	0.101
223.600	40.272	0.101
223.700	40.441	0.101
223.800	36.383	0.101
223.900	39.143	0.101
224.000	36.914	0.101
224.100	42.355	0.101
224.200	35.111	0.101
224.300	29.258	0.101
224.400	31.830	0.101
224.500	35.755	0.101
224.600	33.581	0.101
224.700	34.061	0.101
224.800	29.822	0.101
224.900	38.928	0.101
225.000	41.192	0.101
225.100	39.903	0.101
225.200	34.903	0.101
225.300	33.140	0.101
225.400	41.659	0.101
225.500	39.055	0.101
225.600	37.280	0.101
225.700	31.033	0.101
225.800	44.142	0.101
225.900	37.670	0.101
226.000	37.894	0.101
226.100	30.259	0.101
226.200	37.422	0.101
226.300	45.797	0.101
226.400	23.475	0.101
226.500	33.195	0.101
226.600	47.316	0.101
226.700	38.552	0.101
226.800	42.649	0.101
226.900	38.301	0.101
227.000	28.215	0.101
227.100	40.635	0.101
227.200	36.818	0.101
227.300	31.004	0.101
227.400	45.013	0.101
227.500	37.346	0.101
227.600	36.992	0.101
227.700	41.425	0.101
227.800	38.714	0.101
227.900	43.743	0.101
228.000	44.434	0.101
228.100	32.262	0.101
228.200	41.948	0.101
228.300	38.949	0.101
228.400	30.023	0.101
228.500	29.439	0.101
228.600	38.785	0.101
228.700	29.408	0.101
228.800	25.547	0.101
228.900	39.407	0.101
229.000	42.986	0.101
229.100	46.178	0.101
229.200	29.340	0.101
229.300	35.170	0.101
229.400	39.139	0.101
229.500	36.730	0.101
229.600	38.023	0.101
229.700	37.322	0.101
229.800	37.927	0.101
229.900	34.068	0.101
230.000	30.796	0.101
230.100	32.035	0.101
230.200	42.843	0.101
230.300	45.422	0.101
230.400	37.155	0.101
230.500	46.099	0.101
230.600	41.736	0.101
230.700	31.848	0.101
230.800	41.856	0.101
230.900	33.420	0.101
231.000	35.304	0.101
231.100	33.938	0.101
231.200	32.624	0.101
231.300	33.084	0.101
231.400	46.787	0.101
231.500	33.850	0.101
231.600	39.400	0.101
231.700	30.882	0.101
231.800	30.334	0.101
231.900	41.781	0.101
232.000	42.894	0.101
232.100	52.643	0.101
232.200	37.497	0.101
232.300	35.131	0.101
232.400	43.140	0.101
232.500	33.920	0.101
232.600	39.710	0.101
232.700	47.230	0.101
232.800	34.993	0.101
232.900	38.446	0.101
233.000	26.754	0.101
233.100	33.733	0.101
233.200	38.340	0.101
233.300	36.067	0.101
233.400	41.177	0.101
233.500	44.554	0.101
233.600	39.891	0.101
233.700	41.733	0.101
233.800	25.194	0.101
233.900	23.487	0.101
234.000	31.670	0.101
234.100	42.892	0.101
234.200	35.690	0.101
234.300	24.013	0.101
234.400	29.113	0.101
234.500	41.104	0.101
234.600	41.795	0.101
234.700	27.497	0.101
234.800	37.736	0.101
234.900	30.495	0.101
235.000	50.469	0.101
235.100	36.208	0.101
235.200	30.993	0.101
235.300	29.246	0.101
235.400	39.842	0.101
235.500	41.781	0.101
235.600	40.765	0.101
235.700	35.155	0.101
235.800	40.817	0.101
235.900	49.435	0.101
236.000	37.395	0.101
236.100	47.342	0.101
236.200	33.607	0.101
236.300	35.339	0.101
236.400	42.359	0.101
236.500	27.141	0.101
236.600	30.210	0.101
236.700	41.821	0.101
236.800	38.181	0.101
236.900	35.696	0.101
237.000	28.398	0.101
237.100	35.349	0.101
237.200	35.906	0.101
237.300	41.707	0.101
237.400	37.231	0.101
237.500	36.555	0.101
237.600	29.657	0.101
237.700	34.675	0.101
237.800	34.642	0.101
237.900	45.513	0.101
238.000	45.998	0.101
238.100	31.373	0.101
238.200	39.757	0.101
238.300	33.773	0.101
238.400	42.107	0.101
238.500	41.355	0.101
238.600	40.031	0.101
238.700	38.514	0.101
238.800	29.391	0.101
238.900	40.771	0.101
239.000	44.477	0.101
239.100	43.311	0.101
239.200	46.517	0.101
239.300	41.696	0.101
239.400	30.291	0.101
239.500	34.977	0.101
239.600	34.529	0.101
239.700	39.733	0.101
239.800	48.714	0.101
239.900	33.916	0.101
240.000	33.682	0.101
240.100	30.227	0.101
240.200	38.726	0.101
240.300	37.516	0.101
240.400	34.823	0.101
240.500	25.839	0.101
240.600	18.888	0.101
240.700	38.685	0.101
240.800	35.069	0.101
240.900	26.160	0.101
241.000	21.570	0.101
241.100	20.575	0.101
241.200	22.623	0.101
241.300	13.669	0.101
241.400	20.178	0.101
241.500	22.668	0.101
241.600	8.211	0.101
241.700	14.741	0.101
241.800	13.910	0.101
241.900	10.474	0.101
242.000	18.676	0.101
242.100	2.196	0.101
242.200	-5.173	0.101
242.300	8.919	0.101
242.400	8.293	0.101
242.500	9.318	0.101
242.600	4.374	0.101
242.700	10.071	0.101
242.800	5.828	0.101
242.900	5.294	0.101
243.000	-0.018	0.101
243.100	3.445	0.101
243.200	10.356	0.101
243.300	-3.277	0.101
243.400	-9.358	0.101
243.500	5.457	0.101
243.600	3.897	0.101
243.700	1.938	0.101
243.800	-10.432	0.101
243.900	3.947	0.101
244.000	2.703	0.101
244.100	-6.544	0.101
244.200	8.775	0.101
244.300	1.585	0.101
244.400	-1.049	0.101
244.500	-9.868	0.101
244.600	0.046	0.101
244.700	4.638	0.101
244.800	2.399	0.101
244.900	-4.599	0.101
245.000	-9.340	0.101
245.100	-4.951	0.101
245.200	1.907	0.101
245.300	2.404	0.101
245.400	-3.676	0.101
245.500	-7.325	0.101
245.600	-12.258	0.101
245.700	-5.032	0.101
245.800	-3.273	0.101
245.900	0.154	0.101
246.000	-1.015	0.101
246.100	5.181	0.101
246.200	-6.242	0.101
246.300	-11.701	0.101
246.400	-1.844	0.101
246.500	-2.857	0.101
246.600	-9.177	0.101
246.700	-8.278	0.101
246.800	1.283	0.101
246.900	2.966	0.101
247.000	-21.289	0.101
247.100	-4.622	0.101
247.200	-1.906	0.101
247.300	-1.058	0.101
247.400	-4.629	0.101
247.500	-6.493	0.101
247.600	-0.338	0.101
247.700	-3.350	0.101
247.800	-5.720	0.101
247.900	0.241	0.101
248.000	-7.293	0.101
248.100	-15.980	0.101
248.200	2.326	0.101
248.300	-2.597	0.101
248.400	-6.785	0.101
248.500	-16.792	0.101
248.600	1.482	0.101
248.700	-1.194	0.101
248.800	3.758	0.101
248.900	-5.334	0.101
249.000	-5.973	0.101
249.100	-12.168	0.101
249.200	-3.941	0.101
249.300	-6.809	0.101
249.400	-1.967	0.101
249.500	-2.622	0.101
249.600	-8.214	0.101
249.700	-2.762	0.101
249.800	-1.560	0.101
249.900	-10.111	0.101
250.000	-9.501	0.101
250.100	5.495	0.101
250.200	-11.511	0.101
250.300	-3.073	0.101
250.400	-1.405	0.101
250.500	-9.888	0.101
250.600	-10.781	0.101
250.700	3.980	0.101
250.800	-6.665	0.101
250.900	-1.560	0.101
251.000	-9.705	0.101
251.100	-19.422	0.101
251.200	-8.557	0.101
251.300	-6.456	0.101
251.400	-4.587	0.101
251.500	1.976	0.101
251.600	-12.123	0.101
251.700	-9.479	0.101
251.800	-1.956	0.101
251.900	-2.190	0.101
252.000	-15.862	0.101
252.100	-6.716	0.101
252.200	1.203	0.101
252.300	-4.124	0.101
252.400	-1.522	0.101
252.500	-1.785	0.101
252.600	-9.005	0.101
252.700	-14.750	0.101
252.800	-7.620	0.101
252.900	-1.946	0.101
253.000	-9.215	0.101
253.100	-15.067	0.101
253.200	-13.927	0.101
253.300	-12.288	0.101
253.400	-8.485	0.101
253.500	-10.048	0.101
253.600	-8.877	0.101
253.700	-10.520	0.101
253.800	-9.049	0.101
253.900	-14.378	0.101
254.000	-14.468	0.101
254.100	-11.381	0.101
254.200	3.060	0.101
254.300	-13.894	0.101
254.400	-0.770	0.101
254.500	-9.993	0.101
254.600	-9.907	0.101
254.700	-7.713	0.101
254.800	-10.775	0.101
254.900	-10.232	0.101
255.000	-12.905	0.101
255.100	-5.073	0.101
255.200	-0.823	0.101
255.300	-19.238	0.101
255.400	-14.846	0.100
255.500	-13.270	0.101
255.600	-15.031	0.101
255.700	-5.343	0.100
255.800	-5.336	0.100
255.900	-8.749	0.100
256.000	-2.688	0.100
256.100	-13.251	0.100
256.200	-20.330	0.100
256.300	-6.072	0.100
256.400	0.897	0.100
256.500	1.712	0.100
256.600	1.069	0.100
256.700	-20.483	0.100
256.800	-18.209	0.100
256.900	-17.548	0.100
257.000	-23.347	0.100
257.100	-11.874	0.100
257.200	-12.926	0.100
257.300	-1.407	0.100
257.400	-10.649	0.100
257.500	-8.241	0.100
257.600	-15.872	0.100
257.700	-15.114	0.100
257.800	-3.895	0.100
257.900	-6.260	0.100
258.000	-13.893	0.100
258.100	-0.521	0.100
258.200	-14.810	0.100
258.300	-10.327	0.100
258.400	-18.325	0.100
258.500	-18.969	0.100
258.600	-22.551	0.100
258.700	-10.177	0.100
258.800	-13.363	0.100
258.900	-17.367	0.100
259.000	-15.639	0.100
259.100	-12.589	0.100
259.200	-5.172	0.100
259.300	-6.103	0.100
259.400	0.056	0.100
259.500	-16.404	0.100
259.600	-8.113	0.100
259.700	-22.900	0.100
259.800	-17.104	0.100
259.900	-14.291	0.100
260.000	-6.974	0.100
260.100	-9.054	0.100
260.200	-2.568	0.100
260.300	-23.247	0.100
260.400	-13.658	0.100
260.500	-17.266	0.100
260.600	-20.798	0.100
260.700	-9.048	0.100
260.800	-7.477	0.100
260.900	-5.205	0.100
261.000	-19.015	0.100
261.100	-6.379	0.100
261.200	-12.077	0.100
261.300	-14.765	0.100
261.400	-17.075	0.100
261.500	-16.274	0.100
261.600	-9.154	0.100
261.700	-19.743	0.100
261.800	-21.473	0.100
261.900	-29.250	0.100
262.000	-13.594	0.100
262.100	-10.699	0.100
262.200	-16.577	0.100
262.300	-14.111	0.100
262.400	-20.956	0.100
262.500	-17.091	0.100
262.600	-15.007	0.100
262.700	-2.917	0.100
262.800	-19.110	0.100
262.900	-13.286	0.100
263.000	-20.243	0.100
263.100	-18.576	0.100
263.200	-28.747	0.100
263.300	-12.352	0.100
263.400	-13.292	0.100
263.500	-14.624	0.100
263.600	-18.101	0.100
263.700	-17.208	0.100
263.800	-23.251	0.100
263.900	-14.534	0.100
264.000	-12.396	0.100
264.100	-15.461	0.100
264.200	-11.492	0.100
264.300	-13.496	0.100
264.400	-25.357	0.100
264.500	-10.274	0.100
264.600	-24.719	0.100
264.700	-17.257	0.100
264.800	-12.512	0.100
264.900	-16.095	0.100
265.000	-9.435	0.100
265.100	-14.584	0.100
265.200	-24.412	0.100
265.300	-25.597	0.100
265.400	-14.101	0.100
265.500	-19.454	0.100
265.600	-23.935	0.100
265.700	-19.126	0.100
265.800	-14.968	0.100
265.900	-20.023	0.100
266.000	-24.324	0.100
266.100	-8.154	0.100
266.200	-12.637	0.100
266.300	-13.104	0.100
266.400	-22.603	0.100
266.500	-22.670	0.100
266.600	-26.111	0.100
266.700	-17.189	0.100
266.800	-12.754	0.100
266.900	-9.870	0.100
267.000	-14.893	0.100
267.100	-8.604	0.100
267.200	-19.652	0.100
267.300	-15.843	0.100
267.400	-11.143	0.100
267.500	-9.941	0.100
267.600	-22.795	0.100
267.700	-18.150	0.100
267.800	-22.343	0.100
267.900	-19.378	0.100
268.000	-16.207	0.100
268.100	-10.920	0.100
268.200	-26.581	0.100
268.300	-19.975	0.100
268.400	-21.058	0.100
268.500	-31.673	0.100
268.600	-24.263	0.100
268.700	-16.537	0.100
268.800	-16.216	0.100
268.900	-14.487	0.100
269.000	-23.421	0.100
269.100	-17.673	0.100
269.200	-11.936	0.100
269.300	-22.008	0.100
269.400	-11.812	0.100
269.500	-21.369	0.100
269.600	-19.993	0.100
269.700	-13.767	0.100
269.800	-14.243	0.100
269.900	-25.610	0.100
270.000	-23.217	0.100
270.100	-17.383	0.100
270.200	-16.827	0.100
270.300	-12.162	0.100
270.400	-27.387	0.100
270.500	-9.092	0.100
270.600	-7.501	0.100
270.700	-16.348	0.100
270.800	-14.529	0.100
270.900	-17.585	0.100
271.000	-16.782	0.100
271.100	-21.610	0.100
271.200	-26.855	0.100
271.300	-25.530	0.100
271.400	-30.331	0.100
271.500	-21.037	0.100
271.600	-18.063	0.100
271.700	-17.771	0.100
271.800	-2.619	0.100
271.900	-19.705	0.100
272.000	-32.222	0.100
272.100	-23.028	0.100
272.200	-20.053	0.100
272.300	-21.457	0.100
272.400	-16.076	0.100
272.500	-16.350	0.101
272.600	-7.435	0.101
272.700	-25.735	0.101
272.800	-26.245	0.101
272.900	-21.874	0.101
273.000	-15.181	0.101
273.100	-11.563	0.101
273.200	-21.168	0.101
273.300	-22.489	0.101
273.400	-22.821	0.101
273.500	-22.133	0.101
273.600	-26.838	0.101
273.700	-27.811	0.101
273.800	-16.129	0.101
273.900	-16.751	0.101
274.000	-15.345	0.101
274.100	-19.178	0.101
274.200	-25.835	0.101
274.300	-18.641	0.101
274.400	-25.915	0.101
274.500	-28.684	0.101
274.600	-27.587	0.101
274.700	-13.966	0.101
274.800	-16.866	0.101
274.900	-27.153	0.101
275.000	-17.183	0.101
275.100	-11.574	0.101
275.200	-25.272	0.101
275.300	-36.022	0.101
275.400	-28.180	0.101
275.500	-9.204	0.101
275.600	-15.548	0.101
275.700	-13.088	0.101
275.800	-20.379	0.101
275.900	-23.389	0.101
276.000	-15.650	0.101
276.100	-14.826	0.101
276.200	-21.314	0.101
276.300	-34.706	0.101
276.400	-23.206	0.101
276.500	-19.048	0.101
276.600	-21.744	0.101
276.700	-28.033	0.101
276.800	-16.261	0.101
276.900	-14.079	0.101
277.000	-28.531	0.101
277.100	-26.771	0.101
277.200	-21.627	0.101
277.300	-22.779	0.101
277.400	-19.124	0.101
277.500	-25.150	0.101
277.600	-30.424	0.101
277.700	-25.511	0.101
277.800	-25.268	0.101
277.900	-9.579	0.101
278.000	-20.832	0.101
278.100	-17.562	0.101
278.200	-14.521	0.101
278.300	-14.813	0.101
278.400	-13.852	0.101
278.500	-24.747	0.101
278.600	-17.816	0.101
278.700	-25.681	0.101
278.800	-22.642	0.101
278.900	-17.068	0.101
279.000	-24.395	0.101
279.100	-31.098	0.101
279.200	-14.133	0.101
279.300	-14.601	0.101
279.400	-11.201	0.101
279.500	-12.116	0.101
279.600	-19.194	0.101
279.700	-14.122	0.101
279.800	-17.641	0.101
279.900	-28.859	0.101
280.000	-20.872	0.101
280.100	-26.053	0.101
280.200	-15.649	0.101
280.300	-15.722	0.101
280.400	-21.365	0.101
280.500	-15.502	0.101
280.600	-18.521	0.101
280.700	-15.104	0.101
280.800	-19.890	0.101
280.900	-21.592	0.101
281.000	-15.137	0.101
281.100	-30.451	0.101
281.200	-20.581	0.101
281.300	-25.005	0.101
281.400	-25.228	0.101
281.500	-21.202	0.101
281.600	-17.552	0.101
281.700	-17.355	0.101
281.800	-23.267	0.101
281.900	-18.310	0.101
282.000	-26.096	0.101
282.100	-27.345	0.101
282.200	-22.426	0.101
282.300	-18.579	0.101
282.400	-20.992	0.101
282.500	-17.232	0.101
282.600	-38.055	0.101
282.700	-17.515	0.101
282.800	-25.264	0.101
282.900	-22.768	0.101
283.000	-25.658	0.101
283.100	-14.389	0.101
283.200	-28.339	0.101
283.300	-20.323	0.101
283.400	-27.128	0.101
283.500	-18.551	0.101
283.600	-18.214	0.101
283.700	-21.394	0.101
283.800	-14.854	0.101
283.900	-23.588	0.101
284.000	-25.170	0.101
284.100	-8.997	0.101
284.200	-12.520	0.101
284.300	-24.327	0.101
284.400	-18.907	0.101
284.500	-17.175	0.101
284.600	-21.265	0.101
284.700	-33.436	0.101
284.800	-21.488	0.101
284.900	-19.727	0.101
285.000	-25.070	0.101
285.100	-25.223	0.101
285.200	-19.158	0.101
285.300	-13.485	0.101
285.400	-15.972	0.101
285.500	-22.101	0.101
285.600	-21.892	0.101
285.700	-27.861	0.101
285.800	-15.753	0.101
285.900	-16.893	0.101
286.000	-25.433	0.101
286.100	-27.819	0.101
286.200	-16.674	0.101
286.300	-30.278	0.101
286.400	-33.266	0.101
286.500	-21.572	0.101
286.600	-17.746	0.101
286.700	-10.123	0.101
286.800	-22.413	0.101
286.900	-22.391	0.101
287.000	-16.716	0.101
287.100	-7.787	0.101
287.200	-19.946	0.101
287.300	-26.072	0.101
287.400	-13.498	0.101
287.500	-21.792	0.101
287.600	-29.169	0.101
287.700	-28.770	0.101
287.800	-18.911	0.101
287.900	-3.851	0.101
288.000	-15.821	0.101
288.100	-17.701	0.101
288.200	-21.129	0.101
288.300	-23.907	0.101
288.400	-23.442	0.101
288.500	-27.061	0.101
288.600	-13.647	0.101
288.700	-24.057	0.101
288.800	-14.413	0.101
288.900	-20.426	0.101
289.000	-18.983	0.101
289.100	-17.181	0.101
289.200	-21.434	0.101
289.300	-12.114	0.101
289.400	-27.657	0.101
289.500	-25.200	0.101
289.600	-18.120	0.101
289.700	-19.025	0.101
289.800	-27.371	0.101
289.900	-20.909	0.101
290.000	-14.348	0.101
290.100	-5.995	0.101
290.200	-19.677	0.101
290.300	-29.917	0.101
290.400	-26.282	0.101
290.500	-15.377	0.101
290.600	-8.502	0.101
290.700	-26.063	0.101
290.800	-19.281	0.101
290.900	-28.617	0.101
291.000	-12.145	0.101
291.100	-14.636	0.101
291.200	-20.093	0.101
291.300	-26.382	0.101
291.400	-26.150	0.101
291.500	-23.065	0.101
291.600	-11.247	0.101
291.700	-22.344	0.101
291.800	-21.962	0.101
291.900	-18.275	0.101
292.000	-15.833	0.101
292.100	-21.448	0.101
292.200	-28.373	0.101
292.300	-16.879	0.101
292.400	-15.606	0.101
292.500	-21.185	0.101
292.600	-16.007	0.101
292.700	-29.188	0.101
292.800	-21.457	0.101
292.900	-9.214	0.101
293.000	-16.508	0.101
293.100	-10.909	0.101
293.200	-22.117	0.101
293.300	-21.853	0.101
293.400	-34.500	0.101
293.500	-17.113	0.101
293.600	-18.306	0.101
293.700	-23.005	0.101
293.800	-19.805	0.101
293.900	-21.238	0.101
294.000	-17.402	0.101
294.100	-12.336	0.101
294.200	-15.743	0.101
294.300	-21.467	0.101
294.400	-27.110	0.101
294.500	-23.805	0.101
294.600	-17.019	0.101
294.700	-28.210	0.101
294.800	-21.734	0.101
294.900	-28.093	0.101
295.000	-18.225	0.101
295.100	-15.606	0.101
295.200	-25.104	0.101
295.300	-24.326	0.101
295.400	-32.785	0.101
295.500	-32.263	0.101
295.600	-18.354	0.101
295.700	-17.106	0.101
295.800	-18.735	0.101
295.900	-22.465	0.101
296.000	-10.603	0.101
296.100	-15.554	0.101
296.200	-14.408	0.101
296.300	-16.603	0.101
296.400	-17.147	0.101
296.500	-24.239	0.101
296.600	-18.964	0.101
296.700	-21.373	0.101
296.800	-30.274	0.101
296.900	-20.735	0.101
297.000	-24.064	0.101
297.100	-16.402	0.101
297.200	-23.675	0.101
297.300	-21.518	0.101
297.400	-12.986	0.101
297.500	-14.452	0.101
297.600	-7.458	0.101
297.700	-14.009	0.101
297.800	-23.789	0.101
297.900	-24.141	0.101
298.000	-24.208	0.101
298.100	-19.444	0.101
298.200	-5.084	0.101
298.300	-12.563	0.101
298.400	-14.705	0.101
298.500	-31.264	0.101
298.600	-25.002	0.101
298.700	-15.364	0.101
298.800	-23.317	0.101
298.900	-22.675	0.101
299.000	-15.097	0.101
299.100	-18.359	0.101
299.200	-12.844	0.101
299.300	-23.352	0.101
299.400	-20.768	0.101
299.500	-15.971	0.101
299.600	-20.729	0.101
299.700	-19.537	0.101
299.800	-28.566	0.101
299.900	-20.447	0.101
300.000	-11.205	0.101
300.100	-12.604	0.101
300.200	-11.372	0.101
300.300	-12.399	0.101
300.400	-15.473	0.101
300.500	-13.829	0.101
300.600	-17.760	0.101
300.700	-32.691	0.101
300.800	-24.137	0.101
300.900	-28.622	0.101
301.000	-13.626	0.101
301.100	-22.941	0.101
301.200	-14.166	0.101
301.300	-23.085	0.101
301.400	-20.743	0.101
301.500	-5.345	0.101
301.600	-18.948	0.101
301.700	-12.837	0.101
301.800	-20.550	0.101
301.900	-20.542	0.101
302.000	-31.947	0.101
302.100	-22.291	0.101
302.200	-22.640	0.101
302.300	-11.135	0.101
302.400	-1.489	0.101
302.500	-21.866	0.101
302.600	-24.299	0.101
302.700	-20.805	0.101
302.800	-18.853	0.101
302.900	-15.409	0.101
303.000	-9.309	0.101
303.100	-19.971	0.101
303.200	-26.453	0.101
303.300	-17.125	0.101
303.400	-21.285	0.101
303.500	-18.088	0.101
303.600	-18.925	0.101
303.700	-20.976	0.101
303.800	-13.705	0.101
303.900	-15.694	0.101
304.000	-14.732	0.101
304.100	-13.952	0.101
304.200	-22.015	0.101
304.300	-14.484	0.101
304.400	-16.060	0.101
304.500	-26.395	0.101
304.600	-19.861	0.101
304.700	-21.080	0.101
304.800	-17.160	0.101
304.900	-16.378	0.101
305.000	-18.551	0.101
305.100	-1.599	0.101
305.200	-22.340	0.101
305.300	-20.590	0.101
305.400	-8.305	0.101
305.500	-22.528	0.101
305.600	-22.622	0.101
305.700	-19.195	0.101
305.800	-13.082	0.101
305.900	-15.669	0.101
306.000	-18.983	0.101
306.100	-18.865	0.101
306.200	-15.873	0.101
306.300	-16.488	0.101
306.400	-12.205	0.101
306.500	-34.162	0.101
306.600	-22.006	0.101
306.700	-16.119	0.101
306.800	-13.337	0.101
306.900	-14.747	0.101
307.000	-21.366	0.101
307.100	-14.145	0.101
307.200	-13.176	0.101
307.300	-23.324	0.101
307.400	-25.162	0.101
307.500	-25.827	0.101
307.600	-13.527	0.101
307.700	-15.173	0.101
307.800	-14.968	0.101
307.900	-16.296	0.101
308.000	-15.329	0.101
308.100	-9.854	0.101
308.200	-21.706	0.101
308.300	-8.027	0.101
308.400	-8.332	0.101
308.500	-14.722	0.101
308.600	-13.148	0.101
308.700	-17.951	0.101
308.800	-21.248	0.101
308.900	-18.898	0.101
309.000	-23.116	0.101
309.100	-22.224	0.101
309.200	-25.171	0.101
309.300	-12.195	0.101
309.400	-12.475	0.101
309.500	-16.425	0.101
309.600	-15.682	0.101
309.700	-21.023	0.101
309.800	-12.575	0.101
309.900	-13.337	0.101
310.000	-22.384	0.101
310.100	-32.781	0.101
310.200	-24.153	0.101
310.300	-14.395	0.101
310.400	-15.614	0.101
310.500	-21.132	0.101
310.600	-29.681	0.101
310.700	-24.507	0.101
310.800	-15.386	0.101
310.900	-13.180	0.101
311.000	-22.856	0.101
311.100	-22.631	0.101
311.200	-18.993	0.101
311.300	-8.652	0.101
311.400	-9.184	0.101
311.500	-23.084	0.101
311.600	-15.493	0.101
311.700	-15.743	0.101
311.800	-21.746	0.101
311.900	-21.884	0.101
312.000	-15.192	0.101
312.100	-9.041	0.101
312.200	-10.788	0.101
312.300	-15.481	0.101
312.400	-14.403	0.101
312.500	-15.523	0.101
312.600	-14.660	0.101
312.700	-15.232	0.101
312.800	-18.844	0.101
312.900	-23.775	0.101
313.000	-14.318	0.101
313.100	-20.000	0.101
313.200	-14.259	0.101
313.300	-9.407	0.101
313.400	-12.853	0.101
313.500	-22.211	0.101
313.600	-24.357	0.101
313.700	-22.342	0.101
313.800	-21.291	0.101
313.900	-20.792	0.101
314.000	-18.818	0.101
314.100	-22.459	0.101
314.200	-29.550	0.101
314.300	-9.818	0.101
314.400	-11.209	0.101
314.500	-13.692	0.101
314.600	-19.457	0.101
314.700	-24.820	0.101
314.800	-18.429	0.101
314.900	-17.845	0.101
315.000	-7.437	0.101
315.100	-4.689	0.101
315.200	-15.352	0.101
315.300	-12.768	0.101
315.400	-23.204	0.101
315.500	-17.317	0.101
315.600	-23.385	0.101
315.700	-24.312	0.101
315.800	-11.561	0.101
315.900	-11.321	0.101
316.000	-19.462	0.101
316.100	-7.805	0.101
316.200	-13.886	0.101
316.300	-21.781	0.101
316.400	-17.414	0.101
316.500	-17.281	0.101
316.600	-16.974	0.101
316.700	-21.846	0.101
316.800	-19.021	0.101
316.900	-15.101	0.100
317.000	-15.834	0.100
317.100	-18.950	0.101
317.200	-26.488	0.100
317.300	-12.340	0.100
317.400	-8.785	0.100
317.500	-13.410	0.100
317.600	-23.424	0.100
317.700	-16.606	0.100
317.800	-15.001	0.100
317.900	-13.567	0.100
318.000	-18.159	0.100
318.100	-15.302	0.100
318.200	-26.768	0.100
318.300	-17.175	0.100
318.400	-13.386	0.100
318.500	-4.040	0.100
318.600	-22.184	0.100
318.700	-21.557	0.100
318.800	-28.094	0.100
318.900	-15.412	0.100
319.000	-17.022	0.100
319.100	-16.383	0.100
319.200	-13.300	0.100
319.300	-7.589	0.100
319.400	-14.582	0.100
319.500	-15.501	0.100
319.600	-13.692	0.100
319.700	-19.590	0.100
319.800	-22.405	0.100
319.900	-20.055	0.100
320.000	-14.346	0.100
320.100	-10.378	0.100
320.200	-14.584	0.100
320.300	-23.422	0.100
320.400	-31.424	0.100
320.500	-14.033	0.100
320.600	-9.303	0.100
320.700	-16.051	0.100
320.800	-21.815	0.100
320.900	-19.261	0.100
321.000	-24.670	0.100
321.100	-14.631	0.100
321.200	-16.089	0.100
321.300	-18.951	0.100
321.400	-9.864	0.100
321.500	-11.263	0.100
321.600	-9.392	0.100
321.700	-9.136	0.100
321.800	-25.025	0.100
321.900	-21.443	0.100
322.000	-22.688	0.100
322.100	-19.521	0.100
322.200	-9.193	0.100
322.300	-23.726	0.100
322.400	-14.208	0.100
322.500	-3.986	0.100
322.600	-18.025	0.100
322.700	-10.981	0.100
322.800	-9.919	0.100
322.900	-7.738	0.100
323.000	-20.030	0.100
323.100	-23.344	0.100
323.200	-12.298	0.100
323.300	-16.363	0.100
323.400	-10.329	0.100
323.500	-11.734	0.100
323.600	-11.941	0.100
323.700	-27.484	0.100
323.800	-15.501	0.100
323.900	-8.669	0.100
324.000	-13.364	0.100
324.100	-16.070	0.100
324.200	-18.499	0.100
324.300	-28.310	0.100
324.400	-25.403	0.100
324.500	-23.332	0.100
324.600	-18.710	0.100
324.700	-11.015	0.100
324.800	-14.234	0.100
324.900	-14.917	0.100
325.000	-20.395	0.100
325.100	-19.515	0.100
325.200	-12.837	0.100
325.300	-15.309	0.100
325.400	-26.242	0.100
325.500	-20.268	0.100
325.600	-25.272	0.100
325.700	-21.900	0.100
325.800	-5.146	0.100
325.900	-18.743	0.100
326.000	-16.712	0.100
326.100	-12.515	0.100
326.200	-21.579	0.100
326.300	-14.596	0.100
326.400	-15.910	0.100
326.500	-16.879	0.100
326.600	-17.637	0.100
326.700	-13.700	0.100
326.800	-12.917	0.100
326.900	-18.741	0.100
327.000	-21.720	0.100
327.100	-6.261	0.100
327.200	-13.391	0.100
327.300	-29.522	0.100
327.400	-32.965	0.100
327.500	-19.398	0.100
327.600	-17.963	0.100
327.700	-10.189	0.100
327.800	-11.080	0.100
327.900	-14.514	0.100
328.000	-21.299	0.100
328.100	-10.094	0.101
328.200	-10.808	0.101
328.300	-18.938	0.100
328.400	-12.469	0.101
328.500	-14.464	0.101
328.600	-9.411	0.101
328.700	-13.221	0.101
328.800	-20.084	0.101
328.900	-21.752	0.101
329.000	-22.359	0.101
329.100	-16.192	0.101
329.200	-12.751	0.101
329.300	-20.714	0.101
329.400	-11.969	0.101
329.500	-13.357	0.101
329.600	-13.645	0.101
329.700	-16.302	0.101
329.800	-10.673	0.101
329.900	-16.697	0.101
330.000	-23.755	0.101
330.100	-30.898	0.101
330.200	-15.221	0.101
330.300	-13.594	0.101
330.400	-16.094	0.101
330.500	-5.990	0.101
330.600	-9.777	0.101
330.700	-16.456	0.101
330.800	-11.636	0.101
330.900	-0.077	0.101
331.000	0.405	0.101
331.100	-5.626	0.101
331.200	-0.577	0.101
331.300	6.252	0.101
331.400	5.985	0.101
331.500	-0.566	0.101
331.600	7.127	0.101
331.700	0.983	0.101
331.800	9.645	0.101
331.900	8.827	0.101
332.000	10.911	0.101
332.100	19.695	0.101
332.200	8.172	0.101
332.300	20.517	0.101
332.400	19.016	0.101
332.500	13.304	0.101
332.600	21.355	0.101
332.700	28.670	0.101
332.800	21.123	0.100
332.900	13.430	0.101
333.000	17.144	0.101
333.100	16.164	0.101
333.200	4.417	0.101
333.300	9.021	0.101
333.400	20.933	0.100
333.500	11.604	0.101
333.600	5.696	0.101
333.700	14.742	0.101
333.800	28.431	0.101
333.900	29.477	0.101
334.000	20.332	0.101
334.100	14.211	0.101
334.200	13.244	0.101
334.300	17.267	0.101
334.400	16.225	0.101
334.500	26.117	0.101
334.600	8.868	0.101
334.700	19.307	0.101
334.800	11.477	0.101
334.900	14.583	0.101
335.000	20.109	0.100
335.100	18.064	0.101
335.200	17.562	0.101
335.300	16.654	0.101
335.400	18.360	0.101
335.500	15.577	0.101
335.600	24.453	0.101
335.700	15.453	0.101
335.800	9.136	0.101
335.900	10.412	0.101
336.000	7.070	0.101
336.100	14.311	0.101
336.200	24.973	0.101
336.300	28.310	0.101
336.400	14.007	0.101
336.500	11.614	0.101
336.600	9.628	0.101
336.700	19.919	0.101
336.800	7.216	0.101
336.900	7.314	0.101
337.000	8.197	0.101
337.100	5.489	0.101
337.200	10.781	0.101
337.300	18.771	0.100
337.400	11.904	0.101
337.500	6.776	0.101
337.600	7.293	0.101
337.700	8.507	0.101
337.800	6.734	0.100
337.900	12.090	0.101
338.000	23.023	0.100
338.100	10.223	0.101
338.200	9.959	0.101
338.300	17.730	0.101
338.400	12.861	0.101
338.500	10.601	0.101
338.600	2.184	0.101
338.700	14.438	0.101
338.800	23.393	0.101
338.900	8.681	0.101
339.000	16.416	0.101
339.100	11.177	0.101
339.200	10.666	0.101
339.300	13.055	0.101
339.400	18.407	0.100
339.500	12.709	0.101
339.600	18.996	0.100
339.700	12.101	0.101
339.800	21.339	0.100
339.900	14.589	0.101
340.000	13.580	0.101
340.100	13.848	0.100
340.200	8.127	0.100
340.300	12.133	0.101
340.400	16.603	0.100
340.500	20.530	0.100
340.600	14.149	0.101
340.700	18.476	0.100
340.800	16.670	0.100
340.900	12.430	0.101
341.000	12.817	0.101
341.100	12.191	0.101
341.200	13.891	0.100
341.300	1.220	0.100
341.400	9.897	0.101
341.500	13.731	0.100
341.600	6.127	0.100
341.700	13.524	0.101
341.800	15.683	0.100
341.900	9.154	0.101
342.000	16.915	0.100
342.100	16.394	0.100
342.200	16.462	0.100
342.300	11.601	0.101
342.400	6.498	0.100
342.500	10.986	0.101
342.600	18.446	0.100
342.700	16.164	0.100
342.800	14.805	0.100
342.900	13.766	0.101
343.000	16.981	0.100
343.100	6.556	0.100
343.200	11.693	0.101
343.300	10.060	0.101
343.400	13.152	0.101
343.500	7.694	0.100
343.600	9.040	0.101
343.700	18.332	0.100
343.800	11.195	0.101
343.900	10.051	0.101
344.000	18.921	0.100
344.100	20.520	0.100
344.200	14.667	0.101
344.300	10.915	0.101
344.400	21.055	0.100
344.500	11.915	0.101
344.600	-0.929	0.100
344.700	11.064	0.101
344.800	7.733	0.100
344.900	14.913	0.101
345.000	25.973	0.100
345.100	3.979	0.100
345.200	17.326	0.100
345.300	21.728	0.101
345.400	13.918	0.101
345.500	20.405	0.101
345.600	12.120	0.101
345.700	30.448	0.100
345.800	13.750	0.101
345.900	25.418	0.100
346.000	9.993	0.101
346.100	20.951	0.100
346.200	14.687	0.101
346.300	17.350	0.100
346.400	17.789	0.100
346.500	16.406	0.101
346.600	23.853	0.100
346.700	18.774	0.101
346.800	13.697	0.101
346.900	15.850	0.100
347.000	15.819	0.101
347.100	10.691	0.101
347.200	16.328	0.100
347.300	19.070	0.100
347.400	11.644	0.101
347.500	20.014	0.100
347.600	18.840	0.100
347.700	24.276	0.100
347.800	18.690	0.100
347.900	23.591	0.100
348.000	20.944	0.101
348.100	13.845	0.100
348.200	30.921	0.100
348.300	25.709	0.100
348.400	20.381	0.100
348.500	19.320	0.101
348.600	14.679	0.101
348.700	26.053	0.100
348.800	26.083	0.100
348.900	15.471	0.100
349.000	9.915	0.100
349.100	17.544	0.101
349.200	15.514	0.101
349.300	20.237	0.100
349.400	29.158	0.100
349.500	26.676	0.100
349.600	28.105	0.100
349.700	22.633	0.100
349.800	34.213	0.100
349.900	28.171	0.100
350.000	27.983	0.100
350.100	24.361	0.100
350.200	32.568	0.100
350.300	29.844	0.100
350.400	31.589	0.100
350.500	24.452	0.100
350.600	23.639	0.100
350.700	10.441	0.100
350.800	25.319	0.100
350.900	27.584	0.100
351.000	17.055	0.100
351.100	13.450	0.100
351.200	23.530	0.100
351.300	17.156	0.100
351.400	22.102	0.100
351.500	32.852	0.100
351.600	26.889	0.100
351.700	25.384	0.100
351.800	21.301	0.100
351.900	23.309	0.100
352.000	29.741	0.100
352.100	32.528	0.100
352.200	24.682	0.100
352.300	31.163	0.100
352.400	29.564	0.100
352.500	27.936	0.100
352.600	19.694	0.100
352.700	24.408	0.100
352.800	32.203	0.100
352.900	32.524	0.100
353.000	39.474	0.100
353.100	28.482	0.100
353.200	32.899	0.100
353.300	39.426	0.100
353.400	26.668	0.100
353.500	23.366	0.100
353.600	28.626	0.100
353.700	37.859	0.100
353.800	36.935	0.100
353.900	25.620	0.100
354.000	32.945	0.100
354.100	26.482	0.100
354.200	31.619	0.100
354.300	33.247	0.100
354.400	31.690	0.100
354.500	35.965	0.100
354.600	31.804	0.100
354.700	29.507	0.100
354.800	26.490	0.100
354.900	32.752	0.100
355.000	32.991	0.100
355.100	35.732	0.100
355.200	34.325	0.100
355.300	32.932	0.100
355.400	39.109	0.100
355.500	36.576	0.100
355.600	40.204	0.100
355.700	35.593	0.100
355.800	31.351	0.100
355.900	36.006	0.100
356.000	34.025	0.100
356.100	31.090	0.100
356.200	25.683	0.100
356.300	28.319	0.100
356.400	35.458	0.100
356.500	38.782	0.100
356.600	29.545	0.100
356.700	33.168	0.100
356.800	40.891	0.100
356.900	35.877	0.100
357.000	34.267	0.100
357.100	36.750	0.100
357.200	40.854	0.100
357.300	38.479	0.100
357.400	27.147	0.100
357.500	37.888	0.100
357.600	39.186	0.100
357.700	31.322	0.100
357.800	33.258	0.100
357.900	33.678	0.100
358.000	32.788	0.100
358.100	28.375	0.100
358.200	38.837	0.100
358.300	50.411	0.100
358.400	35.250	0.100
358.500	33.988	0.100
358.600	34.025	0.100
358.700	40.888	0.100
358.800	44.493	0.100
358.900	31.976	0.100
359.000	36.422	0.100
359.100	39.598	0.100
359.200	36.684	0.100
359.300	39.942	0.100
359.400	34.863	0.100
359.500	32.816	0.100
359.600	33.080	0.100
359.700	35.683	0.100
359.800	35.714	0.100
359.900	33.501	0.100
360.000	38.116	0.100
360.100	39.598	0.100
360.200	33.693	0.100
360.300	39.048	0.100
360.400	34.294	0.100
360.500	35.046	0.100
360.600	29.015	0.100
360.700	42.779	0.100
360.800	41.590	0.100
360.900	34.687	0.100
361.000	36.540	0.100
361.100	29.080	0.100
361.200	33.574	0.100
361.300	38.530	0.100
361.400	34.977	0.100
361.500	34.748	0.100
361.600	36.684	0.100
361.700	36.395	0.101
361.800	33.050	0.101
361.900	31.483	0.100
362.000	38.308	0.101
362.100	38.397	0.101
362.200	33.631	0.101
362.300	49.062	0.101
362.400	36.559	0.101
362.500	39.701	0.101
362.600	42.764	0.101
362.700	43.849	0.101
362.800	46.451	0.101
362.900	33.078	0.101
363.000	30.062	0.101
363.100	40.276	0.101
363.200	30.939	0.101
363.300	50.601	0.101
363.400	40.033	0.101
363.500	34.447	0.101
363.600	34.923	0.101
363.700	32.961	0.101
363.800	39.375	0.101
363.900	45.031	0.101
364.000	42.069	0.101
364.100	41.580	0.101
364.200	32.106	0.101
364.300	33.610	0.101
364.400	48.061	0.101
364.500	35.885	0.101
364.600	44.110	0.101
364.700	50.387	0.101
364.800	38.338	0.101
364.900	34.961	0.101
365.000	30.489	0.101
365.100	39.662	0.101
365.200	37.806	0.101
365.300	36.025	0.101
365.400	38.054	0.101
365.500	39.731	0.101
365.600	45.432	0.101
365.700	40.390	0.101
365.800	34.194	0.101
365.900	30.010	0.101
366.000	24.564	0.101
366.100	29.904	0.101
366.200	40.063	0.101
366.300	49.837	0.101
366.400	43.189	0.101
366.500	44.362	0.101
366.600	41.283	0.101
366.700	39.031	0.101
366.800	38.297	0.101
366.900	34.814	0.101
367.000	33.038	0.101
367.100	36.585	0.101
367.200	38.940	0.101
367.300	51.294	0.101
367.400	42.489	0.101
367.500	47.404	0.101
367.600	46.724	0.101
367.700	40.059	0.101
367.800	44.387	0.101
367.900	38.412	0.101
368.000	33.562	0.101
368.100	37.688	0.101
368.200	32.159	0.101
368.300	29.082	0.101
368.400	40.371	0.101
368.500	31.862	0.101
368.600	30.044	0.101
368.700	37.973	0.101
368.800	39.862	0.101
368.900	37.544	0.101
369.000	43.459	0.101
369.100	45.345	0.101
369.200	45.491	0.101
369.300	35.414	0.101
369.400	38.740	0.101
369.500	33.209	0.101
369.600	34.519	0.101
369.700	34.525	0.101
369.800	47.734	0.101
369.900	49.517	0.101
370.000	53.898	0.101
370.100	35.849	0.101
370.200	28.491	0.101
370.300	33.227	0.101
370.400	29.472	0.101
370.500	48.524	0.101
370.600	46.644	0.101
370.700	38.827	0.101
370.800	38.867	0.101
370.900	42.255	0.101
371.000	36.225	0.101
371.100	39.825	0.101
371.200	44.575	0.101
371.300	37.171	0.101
371.400	41.599	0.101
371.500	21.397	0.101
371.600	34.088	0.101
371.700	37.075	0.101
371.800	40.106	0.101
371.900	32.218	0.101
372.000	36.600	0.101
372.100	34.406	0.101
372.200	41.725	0.101
372.300	47.512	0.101
372.400	26.864	0.101
372.500	38.653	0.101
372.600	32.954	0.101
372.700	38.620	0.101
372.800	30.443	0.100
372.900	30.974	0.101
373.000	46.955	0.100
373.100	40.291	0.101
373.200	41.754	0.100
373.300	37.539	0.100
373.400	50.457	0.100
373.500	35.227	0.100
373.600	38.456	0.100
373.700	30.759	0.100
373.800	26.734	0.100
373.900	39.107	0.100
374.000	38.691	0.100
374.100	39.200	0.100
374.200	42.988	0.100
374.300	38.656	0.100
374.400	40.626	0.100
374.500	47.664	0.100
374.600	41.535	0.100
374.700	28.663	0.100
374.800	32.636	0.100
374.900	39.532	0.100
375.000	30.718	0.100
375.100	30.868	0.100
375.200	30.158	0.100
375.300	32.033	0.100
375.400	26.808	0.100
375.500	46.524	0.100
375.600	39.722	0.100
375.700	32.302	0.100
375.800	42.370	0.100
375.900	27.212	0.100
376.000	40.909	0.100
376.100	34.664	0.100
376.200	36.411	0.100
376.300	44.794	0.100
376.400	43.110	0.100
376.500	42.674	0.100
376.600	34.406	0.100
376.700	46.506	0.100
376.800	40.784	0.100
376.900	36.423	0.100
377.000	34.753	0.100
377.100	41.153	0.100
377.200	40.137	0.100
377.300	34.262	0.100
377.400	34.865	0.100
377.500	40.932	0.100
377.600	33.513	0.100
377.700	45.350	0.100
377.800	30.455	0.100
377.900	31.988	0.100
378.000	40.293	0.100
378.100	43.373	0.100
378.200	45.066	0.100
378.300	37.594	0.100
378.400	37.523	0.100
378.500	33.580	0.100
378.600	29.669	0.100
378.700	36.159	0.100
378.800	42.032	0.100
378.900	29.551	0.100
379.000	32.945	0.100
379.100	42.901	0.100
379.200	46.700	0.100
379.300	38.824	0.100
379.400	37.522	0.100
379.500	42.154	0.100
379.600	42.611	0.100
379.700	31.376	0.100
379.800	36.125	0.100
379.900	32.669	0.100
380.000	35.116	0.100
380.100	43.938	0.100
380.200	47.571	0.100
380.300	37.835	0.100
380.400	32.294	0.100
380.500	46.783	0.100
380.600	38.607	0.100
380.700	35.233	0.100
380.800	39.348	0.100
380.900	40.608	0.100
381.000	37.491	0.100
381.100	35.909	0.100
381.200	33.831	0.100
381.300	46.524	0.100
381.400	33.736	0.100
381.500	31.533	0.100
381.600	39.949	0.100
381.700	34.703	0.100
381.800	38.860	0.100
381.900	41.651	0.100
382.000	39.681	0.100
382.100	41.737	0.100
382.200	32.310	0.100
382.300	41.493	0.100
382.400	40.644	0.100
382.500	33.269	0.100
382.600	30.420	0.100
382.700	34.470	0.100
382.800	39.101	0.100
382.900	37.832	0.100
383.000	31.288	0.100
383.100	40.820	0.100
383.200	32.132	0.100
383.300	36.854	0.100
383.400	44.006	0.100
383.500	43.509	0.100
383.600	40.936	0.100
383.700	38.251	0.100
383.800	36.249	0.100
383.900	37.733	0.100
384.000	45.895	0.100
384.100	40.985	0.100
384.200	36.680	0.100
384.300	32.511	0.100
384.400	36.940	0.100
384.500	38.375	0.100
384.600	37.612	0.100
384.700	29.964	0.100
384.800	36.182	0.100
384.900	42.925	0.100
385.000	42.077	0.100
385.100	37.724	0.100
385.200	38.135	0.100
385.300	39.927	0.100
385.400	37.752	0.100
385.500	46.208	0.100
385.600	31.646	0.100
385.700	39.299	0.100
385.800	37.816	0.100
385.900	37.446	0.100
386.000	29.722	0.100
386.100	33.090	0.100
386.200	40.406	0.100
386.300	40.632	0.100
386.400	41.819	0.100
386.500	38.063	0.100
386.600	37.854	0.100
386.700	46.787	0.100
386.800	39.181	0.100
386.900	38.458	0.100
387.000	33.910	0.100
387.100	39.974	0.100
387.200	39.350	0.100
387.300	33.792	0.100
387.400	39.747	0.100
387.500	48.921	0.100
387.600	45.384	0.100
387.700	36.056	0.100
387.800	24.337	0.100
387.900	28.695	0.101
388.000	24.431	0.101
388.100	43.765	0.100
388.200	37.504	0.101
388.300	36.807	0.101
388.400	42.053	0.101
388.500	38.949	0.101
388.600	35.076	0.101
388.700	41.387	0.100
388.800	31.010	0.101
388.900	41.371	0.101
389.000	38.884	0.100
389.100	31.468	0.100
389.200	44.355	0.100
389.300	32.024	0.100
389.400	43.410	0.101
389.500	39.619	0.101
389.600	41.318	0.101
389.700	35.585	0.101
389.800	25.645	0.101
389.900	46.528	0.101
390.000	42.200	0.101
390.100	45.750	0.101
390.200	42.689	0.101
390.300	37.091	0.101
390.400	28.418	0.101
390.500	33.452	0.101
390.600	42.194	0.101
390.700	35.990	0.101
390.800	27.663	0.101
390.900	22.224	0.101
391.000	25.228	0.101
391.100	24.341	0.101
391.200	20.829	0.101
391.300	12.525	0.101
391.400	15.746	0.101
391.500	16.626	0.101
391.600	7.162	0.101
391.700	18.095	0.101
391.800	15.759	0.101
391.900	10.585	0.101
392.000	10.156	0.101
392.100	10.483	0.101
392.200	12.206	0.101
392.300	1.094	0.101
392.400	2.934	0.101
392.500	7.198	0.101
392.600	3.840	0.101
392.700	2.704	0.101
392.800	2.067	0.101
392.900	3.891	0.101
393.000	-0.310	0.101
393.100	1.481	0.101
393.200	3.928	0.101
393.300	6.096	0.101
393.400	3.929	0.101
393.500	4.479	0.101
393.600	2.041	0.101
393.700	-16.336	0.101
393.800	-13.930	0.101
393.900	-2.355	0.101
394.000	-3.572	0.101
394.100	-10.025	0.101
394.200	-5.226	0.101
394.300	1.450	0.101
394.400	-1.146	0.101
394.500	-4.148	0.101
394.600	-14.536	0.101
394.700	-7.776	0.101
394.800	-2.263	0.101
394.900	3.984	0.101
395.000	3.427	0.101
395.100	0.536	0.101
395.200	2.241	0.101
395.300	-12.075	0.101
395.400	-18.310	0.101
395.500	-4.130	0.101
395.600	14.067	0.101
395.700	-0.384	0.101
395.800	-12.207	0.101
395.900	-1.481	0.101
396.000	-16.562	0.101
396.100	-4.624	0.101
396.200	-14.768	0.101
396.300	-10.586	0.101
396.400	2.910	0.101
396.500	5.537	0.101
396.600	-1.547	0.101
396.700	0.226	0.101
396.800	-12.005	0.101
396.900	-16.523	0.101
397.000	-10.690	0.101
397.100	-12.652	0.101
397.200	-5.623	0.101
397.300	-6.065	0.101
397.400	-5.720	0.101
397.500	1.496	0.101
397.600	-10.304	0.101
397.700	-8.369	0.101
397.800	-13.728	0.101
397.900	-7.966	0.101
398.000	5.115	0.101
398.100	7.194	0.101
398.200	-4.757	0.101
398.300	-12.220	0.101
398.400	-4.051	0.101
398.500	-5.792	0.101
398.600	-5.086	0.101
398.700	-11.634	0.101
398.800	-8.580	0.101
398.900	-6.186	0.101
399.000	1.563	0.101
399.100	-0.232	0.101
399.200	4.751	0.101
399.300	-16.515	0.101
399.400	-7.619	0.101
399.500	3.695	0.101
399.600	2.343	0.101
399.700	-10.008	0.101
399.800	-11.840	0.101
399.900	-5.436	0.101
400.000	-13.747	0.101
400.100	-2.545	0.101
400.200	-2.001	0.101
400.300	-9.990	0.101
400.400	-5.197	0.101
400.500	-6.085	0.101
400.600	-14.519	0.101
400.700	-4.854	0.101
400.800	7.622	0.101
400.900	-6.748	0.101
401.000	-2.155	0.101
401.100	-9.700	0.101
401.200	-1.254	0.101
401.300	-6.335	0.101
401.400	-10.157	0.101
401.500	-3.291	0.101
401.600	-12.720	0.101
401.700	-8.176	0.101
401.800	-6.828	0.101
401.900	-24.488	0.101
402.000	-1.218	0.101
402.100	-5.011	0.101
402.200	-7.487	0.101
402.300	-8.368	0.101
402.400	-10.253	0.101
402.500	-12.072	0.101
402.600	-6.130	0.101
402.700	-7.531	0.101
402.800	-13.129	0.101
402.900	-14.097	0.101
403.000	-12.999	0.101
403.100	-14.161	0.101
403.200	-5.485	0.101
403.300	-12.766	0.101
403.400	-6.487	0.101
403.500	-8.768	0.101
403.600	-10.660	0.101
403.700	-3.897	0.101
403.800	-13.658	0.101
403.900	-19.052	0.101
404.000	-5.894	0.101
404.100	-18.796	0.101
404.200	-14.633	0.101
404.300	-7.848	0.101
404.400	-4.184	0.101
404.500	-19.145	0.101
404.600	-7.687	0.101
404.700	-14.694	0.101
404.800	-10.474	0.101
404.900	-3.870	0.101
405.000	-4.979	0.101
405.100	-7.602	0.101
405.200	-10.381	0.101
405.300	-13.621	0.101
405.400	-13.646	0.101
405.500	-2.959	0.101
405.600	-10.269	0.101
405.700	-11.258	0.101
405.800	-10.821	0.101
405.900	-17.933	0.101
406.000	-12.543	0.101
406.100	-11.457	0.101
406.200	-15.173	0.101
406.300	-10.494	0.101
406.400	-5.901	0.101
406.500	-22.389	0.101
406.600	-8.486	0.101
406.700	-11.824	0.101
406.800	-8.850	0.101
406.900	-8.779	0.101
407.000	-17.831	0.101
407.100	-10.287	0.101
407.200	-23.253	0.101
407.300	-8.664	0.101
407.400	-14.326	0.101
407.500	-9.449	0.101
407.600	-15.803	0.101
407.700	-15.234	0.101
407.800	-8.242	0.101
407.900	-9.213	0.101
408.000	-17.083	0.101
408.100	-18.412	0.101
408.200	-18.932	0.101
408.300	-25.876	0.101
408.400	-9.692	0.101
408.500	-4.013	0.101
408.600	-8.970	0.101
408.700	-11.768	0.101
408.800	-24.429	0.101
408.900	-12.902	0.101
409.000	-11.644	0.101
409.100	-6.577	0.101
409.200	-7.809	0.101
409.300	-15.804	0.101
409.400	-30.779	0.101
409.500	-18.732	0.101
409.600	-23.898	0.101
409.700	-8.403	0.101
409.800	-10.003	0.101
409.900	-23.208	0.101
410.000	-8.847	0.101
410.100	-9.830	0.101
410.200	-11.333	0.101
410.300	-12.425	0.101
410.400	-12.551	0.101
410.500	-9.421	0.101
410.600	-15.314	0.101
410.700	-13.203	0.101
410.800	-7.240	0.101
410.900	-25.574	0.101
411.000	-18.013	0.101
411.100	-15.029	0.101
411.200	-18.668	0.101
411.300	-21.016	0.101
411.400	-3.276	0.101
411.500	-14.204	0.101
411.600	-18.764	0.101
411.700	-5.577	0.101
411.800	-15.223	0.101
411.900	-19.850	0.101
412.000	-24.507	0.101
412.100	-14.645	0.101
412.200	-15.467	0.101
412.300	-6.386	0.101
412.400	-18.204	0.101
412.500	-9.823	0.101
412.600	-21.147	0.101
412.700	-17.134	0.101
412.800	-6.754	0.101
412.900	-13.412	0.101
413.000	-12.689	0.101
413.100	-16.188	0.101
413.200	-6.489	0.101
413.300	-16.010	0.101
413.400	-12.355	0.101
413.500	-16.330	0.101
413.600	-19.912	0.101
413.700	-13.396	0.101
413.800	-21.204	0.101
413.900	-19.780	0.101
414.000	-22.253	0.101
414.100	-20.423	0.101
414.200	-17.115	0.101
414.300	-12.225	0.101
414.400	-13.579	0.101
414.500	-8.101	0.101
414.600	-25.607	0.101
414.700	-28.988	0.101
414.800	-22.275	0.101
414.900	-27.780	0.101
415.000	-20.256	0.101
415.100	-11.689	0.101
415.200	-15.711	0.101
415.300	-15.535	0.101
415.400	-23.408	0.101
415.500	-17.292	0.101
415.600	-17.022	0.101
415.700	-14.296	0.101
415.800	-11.279	0.101
415.900	-16.329	0.101
416.000	-9.699	0.101
416.100	-19.094	0.101
416.200	-6.489	0.101
416.300	-24.756	0.101
416.400	-16.063	0.101
416.500	-23.616	0.101
416.600	-14.087	0.101
416.700	-22.490	0.101
416.800	-34.597	0.101
416.900	-25.675	0.101
417.000	-19.376	0.101
417.100	-16.066	0.101
417.200	-13.257	0.101
417.300	-17.829	0.101
417.400	-16.881	0.101
417.500	-21.818	0.101
417.600	-28.867	0.101
417.700	-24.526	0.101
417.800	-16.636	0.101
417.900	-10.149	0.101
418.000	-18.044	0.101
418.100	-22.012	0.101
418.200	-21.154	0.101
418.300	-17.662	0.101
418.400	-16.145	0.101
418.500	-17.012	0.101
418.600	-16.605	0.101
418.700	-22.476	0.101
418.800	-20.965	0.101
418.900	-21.685	0.101
419.000	-22.387	0.101
419.100	-10.317	0.101
419.200	-24.449	0.101
419.300	-13.931	0.101
419.400	-18.164	0.101
419.500	-22.903	0.101
419.600	-9.800	0.101
419.700	-15.821	0.101
419.800	-19.703	0.101
419.900	-18.433	0.101
420.000	-16.758	0.101
420.100	-10.631	0.101
420.200	-28.670	0.101
420.300	-28.322	0.101
420.400	-25.051	0.101
420.500	-34.653	0.101
420.600	-19.669	0.101
420.700	-25.256	0.101
420.800	-14.116	0.101
420.900	-21.283	0.101
421.000	-23.817	0.101
421.100	-28.980	0.101
421.200	-18.273	0.101
421.300	-18.614	0.101
421.400	-18.308	0.101
421.500	-20.092	0.101
421.600	-16.729	0.101
421.700	-19.610	0.101
421.800	-11.117	0.101
421.900	-20.887	0.101
422.000	-25.161	0.101
422.100	-16.822	0.101
422.200	-19.464	0.101
422.300	-10.448	0.101
422.400	-21.362	0.101
422.500	-26.273	0.101
422.600	-23.347	0.101
422.700	-14.254	0.101
422.800	-20.468	0.101
422.900	-21.958	0.101
423.000	-22.240	0.101
423.100	-20.882	0.101
423.200	-23.469	0.101
423.300	-21.055	0.101
423.400	-24.885	0.101
423.500	-20.756	0.101
423.600	-16.035	0.101
423.700	-20.998	0.101
423.800	-17.708	0.101
423.900	-14.263	0.101
424.000	-30.626	0.101
424.100	-21.964	0.101
424.200	-21.999	0.101
424.300	-28.248	0.101
424.400	-21.258	0.101
424.500	-24.533	0.101
424.600	-20.089	0.101
424.700	-30.654	0.101
424.800	-14.889	0.101
424.900	-26.152	0.101
425.000	-20.273	0.101
425.100	-31.346	0.101
425.200	-16.860	0.101
425.300	-18.303	0.101
425.400	-18.880	0.101
425.500	-24.386	0.101
425.600	-21.877	0.101
425.700	-22.808	0.101
425.800	-20.747	0.101
425.900	-17.108	0.101
426.000	-15.456	0.101
426.100	-18.665	0.101
426.200	-20.090	0.101
426.300	-26.736	0.101
426.400	-19.030	0.101
426.500	-20.864	0.101
426.600	-29.991	0.101
426.700	-27.616	0.101
426.800	-12.843	0.101
426.900	-24.276	0.101
427.000	-24.510	0.101
427.100	-24.500	0.101
427.200	-28.257	0.101
427.300	-17.832	0.101
427.400	-22.733	0.101
427.500	-26.192	0.101
427.600	-34.866	0.101
427.700	-17.271	0.101
427.800	-27.663	0.101
427.900	-16.145	0.101
428.000	-22.778	0.101
428.100	-24.126	0.101
428.200	-19.831	0.101
428.300	-13.784	0.101
428.400	-15.550	0.101
428.500	-16.337	0.101
428.600	-6.863	0.101
428.700	-32.084	0.101
428.800	-30.517	0.101
428.900	-17.738	0.101
429.000	-16.100	0.101
429.100	0.110	0.101
429.200	-18.668	0.101
429.300	-22.854	0.101
429.400	-14.025	0.101
429.500	-28.271	0.101
429.600	-25.381	0.101
429.700	-29.446	0.101
429.800	-35.765	0.101
429.900	-20.290	0.101
430.000	-21.403	0.101
430.100	-28.519	0.101
430.200	-20.900	0.101
430.300	-18.427	0.101
430.400	-26.435	0.101
430.500	-17.647	0.101
430.600	-14.288	0.101
430.700	-26.503	0.101
430.800	-30.245	0.101
430.900	-24.046	0.101
431.000	-25.192	0.101
431.100	-17.238	0.101
431.200	-8.522	0.101
431.300	-23.249	0.101
431.400	-28.569	0.101
431.500	-22.922	0.101
431.600	-11.520	0.101
431.700	-25.556	0.101
431.800	-27.692	0.101
431.900	-22.149	0.101
432.000	-25.910	0.101
432.100	-27.625	0.101
432.200	-24.682	0.101
432.300	-15.871	0.101
432.400	-27.573	0.101
432.500	-25.925	0.101
432.600	-19.484	0.101
432.700	-15.990	0.101
432.800	-18.396	0.101
432.900	-20.305	0.101
433.000	-18.324	0.101
433.100	-24.623	0.101
433.200	-18.394	0.101
433.300	-19.397	0.101
433.400	-24.137	0.101
433.500	-22.508	0.101
433.600	-24.133	0.101
433.700	-12.879	0.101
433.800	-24.480	0.101
433.900	-36.947	0.101
434.000	-23.382	0.101
434.100	-22.059	0.101
434.200	-28.086	0.101
434.300	-16.514	0.101
434.400	-12.982	0.101
434.500	-25.418	0.101
434.600	-34.280	0.101
434.700	-23.301	0.101
434.800	-16.591	0.101
434.900	-15.128	0.101
435.000	-24.678	0.101
435.100	-30.393	0.101
435.200	-23.573	0.101
435.300	-13.609	0.101
435.400	-18.449	0.101
435.500	-24.085	0.101
435.600	-21.711	0.101
435.700	-22.168	0.101
435.800	-24.972	0.101
435.900	-20.561	0.101
436.000	-9.214	0.101
436.100	-20.983	0.101
436.200	-17.110	0.101
436.300	-19.248	0.101
436.400	-25.314	0.101
436.500	-23.702	0.101
436.600	-19.486	0.101
436.700	-24.606	0.101
436.800	-38.147	0.101
436.900	-16.119	0.101
437.000	-23.752	0.101
437.100	-29.170	0.101
437.200	-28.446	0.101
437.300	-23.894	0.101
437.400	-25.436	0.101
437.500	-20.301	0.101
437.600	-18.861	0.101
437.700	-14.558	0.101
437.800	-18.959	0.101
437.900	-14.881	0.101
438.000	-26.192	0.101
438.100	-25.052	0.101
438.200	-22.640	0.101
438.300	-23.489	0.101
438.400	-17.048	0.101
438.500	-16.714	0.101
438.600	-16.962	0.101
438.700	-28.874	0.101
438.800	-24.440	0.101
438.900	-19.631	0.101
439.000	-23.413	0.101
439.100	-28.590	0.101
439.200	-23.192	0.101
439.300	-22.712	0.101
439.400	-19.232	0.101
439.500	-17.967	0.101
439.600	-15.972	0.101
439.700	-21.777	0.101
439.800	-29.777	0.101
439.900	-24.212	0.101
440.000	-16.671	0.101
440.100	-23.262	0.101
440.200	-25.303	0.101
440.300	-21.502	0.101
440.400	-5.632	0.101
440.500	-29.934	0.101
440.600	-15.705	0.101
440.700	-33.027	0.101
440.800	-38.990	0.101
440.900	-30.339	0.101
441.000	-22.761	0.101
441.100	-14.260	0.101
441.200	-18.660	0.101
441.300	-21.794	0.101
441.400	-18.979	0.101
441.500	-13.205	0.101
441.600	-16.171	0.101
441.700	-19.197	0.101
441.800	-22.928	0.101
441.900	-38.015	0.101
442.000	-27.873	0.101
442.100	-25.072	0.101
442.200	-23.442	0.101
442.300	-23.938	0.101
442.400	-15.573	0.101
442.500	-18.833	0.101
442.600	-19.662	0.101
442.700	-25.497	0.101
442.800	-20.777	0.101
442.900	-8.663	0.101
443.000	-20.387	0.101
443.100	-18.770	0.101
443.200	-25.401	0.101
443.300	-8.596	0.101
443.400	-14.391	0.101
443.500	-15.136	0.101
443.600	-20.336	0.101
443.700	-23.939	0.101
443.800	-17.062	0.101
443.900	-14.094	0.101
444.000	-17.649	0.101
444.100	-11.715	0.101
444.200	-16.597	0.101
444.300	-22.057	0.101
444.400	-10.304	0.101
444.500	-19.885	0.101
444.600	-16.549	0.101
444.700	-17.545	0.101
444.800	-29.103	0.101
444.900	-14.141	0.101
445.000	-12.078	0.101
445.100	-17.681	0.101
445.200	-33.160	0.101
445.300	-17.624	0.101
445.400	-21.815	0.101
445.500	-22.351	0.101
445.600	-14.602	0.101
445.700	-22.048	0.101
445.800	-22.849	0.101
445.900	-18.511	0.101
446.000	-23.846	0.101
446.100	-18.866	0.101
446.200	-27.770	0.101
446.300	-14.898	0.101
446.400	-28.539	0.101
446.500	-18.854	0.101
446.600	-22.281	0.101
446.700	-19.531	0.101
446.800	-26.424	0.101
446.900	-19.986	0.101
447.000	-17.405	0.101
447.100	-12.175	0.101
447.200	-37.071	0.101
447.300	-11.312	0.101
447.400	-19.710	0.101
447.500	-24.444	0.101
447.600	-21.647	0.101
447.700	-11.764	0.101
447.800	-23.683	0.101
447.900	-19.011	0.101
448.000	-14.027	0.101
448.100	-19.963	0.101
448.200	-25.541	0.101
448.300	-14.106	0.101
448.400	-15.664	0.101
448.500	-17.882	0.101
448.600	-31.785	0.101
448.700	-23.180	0.101
448.800	-31.926	0.101
448.900	-24.559	0.101
449.000	-22.465	0.101
449.100	-30.458	0.101
449.200	-22.968	0.101
449.300	-16.725	0.101
449.400	-23.007	0.101
449.500	-16.260	0.101
449.600	-9.235	0.101
449.700	-15.889	0.101
449.800	-16.953	0.101
449.900	-7.659	0.101
450.000	-24.910	0.101
450.100	-20.232	0.101
450.200	-15.451	0.101
450.300	-16.825	0.101
450.400	-14.301	0.101
450.500	-20.124	0.101
450.600	-20.475	0.101
450.700	-30.333	0.101
450.800	-13.664	0.101
450.900	-24.045	0.101
451.000	-26.178	0.101
451.100	-22.227	0.101
451.200	-11.127	0.101
451.300	-22.383	0.101
451.400	-23.226	0.101
451.500	-25.169	0.101
451.600	-23.753	0.101
451.700	-31.479	0.101
451.800	-15.092	0.101
451.900	-3.524	0.101
452.000	-6.234	0.101
452.100	-21.603	0.101
452.200	-24.887	0.101
452.300	-26.800	0.101
452.400	-16.415	0.101
452.500	-28.245	0.101
452.600	-10.983	0.101
452.700	-11.956	0.101
452.800	-16.619	0.101
452.900	-26.234	0.101
453.000	-26.385	0.101
453.100	-23.712	0.101
453.200	-28.370	0.101
453.300	-14.419	0.101
453.400	-26.078	0.101
453.500	-22.457	0.101
453.600	-15.924	0.101
453.700	-18.587	0.101
453.800	-24.216	0.101
453.900	-16.643	0.101
454.000	-11.148	0.101
454.100	-11.056	0.101
454.200	-22.493	0.101
454.300	-31.343	0.101
454.400	-34.480	0.101
454.500	-12.757	0.101
454.600	-21.965	0.101
454.700	-21.729	0.101
454.800	-21.917	0.101
454.900	-17.793	0.101
455.000	-17.836	0.101
455.100	-14.802	0.101
455.200	-13.161	0.101
455.300	-18.308	0.101
455.400	-14.217	0.101
455.500	-8.821	0.101
455.600	-19.743	0.101
455.700	-13.581	0.101
455.800	-18.449	0.101
455.900	-17.766	0.101
456.000	-14.376	0.101
456.100	-26.926	0.101
456.200	-22.259	0.101
456.300	-24.706	0.101
456.400	-16.254	0.101
456.500	-25.111	0.101
456.600	-17.157	0.101
456.700	-21.545	0.101
456.800	-20.670	0.101
456.900	-17.401	0.101
457.000	-22.532	0.101
457.100	-10.631	0.101
457.200	-15.714	0.101
457.300	-17.923	0.101
457.400	-17.984	0.101
457.500	-26.459	0.101
457.600	-26.858	0.101
457.700	-13.858	0.101
457.800	-12.164	0.101
457.900	-13.953	0.101
458.000	-21.911	0.101
458.100	-25.242	0.101
458.200	-23.667	0.101
458.300	-30.470	0.101
458.400	-27.001	0.101
458.500	-12.727	0.101
458.600	-15.192	0.101
458.700	-18.922	0.101
458.800	-16.205	0.101
458.900	-22.444	0.101
459.000	-13.200	0.101
459.100	-22.048	0.101
459.200	-16.692	0.101
459.300	-11.980	0.101
459.400	-17.391	0.101
459.500	-10.240	0.101
459.600	-14.190	0.101
459.700	-13.952	0.101
459.800	-23.087	0.101
459.900	-13.462	0.101
460.000	-19.221	0.101
460.100	-16.956	0.101
460.200	-15.222	0.101
460.300	-28.554	0.101
460.400	-26.832	0.101
460.500	-13.607	0.101
460.600	-12.096	0.101
460.700	-8.240	0.101
460.800	-22.409	0.101
460.900	-10.235	0.101
461.000	-10.461	0.101
461.100	-25.102	0.101
461.200	-18.796	0.101
461.300	-21.810	0.101
461.400	-24.286	0.101
461.500	-15.196	0.101
461.600	-11.899	0.101
461.700	-15.602	0.101
461.800	-32.654	0.101
461.900	-31.994	0.101
462.000	-11.572	0.101
462.100	-15.318	0.101
462.200	-20.577	0.101
462.300	-28.148	0.101
462.400	-29.492	0.101
462.500	-16.595	0.101
462.600	-9.263	0.101
462.700	-13.722	0.101
462.800	-18.834	0.101
462.900	-22.084	0.101
463.000	-16.259	0.101
463.100	-13.503	0.101
463.200	-14.822	0.101
463.300	-16.226	0.101
463.400	-19.862	0.101
463.500	-16.266	0.101
463.600	-27.788	0.101
463.700	-14.248	0.101
463.800	-19.239	0.101
463.900	-23.229	0.101
464.000	-11.320	0.101
464.100	-23.361	0.101
464.200	-13.299	0.101
464.300	-15.980	0.101
464.400	-12.058	0.101
464.500	-19.628	0.101
464.600	-26.779	0.101
464.700	-11.231	0.101
464.800	-14.504	0.101
464.900	-9.188	0.101
465.000	-28.533	0.101
465.100	-17.082	0.101
465.200	-23.654	0.101
465.300	-19.475	0.101
465.400	-7.716	0.101
465.500	-19.036	0.101
465.600	-20.569	0.101
465.700	-26.221	0.101
465.800	-22.524	0.101
465.900	-20.295	0.101
466.000	-21.618	0.101
466.100	-16.381	0.101
466.200	-19.769	0.101
466.300	-14.309	0.101
466.400	-17.080	0.101
466.500	-23.507	0.101
466.600	-16.907	0.101
466.700	-9.951	0.101
466.800	-18.077	0.101
466.900	-17.026	0.101
467.000	-3.085	0.101
467.100	-30.665	0.101
467.200	-20.299	0.101
467.300	-9.114	0.101
467.400	-18.108	0.101
467.500	-12.859	0.101
467.600	-19.155	0.101
467.700	-26.276	0.101
467.800	-26.388	0.101
467.900	-18.914	0.101
468.000	-19.759	0.101
468.100	-14.206	0.101
468.200	-9.410	0.101
468.300	-8.042	0.101
468.400	-16.713	0.101
468.500	-21.090	0.101
468.600	-19.367	0.101
468.700	-16.989	0.101
468.800	-15.215	0.101
468.900	-17.343	0.101
469.000	-15.187	0.101
469.100	-18.937	0.101
469.200	-22.890	0.101
469.300	-11.338	0.101
469.400	-24.419	0.101
469.500	-16.060	0.101
469.600	-23.241	0.101
469.700	-24.135	0.101
469.800	-21.062	0.101
469.900	-24.640	0.101
470.000	-24.008	0.101
470.100	-21.858	0.101
470.200	-26.361	0.101
470.300	-2.064	0.100
470.400	-2.522	0.100
470.500	-22.270	0.101
470.600	-19.677	0.101
470.700	-15.648	0.101
470.800	-24.641	0.101
470.900	-14.949	0.101
471.000	-15.221	0.101
471.100	-5.305	0.100
471.200	-16.437	0.101
471.300	-14.716	0.101
471.400	-15.585	0.101
471.500	-12.302	0.101
471.600	-14.388	0.101
471.700	-15.226	0.101
471.800	-15.093	0.101
471.900	-19.410	0.101
472.000	-27.336	0.101
472.100	-10.197	0.100
472.200	-24.731	0.100
472.300	-7.941	0.100
472.400	-22.639	0.100
472.500	-10.860	0.101
472.600	-18.515	0.101
472.700	-25.768	0.100
472.800	-27.802	0.100
472.900	-17.422	0.100
473.000	-12.415	0.101
473.100	-4.951	0.100
473.200	-18.134	0.100
473.300	-20.775	0.100
473.400	-7.446	0.100
473.500	-15.386	0.100
473.600	-22.954	0.100
473.700	-25.124	0.100
473.800	-14.793	0.100
473.900	-17.436	0.100
474.000	-8.804	0.100
474.100	-16.930	0.100
474.200	-13.161	0.100
474.300	-18.244	0.100
474.400	-17.784	0.100
474.500	-25.993	0.100
474.600	-9.781	0.100
474.700	-14.407	0.100
474.800	-13.569	0.100
474.900	-9.703	0.100
475.000	-13.534	0.100
475.100	-13.879	0.100
475.200	-17.036	0.100
475.300	-15.498	0.100
475.400	-13.575	0.100
475.500	-11.557	0.100
475.600	-15.001	0.100
475.700	-12.525	0.100
475.800	-22.385	0.100
475.900	-17.493	0.100
476.000	-13.537	0.100
476.100	-16.863	0.100
476.200	-16.109	0.100
476.300	-16.371	0.100
476.400	-3.104	0.100
476.500	-20.899	0.100
476.600	-23.976	0.100
476.700	-18.824	0.100
476.800	-16.114	0.100
476.900	-14.464	0.100
477.000	-17.448	0.100
477.100	-23.521	0.100
477.200	-21.607	0.100
477.300	-20.706	0.100
477.400	-11.185	0.100
477.500	-6.263	0.100
477.600	-14.880	0.100
477.700	-29.270	0.100
477.800	-9.997	0.100
477.900	-15.126	0.100
478.000	-13.460	0.100
478.100	-17.835	0.100
478.200	-21.673	0.100
478.300	-16.359	0.100
478.400	-10.504	0.100
478.500	-16.557	0.100
478.600	-29.362	0.100
478.700	-22.766	0.100
478.800	-11.816	0.100
478.900	-17.008	0.100
479.000	-11.664	0.100
479.100	-16.922	0.100
479.200	-10.332	0.100
479.300	-15.221	0.100
479.400	-12.693	0.100
479.500	-15.141	0.100
479.600	-19.469	0.100
479.700	-21.448	0.100
479.800	-15.730	0.100
479.900	-24.479	0.100
480.000	-30.883	0.100
480.100	-20.595	0.100
480.200	-6.847	0.100
480.300	-10.926	0.100
480.400	-4.252	0.100
480.500	-11.175	0.100
480.600	-16.201	0.100
480.700	-6.831	0.100
480.800	-10.911	0.100
480.900	-4.931	0.100
481.000	0.545	0.100
481.100	0.602	0.100
481.200	5.444	0.100
481.300	-2.260	0.100
481.400	5.247	0.100
481.500	-4.609	0.100
481.600	1.397	0.100
481.700	-5.514	0.100
481.800	1.175	0.100
481.900	11.175	0.100
482.000	14.211	0.100
482.100	11.039	0.100
482.200	13.394	0.100
482.300	12.130	0.100
482.400	10.582	0.100
482.500	11.747	0.100
482.600	18.432	0.100
482.700	16.417	0.100
482.800	9.108	0.100
482.900	19.736	0.100
483.000	26.162	0.100
483.100	18.932	0.100
483.200	9.976	0.100
483.300	6.533	0.100
483.400	16.555	0.100
483.500	12.599	0.100
483.600	13.318	0.100
483.700	24.729	0.100
483.800	21.322	0.100
483.900	16.097	0.100
484.000	24.891	0.100
484.100	12.691	0.100
484.200	2.683	0.100
484.300	20.166	0.100
484.400	21.709	0.100
484.500	9.105	0.100
484.600	14.922	0.100
484.700	19.566	0.101
484.800	24.698	0.101
484.900	14.497	0.100
485.000	22.994	0.101
485.100	16.835	0.101
485.200	32.532	0.101
485.300	19.968	0.101
485.400	15.989	0.101
485.500	20.271	0.101
485.600	24.142	0.101
485.700	10.190	0.101
485.800	24.162	0.101
485.900	20.400	0.101
486.000	1.829	0.101
486.100	22.719	0.101
486.200	20.077	0.101
486.300	8.360	0.101
486.400	13.999	0.101
486.500	13.408	0.101
486.600	21.516	0.101
486.700	3.790	0.101
486.800	18.740	0.101
486.900	16.157	0.101
487.000	5.448	0.101
487.100	14.375	0.101
487.200	13.538	0.101
487.300	22.172	0.101
487.400	7.945	0.101
487.500	18.012	0.101
487.600	19.179	0.101
487.700	6.903	0.101
487.800	9.492	0.101
487.900	7.550	0.101
488.000	8.665	0.101
488.100	10.547	0.101
488.200	5.342	0.101
488.300	9.823	0.101
488.400	9.122	0.101
488.500	27.493	0.101
488.600	16.266	0.101
488.700	11.616	0.101
488.800	17.280	0.101
488.900	10.074	0.101
489.000	3.484	0.101
489.100	11.255	0.101
489.200	16.267	0.101
489.300	9.592	0.101
489.400	22.537	0.101
489.500	20.365	0.101
489.600	7.869	0.101
489.700	18.831	0.101
489.800	5.323	0.101
489.900	15.024	0.101
490.000	13.235	0.101
490.100	1.888	0.101
490.200	10.174	0.101
490.300	13.845	0.101
490.400	8.173	0.101
490.500	26.549	0.101
490.600	21.637	0.101
490.700	17.481	0.101
490.800	10.037	0.101
490.900	14.316	0.101
491.000	17.481	0.101
491.100	16.283	0.101
491.200	10.216	0.101
491.300	14.164	0.101
491.400	21.732	0.101
491.500	12.695	0.101
491.600	-0.443	0.101
491.700	5.737	0.101
491.800	2.342	0.101
491.900	7.801	0.101
492.000	3.499	0.101
492.100	16.353	0.101
492.200	7.548	0.101
492.300	13.420	0.101
492.400	21.113	0.101
492.500	16.792	0.101
492.600	15.816	0.101
492.700	14.283	0.101
492.800	16.816	0.101
492.900	17.417	0.101
493.000	10.452	0.101
493.100	14.084	0.101
493.200	8.374	0.101
493.300	16.801	0.101
493.400	15.909	0.101
493.500	6.417	0.101
493.600	10.333	0.101
493.700	11.853	0.101
493.800	20.908	0.101
493.900	19.259	0.101
494.000	16.697	0.101
494.100	13.822	0.101
494.200	22.017	0.101
494.300	23.041	0.101
494.400	7.717	0.101
494.500	23.796	0.101
494.600	13.493	0.101
494.700	-0.794	0.101
494.800	11.056	0.101
494.900	14.106	0.101
495.000	14.754	0.101
495.100	16.444	0.101
495.200	15.932	0.101
495.300	13.494	0.101
495.400	15.852	0.101
495.500	18.817	0.101
495.600	14.438	0.101
495.700	19.227	0.101
495.800	7.195	0.101
495.900	15.864	0.101
496.000	22.069	0.101
496.100	18.664	0.101
496.200	10.033	0.101
496.300	21.276	0.101
496.400	13.395	0.101
496.500	17.700	0.101
496.600	11.941	0.101
496.700	23.337	0.101
496.800	28.407	0.101
496.900	26.348	0.101
497.000	28.082	0.101
497.100	17.470	0.101
497.200	20.359	0.101
497.300	20.386	0.101
497.400	19.271	0.101
497.500	13.961	0.101
497.600	21.861	0.101
497.700	19.263	0.101
497.800	20.445	0.101
497.900	11.648	0.101
498.000	19.174	0.101
498.100	23.296	0.101
498.200	16.504	0.101
498.300	22.848	0.101
498.400	17.525	0.101
498.500	21.986	0.101
498.600	24.287	0.101
498.700	20.220	0.101
498.800	18.385	0.101
498.900	16.488	0.101
499.000	27.405	0.101
499.100	21.370	0.101
499.200	12.541	0.101
499.300	23.757	0.101
499.400	17.191	0.101
499.500	13.732	0.101
499.600	18.423	0.101
499.700	30.463	0.101
499.800	27.592	0.101
499.900	18.057	0.101
500.000	24.965	0.101
500.100	18.085	0.101
500.200	24.440	0.101
500.300	28.908	0.101
500.400	12.866	0.101
500.500	23.611	0.101
500.600	24.331	0.101
500.700	18.889	0.101
500.800	20.449	0.101
500.900	20.230	0.101
501.000	18.234	0.101
501.100	27.625	0.101
501.200	36.931	0.101
501.300	23.783	0.101
501.400	25.561	0.101
501.500	28.850	0.101
501.600	22.558	0.101
501.700	15.344	0.101
501.800	23.605	0.101
501.900	27.327	0.101
502.000	19.631	0.101
502.100	32.665	0.101
502.200	23.773	0.101
502.300	22.958	0.101
502.400	32.023	0.101
502.500	30.611	0.101
502.600	30.885	0.101
502.700	32.471	0.101
502.800	23.117	0.101
502.900	24.149	0.101
503.000	28.877	0.101
503.100	34.013	0.101
503.200	29.992	0.101
503.300	27.681	0.101
503.400	23.286	0.101
503.500	25.924	0.101
503.600	23.504	0.101
503.700	39.003	0.101
503.800	33.738	0.101
503.900	30.727	0.101
504.000	32.925	0.101
504.100	20.625	0.101
504.200	25.049	0.101
504.300	28.223	0.101
504.400	28.094	0.101
504.500	31.126	0.101
504.600	34.951	0.101
504.700	37.357	0.101
504.800	25.579	0.101
504.900	33.731	0.101
505.000	31.004	0.101
505.100	27.718	0.101
505.200	32.555	0.101
505.300	35.929	0.101
505.400	31.771	0.101
505.500	42.630	0.101
505.600	42.457	0.101
505.700	40.546	0.101
505.800	26.551	0.101
505.900	29.515	0.101
506.000	39.625	0.101
506.100	34.521	0.101
506.200	38.785	0.101
506.300	33.405	0.101
506.400	29.547	0.101
506.500	20.345	0.101
506.600	28.924	0.101
506.700	35.856	0.101
506.800	32.927	0.101
506.900	38.824	0.101
507.000	34.653	0.101
507.100	35.024	0.101
507.200	35.126	0.101
507.300	34.544	0.101
507.400	31.254	0.101
507.500	36.490	0.101
507.600	30.252	0.101
507.700	34.241	0.101
507.800	32.435	0.101
507.900	36.841	0.101
508.000	32.729	0.101
508.100	37.951	0.101
508.200	22.592	0.101
508.300	24.122	0.101
508.400	33.254	0.101
508.500	42.731	0.101
508.600	42.948	0.101
508.700	38.491	0.101
508.800	31.100	0.101
508.900	37.906	0.101
509.000	39.101	0.101
509.100	39.966	0.101
509.200	38.809	0.101
509.300	40.297	0.101
509.400	35.711	0.101
509.500	36.738	0.101
509.600	29.757	0.101
509.700	34.011	0.101
509.800	41.933	0.101
509.900	41.886	0.101
510.000	30.403	0.101
510.100	31.116	0.101
510.200	42.857	0.101
510.300	45.513	0.101
510.400	43.768	0.101
510.500	33.796	0.101
510.600	44.859	0.101
510.700	35.462	0.101
510.800	32.177	0.101
510.900	31.732	0.101
511.000	36.958	0.101
511.100	35.641	0.101
511.200	26.041	0.101
511.300	29.281	0.101
511.400	40.315	0.101
511.500	32.513	0.101
511.600	41.619	0.101
511.700	39.656	0.101
511.800	47.079	0.101
511.900	38.797	0.101
512.000	33.764	0.101
512.100	32.306	0.101
512.200	41.710	0.101
512.300	45.978	0.101
512.400	38.159	0.101
512.500	38.573	0.101
512.600	45.665	0.101
512.700	41.327	0.101
512.800	33.555	0.101
512.900	47.406	0.101
513.000	34.117	0.101
513.100	36.279	0.101
513.200	31.637	0.101
513.300	30.519	0.101
513.400	47.038	0.101
513.500	32.710	0.101
513.600	41.258	0.101
513.700	33.139	0.101
513.800	31.882	0.101
513.900	33.517	0.101
514.000	39.596	0.101
514.100	46.422	0.101
514.200	37.487	0.101
514.300	43.840	0.101
514.400	30.835	0.101
514.500	37.800	0.101
514.600	35.185	0.101
514.700	34.131	0.101
514.800	29.964	0.101
514.900	40.185	0.101
515.000	43.725	0.101
515.100	35.533	0.101
515.200	31.753	0.101
515.300	43.865	0.101
515.400	27.425	0.101
515.500	28.405	0.101
515.600	26.558	0.101
515.700	45.464	0.101
515.800	35.049	0.101
515.900	34.937	0.101
516.000	35.923	0.101
516.100	49.252	0.101
516.200	44.917	0.101
516.300	38.288	0.101
516.400	31.783	0.101
516.500	33.959	0.101
516.600	35.315	0.101
516.700	45.707	0.101
516.800	41.120	0.101
516.900	47.918	0.101
517.000	37.358	0.101
517.100	36.447	0.101
517.200	39.720	0.101
517.300	29.577	0.101
517.400	30.894	0.101
517.500	32.967	0.101
517.600	34.557	0.101
517.700	48.215	0.101
517.800	41.393	0.101
517.900	49.055	0.101
518.000	43.768	0.101
518.100	39.476	0.101
518.200	39.896	0.101
518.300	32.432	0.101
518.400	37.876	0.101
518.500	31.927	0.101
518.600	32.086	0.101
518.700	37.437	0.101
518.800	44.665	0.101
518.900	30.898	0.101
519.000	30.534	0.101
519.100	39.788	0.101
519.200	39.712	0.101
519.300	41.624	0.101
519.400	37.803	0.101
519.500	36.809	0.101
519.600	34.389	0.101
519.700	45.807	0.101
519.800	36.397	0.101
519.900	39.708	0.101
520.000	37.289	0.101
520.100	38.481	0.101
520.200	35.595	0.101
520.300	37.077	0.101
520.400	25.627	0.101
520.500	40.143	0.101
520.600	43.357	0.101
520.700	36.450	0.101
520.800	35.543	0.101
520.900	26.425	0.101
521.000	40.585	0.101
521.100	43.768	0.101
521.200	35.155	0.101
521.300	42.890	0.101
521.400	44.121	0.101
521.500	30.720	0.101
521.600	28.577	0.101
521.700	45.237	0.101
521.800	42.207	0.101
521.900	40.786	0.101
522.000	32.973	0.101
522.100	34.909	0.101
522.200	43.417	0.101
522.300	50.407	0.101
522.400	38.436	0.101
522.500	36.405	0.101
522.600	43.528	0.101
522.700	45.764	0.101
522.800	28.488	0.101
522.900	36.206	0.101
523.000	39.414	0.101
523.100	37.069	0.101
523.200	31.095	0.101
523.300	22.831	0.101
523.400	36.632	0.101
523.500	52.039	0.101
523.600	45.049	0.101
523.700	44.840	0.101
523.800	25.695	0.100
523.900	40.426	0.100
524.000	39.811	0.100
524.100	41.831	0.100
524.200	45.225	0.100
524.300	39.619	0.100
524.400	43.899	0.100
524.500	38.121	0.100
524.600	33.912	0.100
524.700	43.443	0.100
524.800	40.654	0.100
524.900	45.322	0.100
525.000	34.089	0.100
525.100	36.848	0.100
525.200	44.798	0.100
525.300	43.592	0.100
525.400	33.140	0.100
525.500	40.742	0.100
525.600	39.594	0.100
525.700	35.747	0.100
525.800	41.266	0.100
525.900	35.396	0.100
526.000	47.271	0.100
526.100	44.627	0.100
526.200	33.068	0.100
526.300	38.226	0.100
526.400	48.613	0.100
526.500	23.799	0.100
526.600	43.671	0.100
526.700	37.345	0.100
526.800	43.805	0.100
526.900	42.639	0.100
527.000	27.100	0.100
527.100	30.265	0.100
527.200	36.918	0.100
527.300	42.962	0.100
527.400	40.538	0.100
527.500	39.382	0.100
527.600	40.234	0.100
527.700	35.340	0.100
527.800	51.489	0.100
527.900	49.221	0.100
528.000	41.785	0.100
528.100	30.601	0.100
528.200	36.849	0.100
528.300	32.423	0.100
528.400	29.503	0.100
528.500	39.429	0.100
528.600	38.651	0.100
528.700	43.948	0.100
528.800	40.658	0.100
528.900	45.340	0.100
529.000	50.657	0.100
529.100	39.345	0.100
529.200	44.848	0.100
529.300	39.264	0.100
529.400	32.539	0.100
529.500	36.251	0.100
529.600	42.713	0.100
529.700	36.144	0.100
529.800	43.613	0.100
529.900	33.524	0.100
530.000	32.584	0.100
530.100	41.025	0.100
530.200	41.122	0.100
530.300	36.446	0.100
530.400	46.923	0.100
530.500	33.378	0.100
530.600	33.252	0.100
530.700	37.009	0.100
530.800	30.598	0.100
530.900	33.640	0.100
531.000	27.851	0.100
531.100	38.990	0.100
531.200	44.974	0.100
531.300	43.263	0.100
531.400	31.740	0.100
531.500	34.988	0.100
531.600	32.054	0.100
531.700	39.391	0.100
531.800	33.086	0.100
531.900	38.682	0.100
532.000	34.048	0.100
532.100	37.077	0.100
532.200	29.011	0.100
532.300	35.636	0.100
532.400	32.689	0.100
532.500	35.705	0.100
532.600	37.931	0.100
532.700	34.388	0.100
532.800	37.198	0.100
532.900	45.769	0.100
533.000	41.110	0.100
533.100	40.158	0.100
533.200	34.751	0.100
533.300	35.208	0.100
533.400	42.817	0.100
533.500	34.154	0.100
533.600	34.697	0.100
533.700	40.301	0.100
533.800	38.193	0.100
533.900	38.864	0.100
534.000	38.413	0.100
534.100	34.180	0.100
534.200	34.849	0.100
534.300	35.983	0.100
534.400	33.442	0.100
534.500	38.091	0.100
534.600	45.346	0.100
534.700	39.527	0.100
534.800	30.595	0.100
534.900	32.648	0.100
535.000	40.580	0.100
535.100	28.958	0.100
535.200	37.187	0.100
535.300	36.636	0.100
535.400	35.359	0.100
535.500	40.610	0.100
535.600	29.367	0.100
535.700	38.763	0.100
535.800	33.870	0.100
535.900	33.110	0.100
536.000	40.967	0.100
536.100	40.523	0.100
536.200	41.540	0.100
536.300	45.448	0.100
536.400	40.880	0.100
536.500	46.794	0.100
536.600	44.331	0.100
536.700	48.263	0.100
536.800	32.525	0.100
536.900	42.915	0.100
537.000	38.719	0.100
537.100	23.694	0.100
537.200	35.636	0.100
537.300	29.527	0.100
537.400	28.442	0.100
537.500	23.620	0.100
537.600	41.639	0.100
537.700	43.364	0.100
537.800	29.506	0.100
537.900	38.011	0.100
538.000	36.005	0.100
538.100	35.854	0.100
538.200	37.804	0.100
538.300	32.897	0.100
538.400	39.179	0.100
538.500	40.196	0.100
538.600	34.904	0.100
538.700	29.207	0.100
538.800	42.640	0.100
538.900	39.250	0.100
539.000	40.229	0.100
539.100	44.898	0.100
539.200	35.877	0.100
539.300	40.951	0.100
539.400	37.069	0.100
539.500	46.255	0.100
539.600	37.414	0.100
539.700	45.505	0.100
539.800	39.822	0.100
539.900	37.508	0.100
540.000	36.850	0.100
540.100	51.903	0.100
540.200	28.593	0.100
540.300	30.181	0.100
540.400	35.350	0.100
540.500	41.563	0.100
540.600	31.263	0.100
540.700	32.102	0.100
540.800	22.794	0.100
540.900	24.636	0.101
541.000	32.199	0.101
541.100	29.670	0.101
541.200	23.135	0.101
541.300	13.029	0.101
541.400	18.986	0.101
541.500	15.906	0.101
541.600	8.477	0.101
541.700	16.953	0.101
541.800	13.534	0.101
541.900	12.303	0.101
542.000	5.977	0.101
542.100	17.558	0.101
542.200	2.624	0.101
542.300	7.961	0.101
542.400	6.295	0.101
542.500	0.019	0.101
542.600	-1.777	0.101
542.700	-5.529	0.101
542.800	0.794	0.101
542.900	6.040	0.101
543.000	2.615	0.101
543.100	-5.151	0.101
543.200	-5.165	0.101
543.300	-3.094	0.101
543.400	-4.735	0.101
543.500	-15.503	0.101
543.600	0.281	0.101
543.700	4.695	0.101
543.800	-9.514	0.101
543.900	-7.213	0.101
544.000	-4.967	0.101
544.100	-10.980	0.101
544.200	-7.197	0.101
544.300	-13.502	0.101
544.400	-2.293	0.101
544.500	-12.751	0.101
544.600	7.179	0.101
544.700	0.050	0.101
544.800	-6.701	0.101
544.900	-3.353	0.101
545.000	-5.662	0.101
545.100	-3.476	0.101
545.200	-8.192	0.101
545.300	-5.846	0.101
545.400	-2.600	0.101
545.500	-1.926	0.101
545.600	-4.556	0.101
545.700	-10.335	0.101
545.800	0.942	0.101
545.900	-7.604	0.101
546.000	-2.786	0.101
546.100	-12.965	0.101
546.200	-20.005	0.101
546.300	-2.880	0.101
546.400	-4.621	0.101
546.500	-1.944	0.101
546.600	-3.769	0.101
546.700	-2.544	0.101
546.800	-6.346	0.101
546.900	-12.633	0.101
547.000	-8.543	0.101
547.100	-7.849	0.101
547.200	-1.367	0.101
547.300	-1.865	0.101
547.400	-4.323	0.101
547.500	-1.994	0.101
547.600	-8.344	0.101
547.700	-5.878	0.101
547.800	-13.066	0.101
547.900	-1.723	0.101
548.000	1.501	0.101
548.100	-12.166	0.101
548.200	-10.531	0.101
548.300	0.424	0.101
548.400	-2.866	0.101
548.500	-0.768	0.101
548.600	-9.113	0.101
548.700	-13.780	0.101
548.800	-14.488	0.101
548.900	-7.684	0.101
549.000	-17.383	0.101
549.100	-5.965	0.101
549.200	-9.479	0.101
549.300	-7.710	0.101
549.400	-0.643	0.101
549.500	-9.456	0.101
549.600	-8.982	0.101
549.700	-6.384	0.101
549.800	-13.106	0.101
549.900	-8.833	0.101
550.000	-3.317	0.101
550.100	-5.621	0.101
550.200	-10.262	0.101
550.300	-3.525	0.101
550.400	-5.645	0.101
550.500	-14.702	0.101
550.600	-13.460	0.101
550.700	-14.648	0.101
550.800	-12.902	0.101
550.900	-3.966	0.101
551.000	0.623	0.101
551.100	-9.140	0.101
551.200	-6.057	0.101
551.300	-10.379	0.101
551.400	-17.375	0.101
551.500	-2.706	0.101
551.600	-5.745	0.101
551.700	-10.597	0.101
551.800	-9.495	0.101
551.900	-6.365	0.101
552.000	-4.366	0.101
552.100	-3.908	0.101
552.200	-2.765	0.101
552.300	-8.076	0.101
552.400	-3.026	0.101
552.500	-14.373	0.101
552.600	-2.955	0.101
552.700	-20.535	0.101
552.800	-19.269	0.101
552.900	-7.222	0.101
553.000	-14.972	0.101
553.100	-15.088	0.101
553.200	-12.794	0.101
553.300	-6.561	0.101
553.400	-12.028	0.101
553.500	-14.524	0.101
553.600	-17.251	0.101
553.700	-14.518	0.101
553.800	-6.149	0.101
553.900	-8.522	0.101
554.000	-14.059	0.101
554.100	-9.871	0.101
554.200	-9.351	0.101
554.300	-9.763	0.101
554.400	-17.150	0.101
554.500	-5.039	0.101
554.600	-20.635	0.101
554.700	-9.872	0.101
554.800	-21.104	0.101
554.900	-9.534	0.101
555.000	-10.831	0.101
555.100	-3.145	0.101
555.200	-10.449	0.101
555.300	-13.647	0.101
555.400	-15.732	0.101
555.500	-13.756	0.101
555.600	-20.340	0.101
555.700	-13.694	0.101
555.800	-9.224	0.101
555.900	-21.984	0.101
556.000	-17.167	0.101
556.100	-13.346	0.101
556.200	-13.260	0.101
556.300	-11.158	0.101
556.400	-6.403	0.101
556.500	-11.301	0.101
556.600	-17.176	0.101
556.700	-9.524	0.101
556.800	-14.638	0.101
556.900	-1.956	0.101
557.000	-11.105	0.101
557.100	-25.464	0.101
557.200	-25.807	0.101
557.300	-22.507	0.101
557.400	-26.816	0.101
557.500	-10.284	0.101
557.600	-16.618	0.101
557.700	-6.209	0.101
557.800	-8.271	0.101
557.900	-17.703	0.101
558.000	-16.679	0.101
558.100	-8.490	0.101
558.200	-3.984	0.101
558.300	-14.813	0.101
558.400	-16.143	0.101
558.500	-19.229	0.101
558.600	-18.057	0.101
558.700	-21.864	0.101
558.800	-12.699	0.101
558.900	-12.157	0.101
559.000	-26.224	0.101
559.100	-14.461	0.101
559.200	-12.867	0.101
559.300	-16.923	0.101
559.400	-19.599	0.101
559.500	-17.146	0.101
559.600	-22.035	0.101
559.700	-20.550	0.101
559.800	-19.038	0.101
559.900	-1.476	0.101
560.000	-10.530	0.101
560.100	-21.571	0.101
560.200	-17.289	0.101
560.300	-23.355	0.101
560.400	-18.977	0.101
560.500	-19.981	0.101
560.600	-17.839	0.101
560.700	-4.015	0.101
560.800	-18.531	0.101
560.900	-20.961	0.101
561.000	-21.116	0.101
561.100	-25.335	0.101
561.200	-12.799	0.101
561.300	-15.516	0.101
561.400	-13.091	0.101
561.500	-12.331	0.101
561.600	-24.638	0.101
561.700	-29.309	0.101
561.800	-19.941	0.101
561.900	-14.854	0.101
562.000	-9.105	0.101
562.100	-15.781	0.101
562.200	-14.893	0.101
562.300	-14.985	0.101
562.400	-9.018	0.101
562.500	-28.757	0.101
562.600	-28.993	0.101
562.700	-26.861	0.101
562.800	-22.086	0.101
562.900	-19.708	0.101
563.000	-17.537	0.101
563.100	-4.049	0.101
563.200	-5.118	0.101
563.300	-15.186	0.101
563.400	-18.404	0.101
563.500	-28.466	0.101
563.600	-19.578	0.101
563.700	-23.126	0.101
563.800	-27.501	0.101
563.900	-16.086	0.101
564.000	-10.351	0.101
564.100	-8.602	0.101
564.200	-10.104	0.101
564.300	-25.540	0.101
564.400	-32.435	0.101
564.500	-23.555	0.101
564.600	5.418	0.101
564.700	-15.292	0.101
564.800	-25.303	0.101
564.900	-23.696	0.101
565.000	-25.760	0.101
565.100	-22.103	0.101
565.200	-24.199	0.101
565.300	-28.011	0.101
565.400	-10.174	0.101
565.500	-20.930	0.101
565.600	-16.783	0.101
565.700	-9.309	0.101
565.800	-34.008	0.101
565.900	-23.339	0.101
566.000	-25.642	0.101
566.100	-6.982	0.101
566.200	-24.471	0.101
566.300	-11.459	0.101
566.400	-25.012	0.101
566.500	-27.101	0.101
566.600	-26.472	0.101
566.700	-12.114	0.101
566.800	-15.331	0.101
566.900	-19.319	0.101
567.000	-11.571	0.101
567.100	-12.581	0.101
567.200	-22.358	0.101
567.300	-28.802	0.101
567.400	-21.538	0.101
567.500	-14.725	0.101
567.600	-16.481	0.101
567.700	-9.766	0.101
567.800	-22.550	0.101
567.900	-24.452	0.101
568.000	-22.563	0.101
568.100	-15.969	0.101
568.200	-11.422	0.101
568.300	-17.033	0.101
568.400	-16.306	0.101
568.500	-34.327	0.101
568.600	-20.817	0.101
568.700	-16.454	0.101
568.800	-14.334	0.101
568.900	-16.990	0.101
569.000	-25.874	0.101
569.100	-22.148	0.101
569.200	-25.028	0.101
569.300	-30.032	0.101
569.400	-17.869	0.101
569.500	-11.983	0.101
569.600	-19.864	0.101
569.700	-19.534	0.101
569.800	-22.478	0.101
569.900	-27.200	0.101
570.000	-21.137	0.101
570.100	-17.746	0.101
570.200	-25.446	0.101
570.300	-8.334	0.101
570.400	-15.735	0.101
570.500	-27.286	0.101
570.600	-22.489	0.101
570.700	-29.738	0.101
570.800	-19.194	0.101
570.900	-23.717	0.101
571.000	-28.340	0.101
571.100	-22.025	0.101
571.200	-23.165	0.101
571.300	-12.195	0.101
571.400	-20.649	0.101
571.500	-32.878	0.101
571.600	-19.450	0.101
571.700	-25.799	0.101
571.800	-19.548	0.101
571.900	-22.982	0.101
572.000	-23.218	0.101
572.100	-15.046	0.101
572.200	-17.735	0.101
572.300	-30.084	0.101
572.400	-24.099	0.101
572.500	-28.495	0.101
572.600	-25.198	0.101
572.700	-26.530	0.101
572.800	-19.906	0.101
572.900	-24.645	0.101
573.000	-29.314	0.101
573.100	-21.548	0.101
573.200	-21.310	0.101
573.300	-16.353	0.101
573.400	-16.901	0.101
573.500	-19.731	0.101
573.600	-32.131	0.101
573.700	-14.909	0.101
573.800	-22.934	0.101
573.900	-17.515	0.101
574.000	-25.821	0.101
574.100	-19.426	0.101
574.200	-15.816	0.101
574.300	-28.216	0.101
574.400	-27.535	0.101
574.500	-31.066	0.101
574.600	-23.676	0.101
574.700	-20.521	0.101
574.800	-29.990	0.101
574.900	-21.417	0.101
575.000	-28.047	0.101
575.100	-26.585	0.101
575.200	-24.392	0.101
575.300	-19.628	0.101
575.400	-26.242	0.101
575.500	-24.224	0.101
575.600	-26.720	0.101
575.700	-14.840	0.101
575.800	-17.311	0.101
575.900	-21.579	0.101
576.000	-28.598	0.101
576.100	-27.594	0.101
576.200	-31.566	0.101
576.300	-22.537	0.101
576.400	-17.332	0.101
576.500	-13.406	0.101
576.600	-18.001	0.101
576.700	-30.825	0.101
576.800	-24.503	0.101
576.900	-8.416	0.101
577.000	-22.449	0.101
577.100	-18.228	0.101
577.200	-23.846	0.101
577.300	-30.344	0.101
577.400	-25.618	0.101
577.500	-23.940	0.101
577.600	-20.376	0.101
577.700	-27.048	0.101
577.800	-19.298	0.101
577.900	-33.249	0.101
578.000	-25.535	0.101
578.100	-19.153	0.101
578.200	-20.353	0.101
578.300	-18.276	0.101
578.400	-25.195	0.101
578.500	-23.325	0.101
578.600	-27.372	0.101
578.700	-21.696	0.101
578.800	-17.693	0.101
578.900	-15.523	0.101
579.000	-37.629	0.101
579.100	-32.657	0.101
579.200	-27.185	0.101
579.300	-21.440	0.101
579.400	-23.009	0.101
579.500	-16.236	0.101
579.600	-29.071	0.101
579.700	-27.656	0.101
579.800	-23.633	0.101
579.900	-13.448	0.101
580.000	-24.886	0.101
580.100	-19.588	0.101
580.200	-13.331	0.101
580.300	-26.321	0.101
580.400	-22.225	0.101
580.500	-23.686	0.101
580.600	-19.889	0.101
580.700	-20.433	0.101
580.800	-28.231	0.101
580.900	-19.485	0.101
581.000	-23.171	0.101
581.100	-24.442	0.101
581.200	-22.228	0.101
581.300	-22.908	0.101
581.400	-24.944	0.101
581.500	-15.498	0.101
581.600	-30.021	0.101
581.700	-24.522	0.101
581.800	-30.691	0.101
581.900	-32.535	0.101
582.000	-19.861	0.101
582.100	-26.013	0.101
582.200	-13.657	0.101
582.300	-23.253	0.101
582.400	-24.753	0.101
582.500	-25.023	0.101
582.600	-14.022	0.101
582.700	-19.621	0.101
582.800	-17.854	0.101
582.900	-18.059	0.101
583.000	-24.347	0.101
583.100	-33.914	0.101
583.200	-19.851	0.101
583.300	-27.296	0.101
583.400	-15.997	0.101
583.500	-19.982	0.101
583.600	-21.972	0.101
583.700	-25.532	0.101
583.800	-24.014	0.101
583.900	-26.955	0.101
584.000	-15.666	0.101
584.100	-29.292	0.101
584.200	-26.527	0.101
584.300	-18.831	0.101
584.400	-18.900	0.101
584.500	-8.142	0.101
584.600	-21.987	0.101
584.700	-18.838	0.101
584.800	-22.591	0.101
584.900	-27.700	0.101
585.000	-16.277	0.101
585.100	-21.427	0.101
585.200	-16.779	0.101
585.300	-18.931	0.101
585.400	-18.928	0.101
585.500	-37.534	0.101
585.600	-16.828	0.101
585.700	-24.647	0.101
585.800	-11.649	0.101
585.900	-25.773	0.101
586.000	-24.541	0.101
586.100	-22.756	0.101
586.200	-18.633	0.101
586.300	-21.265	0.101
586.400	-19.468	0.101
586.500	-29.069	0.101
586.600	-20.556	0.101
586.700	-19.942	0.101
586.800	-25.226	0.101
586.900	-26.065	0.101
587.000	-22.722	0.101
587.100	-21.307	0.101
587.200	-19.359	0.101
587.300	-20.279	0.101
587.400	-21.793	0.101
587.500	-15.695	0.101
587.600	-18.984	0.101
587.700	-18.236	0.101
587.800	-11.230	0.101
587.900	-26.147	0.101
588.000	-24.724	0.101
588.100	-24.487	0.101
588.200	-19.816	0.101
588.300	-16.146	0.101
588.400	-10.006	0.101
588.500	-17.075	0.101
588.600	-25.235	0.101
588.700	-27.629	0.101
588.800	-29.124	0.101
588.900	-26.424	0.101
589.000	-20.838	0.101
589.100	-20.359	0.101
589.200	-28.418	0.101
589.300	-29.620	0.101
589.400	-28.890	0.101
589.500	-12.670	0.101
589.600	-20.799	0.101
589.700	-33.025	0.101
589.800	-34.259	0.101
589.900	-25.199	0.101
590.000	-31.239	0.101
590.100	-17.367	0.101
590.200	-25.003	0.101
590.300	-26.749	0.101
590.400	-20.241	0.101
590.500	-18.467	0.101
590.600	-26.012	0.101
590.700	-19.656	0.101
590.800	-20.468	0.101
590.900	-29.248	0.101
591.000	-17.098	0.101
591.100	-14.577	0.101
591.200	-23.302	0.101
591.300	-39.678	0.101
591.400	-17.181	0.101
591.500	-14.015	0.101
591.600	-17.723	0.101
591.700	-20.881	0.101
591.800	-20.791	0.101
591.900	-26.467	0.101
592.000	-29.643	0.101
592.100	-18.602	0.101
592.200	-16.725	0.101
592.300	-11.860	0.101
592.400	-20.507	0.101
592.500	-27.284	0.101
592.600	-19.101	0.101
592.700	-30.206	0.101
592.800	-24.740	0.101
592.900	-21.460	0.101
593.000	-32.554	0.101
593.100	-27.304	0.101
593.200	-20.877	0.101
593.300	-8.710	0.101
593.400	-22.801	0.101
593.500	-12.643	0.101
593.600	-19.523	0.101
593.700	-16.078	0.101
593.800	-9.527	0.101
593.900	-16.369	0.101
594.000	-16.912	0.101
594.100	-33.798	0.101
594.200	-35.043	0.101
594.300	-27.126	0.101
594.400	-15.756	0.101
594.500	-22.692	0.101
594.600	-20.262	0.101
594.700	-19.435	0.101
594.800	-17.686	0.101
594.900	-17.691	0.101
595.000	-25.865	0.101
595.100	-18.974	0.101
595.200	-19.584	0.101
595.300	-20.834	0.101
595.400	-26.961	0.101
595.500	-17.284	0.101
595.600	-12.380	0.101
595.700	-24.913	0.101
595.800	-21.822	0.101
595.900	-31.413	0.101
596.000	-27.072	0.101
596.100	-19.891	0.101
596.200	-17.252	0.101
596.300	-21.742	0.101
596.400	-23.733	0.101
596.500	-26.369	0.101
596.600	-19.366	0.101
596.700	-13.090	0.101
596.800	-15.743	0.101
596.900	-25.274	0.101
597.000	-22.135	0.101
597.100	-27.720	0.101
597.200	-24.817	0.101
597.300	-12.317	0.101
597.400	-10.643	0.101
597.500	-20.558	0.101
597.600	-22.717	0.101
597.700	-11.254	0.101
597.800	-18.809	0.101
597.900	-16.344	0.101
598.000	-29.651	0.101
598.100	-17.226	0.101
598.200	-9.300	0.101
598.300	-17.490	0.101
598.400	-20.900	0.101
598.500	-27.330	0.101
598.600	-15.927	0.101
598.700	-18.239	0.101
598.800	-18.776	0.101
598.900	-18.215	0.101
599.000	-29.576	0.101
599.100	-18.813	0.101
599.200	-12.254	0.101
599.300	-24.994	0.101
599.400	-23.452	0.101
599.500	-30.206	0.101
599.600	-28.913	0.101
599.700	-18.931	0.101
599.800	-15.702	0.101
599.900	-23.992	0.101
600.000	-17.638	0.101
600.100	-10.328	0.101
600.200	-13.678	0.101
600.300	-20.007	0.101
600.400	-25.474	0.101
600.500	-14.660	0.101
600.600	-23.650	0.101
600.700	-19.360	0.101
600.800	-19.585	0.101
600.900	-19.917	0.101
601.000	-28.684	0.101
601.100	-20.929	0.101
601.200	-17.997	0.101
601.300	-22.810	0.101
601.400	-23.769	0.101
601.500	-17.657	0.101
601.600	-24.844	0.101
601.700	-21.550	0.101
601.800	-30.305	0.101
601.900	-15.198	0.101
602.000	-16.872	0.101
602.100	-9.315	0.101
602.200	-19.801	0.101
602.300	-21.071	0.101
602.400	-19.604	0.101
602.500	-21.153	0.101
602.600	-17.452	0.101
602.700	-14.390	0.101
602.800	-19.586	0.101
602.900	-19.708	0.101
603.000	-24.586	0.101
603.100	-24.855	0.101
603.200	-11.324	0.101
603.300	-26.508	0.101
603.400	-24.359	0.101
603.500	-13.134	0.101
603.600	-19.976	0.101
603.700	-25.792	0.101
603.800	-28.056	0.101
603.900	-21.408	0.101
604.000	-13.995	0.101
604.100	-17.196	0.101
604.200	-24.653	0.101
604.300	-14.611	0.101
604.400	-14.541	0.101
604.500	-18.361	0.101
604.600	-20.514	0.101
604.700	-22.968	0.101
604.800	-23.109	0.101
604.900	-24.816	0.101
605.000	-23.208	0.101
605.100	-13.776	0.101
605.200	-26.855	0.101
605.300	-21.231	0.101
605.400	-29.821	0.101
605.500	-16.475	0.101
605.600	-14.596	0.101
605.700	-7.106	0.101
605.800	-20.947	0.101
605.900	-16.373	0.101
606.000	-18.073	0.101
606.100	-10.185	0.101
606.200	-31.316	0.101
606.300	-20.277	0.101
606.400	-28.602	0.101
606.500	-27.327	0.101
606.600	-12.767	0.101
606.700	-18.753	0.101
606.800	-2.362	0.101
606.900	-12.888	0.101
607.000	-21.202	0.101
607.100	-22.086	0.101
607.200	-31.921	0.101
607.300	-16.891	0.101
607.400	-17.651	0.101
607.500	-28.048	0.101
607.600	-22.684	0.101
607.700	-14.934	0.101
607.800	-21.689	0.101
607.900	-21.780	0.101
608.000	-17.459	0.101
608.100	-22.533	0.101
608.200	-16.446	0.101
608.300	-17.282	0.101
608.400	-18.503	0.101
608.500	-17.284	0.101
608.600	-20.764	0.101
608.700	-18.886	0.101
608.800	-15.373	0.101
608.900	-23.291	0.101
609.000	-29.805	0.101
609.100	-22.562	0.101
609.200	-21.180	0.101
609.300	-6.205	0.101
609.400	-10.655	0.101
609.500	-20.438	0.101
609.600	-22.208	0.101
609.700	-29.573	0.101
609.800	-27.766	0.101
609.900	-14.970	0.101
610.000	-23.423	0.101
610.100	-26.522	0.101
610.200	-15.203	0.101
610.300	-26.133	0.101
610.400	-17.422	0.101
610.500	-21.071	0.101
610.600	-19.006	0.101
610.700	-17.197	0.101
610.800	-23.938	0.101
610.900	-17.970	0.101
611.000	-16.072	0.101
611.100	-11.302	0.101
611.200	-13.129	0.101
611.300	-10.511	0.101
611.400	-13.703	0.101
611.500	-25.115	0.101
611.600	-15.712	0.101
611.700	-9.659	0.101
611.800	-29.095	0.101
611.900	-3.601	0.101
612.000	-18.970	0.101
612.100	-21.737	0.101
612.200	-23.795	0.101
612.300	-21.042	0.101
612.400	-11.895	0.101
612.500	-19.414	0.101
612.600	-21.223	0.101
612.700	-14.537	0.101
612.800	-29.364	0.101
612.900	-14.690	0.101
613.000	-12.923	0.101
613.100	-8.666	0.101
613.200	-27.488	0.101
613.300	-25.176	0.101
613.400	-25.839	0.101
613.500	-13.819	0.101
613.600	-20.250	0.101
613.700	-14.560	0.101
613.800	-7.831	0.101
613.900	-24.019	0.101
614.000	-23.962	0.101
614.100	-20.112	0.101
614.200	-20.517	0.101
614.300	-14.914	0.101
614.400	-22.343	0.101
614.500	-30.193	0.101
614.600	-17.501	0.101
614.700	-17.121	0.101
614.800	-22.990	0.101
614.900	-23.927	0.101
615.000	-18.410	0.101
615.100	-16.966	0.101
615.200	-14.803	0.101
615.300	-23.709	0.101
615.400	-25.960	0.101
615.500	-6.432	0.101
615.600	-14.882	0.101
615.700	-23.462	0.101
615.800	-18.977	0.101
615.900	-8.001	0.101
616.000	-23.437	0.101
616.100	-16.698	0.101
616.200	-17.969	0.101
616.300	-22.160	0.101
616.400	-27.417	0.101
616.500	-13.635	0.101
616.600	-27.748	0.101
616.700	-17.260	0.101
616.800	-18.150	0.101
616.900	-21.329	0.101
617.000	-23.281	0.101
617.100	-10.625	0.101
617.200	-15.103	0.101
617.300	-16.426	0.101
617.400	-21.504	0.101
617.500	-11.460	0.101
617.600	-21.851	0.101
617.700	-16.272	0.101
617.800	-20.994	0.101
617.900	-17.304	0.101
618.000	-14.722	0.101
618.100	-18.170	0.101
618.200	-24.006	0.101
618.300	-18.891	0.101
618.400	-17.500	0.101
618.500	-28.561	0.101
618.600	-22.828	0.101
618.700	-7.160	0.101
618.800	-14.002	0.101
618.900	-25.457	0.101
619.000	-22.134	0.101
619.100	-21.441	0.101
619.200	-15.703	0.101
619.300	-19.283	0.101
619.400	-11.006	0.101
619.500	-21.102	0.101
619.600	-21.014	0.101
619.700	-16.568	0.101
619.800	-13.258	0.101
619.900	-20.034	0.101
620.000	-13.117	0.101
620.100	-16.870	0.101
620.200	-13.361	0.101
620.300	-25.227	0.101
620.400	-13.819	0.101
620.500	-12.619	0.101
620.600	-11.679	0.101
620.700	-26.152	0.101
620.800	-21.912	0.101
620.900	-22.243	0.101
621.000	-10.220	0.101
621.100	-19.362	0.101
621.200	-25.740	0.101
621.300	-17.555	0.101
621.400	-18.825	0.101
621.500	-10.365	0.101
621.600	-20.394	0.101
621.700	-19.266	0.101
621.800	-11.490	0.101
621.900	-14.237	0.101
622.000	-15.873	0.101
622.100	-19.874	0.101
622.200	-22.506	0.101
622.300	-22.321	0.101
622.400	-34.456	0.101
622.500	-30.389	0.101
622.600	-16.738	0.101
622.700	-20.299	0.101
622.800	-10.626	0.101
622.900	-10.058	0.101
623.000	-18.162	0.101
623.100	-19.673	0.101
623.200	-20.239	0.101
623.300	-19.063	0.101
623.400	-22.428	0.101
623.500	-9.452	0.101
623.600	-3.014	0.101
623.700	-14.822	0.101
623.800	-28.752	0.101
623.900	-24.859	0.101
624.000	-12.851	0.101
624.100	-10.098	0.101
624.200	-13.425	0.101
624.300	-14.394	0.101
624.400	-30.475	0.101
624.500	-28.498	0.101
624.600	-11.295	0.101
624.700	-20.874	0.101
624.800	-24.376	0.101
624.900	-20.110	0.101
625.000	-15.866	0.101
625.100	-24.582	0.101
625.200	-15.470	0.101
625.300	-8.963	0.101
625.400	-16.788	0.101
625.500	-21.943	0.101
625.600	-8.580	0.101
625.700	-5.777	0.101
625.800	-21.934	0.101
625.900	-15.450	0.101
626.000	-14.044	0.101
626.100	-14.713	0.101
626.200	-20.360	0.101
626.300	-8.991	0.101
626.400	-10.344	0.101
626.500	-15.779	0.101
626.600	-18.207	0.101
626.700	-25.481	0.101
626.800	-18.207	0.101
626.900	-23.899	0.101
627.000	-19.488	0.101
627.100	-15.765	0.101
627.200	-11.822	0.101
627.300	-26.195	0.101
627.400	-14.727	0.101
627.500	-22.063	0.101
627.600	-9.088	0.101
627.700	-13.762	0.101
627.800	-18.724	0.101
627.900	-11.156	0.101
628.000	-16.973	0.101
628.100	-8.160	0.101
628.200	-18.471	0.101
628.300	-23.739	0.101
628.400	-26.361	0.101
628.500	-21.752	0.101
628.600	-23.340	0.101
628.700	-20.253	0.101
628.800	-14.242	0.101
628.900	-21.752	0.101
629.000	-12.741	0.101
629.100	-14.878	0.101
629.200	-23.449	0.101
629.300	-13.937	0.101
629.400	-23.264	0.101
629.500	-21.512	0.101
629.600	-24.522	0.101
629.700	-11.674	0.101
629.800	-7.365	0.101
629.900	-12.102	0.101
630.000	-25.451	0.101
630.100	-13.978	0.101
630.200	-11.826	0.101
630.300	-21.427	0.101
630.400	-14.513	0.101
630.500	-6.956	0.101
630.600	-15.833	0.101
630.700	-14.947	0.101
630.800	-18.866	0.101
630.900	-4.121	0.101
631.000	-5.643	0.101
631.100	-0.906	0.101
631.200	-4.624	0.101
631.300	-1.133	0.101
631.400	-8.675	0.101
631.500	-7.137	0.101
631.600	16.605	0.101
631.700	10.451	0.101
631.800	14.014	0.101
631.900	12.219	0.101
632.000	17.221	0.101
632.100	11.377	0.101
632.200	2.598	0.101
632.300	16.017	0.101
632.400	15.509	0.101
632.500	11.084	0.101
632.600	7.149	0.101
632.700	15.661	0.101
632.800	9.465	0.101
632.900	10.394	0.101
633.000	12.341	0.101
633.100	11.148	0.101
633.200	18.176	0.101
633.300	24.771	0.101
633.400	24.775	0.101
633.500	21.470	0.101
633.600	12.609	0.101
633.700	17.915	0.101
633.800	10.163	0.101
633.900	17.943	0.101
634.000	24.230	0.101
634.100	24.927	0.101
634.200	8.026	0.101
634.300	19.235	0.101
634.400	27.905	0.101
634.500	17.881	0.101
634.600	14.629	0.101
634.700	16.618	0.101
634.800	25.127	0.101
634.900	14.032	0.101
635.000	10.379	0.101
635.100	21.186	0.101
635.200	19.645	0.101
635.300	17.999	0.101
635.400	21.182	0.101
635.500	14.975	0.101
635.600	15.063	0.101
635.700	17.209	0.101
635.800	12.788	0.101
635.900	24.853	0.101
636.000	15.457	0.101
636.100	21.548	0.101
636.200	19.569	0.101
636.300	0.283	0.101
636.400	23.106	0.101
636.500	17.204	0.101
636.600	4.643	0.101
636.700	15.322	0.101
636.800	17.979	0.101
636.900	16.239	0.101
637.000	2.738	0.101
637.100	1.115	0.101
637.200	13.471	0.101
637.300	12.737	0.101
637.400	6.640	0.101
637.500	1.243	0.101
637.600	8.574	0.101
637.700	16.024	0.101
637.800	14.872	0.101
637.900	21.551	0.101
638.000	17.763	0.101
638.100	-1.250	0.101
638.200	4.521	0.101
638.300	18.263	0.101
638.400	18.405	0.101
638.500	19.623	0.101
638.600	10.695	0.101
638.700	12.847	0.101
638.800	12.361	0.101
638.900	5.884	0.101
639.000	6.049	0.101
639.100	14.040	0.101
639.200	9.055	0.101
639.300	22.172	0.101
639.400	11.180	0.101
639.500	18.162	0.101
639.600	16.818	0.101
639.700	6.186	0.101
639.800	16.057	0.101
639.900	6.755	0.101
640.000	13.872	0.101
640.100	22.759	0.101
640.200	6.671	0.101
640.300	20.984	0.101
640.400	15.797	0.101
640.500	19.695	0.101
640.600	1.868	0.101
640.700	11.671	0.101
640.800	19.571	0.101
640.900	20.514	0.101
641.000	13.545	0.101
641.100	11.628	0.101
641.200	8.750	0.101
641.300	7.001	0.101
641.400	7.388	0.101
641.500	19.219	0.101
641.600	-4.547	0.101
641.700	15.935	0.101
641.800	16.878	0.101
641.900	20.701	0.101
642.000	6.465	0.101
642.100	5.474	0.101
642.200	15.245	0.101
642.300	8.626	0.101
642.400	15.305	0.101
642.500	18.739	0.101
642.600	11.070	0.101
642.700	18.588	0.101
642.800	23.130	0.101
642.900	10.600	0.101
643.000	15.438	0.101
643.100	14.161	0.101
643.200	18.052	0.101
643.300	17.704	0.101
643.400	16.907	0.101
643.500	18.821	0.101
643.600	16.472	0.101
643.700	6.520	0.101
643.800	9.553	0.101
643.900	11.279	0.101
644.000	10.114	0.101
644.100	8.958	0.101
644.200	19.245	0.101
644.300	17.389	0.101
644.400	12.160	0.101
644.500	14.195	0.101
644.600	7.178	0.101
644.700	15.901	0.101
644.800	24.514	0.101
644.900	13.246	0.101
645.000	13.690	0.101
645.100	19.143	0.101
645.200	17.613	0.101
645.300	7.670	0.101
645.400	22.234	0.101
645.500	4.057	0.101
645.600	11.099	0.101
645.700	11.850	0.101
645.800	28.611	0.101
645.900	22.079	0.101
646.000	16.158	0.101
646.100	16.891	0.101
646.200	18.951	0.101
646.300	9.327	0.101
646.400	15.256	0.101
646.500	13.330	0.101
646.600	17.083	0.101
646.700	17.978	0.101
646.800	18.575	0.101
646.900	21.966	0.101
647.000	24.636	0.101
647.100	11.755	0.101
647.200	23.578	0.101
647.300	26.935	0.101
647.400	22.819	0.101
647.500	19.884	0.101
647.600	23.531	0.101
647.700	24.554	0.101
647.800	24.689	0.101
647.900	12.363	0.101
648.000	14.763	0.101
648.100	14.698	0.101
648.200	23.221	0.101
648.300	15.447	0.101
648.400	23.240	0.101
648.500	25.324	0.101
648.600	19.484	0.101
648.700	17.535	0.101
648.800	17.501	0.101
648.900	21.817	0.101
649.000	22.940	0.101
649.100	14.626	0.101
649.200	26.990	0.101
649.300	20.852	0.101
649.400	26.891	0.101
649.500	11.263	0.101
649.600	15.567	0.101
649.700	24.727	0.101
649.800	29.792	0.101
649.900	22.941	0.101
650.000	21.137	0.101
650.100	21.703	0.101
650.200	27.913	0.101
650.300	24.245	0.101
650.400	20.820	0.101
650.500	18.719	0.101
650.600	22.552	0.101
650.700	13.339	0.101
650.800	27.534	0.101
650.900	17.653	0.101
651.000	42.261	0.101
651.100	30.404	0.101
651.200	36.815	0.101
651.300	28.402	0.101
651.400	20.543	0.101
651.500	28.260	0.101
651.600	16.692	0.101
651.700	26.695	0.101
651.800	21.659	0.101
651.900	29.636	0.101
652.000	21.771	0.101
652.100	27.692	0.101
652.200	28.778	0.101
652.300	32.911	0.101
652.400	25.514	0.101
652.500	20.701	0.101
652.600	20.396	0.101
652.700	27.915	0.101
652.800	30.257	0.101
652.900	29.226	0.101
653.000	24.663	0.101
653.100	31.967	0.101
653.200	37.009	0.101
653.300	20.499	0.101
653.400	25.511	0.101
653.500	30.536	0.101
653.600	33.113	0.101
653.700	26.137	0.101
653.800	22.335	0.101
653.900	39.803	0.101
654.000	27.516	0.101
654.100	37.514	0.101
654.200	38.640	0.101
654.300	34.973	0.101
654.400	25.725	0.101
654.500	24.493	0.101
654.600	33.995	0.101
654.700	45.543	0.101
654.800	40.477	0.101
654.900	33.353	0.101
655.000	36.372	0.101
655.100	33.819	0.101
655.200	27.107	0.101
655.300	32.036	0.101
655.400	30.116	0.101
655.500	28.254	0.101
655.600	29.087	0.101
655.700	29.247	0.101
655.800	14.750	0.101
655.900	30.527	0.101
656.000	39.631	0.101
656.100	35.397	0.101
656.200	32.603	0.101
656.300	33.039	0.101
656.400	32.291	0.101
656.500	40.261	0.101
656.600	44.562	0.101
656.700	36.578	0.101
656.800	26.447	0.101
656.900	31.969	0.101
657.000	33.718	0.101
657.100	26.013	0.101
657.200	46.916	0.101
657.300	42.083	0.101
657.400	28.859	0.101
657.500	31.341	0.101
657.600	36.884	0.101
657.700	25.433	0.101
657.800	35.881	0.101
657.900	37.820	0.101
658.000	37.713	0.101
658.100	39.257	0.101
658.200	40.503	0.101
658.300	38.478	0.101
658.400	31.836	0.101
658.500	29.352	0.101
658.600	42.245	0.101
658.700	26.480	0.101
658.800	33.374	0.101
658.900	40.282	0.101
659.000	31.610	0.101
659.100	22.413	0.101
659.200	42.606	0.101
659.300	37.647	0.101
659.400	31.998	0.101
659.500	38.403	0.101
659.600	52.747	0.101
659.700	38.454	0.101
659.800	29.176	0.101
659.900	34.550	0.101
660.000	27.250	0.101
660.100	36.964	0.101
660.200	41.049	0.101
660.300	30.023	0.101
660.400	34.445	0.101
660.500	29.614	0.101
660.600	32.267	0.101
660.700	36.460	0.101
660.800	44.088	0.101
660.900	49.719	0.101
661.000	37.958	0.101
661.100	36.593	0.101
661.200	41.796	0.101
661.300	28.386	0.101
661.400	34.981	0.101
661.500	25.522	0.101
661.600	21.758	0.101
661.700	26.498	0.101
661.800	38.614	0.101
661.900	28.815	0.101
662.000	36.044	0.101
662.100	41.920	0.101
662.200	41.683	0.101
662.300	39.489	0.101
662.400	41.679	0.101
662.500	26.401	0.101
662.600	31.344	0.101
662.700	40.201	0.101
662.800	46.205	0.101
662.900	34.784	0.101
663.000	42.814	0.101
663.100	34.314	0.101
663.200	26.207	0.101
663.300	45.977	0.101
663.400	47.322	0.101
663.500	34.487	0.101
663.600	40.586	0.101
663.700	32.585	0.101
663.800	38.567	0.101
663.900	37.834	0.101
664.000	37.909	0.101
664.100	40.906	0.101
664.200	32.919	0.101
664.300	29.684	0.101
664.400	42.292	0.101
664.500	40.155	0.101
664.600	49.054	0.101
664.700	49.834	0.101
664.800	33.516	0.101
664.900	35.299	0.101
665.000	40.072	0.101
665.100	35.394	0.101
665.200	42.422	0.101
665.300	38.394	0.101
665.400	39.625	0.101
665.500	44.967	0.101
665.600	44.814	0.101
665.700	36.422	0.101
665.800	40.271	0.101
665.900	33.990	0.101
666.000	39.265	0.101
666.100	35.857	0.101
666.200	29.020	0.101
666.300	39.496	0.101
666.400	40.341	0.101
666.500	35.510	0.101
666.600	40.557	0.101
666.700	36.355	0.101
666.800	34.920	0.101
666.900	46.383	0.101
667.000	48.555	0.101
667.100	42.383	0.101
667.200	35.823	0.101
667.300	29.561	0.101
667.400	41.194	0.101
667.500	41.157	0.101
667.600	43.975	0.101
667.700	39.120	0.101
667.800	43.080	0.101
667.900	31.349	0.101
668.000	40.787	0.101
668.100	25.895	0.101
668.200	34.490	0.101
668.300	38.213	0.101
668.400	40.130	0.101
668.500	31.309	0.101
668.600	34.940	0.101
668.700	36.352	0.101
668.800	38.537	0.101
668.900	51.576	0.101
669.000	31.543	0.101
669.100	35.227	0.101
669.200	38.543	0.101
669.300	39.035	0.101
669.400	33.702	0.101
669.500	42.698	0.101
669.600	47.992	0.101
669.700	44.456	0.101
669.800	44.603	0.101
669.900	44.962	0.101
670.000	43.412	0.101
670.100	36.326	0.101
670.200	42.694	0.101
670.300	38.967	0.101
670.400	38.130	0.101
670.500	34.551	0.101
670.600	36.095	0.101
670.700	46.741	0.101
670.800	38.024	0.101
670.900	27.558	0.101
671.000	33.934	0.101
671.100	37.096	0.101
671.200	31.858	0.101
671.300	38.118	0.101
671.400	46.649	0.101
671.500	39.742	0.101
671.600	41.481	0.101
671.700	37.989	0.101
671.800	44.795	0.101
671.900	34.266	0.101
672.000	40.961	0.101
672.100	36.569	0.101
672.200	40.387	0.101
672.300	37.424	0.101
672.400	38.809	0.101
672.500	37.544	0.101
672.600	26.767	0.101
672.700	39.486	0.101
672.800	33.224	0.101
672.900	42.350	0.101
673.000	41.416	0.101
673.100	38.966	0.101
673.200	31.658	0.101
673.300	37.267	0.101
673.400	43.097	0.101
673.500	41.839	0.101
673.600	44.199	0.101
673.700	36.074	0.101
673.800	36.323	0.101
673.900	40.756	0.101
674.000	37.526	0.101
674.100	37.860	0.101
674.200	36.783	0.101
674.300	33.251	0.101
674.400	31.513	0.101
674.500	46.328	0.101
674.600	47.025	0.101
674.700	49.521	0.101
674.800	45.346	0.101
674.900	25.619	0.101
675.000	36.152	0.101
675.100	41.425	0.101
675.200	35.845	0.101
675.300	46.987	0.101
675.400	46.799	0.101
675.500	36.059	0.101
675.600	38.885	0.101
675.700	40.672	0.101
675.800	38.617	0.101
675.900	40.875	0.101
676.000	33.071	0.101
676.100	31.635	0.101
676.200	38.315	0.101
676.300	24.448	0.101
676.400	40.293	0.101
676.500	50.368	0.101
676.600	35.421	0.101
676.700	28.943	0.101
676.800	31.483	0.101
676.900	40.955	0.101
677.000	39.759	0.101
677.100	44.193	0.101
677.200	45.069	0.101
677.300	40.197	0.101
677.400	33.422	0.101
677.500	38.598	0.101
677.600	48.615	0.101
677.700	48.901	0.101
677.800	42.737	0.101
677.900	39.937	0.101
678.000	40.633	0.101
678.100	37.828	0.101
678.200	45.300	0.101
678.300	24.477	0.101
678.400	28.997	0.101
678.500	47.402	0.101
678.600	40.014	0.101
678.700	42.700	0.101
678.800	39.124	0.101
678.900	36.283	0.101
679.000	34.118	0.101
679.100	43.775	0.101
679.200	39.252	0.101
679.300	39.174	0.101
679.400	40.513	0.101
679.500	46.438	0.101
679.600	42.608	0.101
679.700	40.584	0.101
679.800	38.567	0.101
679.900	34.730	0.101
680.000	28.295	0.101
680.100	41.995	0.101
680.200	35.029	0.101
680.300	35.271	0.101
680.400	50.343	0.101
680.500	43.625	0.101
680.600	35.521	0.101
680.700	36.705	0.101
680.800	38.844	0.101
680.900	38.121	0.101
681.000	36.545	0.101
681.100	36.893	0.101
681.200	40.213	0.101
681.300	41.474	0.101
681.400	42.273	0.101
681.500	39.105	0.101
681.600	37.772	0.101
681.700	41.224	0.101
681.800	44.204	0.101
681.900	31.777	0.101
682.000	27.237	0.101
682.100	47.462	0.101
682.200	39.944	0.101
682.300	36.913	0.101
682.400	40.291	0.101
682.500	42.389	0.101
682.600	33.744	0.101
682.700	35.990	0.101
682.800	31.287	0.101
682.900	36.442	0.101
683.000	42.346	0.101
683.100	37.029	0.101
683.200	36.051	0.101
683.300	34.067	0.101
683.400	38.436	0.101
683.500	29.606	0.101
683.600	43.146	0.101
683.700	42.266	0.101
683.800	42.556	0.101
683.900	40.958	0.101
684.000	33.578	0.101
684.100	44.135	0.101
684.200	33.002	0.101
684.300	39.933	0.101
684.400	37.693	0.101
684.500	33.642	0.101
684.600	44.846	0.101
684.700	42.708	0.101
684.800	34.678	0.101
684.900	31.316	0.101
685.000	42.846	0.101
685.100	36.268	0.101
685.200	33.531	0.101
685.300	31.921	0.101
685.400	42.836	0.101
685.500	37.927	0.101
685.600	32.908	0.101
685.700	35.729	0.101
685.800	43.060	0.101
685.900	34.796	0.101
686.000	41.896	0.101
686.100	40.501	0.101
686.200	38.475	0.101
686.300	32.932	0.101
686.400	43.176	0.101
686.500	43.848	0.101
686.600	30.463	0.101
686.700	34.419	0.101
686.800	41.931	0.101
686.900	42.033	0.101
687.000	43.943	0.101
687.100	42.354	0.101
687.200	46.670	0.101
687.300	33.306	0.101
687.400	42.621	0.101
687.500	37.697	0.101
687.600	33.560	0.101
687.700	40.383	0.101
687.800	36.158	0.101
687.900	44.811	0.101
688.000	31.040	0.101
688.100	30.866	0.101
688.200	37.691	0.101
688.300	40.542	0.101
688.400	38.115	0.101
688.500	31.799	0.101
688.600	39.137	0.101
688.700	32.286	0.101
688.800	37.877	0.101
688.900	36.749	0.101
689.000	40.218	0.101
689.100	31.628	0.101
689.200	31.079	0.101
689.300	30.290	0.101
689.400	40.934	0.101
689.500	35.292	0.101
689.600	43.869	0.101
689.700	36.240	0.101
689.800	30.219	0.101
689.900	45.679	0.101
690.000	39.036	0.101
690.100	36.049	0.101
690.200	39.296	0.101
690.300	35.346	0.101
690.400	38.093	0.101
690.500	33.776	0.101
690.600	36.446	0.101
690.700	32.393	0.101
690.800	33.178	0.101
690.900	33.587	0.101
691.000	21.591	0.101
691.100	16.579	0.101
691.200	28.509	0.101
691.300	15.003	0.101
691.400	20.346	0.101
691.500	21.457	0.101
691.600	9.059	0.101
691.700	22.590	0.101
691.800	12.819	0.101
691.900	5.862	0.101
692.000	0.798	0.101
692.100	20.845	0.101
692.200	16.881	0.101
692.300	6.235	0.101
692.400	3.487	0.101
692.500	8.069	0.101
692.600	-2.115	0.101
692.700	9.017	0.101
692.800	4.321	0.101
692.900	-3.252	0.101
693.000	-5.865	0.101
693.100	3.463	0.101
693.200	-5.865	0.101
693.300	0.951	0.101
693.400	1.050	0.101
693.500	-6.895	0.101
693.600	-5.412	0.101
693.700	-10.831	0.101
693.800	-2.687	0.101
693.900	-6.354	0.101
694.000	5.407	0.101
694.100	2.461	0.101
694.200	-1.011	0.101
694.300	-13.774	0.101
694.400	-7.326	0.101
694.500	1.293	0.101
694.600	-12.050	0.101
694.700	0.663	0.101
694.800	-12.817	0.101
694.900	-10.549	0.101
695.000	-15.817	0.101
695.100	-12.512	0.101
695.200	-11.569	0.101
695.300	-4.429	0.101
695.400	-0.181	0.101
695.500	-3.124	0.101
695.600	-2.737	0.101
695.700	-9.033	0.101
695.800	-12.148	0.101
695.900	-8.318	0.101
696.000	-12.057	0.101
696.100	-6.126	0.101
696.200	5.058	0.101
696.300	10.084	0.101
696.400	5.397	0.101
696.500	-13.492	0.101
696.600	-9.148	0.101
696.700	-14.755	0.101
696.800	-2.156	0.101
696.900	-13.193	0.101
697.000	-17.732	0.101
697.100	-0.229	0.101
697.200	-1.993	0.101
697.300	-18.294	0.101
697.400	-9.036	0.101
697.500	-0.545	0.101
697.600	-14.478	0.101
697.700	10.074	0.101
697.800	-9.884	0.101
697.900	-12.298	0.101
698.000	-7.815	0.101
698.100	-8.656	0.101
698.200	-16.461	0.101
698.300	-11.609	0.101
698.400	-0.788	0.101
698.500	-9.667	0.101
698.600	-10.671	0.101
698.700	-3.355	0.101
698.800	-14.653	0.101
698.900	-12.786	0.101
699.000	-1.479	0.101
699.100	-4.656	0.101
699.200	-5.375	0.101
699.300	-6.969	0.101
699.400	-6.424	0.101
699.500	-3.059	0.101
699.600	-7.392	0.101
699.700	-10.090	0.101
699.800	-8.553	0.101
699.900	-10.182	0.101
700.000	-3.447	0.101
700.100	-18.454	0.101
700.200	-18.602	0.101
700.300	-12.584	0.101
700.400	-12.294	0.101
700.500	-8.710	0.101
700.600	-7.917	0.101
700.700	-4.980	0.101
700.800	-9.363	0.101
700.900	-10.105	0.101
701.000	-8.714	0.101
701.100	-22.267	0.101
701.200	-2.428	0.101
701.300	-0.977	0.101
701.400	-15.920	0.101
701.500	-7.858	0.101
701.600	-10.520	0.101
701.700	-9.081	0.101
701.800	-15.987	0.101
701.900	-7.624	0.101
702.000	-7.123	0.101
702.100	-19.222	0.101
702.200	-9.392	0.101
702.300	-7.251	0.101
702.400	-8.716	0.101
702.500	-11.601	0.101
702.600	-8.718	0.101
702.700	-4.416	0.101
702.800	-15.835	0.101
702.900	-8.713	0.101
703.000	-8.206	0.101
703.100	0.539	0.101
703.200	-4.537	0.101
703.300	-22.228	0.101
703.400	-6.253	0.101
703.500	-6.548	0.101
703.600	-11.802	0.101
703.700	-13.510	0.101
703.800	-22.019	0.101
703.900	-15.130	0.101
704.000	-15.597	0.101
704.100	-21.903	0.101
704.200	-17.516	0.101
704.300	-7.403	0.101
704.400	-8.518	0.101
704.500	-6.027	0.101
704.600	-0.965	0.101
704.700	-1.695	0.101
704.800	-22.952	0.101
704.900	-26.970	0.101
705.000	-16.454	0.101
705.100	-14.300	0.101
705.200	-14.036	0.101
705.300	-20.302	0.101
705.400	-11.512	0.101
705.500	-1.899	0.101
705.600	-12.313	0.101
705.700	-16.109	0.101
705.800	-11.006	0.101
705.900	-5.016	0.101
706.000	-11.727	0.101
706.100	-12.912	0.101
706.200	-6.300	0.101
706.300	-11.338	0.101
706.400	-27.166	0.101
706.500	-17.709	0.101
706.600	-7.675	0.101
706.700	-13.339	0.101
706.800	-6.118	0.101
706.900	-18.066	0.101
707.000	-17.963	0.101
707.100	-16.292	0.101
707.200	-17.530	0.101
707.300	-5.722	0.101
707.400	-14.897	0.101
707.500	-18.181	0.101
707.600	-11.819	0.101
707.700	-16.358	0.101
707.800	-11.842	0.101
707.900	-3.508	0.101
708.000	-27.716	0.101
708.100	-26.236	0.101
708.200	-14.198	0.101
708.300	-17.878	0.101
708.400	-17.056	0.101
708.500	-13.505	0.101
708.600	-14.594	0.101
708.700	-4.692	0.101
708.800	-11.758	0.101
708.900	-14.964	0.101
709.000	-9.218	0.101
709.100	-7.384	0.101
709.200	-5.883	0.101
709.300	-14.579	0.101
709.400	-12.596	0.101
709.500	-25.970	0.101
709.600	-19.343	0.101
709.700	-11.488	0.101
709.800	-17.413	0.101
709.900	-18.956	0.101
710.000	-25.985	0.101
710.100	-16.737	0.101
710.200	-9.375	0.101
710.300	-21.953	0.101
710.400	-15.467	0.101
710.500	-18.527	0.101
710.600	-12.732	0.101
710.700	-14.448	0.101
710.800	-15.251	0.101
710.900	-27.953	0.101
711.000	-17.197	0.101
711.100	-14.987	0.101
711.200	-21.446	0.101
711.300	-10.054	0.101
711.400	-7.660	0.101
711.500	-18.284	0.101
711.600	-13.943	0.101
711.700	-18.103	0.101
711.800	-23.345	0.101
711.900	-19.429	0.101
712.000	-14.762	0.101
712.100	-14.473	0.101
712.200	-21.059	0.101
712.300	-20.803	0.101
712.400	-29.754	0.101
712.500	-24.965	0.101
712.600	-16.113	0.101
712.700	-26.349	0.101
712.800	-15.860	0.101
712.900	-14.227	0.101
713.000	-13.027	0.101
713.100	-10.132	0.101
713.200	-11.928	0.101
713.300	-22.972	0.101
713.400	-25.225	0.101
713.500	-16.748	0.101
713.600	-22.915	0.101
713.700	-23.844	0.101
713.800	-13.117	0.101
713.900	-18.586	0.101
714.000	-17.932	0.101
714.100	-11.857	0.101
714.200	-26.758	0.101
714.300	-7.817	0.101
714.400	-8.467	0.101
714.500	-18.563	0.101
714.600	-30.858	0.101
714.700	-24.655	0.101
714.800	-16.116	0.101
714.900	-6.307	0.101
715.000	-12.964	0.101
715.100	-14.054	0.101
715.200	-29.684	0.101
715.300	-29.462	0.101
715.400	-13.201	0.101
715.500	-20.979	0.101
715.600	-23.690	0.101
715.700	-26.426	0.101
715.800	-24.226	0.101
715.900	-23.937	0.101
716.000	-20.586	0.101
716.100	-7.237	0.101
716.200	-21.333	0.101
716.300	-21.262	0.101
716.400	-16.131	0.101
716.500	-22.141	0.101
716.600	-30.461	0.101
716.700	-21.528	0.101
716.800	-19.391	0.101
716.900	-17.605	0.101
717.000	-15.852	0.101
717.100	-8.942	0.101
717.200	-19.570	0.101
717.300	-16.395	0.101
717.400	-30.867	0.101
717.500	-26.779	0.101
717.600	-30.023	0.101
717.700	-18.101	0.101
717.800	-17.161	0.101
717.900	-26.346	0.101
718.000	-33.101	0.101
718.100	-20.690	0.101
718.200	-13.066	0.101
718.300	-20.827	0.101
718.400	-18.470	0.101
718.500	-20.942	0.101
718.600	-24.964	0.101
718.700	-15.622	0.101
718.800	-18.395	0.101
718.900	-22.141	0.101
719.000	-24.703	0.101
719.100	-25.606	0.101
719.200	-24.051	0.101
719.300	-24.289	0.101
719.400	-27.294	0.101
719.500	-11.500	0.101
719.600	-20.317	0.101
719.700	-31.205	0.101
719.800	-19.656	0.101
719.900	-29.423	0.101
720.000	-18.996	0.101
720.100	-23.765	0.101
720.200	-21.773	0.101
720.300	-39.847	0.101
720.400	-20.240	0.101
720.500	-23.992	0.101
720.600	-11.112	0.101
720.700	-14.463	0.101
720.800	-27.689	0.101
720.900	-18.758	0.101
721.000	-27.823	0.101
721.100	-16.291	0.101
721.200	-14.523	0.101
721.300	-23.001	0.101
721.400	-26.287	0.101
721.500	-9.385	0.101
721.600	-24.695	0.101
721.700	-23.500	0.101
721.800	-26.205	0.101
721.900	-35.368	0.101
722.000	-25.714	0.101
722.100	-21.201	0.101
722.200	-15.701	0.101
722.300	-15.216	0.101
722.400	-19.137	0.101
722.500	-30.834	0.101
722.600	-21.412	0.101
722.700	-28.471	0.101
722.800	-26.450	0.101
722.900	-31.354	0.101
723.000	-19.623	0.101
723.100	-15.315	0.101
723.200	-13.390	0.101
723.300	-23.654	0.101
723.400	-13.927	0.101
723.500	-22.985	0.101
723.600	-27.496	0.101
723.700	-28.940	0.101
723.800	-38.609	0.101
723.900	-25.294	0.101
724.000	-26.261	0.101
724.100	-18.443	0.101
724.200	-20.848	0.101
724.300	-17.884	0.101
724.400	-19.579	0.101
724.500	-29.503	0.101
724.600	-22.453	0.101
724.700	-26.934	0.101
724.800	-16.898	0.101
724.900	-16.826	0.101
725.000	-28.896	0.101
725.100	-25.207	0.101
725.200	-15.343	0.101
725.300	-22.319	0.101
725.400	-30.120	0.101
725.500	-23.793	0.101
725.600	-28.588	0.101
725.700	-30.144	0.101
725.800	-26.040	0.101
725.900	-18.975	0.101
726.000	-29.966	0.101
726.100	-19.333	0.101
726.200	-27.638	0.101
726.300	-21.848	0.101
726.400	-20.455	0.101
726.500	-24.483	0.101
726.600	-15.470	0.101
726.700	-21.679	0.101
726.800	-22.873	0.101
726.900	-20.555	0.101
727.000	-22.675	0.101
727.100	-31.517	0.101
727.200	-20.316	0.101
727.300	-24.203	0.101
727.400	-30.967	0.101
727.500	-23.775	0.101
727.600	-18.242	0.101
727.700	-21.642	0.101
727.800	-23.886	0.101
727.900	-22.581	0.101
728.000	-24.884	0.101
728.100	-20.881	0.101
728.200	-21.565	0.101
728.300	-23.316	0.101
728.400	-34.122	0.101
728.500	-28.712	0.101
728.600	-33.485	0.101
728.700	-26.785	0.101
728.800	-30.140	0.101
728.900	-33.539	0.101
729.000	-27.003	0.101
729.100	-18.764	0.101
729.200	-10.374	0.101
729.300	-18.432	0.101
729.400	-21.580	0.101
729.500	-25.450	0.101
729.600	-16.454	0.101
729.700	-18.489	0.101
729.800	-27.596	0.101
729.900	-20.807	0.101
730.000	-15.670	0.101
730.100	-19.394	0.101
730.200	-36.190	0.101
730.300	-27.647	0.101
730.400	-24.976	0.101
730.500	-25.015	0.101
730.600	-25.709	0.101
730.700	-30.233	0.101
730.800	-28.338	0.101
730.900	-20.348	0.101
731.000	-30.091	0.101
731.100	-22.080	0.101
731.200	-28.317	0.101
731.300	-24.396	0.101
731.400	-25.935	0.101
731.500	-27.561	0.101
731.600	-27.852	0.101
731.700	-28.101	0.101
731.800	-29.898	0.101
731.900	-27.138	0.101
732.000	-23.308	0.101
732.100	-20.077	0.101
732.200	-29.883	0.101
732.300	-24.003	0.101
732.400	-25.555	0.101
732.500	-20.274	0.101
732.600	-20.039	0.101
732.700	-22.379	0.101
732.800	-25.311	0.101
732.900	-17.547	0.101
733.000	-20.576	0.101
733.100	-24.747	0.101
733.200	-19.203	0.101
733.300	-12.216	0.101
733.400	-25.823	0.101
733.500	-23.934	0.101
733.600	-21.896	0.101
733.700	-23.927	0.101
733.800	-36.807	0.101
733.900	-30.635	0.101
734.000	-23.938	0.101
734.100	-21.193	0.101
734.200	-24.647	0.101
734.300	-16.196	0.101
734.400	-20.169	0.101
734.500	-14.738	0.101
734.600	-15.767	0.101
734.700	-14.616	0.101
734.800	-21.406	0.101
734.900	-22.853	0.101
735.000	-26.919	0.101
735.100	-23.865	0.101
735.200	-29.660	0.101
735.300	-24.250	0.101
735.400	-16.355	0.101
735.500	-15.892	0.101
735.600	-21.062	0.101
735.700	-30.883	0.101
735.800	-21.269	0.101
735.900	-32.035	0.101
736.000	-22.599	0.101
736.100	-18.674	0.101
736.200	-25.555	0.101
736.300	-19.863	0.101
736.400	-20.109	0.101
736.500	-22.138	0.101
736.600	-17.598	0.101
736.700	-22.558	0.101
736.800	-23.842	0.101
736.900	-24.733	0.101
737.000	-20.619	0.101
737.100	-20.299	0.101
737.200	-26.775	0.101
737.300	-16.544	0.101
737.400	-26.272	0.101
737.500	-27.954	0.101
737.600	-24.794	0.101
737.700	-16.361	0.101
737.800	-24.934	0.101
737.900	-28.570	0.101
738.000	-28.616	0.101
738.100	-29.796	0.101
738.200	-19.366	0.101
738.300	-33.057	0.101
738.400	-16.977	0.101
738.500	-30.844	0.101
738.600	-17.597	0.101
738.700	-27.358	0.101
738.800	-21.782	0.101
738.900	-26.866	0.101
739.000	-31.748	0.101
739.100	-33.474	0.101
739.200	-16.051	0.101
739.300	-13.515	0.101
739.400	-18.667	0.101
739.500	-29.457	0.101
739.600	-21.456	0.101
739.700	-20.220	0.101
739.800	-15.950	0.101
739.900	-16.780	0.101
740.000	-32.085	0.101
740.100	-28.334	0.101
740.200	-22.920	0.101
740.300	-19.594	0.101
740.400	-26.936	0.101
740.500	-19.834	0.101
740.600	-15.611	0.101
740.700	-25.293	0.101
740.800	-32.073	0.101
740.900	-23.038	0.101
741.000	-25.887	0.101
741.100	-12.469	0.101
741.200	-20.499	0.101
741.300	-16.657	0.101
741.400	-24.098	0.101
741.500	-30.294	0.101
741.600	-18.388	0.101
741.700	-18.203	0.101
741.800	-24.373	0.101
741.900	-28.034	0.101
742.000	-19.058	0.101
742.100	-25.890	0.101
742.200	-4.195	0.101
742.300	-17.878	0.101
742.400	-17.294	0.101
742.500	-36.029	0.101
742.600	-26.344	0.101
742.700	-17.831	0.101
742.800	-23.241	0.101
742.900	-21.598	0.101
743.000	-28.882	0.101
743.100	-15.705	0.101
743.200	-21.040	0.101
743.300	-24.447	0.101
743.400	-22.142	0.101
743.500	-22.994	0.101
743.600	-20.217	0.101
743.700	-14.202	0.101
743.800	-16.057	0.101
743.900	-34.259	0.101
744.000	-23.408	0.101
744.100	-13.175	0.101
744.200	-28.498	0.101
744.300	-27.548	0.101
744.400	-26.032	0.101
744.500	-23.145	0.101
744.600	-25.210	0.101
744.700	-16.453	0.101
744.800	-22.329	0.101
744.900	-25.526	0.101
745.000	-18.841	0.101
745.100	-23.541	0.101
745.200	-20.816	0.101
745.300	-29.129	0.101
745.400	-18.854	0.101
745.500	-30.403	0.101
745.600	-26.863	0.101
745.700	-17.214	0.101
745.800	-19.865	0.101
745.900	-22.199	0.101
746.000	-22.081	0.101
746.100	-18.004	0.101
746.200	-30.155	0.101
746.300	-18.995	0.101
746.400	-19.843	0.101
746.500	-26.270	0.101
746.600	-23.517	0.101
746.700	-20.913	0.101
746.800	-21.332	0.101
746.900	-20.946	0.101
747.000	-17.248	0.101
747.100	-31.037	0.101
747.200	-26.844	0.101
747.300	-26.872	0.101
747.400	-12.776	0.101
747.500	-20.843	0.101
747.600	-17.408	0.101
747.700	-18.961	0.101
747.800	-17.229	0.101
747.900	-17.938	0.101
748.000	-14.926	0.101
748.100	-27.926	0.101
748.200	-16.857	0.101
748.300	-29.391	0.101
748.400	-11.513	0.101
748.500	-11.052	0.101
748.600	-14.921	0.101
748.700	-18.876	0.101
748.800	-19.471	0.101
748.900	-26.587	0.101
749.000	-28.063	0.101
749.100	-18.255	0.101
749.200	-27.215	0.101
749.300	-25.117	0.101
749.400	-18.889	0.101
749.500	-22.956	0.101
749.600	-18.192	0.101
749.700	-16.147	0.101
749.800	-13.140	0.101
749.900	-27.065	0.101
750.000	-28.862	0.101
750.100	-21.281	0.101
750.200	-18.217	0.101
750.300	-20.007	0.101
750.400	-22.445	0.101
750.500	-22.803	0.101
750.600	-29.934	0.101
750.700	-19.989	0.101
750.800	-26.227	0.101
750.900	-28.042	0.101
751.000	-25.560	0.101
751.100	-21.254	0.101
751.200	-25.418	0.101
751.300	-15.170	0.101
751.400	-16.038	0.101
751.500	-21.107	0.101
751.600	-29.705	0.101
751.700	-19.915	0.101
751.800	-31.718	0.101
751.900	-17.637	0.101
752.000	-29.931	0.101
752.100	-23.064	0.101
752.200	-16.602	0.101
752.300	-20.292	0.101
752.400	-20.971	0.101
752.500	-19.515	0.101
752.600	-12.360	0.101
752.700	-14.907	0.101
752.800	-16.488	0.101
752.900	-27.884	0.101
753.000	-29.008	0.101
753.100	-32.941	0.101
753.200	-18.842	0.101
753.300	-30.102	0.101
753.400	-14.419	0.101
753.500	-14.111	0.101
753.600	-12.318	0.101
753.700	-9.846	0.101
753.800	-14.094	0.101
753.900	-25.293	0.101
754.000	-26.161	0.101
754.100	-31.101	0.101
754.200	-23.428	0.101
754.300	-11.032	0.101
754.400	-16.784	0.101
754.500	-26.135	0.101
754.600	-15.862	0.101
754.700	-21.566	0.101
754.800	-26.078	0.101
754.900	-17.552	0.101
755.000	-22.003	0.101
755.100	-8.511	0.101
755.200	-18.860	0.101
755.300	-19.151	0.101
755.400	-20.364	0.101
755.500	-23.059	0.101
755.600	-23.235	0.101
755.700	-16.814	0.101
755.800	-19.634	0.101
755.900	-29.057	0.101
756.000	-23.308	0.101
756.100	-23.387	0.101
756.200	-14.903	0.101
756.300	-6.505	0.101
756.400	-16.191	0.101
756.500	-17.697	0.101
756.600	-17.532	0.101
756.700	-22.238	0.101
756.800	-36.163	0.101
756.900	-9.225	0.101
757.000	-16.546	0.101
757.100	-20.887	0.101
757.200	-19.027	0.101
757.300	-15.832	0.101
757.400	-14.743	0.101
757.500	-19.968	0.101
757.600	-11.410	0.101
757.700	-21.039	0.101
757.800	-25.199	0.101
757.900	-20.914	0.101
758.000	-25.021	0.101
758.100	-25.913	0.101
758.200	-15.797	0.101
758.300	-16.523	0.101
758.400	-17.894	0.101
758.500	-18.774	0.101
758.600	-14.148	0.101
758.700	-26.441	0.101
758.800	-30.322	0.101
758.900	-20.521	0.101
759.000	-29.833	0.101
759.100	-11.936	0.101
759.200	-21.822	0.101
759.300	-26.587	0.101
759.400	-28.063	0.101
759.500	-25.739	0.101
759.600	-19.618	0.101
759.700	-19.675	0.101
759.800	-17.282	0.101
759.900	-7.404	0.101
760.000	-18.515	0.101
760.100	-13.836	0.101
760.200	-26.811	0.101
760.300	-22.929	0.101
760.400	-23.461	0.101
760.500	-12.184	0.101
760.600	-34.071	0.101
760.700	-26.843	0.101
760.800	-19.516	0.101
760.900	-13.455	0.101
761.000	-10.344	0.101
761.100	-19.671	0.101
761.200	-27.080	0.101
761.300	-21.173	0.101
761.400	-19.068	0.101
761.500	-25.372	0.101
761.600	-17.128	0.101
761.700	-16.595	0.101
761.800	-27.174	0.101
761.900	-24.854	0.101
762.000	-25.173	0.101
762.100	-24.851	0.101
762.200	-14.015	0.101
762.300	-26.644	0.101
762.400	-16.828	0.101
762.500	-20.879	0.101
762.600	-15.951	0.101
762.700	-16.389	0.101
762.800	-12.351	0.101
762.900	-21.756	0.101
763.000	-27.312	0.101
763.100	-19.000	0.101
763.200	-21.773	0.101
763.300	-15.415	0.101
763.400	-7.060	0.101
763.500	-13.513	0.101
763.600	-19.113	0.101
763.700	-20.262	0.101
763.800	-22.761	0.101
763.900	-12.618	0.101
764.000	-24.951	0.101
764.100	-24.721	0.101
764.200	-15.454	0.101
764.300	-24.128	0.101
764.400	-14.412	0.101
764.500	-21.350	0.101
764.600	-8.304	0.101
764.700	-11.946	0.101
764.800	-10.641	0.101
764.900	-24.292	0.101
765.000	-21.742	0.101
765.100	-27.179	0.101
765.200	-29.093	0.101
765.300	-16.193	0.101
765.400	-13.737	0.101
765.500	-14.625	0.101
765.600	-13.320	0.101
765.700	-23.547	0.101
765.800	-34.214	0.101
765.900	-24.670	0.101
766.000	-22.805	0.101
766.100	-27.941	0.101
766.200	-14.490	0.101
766.300	-21.503	0.101
766.400	-24.915	0.101
766.500	-23.124	0.101
766.600	-22.862	0.101
766.700	-5.895	0.101
766.800	-3.166	0.101
766.900	-24.491	0.101
767.000	-16.566	0.101
767.100	-25.274	0.101
767.200	-32.380	0.101
767.300	-20.338	0.101
767.400	-25.778	0.101
767.500	-11.324	0.101
767.600	-14.310	0.101
767.700	-14.095	0.101
767.800	-9.083	0.101
767.900	-22.323	0.101
768.000	-4.260	0.101
768.100	-16.558	0.101
768.200	-18.468	0.101
768.300	-8.642	0.101
768.400	-19.439	0.101
768.500	-24.644	0.101
768.600	-23.093	0.101
768.700	-17.530	0.101
768.800	-21.950	0.101
768.900	-19.997	0.101
769.000	-5.935	0.101
769.100	-13.818	0.101
769.200	-20.333	0.101
769.300	-20.164	0.101
769.400	-26.194	0.101
769.500	-14.267	0.101
769.600	-14.694	0.101
769.700	-18.405	0.101
769.800	-21.828	0.101
769.900	-18.779	0.101
770.000	-23.606	0.101
770.100	-16.081	0.101
770.200	-17.730	0.101
770.300	-16.740	0.101
770.400	-15.925	0.101
770.500	-16.055	0.101
770.600	-14.287	0.101
770.700	-13.249	0.101
770.800	-11.343	0.101
770.900	-18.642	0.101
771.000	-15.515	0.101
771.100	-19.521	0.101
771.200	-17.043	0.101
771.300	-14.537	0.101
771.400	-13.830	0.101
771.500	-12.572	0.101
771.600	-20.727	0.101
771.700	-14.963	0.101
771.800	-17.851	0.101
771.900	-20.561	0.101
772.000	-18.718	0.101
772.100	-22.553	0.101
772.200	-14.656	0.101
772.300	-21.516	0.101
772.400	-15.139	0.101
772.500	-21.152	0.101
772.600	-22.148	0.101
772.700	-17.871	0.101
772.800	-12.704	0.101
772.900	-14.139	0.101
773.000	-18.096	0.101
773.100	-28.745	0.101
773.200	-22.369	0.101
773.300	-13.928	0.101
773.400	-21.019	0.101
773.500	-20.325	0.101
773.600	-19.895	0.101
773.700	-22.226	0.101
773.800	-16.542	0.101
773.900	-6.627	0.101
774.000	-10.887	0.101
774.100	-21.259	0.101
774.200	-15.056	0.101
774.300	-32.223	0.101
774.400	-8.120	0.101
774.500	-15.315	0.101
774.600	-10.373	0.101
774.700	-16.950	0.101
774.800	-19.072	0.101
774.900	-21.698	0.101
775.000	-12.475	0.101
775.100	-20.468	0.101
775.200	-18.315	0.101
775.300	-15.507	0.101
775.400	-20.644	0.101
775.500	-11.268	0.101
775.600	-13.807	0.101
775.700	-15.595	0.101
775.800	-4.747	0.101
775.900	-13.437	0.101
776.000	-18.105	0.101
776.100	-14.055	0.101
776.200	-19.416	0.101
776.300	-18.132	0.101
776.400	-16.440	0.101
776.500	-21.740	0.101
776.600	-14.798	0.101
776.700	-17.233	0.101
776.800	-26.660	0.101
776.900	-29.192	0.101
777.000	-17.461	0.101
777.100	-16.517	0.101
777.200	-16.014	0.101
777.300	-30.063	0.101
777.400	-20.027	0.101
777.500	-12.735	0.101
777.600	-12.574	0.101
777.700	-12.292	0.101
777.800	-22.066	0.101
777.900	-22.749	0.101
778.000	-15.625	0.101
778.100	-16.765	0.101
778.200	-12.541	0.101
778.300	-13.672	0.101
778.400	-22.438	0.101
778.500	-26.753	0.101
778.600	-26.664	0.101
778.700	-24.077	0.101
778.800	-14.879	0.101
778.900	-14.856	0.101
779.000	-9.725	0.101
779.100	-24.644	0.101
779.200	-24.062	0.101
779.300	-19.921	0.101
779.400	-21.192	0.101
779.500	-11.444	0.101
779.600	-20.763	0.101
779.700	-19.246	0.101
779.800	-15.656	0.101
779.900	-16.113	0.101
780.000	-17.716	0.101
780.100	-7.132	0.101
780.200	-5.402	0.101
780.300	-13.202	0.101
780.400	-19.072	0.101
780.500	-11.896	0.101
780.600	-21.936	0.101
780.700	-19.046	0.101
780.800	-3.500	0.101
780.900	-13.857	0.101
781.000	-10.632	0.101
781.100	3.452	0.101
781.200	-0.006	0.101
781.300	0.593	0.101
781.400	0.678	0.101
781.500	8.868	0.101
781.600	-8.939	0.101
781.700	-7.055	0.101
781.800	-4.975	0.101
781.900	6.784	0.101
782.000	15.224	0.101
782.100	12.318	0.101
782.200	7.470	0.101
782.300	12.268	0.101
782.400	1.122	0.101
782.500	0.714	0.101
782.600	8.037	0.101
782.700	11.812	0.101
782.800	21.470	0.101
782.900	3.779	0.101
783.000	15.151	0.101
783.100	12.511	0.101
783.200	11.992	0.101
783.300	21.300	0.101
783.400	9.528	0.101
783.500	12.996	0.101
783.600	8.401	0.101
783.700	12.107	0.101
783.800	17.785	0.101
783.900	21.793	0.101
784.000	19.973	0.101
784.100	16.498	0.101
784.200	15.373	0.101
784.300	26.804	0.101
784.400	25.401	0.101
784.500	20.041	0.101
784.600	18.194	0.101
784.700	20.163	0.101
784.800	14.034	0.101
784.900	18.936	0.101
785.000	29.571	0.101
785.100	18.072	0.101
785.200	10.057	0.101
785.300	16.355	0.101
785.400	22.197	0.101
785.500	21.336	0.101
785.600	16.529	0.101
785.700	17.436	0.101
785.800	21.507	0.101
785.900	5.487	0.101
786.000	17.622	0.101
786.100	13.450	0.101
786.200	15.320	0.101
786.300	22.869	0.101
786.400	15.994	0.101
786.500	11.381	0.101
786.600	13.270	0.101
786.700	14.853	0.101
786.800	13.157	0.101
786.900	19.955	0.101
787.000	22.222	0.101
787.100	23.772	0.101
787.200	9.649	0.101
787.300	0.851	0.101
787.400	15.797	0.101
787.500	8.310	0.101
787.600	11.650	0.101
787.700	14.556	0.101
787.800	9.220	0.101
787.900	6.674	0.101
788.000	0.737	0.101
788.100	16.000	0.101
788.200	6.734	0.101
788.300	10.726	0.101
788.400	12.640	0.101
788.500	10.912	0.101
788.600	1.088	0.101
788.700	2.852	0.101
788.800	7.803	0.101
788.900	12.876	0.101
789.000	12.683	0.101
789.100	5.391	0.101
789.200	12.637	0.101
789.300	12.662	0.101
789.400	16.030	0.101
789.500	18.206	0.101
789.600	10.031	0.101
789.700	1.371	0.101
789.800	12.946	0.101
789.900	8.539	0.101
790.000	5.782	0.101
790.100	8.914	0.101
790.200	0.540	0.101
790.300	8.207	0.101
790.400	15.265	0.101
790.500	16.998	0.101
790.600	10.870	0.101
790.700	14.202	0.101
790.800	11.501	0.101
790.900	15.410	0.101
791.000	2.690	0.101
791.100	6.794	0.101
791.200	4.718	0.101
791.300	13.276	0.101
791.400	20.757	0.101
791.500	7.449	0.101
791.600	8.232	0.101
791.700	6.387	0.101
791.800	9.315	0.101
791.900	5.609	0.101
792.000	10.179	0.101
792.100	16.241	0.101
792.200	18.116	0.101
792.300	16.901	0.101
792.400	9.665	0.101
792.500	3.682	0.101
792.600	5.059	0.101
792.700	16.113	0.101
792.800	13.213	0.101
792.900	12.424	0.101
793.000	20.216	0.101
793.100	18.033	0.101
793.200	5.177	0.101
793.300	21.720	0.101
793.400	27.403	0.101
793.500	13.306	0.101
793.600	4.330	0.101
793.700	12.459	0.101
793.800	17.161	0.101
793.900	3.159	0.101
794.000	7.974	0.101
794.100	16.968	0.101
794.200	2.035	0.101
794.300	11.336	0.101
794.400	14.594	0.101
794.500	20.410	0.101
794.600	17.968	0.101
794.700	11.400	0.101
794.800	22.214	0.101
794.900	22.668	0.101
795.000	11.198	0.101
795.100	3.649	0.101
795.200	16.539	0.101
795.300	27.685	0.101
795.400	22.245	0.101
795.500	21.112	0.101
795.600	16.421	0.101
795.700	16.496	0.101
795.800	13.654	0.101
795.900	18.869	0.101
796.000	14.490	0.101
796.100	26.272	0.101
796.200	14.063	0.101
796.300	12.680	0.101
796.400	5.808	0.101
796.500	18.323	0.101
796.600	15.136	0.101
796.700	2.576	0.101
796.800	14.058	0.101
796.900	18.009	0.101
797.000	9.029	0.101
797.100	28.137	0.101
797.200	17.691	0.101
797.300	34.274	0.101
797.400	15.530	0.101
797.500	18.726	0.101
797.600	21.980	0.101
797.700	27.257	0.101
797.800	18.614	0.101
797.900	13.122	0.101
798.000	17.636	0.101
798.100	25.781	0.101
798.200	22.130	0.101
798.300	17.992	0.101
798.400	16.614	0.101
798.500	18.309	0.101
798.600	23.545	0.101
798.700	17.498	0.101
798.800	6.979	0.101
798.900	17.674	0.101
799.000	13.381	0.101
799.100	22.961	0.101
799.200	27.892	0.101
799.300	23.373	0.101
799.400	25.583	0.101
799.500	30.490	0.101
799.600	19.051	0.101
799.700	14.119	0.101
799.800	27.466	0.101
799.900	22.685	0.101
800.000	19.874	0.101
