time /s	I /nA	E /V
0.100	-18.830	0.101
0.200	-14.815	0.101
0.300	-12.143	0.101
0.400	-10.525	0.101
0.500	-7.863	0.101
0.600	-9.366	0.101
0.700	0.372	0.101
0.800	0.836	0.101
0.900	-1.439	0.101
1.000	-7.095	0.101
1.100	-3.552	0.101
1.200	-6.477	0.101
1.300	-11.577	0.101
1.400	-18.172	0.101
1.500	-10.719	0.101
1.600	-20.579	0.101
1.700	-8.741	0.101
1.800	-17.567	0.101
1.900	-9.695	0.101
2.000	-24.415	0.101
2.100	-11.505	0.101
2.200	-6.128	0.101
2.300	-18.187	0.101
2.400	-15.030	0.101
2.500	-12.798	0.101
2.600	-8.984	0.101
2.700	-10.503	0.101
2.800	-11.415	0.101
2.900	-7.599	0.101
3.000	-5.857	0.101
3.100	-4.823	0.101
3.200	-7.743	0.101
3.300	-15.833	0.101
3.400	-10.154	0.101
3.500	-13.042	0.101
3.600	-10.349	0.101
3.700	-7.286	0.101
3.800	-6.468	0.101
3.900	-20.482	0.101
4.000	-12.132	0.101
4.100	-13.879	0.101
4.200	-2.379	0.101
4.300	-8.858	0.101
4.400	-10.959	0.101
4.500	-17.821	0.101
4.600	-17.640	0.101
4.700	-12.210	0.101
4.800	-9.517	0.101
4.900	-14.116	0.101
5.000	-7.996	0.101
5.100	-5.096	0.101
5.200	-16.591	0.101
5.300	-16.244	0.101
5.400	-2.167	0.101
5.500	-14.052	0.101
5.600	-17.621	0.101
5.700	-2.284	0.101
5.800	-11.697	0.101
5.900	-16.742	0.101
6.000	-10.159	0.101
6.100	-12.320	0.101
6.200	-16.674	0.101
6.300	-5.704	0.101
6.400	-18.172	0.101
6.500	-12.470	0.101
6.600	-15.514	0.101
6.700	-3.154	0.101
6.800	-5.972	0.101
6.900	-10.098	0.101
7.000	-17.863	0.101
7.100	-5.941	0.101
7.200	-11.145	0.101
7.300	-11.636	0.101
7.400	-12.063	0.101
7.500	-8.681	0.101
7.600	-9.798	0.101
7.700	-5.294	0.101
7.800	-13.783	0.101
7.900	-16.006	0.101
8.000	-6.654	0.101
8.100	-18.991	0.101
8.200	-9.253	0.101
8.300	-8.558	0.101
8.400	-11.178	0.101
8.500	-6.020	0.101
8.600	-14.707	0.101
8.700	-4.608	0.101
8.800	-5.427	0.101
8.900	-3.090	0.101
9.000	-17.065	0.101
9.100	-25.490	0.101
9.200	-10.585	0.101
9.300	-5.115	0.101
9.400	-6.275	0.101
9.500	-17.478	0.101
9.600	-26.759	0.101
9.700	-12.682	0.101
9.800	-4.166	0.101
9.900	-10.217	0.101
10.000	-12.231	0.101
10.100	-11.547	0.101
10.200	-16.842	0.101
10.300	-16.123	0.101
10.400	-3.648	0.101
10.500	-5.016	0.101
10.600	-14.637	0.101
10.700	-8.969	0.101
10.800	-14.801	0.101
10.900	0.677	0.101
11.000	-12.757	0.101
11.100	-22.075	0.101
11.200	-12.266	0.101
11.300	-12.035	0.101
11.400	-21.441	0.101
11.500	-22.506	0.101
11.600	-16.433	0.101
11.700	-4.854	0.101
11.800	-2.453	0.101
11.900	-12.995	0.101
12.000	-14.633	0.101
12.100	0.009	0.101
12.200	-11.553	0.101
12.300	-12.238	0.101
12.400	-9.968	0.101
12.500	-12.776	0.101
12.600	-3.497	0.101
12.700	-9.214	0.101
12.800	-8.017	0.101
12.900	-8.712	0.101
13.000	-13.675	0.101
13.100	-8.353	0.101
13.200	-18.183	0.101
13.300	-11.665	0.101
13.400	-21.436	0.101
13.500	-11.606	0.101
13.600	-6.515	0.101
13.700	-14.109	0.101
13.800	-11.534	0.101
13.900	-7.831	0.101
14.000	-10.849	0.101
14.100	-8.582	0.101
14.200	-14.146	0.101
14.300	-17.269	0.101
14.400	-7.991	0.101
14.500	-25.958	0.101
14.600	-23.439	0.101
14.700	-12.317	0.101
14.800	-11.728	0.101
14.900	-10.289	0.101
15.000	-3.840	0.101
15.100	-2.922	0.101
15.200	-17.546	0.101
15.300	-9.157	0.101
15.400	-6.088	0.101
15.500	0.528	0.101
15.600	-13.476	0.101
15.700	-10.867	0.101
15.800	-10.045	0.101
15.900	5.480	0.101
16.000	2.574	0.101
16.100	-3.827	0.101
16.200	-19.651	0.101
16.300	-15.883	0.101
16.400	-13.393	0.101
16.500	-8.882	0.101
16.600	-9.813	0.101
16.700	-3.203	0.101
16.800	-15.628	0.101
16.900	-13.373	0.101
17.000	-14.416	0.101
17.100	-16.032	0.101
17.200	-11.209	0.101
17.300	-3.665	0.101
17.400	-2.124	0.101
17.500	-4.376	0.101
17.600	-9.522	0.101
17.700	-12.581	0.101
17.800	-6.086	0.101
17.900	-16.577	0.101
18.000	-3.752	0.101
18.100	-15.114	0.101
18.200	-21.235	0.101
18.300	-19.076	0.101
18.400	-17.106	0.101
18.500	-10.432	0.101
18.600	-9.087	0.101
18.700	-10.917	0.101
18.800	-6.897	0.101
18.900	-11.392	0.101
19.000	-7.450	0.101
19.100	-15.422	0.101
19.200	-24.902	0.101
19.300	-13.934	0.101
19.400	-5.918	0.101
19.500	2.123	0.101
19.600	-11.672	0.101
19.700	-11.783	0.101
19.800	-11.635	0.101
19.900	-16.921	0.101
20.000	-18.773	0.101
20.100	-11.300	0.101
20.200	-3.406	0.101
20.300	0.129	0.101
20.400	-9.284	0.101
20.500	-9.944	0.101
20.600	-15.346	0.101
20.700	-10.779	0.101
20.800	-6.476	0.101
20.900	-2.978	0.101
21.000	-0.937	0.101
21.100	-12.987	0.101
21.200	-14.501	0.101
21.300	-19.213	0.101
21.400	-14.394	0.101
21.500	-10.918	0.101
21.600	-7.865	0.101
21.700	-5.473	0.101
21.800	-8.476	0.101
21.900	-13.020	0.101
22.000	-13.094	0.101
22.100	-1.824	0.101
22.200	-15.940	0.101
22.300	-6.449	0.101
22.400	-16.018	0.101
22.500	-20.380	0.101
22.600	-5.441	0.101
22.700	-14.866	0.101
22.800	-14.246	0.101
22.900	-18.091	0.101
23.000	-4.388	0.101
23.100	-4.738	0.101
23.200	-13.615	0.101
23.300	-13.665	0.101
23.400	-12.568	0.101
23.500	-6.152	0.101
23.600	-12.117	0.101
23.700	-2.199	0.101
23.800	-5.366	0.101
23.900	-14.969	0.101
24.000	-9.131	0.101
24.100	-3.061	0.101
24.200	1.138	0.101
24.300	-11.848	0.101
24.400	-2.745	0.101
24.500	-21.241	0.101
24.600	-14.105	0.101
24.700	-3.630	0.101
24.800	-18.009	0.101
24.900	-4.959	0.101
25.000	-20.865	0.101
25.100	-20.748	0.101
25.200	-8.265	0.101
25.300	-11.487	0.101
25.400	-7.837	0.101
25.500	-11.999	0.101
25.600	-7.456	0.101
25.700	-17.033	0.101
25.800	-12.506	0.101
25.900	-19.177	0.101
26.000	-9.715	0.101
26.100	-3.550	0.101
26.200	-11.854	0.101
26.300	-19.040	0.101
26.400	-19.684	0.101
26.500	-0.999	0.101
26.600	-1.500	0.101
26.700	-10.255	0.101
26.800	-7.118	0.101
26.900	-14.713	0.101
27.000	-8.692	0.101
27.100	-14.598	0.101
27.200	-11.833	0.101
27.300	-13.235	0.101
27.400	0.112	0.101
27.500	-0.022	0.101
27.600	-15.203	0.101
27.700	-12.541	0.101
27.800	-14.218	0.101
27.900	-12.787	0.101
28.000	-19.836	0.101
28.100	-16.550	0.101
28.200	-3.297	0.101
28.300	-10.305	0.101
28.400	-0.333	0.101
28.500	-8.856	0.101
28.600	-16.373	0.101
28.700	-9.542	0.101
28.800	-5.627	0.101
28.900	-20.595	0.101
29.000	-9.386	0.101
29.100	-17.245	0.101
29.200	-18.362	0.101
29.300	-2.903	0.101
29.400	-22.959	0.101
29.500	-8.279	0.101
29.600	-6.730	0.101
29.700	0.196	0.101
29.800	-10.831	0.101
29.900	-6.533	0.101
30.000	3.873	0.101
30.100	-8.352	0.101
30.200	-12.207	0.101
30.300	-10.455	0.101
30.400	-5.924	0.101
30.500	-0.478	0.101
30.600	2.314	0.101
30.700	-0.099	0.101
30.800	2.426	0.101
30.900	13.926	0.101
31.000	11.225	0.101
31.100	11.352	0.101
31.200	19.938	0.101
31.300	12.670	0.101
31.400	4.872	0.101
31.500	5.723	0.101
31.600	6.127	0.101
31.700	2.977	0.101
31.800	15.896	0.101
31.900	28.233	0.101
32.000	25.155	0.101
32.100	15.199	0.101
32.200	16.470	0.101
32.300	23.307	0.101
32.400	21.612	0.101
32.500	19.479	0.101
32.600	22.727	0.101
32.700	25.984	0.101
32.800	14.745	0.101
32.900	16.415	0.101
33.000	18.239	0.101
33.100	16.181	0.101
33.200	16.148	0.101
33.300	24.314	0.101
33.400	6.843	0.101
33.500	14.308	0.101
33.600	15.540	0.101
33.700	20.986	0.101
33.800	27.790	0.101
33.900	19.349	0.101
34.000	17.928	0.101
34.100	13.592	0.101
34.200	13.779	0.101
34.300	7.939	0.101
34.400	11.678	0.101
34.500	16.819	0.101
34.600	21.742	0.101
34.700	23.411	0.101
34.800	16.192	0.101
34.900	12.542	0.101
35.000	5.220	0.101
35.100	7.261	0.101
35.200	13.787	0.101
35.300	13.480	0.101
35.400	17.516	0.101
35.500	24.840	0.101
35.600	8.812	0.101
35.700	12.154	0.101
35.800	14.800	0.101
35.900	1.073	0.101
36.000	6.695	0.101
36.100	16.814	0.101
36.200	21.292	0.101
36.300	14.298	0.101
36.400	14.384	0.101
36.500	-1.005	0.101
36.600	19.628	0.101
36.700	13.896	0.101
36.800	11.878	0.101
36.900	7.442	0.101
37.000	0.651	0.101
37.100	12.876	0.101
37.200	2.471	0.101
37.300	0.812	0.101
37.400	4.888	0.101
37.500	18.997	0.101
37.600	18.695	0.101
37.700	14.479	0.101
37.800	18.675	0.101
37.900	12.863	0.101
38.000	14.114	0.101
38.100	8.849	0.101
38.200	17.921	0.101
38.300	14.554	0.101
38.400	11.852	0.101
38.500	16.825	0.101
38.600	11.055	0.101
38.700	7.252	0.101
38.800	7.671	0.101
38.900	17.637	0.101
39.000	22.330	0.101
39.100	15.112	0.101
39.200	15.932	0.101
39.300	0.469	0.101
39.400	15.259	0.101
39.500	6.362	0.101
39.600	6.751	0.101
39.700	14.141	0.101
39.800	21.105	0.101
39.900	11.580	0.101
40.000	17.685	0.101
40.100	2.036	0.101
40.200	2.248	0.101
40.300	11.721	0.101
40.400	17.891	0.101
40.500	21.508	0.101
40.600	24.733	0.101
40.700	22.508	0.101
40.800	16.325	0.101
40.900	12.584	0.101
41.000	7.309	0.101
41.100	19.133	0.101
41.200	7.891	0.101
41.300	13.046	0.101
41.400	13.452	0.101
41.500	11.521	0.101
41.600	7.045	0.101
41.700	21.671	0.101
41.800	27.723	0.101
41.900	18.226	0.101
42.000	14.659	0.101
42.100	16.778	0.101
42.200	17.343	0.101
42.300	29.194	0.101
42.400	22.491	0.101
42.500	20.466	0.101
42.600	21.470	0.101
42.700	12.170	0.101
42.800	15.688	0.101
42.900	12.268	0.101
43.000	21.754	0.101
43.100	10.243	0.101
43.200	21.198	0.101
43.300	19.909	0.101
43.400	17.595	0.101
43.500	20.289	0.101
43.600	17.130	0.101
43.700	12.801	0.101
43.800	21.273	0.101
43.900	21.328	0.101
44.000	19.733	0.101
44.100	16.657	0.101
44.200	27.569	0.101
44.300	21.355	0.101
44.400	25.230	0.101
44.500	17.982	0.101
44.600	20.492	0.101
44.700	22.027	0.101
44.800	18.710	0.101
44.900	24.791	0.101
45.000	15.816	0.101
45.100	17.657	0.101
45.200	23.940	0.101
45.300	31.475	0.101
45.400	29.563	0.101
45.500	14.041	0.101
45.600	29.787	0.101
45.700	28.085	0.101
45.800	17.397	0.101
45.900	20.704	0.101
46.000	32.934	0.101
46.100	27.895	0.101
46.200	29.261	0.101
46.300	11.835	0.101
46.400	17.189	0.101
46.500	27.625	0.101
46.600	28.769	0.101
46.700	17.555	0.101
46.800	28.378	0.101
46.900	20.684	0.101
47.000	23.194	0.101
47.100	13.971	0.101
47.200	18.825	0.101
47.300	25.916	0.101
47.400	31.783	0.101
47.500	34.694	0.101
47.600	21.836	0.101
47.700	15.702	0.101
47.800	32.249	0.101
47.900	39.983	0.101
48.000	28.502	0.101
48.100	25.438	0.101
48.200	22.253	0.101
48.300	19.676	0.101
48.400	21.969	0.101
48.500	26.115	0.101
48.600	34.411	0.101
48.700	36.337	0.101
48.800	21.575	0.101
48.900	24.111	0.101
49.000	23.854	0.101
49.100	26.045	0.101
49.200	35.113	0.101
49.300	21.893	0.101
49.400	27.669	0.101
49.500	33.225	0.101
49.600	31.658	0.101
49.700	24.153	0.101
49.800	16.981	0.101
49.900	32.055	0.101
50.000	34.283	0.101
50.100	28.811	0.101
50.200	27.275	0.101
50.300	25.188	0.101
50.400	31.002	0.101
50.500	31.212	0.101
50.600	34.125	0.101
50.700	28.956	0.101
50.800	37.904	0.101
50.900	40.588	0.101
51.000	35.669	0.101
51.100	31.401	0.101
51.200	27.434	0.101
51.300	39.483	0.101
51.400	32.034	0.101
51.500	39.201	0.101
51.600	24.465	0.101
51.700	27.969	0.101
51.800	29.745	0.101
51.900	20.639	0.101
52.000	36.417	0.101
52.100	24.446	0.101
52.200	23.607	0.101
52.300	42.132	0.101
52.400	42.794	0.101
52.500	34.930	0.101
52.600	31.319	0.101
52.700	38.082	0.101
52.800	30.335	0.101
52.900	33.058	0.101
53.000	33.487	0.101
53.100	36.921	0.101
53.200	34.905	0.101
53.300	37.819	0.101
53.400	24.737	0.101
53.500	29.807	0.101
53.600	31.424	0.101
53.700	29.786	0.101
53.800	28.221	0.101
53.900	37.818	0.101
54.000	30.039	0.101
54.100	31.541	0.101
54.200	31.943	0.101
54.300	42.273	0.101
54.400	38.646	0.101
54.500	47.938	0.101
54.600	35.593	0.101
54.700	34.723	0.101
54.800	33.839	0.101
54.900	47.721	0.101
55.000	41.275	0.101
55.100	39.957	0.101
55.200	26.571	0.101
55.300	37.915	0.101
55.400	41.554	0.101
55.500	47.994	0.101
55.600	38.275	0.101
55.700	28.256	0.101
55.800	46.255	0.101
55.900	44.129	0.101
56.000	26.897	0.101
56.100	40.885	0.101
56.200	41.252	0.101
56.300	35.423	0.101
56.400	36.514	0.101
56.500	43.164	0.101
56.600	46.442	0.101
56.700	44.301	0.101
56.800	42.721	0.101
56.900	48.327	0.101
57.000	34.604	0.101
57.100	36.693	0.101
57.200	30.436	0.101
57.300	38.715	0.101
57.400	33.865	0.101
57.500	31.144	0.101
57.600	39.484	0.101
57.700	36.936	0.101
57.800	40.287	0.101
57.900	31.863	0.101
58.000	41.162	0.101
58.100	49.969	0.101
58.200	47.795	0.101
58.300	37.332	0.101
58.400	40.931	0.101
58.500	44.210	0.101
58.600	24.897	0.101
58.700	25.695	0.101
58.800	34.472	0.101
58.900	39.409	0.101
59.000	29.249	0.101
59.100	44.440	0.101
59.200	47.413	0.101
59.300	40.687	0.101
59.400	36.815	0.101
59.500	37.945	0.101
59.600	34.561	0.101
59.700	40.841	0.101
59.800	37.683	0.101
59.900	40.971	0.101
60.000	39.170	0.101
60.100	41.266	0.101
60.200	42.742	0.101
60.300	49.576	0.101
60.400	24.555	0.101
60.500	30.736	0.101
60.600	34.572	0.101
60.700	34.643	0.101
60.800	39.542	0.101
60.900	47.179	0.101
61.000	39.471	0.101
61.100	33.160	0.101
61.200	37.388	0.101
61.300	39.359	0.101
61.400	44.439	0.101
61.500	43.005	0.101
61.600	41.525	0.101
61.700	45.177	0.101
61.800	54.888	0.101
61.900	34.915	0.101
62.000	35.216	0.101
62.100	42.299	0.101
62.200	36.982	0.101
62.300	38.712	0.101
62.400	44.208	0.101
62.500	37.716	0.101
62.600	42.627	0.101
62.700	44.065	0.101
62.800	38.701	0.101
62.900	30.528	0.101
63.000	28.259	0.101
63.100	40.154	0.101
63.200	45.101	0.101
63.300	42.326	0.101
63.400	38.052	0.101
63.500	34.207	0.101
63.600	39.231	0.101
63.700	25.565	0.101
63.800	42.054	0.101
63.900	35.323	0.101
64.000	33.111	0.101
64.100	43.743	0.101
64.200	41.745	0.101
64.300	31.269	0.101
64.400	43.656	0.101
64.500	32.685	0.101
64.600	45.299	0.101
64.700	42.280	0.101
64.800	35.776	0.101
64.900	26.381	0.101
65.000	32.690	0.101
65.100	34.976	0.101
65.200	27.964	0.101
65.300	35.307	0.101
65.400	32.835	0.101
65.500	50.789	0.101
65.600	47.483	0.101
65.700	44.022	0.101
65.800	44.340	0.101
65.900	33.790	0.101
66.000	43.519	0.101
66.100	39.684	0.101
66.200	28.050	0.101
66.300	26.728	0.101
66.400	47.307	0.101
66.500	47.525	0.101
66.600	36.610	0.101
66.700	39.956	0.101
66.800	25.731	0.101
66.900	34.078	0.101
67.000	40.557	0.101
67.100	35.338	0.101
67.200	35.089	0.101
67.300	38.428	0.101
67.400	46.290	0.101
67.500	29.710	0.101
67.600	34.416	0.101
67.700	41.205	0.101
67.800	36.649	0.101
67.900	45.529	0.101
68.000	41.096	0.101
68.100	37.169	0.101
68.200	47.400	0.101
68.300	32.591	0.101
68.400	27.184	0.101
68.500	31.260	0.101
68.600	41.472	0.101
68.700	36.812	0.101
68.800	36.621	0.101
68.900	38.634	0.101
69.000	37.912	0.101
69.100	28.728	0.101
69.200	33.179	0.101
69.300	29.981	0.101
69.400	37.791	0.101
69.500	40.643	0.101
69.600	39.963	0.101
69.700	42.163	0.101
69.800	38.480	0.101
69.900	46.112	0.101
70.000	32.312	0.101
70.100	34.895	0.101
70.200	25.246	0.101
70.300	28.992	0.101
70.400	38.102	0.101
70.500	38.722	0.101
70.600	33.057	0.101
70.700	33.428	0.101
70.800	35.375	0.101
70.900	40.637	0.101
71.000	41.212	0.101
71.100	31.241	0.101
71.200	36.146	0.101
71.300	42.839	0.101
71.400	41.827	0.101
71.500	39.243	0.101
71.600	34.411	0.101
71.700	24.732	0.101
71.800	23.749	0.101
71.900	40.974	0.101
72.000	52.969	0.101
72.100	40.948	0.101
72.200	28.496	0.101
72.300	35.193	0.101
72.400	41.487	0.101
72.500	36.946	0.101
72.600	32.860	0.101
72.700	37.952	0.101
72.800	34.504	0.101
72.900	40.306	0.101
73.000	32.764	0.101
73.100	42.012	0.101
73.200	40.372	0.101
73.300	33.719	0.101
73.400	32.206	0.101
73.500	26.260	0.101
73.600	39.787	0.101
73.700	41.079	0.101
73.800	28.516	0.101
73.900	34.059	0.101
74.000	35.308	0.101
74.100	37.436	0.101
74.200	45.763	0.101
74.300	32.249	0.101
74.400	39.333	0.101
74.500	28.356	0.101
74.600	46.061	0.101
74.700	25.455	0.101
74.800	22.334	0.101
74.900	32.688	0.101
75.000	32.938	0.101
75.100	38.083	0.101
75.200	26.150	0.101
75.300	34.470	0.101
75.400	43.607	0.101
75.500	35.763	0.101
75.600	37.403	0.101
75.700	33.806	0.101
75.800	40.328	0.101
75.900	38.399	0.101
76.000	29.083	0.101
76.100	47.691	0.101
76.200	47.945	0.101
76.300	33.111	0.101
76.400	37.527	0.101
76.500	36.364	0.101
76.600	30.015	0.101
76.700	22.771	0.101
76.800	45.173	0.101
76.900	29.016	0.101
77.000	44.101	0.101
77.100	49.935	0.101
77.200	26.599	0.101
77.300	36.754	0.101
77.400	33.823	0.101
77.500	23.684	0.101
77.600	38.331	0.101
77.700	27.477	0.101
77.800	27.205	0.101
77.900	29.022	0.101
78.000	34.661	0.101
78.100	37.489	0.101
78.200	30.956	0.101
78.300	22.974	0.101
78.400	32.893	0.101
78.500	46.558	0.101
78.600	35.240	0.101
78.700	30.297	0.101
78.800	45.702	0.101
78.900	35.255	0.101
79.000	26.014	0.101
79.100	34.934	0.101
79.200	33.355	0.101
79.300	31.491	0.101
79.400	38.904	0.101
79.500	40.838	0.101
79.600	32.894	0.101
79.700	30.603	0.101
79.800	36.233	0.101
79.900	17.733	0.101
80.000	28.615	0.101
80.100	37.054	0.101
80.200	38.148	0.101
80.300	35.981	0.101
80.400	42.868	0.101
80.500	29.257	0.101
80.600	32.661	0.101
80.700	30.199	0.101
80.800	39.200	0.101
80.900	29.514	0.101
81.000	42.409	0.101
81.100	36.384	0.101
81.200	34.067	0.101
81.300	43.628	0.101
81.400	42.831	0.101
81.500	23.017	0.101
81.600	32.494	0.101
81.700	35.450	0.101
81.800	25.295	0.101
81.900	42.959	0.101
82.000	43.591	0.101
82.100	44.230	0.101
82.200	39.410	0.101
82.300	33.282	0.101
82.400	31.926	0.101
82.500	35.811	0.101
82.600	31.871	0.101
82.700	26.233	0.101
82.800	20.104	0.101
82.900	32.560	0.101
83.000	31.994	0.101
83.100	33.825	0.101
83.200	43.026	0.101
83.300	36.523	0.101
83.400	30.275	0.101
83.500	37.851	0.101
83.600	26.140	0.101
83.700	25.288	0.101
83.800	35.958	0.101
83.900	36.473	0.101
84.000	34.111	0.101
84.100	41.053	0.101
84.200	37.474	0.101
84.300	33.843	0.101
84.400	44.299	0.101
84.500	33.402	0.101
84.600	35.529	0.101
84.700	31.224	0.101
84.800	41.088	0.101
84.900	29.301	0.101
85.000	35.245	0.101
85.100	48.339	0.101
85.200	40.784	0.101
85.300	38.583	0.101
85.400	26.858	0.101
85.500	26.189	0.101
85.600	20.658	0.101
85.700	36.410	0.101
85.800	36.500	0.101
85.900	44.155	0.101
86.000	45.804	0.101
86.100	37.204	0.101
86.200	32.560	0.101
86.300	36.669	0.101
86.400	38.222	0.101
86.500	32.990	0.101
86.600	27.370	0.101
86.700	27.917	0.101
86.800	42.188	0.101
86.900	34.017	0.101
87.000	33.712	0.101
87.100	35.223	0.101
87.200	39.113	0.101
87.300	38.798	0.101
87.400	31.914	0.101
87.500	46.311	0.101
87.600	43.029	0.101
87.700	42.573	0.101
87.800	32.868	0.101
87.900	37.380	0.101
88.000	40.912	0.101
88.100	35.784	0.101
88.200	36.015	0.101
88.300	28.105	0.101
88.400	26.742	0.101
88.500	35.388	0.101
88.600	32.386	0.101
88.700	30.489	0.101
88.800	43.103	0.101
88.900	33.631	0.101
89.000	36.490	0.101
89.100	26.862	0.101
89.200	34.170	0.101
89.300	46.035	0.101
89.400	34.256	0.101
89.500	25.438	0.101
89.600	24.811	0.101
89.700	37.933	0.101
89.800	36.646	0.101
89.900	32.423	0.101
90.000	31.587	0.101
90.100	34.877	0.101
90.200	32.515	0.101
90.300	31.531	0.101
90.400	21.982	0.101
90.500	30.864	0.101
90.600	19.258	0.101
90.700	16.348	0.101
90.800	16.023	0.101
90.900	17.664	0.101
91.000	23.945	0.101
91.100	15.959	0.101
91.200	13.009	0.101
91.300	4.029	0.101
91.400	11.266	0.101
91.500	5.768	0.101
91.600	2.325	0.101
91.700	1.705	0.101
91.800	11.946	0.101
91.900	11.925	0.101
92.000	-1.463	0.101
92.100	20.830	0.101
92.200	9.591	0.101
92.300	7.528	0.101
92.400	6.225	0.101
92.500	6.862	0.101
92.600	0.408	0.101
92.700	11.363	0.101
92.800	9.676	0.101
92.900	1.098	0.101
93.000	0.145	0.101
93.100	0.122	0.101
93.200	6.443	0.101
93.300	-0.804	0.101
93.400	-3.781	0.101
93.500	5.327	0.101
93.600	14.077	0.101
93.700	4.443	0.101
93.800	-4.633	0.101
93.900	3.778	0.101
94.000	-0.207	0.101
94.100	-2.880	0.101
94.200	2.733	0.101
94.300	1.087	0.101
94.400	-7.036	0.101
94.500	-11.292	0.101
94.600	-6.386	0.101
94.700	-7.675	0.101
94.800	-4.437	0.101
94.900	1.977	0.101
95.000	4.816	0.101
95.100	-4.168	0.101
95.200	-5.874	0.101
95.300	-5.614	0.101
95.400	-1.757	0.101
95.500	1.421	0.101
95.600	-2.495	0.101
95.700	-0.242	0.101
95.800	1.655	0.101
95.900	-2.588	0.101
96.000	-11.706	0.101
96.100	-5.625	0.101
96.200	-8.157	0.101
96.300	5.427	0.101
96.400	2.040	0.101
96.500	-0.136	0.101
96.600	-7.305	0.101
96.700	3.713	0.101
96.800	-7.950	0.101
96.900	-2.834	0.101
97.000	1.992	0.101
97.100	12.612	0.101
97.200	-11.506	0.101
97.300	-3.498	0.101
97.400	-0.147	0.101
97.500	-4.774	0.101
97.600	-12.393	0.101
97.700	-11.144	0.101
97.800	-7.333	0.101
97.900	-2.117	0.101
98.000	4.074	0.101
98.100	4.939	0.101
98.200	-0.860	0.101
98.300	-5.829	0.101
98.400	-4.449	0.101
98.500	-1.667	0.101
98.600	5.470	0.101
98.700	-0.175	0.101
98.800	-2.632	0.101
98.900	-0.830	0.101
99.000	-1.636	0.101
99.100	0.689	0.101
99.200	-9.531	0.101
99.300	-1.186	0.101
99.400	-1.628	0.101
99.500	-0.517	0.101
99.600	-7.669	0.101
99.700	-4.807	0.101
99.800	3.525	0.101
99.900	-0.379	0.101
100.000	-4.601	0.101
100.100	-7.891	0.101
100.200	-12.144	0.101
100.300	-5.219	0.101
100.400	1.786	0.101
100.500	-3.694	0.101
100.600	-3.958	0.101
100.700	-11.075	0.101
100.800	-0.085	0.101
100.900	-12.034	0.101
101.000	-9.005	0.101
101.100	1.528	0.101
101.200	-2.722	0.101
101.300	2.925	0.101
101.400	3.969	0.101
101.500	-2.043	0.101
101.600	-0.545	0.101
101.700	0.859	0.101
101.800	-11.019	0.101
101.900	0.378	0.101
102.000	5.203	0.101
102.100	0.752	0.101
102.200	-1.543	0.101
102.300	-11.371	0.101
102.400	0.232	0.101
102.500	-0.640	0.101
102.600	-6.002	0.101
102.700	-12.203	0.101
102.800	-7.395	0.101
102.900	-3.266	0.101
103.000	-0.684	0.101
103.100	-13.009	0.101
103.200	7.090	0.101
103.300	-5.308	0.101
103.400	-5.532	0.101
103.500	-15.395	0.101
103.600	9.788	0.101
103.700	-4.422	0.101
103.800	-5.191	0.101
103.900	-6.047	0.101
104.000	-14.293	0.101
104.100	-23.715	0.101
104.200	-10.481	0.101
104.300	-0.379	0.101
104.400	0.439	0.101
104.500	-7.529	0.101
104.600	-6.498	0.101
104.700	-2.380	0.101
104.800	-10.295	0.101
104.900	-14.424	0.101
105.000	-5.096	0.101
105.100	6.790	0.101
105.200	0.969	0.101
105.300	-17.121	0.101
105.400	-12.195	0.101
105.500	3.657	0.101
105.600	-1.589	0.101
105.700	-15.901	0.101
105.800	-11.365	0.101
105.900	-9.661	0.101
106.000	1.025	0.101
106.100	2.667	0.101
106.200	-1.686	0.101
106.300	-3.611	0.101
106.400	-12.330	0.101
106.500	1.344	0.101
106.600	0.009	0.101
106.700	-6.399	0.101
106.800	-11.285	0.101
106.900	-10.948	0.101
107.000	1.559	0.101
107.100	-7.619	0.101
107.200	1.066	0.101
107.300	-13.828	0.101
107.400	-8.334	0.101
107.500	-0.136	0.101
107.600	-8.226	0.101
107.700	-24.818	0.101
107.800	-15.563	0.101
107.900	-3.234	0.101
108.000	-13.106	0.101
108.100	-0.252	0.101
108.200	-0.145	0.101
108.300	-3.150	0.101
108.400	-2.502	0.101
108.500	-8.055	0.101
108.600	-15.523	0.101
108.700	-16.419	0.101
108.800	-17.344	0.101
108.900	-2.197	0.101
109.000	-11.468	0.101
109.100	-11.767	0.101
109.200	-16.997	0.101
109.300	-2.255	0.101
109.400	-13.825	0.101
109.500	-16.006	0.101
109.600	-10.915	0.101
109.700	-11.662	0.101
109.800	-5.042	0.101
109.900	-1.887	0.101
110.000	-2.911	0.101
110.100	-18.384	0.101
110.200	-13.467	0.101
110.300	-11.784	0.101
110.400	-11.013	0.101
110.500	-16.274	0.101
110.600	-13.325	0.101
110.700	-9.118	0.101
110.800	-10.482	0.101
110.900	-14.319	0.101
111.000	-19.049	0.101
111.100	-13.833	0.101
111.200	-6.827	0.101
111.300	-14.626	0.101
111.400	-4.714	0.101
111.500	-14.978	0.101
111.600	-8.032	0.101
111.700	-6.744	0.101
111.800	-2.643	0.101
111.900	-9.414	0.101
112.000	-9.414	0.101
112.100	-1.286	0.101
112.200	-16.021	0.101
112.300	-7.118	0.101
112.400	-13.447	0.101
112.500	-13.608	0.101
112.600	-14.619	0.101
112.700	-15.900	0.101
112.800	-6.269	0.101
112.900	-5.920	0.101
113.000	-11.352	0.101
113.100	-18.283	0.101
113.200	-17.137	0.101
113.300	-12.432	0.101
113.400	-20.069	0.101
113.500	-13.934	0.101
113.600	-19.456	0.101
113.700	-9.437	0.101
113.800	-1.564	0.101
113.900	-12.392	0.101
114.000	-8.348	0.101
114.100	-2.985	0.101
114.200	-4.982	0.101
114.300	-1.663	0.101
114.400	-13.270	0.101
114.500	-1.680	0.101
114.600	0.929	0.101
114.700	-18.422	0.101
114.800	-13.075	0.101
114.900	-15.675	0.101
115.000	-6.333	0.101
115.100	-10.606	0.101
115.200	-11.877	0.101
115.300	-10.703	0.101
115.400	-21.274	0.101
115.500	-19.832	0.101
115.600	-27.461	0.101
115.700	-9.286	0.101
115.800	-5.946	0.101
115.900	-20.250	0.101
116.000	-18.043	0.101
116.100	-4.777	0.101
116.200	-11.888	0.101
116.300	3.000	0.101
116.400	-21.284	0.101
116.500	-6.680	0.101
116.600	-8.445	0.101
116.700	-6.872	0.101
116.800	-19.376	0.101
116.900	-22.563	0.101
117.000	-11.902	0.101
117.100	-10.417	0.101
117.200	-5.952	0.101
117.300	-10.870	0.101
117.400	-13.689	0.101
117.500	-27.131	0.101
117.600	-9.291	0.101
117.700	-6.839	0.101
117.800	-15.736	0.101
117.900	-17.189	0.101
118.000	-2.569	0.101
118.100	-16.842	0.101
118.200	-21.350	0.101
118.300	-19.133	0.101
118.400	-10.747	0.101
118.500	-9.431	0.101
118.600	-11.934	0.101
118.700	-11.536	0.101
118.800	-8.091	0.101
118.900	-14.560	0.101
119.000	-18.537	0.101
119.100	-13.057	0.101
119.200	-21.380	0.101
119.300	-2.167	0.101
119.400	-8.177	0.101
119.500	-7.657	0.101
119.600	-19.308	0.101
119.700	-21.153	0.101
119.800	-18.317	0.101
119.900	-17.229	0.101
120.000	-25.016	0.101
120.100	-19.471	0.101
120.200	-13.789	0.101
120.300	-21.158	0.101
120.400	-20.893	0.101
120.500	-17.710	0.101
120.600	-7.228	0.101
120.700	-7.433	0.101
120.800	-9.902	0.101
120.900	-20.651	0.101
121.000	-17.706	0.101
121.100	-15.483	0.101
121.200	-15.289	0.101
121.300	-8.984	0.101
121.400	-5.373	0.101
121.500	-23.223	0.101
121.600	-22.126	0.101
121.700	-15.309	0.101
121.800	-15.523	0.101
121.900	-16.957	0.101
122.000	-13.134	0.101
122.100	-13.545	0.101
122.200	-21.493	0.101
122.300	-13.704	0.101
122.400	-12.597	0.101
122.500	-7.642	0.101
122.600	-20.677	0.101
122.700	-26.552	0.101
122.800	-11.576	0.101
122.900	-16.295	0.101
123.000	-14.755	0.101
123.100	-19.579	0.101
123.200	-20.657	0.101
123.300	-26.583	0.101
123.400	-21.622	0.101
123.500	-13.815	0.101
123.600	-8.646	0.101
123.700	-14.177	0.101
123.800	-12.301	0.101
123.900	-20.598	0.101
124.000	-14.075	0.101
124.100	-20.931	0.101
124.200	-17.195	0.101
124.300	-25.869	0.101
124.400	-17.398	0.101
124.500	-28.213	0.101
124.600	-21.523	0.101
124.700	-14.757	0.101
124.800	-14.702	0.101
124.900	-13.000	0.101
125.000	-19.749	0.101
125.100	-12.222	0.101
125.200	-20.056	0.101
125.300	-17.995	0.101
125.400	-23.055	0.101
125.500	-16.400	0.101
125.600	-19.937	0.101
125.700	-13.374	0.101
125.800	-22.764	0.101
125.900	-24.185	0.101
126.000	-18.652	0.101
126.100	-8.235	0.101
126.200	-22.773	0.101
126.300	-23.503	0.101
126.400	-21.975	0.101
126.500	-16.948	0.101
126.600	-15.818	0.101
126.700	-11.882	0.101
126.800	-9.248	0.101
126.900	-23.853	0.101
127.000	-19.481	0.101
127.100	-10.787	0.101
127.200	-18.105	0.101
127.300	-24.995	0.101
127.400	-21.503	0.101
127.500	-22.270	0.101
127.600	-20.766	0.101
127.700	-10.886	0.101
127.800	-18.962	0.101
127.900	-15.315	0.101
128.000	-15.382	0.101
128.100	-28.112	0.101
128.200	-16.907	0.101
128.300	-23.797	0.101
128.400	-15.302	0.101
128.500	-17.778	0.101
128.600	-15.550	0.101
128.700	-12.434	0.101
128.800	-21.906	0.101
128.900	-20.430	0.101
129.000	-12.349	0.101
129.100	-13.389	0.101
129.200	-12.945	0.101
129.300	-23.126	0.101
129.400	-28.642	0.101
129.500	-18.154	0.101
129.600	-22.006	0.101
129.700	-19.021	0.101
129.800	-20.933	0.101
129.900	-25.114	0.101
130.000	-17.695	0.101
130.100	-14.461	0.101
130.200	-10.761	0.101
130.300	-9.033	0.101
130.400	-12.864	0.101
130.500	-15.842	0.101
130.600	-32.300	0.101
130.700	-24.956	0.101
130.800	-21.221	0.101
130.900	-21.723	0.101
131.000	-11.972	0.101
131.100	-14.685	0.101
131.200	-14.830	0.101
131.300	-12.940	0.101
131.400	-23.592	0.101
131.500	-14.884	0.101
131.600	-22.430	0.101
131.700	-18.389	0.101
131.800	-28.967	0.101
131.900	-19.565	0.101
132.000	-19.991	0.101
132.100	-24.421	0.101
132.200	-19.564	0.101
132.300	-13.535	0.101
132.400	-27.169	0.101
132.500	-22.249	0.101
132.600	-21.256	0.101
132.700	-16.209	0.101
132.800	-16.920	0.101
132.900	-23.627	0.101
133.000	-15.792	0.101
133.100	-16.542	0.101
133.200	-13.512	0.101
133.300	-15.850	0.101
133.400	-14.908	0.101
133.500	-14.117	0.101
133.600	-20.112	0.101
133.700	-21.556	0.101
133.800	-18.385	0.101
133.900	-23.296	0.101
134.000	-15.984	0.101
134.100	-21.875	0.101
134.200	-18.167	0.101
134.300	-28.556	0.101
134.400	-14.440	0.101
134.500	-9.877	0.101
134.600	-18.165	0.101
134.700	-11.050	0.101
134.800	-20.055	0.101
134.900	-24.098	0.101
135.000	-30.641	0.101
135.100	-33.189	0.101
135.200	-11.276	0.101
135.300	-9.376	0.101
135.400	-15.086	0.101
135.500	-15.061	0.101
135.600	-20.398	0.101
135.700	-20.786	0.101
135.800	-14.630	0.101
135.900	-16.257	0.101
136.000	-15.535	0.101
136.100	-16.672	0.101
136.200	-15.474	0.101
136.300	-18.912	0.101
136.400	-16.542	0.101
136.500	-26.379	0.101
136.600	-16.625	0.101
136.700	-22.768	0.101
136.800	-12.491	0.101
136.900	-16.983	0.101
137.000	-21.343	0.101
137.100	-26.923	0.101
137.200	-21.248	0.101
137.300	-19.908	0.101
137.400	-16.034	0.101
137.500	-26.235	0.101
137.600	-1.581	0.101
137.700	-15.217	0.101
137.800	-15.481	0.101
137.900	-12.185	0.101
138.000	-28.968	0.101
138.100	-15.243	0.101
138.200	-25.182	0.101
138.300	-16.296	0.101
138.400	-17.095	0.101
138.500	-23.467	0.101
138.600	-25.434	0.101
138.700	-19.440	0.101
138.800	-28.093	0.101
138.900	-19.192	0.101
139.000	-14.806	0.101
139.100	-14.595	0.101
139.200	-21.847	0.101
139.300	-21.361	0.101
139.400	-18.001	0.101
139.500	-27.012	0.101
139.600	-11.049	0.101
139.700	-10.889	0.101
139.800	-18.473	0.101
139.900	-19.563	0.101
140.000	-23.661	0.101
140.100	-18.882	0.101
140.200	-22.724	0.101
140.300	-22.953	0.101
140.400	-13.967	0.101
140.500	-18.047	0.101
140.600	-30.314	0.101
140.700	-8.902	0.101
140.800	-18.722	0.101
140.900	-14.754	0.101
141.000	-11.034	0.101
141.100	-2.324	0.101
141.200	-19.033	0.101
141.300	-14.621	0.101
141.400	-21.614	0.101
141.500	-26.480	0.101
141.600	-12.826	0.101
141.700	-19.148	0.101
141.800	-15.820	0.101
141.900	-19.767	0.101
142.000	-35.112	0.101
142.100	-18.636	0.101
142.200	-13.294	0.101
142.300	-8.421	0.101
142.400	-18.854	0.101
142.500	-16.827	0.101
142.600	-19.151	0.101
142.700	-23.249	0.101
142.800	-13.058	0.101
142.900	-17.410	0.101
143.000	-15.272	0.101
143.100	-22.783	0.101
143.200	-18.188	0.101
143.300	-15.601	0.101
143.400	-28.368	0.101
143.500	-19.953	0.101
143.600	-21.318	0.101
143.700	-16.128	0.101
143.800	-18.451	0.101
143.900	-20.336	0.101
144.000	-20.193	0.101
144.100	-17.816	0.101
144.200	-15.447	0.101
144.300	-19.400	0.101
144.400	-17.578	0.101
144.500	-16.901	0.101
144.600	-10.470	0.101
144.700	-16.823	0.101
144.800	-18.862	0.101
144.900	-3.881	0.101
145.000	-18.433	0.101
145.100	-22.734	0.101
145.200	-11.674	0.101
145.300	-16.225	0.101
145.400	-19.754	0.101
145.500	-25.039	0.101
145.600	-32.905	0.101
145.700	-13.523	0.101
145.800	-24.180	0.101
145.900	-18.956	0.101
146.000	-21.136	0.101
146.100	-9.119	0.101
146.200	-9.725	0.101
146.300	-11.521	0.101
146.400	-24.374	0.101
146.500	-19.189	0.101
146.600	-6.126	0.101
146.700	-8.094	0.101
146.800	-13.286	0.101
146.900	-16.808	0.101
147.000	-17.861	0.101
147.100	-13.258	0.101
147.200	-16.054	0.101
147.300	-28.935	0.101
147.400	-21.508	0.101
147.500	-18.482	0.101
147.600	-32.370	0.101
147.700	-8.737	0.101
147.800	-16.348	0.101
147.900	-17.811	0.101
148.000	-15.705	0.101
148.100	-17.654	0.101
148.200	-3.125	0.101
148.300	-26.477	0.101
148.400	-12.697	0.101
148.500	-19.424	0.101
148.600	-13.646	0.101
148.700	-20.077	0.101
148.800	-21.951	0.101
148.900	-10.938	0.101
149.000	-15.691	0.101
149.100	-13.652	0.101
149.200	-22.020	0.101
149.300	-20.836	0.101
149.400	-22.241	0.101
149.500	-24.473	0.101
149.600	-14.056	0.101
149.700	-8.717	0.101
149.800	-7.500	0.101
149.900	-11.206	0.101
150.000	-18.650	0.101
150.100	-32.908	0.101
150.200	-32.873	0.101
150.300	-30.030	0.101
150.400	-15.079	0.101
150.500	-11.823	0.101
150.600	-22.225	0.101
150.700	-16.792	0.101
150.800	-7.146	0.101
150.900	-18.816	0.101
151.000	-17.831	0.101
151.100	-11.465	0.101
151.200	-14.141	0.101
151.300	-16.256	0.101
151.400	-6.692	0.101
151.500	-24.613	0.101
151.600	-17.218	0.101
151.700	-27.375	0.101
151.800	-18.653	0.101
151.900	-20.034	0.101
152.000	-16.055	0.101
152.100	-17.180	0.101
152.200	-18.355	0.101
152.300	-21.321	0.101
152.400	-21.746	0.101
152.500	-13.818	0.101
152.600	-24.989	0.101
152.700	-14.073	0.101
152.800	-17.938	0.101
152.900	-18.520	0.101
153.000	-15.797	0.101
153.100	-19.489	0.101
153.200	-21.396	0.101
153.300	-15.958	0.101
153.400	-13.282	0.101
153.500	-9.345	0.101
153.600	-23.794	0.101
153.700	-11.764	0.101
153.800	-25.480	0.101
153.900	-18.495	0.101
154.000	-19.026	0.101
154.100	-9.294	0.101
154.200	-12.214	0.101
154.300	-13.258	0.101
154.400	-22.685	0.101
154.500	-16.795	0.101
154.600	-25.372	0.101
154.700	-19.991	0.101
154.800	-18.624	0.101
154.900	-10.440	0.101
155.000	-1.995	0.101
155.100	-12.233	0.101
155.200	-16.728	0.101
155.300	-23.764	0.101
155.400	-18.052	0.101
155.500	-27.051	0.101
155.600	-19.084	0.101
155.700	-16.119	0.101
155.800	-4.587	0.101
155.900	-13.430	0.101
156.000	-3.348	0.101
156.100	-20.694	0.101
156.200	-21.855	0.101
156.300	-12.472	0.101
156.400	-18.416	0.101
156.500	-15.190	0.101
156.600	-15.519	0.101
156.700	-21.250	0.101
156.800	-17.921	0.101
156.900	-5.856	0.101
157.000	-19.287	0.101
157.100	-17.143	0.101
157.200	-8.404	0.101
157.300	-15.182	0.101
157.400	-17.200	0.101
157.500	-16.047	0.101
157.600	-11.073	0.101
157.700	-15.707	0.101
157.800	-23.896	0.101
157.900	-15.004	0.101
158.000	-13.258	0.101
158.100	-11.111	0.101
158.200	-30.544	0.101
158.300	-17.146	0.101
158.400	-15.041	0.101
158.500	-6.522	0.101
158.600	-15.904	0.101
158.700	-11.417	0.101
158.800	-11.989	0.101
158.900	-25.555	0.101
159.000	-20.981	0.101
159.100	-13.512	0.101
159.200	-19.557	0.101
159.300	-16.326	0.101
159.400	-11.069	0.101
159.500	-14.196	0.101
159.600	-14.962	0.101
159.700	-18.242	0.101
159.800	-15.431	0.101
159.900	-22.294	0.101
160.000	-12.793	0.101
160.100	-26.389	0.101
160.200	-21.810	0.101
160.300	-10.087	0.101
160.400	-13.926	0.101
160.500	-13.106	0.101
160.600	-20.851	0.101
160.700	-20.364	0.101
160.800	-18.347	0.101
160.900	-17.986	0.101
161.000	-14.499	0.101
161.100	-10.854	0.101
161.200	-11.010	0.101
161.300	-15.657	0.101
161.400	-16.313	0.101
161.500	-19.036	0.101
161.600	-17.283	0.101
161.700	-16.225	0.101
161.800	-23.876	0.101
161.900	-8.140	0.101
162.000	-12.129	0.101
162.100	-23.147	0.101
162.200	-15.734	0.101
162.300	-23.482	0.101
162.400	-13.125	0.101
162.500	-12.782	0.101
162.600	-6.840	0.101
162.700	-11.223	0.101
162.800	-10.571	0.101
162.900	-25.017	0.101
163.000	-11.211	0.101
163.100	-17.367	0.101
163.200	-13.844	0.101
163.300	-13.287	0.101
163.400	-17.268	0.101
163.500	-21.516	0.101
163.600	-30.678	0.101
163.700	-12.917	0.101
163.800	-16.257	0.101
163.900	-15.876	0.101
164.000	-14.594	0.101
164.100	-16.509	0.101
164.200	-14.482	0.101
164.300	-11.695	0.101
164.400	-10.778	0.101
164.500	-21.569	0.101
164.600	-17.156	0.101
164.700	-15.471	0.101
164.800	-9.609	0.101
164.900	-13.788	0.101
165.000	-11.407	0.101
165.100	-15.232	0.101
165.200	-13.324	0.101
165.300	-13.351	0.101
165.400	-19.513	0.101
165.500	-16.604	0.101
165.600	-22.043	0.101
165.700	-10.175	0.101
165.800	-22.649	0.101
165.900	-11.978	0.101
166.000	-24.671	0.101
166.100	-10.493	0.101
166.200	-7.413	0.101
166.300	-11.742	0.101
166.400	-10.152	0.101
166.500	-8.623	0.101
166.600	-11.113	0.101
166.700	-13.552	0.101
166.800	-13.450	0.101
166.900	-23.870	0.101
167.000	-15.407	0.101
167.100	-21.346	0.101
167.200	-4.865	0.101
167.300	-10.180	0.101
167.400	-16.802	0.101
167.500	-10.274	0.101
167.600	-13.447	0.101
167.700	-15.611	0.101
167.800	-14.222	0.101
167.900	-14.018	0.101
168.000	-17.142	0.101
168.100	-11.994	0.101
168.200	-12.359	0.101
168.300	-12.375	0.101
168.400	-6.727	0.101
168.500	-22.493	0.101
168.600	-14.563	0.101
168.700	-7.202	0.101
168.800	-8.810	0.101
168.900	-20.249	0.101
169.000	-21.084	0.101
169.100	-21.172	0.101
169.200	-15.963	0.101
169.300	-2.990	0.101
169.400	-3.564	0.101
169.500	-16.280	0.101
169.600	-27.706	0.101
169.700	-28.545	0.101
169.800	-24.058	0.101
169.900	-13.332	0.101
170.000	-9.826	0.101
170.100	-10.841	0.101
170.200	-14.163	0.101
170.300	-15.018	0.101
170.400	-21.506	0.101
170.500	-17.465	0.101
170.600	-3.830	0.101
170.700	-22.113	0.101
170.800	-14.823	0.101
170.900	-13.731	0.101
171.000	-14.079	0.101
171.100	-18.537	0.101
171.200	-6.875	0.101
171.300	-23.409	0.101
171.400	-12.262	0.101
171.500	-9.781	0.101
171.600	-22.512	0.101
171.700	-14.373	0.101
171.800	-11.180	0.101
171.900	-11.584	0.101
172.000	-15.840	0.101
172.100	-3.061	0.101
172.200	-8.307	0.101
172.300	-12.218	0.101
172.400	-13.380	0.101
172.500	-15.805	0.101
172.600	-11.610	0.101
172.700	-25.604	0.101
172.800	-21.449	0.101
172.900	-15.693	0.101
173.000	-17.646	0.101
173.100	-10.811	0.101
173.200	-19.735	0.101
173.300	-19.015	0.101
173.400	-19.380	0.101
173.500	-17.762	0.101
173.600	-11.171	0.101
173.700	-6.477	0.101
173.800	-20.786	0.101
173.900	-12.351	0.101
174.000	-15.843	0.101
174.100	-20.088	0.101
174.200	-14.885	0.101
174.300	-19.063	0.101
174.400	-12.486	0.101
174.500	-16.349	0.101
174.600	-5.144	0.101
174.700	-13.823	0.101
174.800	-14.389	0.101
174.900	-17.203	0.101
175.000	-6.542	0.101
175.100	-18.539	0.101
175.200	-17.099	0.101
175.300	-16.986	0.101
175.400	-11.695	0.101
175.500	-18.170	0.101
175.600	-12.523	0.101
175.700	-10.905	0.101
175.800	-17.641	0.101
175.900	-19.296	0.101
176.000	-16.957	0.101
176.100	-1.839	0.101
176.200	-15.696	0.101
176.300	-24.528	0.101
176.400	-27.579	0.101
176.500	-20.404	0.101
176.600	-18.407	0.101
176.700	-13.823	0.101
176.800	-18.072	0.101
176.900	-11.190	0.101
177.000	-12.560	0.101
177.100	-15.615	0.101
177.200	-16.184	0.101
177.300	-11.611	0.101
177.400	-15.495	0.101
177.500	-6.711	0.101
177.600	-0.021	0.101
177.700	-20.978	0.101
177.800	-13.177	0.101
177.900	-20.915	0.101
178.000	-24.486	0.101
178.100	-27.921	0.101
178.200	-15.433	0.101
178.300	-14.666	0.101
178.400	-12.144	0.101
178.500	-13.418	0.101
178.600	-17.542	0.101
178.700	-15.838	0.101
178.800	-1.201	0.101
178.900	-7.836	0.101
179.000	-14.752	0.101
179.100	-16.862	0.101
179.200	-13.347	0.101
179.300	-6.049	0.101
179.400	-6.311	0.101
179.500	-19.216	0.101
179.600	-6.804	0.101
179.700	-18.428	0.101
179.800	-21.300	0.101
179.900	-7.272	0.101
180.000	-10.593	0.101
180.100	-6.069	0.101
180.200	-1.323	0.101
180.300	8.688	0.101
180.400	-8.954	0.101
180.500	4.072	0.101
180.600	5.453	0.101
180.700	2.010	0.101
180.800	5.780	0.101
180.900	8.384	0.101
181.000	8.050	0.101
181.100	9.900	0.101
181.200	5.865	0.101
181.300	-1.313	0.101
181.400	1.334	0.101
181.500	12.972	0.101
181.600	18.766	0.101
181.700	18.512	0.101
181.800	27.242	0.101
181.900	6.349	0.101
182.000	6.476	0.101
182.100	11.886	0.101
182.200	20.946	0.101
182.300	11.981	0.101
182.400	17.067	0.101
182.500	16.539	0.101
182.600	25.264	0.101
182.700	20.877	0.101
182.800	9.880	0.101
182.900	25.350	0.101
183.000	24.700	0.101
183.100	17.287	0.101
183.200	17.162	0.101
183.300	18.597	0.101
183.400	17.629	0.101
183.500	19.202	0.101
183.600	24.525	0.101
183.700	21.838	0.101
183.800	17.584	0.101
183.900	24.367	0.101
184.000	21.693	0.101
184.100	22.473	0.101
184.200	12.957	0.101
184.300	17.228	0.101
184.400	21.894	0.101
184.500	21.823	0.101
184.600	25.957	0.101
184.700	14.733	0.101
184.800	14.677	0.101
184.900	15.897	0.101
185.000	8.567	0.101
185.100	18.991	0.101
185.200	24.757	0.101
185.300	14.180	0.101
185.400	17.899	0.101
185.500	17.796	0.101
185.600	10.553	0.101
185.700	1.503	0.101
185.800	14.903	0.101
185.900	14.510	0.101
186.000	14.341	0.101
186.100	8.330	0.101
186.200	12.090	0.101
186.300	10.376	0.101
186.400	15.321	0.101
186.500	13.714	0.101
186.600	1.337	0.101
186.700	10.329	0.101
186.800	18.012	0.101
186.900	26.174	0.101
187.000	13.014	0.101
187.100	11.261	0.101
187.200	15.575	0.101
187.300	17.400	0.101
187.400	16.704	0.101
187.500	7.352	0.101
187.600	7.283	0.101
187.700	3.954	0.101
187.800	10.636	0.101
187.900	16.821	0.101
188.000	6.291	0.101
188.100	12.961	0.101
188.200	8.948	0.101
188.300	16.571	0.101
188.400	7.544	0.101
188.500	7.939	0.101
188.600	18.800	0.101
188.700	23.262	0.101
188.800	15.433	0.101
188.900	21.968	0.101
189.000	11.680	0.101
189.100	17.391	0.101
189.200	19.679	0.101
189.300	8.460	0.101
189.400	20.229	0.101
189.500	22.628	0.101
189.600	10.549	0.101
189.700	19.319	0.101
189.800	11.685	0.101
189.900	10.878	0.101
190.000	4.821	0.101
190.100	6.786	0.101
190.200	13.360	0.101
190.300	12.837	0.101
190.400	21.444	0.101
190.500	16.011	0.101
190.600	19.299	0.101
190.700	10.472	0.101
190.800	3.292	0.101
190.900	11.617	0.101
191.000	13.011	0.101
191.100	8.315	0.101
191.200	16.384	0.101
191.300	24.165	0.101
191.400	22.532	0.101
191.500	11.314	0.101
191.600	12.202	0.101
191.700	16.375	0.101
191.800	16.195	0.101
191.900	13.487	0.101
192.000	12.878	0.101
192.100	27.920	0.101
192.200	14.678	0.101
192.300	12.437	0.101
192.400	18.095	0.101
192.500	15.508	0.101
192.600	13.708	0.101
192.700	16.453	0.101
192.800	13.634	0.101
192.900	7.107	0.101
193.000	14.406	0.101
193.100	18.571	0.101
193.200	16.936	0.101
193.300	20.095	0.101
193.400	19.014	0.101
193.500	20.816	0.101
193.600	27.018	0.101
193.700	16.733	0.101
193.800	22.639	0.101
193.900	7.274	0.101
194.000	13.493	0.101
194.100	25.748	0.101
194.200	27.388	0.101
194.300	27.523	0.101
194.400	11.755	0.101
194.500	13.146	0.101
194.600	19.778	0.101
194.700	20.142	0.101
194.800	23.149	0.101
194.900	34.736	0.101
195.000	25.166	0.101
195.100	15.565	0.101
195.200	3.492	0.101
195.300	27.893	0.101
195.400	27.833	0.101
195.500	25.694	0.101
195.600	26.947	0.101
195.700	9.098	0.101
195.800	19.770	0.101
195.900	17.020	0.101
196.000	36.304	0.101
196.100	24.912	0.101
196.200	36.905	0.101
196.300	29.009	0.101
196.400	25.415	0.101
196.500	29.865	0.101
196.600	16.196	0.101
196.700	30.219	0.101
196.800	19.266	0.101
196.900	26.009	0.101
197.000	28.184	0.101
197.100	32.650	0.101
197.200	25.460	0.101
197.300	23.058	0.101
197.400	25.964	0.101
197.500	27.177	0.101
197.600	34.259	0.101
197.700	38.836	0.101
197.800	31.261	0.101
197.900	27.512	0.101
198.000	26.093	0.101
198.100	30.452	0.101
198.200	31.539	0.101
198.300	39.609	0.101
198.400	35.561	0.101
198.500	27.719	0.101
198.600	25.948	0.101
198.700	35.678	0.101
198.800	23.611	0.101
198.900	31.564	0.101
199.000	36.251	0.101
199.100	30.348	0.101
199.200	31.435	0.101
199.300	37.757	0.101
199.400	43.622	0.101
199.500	20.992	0.101
199.600	36.563	0.101
199.700	37.690	0.101
199.800	33.221	0.101
199.900	40.007	0.101
200.000	41.560	0.101
200.100	32.922	0.101
200.200	34.636	0.101
200.300	30.475	0.101
200.400	26.720	0.101
200.500	32.308	0.101
200.600	42.471	0.101
200.700	29.146	0.101
200.800	33.237	0.101
200.900	36.482	0.101
201.000	43.617	0.101
201.100	31.537	0.101
201.200	33.157	0.101
201.300	36.456	0.101
201.400	36.694	0.101
201.500	35.572	0.101
201.600	35.014	0.101
201.700	37.856	0.101
201.800	45.826	0.101
201.900	39.356	0.101
202.000	29.313	0.101
202.100	42.003	0.101
202.200	46.558	0.101
202.300	46.477	0.101
202.400	34.164	0.101
202.500	32.546	0.101
202.600	47.967	0.101
202.700	43.416	0.101
202.800	34.486	0.101
202.900	31.846	0.101
203.000	30.389	0.101
203.100	46.035	0.101
203.200	42.905	0.101
203.300	31.595	0.101
203.400	38.676	0.101
203.500	42.939	0.101
203.600	40.703	0.101
203.700	47.066	0.101
203.800	49.225	0.101
203.900	40.296	0.101
204.000	30.020	0.101
204.100	38.361	0.101
204.200	43.699	0.101
204.300	41.934	0.101
204.400	47.303	0.101
204.500	40.692	0.101
204.600	41.724	0.101
204.700	44.011	0.101
204.800	43.958	0.101
204.900	43.975	0.101
205.000	33.988	0.101
205.100	45.222	0.101
205.200	38.641	0.101
205.300	39.402	0.101
205.400	38.759	0.101
205.500	43.826	0.101
205.600	36.670	0.101
205.700	38.033	0.101
205.800	42.234	0.101
205.900	39.313	0.101
206.000	41.987	0.101
206.100	47.483	0.101
206.200	44.503	0.101
206.300	49.328	0.101
206.400	44.689	0.101
206.500	40.162	0.101
206.600	32.571	0.101
206.700	32.373	0.101
206.800	33.959	0.101
206.900	44.153	0.101
207.000	34.722	0.101
207.100	40.585	0.101
207.200	35.185	0.101
207.300	32.759	0.101
207.400	35.950	0.101
207.500	41.470	0.101
207.600	50.523	0.101
207.700	47.791	0.101
207.800	44.340	0.101
207.900	43.685	0.101
208.000	40.211	0.101
208.100	47.979	0.101
208.200	38.787	0.101
208.300	36.304	0.101
208.400	51.940	0.101
208.500	48.986	0.101
208.600	45.558	0.101
208.700	36.620	0.101
208.800	40.377	0.101
208.900	35.762	0.101
209.000	45.299	0.101
209.100	47.458	0.101
209.200	34.584	0.101
209.300	45.204	0.101
209.400	37.374	0.101
209.500	38.957	0.101
209.600	41.536	0.101
209.700	38.293	0.101
209.800	45.310	0.101
209.900	42.219	0.101
210.000	44.278	0.101
210.100	37.453	0.101
210.200	35.466	0.101
210.300	45.527	0.101
210.400	32.789	0.101
210.500	37.686	0.101
210.600	35.748	0.101
210.700	30.769	0.101
210.800	42.130	0.101
210.900	50.802	0.101
211.000	32.691	0.101
211.100	34.128	0.101
211.200	29.657	0.101
211.300	43.056	0.101
211.400	43.962	0.101
211.500	36.002	0.101
211.600	42.530	0.101
211.700	50.248	0.101
211.800	49.559	0.101
211.900	31.902	0.101
212.000	41.872	0.101
212.100	43.153	0.101
212.200	36.879	0.101
212.300	39.216	0.101
212.400	31.712	0.101
212.500	43.700	0.101
212.600	35.622	0.101
212.700	46.454	0.101
212.800	36.392	0.101
212.900	42.280	0.101
213.000	39.487	0.101
213.100	33.209	0.101
213.200	31.046	0.101
213.300	37.310	0.101
213.400	35.396	0.101
213.500	44.917	0.101
213.600	34.585	0.101
213.700	37.544	0.101
213.800	44.738	0.101
213.900	33.648	0.101
214.000	28.257	0.101
214.100	27.657	0.101
214.200	31.706	0.101
214.300	49.910	0.101
214.400	44.300	0.101
214.500	40.700	0.101
214.600	33.097	0.101
214.700	33.313	0.101
214.800	39.028	0.101
214.900	30.044	0.101
215.000	41.433	0.101
215.100	39.065	0.101
215.200	30.453	0.101
215.300	43.272	0.101
215.400	41.805	0.101
215.500	38.815	0.101
215.600	33.084	0.101
215.700	40.026	0.101
215.800	49.000	0.101
215.900	39.686	0.101
216.000	43.345	0.101
216.100	29.620	0.101
216.200	32.830	0.101
216.300	47.173	0.101
216.400	43.927	0.101
216.500	46.946	0.101
216.600	43.918	0.101
216.700	41.533	0.101
216.800	30.786	0.101
216.900	40.308	0.101
217.000	40.987	0.101
217.100	43.842	0.101
217.200	37.855	0.101
217.300	26.953	0.101
217.400	40.988	0.101
217.500	35.224	0.101
217.600	32.742	0.101
217.700	31.466	0.101
217.800	32.342	0.101
217.900	30.171	0.101
218.000	33.467	0.101
218.100	27.057	0.101
218.200	39.524	0.101
218.300	48.599	0.101
218.400	36.963	0.101
218.500	45.366	0.101
218.600	48.140	0.101
218.700	32.225	0.101
218.800	27.404	0.101
218.900	34.945	0.101
219.000	45.154	0.101
219.100	44.167	0.101
219.200	37.146	0.101
219.300	35.366	0.101
219.400	44.059	0.101
219.500	47.210	0.101
219.600	33.163	0.101
219.700	48.068	0.101
219.800	48.367	0.101
219.900	37.694	0.101
220.000	34.855	0.101
220.100	35.735	0.101
220.200	43.086	0.101
220.300	40.095	0.101
220.400	37.216	0.101
220.500	44.157	0.101
220.600	39.092	0.101
220.700	36.828	0.101
220.800	45.209	0.101
220.900	33.754	0.101
221.000	32.417	0.101
221.100	45.614	0.101
221.200	39.486	0.101
221.300	39.782	0.101
221.400	39.611	0.101
221.500	37.354	0.101
221.600	39.074	0.101
221.700	38.828	0.101
221.800	44.370	0.101
221.900	43.655	0.101
222.000	43.359	0.101
222.100	41.658	0.101
222.200	33.004	0.101
222.300	43.791	0.101
222.400	30.800	0.101
222.500	41.399	0.101
222.600	32.913	0.101
222.700	36.866	0.101
222.800	45.191	0.101
222.900	33.455	0.101
223.000	46.831	0.101
223.100	34.032	0.101
223.200	45.335	0.101
223.300	41.641	0.101
223.400	41.044	0.101
223.500	46.619	0.101
223.600	29.901	0.101
223.700	40.184	0.101
223.800	41.217	0.101
223.900	51.586	0.101
224.000	32.148	0.101
224.100	30.202	0.101
224.200	32.706	0.101
224.300	41.938	0.101
224.400	40.150	0.101
224.500	31.685	0.101
224.600	43.157	0.101
224.700	45.459	0.101
224.800	34.332	0.101
224.900	34.733	0.101
225.000	40.277	0.101
225.100	32.666	0.101
225.200	22.411	0.101
225.300	28.315	0.101
225.400	41.879	0.101
225.500	37.205	0.101
225.600	32.484	0.101
225.700	47.964	0.101
225.800	33.251	0.101
225.900	35.675	0.101
226.000	40.051	0.101
226.100	36.859	0.101
226.200	40.663	0.101
226.300	36.762	0.101
226.400	32.050	0.101
226.500	41.655	0.101
226.600	43.867	0.101
226.700	28.625	0.101
226.800	34.212	0.101
226.900	36.217	0.101
227.000	27.356	0.101
227.100	41.584	0.101
227.200	52.419	0.101
227.300	41.742	0.101
227.400	35.166	0.101
227.500	47.151	0.101
227.600	37.924	0.101
227.700	40.634	0.101
227.800	42.211	0.101
227.900	34.398	0.101
228.000	32.756	0.101
228.100	23.409	0.101
228.200	44.471	0.101
228.300	47.703	0.101
228.400	45.803	0.101
228.500	47.335	0.101
228.600	31.022	0.101
228.700	29.173	0.101
228.800	38.680	0.101
228.900	39.959	0.101
229.000	29.940	0.101
229.100	37.579	0.101
229.200	40.030	0.100
229.300	37.979	0.101
229.400	21.566	0.101
229.500	30.771	0.101
229.600	45.080	0.101
229.700	54.219	0.101
229.800	45.395	0.101
229.900	44.447	0.101
230.000	41.941	0.101
230.100	33.198	0.101
230.200	37.503	0.101
230.300	39.498	0.101
230.400	40.986	0.101
230.500	48.175	0.101
230.600	41.386	0.101
230.700	41.522	0.101
230.800	26.089	0.101
230.900	42.559	0.101
231.000	37.351	0.101
231.100	39.303	0.101
231.200	28.965	0.101
231.300	28.180	0.101
231.400	34.885	0.101
231.500	39.218	0.101
231.600	39.352	0.101
231.700	44.176	0.100
231.800	49.245	0.101
231.900	30.240	0.100
232.000	38.281	0.101
232.100	43.464	0.100
232.200	34.209	0.101
232.300	38.103	0.101
232.400	50.262	0.101
232.500	32.561	0.100
232.600	38.544	0.100
232.700	28.242	0.101
232.800	38.849	0.101
232.900	41.369	0.100
233.000	23.044	0.101
233.100	38.731	0.101
233.200	53.967	0.101
233.300	41.385	0.101
233.400	41.767	0.101
233.500	30.606	0.101
233.600	39.493	0.100
233.700	49.706	0.100
233.800	31.973	0.100
233.900	32.610	0.100
234.000	34.403	0.100
234.100	36.255	0.100
234.200	43.283	0.100
234.300	35.869	0.100
234.400	46.626	0.100
234.500	39.810	0.100
234.600	42.992	0.100
234.700	28.420	0.100
234.800	36.168	0.101
234.900	33.674	0.100
235.000	38.807	0.101
235.100	36.883	0.100
235.200	39.130	0.100
235.300	30.164	0.101
235.400	34.949	0.100
235.500	48.030	0.100
235.600	32.895	0.100
235.700	38.644	0.100
235.800	40.469	0.100
235.900	36.860	0.100
236.000	36.931	0.100
236.100	47.264	0.100
236.200	46.110	0.100
236.300	34.881	0.101
236.400	33.689	0.100
236.500	34.224	0.101
236.600	33.466	0.101
236.700	28.387	0.100
236.800	16.249	0.100
236.900	33.759	0.100
237.000	33.032	0.100
237.100	40.701	0.100
237.200	39.394	0.100
237.300	45.707	0.100
237.400	34.604	0.100
237.500	41.682	0.100
237.600	27.826	0.100
237.700	36.696	0.100
237.800	47.389	0.100
237.900	45.322	0.100
238.000	38.306	0.100
238.100	41.347	0.100
238.200	40.389	0.100
238.300	27.737	0.100
238.400	40.240	0.100
238.500	39.180	0.100
238.600	50.184	0.100
238.700	37.502	0.100
238.800	41.735	0.100
238.900	32.228	0.100
239.000	45.187	0.100
239.100	38.588	0.100
239.200	38.877	0.100
239.300	45.607	0.100
239.400	44.070	0.100
239.500	39.524	0.100
239.600	29.388	0.100
239.700	40.014	0.100
239.800	35.060	0.100
239.900	42.611	0.100
240.000	38.302	0.100
240.100	31.309	0.100
240.200	29.317	0.100
240.300	30.996	0.100
240.400	22.309	0.100
240.500	34.643	0.100
240.600	30.373	0.100
240.700	22.026	0.100
240.800	10.534	0.100
240.900	10.170	0.100
241.000	21.040	0.100
241.100	16.254	0.100
241.200	22.285	0.100
241.300	17.847	0.100
241.400	23.804	0.100
241.500	15.712	0.100
241.600	13.591	0.100
241.700	3.385	0.100
241.800	9.822	0.100
241.900	4.479	0.100
242.000	4.148	0.100
242.100	7.969	0.100
242.200	7.991	0.100
242.300	1.424	0.100
242.400	-5.905	0.100
242.500	-4.156	0.100
242.600	-3.783	0.100
242.700	6.520	0.100
242.800	2.339	0.100
242.900	2.144	0.100
243.000	-6.485	0.100
243.100	-3.214	0.100
243.200	10.588	0.100
243.300	4.078	0.100
243.400	7.559	0.100
243.500	-7.993	0.100
243.600	4.192	0.100
243.700	-2.154	0.100
243.800	4.762	0.100
243.900	-8.345	0.100
244.000	0.890	0.100
244.100	-2.376	0.100
244.200	-7.163	0.100
244.300	-4.087	0.100
244.400	-0.258	0.100
244.500	6.560	0.100
244.600	-3.652	0.100
244.700	-11.564	0.100
244.800	-5.994	0.100
244.900	-12.935	0.100
245.000	-1.565	0.100
245.100	-7.616	0.100
245.200	-2.596	0.100
245.300	-3.287	0.100
245.400	0.772	0.100
245.500	-7.682	0.100
245.600	-10.865	0.100
245.700	-9.133	0.100
245.800	-1.017	0.100
245.900	-9.271	0.100
246.000	0.639	0.100
246.100	3.554	0.100
246.200	-2.075	0.100
246.300	0.182	0.100
246.400	-0.022	0.100
246.500	-12.686	0.100
246.600	-11.461	0.100
246.700	8.672	0.100
246.800	-2.691	0.100
246.900	-6.066	0.100
247.000	-0.234	0.100
247.100	-12.728	0.100
247.200	-7.883	0.100
247.300	4.528	0.100
247.400	-5.055	0.100
247.500	-1.589	0.100
247.600	-9.290	0.100
247.700	-16.778	0.100
247.800	-11.978	0.100
247.900	-14.657	0.100
248.000	-16.475	0.100
248.100	-6.980	0.100
248.200	-1.474	0.100
248.300	5.614	0.100
248.400	-0.241	0.100
248.500	-6.256	0.100
248.600	-2.974	0.100
248.700	-5.326	0.100
248.800	-11.017	0.100
248.900	-10.342	0.100
249.000	4.084	0.100
249.100	-6.183	0.100
249.200	-0.136	0.100
249.300	-8.222	0.100
249.400	-8.273	0.100
249.500	-9.917	0.100
249.600	-8.652	0.100
249.700	-4.507	0.100
249.800	-16.247	0.100
249.900	3.870	0.100
250.000	0.245	0.100
250.100	-10.617	0.100
250.200	0.641	0.100
250.300	-3.608	0.100
250.400	-18.216	0.100
250.500	-14.519	0.100
250.600	-15.945	0.100
250.700	-8.936	0.100
250.800	-4.764	0.100
250.900	-7.344	0.100
251.000	-21.603	0.100
251.100	-16.310	0.100
251.200	-8.914	0.100
251.300	-5.305	0.100
251.400	-7.415	0.100
251.500	-6.144	0.100
251.600	-0.964	0.100
251.700	-2.423	0.100
251.800	-22.000	0.100
251.900	-11.951	0.100
252.000	-5.041	0.100
252.100	-6.974	0.100
252.200	-8.415	0.100
252.300	5.831	0.100
252.400	-5.516	0.100
252.500	-12.278	0.100
252.600	-6.286	0.100
252.700	-13.098	0.100
252.800	-8.327	0.100
252.900	-11.808	0.100
253.000	-6.229	0.100
253.100	-8.280	0.100
253.200	0.485	0.100
253.300	-4.724	0.100
253.400	2.277	0.100
253.500	-10.647	0.100
253.600	-12.672	0.100
253.700	-12.868	0.100
253.800	-11.854	0.100
253.900	-14.056	0.100
254.000	-10.936	0.100
254.100	-5.064	0.100
254.200	-6.842	0.100
254.300	-2.483	0.100
254.400	-11.104	0.100
254.500	-13.365	0.100
254.600	-8.866	0.100
254.700	-9.656	0.100
254.800	-9.102	0.100
254.900	-14.816	0.100
255.000	-11.525	0.100
255.100	-13.735	0.100
255.200	-6.548	0.100
255.300	-7.728	0.100
255.400	1.720	0.100
255.500	-0.602	0.100
255.600	-14.359	0.100
255.700	-11.324	0.100
255.800	-4.827	0.100
255.900	-6.949	0.100
256.000	-16.008	0.100
256.100	-11.983	0.100
256.200	-13.536	0.100
256.300	-15.954	0.100
256.400	-18.579	0.100
256.500	-7.218	0.100
256.600	-14.259	0.100
256.700	-12.408	0.100
256.800	1.320	0.100
256.900	-11.435	0.100
257.000	-16.367	0.100
257.100	-7.538	0.100
257.200	-21.289	0.100
257.300	-13.546	0.100
257.400	-18.207	0.100
257.500	-10.630	0.100
257.600	-15.088	0.100
257.700	-10.830	0.100
257.800	-11.772	0.100
257.900	-11.930	0.100
258.000	-31.121	0.100
258.100	-18.660	0.100
258.200	-23.752	0.100
258.300	-23.086	0.100
258.400	-6.538	0.100
258.500	-8.675	0.100
258.600	-20.082	0.100
258.700	-26.510	0.100
258.800	-10.744	0.100
258.900	-17.874	0.100
259.000	-19.403	0.100
259.100	-13.507	0.100
259.200	-2.450	0.100
259.300	-1.305	0.100
259.400	-16.890	0.100
259.500	-19.431	0.100
259.600	-11.039	0.100
259.700	-14.408	0.100
259.800	-5.736	0.100
259.900	-1.597	0.100
260.000	-19.804	0.100
260.100	-10.168	0.100
260.200	-0.826	0.100
260.300	-11.494	0.100
260.400	-14.193	0.100
260.500	-25.362	0.100
260.600	-21.471	0.100
260.700	-15.670	0.100
260.800	-7.511	0.100
260.900	-13.546	0.100
261.000	-5.795	0.100
261.100	-4.753	0.100
261.200	-17.129	0.100
261.300	-13.016	0.100
261.400	-12.059	0.100
261.500	-24.783	0.100
261.600	-18.622	0.100
261.700	-24.045	0.100
261.800	-14.022	0.100
261.900	-11.770	0.100
262.000	-12.122	0.100
262.100	-6.196	0.100
262.200	-12.287	0.100
262.300	-19.424	0.100
262.400	-18.216	0.100
262.500	-16.612	0.100
262.600	-11.270	0.100
262.700	-14.071	0.100
262.800	-5.427	0.100
262.900	-15.413	0.100
263.000	-14.930	0.100
263.100	-21.814	0.100
263.200	-20.129	0.100
263.300	-21.408	0.100
263.400	-12.997	0.100
263.500	-23.533	0.100
263.600	-13.706	0.100
263.700	-29.441	0.100
263.800	-28.378	0.100
263.900	-8.655	0.100
264.000	-10.700	0.100
264.100	-13.864	0.100
264.200	-19.838	0.100
264.300	-17.690	0.100
264.400	-13.589	0.100
264.500	-15.391	0.100
264.600	-17.057	0.100
264.700	-21.893	0.100
264.800	-13.225	0.100
264.900	-10.360	0.100
265.000	-14.173	0.100
265.100	-16.390	0.100
265.200	-10.884	0.100
265.300	-18.000	0.100
265.400	-25.602	0.100
265.500	-25.906	0.100
265.600	-10.449	0.100
265.700	-18.974	0.100
265.800	-23.001	0.100
265.900	-28.174	0.100
266.000	-20.243	0.100
266.100	-19.268	0.100
266.200	-16.382	0.100
266.300	-21.616	0.100
266.400	-12.931	0.100
266.500	-12.974	0.100
266.600	-21.434	0.100
266.700	-17.062	0.100
266.800	-9.311	0.100
266.900	-17.742	0.100
267.000	-17.069	0.100
267.100	-21.858	0.100
267.200	-10.204	0.100
267.300	-28.053	0.100
267.400	-19.616	0.100
267.500	-21.330	0.100
267.600	-12.414	0.100
267.700	-8.262	0.100
267.800	-16.581	0.100
267.900	-17.777	0.100
268.000	-15.289	0.100
268.100	-17.144	0.100
268.200	-14.952	0.100
268.300	-17.993	0.100
268.400	-25.428	0.100
268.500	-16.270	0.100
268.600	-21.877	0.100
268.700	-20.149	0.100
268.800	-19.601	0.100
268.900	-18.096	0.100
269.000	-10.732	0.100
269.100	-19.655	0.100
269.200	-9.721	0.100
269.300	-17.416	0.100
269.400	-17.753	0.100
269.500	-16.848	0.100
269.600	-11.954	0.100
269.700	-22.550	0.100
269.800	-16.081	0.100
269.900	-24.629	0.100
270.000	-25.550	0.100
270.100	-15.516	0.100
270.200	-16.886	0.100
270.300	-15.253	0.100
270.400	-20.940	0.100
270.500	-28.503	0.100
270.600	-29.813	0.100
270.700	-22.909	0.100
270.800	-20.692	0.100
270.900	-19.366	0.100
271.000	-22.030	0.100
271.100	-18.255	0.100
271.200	-29.813	0.100
271.300	-20.765	0.100
271.400	-19.187	0.100
271.500	-28.466	0.100
271.600	-14.354	0.100
271.700	-19.542	0.100
271.800	-21.652	0.100
271.900	-23.410	0.100
272.000	-23.489	0.100
272.100	-27.595	0.100
272.200	-26.360	0.100
272.300	-15.689	0.100
272.400	-12.574	0.100
272.500	-17.475	0.100
272.600	-19.139	0.100
272.700	-20.334	0.100
272.800	-15.869	0.100
272.900	-21.918	0.100
273.000	-23.837	0.100
273.100	-17.745	0.100
273.200	-25.599	0.100
273.300	-26.950	0.100
273.400	-22.617	0.100
273.500	-18.685	0.100
273.600	-9.613	0.100
273.700	-8.683	0.100
273.800	-29.365	0.100
273.900	-18.066	0.100
274.000	-21.772	0.100
274.100	-18.188	0.100
274.200	-15.830	0.100
274.300	-23.756	0.100
274.400	-22.104	0.100
274.500	-29.819	0.100
274.600	-17.982	0.100
274.700	-18.436	0.100
274.800	-23.858	0.100
274.900	-22.027	0.100
275.000	-16.208	0.100
275.100	-22.771	0.100
275.200	-26.357	0.100
275.300	-18.347	0.100
275.400	-18.439	0.100
275.500	-20.874	0.100
275.600	-15.074	0.100
275.700	-22.135	0.100
275.800	-14.808	0.100
275.900	-23.308	0.100
276.000	-25.389	0.100
276.100	-19.361	0.100
276.200	-26.395	0.100
276.300	-19.417	0.100
276.400	-24.337	0.100
276.500	-16.262	0.100
276.600	-20.074	0.100
276.700	-38.283	0.100
276.800	-25.715	0.100
276.900	-23.212	0.100
277.000	-21.421	0.100
277.100	-18.147	0.100
277.200	-15.303	0.100
277.300	-12.176	0.100
277.400	-19.290	0.100
277.500	-22.909	0.100
277.600	-26.371	0.100
277.700	-23.528	0.100
277.800	-20.001	0.100
277.900	-30.762	0.100
278.000	-18.584	0.100
278.100	-19.382	0.100
278.200	-11.828	0.100
278.300	-19.487	0.100
278.400	-25.531	0.100
278.500	-33.327	0.100
278.600	-17.516	0.100
278.700	-17.049	0.100
278.800	-21.800	0.100
278.900	-24.390	0.100
279.000	-25.498	0.100
279.100	-20.918	0.100
279.200	-24.103	0.100
279.300	-24.106	0.100
279.400	-24.380	0.100
279.500	-14.747	0.100
279.600	-8.449	0.100
279.700	-30.424	0.100
279.800	-16.505	0.100
279.900	-16.057	0.100
280.000	-22.537	0.100
280.100	-22.472	0.100
280.200	-15.657	0.100
280.300	-21.697	0.100
280.400	-24.359	0.100
280.500	-29.218	0.100
280.600	-17.685	0.100
280.700	-18.494	0.100
280.800	-28.403	0.100
280.900	-17.002	0.100
281.000	-20.901	0.100
281.100	-18.781	0.100
281.200	-23.942	0.100
281.300	-11.168	0.100
281.400	-19.883	0.100
281.500	-22.393	0.100
281.600	-27.060	0.100
281.700	-29.473	0.100
281.800	-28.711	0.100
281.900	-14.523	0.100
282.000	-27.462	0.100
282.100	-23.774	0.100
282.200	-18.393	0.100
282.300	-19.319	0.100
282.400	-27.550	0.100
282.500	-13.365	0.100
282.600	-22.440	0.100
282.700	-24.109	0.100
282.800	-23.880	0.100
282.900	-19.579	0.100
283.000	-30.908	0.100
283.100	-21.567	0.100
283.200	-27.353	0.100
283.300	-21.212	0.100
283.400	-23.705	0.100
283.500	-18.404	0.100
283.600	-15.901	0.100
283.700	-19.090	0.100
283.800	-15.572	0.100
283.900	-23.932	0.100
284.000	-14.747	0.100
284.100	-33.286	0.100
284.200	-21.898	0.100
284.300	-19.570	0.100
284.400	-21.550	0.100
284.500	-9.693	0.100
284.600	-16.511	0.100
284.700	-21.598	0.100
284.800	-11.369	0.100
284.900	-25.375	0.100
285.000	-23.408	0.100
285.100	-26.548	0.100
285.200	-21.472	0.100
285.300	-25.117	0.100
285.400	-22.428	0.100
285.500	-20.233	0.100
285.600	-17.961	0.100
285.700	-21.762	0.100
285.800	-12.372	0.100
285.900	-19.458	0.100
286.000	-17.334	0.100
286.100	-15.869	0.100
286.200	-24.349	0.100
286.300	-33.713	0.100
286.400	-19.696	0.100
286.500	-15.700	0.100
286.600	-21.548	0.100
286.700	-34.891	0.100
286.800	-18.445	0.100
286.900	-15.386	0.100
287.000	-16.662	0.100
287.100	-13.094	0.101
287.200	-16.769	0.101
287.300	-20.047	0.101
287.400	-20.296	0.101
287.500	-16.475	0.101
287.600	-22.362	0.101
287.700	-33.539	0.101
287.800	-31.370	0.101
287.900	-22.420	0.101
288.000	-16.423	0.101
288.100	-22.288	0.101
288.200	-11.894	0.101
288.300	-20.320	0.101
288.400	-21.835	0.101
288.500	-18.250	0.101
288.600	-23.416	0.101
288.700	-13.881	0.101
288.800	-15.871	0.101
288.900	-24.760	0.101
289.000	-17.082	0.101
289.100	-13.742	0.101
289.200	-27.976	0.101
289.300	-21.147	0.101
289.400	-19.550	0.101
289.500	-30.401	0.101
289.600	-25.185	0.101
289.700	-20.416	0.101
289.800	-16.147	0.101
289.900	-19.301	0.101
290.000	-11.560	0.101
290.100	-21.268	0.101
290.200	-30.750	0.101
290.300	-19.625	0.101
290.400	-25.332	0.101
290.500	-13.882	0.101
290.600	-22.822	0.101
290.700	-26.072	0.101
290.800	-8.466	0.101
290.900	-23.155	0.101
291.000	-19.084	0.101
291.100	-22.621	0.101
291.200	-19.651	0.101
291.300	-10.059	0.101
291.400	-20.276	0.101
291.500	-28.342	0.101
291.600	-7.369	0.101
291.700	-19.775	0.101
291.800	-23.791	0.101
291.900	-9.338	0.101
292.000	-23.348	0.101
292.100	-31.365	0.101
292.200	-21.643	0.101
292.300	-16.564	0.101
292.400	-22.589	0.101
292.500	-17.686	0.101
292.600	-26.618	0.101
292.700	-17.983	0.101
292.800	-16.501	0.101
292.900	-18.187	0.101
293.000	-15.768	0.101
293.100	-7.897	0.101
293.200	-8.834	0.101
293.300	-23.847	0.101
293.400	-27.192	0.101
293.500	-17.186	0.101
293.600	-21.944	0.101
293.700	-25.467	0.101
293.800	-23.914	0.101
293.900	-19.372	0.101
294.000	-10.456	0.101
294.100	-21.340	0.101
294.200	-28.434	0.101
294.300	-19.119	0.101
294.400	-17.305	0.101
294.500	-13.555	0.101
294.600	-30.166	0.101
294.700	-10.523	0.101
294.800	-26.300	0.101
294.900	-21.934	0.101
295.000	-24.283	0.101
295.100	-22.233	0.101
295.200	-26.044	0.101
295.300	-18.034	0.101
295.400	-11.740	0.101
295.500	-14.867	0.101
295.600	-11.682	0.101
295.700	-17.796	0.101
295.800	-16.176	0.101
295.900	-14.991	0.101
296.000	-17.792	0.101
296.100	-23.593	0.101
296.200	-7.489	0.101
296.300	-10.005	0.101
296.400	-18.552	0.101
296.500	-21.438	0.101
296.600	-24.895	0.101
296.700	-20.360	0.101
296.800	-12.233	0.101
296.900	-15.655	0.101
297.000	-12.485	0.101
297.100	-11.503	0.101
297.200	-8.332	0.101
297.300	-18.080	0.101
297.400	-21.815	0.101
297.500	-19.039	0.101
297.600	-16.485	0.101
297.700	-18.864	0.101
297.800	-14.825	0.101
297.900	-31.564	0.101
298.000	-28.613	0.101
298.100	-15.154	0.101
298.200	-18.379	0.101
298.300	-23.713	0.101
298.400	-14.968	0.101
298.500	-17.501	0.101
298.600	-17.205	0.101
298.700	-22.357	0.101
298.800	-9.308	0.101
298.900	-12.805	0.101
299.000	-26.403	0.101
299.100	-25.174	0.101
299.200	-15.498	0.101
299.300	-9.214	0.101
299.400	-23.572	0.101
299.500	-13.848	0.101
299.600	-15.702	0.101
299.700	-16.552	0.101
299.800	-23.286	0.101
299.900	-13.603	0.101
300.000	-20.990	0.101
300.100	-11.737	0.101
300.200	-13.511	0.101
300.300	-17.059	0.101
300.400	-25.335	0.101
300.500	-16.749	0.101
300.600	-21.403	0.101
300.700	-18.219	0.101
300.800	-19.056	0.101
300.900	-23.426	0.101
301.000	-14.063	0.101
301.100	-16.221	0.101
301.200	-23.463	0.101
301.300	-17.795	0.101
301.400	-27.944	0.101
301.500	0.687	0.101
301.600	-7.570	0.101
301.700	-23.292	0.101
301.800	-23.516	0.101
301.900	-18.585	0.101
302.000	-12.207	0.101
302.100	-6.244	0.101
302.200	-27.412	0.101
302.300	-14.179	0.101
302.400	-20.944	0.101
302.500	-17.431	0.101
302.600	-3.041	0.101
302.700	-17.386	0.101
302.800	-15.653	0.101
302.900	-17.528	0.101
303.000	-12.468	0.101
303.100	-22.326	0.101
303.200	-14.008	0.101
303.300	-18.410	0.101
303.400	-25.249	0.101
303.500	-27.055	0.101
303.600	-16.348	0.101
303.700	-24.607	0.101
303.800	-7.061	0.101
303.900	-28.558	0.101
304.000	-22.843	0.101
304.100	-25.102	0.101
304.200	-15.770	0.101
304.300	-19.691	0.101
304.400	-6.078	0.101
304.500	-16.784	0.101
304.600	-11.533	0.101
304.700	-15.798	0.101
304.800	-20.193	0.101
304.900	-17.970	0.101
305.000	-7.833	0.101
305.100	-16.706	0.101
305.200	-24.744	0.101
305.300	-20.337	0.101
305.400	-22.826	0.101
305.500	-16.393	0.101
305.600	-15.654	0.101
305.700	-15.411	0.101
305.800	-15.165	0.101
305.900	-13.915	0.101
306.000	-14.405	0.101
306.100	-20.281	0.101
306.200	-12.480	0.101
306.300	-16.496	0.101
306.400	-13.132	0.101
306.500	-19.064	0.101
306.600	-22.625	0.101
306.700	-5.714	0.101
306.800	-8.149	0.101
306.900	-19.048	0.101
307.000	-23.543	0.101
307.100	-22.752	0.101
307.200	-16.220	0.101
307.300	-18.341	0.101
307.400	-12.017	0.101
307.500	-17.352	0.101
307.600	-16.603	0.101
307.700	-17.801	0.101
307.800	-25.544	0.101
307.900	-19.480	0.101
308.000	-11.093	0.101
308.100	-26.175	0.101
308.200	-11.550	0.101
308.300	-18.734	0.101
308.400	-8.696	0.101
308.500	-17.216	0.101
308.600	-26.077	0.101
308.700	-18.847	0.101
308.800	-4.441	0.101
308.900	-22.054	0.101
309.000	-22.175	0.101
309.100	-24.932	0.101
309.200	-13.578	0.101
309.300	-22.834	0.101
309.400	-22.570	0.101
309.500	-15.607	0.101
309.600	-19.634	0.101
309.700	-28.581	0.101
309.800	-20.705	0.101
309.900	-25.468	0.101
310.000	-9.702	0.101
310.100	-13.604	0.101
310.200	-27.274	0.101
310.300	-21.318	0.101
310.400	-12.337	0.101
310.500	-7.939	0.101
310.600	-21.060	0.101
310.700	-20.767	0.101
310.800	-17.425	0.101
310.900	-14.716	0.101
311.000	-9.282	0.101
311.100	-22.854	0.101
311.200	-18.921	0.101
311.300	-12.279	0.101
311.400	-18.787	0.101
311.500	-21.270	0.101
311.600	-16.444	0.101
311.700	-19.186	0.101
311.800	-23.552	0.101
311.900	-19.098	0.101
312.000	-21.992	0.101
312.100	-22.320	0.101
312.200	-15.377	0.101
312.300	-9.190	0.101
312.400	-14.812	0.101
312.500	-19.504	0.101
312.600	-13.376	0.101
312.700	-13.670	0.101
312.800	-11.035	0.101
312.900	-29.152	0.101
313.000	-22.711	0.101
313.100	-23.281	0.101
313.200	-18.740	0.101
313.300	-14.417	0.101
313.400	-19.336	0.101
313.500	-8.811	0.101
313.600	-13.870	0.101
313.700	-16.679	0.101
313.800	-13.727	0.101
313.900	-15.725	0.101
314.000	-10.688	0.101
314.100	-19.979	0.101
314.200	-22.919	0.101
314.300	-17.406	0.101
314.400	-14.725	0.101
314.500	-20.146	0.101
314.600	-20.612	0.101
314.700	-13.479	0.101
314.800	-12.047	0.101
314.900	-25.882	0.101
315.000	-13.822	0.101
315.100	-8.756	0.101
315.200	-12.475	0.101
315.300	-19.513	0.101
315.400	-23.471	0.101
315.500	-12.507	0.101
315.600	-16.916	0.101
315.700	-16.579	0.101
315.800	-13.778	0.101
315.900	-15.977	0.101
316.000	-30.040	0.101
316.100	-12.415	0.101
316.200	-13.795	0.101
316.300	-18.113	0.101
316.400	-11.074	0.101
316.500	-11.419	0.101
316.600	-18.666	0.101
316.700	-15.803	0.101
316.800	-22.942	0.101
316.900	-26.363	0.101
317.000	-16.448	0.101
317.100	-11.529	0.101
317.200	-18.247	0.101
317.300	-10.070	0.101
317.400	-14.366	0.101
317.500	-16.236	0.101
317.600	-12.880	0.101
317.700	-19.237	0.101
317.800	-15.832	0.101
317.900	-36.884	0.101
318.000	-16.841	0.101
318.100	-7.069	0.101
318.200	-15.130	0.101
318.300	-18.407	0.101
318.400	-13.967	0.101
318.500	-7.154	0.101
318.600	-17.434	0.101
318.700	-7.840	0.101
318.800	-13.221	0.101
318.900	-9.586	0.101
319.000	-22.683	0.101
319.100	-5.250	0.101
319.200	-12.412	0.101
319.300	-9.200	0.101
319.400	-20.181	0.101
319.500	-5.540	0.101
319.600	-7.096	0.101
319.700	-21.321	0.101
319.800	-16.325	0.101
319.900	-15.805	0.101
320.000	-7.718	0.101
320.100	-10.705	0.101
320.200	-25.590	0.101
320.300	-20.199	0.101
320.400	-24.217	0.101
320.500	-6.922	0.101
320.600	-11.098	0.101
320.700	-5.681	0.101
320.800	-15.194	0.101
320.900	-23.691	0.101
321.000	-18.761	0.101
321.100	-15.400	0.101
321.200	-19.113	0.101
321.300	-19.600	0.101
321.400	-24.309	0.101
321.500	-20.336	0.101
321.600	-9.716	0.101
321.700	-9.545	0.101
321.800	-15.227	0.101
321.900	-11.599	0.101
322.000	-30.252	0.101
322.100	-13.435	0.101
322.200	-20.513	0.101
322.300	-19.631	0.101
322.400	-21.171	0.101
322.500	-13.916	0.101
322.600	-10.644	0.101
322.700	-20.479	0.101
322.800	-17.551	0.101
322.900	-11.199	0.101
323.000	-22.217	0.101
323.100	-21.619	0.101
323.200	-13.468	0.101
323.300	-19.337	0.101
323.400	-19.287	0.101
323.500	-28.115	0.101
323.600	-10.292	0.101
323.700	-3.549	0.101
323.800	-18.213	0.101
323.900	-17.771	0.101
324.000	-21.563	0.101
324.100	-22.820	0.101
324.200	-9.701	0.101
324.300	-11.870	0.101
324.400	-17.681	0.101
324.500	-13.736	0.101
324.600	-11.770	0.101
324.700	-15.664	0.101
324.800	-19.019	0.101
324.900	-4.830	0.101
325.000	-7.444	0.101
325.100	-30.923	0.101
325.200	-22.097	0.101
325.300	-21.220	0.101
325.400	-13.569	0.101
325.500	-7.257	0.101
325.600	-11.233	0.101
325.700	-17.383	0.101
325.800	-11.093	0.101
325.900	-18.722	0.101
326.000	-11.392	0.101
326.100	-18.424	0.101
326.200	-17.062	0.101
326.300	-16.971	0.101
326.400	-6.793	0.101
326.500	-12.676	0.101
326.600	-15.107	0.101
326.700	-6.361	0.101
326.800	-18.990	0.101
326.900	-20.049	0.101
327.000	-21.333	0.101
327.100	-20.128	0.101
327.200	-11.607	0.101
327.300	-6.168	0.101
327.400	-9.789	0.101
327.500	-19.638	0.101
327.600	-15.770	0.101
327.700	-6.731	0.101
327.800	-20.030	0.101
327.900	-15.388	0.101
328.000	-10.001	0.101
328.100	-26.490	0.101
328.200	-20.452	0.101
328.300	-1.930	0.101
328.400	-14.933	0.101
328.500	-17.115	0.101
328.600	-14.179	0.101
328.700	-12.206	0.101
328.800	-19.627	0.101
328.900	-17.721	0.101
329.000	-15.799	0.101
329.100	-22.314	0.101
329.200	-16.862	0.101
329.300	-11.587	0.101
329.400	-12.366	0.101
329.500	-13.162	0.101
329.600	-8.411	0.101
329.700	-24.016	0.101
329.800	-12.303	0.101
329.900	-17.052	0.101
330.000	-17.049	0.101
330.100	-9.384	0.101
330.200	-10.465	0.101
330.300	-7.795	0.101
330.400	1.176	0.101
330.500	5.875	0.101
330.600	-1.852	0.101
330.700	1.127	0.101
330.800	6.245	0.101
330.900	10.756	0.101
331.000	10.354	0.101
331.100	4.302	0.101
331.200	14.611	0.101
331.300	10.079	0.101
331.400	-2.972	0.101
331.500	14.707	0.101
331.600	7.132	0.101
331.700	7.981	0.101
331.800	24.361	0.101
331.900	15.328	0.101
332.000	7.871	0.101
332.100	5.532	0.101
332.200	15.627	0.101
332.300	16.060	0.101
332.400	5.361	0.101
332.500	18.680	0.101
332.600	23.423	0.101
332.700	17.579	0.101
332.800	18.506	0.101
332.900	16.127	0.101
333.000	18.519	0.101
333.100	24.362	0.101
333.200	26.500	0.101
333.300	7.349	0.101
333.400	22.983	0.101
333.500	20.726	0.101
333.600	14.070	0.101
333.700	14.910	0.101
333.800	22.595	0.101
333.900	20.184	0.101
334.000	14.764	0.101
334.100	20.009	0.101
334.200	10.782	0.101
334.300	17.889	0.101
334.400	16.400	0.101
334.500	15.863	0.101
334.600	25.149	0.101
334.700	9.516	0.101
334.800	16.769	0.101
334.900	14.421	0.101
335.000	10.834	0.101
335.100	13.072	0.101
335.200	28.868	0.101
335.300	14.097	0.101
335.400	10.782	0.101
335.500	20.683	0.101
335.600	9.769	0.101
335.700	10.753	0.101
335.800	15.896	0.101
335.900	19.894	0.101
336.000	17.387	0.101
336.100	3.012	0.101
336.200	9.326	0.101
336.300	21.835	0.101
336.400	11.574	0.101
336.500	12.567	0.101
336.600	5.014	0.101
336.700	1.396	0.101
336.800	8.030	0.101
336.900	17.560	0.101
337.000	15.742	0.101
337.100	12.983	0.101
337.200	18.580	0.101
337.300	15.437	0.101
337.400	14.930	0.101
337.500	6.077	0.101
337.600	9.364	0.101
337.700	19.728	0.101
337.800	4.381	0.101
337.900	7.890	0.101
338.000	6.301	0.101
338.100	7.309	0.101
338.200	14.151	0.101
338.300	16.227	0.101
338.400	6.385	0.101
338.500	10.385	0.101
338.600	7.903	0.101
338.700	11.918	0.101
338.800	16.771	0.101
338.900	13.819	0.101
339.000	10.486	0.101
339.100	10.432	0.101
339.200	16.044	0.101
339.300	17.048	0.101
339.400	16.495	0.101
339.500	9.739	0.101
339.600	15.125	0.101
339.700	22.504	0.101
339.800	13.791	0.101
339.900	11.584	0.101
340.000	13.160	0.101
340.100	14.136	0.101
340.200	17.151	0.101
340.300	23.030	0.101
340.400	4.695	0.101
340.500	9.890	0.101
340.600	18.244	0.101
340.700	5.343	0.101
340.800	6.607	0.101
340.900	11.665	0.101
341.000	11.497	0.101
341.100	21.571	0.101
341.200	12.249	0.101
341.300	7.998	0.101
341.400	18.880	0.101
341.500	11.922	0.101
341.600	15.085	0.101
341.700	14.844	0.101
341.800	21.034	0.101
341.900	18.471	0.101
342.000	15.754	0.101
342.100	10.893	0.101
342.200	23.837	0.101
342.300	13.226	0.101
342.400	5.950	0.101
342.500	13.807	0.101
342.600	15.351	0.101
342.700	19.363	0.101
342.800	17.972	0.101
342.900	22.524	0.101
343.000	21.324	0.101
343.100	23.272	0.101
343.200	36.677	0.101
343.300	21.265	0.101
343.400	9.149	0.101
343.500	11.596	0.101
343.600	10.351	0.101
343.700	13.772	0.101
343.800	10.976	0.101
343.900	25.607	0.101
344.000	12.082	0.101
344.100	15.688	0.101
344.200	16.811	0.101
344.300	22.171	0.101
344.400	18.065	0.101
344.500	8.824	0.101
344.600	11.070	0.101
344.700	18.317	0.101
344.800	21.707	0.101
344.900	19.529	0.101
345.000	17.095	0.101
345.100	19.717	0.101
345.200	29.316	0.101
345.300	16.485	0.101
345.400	17.015	0.101
345.500	22.002	0.101
345.600	26.182	0.101
345.700	32.427	0.101
345.800	22.090	0.101
345.900	17.781	0.101
346.000	26.856	0.101
346.100	16.715	0.101
346.200	18.474	0.101
346.300	27.019	0.101
346.400	21.442	0.101
346.500	27.150	0.101
346.600	31.321	0.101
346.700	22.634	0.101
346.800	21.457	0.101
346.900	21.359	0.101
347.000	16.480	0.101
347.100	30.731	0.101
347.200	38.568	0.101
347.300	24.085	0.101
347.400	24.279	0.101
347.500	25.620	0.101
347.600	29.479	0.101
347.700	35.505	0.101
347.800	26.522	0.101
347.900	36.932	0.101
348.000	34.173	0.101
348.100	26.707	0.101
348.200	32.285	0.101
348.300	27.736	0.101
348.400	20.794	0.101
348.500	16.243	0.101
348.600	19.013	0.101
348.700	30.343	0.101
348.800	36.690	0.101
348.900	38.006	0.101
349.000	37.504	0.101
349.100	31.988	0.101
349.200	20.358	0.101
349.300	22.368	0.101
349.400	30.753	0.101
349.500	36.402	0.101
349.600	40.588	0.101
349.700	32.889	0.101
349.800	24.810	0.101
349.900	33.959	0.101
350.000	29.797	0.101
350.100	22.927	0.101
350.200	27.343	0.101
350.300	28.407	0.101
350.400	36.116	0.101
350.500	30.810	0.101
350.600	36.647	0.101
350.700	39.225	0.101
350.800	35.051	0.101
350.900	28.141	0.101
351.000	36.794	0.101
351.100	40.186	0.101
351.200	38.675	0.101
351.300	35.354	0.101
351.400	29.939	0.101
351.500	40.351	0.101
351.600	37.310	0.101
351.700	21.612	0.101
351.800	36.541	0.101
351.900	48.283	0.101
352.000	47.991	0.101
352.100	44.498	0.101
352.200	40.681	0.101
352.300	27.693	0.101
352.400	34.262	0.101
352.500	33.816	0.101
352.600	43.050	0.101
352.700	39.156	0.101
352.800	33.813	0.101
352.900	49.836	0.101
353.000	32.564	0.101
353.100	40.004	0.101
353.200	26.173	0.101
353.300	33.460	0.101
353.400	30.752	0.101
353.500	32.737	0.101
353.600	43.206	0.101
353.700	37.284	0.101
353.800	37.750	0.101
353.900	49.196	0.101
354.000	43.662	0.101
354.100	41.689	0.101
354.200	43.688	0.101
354.300	33.047	0.101
354.400	44.500	0.101
354.500	43.247	0.101
354.600	29.669	0.101
354.700	37.299	0.101
354.800	38.087	0.101
354.900	40.482	0.101
355.000	46.457	0.101
355.100	44.668	0.101
355.200	39.149	0.101
355.300	45.554	0.101
355.400	39.811	0.101
355.500	46.379	0.101
355.600	47.120	0.101
355.700	42.938	0.101
355.800	31.120	0.101
355.900	40.237	0.101
356.000	48.806	0.101
356.100	38.681	0.101
356.200	35.214	0.101
356.300	33.614	0.101
356.400	43.967	0.101
356.500	35.567	0.101
356.600	47.551	0.101
356.700	43.745	0.101
356.800	30.781	0.101
356.900	34.726	0.101
357.000	44.999	0.101
357.100	42.014	0.101
357.200	48.403	0.101
357.300	47.767	0.101
357.400	35.343	0.101
357.500	37.152	0.101
357.600	46.978	0.101
357.700	43.383	0.101
357.800	45.139	0.101
357.900	42.980	0.101
358.000	44.493	0.101
358.100	37.900	0.101
358.200	37.090	0.101
358.300	44.408	0.101
358.400	41.672	0.101
358.500	43.066	0.101
358.600	38.614	0.101
358.700	32.166	0.101
358.800	40.986	0.101
358.900	48.345	0.101
359.000	42.393	0.101
359.100	47.231	0.101
359.200	46.386	0.101
359.300	39.209	0.101
359.400	29.538	0.101
359.500	36.146	0.101
359.600	49.540	0.101
359.700	43.764	0.101
359.800	41.695	0.101
359.900	45.204	0.101
360.000	31.433	0.101
360.100	30.049	0.101
360.200	41.867	0.101
360.300	36.117	0.101
360.400	51.498	0.101
360.500	51.169	0.101
360.600	35.794	0.101
360.700	39.080	0.101
360.800	37.739	0.101
360.900	38.002	0.101
361.000	39.233	0.101
361.100	37.508	0.101
361.200	32.120	0.101
361.300	42.235	0.101
361.400	31.731	0.101
361.500	42.970	0.101
361.600	44.300	0.101
361.700	35.168	0.101
361.800	38.385	0.101
361.900	46.584	0.101
362.000	43.842	0.101
362.100	32.372	0.101
362.200	40.399	0.101
362.300	43.187	0.101
362.400	42.748	0.101
362.500	42.825	0.101
362.600	35.996	0.101
362.700	42.404	0.101
362.800	33.004	0.101
362.900	36.329	0.101
363.000	34.430	0.101
363.100	44.810	0.101
363.200	38.660	0.101
363.300	49.775	0.101
363.400	48.163	0.101
363.500	45.593	0.101
363.600	36.294	0.101
363.700	48.294	0.101
363.800	31.447	0.101
363.900	34.676	0.101
364.000	47.183	0.101
364.100	42.390	0.101
364.200	35.869	0.101
364.300	39.852	0.101
364.400	35.403	0.101
364.500	32.381	0.101
364.600	44.637	0.101
364.700	47.217	0.101
364.800	38.777	0.101
364.900	44.904	0.101
365.000	33.246	0.101
365.100	38.053	0.101
365.200	32.445	0.101
365.300	45.489	0.101
365.400	38.554	0.101
365.500	36.617	0.101
365.600	32.230	0.101
365.700	46.346	0.101
365.800	37.704	0.101
365.900	38.690	0.101
366.000	36.363	0.101
366.100	46.028	0.101
366.200	43.003	0.101
366.300	35.930	0.101
366.400	31.830	0.101
366.500	29.512	0.101
366.600	37.380	0.101
366.700	32.893	0.101
366.800	42.022	0.101
366.900	38.457	0.101
367.000	38.009	0.101
367.100	33.715	0.101
367.200	27.447	0.101
367.300	34.461	0.101
367.400	43.237	0.101
367.500	34.679	0.101
367.600	30.478	0.101
367.700	34.863	0.101
367.800	45.930	0.101
367.900	39.927	0.101
368.000	37.207	0.101
368.100	40.431	0.101
368.200	52.461	0.101
368.300	38.490	0.101
368.400	40.417	0.101
368.500	30.101	0.101
368.600	42.601	0.101
368.700	44.801	0.101
368.800	38.687	0.101
368.900	39.508	0.101
369.000	44.131	0.101
369.100	36.807	0.101
369.200	41.642	0.101
369.300	36.205	0.101
369.400	36.071	0.101
369.500	41.326	0.101
369.600	48.979	0.101
369.700	39.781	0.101
369.800	29.275	0.101
369.900	35.593	0.101
370.000	36.138	0.101
370.100	44.144	0.101
370.200	37.309	0.101
370.300	32.816	0.101
370.400	37.406	0.101
370.500	39.469	0.101
370.600	46.541	0.101
370.700	28.696	0.101
370.800	47.545	0.101
370.900	40.370	0.101
371.000	42.799	0.101
371.100	27.945	0.101
371.200	34.700	0.101
371.300	31.868	0.101
371.400	42.341	0.101
371.500	40.393	0.101
371.600	41.264	0.101
371.700	28.356	0.101
371.800	26.730	0.101
371.900	43.470	0.101
372.000	38.551	0.101
372.100	46.908	0.101
372.200	43.568	0.101
372.300	40.537	0.101
372.400	43.289	0.101
372.500	37.037	0.101
372.600	36.533	0.101
372.700	37.909	0.101
372.800	38.900	0.101
372.900	32.514	0.101
373.000	37.146	0.101
373.100	33.263	0.101
373.200	38.489	0.101
373.300	41.991	0.101
373.400	44.074	0.101
373.500	43.539	0.101
373.600	30.702	0.101
373.700	41.615	0.101
373.800	40.666	0.101
373.900	48.114	0.101
374.000	46.149	0.101
374.100	44.814	0.101
374.200	50.596	0.101
374.300	36.162	0.101
374.400	32.912	0.101
374.500	23.650	0.101
374.600	42.782	0.101
374.700	38.602	0.101
374.800	36.022	0.101
374.900	43.401	0.101
375.000	35.246	0.101
375.100	36.759	0.101
375.200	43.879	0.101
375.300	30.812	0.101
375.400	42.726	0.101
375.500	45.575	0.101
375.600	31.817	0.101
375.700	37.055	0.101
375.800	42.717	0.101
375.900	38.856	0.101
376.000	43.004	0.101
376.100	41.500	0.101
376.200	37.815	0.101
376.300	45.319	0.101
376.400	39.642	0.101
376.500	35.439	0.101
376.600	39.387	0.101
376.700	33.197	0.101
376.800	42.627	0.101
376.900	42.477	0.101
377.000	40.948	0.101
377.100	29.740	0.101
377.200	34.840	0.101
377.300	43.355	0.101
377.400	35.393	0.101
377.500	37.072	0.101
377.600	37.555	0.101
377.700	44.868	0.101
377.800	43.402	0.101
377.900	41.292	0.101
378.000	35.446	0.101
378.100	35.603	0.101
378.200	41.908	0.101
378.300	45.500	0.101
378.400	41.458	0.101
378.500	37.402	0.101
378.600	31.808	0.101
378.700	29.290	0.101
378.800	41.269	0.101
378.900	43.226	0.101
379.000	38.791	0.101
379.100	28.064	0.101
379.200	35.611	0.101
379.300	35.508	0.101
379.400	32.287	0.101
379.500	30.791	0.101
379.600	36.866	0.101
379.700	44.397	0.101
379.800	43.008	0.101
379.900	50.638	0.101
380.000	48.340	0.101
380.100	35.698	0.101
380.200	40.018	0.101
380.300	38.490	0.101
380.400	26.742	0.101
380.500	36.677	0.101
380.600	29.824	0.101
380.700	41.307	0.101
380.800	31.498	0.101
380.900	41.860	0.101
381.000	29.927	0.101
381.100	36.459	0.101
381.200	44.924	0.101
381.300	44.425	0.101
381.400	36.955	0.101
381.500	33.204	0.101
381.600	32.530	0.101
381.700	46.379	0.101
381.800	42.484	0.101
381.900	41.111	0.101
382.000	44.011	0.101
382.100	49.730	0.101
382.200	29.285	0.101
382.300	27.118	0.101
382.400	34.968	0.101
382.500	41.082	0.101
382.600	48.335	0.101
382.700	31.962	0.101
382.800	28.692	0.101
382.900	31.853	0.101
383.000	42.412	0.101
383.100	38.063	0.101
383.200	40.031	0.101
383.300	43.028	0.101
383.400	40.576	0.101
383.500	27.087	0.101
383.600	41.432	0.101
383.700	33.593	0.101
383.800	43.907	0.101
383.900	40.864	0.101
384.000	48.184	0.101
384.100	39.932	0.101
384.200	34.772	0.101
384.300	40.433	0.101
384.400	48.824	0.101
384.500	42.355	0.101
384.600	48.491	0.101
384.700	36.445	0.101
384.800	42.937	0.101
384.900	44.840	0.101
385.000	45.697	0.101
385.100	36.723	0.101
385.200	39.669	0.101
385.300	34.929	0.101
385.400	37.024	0.101
385.500	31.362	0.101
385.600	38.396	0.101
385.700	41.386	0.101
385.800	30.596	0.101
385.900	30.583	0.101
386.000	32.256	0.101
386.100	41.707	0.101
386.200	39.439	0.101
386.300	47.210	0.101
386.400	30.323	0.101
386.500	34.535	0.101
386.600	46.805	0.101
386.700	36.593	0.101
386.800	36.122	0.101
386.900	38.918	0.101
387.000	38.006	0.101
387.100	35.163	0.101
387.200	47.754	0.101
387.300	39.538	0.101
387.400	31.375	0.101
387.500	39.765	0.101
387.600	35.426	0.101
387.700	42.097	0.101
387.800	30.175	0.101
387.900	29.922	0.101
388.000	41.289	0.101
388.100	48.092	0.101
388.200	35.067	0.101
388.300	23.464	0.101
388.400	37.632	0.101
388.500	38.616	0.101
388.600	33.904	0.101
388.700	30.997	0.101
388.800	38.964	0.101
388.900	32.282	0.101
389.000	48.778	0.101
389.100	46.767	0.101
389.200	38.457	0.101
389.300	29.709	0.101
389.400	36.975	0.101
389.500	35.921	0.101
389.600	29.887	0.101
389.700	40.113	0.101
389.800	32.458	0.101
389.900	30.548	0.101
390.000	52.364	0.101
390.100	43.087	0.101
390.200	26.346	0.101
390.300	31.307	0.101
390.400	32.869	0.101
390.500	32.602	0.101
390.600	22.803	0.101
390.700	25.630	0.101
390.800	19.148	0.101
390.900	25.953	0.101
391.000	24.306	0.101
391.100	16.853	0.101
391.200	20.586	0.101
391.300	14.966	0.101
391.400	16.003	0.101
391.500	9.602	0.101
391.600	16.805	0.101
391.700	10.737	0.101
391.800	2.877	0.101
391.900	-4.021	0.101
392.000	13.868	0.101
392.100	17.534	0.101
392.200	12.402	0.101
392.300	-7.735	0.101
392.400	3.759	0.101
392.500	9.095	0.101
392.600	0.972	0.101
392.700	1.802	0.101
392.800	0.287	0.101
392.900	4.125	0.101
393.000	-10.717	0.101
393.100	-7.447	0.101
393.200	0.186	0.101
393.300	5.301	0.101
393.400	12.994	0.101
393.500	-1.862	0.101
393.600	-4.206	0.101
393.700	-6.996	0.101
393.800	-0.147	0.101
393.900	-4.971	0.101
394.000	3.916	0.101
394.100	-0.135	0.101
394.200	-14.086	0.101
394.300	-3.750	0.101
394.400	-12.035	0.101
394.500	-10.688	0.101
394.600	1.726	0.101
394.700	3.324	0.101
394.800	-14.589	0.101
394.900	-8.254	0.101
395.000	-15.247	0.101
395.100	-0.257	0.101
395.200	3.704	0.101
395.300	-3.549	0.101
395.400	4.124	0.101
395.500	-11.927	0.101
395.600	-8.524	0.101
395.700	4.000	0.101
395.800	-16.490	0.101
395.900	-17.581	0.101
396.000	-6.510	0.101
396.100	4.070	0.101
396.200	-5.844	0.101
396.300	0.923	0.101
396.400	-4.462	0.101
396.500	-9.321	0.101
396.600	-9.888	0.101
396.700	-2.632	0.101
396.800	-14.591	0.101
396.900	-7.220	0.101
397.000	-10.753	0.101
397.100	-6.823	0.101
397.200	-1.604	0.101
397.300	-0.395	0.101
397.400	-7.663	0.101
397.500	-17.409	0.101
397.600	-10.581	0.101
397.700	-4.256	0.101
397.800	-4.532	0.101
397.900	5.766	0.101
398.000	-4.294	0.101
398.100	-9.609	0.101
398.200	-0.218	0.101
398.300	-4.072	0.101
398.400	-8.346	0.101
398.500	-13.423	0.101
398.600	-2.612	0.101
398.700	3.876	0.101
398.800	2.207	0.101
398.900	-13.968	0.101
399.000	-8.522	0.101
399.100	-8.739	0.101
399.200	-13.497	0.101
399.300	-10.307	0.101
399.400	-6.979	0.101
399.500	-15.796	0.101
399.600	-15.227	0.101
399.700	-11.045	0.101
399.800	2.855	0.101
399.900	2.479	0.101
400.000	-10.746	0.101
400.100	-4.261	0.101
400.200	-3.593	0.101
400.300	-5.180	0.101
400.400	-18.502	0.101
400.500	-11.404	0.101
400.600	-5.486	0.101
400.700	-3.862	0.101
400.800	-1.713	0.101
400.900	-15.669	0.101
401.000	-16.516	0.101
401.100	-10.498	0.101
401.200	-5.228	0.101
401.300	-3.023	0.101
401.400	-1.166	0.101
401.500	-8.846	0.101
401.600	-16.239	0.101
401.700	-10.992	0.101
401.800	-9.147	0.101
401.900	-5.341	0.101
402.000	-10.383	0.101
402.100	-7.578	0.101
402.200	-0.551	0.101
402.300	2.424	0.101
402.400	-16.569	0.101
402.500	-11.579	0.101
402.600	-3.438	0.101
402.700	-4.394	0.101
402.800	-7.959	0.101
402.900	-11.028	0.101
403.000	-9.429	0.101
403.100	-4.268	0.101
403.200	-8.894	0.101
403.300	-18.437	0.101
403.400	-10.697	0.101
403.500	-15.920	0.101
403.600	-8.035	0.101
403.700	-12.549	0.101
403.800	-12.332	0.101
403.900	-10.425	0.101
404.000	-8.636	0.101
404.100	-6.816	0.101
404.200	-10.077	0.101
404.300	-6.771	0.101
404.400	-10.807	0.101
404.500	-11.095	0.101
404.600	-15.980	0.101
404.700	-10.919	0.101
404.800	-20.036	0.101
404.900	-11.066	0.101
405.000	-14.309	0.101
405.100	-8.820	0.101
405.200	-13.030	0.101
405.300	-14.482	0.101
405.400	-10.661	0.101
405.500	-15.380	0.101
405.600	-8.132	0.101
405.700	-16.242	0.101
405.800	-11.192	0.101
405.900	2.547	0.101
406.000	-1.069	0.101
406.100	-11.656	0.101
406.200	-14.631	0.101
406.300	-21.750	0.101
406.400	-14.225	0.101
406.500	-23.107	0.101
406.600	-7.674	0.101
406.700	-9.298	0.101
406.800	-20.471	0.101
406.900	-6.333	0.101
407.000	-22.571	0.101
407.100	-21.617	0.101
407.200	-20.461	0.101
407.300	-21.081	0.101
407.400	-18.241	0.101
407.500	-0.906	0.101
407.600	2.192	0.101
407.700	-18.083	0.101
407.800	-15.696	0.101
407.900	-7.972	0.101
408.000	-8.340	0.101
408.100	1.793	0.101
408.200	-10.117	0.101
408.300	-12.184	0.101
408.400	-17.106	0.101
408.500	-21.591	0.101
408.600	-6.827	0.101
408.700	-23.485	0.101
408.800	-13.398	0.101
408.900	-14.247	0.101
409.000	-20.721	0.101
409.100	-27.993	0.101
409.200	-13.335	0.101
409.300	-12.317	0.101
409.400	-7.999	0.101
409.500	-7.792	0.101
409.600	-13.388	0.101
409.700	-9.828	0.101
409.800	-13.683	0.101
409.900	-12.092	0.101
410.000	-23.913	0.101
410.100	-15.948	0.101
410.200	-17.344	0.101
410.300	-16.674	0.101
410.400	-22.111	0.101
410.500	-17.686	0.101
410.600	-15.509	0.101
410.700	-11.987	0.101
410.800	-19.048	0.101
410.900	-9.364	0.101
411.000	-5.589	0.101
411.100	-17.934	0.101
411.200	-15.889	0.101
411.300	-9.024	0.101
411.400	-17.363	0.101
411.500	-15.801	0.101
411.600	-9.188	0.101
411.700	-13.899	0.101
411.800	-25.619	0.101
411.900	-26.042	0.101
412.000	-1.655	0.101
412.100	-13.123	0.101
412.200	-23.539	0.101
412.300	-12.242	0.101
412.400	-14.437	0.101
412.500	-15.572	0.101
412.600	-17.778	0.101
412.700	-6.433	0.101
412.800	-14.499	0.101
412.900	-27.707	0.101
413.000	-16.079	0.101
413.100	-12.738	0.101
413.200	-7.016	0.101
413.300	-22.991	0.101
413.400	-23.265	0.101
413.500	-17.413	0.101
413.600	-4.449	0.101
413.700	-12.713	0.101
413.800	-19.670	0.101
413.900	-13.808	0.101
414.000	-15.135	0.101
414.100	-17.662	0.101
414.200	-22.555	0.101
414.300	-15.627	0.101
414.400	-8.857	0.101
414.500	-20.443	0.101
414.600	-19.389	0.101
414.700	-20.902	0.101
414.800	-17.335	0.101
414.900	-15.227	0.101
415.000	-26.641	0.101
415.100	-7.397	0.101
415.200	-15.540	0.101
415.300	-17.441	0.101
415.400	-20.218	0.101
415.500	-12.429	0.101
415.600	-19.518	0.101
415.700	-21.127	0.101
415.800	-25.013	0.101
415.900	-11.876	0.101
416.000	-10.168	0.101
416.100	-17.179	0.101
416.200	-20.327	0.101
416.300	-28.456	0.101
416.400	-15.783	0.101
416.500	-18.624	0.101
416.600	-25.812	0.101
416.700	-24.510	0.101
416.800	-20.130	0.101
416.900	-28.023	0.101
417.000	-19.125	0.101
417.100	-17.736	0.101
417.200	-17.780	0.101
417.300	-22.996	0.101
417.400	-11.648	0.101
417.500	-15.516	0.101
417.600	-3.700	0.101
417.700	-15.458	0.101
417.800	-19.407	0.101
417.900	-20.424	0.101
418.000	-19.125	0.101
418.100	-20.390	0.101
418.200	-18.936	0.101
418.300	-21.634	0.101
418.400	-22.315	0.101
418.500	-5.729	0.101
418.600	-11.858	0.101
418.700	-16.518	0.101
418.800	-21.472	0.101
418.900	-17.954	0.101
419.000	-22.909	0.101
419.100	-22.568	0.101
419.200	-17.978	0.101
419.300	-26.450	0.101
419.400	-20.175	0.101
419.500	-18.868	0.101
419.600	-30.374	0.101
419.700	-12.573	0.101
419.800	-14.330	0.101
419.900	-12.628	0.101
420.000	-14.157	0.101
420.100	-18.022	0.101
420.200	-26.341	0.101
420.300	-19.096	0.101
420.400	-17.006	0.101
420.500	-13.251	0.101
420.600	-17.708	0.101
420.700	-16.730	0.101
420.800	-6.428	0.101
420.900	-31.362	0.101
421.000	-20.247	0.101
421.100	-21.271	0.101
421.200	-23.940	0.101
421.300	-22.217	0.101
421.400	-26.113	0.101
421.500	-23.589	0.101
421.600	-24.071	0.101
421.700	-22.939	0.101
421.800	-20.670	0.101
421.900	-14.308	0.101
422.000	-16.324	0.101
422.100	-17.449	0.101
422.200	-13.686	0.101
422.300	-22.960	0.101
422.400	-25.734	0.101
422.500	-31.574	0.101
422.600	-12.646	0.101
422.700	-21.464	0.101
422.800	-12.253	0.101
422.900	-26.225	0.101
423.000	-20.343	0.101
423.100	-20.908	0.101
423.200	-26.115	0.101
423.300	-19.149	0.101
423.400	-12.413	0.101
423.500	-15.511	0.101
423.600	-11.466	0.101
423.700	-32.148	0.101
423.800	-29.354	0.101
423.900	-28.690	0.101
424.000	-18.310	0.101
424.100	-16.784	0.101
424.200	-17.889	0.101
424.300	-24.036	0.101
424.400	-20.047	0.101
424.500	-13.544	0.101
424.600	-22.918	0.101
424.700	-15.593	0.101
424.800	-20.725	0.101
424.900	-30.707	0.101
425.000	-25.907	0.101
425.100	-19.915	0.101
425.200	-9.677	0.101
425.300	-16.335	0.101
425.400	-21.691	0.101
425.500	-17.983	0.101
425.600	-11.094	0.101
425.700	-22.206	0.101
425.800	-30.797	0.101
425.900	-21.991	0.101
426.000	-20.397	0.101
426.100	-26.608	0.101
426.200	-12.475	0.101
426.300	-31.747	0.101
426.400	-24.621	0.101
426.500	-26.371	0.101
426.600	-23.707	0.101
426.700	-23.403	0.101
426.800	-19.233	0.101
426.900	-14.145	0.101
427.000	-21.177	0.101
427.100	-21.214	0.101
427.200	-29.509	0.101
427.300	-32.216	0.101
427.400	-7.460	0.101
427.500	-23.474	0.101
427.600	-17.929	0.101
427.700	-24.522	0.101
427.800	-20.390	0.101
427.900	-15.365	0.101
428.000	-30.374	0.101
428.100	-21.053	0.101
428.200	-20.369	0.101
428.300	-24.426	0.101
428.400	-24.069	0.101
428.500	-19.427	0.101
428.600	-21.490	0.101
428.700	-21.218	0.101
428.800	-26.417	0.101
428.900	-18.203	0.101
429.000	-23.355	0.101
429.100	-23.507	0.101
429.200	-21.029	0.101
429.300	-25.619	0.101
429.400	-14.323	0.101
429.500	-21.216	0.101
429.600	-13.427	0.101
429.700	-19.110	0.101
429.800	-14.617	0.101
429.900	-18.776	0.101
430.000	-27.602	0.101
430.100	-34.547	0.101
430.200	-28.836	0.101
430.300	-27.010	0.101
430.400	-15.178	0.101
430.500	-16.955	0.101
430.600	-14.122	0.101
430.700	-29.212	0.101
430.800	-25.646	0.101
430.900	-11.348	0.101
431.000	-24.773	0.101
431.100	-13.379	0.101
431.200	-16.254	0.101
431.300	-19.162	0.101
431.400	-30.131	0.101
431.500	-21.485	0.101
431.600	-19.531	0.101
431.700	-17.629	0.101
431.800	-18.039	0.101
431.900	-18.303	0.101
432.000	-21.974	0.101
432.100	-17.768	0.101
432.200	-22.588	0.101
432.300	-20.896	0.101
432.400	-27.074	0.101
432.500	-24.597	0.101
432.600	-27.151	0.101
432.700	-25.903	0.101
432.800	-28.151	0.101
432.900	-24.820	0.101
433.000	-19.747	0.101
433.100	-18.996	0.101
433.200	-22.608	0.101
433.300	-27.953	0.101
433.400	-22.945	0.101
433.500	-26.708	0.101
433.600	-28.669	0.101
433.700	-16.202	0.101
433.800	-13.054	0.101
433.900	-17.667	0.101
434.000	-20.836	0.101
434.100	-16.311	0.101
434.200	-18.966	0.101
434.300	-26.646	0.101
434.400	-24.222	0.101
434.500	-14.587	0.101
434.600	-19.320	0.101
434.700	-21.706	0.101
434.800	-9.558	0.101
434.900	-20.767	0.101
435.000	-24.014	0.101
435.100	-19.017	0.101
435.200	-20.626	0.101
435.300	-25.659	0.101
435.400	-23.174	0.101
435.500	-18.786	0.101
435.600	-21.978	0.101
435.700	-24.718	0.101
435.800	-13.239	0.101
435.900	-15.813	0.101
436.000	-10.195	0.101
436.100	-14.653	0.101
436.200	-12.198	0.101
436.300	-24.718	0.101
436.400	-33.443	0.101
436.500	-18.318	0.101
436.600	-23.796	0.101
436.700	-21.269	0.101
436.800	-22.153	0.101
436.900	-20.638	0.101
437.000	-19.811	0.101
437.100	-18.916	0.101
437.200	-15.805	0.101
437.300	-20.776	0.101
437.400	-11.304	0.101
437.500	-16.708	0.101
437.600	-13.954	0.101
437.700	-27.433	0.101
437.800	-19.118	0.101
437.900	-25.465	0.101
438.000	-22.701	0.101
438.100	-27.580	0.101
438.200	-22.388	0.101
438.300	-22.889	0.101
438.400	-20.518	0.101
438.500	-7.564	0.101
438.600	-15.257	0.101
438.700	-22.767	0.101
438.800	-15.713	0.101
438.900	-23.444	0.101
439.000	-17.565	0.101
439.100	-27.896	0.101
439.200	-27.746	0.101
439.300	-22.432	0.101
439.400	-22.883	0.101
439.500	-20.115	0.101
439.600	-13.863	0.101
439.700	-22.055	0.101
439.800	-23.593	0.101
439.900	-15.794	0.101
440.000	-8.648	0.101
440.100	-28.663	0.101
440.200	-27.663	0.101
440.300	-17.447	0.101
440.400	-25.951	0.101
440.500	-17.560	0.101
440.600	-19.429	0.101
440.700	-22.784	0.101
440.800	-33.454	0.101
440.900	-17.451	0.101
441.000	-16.571	0.101
441.100	-11.127	0.101
441.200	-14.005	0.101
441.300	-25.118	0.101
441.400	-29.163	0.101
441.500	-21.798	0.101
441.600	-17.860	0.101
441.700	-22.938	0.101
441.800	-18.202	0.101
441.900	-9.305	0.101
442.000	-22.954	0.101
442.100	-20.779	0.101
442.200	-17.031	0.101
442.300	-18.622	0.101
442.400	-20.438	0.101
442.500	-26.353	0.101
442.600	-25.179	0.101
442.700	-21.071	0.101
442.800	-17.702	0.101
442.900	-25.930	0.101
443.000	-18.273	0.101
443.100	-18.884	0.101
443.200	-32.722	0.101
443.300	-27.539	0.101
443.400	-12.136	0.101
443.500	-17.881	0.101
443.600	-10.417	0.101
443.700	-17.294	0.101
443.800	-29.472	0.101
443.900	-20.080	0.101
444.000	-15.372	0.101
444.100	-12.929	0.101
444.200	-21.071	0.101
444.300	-24.368	0.101
444.400	-13.626	0.101
444.500	-29.906	0.101
444.600	-17.452	0.101
444.700	-14.165	0.101
444.800	-8.287	0.101
444.900	-26.303	0.101
445.000	-22.773	0.101
445.100	-21.720	0.101
445.200	-17.422	0.101
445.300	-8.731	0.101
445.400	-24.318	0.101
445.500	-9.195	0.101
445.600	-17.569	0.101
445.700	-30.199	0.101
445.800	-25.232	0.101
445.900	-16.109	0.101
446.000	-21.562	0.101
446.100	-33.514	0.101
446.200	-20.259	0.101
446.300	-5.163	0.101
446.400	-20.541	0.101
446.500	-17.359	0.101
446.600	-15.810	0.101
446.700	-20.196	0.101
446.800	-24.676	0.101
446.900	-14.103	0.101
447.000	-23.096	0.101
447.100	-18.924	0.101
447.200	-24.748	0.101
447.300	-13.163	0.101
447.400	-21.202	0.101
447.500	-20.847	0.101
447.600	-29.644	0.101
447.700	-20.665	0.101
447.800	-22.612	0.101
447.900	-19.617	0.101
448.000	-16.500	0.101
448.100	-15.337	0.101
448.200	-16.270	0.101
448.300	-16.368	0.101
448.400	-23.419	0.101
448.500	-12.887	0.101
448.600	-13.983	0.101
448.700	-17.653	0.101
448.800	-14.623	0.101
448.900	-19.781	0.101
449.000	-26.069	0.101
449.100	-20.863	0.101
449.200	-15.212	0.101
449.300	-23.998	0.101
449.400	-16.601	0.101
449.500	-18.226	0.101
449.600	-24.684	0.101
449.700	-23.523	0.101
449.800	-19.253	0.101
449.900	-19.659	0.101
450.000	-30.862	0.101
450.100	-21.815	0.101
450.200	-23.835	0.101
450.300	-23.003	0.101
450.400	-21.942	0.101
450.500	-15.988	0.101
450.600	-14.429	0.101
450.700	-19.857	0.101
450.800	-9.258	0.101
450.900	-15.033	0.101
451.000	-28.942	0.101
451.100	-23.383	0.101
451.200	-20.306	0.101
451.300	-11.039	0.101
451.400	-22.195	0.101
451.500	-22.046	0.101
451.600	-8.283	0.101
451.700	-12.006	0.101
451.800	-24.782	0.101
451.900	-31.592	0.101
452.000	-20.117	0.101
452.100	-20.682	0.101
452.200	-20.790	0.101
452.300	-11.998	0.101
452.400	-18.235	0.101
452.500	-23.589	0.101
452.600	-18.430	0.101
452.700	-18.534	0.101
452.800	-33.440	0.101
452.900	-12.514	0.101
453.000	-16.484	0.101
453.100	-6.542	0.101
453.200	-7.350	0.101
453.300	-15.494	0.101
453.400	-27.234	0.101
453.500	-28.560	0.101
453.600	-11.893	0.101
453.700	-12.733	0.101
453.800	-14.761	0.101
453.900	-22.856	0.101
454.000	-17.128	0.101
454.100	-15.873	0.101
454.200	-5.714	0.101
454.300	-13.293	0.101
454.400	-19.160	0.101
454.500	-29.706	0.101
454.600	-18.701	0.101
454.700	-17.541	0.101
454.800	-20.156	0.101
454.900	-28.540	0.101
455.000	-22.505	0.101
455.100	-11.336	0.101
455.200	-23.201	0.101
455.300	-23.182	0.101
455.400	-21.341	0.101
455.500	-21.790	0.101
455.600	-13.884	0.101
455.700	-14.386	0.101
455.800	-18.254	0.101
455.900	-13.161	0.101
456.000	-19.757	0.101
456.100	-11.616	0.101
456.200	-23.922	0.101
456.300	-37.871	0.101
456.400	-18.395	0.101
456.500	-23.382	0.101
456.600	-20.693	0.101
456.700	-22.281	0.101
456.800	-10.216	0.101
456.900	-11.515	0.101
457.000	-16.171	0.101
457.100	-17.022	0.101
457.200	-26.434	0.101
457.300	-19.456	0.101
457.400	-18.289	0.101
457.500	-19.217	0.101
457.600	-24.659	0.101
457.700	-17.043	0.101
457.800	-17.602	0.101
457.900	-10.053	0.101
458.000	-17.739	0.101
458.100	-8.690	0.101
458.200	-20.851	0.101
458.300	-25.582	0.101
458.400	-16.492	0.101
458.500	-14.687	0.101
458.600	-20.105	0.101
458.700	-19.532	0.101
458.800	-12.731	0.101
458.900	-11.568	0.101
459.000	-19.773	0.101
459.100	-19.371	0.101
459.200	-16.309	0.101
459.300	-16.360	0.101
459.400	-8.733	0.101
459.500	-18.808	0.101
459.600	-13.823	0.101
459.700	-17.434	0.101
459.800	-20.328	0.101
459.900	-20.395	0.101
460.000	-20.760	0.101
460.100	-13.195	0.101
460.200	-8.445	0.101
460.300	-19.158	0.101
460.400	-20.133	0.101
460.500	-24.207	0.101
460.600	-20.071	0.101
460.700	-17.296	0.101
460.800	-16.153	0.101
460.900	-22.702	0.101
461.000	-14.069	0.101
461.100	-14.292	0.101
461.200	-15.461	0.101
461.300	-16.127	0.101
461.400	-26.445	0.101
461.500	-9.763	0.101
461.600	-16.088	0.101
461.700	-25.181	0.101
461.800	-23.966	0.101
461.900	-21.748	0.101
462.000	-18.119	0.101
462.100	-29.808	0.101
462.200	-23.851	0.101
462.300	-21.325	0.101
462.400	-11.494	0.101
462.500	-21.254	0.101
462.600	-18.115	0.101
462.700	-8.781	0.101
462.800	-5.671	0.101
462.900	-11.481	0.101
463.000	-20.343	0.101
463.100	-8.867	0.101
463.200	-9.184	0.101
463.300	-13.995	0.101
463.400	-17.292	0.101
463.500	-15.965	0.101
463.600	-18.055	0.101
463.700	-8.658	0.101
463.800	-21.939	0.101
463.900	-16.992	0.101
464.000	-11.225	0.101
464.100	-19.935	0.101
464.200	-1.400	0.101
464.300	-16.669	0.101
464.400	-17.518	0.101
464.500	-24.218	0.101
464.600	-26.607	0.101
464.700	-20.137	0.101
464.800	-17.995	0.101
464.900	-18.778	0.101
465.000	-25.802	0.101
465.100	-11.414	0.101
465.200	-17.631	0.101
465.300	-19.780	0.101
465.400	-11.852	0.101
465.500	-14.428	0.101
465.600	-15.048	0.101
465.700	-11.450	0.101
465.800	-20.786	0.101
465.900	-15.665	0.101
466.000	-17.602	0.101
466.100	-16.290	0.101
466.200	-13.007	0.101
466.300	-17.386	0.101
466.400	-23.929	0.101
466.500	-30.342	0.101
466.600	-21.474	0.101
466.700	-12.663	0.101
466.800	-13.369	0.101
466.900	-15.583	0.101
467.000	-20.726	0.101
467.100	-19.744	0.101
467.200	-12.468	0.101
467.300	-24.537	0.101
467.400	-20.673	0.101
467.500	-25.146	0.101
467.600	-17.512	0.101
467.700	-7.919	0.101
467.800	-19.176	0.101
467.900	-8.895	0.101
468.000	-13.689	0.101
468.100	-14.307	0.101
468.200	-19.568	0.101
468.300	-22.078	0.101
468.400	-18.534	0.101
468.500	-14.714	0.101
468.600	-11.649	0.101
468.700	-9.859	0.101
468.800	-18.423	0.101
468.900	-10.341	0.101
469.000	-19.088	0.101
469.100	-26.913	0.101
469.200	-17.975	0.101
469.300	-17.389	0.101
469.400	-15.345	0.101
469.500	-14.591	0.101
469.600	-16.072	0.101
469.700	-5.835	0.101
469.800	-18.521	0.101
469.900	-15.879	0.101
470.000	-15.783	0.101
470.100	-20.816	0.101
470.200	-17.913	0.101
470.300	-19.667	0.101
470.400	-11.124	0.101
470.500	-15.633	0.101
470.600	-15.596	0.101
470.700	-24.551	0.101
470.800	-24.397	0.101
470.900	-18.834	0.101
471.000	-17.749	0.101
471.100	-11.766	0.101
471.200	-5.469	0.101
471.300	-16.246	0.101
471.400	-19.152	0.101
471.500	-13.651	0.101
471.600	-22.568	0.101
471.700	-16.774	0.101
471.800	-10.659	0.101
471.900	-24.822	0.101
472.000	-21.409	0.101
472.100	-3.224	0.101
472.200	-27.281	0.101
472.300	-24.802	0.101
472.400	-17.354	0.101
472.500	-15.725	0.101
472.600	-12.229	0.101
472.700	-6.561	0.101
472.800	-8.306	0.101
472.900	-18.018	0.101
473.000	-15.159	0.101
473.100	-20.607	0.101
473.200	-16.983	0.101
473.300	-18.290	0.101
473.400	-16.815	0.101
473.500	-14.458	0.101
473.600	-8.166	0.101
473.700	-10.120	0.101
473.800	-16.469	0.101
473.900	-15.041	0.101
474.000	-21.890	0.101
474.100	-17.258	0.101
474.200	-13.941	0.101
474.300	-15.362	0.101
474.400	-18.467	0.101
474.500	-22.962	0.101
474.600	-17.600	0.101
474.700	-9.897	0.101
474.800	-21.257	0.101
474.900	-22.739	0.101
475.000	-14.704	0.101
475.100	-9.691	0.101
475.200	-26.058	0.101
475.300	-13.290	0.101
475.400	-16.346	0.101
475.500	-8.649	0.101
475.600	-19.315	0.101
475.700	-24.535	0.101
475.800	-34.488	0.101
475.900	-13.845	0.101
476.000	-19.730	0.101
476.100	-6.252	0.101
476.200	-10.406	0.101
476.300	-7.078	0.101
476.400	-8.845	0.101
476.500	-20.469	0.101
476.600	-12.049	0.101
476.700	-14.082	0.101
476.800	-23.639	0.101
476.900	-17.053	0.101
477.000	-11.709	0.101
477.100	-12.860	0.101
477.200	-7.142	0.101
477.300	-15.147	0.101
477.400	-8.385	0.101
477.500	-17.842	0.101
477.600	-28.677	0.101
477.700	-16.344	0.101
477.800	-17.770	0.101
477.900	-16.913	0.101
478.000	-9.856	0.101
478.100	-6.444	0.101
478.200	-7.647	0.101
478.300	-19.192	0.101
478.400	-21.645	0.101
478.500	-17.214	0.101
478.600	-25.249	0.101
478.700	-25.628	0.101
478.800	-10.315	0.101
478.900	-14.089	0.101
479.000	-14.459	0.101
479.100	-15.274	0.101
479.200	-14.334	0.101
479.300	-18.758	0.101
479.400	-11.881	0.101
479.500	-13.092	0.101
479.600	-5.706	0.101
479.700	-18.645	0.101
479.800	-29.903	0.101
479.900	-11.589	0.101
480.000	-10.870	0.101
480.100	-7.347	0.101
480.200	-2.538	0.101
480.300	-13.337	0.101
480.400	-7.784	0.101
480.500	-2.220	0.101
480.600	0.714	0.101
480.700	-5.141	0.101
480.800	2.378	0.101
480.900	-0.397	0.101
481.000	-1.714	0.101
481.100	2.866	0.101
481.200	1.657	0.101
481.300	1.495	0.101
481.400	10.742	0.101
481.500	23.971	0.101
481.600	3.388	0.101
481.700	13.679	0.101
481.800	5.455	0.101
481.900	12.646	0.101
482.000	8.276	0.101
482.100	18.780	0.101
482.200	19.564	0.101
482.300	21.213	0.101
482.400	18.886	0.101
482.500	15.038	0.101
482.600	8.834	0.101
482.700	16.236	0.101
482.800	13.432	0.101
482.900	7.061	0.101
483.000	17.951	0.101
483.100	22.516	0.101
483.200	25.977	0.101
483.300	22.080	0.101
483.400	18.958	0.101
483.500	12.359	0.101
483.600	17.767	0.101
483.700	22.473	0.101
483.800	28.056	0.101
483.900	17.291	0.101
484.000	29.672	0.101
484.100	16.310	0.101
484.200	8.436	0.101
484.300	15.679	0.101
484.400	8.760	0.101
484.500	5.347	0.101
484.600	10.055	0.101
484.700	21.276	0.101
484.800	14.451	0.101
484.900	9.737	0.101
485.000	14.673	0.101
485.100	10.329	0.101
485.200	6.671	0.101
485.300	23.017	0.101
485.400	19.240	0.101
485.500	23.959	0.101
485.600	25.349	0.101
485.700	20.721	0.101
485.800	21.262	0.101
485.900	22.564	0.101
486.000	12.903	0.101
486.100	8.293	0.101
486.200	11.324	0.101
486.300	1.217	0.101
486.400	5.991	0.101
486.500	12.791	0.101
486.600	20.733	0.101
486.700	20.682	0.101
486.800	16.929	0.101
486.900	17.820	0.101
487.000	11.157	0.101
487.100	20.852	0.101
487.200	16.132	0.101
487.300	9.025	0.101
487.400	11.590	0.101
487.500	1.981	0.101
487.600	1.654	0.101
487.700	14.169	0.101
487.800	13.675	0.101
487.900	19.710	0.101
488.000	5.747	0.101
488.100	13.922	0.101
488.200	15.284	0.101
488.300	12.992	0.101
488.400	8.746	0.101
488.500	13.226	0.101
488.600	5.650	0.101
488.700	5.532	0.101
488.800	9.369	0.101
488.900	10.726	0.101
489.000	12.667	0.101
489.100	25.537	0.101
489.200	15.404	0.101
489.300	22.698	0.101
489.400	13.246	0.101
489.500	23.105	0.101
489.600	14.000	0.101
489.700	16.556	0.101
489.800	9.216	0.101
489.900	3.436	0.101
490.000	14.101	0.101
490.100	11.264	0.101
490.200	16.335	0.101
490.300	11.670	0.101
490.400	13.080	0.101
490.500	11.090	0.101
490.600	3.494	0.101
490.700	26.525	0.101
490.800	11.282	0.101
490.900	13.000	0.101
491.000	17.157	0.101
491.100	10.265	0.101
491.200	12.036	0.101
491.300	23.255	0.101
491.400	21.071	0.101
491.500	15.312	0.101
491.600	16.877	0.101
491.700	13.957	0.101
491.800	15.682	0.101
491.900	14.573	0.101
492.000	20.725	0.101
492.100	19.295	0.101
492.200	8.624	0.101
492.300	3.264	0.101
492.400	8.244	0.101
492.500	28.124	0.101
492.600	14.268	0.101
492.700	15.175	0.101
492.800	12.192	0.101
492.900	16.120	0.101
493.000	6.717	0.101
493.100	7.811	0.101
493.200	23.020	0.101
493.300	18.856	0.101
493.400	12.390	0.101
493.500	8.988	0.101
493.600	15.627	0.101
493.700	3.914	0.101
493.800	17.005	0.101
493.900	14.601	0.101
494.000	10.194	0.101
494.100	14.496	0.101
494.200	15.228	0.101
494.300	10.451	0.101
494.400	19.840	0.101
494.500	20.381	0.101
494.600	23.160	0.101
494.700	19.071	0.101
494.800	22.559	0.101
494.900	21.151	0.101
495.000	18.525	0.101
495.100	14.232	0.101
495.200	18.013	0.101
495.300	15.800	0.101
495.400	15.498	0.101
495.500	9.473	0.101
495.600	14.997	0.101
495.700	23.913	0.101
495.800	13.533	0.101
495.900	13.541	0.101
496.000	20.114	0.101
496.100	24.666	0.101
496.200	23.576	0.101
496.300	26.773	0.101
496.400	21.493	0.101
496.500	27.153	0.101
496.600	29.746	0.101
496.700	34.042	0.101
496.800	19.598	0.101
496.900	26.611	0.101
497.000	32.577	0.101
497.100	16.991	0.101
497.200	24.188	0.101
497.300	18.901	0.101
497.400	22.202	0.101
497.500	31.163	0.101
497.600	30.039	0.101
497.700	18.167	0.101
497.800	36.509	0.101
497.900	30.870	0.101
498.000	22.696	0.101
498.100	29.478	0.101
498.200	25.290	0.101
498.300	19.442	0.101
498.400	31.500	0.101
498.500	34.105	0.101
498.600	31.603	0.101
498.700	32.970	0.101
498.800	42.432	0.101
498.900	28.752	0.101
499.000	29.501	0.101
499.100	30.779	0.101
499.200	24.773	0.101
499.300	20.535	0.101
499.400	9.121	0.101
499.500	28.924	0.101
499.600	41.598	0.101
499.700	42.501	0.101
499.800	20.435	0.101
499.900	29.158	0.101
500.000	35.024	0.101
500.100	28.851	0.101
500.200	33.932	0.101
500.300	24.090	0.101
500.400	36.438	0.101
500.500	26.174	0.101
500.600	37.050	0.101
500.700	37.560	0.101
500.800	31.025	0.101
500.900	28.339	0.101
501.000	41.167	0.101
501.100	25.700	0.101
501.200	41.178	0.101
501.300	39.733	0.101
501.400	40.599	0.101
501.500	30.046	0.101
501.600	34.262	0.101
501.700	40.994	0.101
501.800	44.708	0.101
501.900	37.483	0.101
502.000	34.375	0.101
502.100	34.304	0.101
502.200	30.887	0.101
502.300	33.128	0.101
502.400	33.268	0.101
502.500	39.625	0.101
502.600	37.305	0.101
502.700	29.598	0.101
502.800	33.615	0.101
502.900	37.161	0.101
503.000	32.764	0.101
503.100	44.109	0.101
503.200	36.682	0.101
503.300	34.849	0.101
503.400	38.721	0.101
503.500	34.405	0.101
503.600	37.205	0.101
503.700	47.273	0.101
503.800	44.085	0.101
503.900	33.092	0.101
504.000	31.332	0.101
504.100	36.963	0.101
504.200	36.407	0.101
504.300	37.649	0.101
504.400	50.500	0.101
504.500	38.366	0.101
504.600	37.190	0.101
504.700	42.097	0.101
504.800	53.328	0.101
504.900	36.538	0.101
505.000	32.300	0.101
505.100	35.183	0.101
505.200	36.269	0.101
505.300	39.040	0.101
505.400	37.823	0.101
505.500	33.440	0.101
505.600	47.890	0.101
505.700	30.782	0.101
505.800	49.514	0.101
505.900	38.110	0.101
506.000	38.257	0.101
506.100	53.947	0.101
506.200	40.493	0.101
506.300	36.161	0.101
506.400	37.868	0.101
506.500	38.388	0.101
506.600	29.479	0.101
506.700	40.730	0.101
506.800	43.794	0.101
506.900	47.802	0.101
507.000	36.135	0.101
507.100	33.524	0.101
507.200	29.339	0.101
507.300	36.520	0.101
507.400	46.760	0.101
507.500	44.080	0.101
507.600	48.781	0.101
507.700	39.683	0.101
507.800	41.684	0.101
507.900	46.133	0.101
508.000	38.719	0.101
508.100	32.384	0.101
508.200	43.898	0.101
508.300	42.488	0.101
508.400	33.737	0.101
508.500	40.143	0.101
508.600	49.405	0.101
508.700	37.762	0.101
508.800	41.447	0.101
508.900	32.035	0.101
509.000	43.055	0.101
509.100	27.285	0.101
509.200	42.039	0.101
509.300	43.933	0.101
509.400	35.391	0.101
509.500	41.328	0.101
509.600	37.303	0.101
509.700	33.904	0.101
509.800	40.156	0.101
509.900	37.956	0.101
510.000	45.670	0.101
510.100	44.004	0.101
510.200	42.354	0.101
510.300	44.384	0.101
510.400	45.441	0.101
510.500	37.802	0.101
510.600	39.994	0.101
510.700	38.547	0.101
510.800	54.269	0.101
510.900	30.096	0.101
511.000	45.720	0.101
511.100	37.428	0.101
511.200	26.964	0.101
511.300	26.513	0.101
511.400	32.550	0.101
511.500	45.183	0.101
511.600	40.002	0.101
511.700	36.874	0.101
511.800	36.393	0.101
511.900	39.880	0.101
512.000	41.532	0.101
512.100	38.164	0.101
512.200	37.652	0.101
512.300	36.862	0.101
512.400	27.473	0.101
512.500	35.778	0.101
512.600	47.908	0.101
512.700	45.803	0.101
512.800	34.211	0.101
512.900	34.496	0.101
513.000	35.221	0.101
513.100	30.495	0.101
513.200	44.174	0.101
513.300	39.291	0.101
513.400	30.345	0.101
513.500	38.573	0.101
513.600	40.655	0.101
513.700	52.985	0.101
513.800	55.337	0.101
513.900	47.067	0.101
514.000	29.330	0.101
514.100	40.365	0.101
514.200	30.771	0.101
514.300	41.555	0.101
514.400	40.426	0.101
514.500	52.948	0.101
514.600	28.414	0.101
514.700	34.424	0.101
514.800	39.392	0.101
514.900	39.401	0.101
515.000	43.448	0.101
515.100	47.245	0.101
515.200	39.881	0.101
515.300	26.323	0.101
515.400	33.077	0.101
515.500	44.356	0.101
515.600	40.270	0.101
515.700	39.495	0.101
515.800	26.318	0.101
515.900	31.207	0.101
516.000	30.116	0.101
516.100	33.140	0.101
516.200	40.513	0.101
516.300	45.400	0.101
516.400	40.194	0.101
516.500	41.923	0.101
516.600	40.879	0.101
516.700	34.099	0.101
516.800	41.285	0.101
516.900	39.451	0.101
517.000	34.057	0.101
517.100	44.957	0.101
517.200	40.798	0.101
517.300	27.269	0.101
517.400	25.534	0.101
517.500	41.447	0.101
517.600	36.937	0.101
517.700	36.396	0.101
517.800	35.525	0.101
517.900	36.915	0.101
518.000	31.659	0.101
518.100	35.186	0.101
518.200	34.776	0.101
518.300	46.863	0.101
518.400	48.428	0.101
518.500	54.243	0.101
518.600	54.041	0.101
518.700	47.429	0.101
518.800	34.294	0.101
518.900	36.534	0.101
519.000	40.488	0.101
519.100	34.564	0.101
519.200	39.670	0.101
519.300	38.965	0.101
519.400	37.512	0.101
519.500	45.164	0.101
519.600	37.147	0.101
519.700	37.385	0.101
519.800	38.868	0.101
519.900	36.896	0.101
520.000	48.245	0.101
520.100	45.975	0.101
520.200	39.340	0.101
520.300	35.394	0.101
520.400	30.944	0.101
520.500	30.686	0.101
520.600	39.538	0.101
520.700	41.903	0.101
520.800	42.217	0.101
520.900	48.793	0.101
521.000	40.809	0.101
521.100	30.964	0.101
521.200	40.087	0.101
521.300	36.626	0.101
521.400	40.708	0.101
521.500	45.620	0.101
521.600	39.569	0.101
521.700	39.277	0.101
521.800	41.989	0.101
521.900	45.699	0.101
522.000	41.938	0.101
522.100	41.324	0.101
522.200	30.247	0.101
522.300	39.062	0.101
522.400	47.110	0.101
522.500	38.960	0.101
522.600	42.062	0.101
522.700	35.578	0.101
522.800	39.522	0.101
522.900	35.506	0.101
523.000	48.732	0.101
523.100	39.503	0.101
523.200	34.882	0.101
523.300	42.645	0.101
523.400	39.761	0.101
523.500	27.071	0.101
523.600	19.545	0.101
523.700	33.524	0.101
523.800	39.625	0.101
523.900	45.528	0.101
524.000	46.916	0.101
524.100	37.549	0.101
524.200	29.904	0.101
524.300	42.975	0.101
524.400	34.341	0.101
524.500	34.897	0.101
524.600	30.418	0.101
524.700	41.906	0.101
524.800	43.884	0.101
524.900	46.948	0.101
525.000	49.035	0.101
525.100	46.789	0.101
525.200	39.279	0.101
525.300	35.082	0.101
525.400	40.794	0.101
525.500	42.924	0.101
525.600	34.815	0.101
525.700	40.049	0.101
525.800	35.163	0.101
525.900	32.645	0.101
526.000	42.229	0.101
526.100	26.691	0.101
526.200	35.935	0.101
526.300	42.190	0.101
526.400	29.720	0.101
526.500	38.853	0.101
526.600	44.204	0.101
526.700	46.258	0.101
526.800	38.237	0.101
526.900	45.878	0.101
527.000	50.186	0.101
527.100	40.478	0.101
527.200	37.813	0.101
527.300	31.995	0.101
527.400	44.709	0.101
527.500	43.105	0.101
527.600	25.558	0.101
527.700	30.820	0.101
527.800	23.212	0.101
527.900	32.129	0.101
528.000	47.028	0.101
528.100	42.078	0.101
528.200	36.653	0.101
528.300	46.852	0.101
528.400	41.284	0.101
528.500	32.374	0.101
528.600	39.955	0.101
528.700	37.121	0.101
528.800	35.708	0.101
528.900	41.652	0.101
529.000	38.937	0.101
529.100	43.969	0.101
529.200	40.207	0.101
529.300	37.431	0.101
529.400	46.910	0.101
529.500	40.963	0.101
529.600	40.965	0.101
529.700	35.983	0.101
529.800	42.556	0.101
529.900	40.418	0.101
530.000	43.252	0.101
530.100	42.134	0.101
530.200	43.319	0.101
530.300	28.113	0.101
530.400	36.131	0.101
530.500	39.742	0.101
530.600	36.683	0.101
530.700	39.363	0.101
530.800	36.479	0.101
530.900	51.920	0.101
531.000	40.246	0.101
531.100	42.672	0.101
531.200	34.329	0.101
531.300	39.429	0.101
531.400	29.148	0.101
531.500	52.633	0.101
531.600	45.141	0.101
531.700	49.569	0.101
531.800	29.601	0.101
531.900	30.877	0.101
532.000	33.859	0.101
532.100	31.385	0.101
532.200	49.831	0.101
532.300	33.237	0.101
532.400	50.863	0.101
532.500	23.076	0.101
532.600	39.612	0.101
532.700	33.072	0.101
532.800	31.825	0.101
532.900	42.721	0.101
533.000	50.828	0.101
533.100	39.344	0.101
533.200	36.138	0.101
533.300	38.009	0.101
533.400	38.787	0.101
533.500	40.319	0.101
533.600	35.260	0.101
533.700	38.835	0.101
533.800	32.082	0.101
533.900	47.737	0.101
534.000	37.803	0.101
534.100	44.701	0.101
534.200	38.321	0.101
534.300	44.890	0.101
534.400	32.977	0.101
534.500	41.054	0.101
534.600	35.090	0.101
534.700	35.459	0.101
534.800	39.790	0.101
534.900	27.959	0.101
535.000	39.428	0.101
535.100	41.416	0.101
535.200	31.116	0.101
535.300	40.860	0.101
535.400	47.540	0.101
535.500	44.476	0.101
535.600	46.127	0.101
535.700	43.242	0.101
535.800	47.568	0.101
535.900	42.330	0.101
536.000	40.468	0.101
536.100	45.117	0.101
536.200	38.681	0.101
536.300	27.610	0.101
536.400	32.796	0.101
536.500	38.716	0.101
536.600	35.911	0.101
536.700	39.476	0.101
536.800	51.464	0.101
536.900	38.809	0.101
537.000	32.209	0.101
537.100	40.473	0.101
537.200	37.487	0.101
537.300	41.901	0.101
537.400	38.369	0.101
537.500	41.311	0.101
537.600	31.726	0.101
537.700	32.147	0.101
537.800	36.490	0.101
537.900	26.356	0.101
538.000	34.718	0.101
538.100	42.657	0.101
538.200	32.181	0.101
538.300	37.510	0.101
538.400	41.667	0.101
538.500	35.111	0.101
538.600	38.951	0.101
538.700	34.906	0.101
538.800	42.074	0.101
538.900	44.251	0.101
539.000	45.220	0.101
539.100	44.194	0.101
539.200	40.621	0.101
539.300	36.644	0.101
539.400	51.220	0.101
539.500	36.891	0.101
539.600	42.080	0.101
539.700	34.331	0.101
539.800	39.360	0.101
539.900	41.129	0.101
540.000	38.566	0.101
540.100	36.318	0.101
540.200	39.722	0.101
540.300	38.136	0.101
540.400	34.461	0.101
540.500	23.280	0.101
540.600	22.498	0.101
540.700	26.658	0.101
540.800	10.628	0.101
540.900	18.392	0.101
541.000	23.355	0.101
541.100	14.348	0.101
541.200	6.826	0.101
541.300	9.741	0.101
541.400	14.522	0.101
541.500	0.386	0.101
541.600	6.456	0.101
541.700	6.010	0.101
541.800	2.062	0.101
541.900	15.488	0.101
542.000	15.448	0.101
542.100	14.955	0.101
542.200	6.148	0.101
542.300	2.003	0.101
542.400	-11.737	0.101
542.500	5.649	0.101
542.600	22.567	0.101
542.700	-2.267	0.101
542.800	-3.350	0.101
542.900	-4.967	0.101
543.000	0.450	0.101
543.100	-4.254	0.101
543.200	-9.155	0.101
543.300	-7.490	0.101
543.400	-9.165	0.101
543.500	-0.457	0.101
543.600	5.440	0.101
543.700	-9.986	0.101
543.800	-10.103	0.101
543.900	-3.669	0.101
544.000	9.948	0.101
544.100	-3.565	0.101
544.200	-2.577	0.101
544.300	-2.480	0.101
544.400	-2.812	0.101
544.500	-11.292	0.101
544.600	-2.909	0.101
544.700	-4.177	0.101
544.800	1.476	0.101
544.900	-11.492	0.101
545.000	-9.790	0.101
545.100	-10.095	0.101
545.200	-7.015	0.101
545.300	-12.576	0.101
545.400	2.675	0.101
545.500	-2.652	0.101
545.600	-2.902	0.101
545.700	-11.837	0.101
545.800	-8.308	0.101
545.900	-7.550	0.101
546.000	-7.789	0.101
546.100	-0.340	0.101
546.200	-9.307	0.101
546.300	-7.176	0.101
546.400	-5.845	0.101
546.500	-6.616	0.101
546.600	-5.922	0.101
546.700	-2.002	0.101
546.800	-2.015	0.101
546.900	-8.964	0.101
547.000	-7.210	0.101
547.100	4.450	0.101
547.200	-4.558	0.101
547.300	2.672	0.101
547.400	3.839	0.101
547.500	-5.548	0.101
547.600	-6.913	0.101
547.700	-15.365	0.101
547.800	-11.278	0.101
547.900	-0.339	0.101
548.000	9.449	0.101
548.100	2.269	0.101
548.200	-9.008	0.101
548.300	4.083	0.101
548.400	-8.787	0.101
548.500	-5.807	0.101
548.600	-9.724	0.101
548.700	-11.293	0.101
548.800	-14.911	0.101
548.900	-12.071	0.101
549.000	0.602	0.101
549.100	-14.755	0.101
549.200	-14.732	0.101
549.300	-10.593	0.101
549.400	-10.115	0.101
549.500	-14.170	0.101
549.600	-11.771	0.101
549.700	-11.662	0.101
549.800	0.650	0.101
549.900	-10.217	0.101
550.000	-14.259	0.101
550.100	-8.168	0.101
550.200	-10.779	0.101
550.300	-8.171	0.101
550.400	-7.450	0.101
550.500	-17.128	0.101
550.600	-3.788	0.101
550.700	-11.101	0.101
550.800	-8.970	0.101
550.900	-2.991	0.101
551.000	-11.943	0.101
551.100	1.378	0.101
551.200	-2.994	0.101
551.300	-3.847	0.101
551.400	-16.766	0.101
551.500	-18.712	0.101
551.600	-1.559	0.101
551.700	-6.265	0.101
551.800	-1.388	0.101
551.900	-6.993	0.101
552.000	-16.326	0.101
552.100	-10.633	0.101
552.200	-12.290	0.101
552.300	-11.735	0.101
552.400	-14.711	0.101
552.500	-22.688	0.101
552.600	-13.605	0.101
552.700	-6.785	0.101
552.800	-11.553	0.101
552.900	-2.550	0.101
553.000	-7.557	0.101
553.100	-9.277	0.101
553.200	-5.713	0.101
553.300	-20.954	0.101
553.400	-16.051	0.101
553.500	-17.615	0.101
553.600	-17.512	0.101
553.700	-8.323	0.101
553.800	-4.069	0.101
553.900	-7.675	0.101
554.000	-4.959	0.101
554.100	-8.125	0.101
554.200	-12.253	0.101
554.300	-4.294	0.101
554.400	-12.860	0.101
554.500	-22.132	0.101
554.600	-12.600	0.101
554.700	-15.128	0.101
554.800	-7.863	0.101
554.900	-3.862	0.101
555.000	-7.329	0.101
555.100	-12.831	0.101
555.200	-8.436	0.101
555.300	-9.768	0.101
555.400	-9.168	0.101
555.500	-17.185	0.101
555.600	-14.302	0.101
555.700	-23.762	0.101
555.800	-14.440	0.101
555.900	-11.517	0.101
556.000	-7.975	0.101
556.100	-6.011	0.101
556.200	-16.607	0.101
556.300	-7.774	0.101
556.400	-6.168	0.101
556.500	-9.632	0.101
556.600	-21.195	0.101
556.700	-17.824	0.101
556.800	-4.611	0.101
556.900	-5.671	0.101
557.000	-21.855	0.101
557.100	-19.817	0.101
557.200	-15.783	0.101
557.300	-13.665	0.101
557.400	-10.427	0.101
557.500	-16.490	0.101
557.600	-16.908	0.101
557.700	-2.841	0.101
557.800	-16.266	0.101
557.900	-15.285	0.101
558.000	-22.751	0.101
558.100	-25.070	0.101
558.200	-13.810	0.101
558.300	-1.361	0.101
558.400	-0.402	0.101
558.500	-15.483	0.101
558.600	-11.161	0.101
558.700	-18.044	0.101
558.800	-27.932	0.101
558.900	-15.417	0.101
559.000	-12.154	0.101
559.100	-7.089	0.101
559.200	-8.571	0.101
559.300	-10.556	0.101
559.400	-11.046	0.101
559.500	-14.815	0.101
559.600	-13.400	0.101
559.700	-14.393	0.101
559.800	-22.872	0.101
559.900	-15.764	0.101
560.000	-9.288	0.101
560.100	-27.319	0.101
560.200	-13.564	0.101
560.300	-17.205	0.101
560.400	-8.548	0.101
560.500	-15.937	0.101
560.600	-20.464	0.101
560.700	-21.791	0.101
560.800	-21.453	0.101
560.900	-12.991	0.101
561.000	-7.693	0.101
561.100	-9.577	0.101
561.200	-23.585	0.101
561.300	-17.295	0.101
561.400	-27.478	0.101
561.500	-18.912	0.101
561.600	-17.778	0.101
561.700	-20.380	0.101
561.800	-13.803	0.101
561.900	-2.921	0.101
562.000	-13.793	0.101
562.100	-15.970	0.101
562.200	-12.771	0.101
562.300	-16.951	0.101
562.400	-16.747	0.101
562.500	-8.104	0.101
562.600	-19.831	0.101
562.700	-20.358	0.101
562.800	-27.234	0.101
562.900	-23.481	0.101
563.000	-24.364	0.101
563.100	-18.113	0.101
563.200	-18.355	0.101
563.300	-10.149	0.101
563.400	-12.838	0.101
563.500	-24.087	0.101
563.600	-17.497	0.101
563.700	-12.437	0.101
563.800	-13.675	0.101
563.900	-25.071	0.101
564.000	-17.728	0.101
564.100	-20.723	0.101
564.200	-19.251	0.101
564.300	-20.667	0.101
564.400	-9.579	0.101
564.500	-16.473	0.101
564.600	-11.852	0.101
564.700	-6.346	0.101
564.800	-23.377	0.101
564.900	-28.294	0.101
565.000	-14.987	0.101
565.100	-25.138	0.101
565.200	-7.560	0.101
565.300	-13.986	0.101
565.400	-23.697	0.101
565.500	-21.923	0.101
565.600	-17.758	0.101
565.700	-15.931	0.101
565.800	-9.954	0.101
565.900	-20.222	0.101
566.000	-20.296	0.101
566.100	-25.248	0.101
566.200	-17.049	0.101
566.300	-18.215	0.101
566.400	-28.612	0.101
566.500	-21.955	0.101
566.600	-17.360	0.101
566.700	-11.956	0.101
566.800	-19.960	0.101
566.900	-11.512	0.101
567.000	-9.381	0.101
567.100	-15.077	0.101
567.200	-13.952	0.101
567.300	-19.125	0.101
567.400	-15.848	0.101
567.500	-20.334	0.101
567.600	-17.516	0.101
567.700	-22.416	0.101
567.800	-22.143	0.101
567.900	-13.651	0.101
568.000	-26.547	0.101
568.100	-23.433	0.101
568.200	-32.131	0.101
568.300	-30.133	0.101
568.400	-13.217	0.101
568.500	-21.407	0.101
568.600	-14.880	0.101
568.700	-14.739	0.101
568.800	-19.338	0.101
568.900	-19.979	0.101
569.000	-28.199	0.101
569.100	-18.838	0.101
569.200	-25.007	0.101
569.300	-25.752	0.101
569.400	-27.077	0.101
569.500	-13.026	0.101
569.600	-19.746	0.101
569.700	-15.806	0.101
569.800	-22.858	0.101
569.900	-19.013	0.101
570.000	-12.318	0.101
570.100	-16.224	0.101
570.200	-18.580	0.101
570.300	-23.550	0.101
570.400	-21.378	0.101
570.500	-19.314	0.101
570.600	-14.384	0.101
570.700	-28.141	0.101
570.800	-23.723	0.101
570.900	-10.922	0.101
571.000	-16.671	0.101
571.100	-19.740	0.101
571.200	-11.144	0.101
571.300	-28.800	0.101
571.400	-13.703	0.101
571.500	-25.803	0.101
571.600	-19.964	0.101
571.700	-20.375	0.101
571.800	-18.333	0.101
571.900	-33.208	0.101
572.000	-10.309	0.101
572.100	-29.362	0.101
572.200	-22.053	0.101
572.300	-20.576	0.101
572.400	-22.240	0.101
572.500	-16.997	0.101
572.600	-19.147	0.101
572.700	-16.366	0.101
572.800	-14.507	0.101
572.900	-26.889	0.101
573.000	-30.428	0.101
573.100	-23.353	0.101
573.200	-19.752	0.101
573.300	-29.140	0.101
573.400	-10.852	0.101
573.500	-26.563	0.101
573.600	-24.533	0.101
573.700	-19.229	0.101
573.800	-7.896	0.101
573.900	-15.133	0.101
574.000	-13.781	0.101
574.100	-22.913	0.101
574.200	-19.583	0.101
574.300	-27.142	0.101
574.400	-19.786	0.101
574.500	-25.992	0.101
574.600	-19.292	0.101
574.700	-19.779	0.101
574.800	-18.459	0.101
574.900	-27.538	0.101
575.000	-22.274	0.101
575.100	-31.388	0.101
575.200	-19.293	0.101
575.300	-23.702	0.101
575.400	-21.620	0.101
575.500	-26.293	0.101
575.600	-26.989	0.101
575.700	-14.685	0.101
575.800	-21.918	0.101
575.900	-16.787	0.101
576.000	-19.498	0.101
576.100	-24.362	0.101
576.200	-21.731	0.101
576.300	-23.036	0.101
576.400	-19.857	0.101
576.500	-23.040	0.101
576.600	-21.717	0.101
576.700	-21.588	0.101
576.800	-22.495	0.101
576.900	-21.969	0.101
577.000	-27.544	0.101
577.100	-22.776	0.101
577.200	-13.852	0.101
577.300	-23.925	0.101
577.400	-25.190	0.101
577.500	-19.169	0.101
577.600	-32.573	0.101
577.700	-22.675	0.101
577.800	-25.992	0.101
577.900	-24.955	0.101
578.000	-11.996	0.101
578.100	-17.870	0.101
578.200	-16.967	0.101
578.300	-29.400	0.101
578.400	-33.061	0.101
578.500	-22.794	0.101
578.600	-14.797	0.101
578.700	-22.595	0.101
578.800	-14.504	0.101
578.900	-5.878	0.101
579.000	-23.734	0.101
579.100	-28.126	0.101
579.200	-24.390	0.101
579.300	-35.601	0.101
579.400	-34.482	0.101
579.500	-22.643	0.101
579.600	-24.219	0.101
579.700	-13.351	0.101
579.800	-20.102	0.101
579.900	-25.752	0.101
580.000	-16.978	0.101
580.100	-25.036	0.101
580.200	-12.035	0.101
580.300	-14.507	0.101
580.400	-14.190	0.101
580.500	-15.631	0.101
580.600	-15.878	0.101
580.700	-31.317	0.101
580.800	-22.977	0.101
580.900	-23.386	0.101
581.000	-26.880	0.101
581.100	-26.150	0.101
581.200	-27.186	0.101
581.300	-23.748	0.101
581.400	-27.035	0.101
581.500	-28.950	0.101
581.600	-15.743	0.101
581.700	-20.122	0.101
581.800	-16.978	0.101
581.900	-16.457	0.101
582.000	-31.192	0.101
582.100	-20.810	0.101
582.200	-16.669	0.101
582.300	-23.411	0.101
582.400	-29.357	0.101
582.500	-19.864	0.101
582.600	-31.404	0.101
582.700	-23.616	0.101
582.800	-26.270	0.101
582.900	-32.081	0.101
583.000	-27.835	0.101
583.100	-16.826	0.101
583.200	-12.563	0.101
583.300	-20.841	0.101
583.400	-31.535	0.101
583.500	-26.269	0.101
583.600	-26.876	0.101
583.700	-13.507	0.101
583.800	-19.151	0.101
583.900	-25.733	0.101
584.000	-15.435	0.101
584.100	-25.558	0.101
584.200	-14.592	0.101
584.300	-15.063	0.101
584.400	-25.957	0.101
584.500	-13.975	0.101
584.600	-24.414	0.101
584.700	-23.592	0.101
584.800	-20.140	0.101
584.900	-22.820	0.101
585.000	-25.631	0.101
585.100	-13.901	0.101
585.200	-16.569	0.101
585.300	-21.122	0.101
585.400	-22.057	0.101
585.500	-23.072	0.101
585.600	-14.327	0.101
585.700	-24.061	0.101
585.800	-20.192	0.101
585.900	-12.958	0.101
586.000	-25.314	0.101
586.100	-24.668	0.101
586.200	-30.283	0.101
586.300	-22.279	0.101
586.400	-11.412	0.101
586.500	-11.089	0.101
586.600	-27.120	0.101
586.700	-19.318	0.101
586.800	-29.217	0.101
586.900	-27.973	0.101
587.000	-16.236	0.101
587.100	-20.173	0.101
587.200	-19.192	0.101
587.300	-23.418	0.101
587.400	-15.022	0.101
587.500	-28.122	0.101
587.600	-20.458	0.101
587.700	-17.235	0.101
587.800	-26.857	0.101
587.900	-20.894	0.101
588.000	-19.567	0.101
588.100	-24.986	0.101
588.200	-22.554	0.101
588.300	-23.287	0.101
588.400	-14.893	0.101
588.500	-22.205	0.101
588.600	-22.747	0.101
588.700	-23.706	0.101
588.800	-37.681	0.101
588.900	-19.815	0.101
589.000	-21.738	0.101
589.100	-11.434	0.101
589.200	-22.740	0.101
589.300	-37.308	0.101
589.400	-25.964	0.101
589.500	-24.703	0.101
589.600	-12.211	0.101
589.700	-16.202	0.101
589.800	-18.245	0.101
589.900	-27.611	0.101
590.000	-23.217	0.101
590.100	-7.084	0.101
590.200	-17.269	0.101
590.300	-11.831	0.101
590.400	-22.576	0.101
590.500	-37.764	0.101
590.600	-16.290	0.101
590.700	-27.935	0.101
590.800	-24.916	0.101
590.900	-20.609	0.101
591.000	-33.335	0.101
591.100	-19.944	0.101
591.200	-19.796	0.101
591.300	-10.793	0.101
591.400	-22.990	0.101
591.500	-19.486	0.101
591.600	-22.538	0.101
591.700	-11.401	0.101
591.800	-21.084	0.101
591.900	-20.114	0.101
592.000	-23.186	0.101
592.100	-19.415	0.101
592.200	-30.646	0.101
592.300	-19.887	0.101
592.400	-23.619	0.101
592.500	-7.334	0.101
592.600	-23.985	0.101
592.700	-24.273	0.101
592.800	-22.677	0.101
592.900	-26.004	0.101
593.000	-16.696	0.101
593.100	-25.391	0.101
593.200	-33.462	0.101
593.300	-15.893	0.101
593.400	-13.423	0.101
593.500	-28.995	0.101
593.600	-21.192	0.101
593.700	-12.986	0.101
593.800	-13.651	0.101
593.900	-22.240	0.101
594.000	-25.548	0.101
594.100	-22.462	0.101
594.200	-9.705	0.101
594.300	-29.304	0.101
594.400	-21.793	0.101
594.500	-16.939	0.101
594.600	-25.608	0.101
594.700	-24.104	0.101
594.800	-10.514	0.101
594.900	-26.038	0.101
595.000	-19.177	0.101
595.100	-17.162	0.101
595.200	-34.555	0.101
595.300	-26.920	0.101
595.400	-18.181	0.101
595.500	-20.510	0.101
595.600	-22.786	0.101
595.700	-26.335	0.101
595.800	-21.292	0.101
595.900	-34.682	0.101
596.000	-19.873	0.101
596.100	-18.860	0.101
596.200	-33.530	0.101
596.300	-22.901	0.101
596.400	-13.694	0.101
596.500	-17.237	0.101
596.600	-10.299	0.101
596.700	-15.929	0.101
596.800	-19.973	0.101
596.900	-24.390	0.101
597.000	-29.852	0.101
597.100	-20.947	0.101
597.200	-29.548	0.101
597.300	-7.339	0.101
597.400	-13.656	0.101
597.500	-15.724	0.101
597.600	-17.623	0.101
597.700	-18.100	0.101
597.800	-18.744	0.101
597.900	-30.270	0.101
598.000	-10.996	0.101
598.100	-17.204	0.101
598.200	-16.455	0.101
598.300	-14.097	0.101
598.400	-23.101	0.101
598.500	-28.578	0.101
598.600	-20.407	0.101
598.700	-21.726	0.101
598.800	-17.460	0.101
598.900	-1.782	0.101
599.000	-13.518	0.101
599.100	-27.612	0.101
599.200	-14.998	0.101
599.300	-27.460	0.101
599.400	-22.261	0.101
599.500	-20.698	0.101
599.600	-18.749	0.101
599.700	-21.794	0.101
599.800	-14.694	0.101
599.900	-23.080	0.101
600.000	-22.367	0.101
600.100	-25.600	0.101
600.200	-16.219	0.101
600.300	-22.534	0.101
600.400	-29.070	0.101
600.500	-27.327	0.101
600.600	-22.345	0.101
600.700	-31.007	0.101
600.800	-18.179	0.101
600.900	-19.762	0.101
601.000	-13.941	0.101
601.100	-20.417	0.101
601.200	-21.110	0.101
601.300	-12.294	0.101
601.400	-24.020	0.101
601.500	-18.914	0.101
601.600	-10.195	0.101
601.700	-22.603	0.101
601.800	-18.915	0.101
601.900	-17.583	0.101
602.000	-21.839	0.101
602.100	-18.564	0.101
602.200	-23.755	0.101
602.300	-15.986	0.101
602.400	-23.084	0.101
602.500	-24.143	0.101
602.600	-22.117	0.101
602.700	-19.588	0.101
602.800	-9.343	0.101
602.900	-26.313	0.101
603.000	-11.154	0.101
603.100	-20.587	0.101
603.200	-22.265	0.101
603.300	-21.488	0.101
603.400	-13.798	0.101
603.500	-16.611	0.101
603.600	-7.969	0.101
603.700	-25.430	0.101
603.800	-18.859	0.101
603.900	-20.450	0.101
604.000	-16.143	0.101
604.100	-21.770	0.101
604.200	-13.852	0.101
604.300	-13.891	0.101
604.400	-6.042	0.101
604.500	-20.144	0.101
604.600	-27.172	0.101
604.700	-11.183	0.101
604.800	-21.728	0.101
604.900	-16.116	0.101
605.000	-16.755	0.101
605.100	-31.898	0.101
605.200	-24.235	0.101
605.300	-17.328	0.101
605.400	-20.334	0.101
605.500	-14.685	0.101
605.600	-0.873	0.101
605.700	-9.655	0.101
605.800	-22.077	0.101
605.900	-13.929	0.101
606.000	-16.989	0.101
606.100	-19.912	0.101
606.200	-16.228	0.101
606.300	-20.887	0.101
606.400	-23.413	0.101
606.500	-27.253	0.101
606.600	-5.806	0.101
606.700	-23.312	0.101
606.800	-18.110	0.101
606.900	-25.897	0.101
607.000	-24.409	0.101
607.100	-13.822	0.101
607.200	-12.049	0.101
607.300	-16.019	0.101
607.400	-31.374	0.101
607.500	-14.346	0.101
607.600	-11.646	0.101
607.700	-7.642	0.101
607.800	-13.550	0.101
607.900	-19.855	0.101
608.000	-17.472	0.101
608.100	-18.848	0.101
608.200	-30.778	0.101
608.300	-31.642	0.101
608.400	-33.896	0.101
608.500	-21.633	0.101
608.600	-18.555	0.101
608.700	-17.809	0.101
608.800	-16.073	0.101
608.900	-13.752	0.101
609.000	-9.345	0.101
609.100	-5.833	0.101
609.200	-12.455	0.101
609.300	-14.763	0.101
609.400	-2.128	0.101
609.500	-20.396	0.101
609.600	-19.366	0.101
609.700	-22.173	0.101
609.800	-15.555	0.101
609.900	-23.571	0.101
610.000	-21.204	0.101
610.100	-28.040	0.101
610.200	-14.708	0.101
610.300	-15.785	0.101
610.400	-13.488	0.101
610.500	-13.048	0.101
610.600	-22.052	0.101
610.700	-18.060	0.101
610.800	-15.768	0.101
610.900	-24.765	0.101
611.000	-13.980	0.101
611.100	-10.737	0.101
611.200	-17.315	0.101
611.300	-19.269	0.101
611.400	-20.576	0.101
611.500	-24.736	0.101
611.600	-17.977	0.101
611.700	-24.684	0.101
611.800	-13.618	0.101
611.900	-16.420	0.101
612.000	-22.410	0.101
612.100	-10.862	0.101
612.200	-18.579	0.101
612.300	-21.194	0.101
612.400	-29.489	0.101
612.500	-4.723	0.101
612.600	-17.234	0.101
612.700	-21.478	0.101
612.800	-15.992	0.101
612.900	-20.845	0.101
613.000	-23.693	0.101
613.100	-9.806	0.101
613.200	-16.753	0.101
613.300	-20.367	0.101
613.400	-19.680	0.101
613.500	-12.192	0.101
613.600	-24.153	0.101
613.700	-14.013	0.101
613.800	-24.827	0.101
613.900	-20.773	0.101
614.000	-15.187	0.101
614.100	-11.906	0.101
614.200	-8.282	0.101
614.300	-15.806	0.101
614.400	-16.128	0.101
614.500	-27.071	0.101
614.600	-28.911	0.101
614.700	-10.143	0.101
614.800	-10.982	0.101
614.900	-13.162	0.101
615.000	-13.531	0.101
615.100	-12.053	0.101
615.200	-16.592	0.101
615.300	-21.367	0.101
615.400	-26.505	0.101
615.500	-23.502	0.101
615.600	-11.231	0.101
615.700	-14.437	0.101
615.800	-8.812	0.101
615.900	-14.085	0.101
616.000	-28.188	0.101
616.100	-17.333	0.101
616.200	-11.511	0.101
616.300	-14.090	0.101
616.400	-17.355	0.101
616.500	-20.267	0.101
616.600	-22.031	0.101
616.700	-22.137	0.101
616.800	-16.996	0.101
616.900	-23.882	0.101
617.000	-19.146	0.101
617.100	-20.505	0.101
617.200	-21.650	0.101
617.300	-15.981	0.101
617.400	-11.153	0.101
617.500	-11.984	0.101
617.600	-14.952	0.101
617.700	-13.068	0.101
617.800	-7.877	0.101
617.900	-13.743	0.101
618.000	-16.613	0.101
618.100	-27.369	0.101
618.200	-29.071	0.101
618.300	-12.254	0.101
618.400	-21.216	0.101
618.500	-20.118	0.101
618.600	-26.567	0.101
618.700	-20.524	0.101
618.800	-19.129	0.101
618.900	-17.184	0.101
619.000	-13.141	0.101
619.100	-20.152	0.101
619.200	-17.268	0.101
619.300	-7.929	0.101
619.400	-20.291	0.101
619.500	-8.993	0.101
619.600	-22.706	0.101
619.700	-21.146	0.101
619.800	-17.152	0.101
619.900	-25.936	0.101
620.000	-17.528	0.101
620.100	-7.329	0.101
620.200	-13.447	0.101
620.300	-5.108	0.101
620.400	-11.079	0.101
620.500	-24.626	0.101
620.600	-19.949	0.101
620.700	-20.495	0.101
620.800	-11.998	0.101
620.900	-13.547	0.101
621.000	-7.797	0.101
621.100	-19.751	0.101
621.200	-6.654	0.101
621.300	-29.426	0.101
621.400	-26.487	0.101
621.500	-16.244	0.101
621.600	-3.990	0.101
621.700	-6.316	0.101
621.800	-31.694	0.101
621.900	-22.479	0.101
622.000	-17.978	0.101
622.100	-17.546	0.101
622.200	-29.475	0.101
622.300	-9.607	0.101
622.400	-13.723	0.101
622.500	-14.353	0.101
622.600	-6.788	0.101
622.700	-11.874	0.101
622.800	-16.244	0.101
622.900	-19.235	0.101
623.000	-18.138	0.101
623.100	-14.529	0.101
623.200	-11.126	0.101
623.300	-18.631	0.101
623.400	-20.451	0.101
623.500	-12.436	0.101
623.600	-19.732	0.101
623.700	-18.787	0.101
623.800	-22.092	0.101
623.900	-12.951	0.101
624.000	-13.575	0.101
624.100	-7.015	0.101
624.200	-19.130	0.101
624.300	-21.540	0.101
624.400	-13.104	0.101
624.500	-17.347	0.101
624.600	-23.763	0.101
624.700	-12.507	0.101
624.800	-18.840	0.101
624.900	-10.548	0.101
625.000	-18.031	0.101
625.100	-22.342	0.101
625.200	-21.528	0.101
625.300	-20.970	0.101
625.400	-20.635	0.101
625.500	-24.757	0.101
625.600	-6.902	0.101
625.700	-16.943	0.101
625.800	-25.824	0.101
625.900	-20.397	0.101
626.000	-9.197	0.101
626.100	-9.630	0.101
626.200	-14.000	0.101
626.300	-8.826	0.101
626.400	-15.402	0.101
626.500	-21.098	0.101
626.600	-21.540	0.101
626.700	-7.288	0.101
626.800	-15.759	0.101
626.900	-21.200	0.101
627.000	-24.473	0.101
627.100	-14.582	0.101
627.200	-18.376	0.101
627.300	-17.730	0.101
627.400	-16.477	0.101
627.500	-10.709	0.101
627.600	-11.823	0.101
627.700	-16.832	0.101
627.800	-12.122	0.101
627.900	-16.170	0.101
628.000	-19.331	0.101
628.100	-16.382	0.101
628.200	-11.679	0.101
628.300	-11.615	0.101
628.400	-9.776	0.101
628.500	-12.045	0.101
628.600	-17.545	0.101
628.700	-15.823	0.101
628.800	-26.026	0.101
628.900	-15.523	0.101
629.000	-16.174	0.101
629.100	-21.570	0.101
629.200	-18.344	0.101
629.300	-11.660	0.101
629.400	-11.125	0.101
629.500	-14.144	0.101
629.600	-14.529	0.101
629.700	-26.508	0.101
629.800	-24.282	0.101
629.900	-20.695	0.101
630.000	-17.136	0.101
630.100	-6.390	0.101
630.200	-5.843	0.101
630.300	-5.700	0.101
630.400	-4.544	0.101
630.500	3.629	0.101
630.600	-6.827	0.101
630.700	1.096	0.101
630.800	2.265	0.101
630.900	6.513	0.101
631.000	13.488	0.101
631.100	12.969	0.101
631.200	7.344	0.101
631.300	-5.334	0.101
631.400	8.338	0.101
631.500	11.882	0.101
631.600	14.491	0.101
631.700	19.718	0.101
631.800	10.602	0.101
631.900	11.714	0.101
632.000	9.902	0.101
632.100	10.354	0.101
632.200	20.583	0.101
632.300	14.768	0.101
632.400	7.381	0.101
632.500	9.414	0.101
632.600	14.467	0.101
632.700	21.057	0.101
632.800	22.691	0.101
632.900	17.690	0.101
633.000	8.886	0.101
633.100	24.410	0.101
633.200	19.604	0.101
633.300	21.223	0.101
633.400	19.972	0.101
633.500	11.382	0.101
633.600	28.049	0.101
633.700	28.290	0.101
633.800	19.807	0.101
633.900	15.924	0.101
634.000	11.742	0.101
634.100	15.480	0.101
634.200	19.333	0.101
634.300	23.554	0.101
634.400	8.583	0.101
634.500	20.958	0.101
634.600	17.952	0.101
634.700	19.980	0.101
634.800	21.525	0.101
634.900	22.524	0.101
635.000	16.393	0.101
635.100	9.159	0.101
635.200	10.193	0.101
635.300	20.523	0.101
635.400	6.078	0.101
635.500	4.241	0.101
635.600	12.167	0.101
635.700	22.252	0.101
635.800	18.087	0.101
635.900	15.964	0.101
636.000	17.304	0.101
636.100	14.345	0.101
636.200	17.010	0.101
636.300	9.228	0.101
636.400	16.085	0.101
636.500	14.351	0.101
636.600	12.699	0.101
636.700	18.191	0.101
636.800	28.163	0.101
636.900	7.217	0.101
637.000	10.515	0.101
637.100	6.080	0.101
637.200	8.000	0.101
637.300	8.654	0.101
637.400	16.197	0.101
637.500	3.331	0.101
637.600	8.890	0.101
637.700	6.400	0.101
637.800	23.205	0.101
637.900	9.543	0.101
638.000	12.717	0.101
638.100	15.733	0.101
638.200	8.208	0.101
638.300	3.192	0.101
638.400	9.406	0.101
638.500	11.314	0.101
638.600	15.176	0.101
638.700	13.395	0.101
638.800	15.178	0.101
638.900	20.631	0.101
639.000	18.731	0.101
639.100	9.051	0.101
639.200	7.999	0.101
639.300	15.442	0.101
639.400	16.307	0.101
639.500	7.068	0.101
639.600	12.879	0.101
639.700	12.129	0.101
639.800	2.555	0.101
639.900	12.553	0.101
640.000	14.681	0.101
640.100	14.539	0.101
640.200	18.373	0.101
640.300	28.426	0.101
640.400	15.023	0.101
640.500	15.265	0.101
640.600	0.344	0.101
640.700	8.166	0.101
640.800	9.218	0.101
640.900	22.793	0.101
641.000	20.501	0.101
641.100	21.724	0.101
641.200	13.871	0.101
641.300	19.570	0.101
641.400	15.880	0.101
641.500	11.478	0.101
641.600	13.902	0.101
641.700	21.005	0.101
641.800	15.126	0.101
641.900	9.503	0.101
642.000	12.829	0.101
642.100	16.008	0.101
642.200	10.803	0.101
642.300	16.034	0.101
642.400	28.351	0.101
642.500	26.878	0.101
642.600	16.578	0.101
642.700	5.226	0.101
642.800	9.109	0.101
642.900	14.456	0.101
643.000	28.065	0.101
643.100	10.942	0.101
643.200	18.071	0.101
643.300	22.633	0.101
643.400	19.970	0.101
643.500	6.374	0.101
643.600	17.975	0.101
643.700	19.742	0.101
643.800	13.677	0.101
643.900	6.993	0.101
644.000	19.772	0.101
644.100	17.803	0.101
644.200	11.802	0.101
644.300	17.292	0.101
644.400	23.521	0.101
644.500	20.150	0.101
644.600	26.303	0.101
644.700	21.600	0.101
644.800	24.449	0.101
644.900	18.134	0.101
645.000	12.618	0.101
645.100	2.206	0.101
645.200	13.455	0.101
645.300	25.936	0.101
645.400	10.909	0.101
645.500	18.649	0.101
645.600	22.777	0.101
645.700	18.281	0.101
645.800	17.894	0.101
645.900	26.707	0.101
646.000	18.510	0.101
646.100	24.725	0.101
646.200	30.649	0.101
646.300	20.899	0.101
646.400	24.049	0.101
646.500	19.402	0.101
646.600	14.126	0.101
646.700	25.866	0.101
646.800	19.116	0.101
646.900	23.055	0.101
647.000	32.395	0.101
647.100	21.600	0.101
647.200	28.545	0.101
647.300	32.417	0.101
647.400	15.953	0.101
647.500	13.577	0.101
647.600	27.337	0.101
647.700	34.158	0.101
647.800	32.921	0.101
647.900	36.038	0.101
648.000	32.101	0.101
648.100	25.550	0.101
648.200	28.473	0.101
648.300	24.950	0.101
648.400	24.701	0.101
648.500	20.122	0.101
648.600	15.257	0.101
648.700	24.523	0.101
648.800	20.106	0.101
648.900	29.920	0.101
649.000	20.024	0.101
649.100	28.605	0.101
649.200	26.146	0.101
649.300	35.929	0.101
649.400	30.862	0.101
649.500	28.492	0.101
649.600	39.769	0.101
649.700	42.432	0.101
649.800	34.524	0.101
649.900	32.689	0.101
650.000	37.132	0.101
650.100	37.892	0.101
650.200	34.532	0.101
650.300	33.934	0.101
650.400	35.827	0.101
650.500	25.440	0.101
650.600	24.930	0.101
650.700	29.647	0.101
650.800	21.867	0.101
650.900	27.979	0.101
651.000	39.040	0.101
651.100	27.286	0.101
651.200	32.677	0.101
651.300	26.576	0.101
651.400	28.467	0.101
651.500	44.846	0.101
651.600	38.797	0.101
651.700	30.089	0.101
651.800	27.698	0.101
651.900	28.581	0.101
652.000	25.125	0.101
652.100	22.697	0.101
652.200	22.310	0.101
652.300	34.081	0.101
652.400	33.774	0.101
652.500	31.516	0.101
652.600	42.820	0.101
652.700	40.744	0.101
652.800	39.101	0.101
652.900	25.241	0.101
653.000	35.738	0.101
653.100	45.628	0.101
653.200	43.203	0.101
653.300	33.262	0.101
653.400	40.917	0.101
653.500	46.581	0.101
653.600	34.892	0.101
653.700	38.590	0.101
653.800	41.100	0.101
653.900	35.846	0.101
654.000	42.987	0.101
654.100	45.864	0.101
654.200	41.788	0.101
654.300	34.647	0.101
654.400	34.430	0.101
654.500	38.501	0.101
654.600	33.817	0.101
654.700	32.083	0.101
654.800	38.183	0.101
654.900	42.034	0.101
655.000	37.044	0.101
655.100	37.764	0.101
655.200	42.974	0.101
655.300	46.344	0.101
655.400	29.129	0.101
655.500	43.359	0.101
655.600	43.051	0.101
655.700	33.822	0.101
655.800	40.800	0.101
655.900	50.143	0.101
656.000	46.488	0.101
656.100	34.598	0.101
656.200	32.002	0.101
656.300	30.195	0.101
656.400	34.340	0.101
656.500	41.382	0.101
656.600	47.078	0.101
656.700	47.871	0.101
656.800	36.376	0.101
656.900	44.556	0.101
657.000	34.840	0.101
657.100	40.420	0.101
657.200	38.508	0.101
657.300	40.733	0.101
657.400	41.403	0.101
657.500	37.009	0.101
657.600	40.772	0.101
657.700	30.418	0.101
657.800	40.164	0.101
657.900	36.270	0.101
658.000	39.673	0.101
658.100	33.831	0.101
658.200	46.373	0.101
658.300	37.567	0.101
658.400	46.983	0.101
658.500	35.728	0.101
658.600	53.630	0.101
658.700	35.461	0.101
658.800	39.414	0.101
658.900	38.784	0.101
659.000	35.833	0.101
659.100	43.971	0.101
659.200	46.747	0.101
659.300	38.126	0.101
659.400	33.680	0.101
659.500	37.198	0.101
659.600	36.549	0.101
659.700	38.240	0.101
659.800	38.964	0.101
659.900	36.870	0.101
660.000	40.070	0.101
660.100	43.022	0.101
660.200	37.604	0.101
660.300	36.395	0.101
660.400	31.815	0.101
660.500	48.775	0.101
660.600	46.034	0.101
660.700	47.438	0.101
660.800	42.149	0.101
660.900	39.055	0.101
661.000	31.976	0.101
661.100	42.353	0.101
661.200	46.190	0.101
661.300	36.821	0.101
661.400	33.507	0.101
661.500	45.512	0.101
661.600	32.096	0.101
661.700	38.554	0.101
661.800	43.274	0.101
661.900	40.577	0.101
662.000	42.830	0.101
662.100	37.588	0.101
662.200	39.647	0.101
662.300	24.559	0.101
662.400	38.124	0.101
662.500	46.641	0.101
662.600	49.822	0.101
662.700	32.296	0.101
662.800	39.775	0.101
662.900	33.033	0.101
663.000	38.110	0.101
663.100	39.064	0.101
663.200	23.369	0.101
663.300	30.137	0.101
663.400	34.203	0.101
663.500	40.280	0.101
663.600	46.327	0.101
663.700	39.183	0.101
663.800	43.207	0.101
663.900	42.434	0.101
664.000	39.831	0.101
664.100	46.624	0.101
664.200	37.806	0.101
664.300	40.685	0.101
664.400	35.988	0.101
664.500	35.970	0.101
664.600	43.638	0.101
664.700	47.130	0.101
664.800	45.364	0.101
664.900	41.746	0.101
665.000	41.790	0.101
665.100	29.210	0.101
665.200	36.001	0.101
665.300	40.528	0.101
665.400	36.319	0.101
665.500	34.882	0.101
665.600	40.572	0.101
665.700	48.104	0.101
665.800	38.684	0.101
665.900	32.676	0.101
666.000	38.073	0.101
666.100	44.179	0.101
666.200	24.958	0.101
666.300	32.398	0.101
666.400	27.831	0.101
666.500	53.731	0.101
666.600	33.272	0.101
666.700	48.312	0.101
666.800	34.420	0.101
666.900	30.119	0.101
667.000	40.757	0.101
667.100	42.930	0.101
667.200	41.173	0.101
667.300	41.667	0.101
667.400	38.116	0.101
667.500	44.621	0.101
667.600	31.864	0.101
667.700	40.668	0.101
667.800	45.720	0.101
667.900	39.554	0.101
668.000	45.446	0.101
668.100	33.898	0.101
668.200	38.335	0.101
668.300	38.255	0.101
668.400	33.505	0.101
668.500	36.017	0.101
668.600	38.831	0.101
668.700	29.909	0.101
668.800	27.850	0.101
668.900	33.606	0.101
669.000	36.577	0.101
669.100	30.909	0.101
669.200	42.115	0.101
669.300	32.538	0.101
669.400	49.232	0.101
669.500	40.543	0.101
669.600	43.875	0.101
669.700	29.981	0.101
669.800	33.875	0.101
669.900	27.820	0.101
670.000	40.522	0.101
670.100	28.707	0.101
670.200	43.463	0.101
670.300	39.585	0.101
670.400	34.308	0.101
670.500	33.456	0.101
670.600	44.308	0.101
670.700	36.756	0.101
670.800	31.132	0.101
670.900	44.089	0.101
671.000	47.984	0.101
671.100	42.433	0.101
671.200	24.729	0.101
671.300	34.893	0.101
671.400	33.149	0.101
671.500	45.033	0.101
671.600	36.988	0.101
671.700	45.259	0.101
671.800	53.672	0.101
671.900	34.920	0.101
672.000	28.240	0.101
672.100	32.428	0.101
672.200	29.451	0.101
672.300	46.299	0.101
672.400	39.893	0.101
672.500	36.406	0.101
672.600	45.277	0.101
672.700	36.944	0.101
672.800	42.782	0.101
672.900	40.467	0.101
673.000	42.687	0.101
673.100	40.194	0.101
673.200	45.460	0.101
673.300	33.103	0.101
673.400	33.212	0.101
673.500	27.477	0.101
673.600	48.085	0.101
673.700	45.357	0.101
673.800	40.501	0.101
673.900	29.994	0.101
674.000	30.001	0.101
674.100	38.325	0.101
674.200	49.766	0.101
674.300	41.694	0.101
674.400	37.916	0.101
674.500	37.373	0.101
674.600	36.163	0.101
674.700	29.016	0.101
674.800	44.641	0.101
674.900	43.320	0.101
675.000	32.137	0.101
675.100	29.381	0.101
675.200	41.564	0.101
675.300	35.046	0.101
675.400	38.151	0.101
675.500	36.234	0.101
675.600	44.468	0.101
675.700	32.614	0.101
675.800	48.085	0.101
675.900	40.326	0.101
676.000	41.396	0.101
676.100	25.123	0.101
676.200	45.145	0.101
676.300	36.912	0.101
676.400	37.398	0.101
676.500	35.976	0.101
676.600	46.144	0.101
676.700	34.859	0.101
676.800	33.451	0.101
676.900	35.142	0.101
677.000	47.564	0.101
677.100	38.506	0.101
677.200	21.982	0.101
677.300	42.309	0.101
677.400	37.115	0.101
677.500	34.249	0.101
677.600	34.087	0.101
677.700	26.290	0.101
677.800	32.472	0.101
677.900	43.449	0.101
678.000	42.866	0.101
678.100	50.207	0.101
678.200	33.472	0.101
678.300	41.782	0.101
678.400	43.329	0.101
678.500	43.899	0.101
678.600	44.181	0.101
678.700	33.540	0.101
678.800	28.386	0.101
678.900	36.051	0.101
679.000	37.094	0.101
679.100	46.680	0.101
679.200	40.318	0.101
679.300	41.807	0.101
679.400	44.613	0.101
679.500	37.768	0.101
679.600	37.157	0.101
679.700	37.716	0.101
679.800	25.630	0.101
679.900	38.605	0.101
680.000	44.047	0.101
680.100	47.779	0.101
680.200	46.940	0.101
680.300	29.613	0.101
680.400	38.407	0.101
680.500	25.305	0.101
680.600	43.290	0.101
680.700	35.980	0.101
680.800	38.022	0.101
680.900	38.035	0.101
681.000	42.180	0.101
681.100	39.379	0.101
681.200	29.830	0.101
681.300	29.888	0.101
681.400	37.303	0.101
681.500	38.013	0.101
681.600	50.857	0.101
681.700	47.087	0.101
681.800	29.449	0.101
681.900	46.279	0.101
682.000	37.076	0.101
682.100	34.383	0.101
682.200	34.621	0.101
682.300	33.555	0.101
682.400	37.936	0.101
682.500	31.121	0.101
682.600	42.261	0.101
682.700	39.363	0.101
682.800	26.952	0.101
682.900	52.272	0.101
683.000	33.021	0.101
683.100	40.674	0.101
683.200	49.594	0.101
683.300	36.236	0.101
683.400	38.244	0.101
683.500	51.021	0.101
683.600	39.160	0.101
683.700	41.527	0.101
683.800	23.862	0.101
683.900	40.540	0.101
684.000	36.411	0.101
684.100	46.522	0.101
684.200	36.802	0.101
684.300	34.753	0.101
684.400	33.619	0.101
684.500	29.968	0.101
684.600	35.588	0.101
684.700	39.801	0.101
684.800	46.260	0.101
684.900	53.429	0.101
685.000	45.777	0.101
685.100	35.981	0.101
685.200	40.038	0.101
685.300	39.612	0.101
685.400	37.403	0.101
685.500	35.115	0.101
685.600	34.521	0.101
685.700	40.200	0.101
685.800	29.169	0.101
685.900	37.265	0.101
686.000	31.690	0.101
686.100	34.067	0.101
686.200	34.646	0.101
686.300	39.940	0.101
686.400	46.407	0.101
686.500	44.890	0.101
686.600	42.181	0.101
686.700	44.467	0.101
686.800	36.119	0.101
686.900	33.600	0.101
687.000	32.136	0.101
687.100	23.753	0.101
687.200	38.292	0.101
687.300	48.591	0.101
687.400	47.712	0.101
687.500	44.214	0.101
687.600	31.307	0.101
687.700	39.215	0.101
687.800	34.339	0.101
687.900	42.681	0.101
688.000	41.979	0.101
688.100	27.582	0.101
688.200	32.548	0.101
688.300	43.901	0.101
688.400	54.286	0.101
688.500	43.373	0.101
688.600	33.539	0.101
688.700	38.639	0.101
688.800	33.518	0.101
688.900	34.787	0.101
689.000	41.861	0.101
689.100	47.628	0.101
689.200	37.802	0.101
689.300	27.625	0.101
689.400	32.469	0.101
689.500	33.783	0.101
689.600	46.789	0.101
689.700	34.702	0.101
689.800	35.677	0.101
689.900	43.018	0.101
690.000	20.620	0.101
690.100	41.823	0.101
690.200	27.205	0.101
690.300	30.668	0.101
690.400	24.663	0.101
690.500	27.375	0.101
690.600	30.919	0.101
690.700	29.234	0.101
690.800	17.833	0.101
690.900	24.182	0.101
691.000	25.704	0.101
691.100	4.947	0.101
691.200	14.342	0.101
691.300	17.120	0.101
691.400	14.204	0.101
691.500	11.230	0.101
691.600	5.508	0.101
691.700	5.834	0.101
691.800	9.753	0.101
691.900	11.993	0.101
692.000	11.744	0.101
692.100	11.208	0.101
692.200	6.093	0.101
692.300	-4.530	0.101
692.400	2.130	0.101
692.500	5.036	0.101
692.600	-6.036	0.101
692.700	4.584	0.101
692.800	-8.482	0.101
692.900	-2.325	0.101
693.000	9.443	0.101
693.100	-8.362	0.101
693.200	-2.447	0.101
693.300	0.970	0.101
693.400	-5.526	0.101
693.500	-3.898	0.101
693.600	-8.826	0.101
693.700	3.507	0.101
693.800	2.735	0.101
693.900	-0.724	0.101
694.000	-2.086	0.101
694.100	1.449	0.101
694.200	0.667	0.101
694.300	-15.288	0.101
694.400	-1.774	0.101
694.500	-7.320	0.101
694.600	-4.499	0.101
694.700	-6.397	0.101
694.800	-5.943	0.101
694.900	-4.383	0.101
695.000	1.784	0.101
695.100	-12.668	0.101
695.200	-7.188	0.101
695.300	-9.692	0.101
695.400	-1.155	0.101
695.500	-6.976	0.101
695.600	-8.598	0.101
695.700	6.143	0.101
695.800	-12.365	0.101
695.900	-3.506	0.101
696.000	-1.521	0.101
696.100	-19.292	0.101
696.200	-10.017	0.101
696.300	-7.218	0.101
696.400	-0.313	0.101
696.500	-9.901	0.101
696.600	-4.484	0.101
696.700	-6.781	0.101
696.800	-14.946	0.101
696.900	-14.551	0.101
697.000	-4.204	0.101
697.100	-7.774	0.101
697.200	1.380	0.101
697.300	4.514	0.101
697.400	8.171	0.101
697.500	-5.984	0.101
697.600	-15.132	0.101
697.700	-2.377	0.101
697.800	-1.916	0.101
697.900	-7.150	0.101
698.000	-13.145	0.101
698.100	-7.316	0.101
698.200	-13.194	0.101
698.300	0.295	0.101
698.400	-20.694	0.101
698.500	-12.732	0.101
698.600	-8.877	0.101
698.700	-20.293	0.101
698.800	-4.331	0.101
698.900	-4.777	0.101
699.000	0.589	0.101
699.100	-7.947	0.101
699.200	1.594	0.101
699.300	-5.051	0.101
699.400	-13.105	0.101
699.500	-6.369	0.101
699.600	-3.016	0.101
699.700	-3.742	0.101
699.800	-12.983	0.101
699.900	-4.261	0.101
700.000	-2.388	0.101
700.100	-5.833	0.101
700.200	-4.783	0.101
700.300	-2.829	0.101
700.400	-12.463	0.101
700.500	-22.902	0.101
700.600	-7.165	0.101
700.700	-11.777	0.101
700.800	-12.000	0.101
700.900	-2.125	0.101
701.000	3.698	0.101
701.100	-9.133	0.101
701.200	-1.700	0.101
701.300	1.960	0.101
701.400	-7.304	0.101
701.500	-12.267	0.101
701.600	-9.608	0.101
701.700	0.706	0.101
701.800	-13.169	0.101
701.900	-13.382	0.101
702.000	-19.081	0.101
702.100	-20.329	0.101
702.200	-11.124	0.101
702.300	-15.923	0.101
702.400	-20.182	0.101
702.500	-12.403	0.101
702.600	0.193	0.101
702.700	-2.583	0.101
702.800	-19.672	0.101
702.900	-15.017	0.101
703.000	-12.794	0.101
703.100	-17.046	0.101
703.200	-18.748	0.101
703.300	-13.585	0.101
703.400	0.600	0.101
703.500	-2.409	0.101
703.600	-23.593	0.101
703.700	-15.927	0.101
703.800	-10.384	0.101
703.900	-7.245	0.101
704.000	-9.614	0.101
704.100	-11.072	0.101
704.200	-2.624	0.101
704.300	-13.738	0.101
704.400	-9.740	0.101
704.500	-3.935	0.101
704.600	-15.453	0.101
704.700	-16.050	0.101
704.800	-22.477	0.101
704.900	-21.763	0.101
705.000	-8.169	0.101
705.100	-19.137	0.101
705.200	-9.562	0.101
705.300	-14.854	0.101
705.400	-14.723	0.101
705.500	-13.835	0.101
705.600	-6.658	0.101
705.700	-8.810	0.101
705.800	-14.925	0.101
705.900	-16.602	0.101
706.000	-9.710	0.101
706.100	-21.486	0.101
706.200	-19.703	0.101
706.300	-8.559	0.101
706.400	-15.792	0.101
706.500	-9.146	0.101
706.600	-21.990	0.101
706.700	-13.118	0.101
706.800	-13.782	0.101
706.900	-14.019	0.101
707.000	-11.650	0.101
707.100	-9.522	0.101
707.200	-6.010	0.101
707.300	-14.935	0.101
707.400	-21.544	0.101
707.500	-15.658	0.101
707.600	-11.780	0.101
707.700	-19.772	0.101
707.800	-24.309	0.101
707.900	-15.884	0.101
708.000	-15.926	0.101
708.100	-13.160	0.101
708.200	-21.689	0.101
708.300	-10.643	0.101
708.400	-14.838	0.101
708.500	-12.711	0.101
708.600	-12.880	0.101
708.700	-14.977	0.101
708.800	-14.579	0.101
708.900	-16.519	0.101
709.000	-14.348	0.101
709.100	-22.323	0.101
709.200	-21.260	0.101
709.300	-3.714	0.101
709.400	-1.496	0.101
709.500	-0.472	0.101
709.600	-17.629	0.101
709.700	-24.915	0.101
709.800	-18.910	0.101
709.900	-12.387	0.101
710.000	-10.750	0.101
710.100	-21.821	0.101
710.200	-13.746	0.101
710.300	-15.162	0.101
710.400	-13.075	0.101
710.500	-22.156	0.101
710.600	-26.751	0.101
710.700	-10.641	0.101
710.800	-3.363	0.101
710.900	-15.141	0.101
711.000	-21.301	0.101
711.100	-14.240	0.101
711.200	-21.915	0.101
711.300	-19.223	0.101
711.400	-15.428	0.101
711.500	-9.322	0.101
711.600	-20.588	0.101
711.700	-32.521	0.101
711.800	-15.004	0.101
711.900	-8.341	0.101
712.000	-13.803	0.101
712.100	-20.307	0.101
712.200	-22.132	0.101
712.300	-6.641	0.101
712.400	-12.144	0.101
712.500	-14.959	0.101
712.600	-15.207	0.101
712.700	-13.514	0.101
712.800	-3.906	0.101
712.900	-13.862	0.101
713.000	-17.638	0.101
713.100	-10.133	0.101
713.200	-19.718	0.101
713.300	-18.086	0.101
713.400	-21.189	0.101
713.500	-23.002	0.101
713.600	-28.672	0.101
713.700	-19.978	0.101
713.800	-14.453	0.101
713.900	-16.511	0.101
714.000	-16.881	0.101
714.100	-16.827	0.101
714.200	-21.809	0.101
714.300	-10.061	0.101
714.400	-17.820	0.101
714.500	-18.418	0.101
714.600	-10.740	0.101
714.700	-13.246	0.101
714.800	-24.609	0.101
714.900	-27.905	0.101
715.000	-13.029	0.101
715.100	-25.729	0.101
715.200	-12.469	0.101
715.300	-28.647	0.101
715.400	-31.788	0.101
715.500	-25.307	0.101
715.600	-17.398	0.101
715.700	-20.039	0.101
715.800	-25.230	0.101
715.900	-23.865	0.101
716.000	-17.454	0.101
716.100	-16.311	0.101
716.200	-13.916	0.101
716.300	-8.804	0.101
716.400	-11.235	0.101
716.500	-27.379	0.101
716.600	-25.995	0.101
716.700	-36.139	0.101
716.800	-22.911	0.101
716.900	-19.777	0.101
717.000	-22.633	0.101
717.100	-18.429	0.101
717.200	-11.277	0.101
717.300	-32.985	0.101
717.400	-18.834	0.101
717.500	-15.429	0.101
717.600	-15.195	0.101
717.700	-28.738	0.101
717.800	-19.374	0.101
717.900	-10.506	0.101
718.000	-21.565	0.101
718.100	-26.672	0.101
718.200	-28.527	0.101
718.300	-30.161	0.101
718.400	-18.532	0.101
718.500	-10.788	0.101
718.600	-11.050	0.101
718.700	-17.588	0.101
718.800	-21.373	0.101
718.900	-15.681	0.101
719.000	-22.193	0.101
719.100	-22.907	0.101
719.200	-23.948	0.101
719.300	-18.171	0.101
719.400	-27.367	0.101
719.500	-23.234	0.101
719.600	-23.432	0.101
719.700	-19.453	0.101
719.800	-21.772	0.101
719.900	-24.565	0.101
720.000	-17.449	0.101
720.100	-23.747	0.101
720.200	-20.959	0.101
720.300	-30.997	0.101
720.400	-27.393	0.101
720.500	-27.786	0.101
720.600	-23.835	0.101
720.700	-12.704	0.101
720.800	-16.515	0.101
720.900	-19.513	0.101
721.000	-31.283	0.101
721.100	-17.401	0.101
721.200	-16.869	0.101
721.300	-15.575	0.101
721.400	-16.499	0.101
721.500	-21.419	0.101
721.600	-27.073	0.101
721.700	-31.902	0.101
721.800	-18.674	0.101
721.900	-15.584	0.101
722.000	-11.099	0.101
722.100	-23.720	0.101
722.200	-24.264	0.101
722.300	-30.854	0.101
722.400	-27.633	0.101
722.500	-19.929	0.101
722.600	-18.442	0.101
722.700	-16.658	0.101
722.800	-23.321	0.101
722.900	-24.642	0.101
723.000	-29.777	0.101
723.100	-21.318	0.101
723.200	-17.828	0.101
723.300	-22.934	0.101
723.400	-16.988	0.101
723.500	-19.267	0.101
723.600	-18.658	0.101
723.700	-18.792	0.101
723.800	-20.130	0.101
723.900	-27.572	0.101
724.000	-27.754	0.101
724.100	-13.554	0.101
724.200	-22.461	0.101
724.300	-33.479	0.101
724.400	-32.526	0.101
724.500	-24.351	0.101
724.600	-25.966	0.101
724.700	-17.052	0.101
724.800	-15.837	0.101
724.900	-16.545	0.101
725.000	-20.994	0.101
725.100	-14.536	0.101
725.200	-22.900	0.101
725.300	-22.501	0.101
725.400	-24.854	0.101
725.500	-25.413	0.101
725.600	-19.917	0.101
725.700	-25.189	0.101
725.800	-22.339	0.101
725.900	-26.752	0.101
726.000	-30.322	0.101
726.100	-14.916	0.101
726.200	-13.862	0.101
726.300	-15.405	0.101
726.400	-23.333	0.101
726.500	-23.050	0.101
726.600	-21.622	0.101
726.700	-19.509	0.101
726.800	-28.439	0.101
726.900	-18.355	0.101
727.000	-26.988	0.101
727.100	-29.827	0.101
727.200	-18.690	0.101
727.300	-28.503	0.101
727.400	-23.860	0.101
727.500	-28.128	0.101
727.600	-16.609	0.101
727.700	-22.124	0.101
727.800	-23.788	0.101
727.900	-17.316	0.101
728.000	-19.954	0.101
728.100	-31.926	0.101
728.200	-27.900	0.101
728.300	-28.084	0.101
728.400	-21.459	0.101
728.500	-31.837	0.101
728.600	-26.815	0.101
728.700	-13.869	0.101
728.800	-22.885	0.101
728.900	-17.091	0.101
729.000	-12.935	0.101
729.100	-22.090	0.101
729.200	-19.044	0.101
729.300	-29.494	0.101
729.400	-34.726	0.101
729.500	-18.833	0.101
729.600	-18.707	0.101
729.700	-23.286	0.101
729.800	-29.376	0.101
729.900	-18.749	0.101
730.000	-27.043	0.101
730.100	-12.323	0.101
730.200	-23.327	0.101
730.300	-18.114	0.101
730.400	-13.777	0.101
730.500	-24.335	0.101
730.600	-27.882	0.101
730.700	-26.974	0.101
730.800	-25.966	0.101
730.900	-12.834	0.101
731.000	-28.418	0.101
731.100	-11.661	0.101
731.200	-24.653	0.101
731.300	-25.016	0.101
731.400	-18.419	0.101
731.500	-32.873	0.101
731.600	-25.838	0.101
731.700	-9.930	0.101
731.800	-16.457	0.101
731.900	-16.919	0.101
732.000	-22.903	0.101
732.100	-25.098	0.101
732.200	-29.888	0.101
732.300	-22.939	0.101
732.400	-18.034	0.101
732.500	-16.359	0.101
732.600	-25.795	0.101
732.700	-19.898	0.101
732.800	-24.181	0.101
732.900	-18.019	0.101
733.000	-22.579	0.101
733.100	-19.087	0.101
733.200	-20.445	0.101
733.300	-23.110	0.101
733.400	-14.176	0.101
733.500	-23.966	0.101
733.600	-21.717	0.101
733.700	-20.477	0.101
733.800	-25.198	0.101
733.900	-22.470	0.101
734.000	-18.499	0.101
734.100	-27.162	0.101
734.200	-20.668	0.101
734.300	-25.585	0.101
734.400	-21.550	0.101
734.500	-29.213	0.101
734.600	-28.598	0.101
734.700	-27.664	0.101
734.800	-17.421	0.101
734.900	-22.811	0.101
735.000	-23.223	0.101
735.100	-16.007	0.101
735.200	-14.516	0.101
735.300	-19.918	0.101
735.400	-19.880	0.101
735.500	-28.388	0.101
735.600	-32.211	0.101
735.700	-36.940	0.101
735.800	-27.956	0.101
735.900	-20.234	0.101
736.000	-18.049	0.101
736.100	-30.807	0.101
736.200	-19.814	0.101
736.300	-24.368	0.101
736.400	-16.113	0.101
736.500	-20.085	0.101
736.600	-20.946	0.101
736.700	-32.420	0.101
736.800	-23.658	0.101
736.900	-14.131	0.101
737.000	-6.474	0.101
737.100	-17.498	0.101
737.200	-25.586	0.101
737.300	-14.876	0.101
737.400	-23.797	0.101
737.500	-25.039	0.101
737.600	-21.155	0.101
737.700	-20.743	0.101
737.800	-23.474	0.101
737.900	-6.663	0.101
738.000	-19.955	0.101
738.100	-14.429	0.101
738.200	-25.132	0.101
738.300	-22.809	0.101
738.400	-22.125	0.101
738.500	-13.067	0.101
738.600	-11.642	0.101
738.700	-16.707	0.101
738.800	-32.057	0.101
738.900	-29.660	0.101
739.000	-11.064	0.101
739.100	-14.672	0.101
739.200	-28.309	0.101
739.300	-21.539	0.101
739.400	-11.560	0.101
739.500	-20.063	0.101
739.600	-21.492	0.101
739.700	-16.391	0.101
739.800	-16.203	0.101
739.900	-14.776	0.101
740.000	-12.448	0.101
740.100	-24.747	0.101
740.200	-26.611	0.101
740.300	-30.220	0.101
740.400	-24.209	0.101
740.500	-19.413	0.101
740.600	-18.175	0.101
740.700	-29.235	0.101
740.800	-21.468	0.101
740.900	-24.915	0.101
741.000	-15.506	0.101
741.100	-19.579	0.101
741.200	-19.415	0.101
741.300	-24.017	0.101
741.400	-28.129	0.101
741.500	-29.718	0.101
741.600	-15.671	0.101
741.700	-28.714	0.101
741.800	-23.496	0.101
741.900	-18.083	0.101
742.000	-17.034	0.101
742.100	-10.429	0.101
742.200	-26.554	0.101
742.300	-14.555	0.101
742.400	-25.145	0.101
742.500	-16.299	0.101
742.600	-24.739	0.101
742.700	-27.126	0.101
742.800	-21.199	0.101
742.900	-21.249	0.101
743.000	-18.308	0.101
743.100	-26.091	0.101
743.200	-16.575	0.101
743.300	-19.173	0.101
743.400	-7.721	0.101
743.500	-28.753	0.101
743.600	-20.309	0.101
743.700	-17.306	0.101
743.800	-31.548	0.101
743.900	-29.862	0.101
744.000	-22.907	0.101
744.100	-18.309	0.101
744.200	-21.219	0.101
744.300	-16.348	0.101
744.400	-25.562	0.101
744.500	-22.431	0.101
744.600	-25.149	0.101
744.700	-16.318	0.101
744.800	-21.791	0.101
744.900	-12.959	0.101
745.000	-16.124	0.101
745.100	-17.552	0.101
745.200	-30.715	0.101
745.300	-17.279	0.101
745.400	-17.419	0.101
745.500	-23.737	0.101
745.600	-27.687	0.101
745.700	-16.387	0.101
745.800	-28.448	0.101
745.900	-23.279	0.101
746.000	-9.957	0.101
746.100	-29.464	0.101
746.200	-24.426	0.101
746.300	-18.124	0.101
746.400	-25.813	0.101
746.500	-30.661	0.101
746.600	-26.694	0.101
746.700	-18.165	0.101
746.800	-25.372	0.101
746.900	-9.480	0.101
747.000	-13.799	0.101
747.100	-13.293	0.101
747.200	-31.423	0.101
747.300	-31.547	0.101
747.400	-26.614	0.101
747.500	-28.341	0.101
747.600	-33.426	0.101
747.700	-21.330	0.101
747.800	-25.455	0.101
747.900	-15.217	0.101
748.000	-20.418	0.101
748.100	-23.671	0.101
748.200	-29.364	0.101
748.300	-18.483	0.101
748.400	-24.131	0.101
748.500	-12.835	0.101
748.600	-17.388	0.101
748.700	-18.771	0.101
748.800	-13.364	0.101
748.900	-18.070	0.101
749.000	-26.350	0.101
749.100	-31.843	0.101
749.200	-26.677	0.101
749.300	-16.085	0.101
749.400	-21.367	0.101
749.500	-23.964	0.101
749.600	-22.526	0.101
749.700	-12.818	0.101
749.800	-26.839	0.101
749.900	-15.661	0.101
750.000	-13.598	0.101
750.100	-14.640	0.101
750.200	-15.206	0.101
750.300	-25.324	0.101
750.400	-14.433	0.101
750.500	-19.221	0.101
750.600	-19.692	0.101
750.700	-21.711	0.101
750.800	-22.930	0.101
750.900	-26.600	0.101
751.000	-16.848	0.101
751.100	-30.517	0.101
751.200	-12.427	0.101
751.300	-21.033	0.101
751.400	-30.757	0.101
751.500	-16.248	0.101
751.600	-23.270	0.101
751.700	-14.475	0.101
751.800	-25.480	0.101
751.900	-20.465	0.101
752.000	-19.112	0.101
752.100	-32.086	0.101
752.200	-23.122	0.101
752.300	-14.704	0.101
752.400	-10.688	0.101
752.500	-13.326	0.101
752.600	-26.979	0.101
752.700	-24.101	0.101
752.800	-27.599	0.101
752.900	-13.442	0.101
753.000	-19.718	0.101
753.100	-22.368	0.101
753.200	-23.481	0.101
753.300	-15.166	0.101
753.400	-24.672	0.101
753.500	-18.740	0.101
753.600	-10.397	0.101
753.700	-8.803	0.101
753.800	-14.891	0.101
753.900	-22.782	0.101
754.000	-21.641	0.101
754.100	-16.740	0.101
754.200	-21.796	0.101
754.300	-18.715	0.101
754.400	-16.018	0.101
754.500	-17.485	0.101
754.600	-9.971	0.101
754.700	-15.661	0.101
754.800	-25.626	0.101
754.900	-18.666	0.101
755.000	-31.534	0.101
755.100	-16.427	0.101
755.200	-24.437	0.101
755.300	-17.975	0.101
755.400	-17.276	0.101
755.500	-13.490	0.101
755.600	-5.872	0.101
755.700	-13.273	0.101
755.800	-19.627	0.101
755.900	-22.789	0.101
756.000	-31.138	0.101
756.100	-22.433	0.101
756.200	-18.595	0.101
756.300	-25.691	0.101
756.400	-24.771	0.101
756.500	-19.837	0.101
756.600	-14.383	0.101
756.700	-18.626	0.101
756.800	-27.414	0.101
756.900	-23.629	0.101
757.000	-16.530	0.101
757.100	-21.891	0.101
757.200	-14.146	0.101
757.300	-6.183	0.101
757.400	-22.767	0.101
757.500	-19.353	0.101
757.600	-16.715	0.101
757.700	-25.230	0.101
757.800	-21.729	0.101
757.900	-17.445	0.101
758.000	-22.081	0.101
758.100	-22.053	0.101
758.200	-17.491	0.101
758.300	-17.827	0.101
758.400	-23.953	0.101
758.500	-20.925	0.101
758.600	-13.210	0.101
758.700	-16.059	0.101
758.800	-15.932	0.101
758.900	-15.011	0.101
759.000	-9.339	0.101
759.100	-19.467	0.101
759.200	-15.798	0.101
759.300	-24.412	0.101
759.400	-19.932	0.101
759.500	-21.439	0.101
759.600	-14.568	0.101
759.700	-14.239	0.101
759.800	-11.866	0.101
759.900	-13.991	0.101
760.000	-22.934	0.101
760.100	-16.283	0.101
760.200	-21.994	0.101
760.300	-17.342	0.101
760.400	-15.791	0.101
760.500	-22.563	0.101
760.600	-16.642	0.101
760.700	-25.063	0.101
760.800	-17.096	0.101
760.900	-16.003	0.101
761.000	-21.394	0.101
761.100	-17.631	0.101
761.200	-24.164	0.101
761.300	-13.270	0.101
761.400	-14.178	0.101
761.500	-30.130	0.101
761.600	-12.863	0.101
761.700	-16.233	0.101
761.800	-9.548	0.101
761.900	-15.765	0.101
762.000	-16.230	0.101
762.100	-18.252	0.101
762.200	-19.744	0.101
762.300	-13.745	0.101
762.400	-17.996	0.101
762.500	-12.863	0.101
762.600	-17.458	0.101
762.700	-28.883	0.101
762.800	-22.868	0.101
762.900	-23.046	0.101
763.000	-17.075	0.101
763.100	-16.520	0.101
763.200	-10.729	0.101
763.300	-26.404	0.101
763.400	-21.020	0.101
763.500	-1.615	0.101
763.600	-24.310	0.101
763.700	-33.429	0.101
763.800	-27.443	0.101
763.900	-26.502	0.101
764.000	-14.704	0.101
764.100	-25.408	0.101
764.200	-17.759	0.101
764.300	-15.511	0.101
764.400	-18.868	0.101
764.500	-11.817	0.101
764.600	-19.000	0.101
764.700	-12.244	0.101
764.800	-29.644	0.101
764.900	-17.729	0.101
765.000	-16.948	0.101
765.100	-22.263	0.101
765.200	-10.635	0.101
765.300	-14.788	0.101
765.400	2.061	0.101
765.500	-18.633	0.101
765.600	-13.724	0.101
765.700	-14.510	0.101
765.800	-25.125	0.101
765.900	-24.364	0.101
766.000	-13.909	0.101
766.100	-19.192	0.101
766.200	-25.655	0.101
766.300	-26.590	0.101
766.400	-14.445	0.101
766.500	-19.993	0.101
766.600	-14.483	0.101
766.700	-11.368	0.101
766.800	-11.307	0.101
766.900	-16.459	0.101
767.000	-21.375	0.101
767.100	-23.895	0.101
767.200	-22.239	0.101
767.300	-20.159	0.101
767.400	-20.221	0.101
767.500	-22.011	0.101
767.600	-23.154	0.101
767.700	-10.372	0.101
767.800	-18.551	0.101
767.900	-25.651	0.101
768.000	-23.809	0.101
768.100	-16.007	0.101
768.200	-10.761	0.101
768.300	-20.870	0.101
768.400	-10.619	0.101
768.500	-21.652	0.101
768.600	-14.939	0.101
768.700	-31.830	0.101
768.800	-18.907	0.101
768.900	-8.290	0.101
769.000	-13.670	0.101
769.100	-12.140	0.101
769.200	-19.260	0.101
769.300	-28.883	0.101
769.400	-18.285	0.101
769.500	-18.743	0.101
769.600	-17.451	0.101
769.700	-27.298	0.101
769.800	-7.988	0.101
769.900	-13.332	0.101
770.000	-22.164	0.101
770.100	-19.142	0.101
770.200	-13.584	0.101
770.300	-19.182	0.101
770.400	-20.151	0.101
770.500	-17.460	0.101
770.600	-9.181	0.101
770.700	-15.341	0.101
770.800	-12.993	0.101
770.900	-9.556	0.101
771.000	-24.149	0.101
771.100	-23.854	0.101
771.200	-18.085	0.101
771.300	-16.576	0.101
771.400	-16.190	0.101
771.500	-21.361	0.101
771.600	-15.704	0.101
771.700	-16.848	0.101
771.800	-23.249	0.101
771.900	-10.399	0.101
772.000	-11.625	0.101
772.100	-15.438	0.101
772.200	-12.157	0.101
772.300	-19.813	0.101
772.400	-25.350	0.101
772.500	-13.397	0.101
772.600	-14.559	0.101
772.700	-15.788	0.101
772.800	-21.716	0.101
772.900	-14.646	0.101
773.000	-13.057	0.101
773.100	-13.594	0.101
773.200	-16.850	0.101
773.300	-20.016	0.101
773.400	-18.012	0.101
773.500	-10.334	0.101
773.600	-25.363	0.101
773.700	-21.492	0.101
773.800	-16.403	0.101
773.900	-18.555	0.101
774.000	-14.960	0.101
774.100	-21.677	0.101
774.200	-15.798	0.101
774.300	-17.068	0.101
774.400	-13.577	0.101
774.500	-13.029	0.101
774.600	-5.820	0.101
774.700	-23.712	0.101
774.800	-11.509	0.101
774.900	-24.179	0.101
775.000	-9.463	0.101
775.100	-19.385	0.101
775.200	-16.863	0.101
775.300	-18.584	0.101
775.400	-13.906	0.101
775.500	-15.241	0.101
775.600	-18.830	0.101
775.700	-13.481	0.101
775.800	-22.004	0.101
775.900	-21.422	0.101
776.000	-19.408	0.101
776.100	-25.033	0.101
776.200	-10.158	0.101
776.300	-14.740	0.101
776.400	-16.842	0.101
776.500	-11.702	0.101
776.600	-23.100	0.101
776.700	-6.821	0.101
776.800	-20.563	0.101
776.900	-17.308	0.101
777.000	-22.554	0.101
777.100	-18.489	0.101
777.200	-13.351	0.101
777.300	-11.400	0.101
777.400	-24.520	0.101
777.500	-28.540	0.101
777.600	-11.807	0.101
777.700	-20.286	0.101
777.800	-5.225	0.101
777.900	-15.150	0.101
778.000	-18.004	0.101
778.100	-17.958	0.101
778.200	-16.439	0.101
778.300	-15.211	0.101
778.400	-7.928	0.101
778.500	-19.190	0.101
778.600	-12.018	0.101
778.700	-23.479	0.101
778.800	-21.673	0.101
778.900	-19.984	0.101
779.000	-15.415	0.101
779.100	-10.754	0.101
779.200	-19.412	0.101
779.300	-24.584	0.101
779.400	-17.597	0.101
779.500	-20.117	0.101
779.600	-16.007	0.101
779.700	-12.297	0.101
779.800	-11.287	0.101
779.900	-17.596	0.101
780.000	-14.243	0.101
780.100	-20.644	0.101
780.200	-15.854	0.101
780.300	-12.757	0.101
780.400	-11.655	0.101
780.500	-8.755	0.101
780.600	8.876	0.101
780.700	1.242	0.101
780.800	-3.036	0.101
780.900	3.159	0.101
781.000	14.192	0.101
781.100	3.920	0.101
781.200	7.542	0.101
781.300	1.166	0.101
781.400	1.058	0.101
781.500	8.251	0.101
781.600	20.620	0.101
781.700	11.725	0.101
781.800	14.473	0.101
781.900	9.264	0.101
782.000	17.556	0.101
782.100	14.593	0.101
782.200	7.642	0.101
782.300	16.683	0.101
782.400	12.792	0.101
782.500	13.053	0.101
782.600	13.823	0.101
782.700	19.569	0.101
782.800	17.946	0.101
782.900	9.791	0.101
783.000	13.965	0.101
783.100	19.487	0.101
783.200	23.686	0.101
783.300	21.311	0.101
783.400	27.990	0.101
783.500	25.461	0.101
783.600	33.854	0.101
783.700	15.426	0.101
783.800	24.516	0.101
783.900	14.089	0.101
784.000	24.569	0.101
784.100	23.287	0.101
784.200	23.933	0.101
784.300	18.819	0.101
784.400	21.647	0.101
784.500	19.807	0.101
784.600	11.486	0.101
784.700	12.644	0.101
784.800	15.511	0.101
784.900	12.420	0.101
785.000	20.931	0.101
785.100	15.604	0.101
785.200	14.538	0.101
785.300	20.821	0.101
785.400	20.797	0.101
785.500	12.195	0.101
785.600	10.896	0.101
785.700	0.712	0.101
785.800	17.491	0.101
785.900	20.914	0.101
786.000	20.019	0.101
786.100	6.128	0.101
786.200	11.363	0.101
786.300	15.910	0.101
786.400	9.294	0.101
786.500	9.846	0.101
786.600	9.493	0.101
786.700	7.754	0.101
786.800	18.701	0.101
786.900	9.382	0.101
787.000	22.286	0.101
787.100	19.022	0.101
787.200	10.663	0.101
787.300	10.117	0.101
787.400	20.397	0.101
787.500	6.687	0.101
787.600	9.587	0.101
787.700	13.785	0.101
787.800	14.321	0.101
787.900	22.451	0.101
788.000	8.076	0.101
788.100	13.123	0.101
788.200	13.822	0.101
788.300	2.417	0.101
788.400	4.523	0.101
788.500	-2.976	0.101
788.600	14.758	0.101
788.700	6.912	0.101
788.800	0.824	0.101
788.900	16.800	0.101
789.000	10.014	0.101
789.100	4.983	0.101
789.200	8.000	0.101
789.300	13.875	0.101
789.400	13.662	0.101
789.500	10.623	0.101
789.600	16.941	0.101
789.700	27.024	0.101
789.800	18.318	0.101
789.900	11.859	0.101
790.000	10.089	0.101
790.100	17.318	0.101
790.200	13.210	0.101
790.300	8.521	0.101
790.400	7.913	0.101
790.500	12.311	0.101
790.600	11.848	0.101
790.700	1.392	0.101
790.800	14.191	0.101
790.900	23.327	0.101
791.000	20.486	0.101
791.100	19.627	0.101
791.200	11.902	0.101
791.300	20.195	0.101
791.400	18.690	0.101
791.500	23.351	0.101
791.600	14.629	0.101
791.700	19.406	0.101
791.800	6.009	0.101
791.900	8.754	0.101
792.000	6.349	0.101
792.100	17.403	0.101
792.200	7.387	0.101
792.300	11.838	0.101
792.400	20.696	0.101
792.500	16.354	0.101
792.600	14.354	0.101
792.700	26.171	0.101
792.800	11.604	0.101
792.900	8.325	0.101
793.000	15.166	0.101
793.100	19.677	0.101
793.200	15.415	0.101
793.300	20.079	0.101
793.400	15.616	0.101
793.500	8.484	0.101
793.600	9.326	0.101
793.700	13.916	0.101
793.800	11.718	0.101
793.900	25.282	0.101
794.000	26.521	0.101
794.100	9.383	0.101
794.200	15.725	0.101
794.300	10.375	0.101
794.400	8.735	0.101
794.500	23.828	0.101
794.600	15.833	0.101
794.700	15.965	0.101
794.800	14.855	0.101
794.900	21.190	0.101
795.000	16.318	0.101
795.100	19.715	0.101
795.200	18.120	0.101
795.300	11.740	0.101
795.400	15.035	0.101
795.500	15.870	0.101
795.600	6.119	0.101
795.700	30.473	0.101
795.800	24.144	0.101
795.900	24.208	0.101
796.000	31.532	0.101
796.100	22.098	0.101
796.200	16.943	0.101
796.300	22.966	0.101
796.400	32.928	0.101
796.500	26.073	0.101
796.600	15.422	0.101
796.700	29.814	0.101
796.800	23.610	0.101
796.900	11.963	0.101
797.000	28.050	0.101
797.100	19.546	0.101
797.200	18.890	0.101
797.300	28.026	0.101
797.400	30.338	0.101
797.500	24.829	0.101
797.600	17.610	0.101
797.700	19.139	0.101
797.800	22.888	0.101
797.900	23.184	0.101
798.000	25.674	0.101
798.100	25.841	0.101
798.200	30.714	0.101
798.300	27.694	0.101
798.400	26.425	0.101
798.500	25.440	0.101
798.600	29.573	0.101
798.700	28.779	0.101
798.800	26.321	0.101
798.900	28.768	0.101
799.000	21.998	0.101
799.100	30.350	0.101
799.200	28.966	0.101
799.300	33.000	0.101
799.400	30.058	0.101
799.500	26.893	0.101
799.600	32.188	0.101
799.700	22.257	0.101
799.800	30.386	0.101
799.900	27.547	0.101
800.000	37.920	0.101
