time /s	I /nA	E /V
0.100	-17.262	0.101
0.200	-18.012	0.101
0.300	-14.858	0.101
0.400	-20.266	0.101
0.500	-14.811	0.101
0.600	-22.278	0.101
0.700	-13.651	0.101
0.800	-12.350	0.101
0.900	-5.611	0.101
1.000	-13.653	0.101
1.100	-9.478	0.101
1.200	-15.658	0.101
1.300	-20.952	0.101
1.400	-7.576	0.101
1.500	-9.322	0.101
1.600	-8.277	0.101
1.700	-12.325	0.101
1.800	-22.354	0.101
1.900	-16.784	0.101
2.000	-21.884	0.101
2.100	-8.618	0.101
2.200	-15.482	0.101
2.300	-20.492	0.101
2.400	-8.180	0.101
2.500	-12.903	0.101
2.600	-17.174	0.101
2.700	-13.358	0.101
2.800	-14.778	0.101
2.900	-13.161	0.101
3.000	-17.622	0.101
3.100	-18.787	0.101
3.200	-23.259	0.101
3.300	-19.623	0.101
3.400	-22.696	0.101
3.500	-17.534	0.101
3.600	-9.445	0.101
3.700	-16.146	0.101
3.800	-20.111	0.101
3.900	-5.232	0.101
4.000	-7.911	0.101
4.100	-7.780	0.101
4.200	-21.555	0.101
4.300	-17.768	0.101
4.400	-14.754	0.101
4.500	-17.867	0.101
4.600	-5.657	0.101
4.700	-10.245	0.101
4.800	-14.395	0.101
4.900	-8.657	0.101
5.000	-13.974	0.101
5.100	-15.255	0.101
5.200	-18.617	0.101
5.300	-12.857	0.101
5.400	-13.503	0.101
5.500	-16.122	0.101
5.600	-21.181	0.101
5.700	-16.484	0.101
5.800	-19.057	0.101
5.900	-14.832	0.101
6.000	-10.450	0.101
6.100	-15.737	0.101
6.200	-17.042	0.101
6.300	-14.451	0.101
6.400	-25.348	0.101
6.500	-17.815	0.101
6.600	-6.577	0.101
6.700	-12.327	0.101
6.800	-6.029	0.101
6.900	1.285	0.101
7.000	-20.535	0.101
7.100	-19.358	0.101
7.200	-12.877	0.101
7.300	-10.533	0.101
7.400	-15.612	0.101
7.500	-15.676	0.101
7.600	-19.970	0.101
7.700	-18.284	0.101
7.800	-14.117	0.101
7.900	-9.835	0.101
8.000	-23.137	0.101
8.100	-9.918	0.101
8.200	-7.964	0.101
8.300	-5.657	0.101
8.400	-4.783	0.101
8.500	-25.664	0.101
8.600	-22.356	0.101
8.700	-19.407	0.101
8.800	-13.596	0.101
8.900	-6.546	0.101
9.000	-10.702	0.101
9.100	-8.911	0.101
9.200	-9.711	0.101
9.300	-18.265	0.101
9.400	-24.616	0.101
9.500	-7.712	0.101
9.600	-10.163	0.101
9.700	-9.628	0.101
9.800	-21.598	0.101
9.900	-17.429	0.101
10.000	-18.973	0.101
10.100	-12.770	0.101
10.200	-6.724	0.101
10.300	-14.928	0.101
10.400	-10.450	0.101
10.500	-5.551	0.101
10.600	-16.791	0.101
10.700	-8.398	0.101
10.800	-12.248	0.101
10.900	-9.753	0.101
11.000	-10.558	0.101
11.100	-15.024	0.101
11.200	-5.906	0.101
11.300	-16.572	0.101
11.400	-32.965	0.101
11.500	-14.852	0.101
11.600	-13.613	0.101
11.700	-16.845	0.101
11.800	-17.666	0.101
11.900	-4.439	0.101
12.000	-20.429	0.101
12.100	-3.661	0.101
12.200	-15.806	0.101
12.300	-9.544	0.101
12.400	-12.157	0.101
12.500	-10.695	0.101
12.600	-12.720	0.101
12.700	-9.485	0.101
12.800	-21.650	0.101
12.900	-15.632	0.101
13.000	-21.814	0.101
13.100	-15.928	0.101
13.200	-4.456	0.101
13.300	-3.940	0.101
13.400	-19.821	0.101
13.500	-15.503	0.101
13.600	-13.503	0.101
13.700	-15.488	0.101
13.800	-10.106	0.101
13.900	-18.443	0.101
14.000	-18.844	0.101
14.100	-9.231	0.101
14.200	-13.137	0.101
14.300	-18.382	0.101
14.400	-22.730	0.101
14.500	-6.862	0.101
14.600	-14.231	0.101
14.700	-15.375	0.101
14.800	-17.529	0.101
14.900	-18.361	0.101
15.000	-9.605	0.101
15.100	-13.149	0.101
15.200	-24.460	0.101
15.300	-19.949	0.101
15.400	-16.274	0.101
15.500	-15.158	0.101
15.600	-18.923	0.101
15.700	-12.297	0.101
15.800	-11.256	0.101
15.900	-16.734	0.101
16.000	-20.060	0.101
16.100	-18.274	0.101
16.200	-18.849	0.101
16.300	-9.165	0.101
16.400	-14.723	0.101
16.500	-13.685	0.101
16.600	-20.557	0.101
16.700	-24.804	0.101
16.800	-11.636	0.101
16.900	-17.925	0.101
17.000	-10.306	0.101
17.100	-18.322	0.101
17.200	-18.205	0.101
17.300	-24.099	0.101
17.400	-13.673	0.101
17.500	-20.167	0.101
17.600	-12.926	0.101
17.700	-7.932	0.101
17.800	-4.095	0.101
17.900	-11.122	0.101
18.000	-22.575	0.101
18.100	-19.675	0.101
18.200	-12.431	0.101
18.300	-19.125	0.101
18.400	-17.481	0.101
18.500	-23.880	0.101
18.600	-13.447	0.101
18.700	-20.864	0.101
18.800	-15.184	0.101
18.900	-14.064	0.101
19.000	-10.992	0.101
19.100	-7.830	0.101
19.200	-8.473	0.101
19.300	-17.763	0.101
19.400	-9.357	0.101
19.500	-13.509	0.101
19.600	-9.694	0.101
19.700	-17.125	0.101
19.800	-19.513	0.101
19.900	-8.626	0.101
20.000	-18.980	0.101
20.100	-17.277	0.101
20.200	-8.885	0.101
20.300	-10.968	0.101
20.400	-11.972	0.101
20.500	-14.363	0.101
20.600	-11.807	0.101
20.700	-12.978	0.101
20.800	-10.258	0.101
20.900	-21.149	0.101
21.000	-17.810	0.101
21.100	-17.622	0.101
21.200	-9.555	0.101
21.300	-12.825	0.101
21.400	-1.704	0.101
21.500	-7.407	0.101
21.600	-15.210	0.101
21.700	-10.241	0.101
21.800	-12.890	0.101
21.900	-19.666	0.101
22.000	-11.032	0.101
22.100	-22.376	0.101
22.200	-15.169	0.101
22.300	-13.283	0.101
22.400	-14.266	0.101
22.500	-20.794	0.101
22.600	-13.829	0.101
22.700	-13.041	0.101
22.800	-16.102	0.101
22.900	-8.826	0.101
23.000	-12.661	0.101
23.100	-16.045	0.101
23.200	-20.143	0.101
23.300	-8.982	0.101
23.400	-16.523	0.101
23.500	-16.525	0.101
23.600	-12.997	0.101
23.700	-15.601	0.101
23.800	0.213	0.101
23.900	-13.132	0.101
24.000	-17.482	0.101
24.100	-10.401	0.101
24.200	-5.643	0.101
24.300	-18.201	0.101
24.400	-8.838	0.101
24.500	-12.102	0.101
24.600	-15.112	0.101
24.700	-12.095	0.101
24.800	-9.467	0.101
24.900	-15.458	0.101
25.000	-7.826	0.101
25.100	-18.811	0.101
25.200	-11.858	0.101
25.300	-15.414	0.101
25.400	-16.753	0.101
25.500	-8.285	0.101
25.600	-13.910	0.101
25.700	-21.347	0.101
25.800	-9.367	0.101
25.900	-4.165	0.101
26.000	-20.870	0.101
26.100	-14.552	0.101
26.200	-15.240	0.101
26.300	-12.600	0.101
26.400	-14.611	0.101
26.500	-14.067	0.101
26.600	-8.922	0.101
26.700	-20.744	0.101
26.800	-8.830	0.101
26.900	-19.320	0.101
27.000	-16.329	0.101
27.100	-21.102	0.101
27.200	-14.633	0.101
27.300	-17.264	0.101
27.400	-13.113	0.101
27.500	-13.738	0.101
27.600	-3.114	0.101
27.700	-12.256	0.101
27.800	-14.452	0.101
27.900	-12.786	0.101
28.000	-8.054	0.101
28.100	-13.144	0.101
28.200	-15.286	0.101
28.300	-18.165	0.101
28.400	-19.363	0.101
28.500	-21.814	0.101
28.600	-7.628	0.101
28.700	-7.750	0.101
28.800	-19.479	0.101
28.900	-12.471	0.101
29.000	-3.990	0.101
29.100	-13.146	0.101
29.200	-14.966	0.101
29.300	-15.673	0.101
29.400	-23.588	0.101
29.500	-18.492	0.101
29.600	-20.308	0.101
29.700	-26.428	0.101
29.800	-11.937	0.101
29.900	-12.996	0.101
30.000	-9.047	0.101
30.100	-25.163	0.101
30.200	-14.701	0.101
30.300	-18.972	0.101
30.400	-0.407	0.101
30.500	5.977	0.101
30.600	-5.874	0.101
30.700	-0.361	0.101
30.800	-4.131	0.101
30.900	-6.689	0.101
31.000	6.529	0.101
31.100	0.574	0.101
31.200	0.866	0.101
31.300	-7.942	0.101
31.400	5.586	0.101
31.500	5.262	0.101
31.600	9.989	0.101
31.700	14.897	0.101
31.800	12.052	0.101
31.900	3.593	0.101
32.000	7.100	0.101
32.100	2.114	0.101
32.200	14.233	0.101
32.300	-1.498	0.101
32.400	6.804	0.101
32.500	21.378	0.101
32.600	20.241	0.101
32.700	9.543	0.101
32.800	13.516	0.101
32.900	12.182	0.101
33.000	12.402	0.101
33.100	12.263	0.101
33.200	14.410	0.101
33.300	24.807	0.101
33.400	13.803	0.101
33.500	11.642	0.101
33.600	23.629	0.101
33.700	21.761	0.101
33.800	12.812	0.101
33.900	26.006	0.101
34.000	16.284	0.101
34.100	22.591	0.101
34.200	23.004	0.101
34.300	23.966	0.101
34.400	14.624	0.101
34.500	17.248	0.101
34.600	12.140	0.101
34.700	0.819	0.101
34.800	11.804	0.101
34.900	16.772	0.101
35.000	19.146	0.101
35.100	22.556	0.101
35.200	25.892	0.101
35.300	13.866	0.101
35.400	6.774	0.101
35.500	6.883	0.101
35.600	2.842	0.101
35.700	13.725	0.101
35.800	17.829	0.101
35.900	16.195	0.101
36.000	20.320	0.101
36.100	15.954	0.101
36.200	11.951	0.101
36.300	15.895	0.101
36.400	11.602	0.101
36.500	10.199	0.101
36.600	2.564	0.101
36.700	11.376	0.101
36.800	15.014	0.101
36.900	9.602	0.101
37.000	12.406	0.101
37.100	1.371	0.101
37.200	13.572	0.101
37.300	5.455	0.101
37.400	15.089	0.101
37.500	6.036	0.101
37.600	11.910	0.101
37.700	9.660	0.101
37.800	10.370	0.101
37.900	12.928	0.101
38.000	12.076	0.101
38.100	14.253	0.101
38.200	2.285	0.101
38.300	12.981	0.101
38.400	4.945	0.101
38.500	-2.561	0.101
38.600	15.122	0.101
38.700	14.619	0.101
38.800	4.947	0.101
38.900	13.390	0.101
39.000	16.607	0.101
39.100	10.566	0.101
39.200	11.817	0.101
39.300	9.775	0.101
39.400	7.746	0.101
39.500	6.351	0.101
39.600	-2.269	0.101
39.700	2.603	0.101
39.800	11.939	0.101
39.900	10.197	0.101
40.000	0.973	0.101
40.100	11.346	0.101
40.200	11.481	0.101
40.300	1.517	0.101
40.400	5.387	0.101
40.500	13.948	0.101
40.600	13.930	0.101
40.700	10.753	0.101
40.800	6.314	0.101
40.900	-8.327	0.101
41.000	7.551	0.101
41.100	12.726	0.101
41.200	14.937	0.101
41.300	6.092	0.101
41.400	4.920	0.101
41.500	7.596	0.101
41.600	4.163	0.101
41.700	7.055	0.101
41.800	15.181	0.101
41.900	15.155	0.101
42.000	20.629	0.101
42.100	13.245	0.101
42.200	10.887	0.101
42.300	12.618	0.101
42.400	16.291	0.101
42.500	12.591	0.101
42.600	17.590	0.101
42.700	0.616	0.101
42.800	11.935	0.101
42.900	13.101	0.101
43.000	16.796	0.101
43.100	1.374	0.101
43.200	18.104	0.101
43.300	17.654	0.101
43.400	17.937	0.101
43.500	19.815	0.101
43.600	14.642	0.101
43.700	5.993	0.101
43.800	-1.969	0.101
43.900	9.009	0.101
44.000	8.447	0.101
44.100	5.565	0.101
44.200	11.402	0.101
44.300	11.189	0.101
44.400	8.161	0.101
44.500	13.425	0.101
44.600	12.812	0.101
44.700	16.154	0.101
44.800	17.829	0.101
44.900	5.320	0.101
45.000	17.091	0.101
45.100	18.071	0.101
45.200	13.069	0.101
45.300	5.423	0.101
45.400	8.548	0.101
45.500	15.875	0.101
45.600	18.819	0.101
45.700	17.164	0.101
45.800	22.333	0.101
45.900	8.237	0.101
46.000	18.530	0.101
46.100	15.181	0.101
46.200	12.368	0.101
46.300	10.901	0.101
46.400	12.663	0.101
46.500	7.679	0.101
46.600	22.160	0.101
46.700	11.622	0.101
46.800	12.805	0.101
46.900	12.130	0.101
47.000	26.344	0.101
47.100	23.992	0.101
47.200	23.214	0.101
47.300	14.720	0.101
47.400	15.605	0.101
47.500	19.951	0.101
47.600	11.417	0.101
47.700	5.462	0.101
47.800	6.096	0.101
47.900	12.470	0.101
48.000	17.686	0.101
48.100	20.814	0.101
48.200	11.815	0.101
48.300	22.189	0.101
48.400	17.938	0.101
48.500	16.471	0.101
48.600	13.163	0.101
48.700	17.192	0.101
48.800	7.715	0.101
48.900	15.150	0.101
49.000	8.555	0.101
49.100	14.752	0.101
49.200	14.698	0.101
49.300	21.345	0.101
49.400	16.484	0.101
49.500	10.000	0.101
49.600	8.539	0.101
49.700	7.721	0.101
49.800	14.989	0.101
49.900	16.676	0.101
50.000	19.536	0.101
50.100	9.842	0.101
50.200	15.774	0.101
50.300	19.371	0.101
50.400	15.694	0.101
50.500	9.323	0.101
50.600	16.336	0.101
50.700	16.502	0.101
50.800	10.115	0.101
50.900	11.541	0.101
51.000	32.710	0.101
51.100	25.855	0.101
51.200	7.453	0.101
51.300	8.059	0.101
51.400	25.899	0.101
51.500	21.386	0.101
51.600	20.706	0.101
51.700	20.356	0.101
51.800	17.541	0.101
51.900	18.760	0.101
52.000	19.823	0.101
52.100	18.199	0.101
52.200	19.087	0.101
52.300	11.131	0.101
52.400	19.723	0.101
52.500	13.740	0.101
52.600	9.616	0.101
52.700	21.082	0.101
52.800	16.894	0.101
52.900	21.997	0.101
53.000	16.972	0.101
53.100	4.730	0.101
53.200	19.219	0.101
53.300	21.456	0.101
53.400	25.740	0.101
53.500	18.856	0.101
53.600	14.423	0.101
53.700	16.061	0.101
53.800	17.306	0.101
53.900	11.311	0.101
54.000	14.184	0.101
54.100	18.789	0.101
54.200	24.492	0.101
54.300	20.618	0.101
54.400	23.427	0.101
54.500	21.279	0.101
54.600	19.412	0.101
54.700	17.457	0.101
54.800	26.676	0.101
54.900	26.057	0.101
55.000	16.633	0.101
55.100	21.066	0.101
55.200	20.073	0.101
55.300	18.869	0.101
55.400	18.152	0.101
55.500	16.287	0.101
55.600	24.530	0.101
55.700	22.571	0.101
55.800	7.070	0.101
55.900	26.258	0.101
56.000	30.006	0.101
56.100	17.889	0.101
56.200	17.220	0.101
56.300	23.174	0.101
56.400	18.633	0.101
56.500	22.497	0.101
56.600	10.834	0.101
56.700	13.157	0.101
56.800	16.492	0.101
56.900	24.149	0.101
57.000	27.717	0.101
57.100	24.525	0.101
57.200	13.718	0.101
57.300	15.417	0.101
57.400	17.473	0.101
57.500	16.766	0.101
57.600	8.647	0.101
57.700	20.508	0.101
57.800	13.758	0.101
57.900	13.224	0.101
58.000	23.762	0.101
58.100	21.537	0.101
58.200	16.514	0.101
58.300	15.178	0.101
58.400	19.514	0.101
58.500	14.425	0.101
58.600	26.066	0.101
58.700	15.920	0.101
58.800	20.495	0.101
58.900	19.698	0.101
59.000	19.356	0.101
59.100	15.795	0.101
59.200	18.189	0.101
59.300	18.617	0.101
59.400	19.182	0.101
59.500	19.090	0.101
59.600	16.305	0.100
59.700	26.426	0.101
59.800	15.783	0.101
59.900	20.513	0.101
60.000	18.415	0.101
60.100	23.627	0.101
60.200	18.018	0.101
60.300	14.752	0.101
60.400	15.969	0.101
60.500	28.192	0.101
60.600	23.934	0.101
60.700	23.446	0.101
60.800	19.761	0.101
60.900	12.294	0.101
61.000	15.739	0.100
61.100	16.086	0.101
61.200	17.074	0.101
61.300	15.893	0.101
61.400	20.084	0.101
61.500	17.553	0.101
61.600	15.048	0.101
61.700	20.808	0.100
61.800	13.806	0.101
61.900	20.260	0.101
62.000	8.460	0.101
62.100	20.853	0.101
62.200	19.031	0.101
62.300	15.662	0.101
62.400	20.617	0.100
62.500	30.306	0.101
62.600	26.193	0.101
62.700	20.682	0.101
62.800	25.164	0.101
62.900	18.661	0.101
63.000	21.153	0.101
63.100	13.816	0.101
63.200	22.888	0.101
63.300	10.979	0.101
63.400	24.115	0.101
63.500	23.179	0.101
63.600	17.358	0.100
63.700	32.222	0.101
63.800	22.399	0.101
63.900	22.662	0.101
64.000	17.455	0.101
64.100	21.376	0.101
64.200	20.906	0.100
64.300	23.945	0.101
64.400	15.191	0.101
64.500	19.234	0.100
64.600	11.143	0.100
64.700	18.895	0.101
64.800	17.028	0.100
64.900	13.673	0.100
65.000	22.084	0.100
65.100	25.122	0.100
65.200	22.158	0.101
65.300	24.407	0.100
65.400	22.480	0.100
65.500	15.877	0.101
65.600	17.243	0.101
65.700	12.097	0.101
65.800	18.554	0.100
65.900	25.256	0.100
66.000	24.134	0.100
66.100	28.600	0.100
66.200	23.824	0.100
66.300	23.672	0.100
66.400	16.553	0.100
66.500	28.344	0.100
66.600	21.129	0.100
66.700	19.717	0.100
66.800	23.546	0.100
66.900	20.123	0.100
67.000	26.205	0.100
67.100	29.914	0.100
67.200	21.455	0.101
67.300	18.895	0.100
67.400	12.678	0.100
67.500	27.398	0.100
67.600	19.406	0.100
67.700	16.885	0.100
67.800	17.883	0.100
67.900	18.975	0.100
68.000	18.613	0.100
68.100	23.178	0.100
68.200	24.415	0.100
68.300	9.299	0.100
68.400	25.660	0.101
68.500	18.872	0.100
68.600	19.993	0.100
68.700	24.012	0.100
68.800	22.386	0.100
68.900	18.436	0.100
69.000	16.155	0.100
69.100	21.216	0.100
69.200	20.668	0.100
69.300	18.140	0.100
69.400	24.961	0.100
69.500	20.667	0.100
69.600	16.897	0.100
69.700	18.191	0.100
69.800	15.707	0.100
69.900	14.929	0.101
70.000	20.346	0.100
70.100	12.480	0.100
70.200	21.837	0.100
70.300	19.386	0.100
70.400	22.003	0.100
70.500	28.468	0.100
70.600	28.061	0.100
70.700	19.334	0.100
70.800	9.306	0.100
70.900	21.081	0.100
71.000	15.162	0.100
71.100	21.961	0.100
71.200	17.902	0.100
71.300	27.695	0.100
71.400	20.563	0.100
71.500	31.189	0.100
71.600	31.550	0.100
71.700	34.169	0.100
71.800	18.032	0.100
71.900	24.309	0.100
72.000	12.429	0.100
72.100	18.830	0.100
72.200	22.518	0.100
72.300	12.941	0.100
72.400	6.456	0.100
72.500	28.718	0.100
72.600	16.091	0.100
72.700	15.301	0.100
72.800	21.808	0.100
72.900	28.114	0.100
73.000	24.125	0.100
73.100	20.346	0.100
73.200	9.816	0.100
73.300	29.901	0.100
73.400	24.797	0.100
73.500	23.501	0.100
73.600	23.182	0.100
73.700	29.706	0.100
73.800	16.368	0.100
73.900	18.852	0.100
74.000	12.592	0.100
74.100	21.339	0.100
74.200	19.223	0.100
74.300	19.705	0.100
74.400	25.047	0.100
74.500	13.211	0.100
74.600	20.926	0.100
74.700	21.395	0.100
74.800	15.549	0.100
74.900	26.091	0.100
75.000	28.528	0.100
75.100	17.822	0.100
75.200	10.540	0.100
75.300	25.469	0.100
75.400	17.939	0.100
75.500	27.750	0.100
75.600	21.173	0.100
75.700	20.967	0.100
75.800	20.535	0.100
75.900	25.580	0.100
76.000	21.831	0.100
76.100	25.619	0.100
76.200	30.107	0.100
76.300	15.811	0.100
76.400	17.130	0.100
76.500	22.879	0.100
76.600	16.657	0.100
76.700	29.207	0.100
76.800	30.185	0.100
76.900	26.321	0.100
77.000	20.275	0.100
77.100	21.464	0.100
77.200	24.422	0.100
77.300	15.533	0.100
77.400	11.356	0.100
77.500	26.461	0.100
77.600	14.709	0.100
77.700	22.250	0.100
77.800	12.359	0.100
77.900	27.779	0.100
78.000	29.743	0.100
78.100	24.059	0.100
78.200	15.832	0.100
78.300	28.031	0.100
78.400	22.737	0.100
78.500	23.870	0.100
78.600	22.668	0.100
78.700	22.991	0.100
78.800	20.547	0.100
78.900	11.091	0.100
79.000	21.032	0.100
79.100	31.350	0.100
79.200	24.718	0.100
79.300	29.557	0.100
79.400	28.081	0.100
79.500	25.039	0.100
79.600	11.725	0.100
79.700	20.466	0.100
79.800	18.312	0.100
79.900	25.093	0.100
80.000	24.371	0.100
80.100	23.358	0.100
80.200	12.404	0.100
80.300	26.830	0.100
80.400	24.734	0.100
80.500	27.658	0.100
80.600	24.712	0.100
80.700	19.672	0.100
80.800	20.051	0.100
80.900	12.248	0.100
81.000	22.124	0.100
81.100	31.708	0.100
81.200	18.353	0.100
81.300	28.133	0.100
81.400	20.710	0.100
81.500	27.107	0.100
81.600	16.395	0.100
81.700	26.601	0.100
81.800	21.436	0.100
81.900	17.935	0.100
82.000	22.227	0.100
82.100	27.251	0.100
82.200	20.009	0.100
82.300	16.845	0.100
82.400	18.470	0.100
82.500	17.966	0.100
82.600	12.739	0.100
82.700	22.505	0.100
82.800	20.125	0.100
82.900	23.560	0.100
83.000	12.649	0.100
83.100	21.843	0.100
83.200	18.933	0.100
83.300	32.091	0.100
83.400	16.810	0.100
83.500	21.235	0.100
83.600	24.562	0.100
83.700	29.958	0.100
83.800	22.978	0.100
83.900	26.800	0.100
84.000	15.363	0.100
84.100	26.814	0.100
84.200	20.171	0.100
84.300	15.492	0.100
84.400	21.840	0.100
84.500	15.919	0.100
84.600	10.459	0.100
84.700	31.125	0.100
84.800	21.903	0.100
84.900	24.665	0.100
85.000	24.753	0.100
85.100	18.335	0.100
85.200	24.809	0.100
85.300	33.092	0.100
85.400	20.042	0.100
85.500	26.631	0.100
85.600	24.345	0.100
85.700	31.066	0.100
85.800	17.742	0.100
85.900	12.266	0.100
86.000	16.978	0.100
86.100	15.621	0.100
86.200	22.944	0.100
86.300	34.361	0.100
86.400	11.144	0.100
86.500	24.945	0.100
86.600	25.476	0.100
86.700	24.794	0.100
86.800	23.193	0.100
86.900	16.501	0.100
87.000	20.518	0.100
87.100	24.229	0.100
87.200	21.143	0.100
87.300	27.192	0.100
87.400	25.210	0.100
87.500	19.194	0.100
87.600	20.591	0.100
87.700	16.224	0.100
87.800	18.900	0.100
87.900	24.773	0.100
88.000	20.957	0.100
88.100	23.685	0.100
88.200	26.909	0.100
88.300	25.783	0.100
88.400	18.085	0.100
88.500	25.815	0.100
88.600	20.657	0.100
88.700	16.957	0.100
88.800	18.801	0.100
88.900	23.713	0.100
89.000	11.119	0.100
89.100	22.185	0.100
89.200	29.869	0.100
89.300	30.467	0.100
89.400	18.522	0.100
89.500	26.802	0.100
89.600	20.072	0.100
89.700	27.827	0.100
89.800	28.686	0.100
89.900	28.486	0.100
90.000	18.685	0.100
90.100	15.303	0.100
90.200	17.993	0.100
90.300	25.088	0.100
90.400	10.080	0.100
90.500	16.570	0.100
90.600	21.165	0.100
90.700	17.715	0.100
90.800	10.155	0.100
90.900	11.229	0.100
91.000	19.230	0.100
91.100	16.942	0.100
91.200	14.607	0.100
91.300	15.733	0.100
91.400	-5.040	0.100
91.500	11.104	0.100
91.600	12.273	0.100
91.700	6.672	0.100
91.800	5.848	0.100
91.900	0.795	0.100
92.000	4.434	0.100
92.100	9.868	0.100
92.200	9.183	0.100
92.300	17.367	0.100
92.400	2.696	0.100
92.500	5.563	0.100
92.600	5.487	0.100
92.700	1.640	0.100
92.800	3.593	0.100
92.900	3.771	0.100
93.000	-3.991	0.100
93.100	-6.594	0.100
93.200	4.868	0.100
93.300	4.154	0.100
93.400	4.075	0.100
93.500	1.579	0.100
93.600	0.393	0.100
93.700	-4.376	0.100
93.800	-11.111	0.100
93.900	5.435	0.100
94.000	-8.381	0.100
94.100	4.829	0.100
94.200	-8.668	0.100
94.300	-5.044	0.100
94.400	1.936	0.100
94.500	4.957	0.100
94.600	6.944	0.100
94.700	-1.606	0.100
94.800	9.487	0.100
94.900	10.942	0.100
95.000	-7.134	0.100
95.100	4.851	0.100
95.200	0.226	0.100
95.300	-1.528	0.100
95.400	-7.186	0.100
95.500	-0.206	0.100
95.600	-10.988	0.100
95.700	4.051	0.100
95.800	-1.414	0.100
95.900	5.568	0.100
96.000	1.902	0.100
96.100	-0.793	0.100
96.200	-1.010	0.100
96.300	-4.043	0.100
96.400	2.875	0.100
96.500	7.858	0.100
96.600	6.420	0.100
96.700	4.235	0.100
96.800	-1.532	0.100
96.900	-9.193	0.100
97.000	0.408	0.100
97.100	0.125	0.100
97.200	0.278	0.100
97.300	0.046	0.100
97.400	-1.706	0.100
97.500	2.673	0.100
97.600	-3.802	0.100
97.700	-14.700	0.100
97.800	7.974	0.100
97.900	3.120	0.100
98.000	0.631	0.100
98.100	-3.227	0.100
98.200	-4.591	0.100
98.300	3.232	0.100
98.400	-2.101	0.100
98.500	-1.268	0.100
98.600	8.198	0.100
98.700	-0.146	0.100
98.800	-6.649	0.100
98.900	-6.620	0.100
99.000	-10.233	0.100
99.100	-9.943	0.100
99.200	-0.538	0.100
99.300	-3.990	0.100
99.400	-2.312	0.100
99.500	-3.738	0.100
99.600	0.368	0.100
99.700	1.905	0.100
99.800	-2.902	0.100
99.900	-8.352	0.100
100.000	-4.291	0.100
100.100	-3.186	0.100
100.200	-3.153	0.100
100.300	5.586	0.100
100.400	2.434	0.100
100.500	-4.858	0.100
100.600	-5.756	0.100
100.700	-8.209	0.100
100.800	-4.753	0.100
100.900	2.185	0.100
101.000	-0.095	0.100
101.100	-11.607	0.100
101.200	-7.173	0.100
101.300	8.277	0.100
101.400	7.102	0.100
101.500	7.732	0.100
101.600	4.669	0.100
101.700	-1.349	0.100
101.800	-8.202	0.100
101.900	-9.612	0.100
102.000	-2.166	0.100
102.100	-11.530	0.100
102.200	-7.021	0.100
102.300	-12.898	0.100
102.400	-16.445	0.100
102.500	5.197	0.100
102.600	-9.701	0.100
102.700	-5.757	0.100
102.800	-4.331	0.100
102.900	-0.555	0.100
103.000	-7.750	0.100
103.100	-2.039	0.100
103.200	-7.713	0.100
103.300	-14.269	0.100
103.400	-6.816	0.100
103.500	0.836	0.100
103.600	-8.143	0.100
103.700	4.822	0.100
103.800	0.450	0.100
103.900	-8.465	0.100
104.000	-9.580	0.100
104.100	-11.200	0.100
104.200	-14.247	0.100
104.300	-6.248	0.100
104.400	-6.587	0.100
104.500	-11.084	0.100
104.600	-5.399	0.100
104.700	-1.029	0.100
104.800	-1.480	0.100
104.900	-7.431	0.100
105.000	-13.880	0.100
105.100	-10.383	0.100
105.200	2.260	0.100
105.300	-1.201	0.100
105.400	-14.184	0.100
105.500	-4.450	0.100
105.600	-1.150	0.100
105.700	-22.570	0.100
105.800	-19.139	0.100
105.900	-9.586	0.100
106.000	-13.474	0.100
106.100	-8.008	0.100
106.200	0.253	0.100
106.300	-3.128	0.100
106.400	-8.670	0.100
106.500	-8.611	0.100
106.600	-11.588	0.100
106.700	-15.395	0.100
106.800	4.427	0.100
106.900	-8.396	0.100
107.000	-9.420	0.100
107.100	-13.261	0.100
107.200	-2.016	0.100
107.300	-8.403	0.100
107.400	-10.557	0.100
107.500	-6.434	0.100
107.600	-14.740	0.100
107.700	-10.053	0.100
107.800	-10.303	0.100
107.900	-11.148	0.100
108.000	-5.314	0.100
108.100	-14.499	0.100
108.200	-8.829	0.100
108.300	-9.741	0.100
108.400	-3.178	0.100
108.500	1.247	0.100
108.600	-16.100	0.100
108.700	-18.902	0.100
108.800	-8.825	0.100
108.900	-11.356	0.100
109.000	-8.281	0.100
109.100	-15.647	0.100
109.200	-14.487	0.100
109.300	-11.306	0.100
109.400	7.000	0.100
109.500	-13.313	0.100
109.600	-13.252	0.100
109.700	-9.036	0.100
109.800	-10.020	0.100
109.900	-14.640	0.100
110.000	-19.393	0.100
110.100	-18.496	0.100
110.200	-14.429	0.100
110.300	1.948	0.100
110.400	-3.145	0.100
110.500	-9.877	0.100
110.600	-5.475	0.100
110.700	-14.552	0.100
110.800	-8.995	0.100
110.900	-23.117	0.100
111.000	-12.093	0.100
111.100	-11.148	0.100
111.200	-17.622	0.100
111.300	-15.798	0.100
111.400	-2.349	0.100
111.500	-7.316	0.100
111.600	-0.626	0.100
111.700	-16.335	0.100
111.800	-9.119	0.100
111.900	-15.830	0.100
112.000	-13.820	0.100
112.100	-19.053	0.100
112.200	-8.336	0.100
112.300	-14.905	0.100
112.400	-11.503	0.100
112.500	-11.387	0.100
112.600	-16.683	0.100
112.700	-13.336	0.100
112.800	-22.220	0.100
112.900	-7.969	0.100
113.000	-7.433	0.100
113.100	-17.807	0.100
113.200	-14.283	0.100
113.300	-16.141	0.100
113.400	-15.330	0.100
113.500	-10.830	0.100
113.600	-4.986	0.100
113.700	-6.350	0.100
113.800	-19.060	0.100
113.900	-22.179	0.100
114.000	-14.908	0.100
114.100	-13.898	0.100
114.200	-21.127	0.100
114.300	-16.183	0.100
114.400	-16.831	0.100
114.500	-2.995	0.100
114.600	-6.722	0.100
114.700	-21.698	0.100
114.800	-9.463	0.100
114.900	-17.926	0.100
115.000	-21.864	0.100
115.100	-16.864	0.100
115.200	-4.618	0.100
115.300	-23.502	0.100
115.400	-12.536	0.100
115.500	-14.272	0.100
115.600	-12.933	0.100
115.700	-19.113	0.100
115.800	-27.022	0.100
115.900	-13.231	0.100
116.000	-17.375	0.100
116.100	-0.920	0.100
116.200	-13.880	0.100
116.300	-11.106	0.100
116.400	-21.806	0.100
116.500	-22.891	0.100
116.600	-11.998	0.100
116.700	-16.004	0.100
116.800	-15.231	0.100
116.900	-15.174	0.100
117.000	-25.157	0.100
117.100	-31.793	0.100
117.200	-15.825	0.100
117.300	-17.674	0.100
117.400	-12.318	0.100
117.500	-14.778	0.100
117.600	-21.986	0.100
117.700	-13.581	0.100
117.800	-7.637	0.100
117.900	-20.881	0.100
118.000	-20.191	0.100
118.100	-16.280	0.100
118.200	-13.284	0.100
118.300	-18.542	0.100
118.400	-18.694	0.100
118.500	-15.752	0.100
118.600	-18.961	0.100
118.700	-12.525	0.100
118.800	-21.348	0.100
118.900	-22.706	0.100
119.000	-12.162	0.100
119.100	-5.523	0.100
119.200	-10.014	0.100
119.300	-24.607	0.100
119.400	-17.409	0.100
119.500	-20.495	0.100
119.600	-18.700	0.100
119.700	-8.622	0.100
119.800	-18.453	0.100
119.900	-16.152	0.100
120.000	-18.063	0.100
120.100	-21.384	0.100
120.200	-9.591	0.100
120.300	-22.900	0.100
120.400	-16.209	0.100
120.500	-24.057	0.100
120.600	-17.193	0.100
120.700	-19.616	0.100
120.800	-15.487	0.100
120.900	-17.193	0.100
121.000	-10.197	0.100
121.100	-20.132	0.100
121.200	-18.201	0.100
121.300	-14.767	0.100
121.400	-19.659	0.100
121.500	-11.515	0.100
121.600	-16.031	0.100
121.700	-11.946	0.100
121.800	-17.372	0.100
121.900	-22.407	0.100
122.000	-17.030	0.100
122.100	-10.353	0.100
122.200	-30.362	0.100
122.300	-34.768	0.100
122.400	-19.365	0.100
122.500	-21.845	0.100
122.600	-21.425	0.100
122.700	-14.811	0.100
122.800	-11.909	0.100
122.900	-18.997	0.100
123.000	-27.050	0.100
123.100	-10.496	0.100
123.200	-20.115	0.100
123.300	-22.981	0.100
123.400	-17.367	0.100
123.500	-10.508	0.100
123.600	-14.674	0.100
123.700	-17.691	0.100
123.800	-8.903	0.100
123.900	-19.169	0.100
124.000	-17.183	0.100
124.100	-19.903	0.100
124.200	-31.306	0.100
124.300	-29.239	0.100
124.400	-23.118	0.100
124.500	-28.676	0.100
124.600	-13.429	0.100
124.700	-23.998	0.100
124.800	-18.961	0.100
124.900	-15.594	0.100
125.000	-16.314	0.100
125.100	-11.500	0.100
125.200	-10.918	0.100
125.300	-26.559	0.101
125.400	-25.641	0.101
125.500	-28.002	0.101
125.600	-19.395	0.101
125.700	-9.029	0.101
125.800	-12.948	0.101
125.900	-19.079	0.101
126.000	-20.084	0.101
126.100	-10.634	0.101
126.200	-17.206	0.101
126.300	-27.447	0.101
126.400	-19.295	0.101
126.500	-18.455	0.101
126.600	-16.785	0.101
126.700	-17.161	0.101
126.800	-15.398	0.101
126.900	-24.653	0.101
127.000	-23.512	0.101
127.100	-26.320	0.101
127.200	-19.550	0.101
127.300	-19.679	0.101
127.400	-11.158	0.101
127.500	-22.907	0.101
127.600	-18.977	0.101
127.700	-18.660	0.101
127.800	-12.687	0.101
127.900	-14.556	0.101
128.000	-18.472	0.101
128.100	-22.956	0.101
128.200	-25.646	0.101
128.300	-28.207	0.101
128.400	-12.963	0.101
128.500	-17.177	0.101
128.600	-18.237	0.101
128.700	-9.103	0.101
128.800	-25.695	0.101
128.900	-20.101	0.101
129.000	-19.096	0.101
129.100	-24.720	0.101
129.200	-12.353	0.101
129.300	-16.183	0.101
129.400	-27.694	0.101
129.500	-23.294	0.101
129.600	-6.285	0.101
129.700	-25.611	0.101
129.800	-16.644	0.101
129.900	-26.998	0.101
130.000	-13.816	0.101
130.100	-18.715	0.101
130.200	-22.365	0.101
130.300	-11.639	0.101
130.400	-20.002	0.101
130.500	-24.296	0.101
130.600	-16.742	0.101
130.700	-12.272	0.101
130.800	-6.634	0.101
130.900	-22.446	0.101
131.000	-20.986	0.101
131.100	-19.863	0.101
131.200	-13.508	0.101
131.300	-24.579	0.101
131.400	-15.937	0.101
131.500	-29.562	0.101
131.600	-14.829	0.101
131.700	-16.972	0.101
131.800	-25.861	0.101
131.900	-24.896	0.101
132.000	-19.429	0.101
132.100	-21.753	0.101
132.200	-22.304	0.101
132.300	-18.067	0.101
132.400	-21.976	0.101
132.500	-25.341	0.101
132.600	-24.412	0.101
132.700	-15.381	0.101
132.800	-21.591	0.101
132.900	-15.488	0.101
133.000	-20.375	0.101
133.100	-19.571	0.101
133.200	-20.638	0.101
133.300	-25.542	0.101
133.400	-15.868	0.101
133.500	-18.050	0.101
133.600	-19.675	0.101
133.700	-10.709	0.101
133.800	-8.871	0.101
133.900	-25.252	0.101
134.000	-22.133	0.101
134.100	-21.999	0.101
134.200	-15.722	0.101
134.300	-14.766	0.101
134.400	-18.979	0.101
134.500	-18.106	0.101
134.600	-20.689	0.101
134.700	-28.056	0.101
134.800	-10.473	0.101
134.900	-18.484	0.101
135.000	-16.979	0.101
135.100	-24.790	0.101
135.200	-12.614	0.101
135.300	-15.079	0.101
135.400	-27.830	0.101
135.500	-28.031	0.101
135.600	-22.019	0.101
135.700	-26.257	0.101
135.800	-21.832	0.101
135.900	-20.468	0.101
136.000	-14.519	0.101
136.100	-21.942	0.101
136.200	-16.192	0.101
136.300	-15.450	0.101
136.400	-19.680	0.101
136.500	-17.526	0.101
136.600	-13.747	0.101
136.700	-21.930	0.101
136.800	-18.068	0.101
136.900	-18.153	0.101
137.000	-21.721	0.101
137.100	-19.963	0.101
137.200	-17.283	0.101
137.300	-26.708	0.101
137.400	-24.149	0.101
137.500	-25.156	0.101
137.600	-26.248	0.101
137.700	-30.726	0.101
137.800	-15.313	0.101
137.900	-16.547	0.101
138.000	-16.907	0.101
138.100	-17.895	0.101
138.200	-8.764	0.101
138.300	-21.099	0.101
138.400	-10.065	0.101
138.500	-23.653	0.101
138.600	-18.740	0.101
138.700	-15.010	0.101
138.800	-5.612	0.101
138.900	-14.404	0.101
139.000	-10.456	0.101
139.100	-28.498	0.101
139.200	-25.164	0.101
139.300	-21.854	0.101
139.400	-15.032	0.101
139.500	-12.867	0.101
139.600	-9.135	0.101
139.700	-25.224	0.101
139.800	-14.677	0.101
139.900	-12.456	0.101
140.000	-17.595	0.101
140.100	-22.021	0.101
140.200	-21.920	0.101
140.300	-12.051	0.101
140.400	-21.671	0.101
140.500	-19.971	0.101
140.600	-11.689	0.101
140.700	-20.037	0.101
140.800	-16.432	0.101
140.900	-18.882	0.101
141.000	-19.521	0.101
141.100	-23.332	0.101
141.200	-24.709	0.101
141.300	-25.280	0.101
141.400	-23.907	0.101
141.500	-33.199	0.101
141.600	-28.722	0.101
141.700	-26.075	0.101
141.800	-18.574	0.101
141.900	-20.271	0.101
142.000	-13.748	0.101
142.100	-22.802	0.101
142.200	-11.804	0.101
142.300	-21.458	0.101
142.400	-25.619	0.101
142.500	-16.808	0.101
142.600	-16.873	0.101
142.700	-19.960	0.101
142.800	-19.365	0.101
142.900	-16.408	0.101
143.000	-12.761	0.101
143.100	-22.090	0.101
143.200	-19.556	0.101
143.300	-15.025	0.101
143.400	-18.012	0.101
143.500	-19.956	0.101
143.600	-17.699	0.101
143.700	-19.341	0.101
143.800	-17.987	0.101
143.900	-28.054	0.101
144.000	-18.084	0.101
144.100	-16.575	0.101
144.200	-12.412	0.101
144.300	-18.906	0.101
144.400	-25.908	0.101
144.500	-15.583	0.101
144.600	-11.184	0.101
144.700	-20.293	0.101
144.800	-22.727	0.101
144.900	-23.401	0.101
145.000	-20.802	0.101
145.100	-29.218	0.101
145.200	-24.059	0.101
145.300	-22.835	0.101
145.400	-18.566	0.101
145.500	-16.121	0.101
145.600	-18.161	0.101
145.700	-19.197	0.101
145.800	-13.393	0.101
145.900	-16.776	0.101
146.000	-21.691	0.101
146.100	-20.303	0.101
146.200	-15.251	0.101
146.300	-20.409	0.101
146.400	-10.510	0.101
146.500	-21.102	0.101
146.600	-30.289	0.101
146.700	-16.849	0.101
146.800	-28.580	0.101
146.900	-21.736	0.101
147.000	-15.855	0.101
147.100	-26.566	0.101
147.200	-16.873	0.101
147.300	-29.116	0.101
147.400	-12.047	0.101
147.500	-17.344	0.101
147.600	-31.269	0.101
147.700	-25.380	0.101
147.800	-20.962	0.101
147.900	-19.211	0.101
148.000	-12.666	0.101
148.100	-12.589	0.101
148.200	-19.694	0.101
148.300	-15.423	0.101
148.400	-15.036	0.101
148.500	-20.077	0.101
148.600	-23.492	0.101
148.700	-31.860	0.101
148.800	-18.752	0.101
148.900	-16.516	0.101
149.000	-19.516	0.101
149.100	-31.107	0.101
149.200	-25.344	0.101
149.300	-26.494	0.101
149.400	-18.839	0.101
149.500	-21.676	0.101
149.600	-19.825	0.101
149.700	-15.114	0.101
149.800	-14.844	0.101
149.900	-16.998	0.101
150.000	-15.279	0.101
150.100	-15.478	0.101
150.200	-23.015	0.101
150.300	-30.400	0.101
150.400	-23.297	0.101
150.500	-23.036	0.101
150.600	-21.689	0.101
150.700	-8.784	0.101
150.800	-16.843	0.101
150.900	-24.192	0.101
151.000	-22.652	0.101
151.100	-10.900	0.101
151.200	-17.429	0.101
151.300	-19.847	0.101
151.400	-9.348	0.101
151.500	-22.685	0.101
151.600	-22.179	0.101
151.700	-23.634	0.101
151.800	-14.778	0.101
151.900	-13.636	0.101
152.000	-12.705	0.101
152.100	-27.435	0.101
152.200	-24.372	0.101
152.300	-20.473	0.101
152.400	-15.144	0.101
152.500	-17.167	0.101
152.600	-23.415	0.101
152.700	-16.848	0.101
152.800	-15.231	0.101
152.900	-15.275	0.101
153.000	-26.158	0.101
153.100	-30.741	0.101
153.200	-14.407	0.101
153.300	-21.975	0.101
153.400	-29.684	0.101
153.500	-16.752	0.101
153.600	-32.326	0.101
153.700	-33.628	0.101
153.800	-19.087	0.101
153.900	-24.859	0.101
154.000	-25.298	0.101
154.100	-12.042	0.101
154.200	-23.760	0.101
154.300	-22.724	0.101
154.400	-20.890	0.101
154.500	-17.959	0.101
154.600	-14.402	0.101
154.700	-20.628	0.101
154.800	-18.911	0.101
154.900	-20.107	0.101
155.000	-31.831	0.101
155.100	-17.358	0.101
155.200	-15.478	0.101
155.300	-12.122	0.101
155.400	-17.631	0.101
155.500	-20.502	0.101
155.600	-16.895	0.101
155.700	-19.523	0.101
155.800	-18.576	0.101
155.900	-21.991	0.101
156.000	-25.895	0.101
156.100	-31.774	0.101
156.200	-16.816	0.101
156.300	-16.148	0.101
156.400	-18.853	0.101
156.500	-19.955	0.101
156.600	-18.810	0.101
156.700	-26.195	0.101
156.800	-22.329	0.101
156.900	-15.344	0.101
157.000	-19.659	0.101
157.100	-19.336	0.101
157.200	-22.826	0.101
157.300	-21.717	0.101
157.400	-16.562	0.101
157.500	-13.980	0.101
157.600	-23.870	0.101
157.700	-15.962	0.101
157.800	-30.089	0.101
157.900	-20.120	0.101
158.000	-15.179	0.101
158.100	-20.129	0.101
158.200	-25.410	0.101
158.300	-23.002	0.101
158.400	-18.754	0.101
158.500	-22.013	0.101
158.600	-15.728	0.101
158.700	-16.520	0.101
158.800	-24.550	0.101
158.900	-17.513	0.101
159.000	-14.057	0.101
159.100	-20.014	0.101
159.200	-11.719	0.101
159.300	-12.684	0.101
159.400	-22.568	0.101
159.500	-26.264	0.101
159.600	-2.080	0.101
159.700	-23.517	0.101
159.800	-25.509	0.101
159.900	-18.423	0.101
160.000	-10.376	0.101
160.100	-12.179	0.101
160.200	-19.835	0.101
160.300	-22.741	0.101
160.400	-19.173	0.101
160.500	-25.508	0.101
160.600	-21.305	0.101
160.700	-19.184	0.101
160.800	-18.117	0.101
160.900	-14.793	0.101
161.000	-10.872	0.101
161.100	-23.914	0.101
161.200	-12.862	0.101
161.300	-26.819	0.101
161.400	-23.672	0.101
161.500	-21.949	0.101
161.600	-15.830	0.101
161.700	-12.601	0.101
161.800	-16.755	0.101
161.900	-9.049	0.101
162.000	-18.882	0.101
162.100	-17.020	0.101
162.200	-19.520	0.101
162.300	-18.985	0.101
162.400	-16.117	0.101
162.500	-23.078	0.101
162.600	-34.132	0.101
162.700	-20.610	0.101
162.800	-13.949	0.101
162.900	-16.381	0.101
163.000	-19.855	0.101
163.100	-18.184	0.101
163.200	-14.681	0.101
163.300	-14.878	0.101
163.400	-20.510	0.101
163.500	-26.182	0.101
163.600	-11.666	0.101
163.700	-13.531	0.101
163.800	-17.607	0.101
163.900	-12.867	0.101
164.000	-20.581	0.101
164.100	-13.734	0.101
164.200	-19.921	0.101
164.300	-21.320	0.101
164.400	-22.544	0.101
164.500	-19.393	0.101
164.600	-22.296	0.101
164.700	-15.639	0.101
164.800	-19.630	0.101
164.900	-30.635	0.101
165.000	-26.516	0.101
165.100	-13.000	0.101
165.200	-19.444	0.101
165.300	-15.329	0.101
165.400	-13.669	0.101
165.500	-11.286	0.101
165.600	-16.904	0.101
165.700	-16.979	0.101
165.800	-28.556	0.101
165.900	-23.016	0.101
166.000	-19.817	0.101
166.100	-24.036	0.101
166.200	-23.971	0.101
166.300	-15.230	0.101
166.400	-27.171	0.101
166.500	-22.050	0.101
166.600	-12.651	0.101
166.700	-9.877	0.101
166.800	-16.537	0.101
166.900	-21.917	0.101
167.000	-17.548	0.101
167.100	-13.035	0.101
167.200	-17.169	0.101
167.300	-19.863	0.101
167.400	-26.306	0.101
167.500	-17.051	0.101
167.600	-13.250	0.101
167.700	-15.535	0.101
167.800	-15.544	0.101
167.900	-20.441	0.101
168.000	-14.861	0.101
168.100	-23.002	0.101
168.200	-26.447	0.101
168.300	-17.444	0.101
168.400	-26.580	0.101
168.500	-18.132	0.101
168.600	-20.955	0.101
168.700	-12.823	0.101
168.800	-9.641	0.101
168.900	-11.036	0.101
169.000	-25.873	0.101
169.100	-22.046	0.101
169.200	-21.025	0.101
169.300	-26.649	0.101
169.400	-21.721	0.101
169.500	-18.696	0.101
169.600	-12.892	0.101
169.700	-18.479	0.101
169.800	-28.246	0.101
169.900	-12.902	0.101
170.000	-25.785	0.101
170.100	-12.157	0.101
170.200	-22.244	0.101
170.300	-2.442	0.101
170.400	-13.307	0.101
170.500	-12.688	0.101
170.600	-21.407	0.101
170.700	-20.379	0.101
170.800	-18.730	0.101
170.900	-22.097	0.101
171.000	-20.369	0.101
171.100	-32.188	0.101
171.200	-18.166	0.101
171.300	-14.610	0.101
171.400	-25.484	0.101
171.500	-10.769	0.101
171.600	-13.128	0.101
171.700	-16.671	0.101
171.800	-22.316	0.101
171.900	-23.094	0.101
172.000	-12.328	0.101
172.100	-8.872	0.101
172.200	-14.609	0.101
172.300	-18.447	0.101
172.400	-17.644	0.101
172.500	-19.399	0.101
172.600	-21.965	0.101
172.700	-18.634	0.101
172.800	-12.872	0.101
172.900	-21.896	0.101
173.000	-15.840	0.101
173.100	-25.147	0.101
173.200	-25.033	0.101
173.300	-22.028	0.101
173.400	-15.743	0.101
173.500	-18.485	0.101
173.600	-16.884	0.101
173.700	-9.169	0.101
173.800	-9.171	0.101
173.900	-7.661	0.101
174.000	-22.053	0.101
174.100	-21.481	0.101
174.200	-19.837	0.101
174.300	-18.062	0.101
174.400	-13.962	0.101
174.500	-14.516	0.101
174.600	-14.403	0.101
174.700	-23.556	0.101
174.800	-11.428	0.101
174.900	-13.763	0.101
175.000	-15.010	0.101
175.100	-16.921	0.101
175.200	-17.062	0.101
175.300	-15.059	0.101
175.400	-16.083	0.101
175.500	-12.859	0.101
175.600	-18.361	0.101
175.700	-5.455	0.101
175.800	-18.477	0.101
175.900	-13.289	0.101
176.000	-24.644	0.101
176.100	-19.163	0.101
176.200	-10.607	0.101
176.300	-6.035	0.101
176.400	-14.242	0.101
176.500	-19.509	0.101
176.600	-28.475	0.101
176.700	-18.050	0.101
176.800	-19.373	0.101
176.900	-11.976	0.101
177.000	-22.129	0.101
177.100	-19.174	0.101
177.200	-19.536	0.101
177.300	-17.667	0.101
177.400	-13.909	0.101
177.500	-14.622	0.101
177.600	-21.111	0.101
177.700	-17.945	0.101
177.800	-13.854	0.101
177.900	-25.639	0.101
178.000	-24.529	0.101
178.100	-13.995	0.101
178.200	-23.486	0.101
178.300	-23.004	0.101
178.400	-27.321	0.101
178.500	-14.859	0.101
178.600	0.080	0.101
178.700	-11.399	0.101
178.800	-26.596	0.101
178.900	-20.372	0.101
179.000	-14.561	0.101
179.100	-19.427	0.101
179.200	-19.788	0.101
179.300	-20.052	0.101
179.400	-20.427	0.101
179.500	-11.411	0.101
179.600	-13.292	0.101
179.700	-8.298	0.101
179.800	-20.885	0.101
179.900	-10.013	0.101
180.000	-22.031	0.101
180.100	-17.139	0.101
180.200	-20.670	0.101
180.300	-16.734	0.101
180.400	-13.605	0.101
180.500	-18.475	0.101
180.600	-20.143	0.101
180.700	-7.092	0.101
180.800	-14.368	0.101
180.900	-8.617	0.101
181.000	-16.067	0.101
181.100	-5.587	0.101
181.200	-2.443	0.101
181.300	0.814	0.101
181.400	-3.242	0.101
181.500	-3.814	0.101
181.600	4.165	0.101
181.700	5.759	0.101
181.800	13.341	0.101
181.900	8.704	0.101
182.000	5.297	0.101
182.100	1.024	0.101
182.200	-3.182	0.101
182.300	5.483	0.101
182.400	7.181	0.101
182.500	18.548	0.101
182.600	13.578	0.101
182.700	19.301	0.101
182.800	17.692	0.101
182.900	10.605	0.101
183.000	10.604	0.101
183.100	11.234	0.101
183.200	6.453	0.101
183.300	9.863	0.101
183.400	8.254	0.101
183.500	10.872	0.101
183.600	8.056	0.101
183.700	14.689	0.101
183.800	9.605	0.101
183.900	21.966	0.101
184.000	6.643	0.101
184.100	10.714	0.101
184.200	6.433	0.101
184.300	15.547	0.101
184.400	10.000	0.101
184.500	19.990	0.101
184.600	1.952	0.101
184.700	13.212	0.101
184.800	16.271	0.101
184.900	6.560	0.101
185.000	5.172	0.101
185.100	18.407	0.101
185.200	4.238	0.101
185.300	12.071	0.101
185.400	16.344	0.101
185.500	19.531	0.101
185.600	8.433	0.101
185.700	17.616	0.101
185.800	7.100	0.101
185.900	8.370	0.101
186.000	8.664	0.101
186.100	12.019	0.101
186.200	16.404	0.101
186.300	16.411	0.101
186.400	13.245	0.101
186.500	13.644	0.101
186.600	18.016	0.101
186.700	3.617	0.101
186.800	3.852	0.101
186.900	6.890	0.101
187.000	12.842	0.101
187.100	12.049	0.101
187.200	13.129	0.101
187.300	20.152	0.101
187.400	5.292	0.101
187.500	8.604	0.101
187.600	18.567	0.101
187.700	16.825	0.101
187.800	-1.553	0.101
187.900	1.983	0.101
188.000	1.260	0.101
188.100	-1.316	0.101
188.200	-1.106	0.101
188.300	2.519	0.101
188.400	10.970	0.101
188.500	10.408	0.101
188.600	2.369	0.101
188.700	17.203	0.101
188.800	8.656	0.101
188.900	5.997	0.101
189.000	18.796	0.101
189.100	16.010	0.101
189.200	5.357	0.101
189.300	9.793	0.101
189.400	22.840	0.101
189.500	11.274	0.101
189.600	14.514	0.101
189.700	4.696	0.101
189.800	6.178	0.101
189.900	11.854	0.101
190.000	12.904	0.101
190.100	9.869	0.101
190.200	-2.362	0.101
190.300	10.246	0.101
190.400	14.380	0.101
190.500	9.564	0.101
190.600	11.516	0.101
190.700	6.129	0.101
190.800	-1.932	0.101
190.900	12.052	0.101
191.000	17.301	0.101
191.100	12.086	0.101
191.200	12.962	0.101
191.300	14.466	0.101
191.400	18.102	0.101
191.500	4.857	0.101
191.600	5.217	0.101
191.700	2.766	0.101
191.800	5.241	0.101
191.900	8.730	0.101
192.000	7.976	0.101
192.100	11.008	0.101
192.200	19.154	0.101
192.300	18.961	0.101
192.400	5.358	0.101
192.500	3.340	0.101
192.600	9.893	0.101
192.700	17.518	0.101
192.800	5.554	0.101
192.900	6.138	0.101
193.000	11.419	0.101
193.100	14.194	0.101
193.200	6.748	0.101
193.300	19.484	0.101
193.400	7.482	0.101
193.500	6.953	0.101
193.600	3.013	0.101
193.700	2.088	0.101
193.800	13.758	0.101
193.900	21.858	0.101
194.000	15.251	0.101
194.100	19.891	0.101
194.200	20.688	0.101
194.300	18.793	0.101
194.400	12.067	0.101
194.500	16.472	0.101
194.600	13.680	0.101
194.700	12.768	0.101
194.800	13.970	0.101
194.900	10.967	0.101
195.000	9.029	0.101
195.100	15.015	0.101
195.200	12.872	0.101
195.300	15.652	0.101
195.400	15.944	0.101
195.500	18.610	0.101
195.600	2.636	0.101
195.700	9.218	0.101
195.800	15.675	0.101
195.900	19.285	0.101
196.000	12.817	0.101
196.100	5.600	0.101
196.200	8.732	0.101
196.300	16.913	0.101
196.400	14.457	0.101
196.500	20.971	0.101
196.600	20.423	0.101
196.700	11.981	0.101
196.800	12.778	0.101
196.900	12.879	0.101
197.000	7.890	0.101
197.100	12.748	0.101
197.200	5.835	0.101
197.300	17.727	0.101
197.400	16.212	0.101
197.500	25.136	0.101
197.600	11.954	0.101
197.700	15.282	0.101
197.800	12.356	0.101
197.900	16.953	0.101
198.000	13.840	0.101
198.100	15.386	0.101
198.200	16.105	0.101
198.300	9.994	0.101
198.400	14.183	0.101
198.500	17.556	0.101
198.600	15.752	0.101
198.700	15.327	0.101
198.800	13.938	0.101
198.900	14.849	0.101
199.000	15.424	0.101
199.100	17.577	0.101
199.200	16.148	0.101
199.300	17.754	0.101
199.400	3.207	0.101
199.500	22.190	0.101
199.600	22.606	0.101
199.700	18.874	0.101
199.800	9.433	0.101
199.900	19.420	0.101
200.000	15.986	0.101
200.100	19.603	0.101
200.200	18.430	0.101
200.300	22.965	0.101
200.400	35.752	0.101
200.500	24.484	0.101
200.600	8.118	0.101
200.700	11.675	0.101
200.800	18.695	0.101
200.900	15.554	0.101
201.000	22.809	0.101
201.100	25.978	0.101
201.200	13.402	0.101
201.300	29.049	0.101
201.400	18.451	0.101
201.500	18.837	0.101
201.600	13.848	0.101
201.700	16.436	0.101
201.800	16.767	0.101
201.900	15.040	0.101
202.000	10.536	0.101
202.100	20.022	0.101
202.200	19.140	0.101
202.300	22.718	0.101
202.400	24.342	0.101
202.500	14.313	0.101
202.600	10.759	0.101
202.700	24.921	0.101
202.800	12.165	0.101
202.900	21.090	0.101
203.000	19.265	0.101
203.100	26.272	0.101
203.200	33.432	0.101
203.300	19.850	0.101
203.400	14.511	0.101
203.500	21.525	0.101
203.600	20.932	0.101
203.700	20.016	0.101
203.800	21.267	0.101
203.900	18.746	0.101
204.000	22.245	0.101
204.100	19.681	0.101
204.200	13.046	0.101
204.300	2.463	0.101
204.400	20.438	0.101
204.500	29.537	0.101
204.600	24.090	0.101
204.700	28.667	0.101
204.800	27.420	0.101
204.900	30.461	0.101
205.000	29.706	0.101
205.100	20.824	0.101
205.200	25.755	0.101
205.300	23.848	0.101
205.400	19.653	0.101
205.500	13.081	0.101
205.600	26.816	0.101
205.700	17.986	0.101
205.800	25.181	0.101
205.900	29.200	0.101
206.000	30.634	0.101
206.100	22.225	0.101
206.200	18.719	0.101
206.300	23.949	0.101
206.400	16.157	0.101
206.500	21.102	0.101
206.600	15.176	0.101
206.700	15.256	0.101
206.800	19.321	0.101
206.900	30.030	0.101
207.000	22.737	0.101
207.100	26.920	0.101
207.200	16.823	0.101
207.300	19.738	0.101
207.400	18.116	0.101
207.500	16.458	0.101
207.600	17.759	0.101
207.700	30.193	0.101
207.800	33.212	0.101
207.900	32.399	0.101
208.000	32.564	0.101
208.100	18.340	0.101
208.200	18.285	0.101
208.300	32.331	0.101
208.400	33.726	0.101
208.500	19.805	0.101
208.600	11.737	0.101
208.700	31.150	0.101
208.800	29.558	0.101
208.900	25.527	0.101
209.000	32.977	0.101
209.100	21.111	0.101
209.200	23.025	0.101
209.300	28.822	0.101
209.400	17.568	0.101
209.500	27.126	0.101
209.600	30.131	0.101
209.700	19.669	0.101
209.800	28.405	0.101
209.900	20.913	0.101
210.000	34.132	0.101
210.100	26.236	0.101
210.200	30.167	0.101
210.300	30.955	0.101
210.400	11.601	0.101
210.500	18.209	0.101
210.600	15.589	0.101
210.700	23.137	0.101
210.800	16.921	0.101
210.900	20.506	0.101
211.000	25.859	0.101
211.100	32.326	0.101
211.200	25.804	0.101
211.300	31.003	0.101
211.400	30.671	0.101
211.500	23.303	0.101
211.600	22.449	0.101
211.700	27.085	0.101
211.800	33.293	0.101
211.900	19.512	0.101
212.000	21.504	0.101
212.100	37.744	0.101
212.200	30.808	0.101
212.300	17.975	0.101
212.400	13.116	0.101
212.500	17.935	0.101
212.600	31.382	0.101
212.700	24.803	0.101
212.800	31.623	0.101
212.900	34.893	0.101
213.000	21.343	0.101
213.100	24.033	0.101
213.200	25.153	0.101
213.300	27.227	0.101
213.400	27.023	0.101
213.500	22.885	0.101
213.600	29.087	0.101
213.700	20.955	0.101
213.800	23.675	0.101
213.900	21.680	0.101
214.000	19.311	0.101
214.100	37.118	0.101
214.200	19.581	0.101
214.300	23.396	0.101
214.400	23.397	0.101
214.500	28.073	0.101
214.600	37.956	0.101
214.700	26.858	0.101
214.800	27.960	0.101
214.900	28.612	0.101
215.000	31.663	0.101
215.100	23.288	0.101
215.200	22.998	0.101
215.300	30.178	0.101
215.400	26.428	0.101
215.500	20.898	0.101
215.600	25.556	0.101
215.700	22.800	0.101
215.800	18.703	0.101
215.900	25.849	0.101
216.000	35.199	0.101
216.100	23.185	0.101
216.200	33.885	0.101
216.300	21.503	0.101
216.400	22.706	0.101
216.500	32.277	0.101
216.600	19.365	0.101
216.700	19.610	0.101
216.800	29.185	0.101
216.900	31.268	0.101
217.000	31.705	0.101
217.100	25.899	0.101
217.200	26.772	0.101
217.300	36.264	0.101
217.400	39.116	0.101
217.500	30.120	0.101
217.600	26.342	0.101
217.700	25.077	0.101
217.800	31.981	0.101
217.900	36.805	0.101
218.000	23.800	0.101
218.100	26.909	0.101
218.200	27.979	0.101
218.300	21.156	0.101
218.400	20.105	0.101
218.500	27.906	0.101
218.600	25.827	0.101
218.700	14.790	0.101
218.800	26.465	0.101
218.900	26.411	0.101
219.000	29.092	0.101
219.100	32.439	0.101
219.200	33.505	0.101
219.300	36.827	0.101
219.400	28.353	0.101
219.500	25.064	0.101
219.600	30.718	0.101
219.700	25.262	0.101
219.800	16.731	0.101
219.900	27.741	0.101
220.000	31.200	0.101
220.100	35.359	0.101
220.200	27.805	0.101
220.300	26.016	0.101
220.400	28.485	0.101
220.500	27.361	0.101
220.600	27.927	0.101
220.700	22.104	0.101
220.800	20.860	0.101
220.900	29.149	0.101
221.000	20.660	0.101
221.100	14.452	0.101
221.200	31.023	0.101
221.300	22.153	0.101
221.400	38.124	0.101
221.500	35.511	0.101
221.600	27.300	0.101
221.700	14.249	0.101
221.800	24.309	0.101
221.900	31.998	0.101
222.000	24.384	0.101
222.100	28.688	0.101
222.200	34.062	0.101
222.300	21.930	0.101
222.400	30.129	0.101
222.500	21.664	0.101
222.600	24.907	0.101
222.700	31.961	0.101
222.800	25.412	0.101
222.900	31.338	0.101
223.000	25.572	0.101
223.100	21.405	0.101
223.200	30.569	0.101
223.300	24.407	0.101
223.400	33.824	0.101
223.500	29.623	0.101
223.600	30.239	0.101
223.700	31.785	0.101
223.800	23.817	0.101
223.900	24.442	0.101
224.000	27.515	0.101
224.100	29.590	0.101
224.200	32.841	0.101
224.300	23.271	0.101
224.400	24.032	0.101
224.500	20.222	0.101
224.600	32.042	0.101
224.700	30.086	0.101
224.800	27.699	0.101
224.900	15.400	0.101
225.000	28.437	0.101
225.100	25.373	0.101
225.200	31.987	0.101
225.300	29.890	0.101
225.400	32.426	0.101
225.500	31.366	0.101
225.600	28.461	0.101
225.700	23.105	0.101
225.800	31.840	0.101
225.900	21.148	0.101
226.000	24.802	0.101
226.100	27.551	0.101
226.200	27.901	0.101
226.300	25.360	0.101
226.400	32.620	0.101
226.500	25.562	0.101
226.600	23.613	0.101
226.700	20.108	0.101
226.800	24.651	0.101
226.900	31.860	0.101
227.000	34.259	0.101
227.100	34.610	0.101
227.200	36.624	0.101
227.300	26.840	0.101
227.400	34.958	0.101
227.500	37.497	0.101
227.600	30.566	0.101
227.700	33.712	0.101
227.800	26.096	0.101
227.900	26.123	0.101
228.000	26.779	0.101
228.100	37.750	0.101
228.200	34.937	0.101
228.300	31.274	0.101
228.400	31.243	0.101
228.500	25.562	0.101
228.600	21.405	0.101
228.700	17.753	0.101
228.800	25.864	0.101
228.900	16.637	0.101
229.000	37.695	0.101
229.100	24.783	0.101
229.200	32.384	0.101
229.300	35.115	0.101
229.400	21.035	0.101
229.500	30.462	0.101
229.600	30.667	0.101
229.700	19.861	0.101
229.800	26.567	0.101
229.900	21.826	0.101
230.000	25.084	0.101
230.100	15.585	0.101
230.200	31.400	0.101
230.300	31.098	0.101
230.400	33.218	0.101
230.500	26.632	0.101
230.600	22.563	0.101
230.700	21.907	0.101
230.800	33.613	0.101
230.900	27.667	0.101
231.000	33.923	0.101
231.100	27.179	0.101
231.200	32.680	0.101
231.300	22.987	0.101
231.400	19.889	0.101
231.500	27.418	0.101
231.600	35.604	0.101
231.700	23.017	0.101
231.800	25.498	0.101
231.900	22.246	0.101
232.000	23.133	0.101
232.100	22.801	0.101
232.200	29.057	0.101
232.300	30.727	0.101
232.400	31.287	0.101
232.500	21.697	0.101
232.600	32.047	0.101
232.700	19.241	0.101
232.800	34.986	0.101
232.900	28.220	0.101
233.000	26.632	0.101
233.100	19.411	0.101
233.200	23.310	0.101
233.300	31.529	0.101
233.400	22.548	0.101
233.500	28.295	0.101
233.600	34.777	0.101
233.700	30.370	0.101
233.800	28.003	0.101
233.900	28.278	0.101
234.000	11.701	0.101
234.100	25.187	0.101
234.200	20.499	0.101
234.300	29.194	0.101
234.400	28.718	0.101
234.500	33.967	0.101
234.600	29.542	0.101
234.700	29.786	0.101
234.800	24.388	0.101
234.900	28.970	0.101
235.000	33.334	0.101
235.100	36.829	0.101
235.200	27.087	0.101
235.300	24.655	0.101
235.400	28.412	0.101
235.500	26.067	0.101
235.600	28.071	0.101
235.700	42.501	0.101
235.800	36.732	0.101
235.900	27.102	0.101
236.000	29.123	0.101
236.100	23.852	0.101
236.200	28.898	0.101
236.300	30.062	0.101
236.400	21.047	0.101
236.500	29.087	0.101
236.600	14.314	0.101
236.700	26.986	0.101
236.800	21.303	0.101
236.900	25.683	0.101
237.000	36.769	0.101
237.100	37.885	0.101
237.200	30.214	0.101
237.300	17.864	0.101
237.400	33.224	0.101
237.500	35.704	0.101
237.600	20.854	0.101
237.700	29.900	0.101
237.800	34.343	0.101
237.900	22.577	0.101
238.000	30.075	0.101
238.100	33.942	0.101
238.200	32.450	0.101
238.300	31.587	0.101
238.400	26.772	0.101
238.500	19.498	0.101
238.600	23.675	0.101
238.700	29.798	0.101
238.800	27.818	0.101
238.900	23.787	0.101
239.000	32.497	0.101
239.100	23.145	0.101
239.200	35.275	0.101
239.300	19.317	0.101
239.400	36.809	0.101
239.500	21.808	0.101
239.600	32.272	0.101
239.700	30.954	0.101
239.800	22.845	0.101
239.900	33.651	0.101
240.000	33.909	0.101
240.100	26.512	0.101
240.200	27.722	0.101
240.300	21.008	0.101
240.400	18.582	0.101
240.500	13.908	0.101
240.600	14.517	0.101
240.700	24.404	0.101
240.800	20.455	0.101
240.900	29.960	0.101
241.000	30.230	0.101
241.100	10.183	0.101
241.200	4.819	0.101
241.300	13.053	0.101
241.400	9.114	0.101
241.500	8.905	0.101
241.600	8.072	0.101
241.700	13.967	0.101
241.800	7.208	0.101
241.900	12.105	0.101
242.000	28.722	0.101
242.100	8.873	0.101
242.200	14.300	0.101
242.300	9.127	0.101
242.400	5.269	0.101
242.500	7.107	0.101
242.600	4.213	0.101
242.700	7.715	0.101
242.800	5.958	0.101
242.900	-1.936	0.101
243.000	-0.637	0.101
243.100	3.032	0.101
243.200	-4.854	0.101
243.300	0.275	0.101
243.400	7.595	0.101
243.500	5.524	0.101
243.600	5.404	0.101
243.700	-2.076	0.101
243.800	-1.576	0.101
243.900	5.149	0.101
244.000	6.288	0.101
244.100	2.258	0.101
244.200	8.716	0.101
244.300	-1.195	0.101
244.400	-6.161	0.101
244.500	-2.911	0.101
244.600	4.584	0.101
244.700	15.753	0.101
244.800	2.885	0.101
244.900	0.181	0.101
245.000	1.621	0.101
245.100	0.625	0.101
245.200	12.661	0.101
245.300	-2.145	0.101
245.400	3.766	0.101
245.500	0.294	0.101
245.600	-2.878	0.101
245.700	-5.044	0.101
245.800	-5.232	0.101
245.900	-4.320	0.101
246.000	3.537	0.101
246.100	11.102	0.101
246.200	-0.310	0.101
246.300	-1.783	0.101
246.400	3.625	0.101
246.500	-4.988	0.101
246.600	4.865	0.101
246.700	-5.684	0.101
246.800	-8.568	0.101
246.900	-11.711	0.101
247.000	3.693	0.101
247.100	6.276	0.101
247.200	8.368	0.101
247.300	6.513	0.101
247.400	7.575	0.101
247.500	-8.511	0.101
247.600	2.732	0.101
247.700	3.931	0.101
247.800	-14.726	0.101
247.900	-6.760	0.101
248.000	2.134	0.101
248.100	4.650	0.101
248.200	-2.825	0.101
248.300	-0.272	0.101
248.400	0.976	0.101
248.500	-7.071	0.101
248.600	-16.285	0.101
248.700	-4.468	0.101
248.800	-4.315	0.101
248.900	-3.240	0.101
249.000	-1.058	0.101
249.100	-5.889	0.101
249.200	8.243	0.101
249.300	4.219	0.101
249.400	-6.880	0.101
249.500	-0.821	0.101
249.600	-0.470	0.101
249.700	-4.982	0.101
249.800	-17.395	0.101
249.900	-6.712	0.101
250.000	-2.758	0.101
250.100	-5.301	0.101
250.200	7.886	0.101
250.300	-0.440	0.101
250.400	-5.789	0.101
250.500	-9.905	0.101
250.600	-5.208	0.101
250.700	-2.462	0.101
250.800	-1.469	0.101
250.900	0.924	0.101
251.000	-1.649	0.101
251.100	-16.621	0.101
251.200	-4.163	0.101
251.300	-1.082	0.101
251.400	0.588	0.101
251.500	1.543	0.101
251.600	-3.898	0.101
251.700	-3.774	0.101
251.800	-2.827	0.101
251.900	-9.894	0.101
252.000	-0.190	0.101
252.100	-5.420	0.101
252.200	-14.004	0.101
252.300	-15.584	0.101
252.400	-10.875	0.101
252.500	-2.688	0.101
252.600	-3.193	0.101
252.700	0.357	0.101
252.800	-12.804	0.101
252.900	2.900	0.101
253.000	0.583	0.101
253.100	0.121	0.101
253.200	-1.903	0.101
253.300	-1.459	0.101
253.400	-5.961	0.101
253.500	-3.347	0.101
253.600	-14.337	0.101
253.700	-12.089	0.101
253.800	-3.854	0.101
253.900	-3.794	0.101
254.000	-6.271	0.101
254.100	-8.573	0.101
254.200	-23.013	0.101
254.300	-19.542	0.101
254.400	-11.966	0.101
254.500	-12.343	0.101
254.600	-10.494	0.101
254.700	-10.664	0.101
254.800	-11.889	0.101
254.900	-9.731	0.101
255.000	-5.845	0.101
255.100	-2.591	0.101
255.200	-7.548	0.101
255.300	-5.552	0.101
255.400	-13.563	0.101
255.500	-17.607	0.101
255.600	-12.901	0.101
255.700	-8.774	0.101
255.800	-22.561	0.101
255.900	-3.524	0.101
256.000	-11.319	0.101
256.100	-5.452	0.101
256.200	-5.482	0.101
256.300	-21.889	0.101
256.400	-8.261	0.101
256.500	-9.941	0.101
256.600	-13.854	0.101
256.700	-11.372	0.101
256.800	-9.076	0.101
256.900	-8.349	0.101
257.000	-1.577	0.101
257.100	-10.694	0.101
257.200	-18.088	0.101
257.300	-19.394	0.101
257.400	-6.101	0.101
257.500	-10.703	0.101
257.600	-15.648	0.101
257.700	-10.800	0.101
257.800	-15.770	0.101
257.900	-12.044	0.101
258.000	0.281	0.101
258.100	-4.261	0.101
258.200	-6.184	0.101
258.300	-3.264	0.101
258.400	-18.179	0.101
258.500	-18.761	0.101
258.600	-13.455	0.101
258.700	-20.971	0.101
258.800	-13.402	0.101
258.900	-7.032	0.101
259.000	-11.823	0.101
259.100	-10.889	0.101
259.200	-6.008	0.101
259.300	-9.894	0.101
259.400	-16.677	0.101
259.500	-19.467	0.101
259.600	-9.939	0.101
259.700	-16.729	0.101
259.800	-15.527	0.101
259.900	-10.055	0.101
260.000	-2.645	0.101
260.100	-5.592	0.101
260.200	-24.282	0.101
260.300	-13.432	0.101
260.400	-17.484	0.101
260.500	-6.552	0.101
260.600	-15.947	0.101
260.700	-7.104	0.101
260.800	-24.518	0.101
260.900	-11.742	0.101
261.000	-9.217	0.101
261.100	-16.676	0.101
261.200	-16.972	0.101
261.300	-6.599	0.101
261.400	-14.447	0.101
261.500	-20.163	0.101
261.600	-24.937	0.101
261.700	-31.227	0.101
261.800	-22.379	0.101
261.900	-12.860	0.101
262.000	-21.137	0.101
262.100	-11.763	0.101
262.200	-16.551	0.101
262.300	-32.767	0.101
262.400	-20.490	0.101
262.500	1.392	0.101
262.600	-17.044	0.101
262.700	-13.560	0.101
262.800	-14.023	0.101
262.900	-4.932	0.101
263.000	-17.689	0.101
263.100	-13.670	0.101
263.200	-11.471	0.101
263.300	-9.006	0.101
263.400	-23.799	0.101
263.500	-15.881	0.101
263.600	-15.865	0.101
263.700	-6.844	0.101
263.800	-12.570	0.101
263.900	-12.900	0.101
264.000	-16.456	0.101
264.100	-23.491	0.101
264.200	-23.466	0.101
264.300	-18.056	0.101
264.400	-12.467	0.101
264.500	-16.509	0.101
264.600	-7.204	0.101
264.700	-16.048	0.101
264.800	-17.254	0.101
264.900	-20.101	0.101
265.000	-14.848	0.101
265.100	-14.715	0.101
265.200	-26.905	0.101
265.300	-12.177	0.101
265.400	-16.228	0.101
265.500	-18.393	0.101
265.600	-16.217	0.101
265.700	-11.363	0.101
265.800	-8.386	0.101
265.900	-16.094	0.101
266.000	-22.180	0.101
266.100	-19.515	0.101
266.200	-10.731	0.101
266.300	-19.939	0.101
266.400	-22.521	0.101
266.500	-18.411	0.101
266.600	-19.297	0.101
266.700	-27.810	0.101
266.800	-23.693	0.101
266.900	-4.726	0.101
267.000	-10.071	0.101
267.100	-14.025	0.101
267.200	-14.835	0.101
267.300	-25.608	0.101
267.400	-19.424	0.101
267.500	-20.653	0.101
267.600	-17.789	0.101
267.700	-22.285	0.101
267.800	-17.062	0.101
267.900	-22.702	0.101
268.000	-24.607	0.101
268.100	-13.843	0.101
268.200	-19.057	0.101
268.300	-12.490	0.101
268.400	-11.010	0.101
268.500	-22.519	0.101
268.600	-11.510	0.101
268.700	-15.528	0.101
268.800	-20.778	0.101
268.900	-17.342	0.101
269.000	-26.621	0.101
269.100	-14.884	0.101
269.200	-21.845	0.101
269.300	-7.983	0.101
269.400	-17.521	0.101
269.500	-26.193	0.101
269.600	-22.260	0.101
269.700	-20.321	0.101
269.800	-20.430	0.101
269.900	-17.480	0.101
270.000	-21.619	0.101
270.100	-14.817	0.101
270.200	-17.536	0.101
270.300	-23.906	0.101
270.400	-23.222	0.101
270.500	-17.508	0.101
270.600	-25.094	0.101
270.700	-18.341	0.101
270.800	-13.464	0.101
270.900	-12.034	0.101
271.000	-18.071	0.101
271.100	-16.967	0.101
271.200	-25.225	0.101
271.300	-25.527	0.101
271.400	-28.900	0.101
271.500	-16.419	0.101
271.600	-26.079	0.101
271.700	-18.382	0.101
271.800	-14.877	0.101
271.900	-12.808	0.101
272.000	-22.095	0.101
272.100	-17.978	0.101
272.200	-25.820	0.101
272.300	-28.846	0.101
272.400	-17.592	0.101
272.500	-13.331	0.101
272.600	-30.994	0.101
272.700	-30.703	0.101
272.800	-27.496	0.101
272.900	-7.175	0.101
273.000	-17.545	0.101
273.100	-25.043	0.101
273.200	-25.646	0.101
273.300	-12.678	0.101
273.400	-26.815	0.101
273.500	-22.304	0.101
273.600	-28.539	0.101
273.700	-23.596	0.101
273.800	-24.246	0.101
273.900	-18.479	0.101
274.000	-28.185	0.101
274.100	-15.118	0.101
274.200	-23.746	0.101
274.300	-19.080	0.101
274.400	-14.550	0.101
274.500	-24.850	0.101
274.600	-32.522	0.101
274.700	-13.218	0.101
274.800	-11.691	0.101
274.900	-9.551	0.101
275.000	-17.596	0.101
275.100	-11.307	0.101
275.200	-24.942	0.101
275.300	-32.217	0.101
275.400	-37.621	0.101
275.500	-20.932	0.101
275.600	-13.563	0.101
275.700	-14.336	0.101
275.800	-24.451	0.101
275.900	-19.018	0.101
276.000	-14.095	0.101
276.100	-18.564	0.101
276.200	-21.918	0.101
276.300	-23.165	0.101
276.400	-23.745	0.101
276.500	-14.634	0.101
276.600	-41.399	0.101
276.700	-21.707	0.101
276.800	-15.231	0.101
276.900	-35.090	0.101
277.000	-25.573	0.101
277.100	-21.858	0.101
277.200	-26.687	0.101
277.300	-12.032	0.101
277.400	-21.147	0.101
277.500	-19.300	0.101
277.600	-29.065	0.101
277.700	-12.550	0.101
277.800	-15.497	0.101
277.900	-25.148	0.101
278.000	-23.757	0.101
278.100	-21.058	0.101
278.200	-25.299	0.101
278.300	-27.783	0.101
278.400	-26.134	0.101
278.500	-9.564	0.101
278.600	-23.380	0.101
278.700	-15.284	0.101
278.800	-24.195	0.101
278.900	-18.889	0.101
279.000	-36.807	0.101
279.100	-16.473	0.101
279.200	-24.499	0.101
279.300	-9.938	0.101
279.400	-23.315	0.101
279.500	-24.057	0.101
279.600	-29.054	0.101
279.700	-20.723	0.101
279.800	-25.348	0.101
279.900	-23.950	0.101
280.000	-11.640	0.101
280.100	-18.973	0.101
280.200	-30.463	0.101
280.300	-13.688	0.101
280.400	-17.959	0.101
280.500	-24.450	0.101
280.600	-23.323	0.101
280.700	-11.509	0.101
280.800	-26.546	0.101
280.900	-20.544	0.101
281.000	-25.395	0.101
281.100	-25.056	0.101
281.200	-24.044	0.101
281.300	-18.732	0.101
281.400	-28.028	0.101
281.500	-21.332	0.101
281.600	-29.608	0.101
281.700	-20.114	0.101
281.800	-20.943	0.101
281.900	-22.004	0.101
282.000	-28.259	0.101
282.100	-11.058	0.101
282.200	-10.869	0.101
282.300	-11.989	0.101
282.400	-27.182	0.101
282.500	-23.927	0.101
282.600	-29.262	0.101
282.700	-20.904	0.101
282.800	-28.444	0.101
282.900	-27.640	0.101
283.000	-19.257	0.101
283.100	-13.731	0.101
283.200	-26.535	0.101
283.300	-20.665	0.101
283.400	-25.415	0.101
283.500	-22.407	0.101
283.600	-25.848	0.100
283.700	-21.226	0.101
283.800	-30.078	0.101
283.900	-16.777	0.101
284.000	-10.854	0.101
284.100	-26.358	0.101
284.200	-16.599	0.101
284.300	-21.738	0.101
284.400	-19.722	0.101
284.500	-15.233	0.101
284.600	-22.460	0.101
284.700	-21.420	0.101
284.800	-13.412	0.101
284.900	-30.191	0.101
285.000	-28.361	0.101
285.100	-17.902	0.101
285.200	-15.165	0.101
285.300	-19.039	0.101
285.400	-27.579	0.101
285.500	-25.559	0.101
285.600	-13.975	0.101
285.700	-22.265	0.101
285.800	-27.807	0.101
285.900	-16.015	0.101
286.000	-18.391	0.101
286.100	-12.016	0.101
286.200	-21.052	0.101
286.300	-20.090	0.101
286.400	-29.246	0.101
286.500	-15.475	0.101
286.600	-22.807	0.101
286.700	-24.745	0.101
286.800	-21.575	0.101
286.900	-24.467	0.101
287.000	-19.275	0.101
287.100	-20.817	0.101
287.200	-25.098	0.101
287.300	-22.235	0.101
287.400	-29.277	0.101
287.500	-24.146	0.101
287.600	-21.839	0.101
287.700	-22.530	0.101
287.800	-32.940	0.101
287.900	-27.168	0.101
288.000	-28.824	0.101
288.100	-22.927	0.101
288.200	-9.966	0.101
288.300	-10.850	0.101
288.400	-16.559	0.101
288.500	-20.685	0.101
288.600	-20.687	0.101
288.700	-26.056	0.101
288.800	-27.479	0.100
288.900	-25.847	0.101
289.000	-20.872	0.101
289.100	-18.371	0.101
289.200	-34.168	0.101
289.300	-10.899	0.101
289.400	-27.493	0.101
289.500	-14.649	0.101
289.600	-24.192	0.101
289.700	-20.051	0.101
289.800	-21.290	0.101
289.900	-15.970	0.101
290.000	-14.792	0.101
290.100	-15.875	0.101
290.200	-16.803	0.101
290.300	-21.695	0.101
290.400	-15.065	0.101
290.500	-14.132	0.101
290.600	-21.178	0.101
290.700	-26.919	0.101
290.800	-24.202	0.101
290.900	-33.992	0.101
291.000	-23.111	0.101
291.100	-16.594	0.101
291.200	-23.395	0.101
291.300	-15.508	0.101
291.400	-21.615	0.101
291.500	-20.277	0.101
291.600	-28.644	0.101
291.700	-16.245	0.101
291.800	-14.480	0.101
291.900	-14.704	0.101
292.000	-21.648	0.101
292.100	-15.669	0.101
292.200	-22.874	0.101
292.300	-19.675	0.101
292.400	-20.807	0.101
292.500	-12.132	0.101
292.600	-19.593	0.101
292.700	-32.338	0.101
292.800	-23.207	0.101
292.900	-12.794	0.101
293.000	-21.406	0.101
293.100	-25.236	0.101
293.200	-18.332	0.101
293.300	-25.544	0.101
293.400	-31.824	0.101
293.500	-25.196	0.101
293.600	-18.945	0.101
293.700	-18.679	0.101
293.800	-17.157	0.101
293.900	-13.081	0.101
294.000	-27.800	0.101
294.100	-24.121	0.101
294.200	-20.363	0.101
294.300	-27.309	0.101
294.400	-19.388	0.101
294.500	-25.640	0.101
294.600	-22.569	0.101
294.700	-16.868	0.101
294.800	-27.764	0.101
294.900	-22.256	0.101
295.000	-27.342	0.101
295.100	-13.707	0.101
295.200	-15.959	0.101
295.300	-20.320	0.101
295.400	-22.500	0.101
295.500	-25.133	0.101
295.600	-20.870	0.101
295.700	-27.029	0.101
295.800	-18.980	0.101
295.900	-16.814	0.101
296.000	-15.620	0.101
296.100	-22.316	0.101
296.200	-22.189	0.101
296.300	-16.547	0.101
296.400	-23.342	0.101
296.500	-27.995	0.101
296.600	-23.693	0.101
296.700	-20.150	0.101
296.800	-26.619	0.101
296.900	-19.374	0.101
297.000	-15.383	0.101
297.100	-21.357	0.101
297.200	-18.428	0.101
297.300	-13.696	0.101
297.400	-20.093	0.101
297.500	-16.769	0.101
297.600	-17.179	0.101
297.700	-25.483	0.101
297.800	-26.829	0.101
297.900	-17.078	0.101
298.000	-18.377	0.101
298.100	-14.570	0.101
298.200	-21.830	0.101
298.300	-23.538	0.101
298.400	-33.517	0.101
298.500	-20.116	0.101
298.600	-20.949	0.101
298.700	-29.643	0.101
298.800	-25.876	0.101
298.900	-14.194	0.101
299.000	-14.995	0.101
299.100	-26.812	0.101
299.200	-29.602	0.101
299.300	-23.922	0.101
299.400	-19.480	0.101
299.500	-17.232	0.101
299.600	-15.332	0.101
299.700	-17.470	0.101
299.800	-14.763	0.101
299.900	-16.666	0.101
300.000	-19.938	0.101
300.100	-21.518	0.101
300.200	-26.636	0.101
300.300	-22.814	0.101
300.400	-12.845	0.101
300.500	-14.996	0.101
300.600	-24.612	0.101
300.700	-19.347	0.101
300.800	-19.934	0.101
300.900	-22.983	0.101
301.000	-16.081	0.101
301.100	-20.241	0.101
301.200	-20.575	0.101
301.300	-15.611	0.101
301.400	-13.662	0.101
301.500	-26.809	0.101
301.600	-15.382	0.101
301.700	-17.530	0.101
301.800	-30.816	0.101
301.900	-17.202	0.101
302.000	-13.700	0.101
302.100	-14.686	0.101
302.200	-11.192	0.101
302.300	-19.020	0.101
302.400	-22.974	0.101
302.500	-23.364	0.101
302.600	-17.849	0.101
302.700	-21.209	0.101
302.800	-18.301	0.101
302.900	-24.843	0.101
303.000	-13.416	0.101
303.100	-15.725	0.101
303.200	-17.704	0.101
303.300	-22.031	0.101
303.400	-17.628	0.101
303.500	-9.136	0.101
303.600	-11.938	0.101
303.700	-13.814	0.101
303.800	-18.387	0.101
303.900	-20.849	0.101
304.000	-30.191	0.101
304.100	-24.153	0.101
304.200	-27.383	0.101
304.300	-15.124	0.101
304.400	-24.187	0.101
304.500	-21.439	0.101
304.600	-24.770	0.101
304.700	-20.041	0.101
304.800	-24.834	0.101
304.900	-31.779	0.101
305.000	-28.996	0.101
305.100	-24.689	0.101
305.200	-16.696	0.101
305.300	-14.190	0.101
305.400	-19.070	0.101
305.500	-19.827	0.101
305.600	-20.811	0.101
305.700	-22.916	0.101
305.800	-21.675	0.101
305.900	-18.400	0.101
306.000	-11.344	0.101
306.100	-20.817	0.101
306.200	-20.388	0.101
306.300	-13.920	0.101
306.400	-23.268	0.101
306.500	-20.156	0.101
306.600	-17.859	0.101
306.700	-15.765	0.101
306.800	-30.620	0.101
306.900	-21.465	0.101
307.000	-11.993	0.101
307.100	-19.635	0.101
307.200	-15.261	0.101
307.300	-15.571	0.101
307.400	-8.338	0.101
307.500	-18.328	0.101
307.600	-18.505	0.101
307.700	-28.417	0.101
307.800	-23.713	0.101
307.900	-19.678	0.101
308.000	-10.956	0.101
308.100	-24.067	0.101
308.200	-26.131	0.101
308.300	-17.228	0.101
308.400	-17.527	0.101
308.500	-15.350	0.101
308.600	-20.575	0.101
308.700	-18.921	0.101
308.800	-24.566	0.101
308.900	-22.639	0.101
309.000	-24.186	0.101
309.100	-18.246	0.101
309.200	-17.450	0.101
309.300	-15.285	0.101
309.400	-35.625	0.101
309.500	-20.736	0.101
309.600	-20.570	0.101
309.700	-28.765	0.101
309.800	-14.678	0.101
309.900	-15.459	0.101
310.000	-16.528	0.101
310.100	-29.957	0.101
310.200	-17.854	0.101
310.300	-15.793	0.101
310.400	-20.948	0.101
310.500	-18.880	0.101
310.600	-22.804	0.101
310.700	-24.853	0.101
310.800	-14.853	0.101
310.900	-13.810	0.101
311.000	-10.450	0.101
311.100	-8.878	0.101
311.200	-24.997	0.101
311.300	-27.527	0.101
311.400	-15.889	0.101
311.500	-21.968	0.101
311.600	-12.065	0.101
311.700	-13.919	0.101
311.800	-16.415	0.101
311.900	-15.087	0.101
312.000	-25.753	0.101
312.100	-16.347	0.101
312.200	-13.381	0.101
312.300	-12.524	0.101
312.400	-13.637	0.101
312.500	-31.316	0.101
312.600	-12.046	0.101
312.700	-28.036	0.101
312.800	-8.351	0.101
312.900	-4.990	0.101
313.000	-17.438	0.101
313.100	-21.545	0.101
313.200	-19.290	0.101
313.300	-11.376	0.101
313.400	-19.902	0.101
313.500	-32.178	0.101
313.600	-22.375	0.101
313.700	-22.204	0.101
313.800	-8.319	0.101
313.900	-7.069	0.101
314.000	-14.105	0.101
314.100	-9.794	0.101
314.200	-23.646	0.101
314.300	-17.781	0.101
314.400	-26.396	0.101
314.500	-24.205	0.101
314.600	-19.744	0.101
314.700	-23.018	0.101
314.800	-9.855	0.101
314.900	-11.631	0.101
315.000	-15.072	0.101
315.100	-24.834	0.101
315.200	-21.166	0.101
315.300	-16.116	0.101
315.400	-23.008	0.101
315.500	-22.377	0.101
315.600	-13.066	0.101
315.700	-22.470	0.101
315.800	-20.168	0.101
315.900	-10.597	0.101
316.000	-9.994	0.101
316.100	1.017	0.101
316.200	-14.752	0.101
316.300	-24.670	0.101
316.400	-18.273	0.101
316.500	-21.390	0.101
316.600	-18.702	0.101
316.700	-26.284	0.101
316.800	-15.764	0.101
316.900	-27.036	0.101
317.000	-19.013	0.101
317.100	-25.216	0.101
317.200	-16.720	0.101
317.300	-21.655	0.101
317.400	-8.533	0.101
317.500	-9.850	0.101
317.600	-15.248	0.101
317.700	-27.779	0.101
317.800	-17.837	0.101
317.900	-12.903	0.101
318.000	-20.805	0.101
318.100	-19.760	0.101
318.200	-5.386	0.101
318.300	-20.066	0.101
318.400	-15.059	0.101
318.500	-14.870	0.101
318.600	-12.744	0.101
318.700	-14.106	0.101
318.800	-20.351	0.101
318.900	-24.788	0.101
319.000	-22.205	0.101
319.100	-21.402	0.101
319.200	-14.852	0.101
319.300	-24.327	0.101
319.400	-17.462	0.101
319.500	-17.612	0.101
319.600	-17.649	0.101
319.700	-16.644	0.101
319.800	-13.347	0.101
319.900	-14.243	0.101
320.000	-15.035	0.101
320.100	-19.142	0.101
320.200	-16.044	0.101
320.300	-11.665	0.101
320.400	-13.888	0.101
320.500	-8.688	0.101
320.600	-20.514	0.101
320.700	-17.357	0.101
320.800	-16.809	0.101
320.900	-18.634	0.101
321.000	-12.964	0.101
321.100	-17.567	0.101
321.200	-12.745	0.101
321.300	-21.325	0.101
321.400	-23.661	0.101
321.500	-16.485	0.101
321.600	-17.798	0.101
321.700	-14.694	0.101
321.800	-14.002	0.101
321.900	-20.015	0.101
322.000	-25.130	0.101
322.100	-16.202	0.101
322.200	-20.347	0.101
322.300	-18.477	0.101
322.400	-13.262	0.101
322.500	-22.604	0.101
322.600	-5.021	0.101
322.700	-18.741	0.101
322.800	-19.321	0.101
322.900	-16.473	0.101
323.000	-16.680	0.101
323.100	-25.062	0.101
323.200	-13.190	0.101
323.300	-4.062	0.101
323.400	-15.897	0.101
323.500	-15.654	0.101
323.600	-17.472	0.101
323.700	-22.098	0.101
323.800	-14.508	0.101
323.900	-18.185	0.101
324.000	-18.071	0.101
324.100	-14.578	0.101
324.200	-13.411	0.101
324.300	-14.104	0.101
324.400	-15.965	0.101
324.500	-22.254	0.101
324.600	-23.175	0.101
324.700	-22.345	0.101
324.800	-10.492	0.101
324.900	-11.550	0.101
325.000	-15.357	0.101
325.100	-11.167	0.101
325.200	-13.158	0.101
325.300	-18.860	0.101
325.400	-3.382	0.101
325.500	-13.433	0.101
325.600	-13.739	0.101
325.700	-13.610	0.101
325.800	-6.290	0.101
325.900	-20.104	0.101
326.000	-13.482	0.101
326.100	-19.326	0.101
326.200	-22.197	0.101
326.300	-24.337	0.101
326.400	1.093	0.101
326.500	-15.049	0.101
326.600	-14.669	0.101
326.700	-15.215	0.101
326.800	-10.535	0.101
326.900	-29.821	0.101
327.000	-27.535	0.101
327.100	-10.479	0.101
327.200	-9.278	0.101
327.300	-11.291	0.101
327.400	-19.194	0.101
327.500	-13.499	0.101
327.600	-15.418	0.101
327.700	-16.203	0.101
327.800	-21.540	0.101
327.900	-10.905	0.101
328.000	-18.924	0.101
328.100	-15.280	0.101
328.200	-18.864	0.101
328.300	-19.177	0.101
328.400	-17.029	0.101
328.500	-19.452	0.101
328.600	-9.789	0.101
328.700	-14.415	0.101
328.800	-10.377	0.101
328.900	-21.913	0.101
329.000	-9.609	0.101
329.100	-7.975	0.101
329.200	-12.612	0.101
329.300	-17.425	0.101
329.400	-13.478	0.101
329.500	-19.950	0.101
329.600	-17.025	0.101
329.700	-5.970	0.101
329.800	-10.451	0.101
329.900	-17.841	0.101
330.000	-26.102	0.101
330.100	-12.301	0.101
330.200	-5.392	0.101
330.300	-13.372	0.101
330.400	-18.737	0.101
330.500	-20.540	0.101
330.600	-8.323	0.101
330.700	-8.104	0.101
330.800	-16.081	0.101
330.900	-6.056	0.101
331.000	-8.292	0.101
331.100	-11.788	0.101
331.200	-7.812	0.101
331.300	-5.159	0.101
331.400	9.101	0.101
331.500	9.157	0.101
331.600	4.326	0.101
331.700	6.233	0.101
331.800	-1.271	0.101
331.900	7.809	0.101
332.000	4.653	0.101
332.100	17.180	0.101
332.200	10.154	0.101
332.300	13.938	0.101
332.400	-6.069	0.101
332.500	3.193	0.101
332.600	6.240	0.101
332.700	8.408	0.101
332.800	7.891	0.101
332.900	10.802	0.101
333.000	18.682	0.101
333.100	4.841	0.101
333.200	11.631	0.101
333.300	14.329	0.101
333.400	13.829	0.101
333.500	16.494	0.101
333.600	22.016	0.101
333.700	11.733	0.101
333.800	9.677	0.101
333.900	8.671	0.101
334.000	18.061	0.101
334.100	12.355	0.101
334.200	27.512	0.101
334.300	10.860	0.101
334.400	10.911	0.101
334.500	14.777	0.101
334.600	14.642	0.101
334.700	19.460	0.101
334.800	19.223	0.101
334.900	11.599	0.101
335.000	8.532	0.101
335.100	14.635	0.101
335.200	15.719	0.101
335.300	9.299	0.101
335.400	14.133	0.101
335.500	17.130	0.101
335.600	15.923	0.101
335.700	16.779	0.101
335.800	17.746	0.101
335.900	1.165	0.101
336.000	7.982	0.101
336.100	7.116	0.101
336.200	13.003	0.101
336.300	6.898	0.101
336.400	21.595	0.101
336.500	12.801	0.101
336.600	9.693	0.101
336.700	5.467	0.101
336.800	11.754	0.101
336.900	10.932	0.101
337.000	22.649	0.101
337.100	13.995	0.101
337.200	18.203	0.101
337.300	8.238	0.101
337.400	8.643	0.101
337.500	12.021	0.101
337.600	16.605	0.101
337.700	9.432	0.101
337.800	17.263	0.101
337.900	9.184	0.101
338.000	11.444	0.101
338.100	1.458	0.101
338.200	18.751	0.101
338.300	16.529	0.101
338.400	17.442	0.101
338.500	8.484	0.101
338.600	4.100	0.101
338.700	16.040	0.101
338.800	8.177	0.101
338.900	7.996	0.101
339.000	20.563	0.101
339.100	11.180	0.101
339.200	12.998	0.101
339.300	13.307	0.101
339.400	13.438	0.101
339.500	17.210	0.101
339.600	9.189	0.101
339.700	10.637	0.101
339.800	6.575	0.101
339.900	14.598	0.101
340.000	30.017	0.101
340.100	15.379	0.101
340.200	8.382	0.101
340.300	6.452	0.101
340.400	10.793	0.101
340.500	7.825	0.101
340.600	18.244	0.101
340.700	8.229	0.101
340.800	9.245	0.101
340.900	18.480	0.101
341.000	13.815	0.101
341.100	7.680	0.101
341.200	13.643	0.101
341.300	13.129	0.101
341.400	22.202	0.101
341.500	9.381	0.101
341.600	15.728	0.101
341.700	9.595	0.101
341.800	17.174	0.101
341.900	12.815	0.101
342.000	13.074	0.101
342.100	10.413	0.101
342.200	19.610	0.101
342.300	21.952	0.101
342.400	12.871	0.101
342.500	7.777	0.101
342.600	21.868	0.101
342.700	12.424	0.101
342.800	10.213	0.101
342.900	7.602	0.101
343.000	10.971	0.101
343.100	9.838	0.101
343.200	11.356	0.101
343.300	15.135	0.101
343.400	16.018	0.101
343.500	14.974	0.101
343.600	3.794	0.101
343.700	5.897	0.101
343.800	15.423	0.101
343.900	14.594	0.101
344.000	23.554	0.101
344.100	17.905	0.101
344.200	19.803	0.101
344.300	25.001	0.101
344.400	17.079	0.101
344.500	17.433	0.101
344.600	5.678	0.101
344.700	8.731	0.101
344.800	13.457	0.101
344.900	7.181	0.101
345.000	4.267	0.101
345.100	14.299	0.101
345.200	21.634	0.101
345.300	16.603	0.101
345.400	15.922	0.101
345.500	14.035	0.101
345.600	17.019	0.101
345.700	13.501	0.101
345.800	17.313	0.101
345.900	19.604	0.101
346.000	11.598	0.101
346.100	20.852	0.101
346.200	16.217	0.101
346.300	17.082	0.101
346.400	24.292	0.101
346.500	18.294	0.101
346.600	11.827	0.101
346.700	10.412	0.101
346.800	18.967	0.101
346.900	11.529	0.101
347.000	15.263	0.101
347.100	18.832	0.101
347.200	8.134	0.101
347.300	1.165	0.101
347.400	12.944	0.101
347.500	19.843	0.101
347.600	21.392	0.101
347.700	16.473	0.101
347.800	13.557	0.101
347.900	22.961	0.101
348.000	26.442	0.101
348.100	15.519	0.101
348.200	10.342	0.101
348.300	9.438	0.101
348.400	16.179	0.101
348.500	12.840	0.101
348.600	17.449	0.101
348.700	21.727	0.101
348.800	19.724	0.101
348.900	28.210	0.101
349.000	12.238	0.101
349.100	19.744	0.101
349.200	21.336	0.101
349.300	14.108	0.101
349.400	21.244	0.101
349.500	23.673	0.101
349.600	18.254	0.101
349.700	11.970	0.101
349.800	17.524	0.101
349.900	29.592	0.101
350.000	14.934	0.101
350.100	23.652	0.101
350.200	27.242	0.101
350.300	22.941	0.101
350.400	15.716	0.101
350.500	27.770	0.101
350.600	25.940	0.101
350.700	9.367	0.101
350.800	22.011	0.101
350.900	18.042	0.101
351.000	19.626	0.101
351.100	26.889	0.101
351.200	25.279	0.101
351.300	23.706	0.101
351.400	21.580	0.101
351.500	10.704	0.101
351.600	19.804	0.101
351.700	12.369	0.101
351.800	23.178	0.101
351.900	24.909	0.101
352.000	28.031	0.101
352.100	26.535	0.101
352.200	19.248	0.101
352.300	23.865	0.101
352.400	15.584	0.101
352.500	16.312	0.101
352.600	15.205	0.101
352.700	28.913	0.101
352.800	25.430	0.101
352.900	16.889	0.101
353.000	28.913	0.101
353.100	20.914	0.101
353.200	20.189	0.101
353.300	28.445	0.101
353.400	29.440	0.101
353.500	21.125	0.101
353.600	31.526	0.101
353.700	26.209	0.101
353.800	28.010	0.101
353.900	16.464	0.101
354.000	28.441	0.101
354.100	34.019	0.101
354.200	27.642	0.101
354.300	31.286	0.101
354.400	29.444	0.101
354.500	18.219	0.101
354.600	32.036	0.101
354.700	27.400	0.101
354.800	24.948	0.101
354.900	34.121	0.101
355.000	22.183	0.101
355.100	23.328	0.101
355.200	25.715	0.101
355.300	21.318	0.101
355.400	28.219	0.101
355.500	28.113	0.101
355.600	33.982	0.101
355.700	16.924	0.101
355.800	32.920	0.101
355.900	31.151	0.101
356.000	28.909	0.101
356.100	27.476	0.101
356.200	20.304	0.101
356.300	33.369	0.101
356.400	25.291	0.101
356.500	27.306	0.101
356.600	25.305	0.101
356.700	20.465	0.101
356.800	37.303	0.101
356.900	39.346	0.101
357.000	34.309	0.101
357.100	28.146	0.101
357.200	22.867	0.101
357.300	17.396	0.101
357.400	18.531	0.101
357.500	24.469	0.101
357.600	34.239	0.101
357.700	37.537	0.101
357.800	30.312	0.101
357.900	24.349	0.101
358.000	31.636	0.101
358.100	28.745	0.101
358.200	25.910	0.101
358.300	34.391	0.101
358.400	25.183	0.101
358.500	24.935	0.101
358.600	29.488	0.101
358.700	24.296	0.101
358.800	24.934	0.101
358.900	27.891	0.101
359.000	31.381	0.101
359.100	29.024	0.101
359.200	27.727	0.101
359.300	34.389	0.101
359.400	29.965	0.101
359.500	31.074	0.101
359.600	31.356	0.101
359.700	21.546	0.101
359.800	28.935	0.101
359.900	23.903	0.101
360.000	33.914	0.101
360.100	31.860	0.101
360.200	20.740	0.101
360.300	28.292	0.101
360.400	26.995	0.101
360.500	30.382	0.101
360.600	35.357	0.101
360.700	27.338	0.101
360.800	30.202	0.101
360.900	21.914	0.101
361.000	25.589	0.101
361.100	36.654	0.101
361.200	36.039	0.101
361.300	30.942	0.101
361.400	25.027	0.101
361.500	16.310	0.101
361.600	33.856	0.101
361.700	23.818	0.101
361.800	35.771	0.101
361.900	34.424	0.101
362.000	31.192	0.101
362.100	37.021	0.101
362.200	34.280	0.101
362.300	35.267	0.101
362.400	30.200	0.101
362.500	33.427	0.101
362.600	41.377	0.101
362.700	30.088	0.101
362.800	23.278	0.101
362.900	26.931	0.101
363.000	29.154	0.101
363.100	31.737	0.101
363.200	31.593	0.101
363.300	35.293	0.101
363.400	24.766	0.101
363.500	25.470	0.101
363.600	27.596	0.101
363.700	30.067	0.101
363.800	39.573	0.101
363.900	32.165	0.101
364.000	36.930	0.101
364.100	24.271	0.101
364.200	28.114	0.101
364.300	22.482	0.101
364.400	27.965	0.101
364.500	29.230	0.101
364.600	36.074	0.101
364.700	39.336	0.101
364.800	24.817	0.101
364.900	27.701	0.101
365.000	25.642	0.101
365.100	35.873	0.101
365.200	29.803	0.101
365.300	30.223	0.101
365.400	33.125	0.101
365.500	32.292	0.101
365.600	27.980	0.101
365.700	36.254	0.101
365.800	32.860	0.101
365.900	33.258	0.101
366.000	28.109	0.101
366.100	26.110	0.101
366.200	27.730	0.101
366.300	38.240	0.101
366.400	26.326	0.101
366.500	33.670	0.101
366.600	24.281	0.101
366.700	29.179	0.101
366.800	36.653	0.101
366.900	21.120	0.101
367.000	31.188	0.101
367.100	27.318	0.101
367.200	29.157	0.101
367.300	37.282	0.101
367.400	23.570	0.101
367.500	28.971	0.101
367.600	27.473	0.101
367.700	28.460	0.101
367.800	29.934	0.101
367.900	38.141	0.101
368.000	34.586	0.101
368.100	38.826	0.101
368.200	28.024	0.101
368.300	29.564	0.101
368.400	20.910	0.101
368.500	28.852	0.101
368.600	31.669	0.101
368.700	34.929	0.101
368.800	24.631	0.101
368.900	41.078	0.101
369.000	28.053	0.101
369.100	23.556	0.101
369.200	26.967	0.101
369.300	28.740	0.101
369.400	34.684	0.101
369.500	33.086	0.101
369.600	28.854	0.101
369.700	42.884	0.101
369.800	21.822	0.101
369.900	26.246	0.101
370.000	33.152	0.101
370.100	24.668	0.101
370.200	29.168	0.101
370.300	28.233	0.101
370.400	30.950	0.101
370.500	26.656	0.101
370.600	31.056	0.101
370.700	40.636	0.101
370.800	26.057	0.101
370.900	31.059	0.101
371.000	28.215	0.101
371.100	37.031	0.101
371.200	35.010	0.101
371.300	34.522	0.101
371.400	40.558	0.101
371.500	31.602	0.101
371.600	32.047	0.101
371.700	30.331	0.101
371.800	26.647	0.101
371.900	27.018	0.101
372.000	24.427	0.101
372.100	31.216	0.101
372.200	34.944	0.101
372.300	40.158	0.101
372.400	31.684	0.101
372.500	45.083	0.101
372.600	28.716	0.101
372.700	30.972	0.101
372.800	22.394	0.101
372.900	29.950	0.101
373.000	15.756	0.101
373.100	29.533	0.101
373.200	44.839	0.101
373.300	35.226	0.101
373.400	37.062	0.101
373.500	22.684	0.101
373.600	28.246	0.101
373.700	34.364	0.101
373.800	32.505	0.101
373.900	23.269	0.101
374.000	30.632	0.101
374.100	30.476	0.101
374.200	28.187	0.101
374.300	39.241	0.101
374.400	36.075	0.101
374.500	39.496	0.101
374.600	34.154	0.101
374.700	20.047	0.101
374.800	33.994	0.101
374.900	41.553	0.101
375.000	31.645	0.101
375.100	43.672	0.101
375.200	34.064	0.101
375.300	22.914	0.101
375.400	26.332	0.101
375.500	35.422	0.101
375.600	30.184	0.101
375.700	34.250	0.101
375.800	36.576	0.101
375.900	26.142	0.101
376.000	23.993	0.101
376.100	24.398	0.101
376.200	33.606	0.101
376.300	31.788	0.101
376.400	38.527	0.101
376.500	30.732	0.101
376.600	32.133	0.101
376.700	29.944	0.101
376.800	27.638	0.101
376.900	31.919	0.101
377.000	34.671	0.101
377.100	38.804	0.101
377.200	32.420	0.101
377.300	22.768	0.101
377.400	26.036	0.101
377.500	27.597	0.101
377.600	37.011	0.101
377.700	25.298	0.101
377.800	29.136	0.101
377.900	32.014	0.101
378.000	36.477	0.101
378.100	28.706	0.101
378.200	27.560	0.101
378.300	32.175	0.101
378.400	24.931	0.101
378.500	24.622	0.101
378.600	21.403	0.101
378.700	25.539	0.101
378.800	23.617	0.101
378.900	44.400	0.101
379.000	38.196	0.101
379.100	37.780	0.101
379.200	20.337	0.101
379.300	23.981	0.101
379.400	31.598	0.101
379.500	38.919	0.101
379.600	31.035	0.101
379.700	33.679	0.101
379.800	28.778	0.101
379.900	38.201	0.101
380.000	41.708	0.101
380.100	32.891	0.101
380.200	25.403	0.101
380.300	39.384	0.101
380.400	33.936	0.101
380.500	35.468	0.101
380.600	27.403	0.101
380.700	30.067	0.101
380.800	32.735	0.101
380.900	32.797	0.101
381.000	30.854	0.101
381.100	31.119	0.101
381.200	39.256	0.101
381.300	37.771	0.101
381.400	33.524	0.101
381.500	31.491	0.101
381.600	29.110	0.101
381.700	17.033	0.101
381.800	21.699	0.101
381.900	34.997	0.101
382.000	40.220	0.101
382.100	42.332	0.101
382.200	19.815	0.101
382.300	35.641	0.101
382.400	36.071	0.101
382.500	36.326	0.101
382.600	15.611	0.101
382.700	30.300	0.101
382.800	22.065	0.101
382.900	28.621	0.101
383.000	28.984	0.101
383.100	22.860	0.101
383.200	24.300	0.101
383.300	34.559	0.101
383.400	32.872	0.101
383.500	29.457	0.101
383.600	33.632	0.101
383.700	25.517	0.101
383.800	28.636	0.101
383.900	23.616	0.101
384.000	29.645	0.101
384.100	23.154	0.101
384.200	30.504	0.101
384.300	31.841	0.101
384.400	29.117	0.101
384.500	25.776	0.101
384.600	30.632	0.101
384.700	32.822	0.101
384.800	36.385	0.101
384.900	35.626	0.101
385.000	19.084	0.101
385.100	22.982	0.101
385.200	25.062	0.101
385.300	30.386	0.101
385.400	35.671	0.101
385.500	38.908	0.101
385.600	33.294	0.101
385.700	28.734	0.101
385.800	15.047	0.101
385.900	34.696	0.101
386.000	29.903	0.101
386.100	39.825	0.101
386.200	27.833	0.101
386.300	22.959	0.101
386.400	31.005	0.101
386.500	32.963	0.101
386.600	36.909	0.101
386.700	31.248	0.101
386.800	31.320	0.101
386.900	28.693	0.101
387.000	32.991	0.101
387.100	43.280	0.101
387.200	36.277	0.101
387.300	26.057	0.101
387.400	25.370	0.101
387.500	36.106	0.101
387.600	23.217	0.101
387.700	31.848	0.101
387.800	26.896	0.101
387.900	32.572	0.101
388.000	27.861	0.101
388.100	36.844	0.101
388.200	40.766	0.101
388.300	34.431	0.101
388.400	20.903	0.101
388.500	25.700	0.101
388.600	22.597	0.101
388.700	39.059	0.101
388.800	32.510	0.101
388.900	29.250	0.101
389.000	46.296	0.101
389.100	34.829	0.101
389.200	28.787	0.101
389.300	33.081	0.101
389.400	28.367	0.101
389.500	26.518	0.101
389.600	34.813	0.101
389.700	34.596	0.101
389.800	28.756	0.101
389.900	22.082	0.101
390.000	24.368	0.101
390.100	28.889	0.101
390.200	30.610	0.101
390.300	40.422	0.101
390.400	29.896	0.101
390.500	25.035	0.101
390.600	34.388	0.101
390.700	37.839	0.101
390.800	17.982	0.101
390.900	17.910	0.101
391.000	14.979	0.101
391.100	27.089	0.101
391.200	15.554	0.101
391.300	23.000	0.101
391.400	1.606	0.101
391.500	18.337	0.101
391.600	11.933	0.101
391.700	15.938	0.101
391.800	17.024	0.101
391.900	13.075	0.101
392.000	-0.162	0.101
392.100	7.663	0.101
392.200	15.308	0.101
392.300	7.630	0.101
392.400	-3.773	0.101
392.500	13.211	0.101
392.600	2.969	0.101
392.700	1.053	0.101
392.800	1.828	0.101
392.900	5.295	0.101
393.000	13.239	0.101
393.100	16.918	0.101
393.200	2.708	0.101
393.300	9.308	0.101
393.400	-3.330	0.101
393.500	-5.362	0.101
393.600	2.324	0.101
393.700	8.601	0.101
393.800	6.387	0.101
393.900	7.100	0.101
394.000	-3.474	0.101
394.100	2.469	0.101
394.200	6.718	0.101
394.300	8.317	0.101
394.400	5.165	0.101
394.500	-7.271	0.101
394.600	-5.623	0.101
394.700	-3.867	0.101
394.800	-3.889	0.101
394.900	6.514	0.101
395.000	1.866	0.101
395.100	-0.003	0.101
395.200	8.165	0.101
395.300	6.120	0.101
395.400	-2.167	0.101
395.500	2.660	0.101
395.600	-0.974	0.101
395.700	9.130	0.101
395.800	5.551	0.101
395.900	-0.262	0.101
396.000	-11.618	0.101
396.100	6.552	0.101
396.200	-0.832	0.101
396.300	-4.693	0.101
396.400	1.687	0.101
396.500	3.647	0.101
396.600	-9.708	0.101
396.700	12.552	0.101
396.800	5.755	0.101
396.900	3.953	0.101
397.000	1.288	0.101
397.100	0.622	0.101
397.200	-8.512	0.101
397.300	-3.300	0.101
397.400	6.204	0.101
397.500	10.419	0.101
397.600	5.480	0.101
397.700	7.132	0.101
397.800	-1.854	0.101
397.900	-2.179	0.101
398.000	4.519	0.101
398.100	6.656	0.101
398.200	-7.493	0.101
398.300	-9.186	0.101
398.400	4.707	0.101
398.500	6.759	0.101
398.600	3.399	0.101
398.700	-1.286	0.101
398.800	-5.032	0.101
398.900	-1.515	0.101
399.000	-1.184	0.101
399.100	-0.209	0.101
399.200	2.449	0.101
399.300	0.928	0.101
399.400	-0.624	0.101
399.500	-4.411	0.101
399.600	-7.781	0.101
399.700	-11.887	0.101
399.800	0.398	0.101
399.900	4.040	0.101
400.000	-7.240	0.101
400.100	-7.766	0.101
400.200	-5.060	0.101
400.300	-3.391	0.101
400.400	-0.973	0.101
400.500	-2.987	0.101
400.600	5.868	0.101
400.700	-4.070	0.101
400.800	-1.731	0.101
400.900	-8.760	0.101
401.000	-7.199	0.101
401.100	-5.661	0.101
401.200	-8.646	0.101
401.300	2.676	0.101
401.400	-1.154	0.101
401.500	-3.530	0.101
401.600	-1.761	0.101
401.700	-3.500	0.101
401.800	-0.642	0.101
401.900	-5.442	0.101
402.000	3.640	0.101
402.100	-2.084	0.101
402.200	-7.606	0.101
402.300	8.180	0.101
402.400	-4.063	0.101
402.500	-2.217	0.101
402.600	-11.736	0.101
402.700	-4.430	0.101
402.800	-2.873	0.101
402.900	6.514	0.101
403.000	-9.149	0.101
403.100	-1.914	0.101
403.200	-9.540	0.101
403.300	-6.287	0.101
403.400	-5.903	0.101
403.500	-1.031	0.101
403.600	-12.037	0.101
403.700	-10.644	0.101
403.800	-13.110	0.101
403.900	-9.164	0.101
404.000	-8.729	0.101
404.100	-7.087	0.101
404.200	-3.701	0.101
404.300	-3.595	0.101
404.400	-8.541	0.101
404.500	-7.650	0.101
404.600	-16.210	0.101
404.700	-11.160	0.101
404.800	-11.111	0.101
404.900	-9.950	0.101
405.000	-6.386	0.101
405.100	-1.247	0.101
405.200	1.200	0.101
405.300	-8.297	0.101
405.400	-10.707	0.101
405.500	-1.201	0.101
405.600	-7.752	0.101
405.700	-6.677	0.101
405.800	-10.893	0.101
405.900	-10.258	0.101
406.000	2.645	0.101
406.100	-0.816	0.101
406.200	-8.233	0.101
406.300	-11.407	0.101
406.400	-22.327	0.101
406.500	-2.586	0.101
406.600	-9.127	0.101
406.700	-16.290	0.101
406.800	-8.992	0.101
406.900	-17.320	0.101
407.000	-15.266	0.101
407.100	-2.616	0.101
407.200	-3.212	0.101
407.300	-9.399	0.101
407.400	-17.046	0.101
407.500	-3.448	0.101
407.600	-13.510	0.101
407.700	-8.054	0.101
407.800	-7.843	0.101
407.900	-14.444	0.101
408.000	-15.203	0.101
408.100	-15.675	0.101
408.200	-13.826	0.101
408.300	-7.133	0.101
408.400	-15.350	0.101
408.500	-15.889	0.101
408.600	-0.143	0.101
408.700	-4.294	0.101
408.800	-9.673	0.101
408.900	-11.686	0.101
409.000	-17.822	0.101
409.100	-5.539	0.101
409.200	-12.165	0.101
409.300	-4.576	0.101
409.400	-11.902	0.101
409.500	-17.458	0.101
409.600	-15.470	0.101
409.700	-23.066	0.101
409.800	-24.625	0.101
409.900	-20.795	0.101
410.000	-18.832	0.101
410.100	-20.779	0.101
410.200	-9.332	0.101
410.300	-12.945	0.101
410.400	-13.180	0.101
410.500	-18.023	0.101
410.600	-10.341	0.101
410.700	-7.736	0.101
410.800	-12.544	0.101
410.900	-6.453	0.101
411.000	3.935	0.101
411.100	-16.243	0.101
411.200	-13.039	0.101
411.300	-12.438	0.101
411.400	-24.888	0.101
411.500	-15.083	0.101
411.600	-22.832	0.101
411.700	-13.765	0.101
411.800	-17.828	0.101
411.900	-21.141	0.101
412.000	-19.133	0.101
412.100	-12.443	0.101
412.200	-8.739	0.101
412.300	-0.619	0.101
412.400	-13.343	0.101
412.500	-8.060	0.101
412.600	-14.265	0.101
412.700	-21.504	0.101
412.800	-17.356	0.101
412.900	-13.679	0.101
413.000	-13.275	0.101
413.100	-15.058	0.101
413.200	-16.207	0.101
413.300	-22.002	0.101
413.400	-24.061	0.101
413.500	-5.284	0.101
413.600	-8.239	0.101
413.700	-17.227	0.101
413.800	-20.452	0.101
413.900	-16.763	0.101
414.000	-18.122	0.101
414.100	-5.916	0.101
414.200	-10.751	0.101
414.300	-21.178	0.101
414.400	-22.375	0.101
414.500	-15.835	0.101
414.600	-16.864	0.101
414.700	-14.935	0.101
414.800	-24.256	0.101
414.900	-8.798	0.101
415.000	-17.266	0.101
415.100	-12.529	0.101
415.200	-13.777	0.101
415.300	-16.889	0.101
415.400	-18.982	0.101
415.500	-19.202	0.101
415.600	-18.232	0.101
415.700	-22.687	0.101
415.800	-20.577	0.101
415.900	-30.036	0.101
416.000	-21.302	0.101
416.100	-19.689	0.101
416.200	-28.998	0.101
416.300	-16.160	0.101
416.400	-11.590	0.101
416.500	-16.544	0.101
416.600	-21.041	0.101
416.700	-27.656	0.101
416.800	-25.363	0.101
416.900	-15.059	0.101
417.000	-19.067	0.101
417.100	-21.947	0.101
417.200	-15.380	0.101
417.300	-24.627	0.101
417.400	-4.188	0.101
417.500	-21.637	0.101
417.600	-21.107	0.101
417.700	-23.159	0.101
417.800	-20.720	0.101
417.900	-21.180	0.101
418.000	-18.308	0.101
418.100	-20.083	0.101
418.200	-11.997	0.101
418.300	-16.063	0.101
418.400	-29.334	0.101
418.500	-21.390	0.101
418.600	-24.636	0.101
418.700	-24.924	0.101
418.800	-22.124	0.101
418.900	-16.874	0.101
419.000	-23.002	0.101
419.100	-23.507	0.101
419.200	-27.919	0.101
419.300	-27.244	0.101
419.400	-16.911	0.101
419.500	-14.932	0.101
419.600	-20.594	0.101
419.700	-9.628	0.101
419.800	-13.387	0.101
419.900	-20.564	0.101
420.000	-19.327	0.101
420.100	-23.992	0.101
420.200	-27.040	0.101
420.300	-27.220	0.101
420.400	-19.956	0.101
420.500	-24.737	0.101
420.600	-15.175	0.101
420.700	-21.171	0.101
420.800	-20.659	0.101
420.900	-19.637	0.101
421.000	-19.898	0.101
421.100	-28.802	0.101
421.200	-18.493	0.101
421.300	-24.302	0.101
421.400	-22.502	0.101
421.500	-33.975	0.101
421.600	-22.739	0.101
421.700	-17.158	0.101
421.800	-24.501	0.101
421.900	-20.313	0.101
422.000	-23.629	0.101
422.100	-15.099	0.101
422.200	-21.170	0.101
422.300	-16.275	0.101
422.400	-11.211	0.101
422.500	-18.279	0.101
422.600	-21.213	0.101
422.700	-15.048	0.101
422.800	-22.245	0.101
422.900	-24.802	0.101
423.000	-22.284	0.101
423.100	-17.665	0.101
423.200	-27.909	0.101
423.300	-25.040	0.101
423.400	-23.046	0.101
423.500	-22.705	0.101
423.600	-20.165	0.101
423.700	-23.851	0.101
423.800	-20.592	0.101
423.900	-23.737	0.101
424.000	-14.798	0.101
424.100	-22.121	0.101
424.200	-17.235	0.101
424.300	-31.023	0.101
424.400	-11.822	0.101
424.500	-15.646	0.101
424.600	-16.262	0.101
424.700	-19.776	0.101
424.800	-21.368	0.101
424.900	-14.456	0.101
425.000	-16.874	0.101
425.100	-28.382	0.101
425.200	-25.543	0.101
425.300	-23.459	0.101
425.400	-25.781	0.101
425.500	-24.359	0.101
425.600	-25.698	0.101
425.700	-25.088	0.101
425.800	-18.311	0.101
425.900	-11.809	0.101
426.000	-19.125	0.101
426.100	-26.528	0.101
426.200	-34.758	0.101
426.300	-31.221	0.101
426.400	-22.419	0.101
426.500	-23.930	0.101
426.600	-9.954	0.101
426.700	-15.042	0.101
426.800	-21.277	0.101
426.900	-33.381	0.101
427.000	-29.378	0.101
427.100	-20.041	0.101
427.200	-11.089	0.101
427.300	-17.306	0.101
427.400	-15.875	0.101
427.500	-22.874	0.101
427.600	-18.543	0.101
427.700	-19.507	0.101
427.800	-21.765	0.101
427.900	-23.304	0.101
428.000	-23.751	0.101
428.100	-27.257	0.101
428.200	-19.979	0.101
428.300	-22.313	0.101
428.400	-25.389	0.101
428.500	-15.310	0.101
428.600	-24.164	0.101
428.700	-23.900	0.101
428.800	-25.876	0.101
428.900	-25.942	0.101
429.000	-22.975	0.101
429.100	-23.591	0.101
429.200	-16.965	0.101
429.300	-17.843	0.101
429.400	-18.555	0.101
429.500	-21.283	0.101
429.600	-22.483	0.101
429.700	-19.950	0.101
429.800	-14.830	0.101
429.900	-27.363	0.101
430.000	-30.009	0.101
430.100	-16.988	0.101
430.200	-19.379	0.101
430.300	-17.007	0.101
430.400	-12.574	0.101
430.500	-31.469	0.101
430.600	-30.752	0.101
430.700	-19.654	0.101
430.800	-24.011	0.101
430.900	-22.503	0.101
431.000	-19.915	0.101
431.100	-23.208	0.101
431.200	-26.125	0.101
431.300	-18.489	0.101
431.400	-16.808	0.101
431.500	-25.617	0.101
431.600	-19.387	0.101
431.700	-27.474	0.101
431.800	-28.600	0.101
431.900	-26.458	0.101
432.000	-20.424	0.101
432.100	-37.048	0.101
432.200	-28.985	0.101
432.300	-27.990	0.101
432.400	-20.224	0.101
432.500	-32.417	0.101
432.600	-22.375	0.101
432.700	-25.273	0.101
432.800	-22.595	0.101
432.900	-17.087	0.101
433.000	-16.255	0.101
433.100	-27.265	0.101
433.200	-15.554	0.101
433.300	-15.483	0.101
433.400	-11.154	0.101
433.500	-28.170	0.101
433.600	-22.084	0.101
433.700	-18.270	0.101
433.800	-20.389	0.101
433.900	-24.264	0.101
434.000	-22.413	0.101
434.100	-30.971	0.101
434.200	-20.279	0.101
434.300	-28.087	0.101
434.400	-25.703	0.101
434.500	-28.661	0.101
434.600	-32.757	0.101
434.700	-21.747	0.101
434.800	-22.428	0.101
434.900	-24.210	0.101
435.000	-13.280	0.101
435.100	-25.363	0.101
435.200	-23.560	0.101
435.300	-29.105	0.101
435.400	-20.909	0.101
435.500	-25.275	0.101
435.600	-22.398	0.101
435.700	-14.943	0.101
435.800	-11.381	0.101
435.900	-21.209	0.101
436.000	-30.582	0.101
436.100	-28.466	0.101
436.200	-17.057	0.101
436.300	-27.062	0.101
436.400	-15.895	0.101
436.500	-19.491	0.101
436.600	-15.446	0.101
436.700	-31.689	0.101
436.800	-29.437	0.101
436.900	-18.604	0.101
437.000	-16.333	0.101
437.100	-28.387	0.101
437.200	-16.708	0.101
437.300	-23.467	0.101
437.400	-24.630	0.101
437.500	-16.200	0.101
437.600	-16.190	0.101
437.700	-25.384	0.101
437.800	-26.856	0.101
437.900	-13.074	0.101
438.000	-20.594	0.101
438.100	-31.321	0.101
438.200	-19.179	0.101
438.300	-20.900	0.101
438.400	-23.021	0.101
438.500	-21.113	0.101
438.600	-25.444	0.101
438.700	-26.782	0.101
438.800	-27.845	0.101
438.900	-30.976	0.101
439.000	-18.493	0.101
439.100	-23.545	0.101
439.200	-19.103	0.101
439.300	-19.192	0.101
439.400	-18.121	0.101
439.500	-21.637	0.101
439.600	-23.528	0.101
439.700	-16.888	0.101
439.800	-22.090	0.101
439.900	-26.898	0.101
440.000	-20.966	0.101
440.100	-15.707	0.101
440.200	-19.390	0.101
440.300	-22.344	0.101
440.400	-30.699	0.101
440.500	-32.808	0.101
440.600	-9.990	0.101
440.700	-14.203	0.101
440.800	-16.032	0.101
440.900	-21.787	0.101
441.000	-27.791	0.101
441.100	-34.215	0.101
441.200	-25.777	0.101
441.300	-26.856	0.101
441.400	-17.470	0.101
441.500	-28.300	0.101
441.600	-26.005	0.101
441.700	-28.029	0.101
441.800	-18.115	0.101
441.900	-16.231	0.101
442.000	-20.391	0.101
442.100	-19.526	0.101
442.200	-22.230	0.101
442.300	-31.898	0.101
442.400	-10.761	0.101
442.500	-17.318	0.101
442.600	-21.201	0.101
442.700	-33.005	0.101
442.800	-25.669	0.101
442.900	-14.968	0.101
443.000	-22.619	0.101
443.100	-24.820	0.101
443.200	-21.543	0.101
443.300	-24.247	0.101
443.400	-15.564	0.101
443.500	-18.753	0.101
443.600	-21.632	0.101
443.700	-27.341	0.101
443.800	-16.832	0.101
443.900	-31.515	0.101
444.000	-34.815	0.101
444.100	-27.991	0.101
444.200	-24.288	0.101
444.300	-19.277	0.101
444.400	-23.180	0.101
444.500	-26.077	0.101
444.600	-15.911	0.101
444.700	-27.915	0.101
444.800	-23.308	0.101
444.900	-17.499	0.101
445.000	-12.485	0.101
445.100	-5.145	0.101
445.200	-5.503	0.101
445.300	-22.673	0.101
445.400	-21.959	0.101
445.500	-16.579	0.101
445.600	-19.299	0.101
445.700	-36.887	0.101
445.800	-12.891	0.101
445.900	-20.902	0.101
446.000	-20.512	0.101
446.100	-24.761	0.101
446.200	-22.650	0.101
446.300	-18.798	0.101
446.400	-15.522	0.101
446.500	-17.042	0.101
446.600	-17.170	0.101
446.700	-27.479	0.101
446.800	-34.457	0.101
446.900	-23.179	0.101
447.000	-22.835	0.101
447.100	-16.005	0.101
447.200	-21.075	0.101
447.300	-23.524	0.101
447.400	-23.648	0.101
447.500	-30.720	0.101
447.600	-19.832	0.101
447.700	-20.260	0.101
447.800	-20.816	0.101
447.900	-20.889	0.101
448.000	-15.262	0.101
448.100	-28.201	0.101
448.200	-20.870	0.101
448.300	-28.304	0.101
448.400	-17.088	0.101
448.500	-24.361	0.101
448.600	-18.775	0.101
448.700	-26.537	0.101
448.800	-15.846	0.101
448.900	-23.917	0.101
449.000	-17.878	0.101
449.100	-19.450	0.101
449.200	-14.466	0.101
449.300	-25.677	0.101
449.400	-26.692	0.101
449.500	-21.175	0.101
449.600	-11.237	0.101
449.700	-18.099	0.101
449.800	-15.748	0.101
449.900	-22.229	0.101
450.000	-15.308	0.101
450.100	-20.003	0.101
450.200	-15.692	0.101
450.300	-8.874	0.101
450.400	-17.355	0.101
450.500	-18.480	0.101
450.600	-25.587	0.101
450.700	-24.114	0.101
450.800	-23.720	0.101
450.900	-24.195	0.101
451.000	-18.595	0.101
451.100	-19.833	0.101
451.200	-18.243	0.101
451.300	-30.369	0.101
451.400	-17.745	0.101
451.500	-8.546	0.101
451.600	-18.231	0.101
451.700	-26.726	0.101
451.800	-10.823	0.101
451.900	-20.384	0.101
452.000	-11.797	0.101
452.100	-20.078	0.101
452.200	-24.048	0.101
452.300	-23.368	0.101
452.400	-24.767	0.101
452.500	-16.790	0.101
452.600	-23.726	0.101
452.700	-14.935	0.101
452.800	-15.059	0.101
452.900	-22.408	0.101
453.000	-19.851	0.101
453.100	-19.442	0.101
453.200	-13.878	0.101
453.300	-20.118	0.101
453.400	-24.777	0.101
453.500	-17.224	0.101
453.600	-29.071	0.101
453.700	-21.415	0.101
453.800	-16.759	0.101
453.900	-10.859	0.101
454.000	-17.558	0.101
454.100	-19.371	0.101
454.200	-11.004	0.101
454.300	-23.212	0.101
454.400	-26.717	0.101
454.500	-20.934	0.101
454.600	-12.098	0.101
454.700	-8.136	0.101
454.800	-11.770	0.101
454.900	-20.150	0.101
455.000	-30.540	0.101
455.100	-26.859	0.101
455.200	-17.987	0.101
455.300	-16.628	0.101
455.400	-18.604	0.101
455.500	-9.925	0.101
455.600	-24.574	0.101
455.700	-20.365	0.101
455.800	-7.078	0.101
455.900	-17.948	0.101
456.000	-17.577	0.101
456.100	-23.479	0.101
456.200	-21.308	0.101
456.300	-23.829	0.101
456.400	-20.177	0.101
456.500	-20.007	0.101
456.600	-14.556	0.101
456.700	-29.771	0.101
456.800	-27.402	0.101
456.900	-26.169	0.101
457.000	-24.832	0.101
457.100	-15.760	0.101
457.200	-19.232	0.101
457.300	-12.695	0.101
457.400	-17.465	0.101
457.500	-16.286	0.101
457.600	-19.105	0.101
457.700	-18.560	0.101
457.800	-19.230	0.101
457.900	-21.541	0.101
458.000	-28.094	0.101
458.100	-18.602	0.101
458.200	-23.582	0.101
458.300	-20.563	0.101
458.400	-13.358	0.101
458.500	-16.132	0.101
458.600	-17.213	0.101
458.700	-17.204	0.101
458.800	-18.817	0.101
458.900	-24.446	0.101
459.000	-17.594	0.101
459.100	-25.931	0.101
459.200	-17.516	0.101
459.300	-24.390	0.101
459.400	-12.166	0.101
459.500	-16.219	0.101
459.600	-19.912	0.101
459.700	-21.427	0.101
459.800	-28.382	0.101
459.900	-25.102	0.101
460.000	-20.354	0.101
460.100	-18.949	0.101
460.200	-11.430	0.101
460.300	-10.217	0.101
460.400	-21.528	0.101
460.500	-20.989	0.101
460.600	-24.346	0.101
460.700	-21.984	0.101
460.800	-15.446	0.101
460.900	-10.709	0.101
461.000	-16.720	0.101
461.100	-19.368	0.101
461.200	-20.970	0.101
461.300	-17.972	0.101
461.400	-26.025	0.101
461.500	-14.305	0.101
461.600	-28.694	0.101
461.700	-8.085	0.101
461.800	-13.737	0.101
461.900	-18.421	0.101
462.000	-18.517	0.101
462.100	-26.034	0.101
462.200	-22.165	0.101
462.300	-20.259	0.101
462.400	-13.678	0.101
462.500	-14.356	0.101
462.600	-18.112	0.101
462.700	-21.281	0.101
462.800	-19.856	0.101
462.900	-29.032	0.101
463.000	-12.362	0.101
463.100	-18.624	0.101
463.200	-14.938	0.101
463.300	-9.748	0.101
463.400	-15.804	0.101
463.500	-19.500	0.101
463.600	-24.587	0.101
463.700	-24.825	0.101
463.800	-11.025	0.101
463.900	-21.496	0.101
464.000	-15.648	0.101
464.100	-20.959	0.101
464.200	-19.509	0.101
464.300	-20.205	0.101
464.400	-14.544	0.101
464.500	-11.988	0.101
464.600	-18.525	0.101
464.700	-31.912	0.101
464.800	-12.799	0.101
464.900	-12.448	0.101
465.000	-18.661	0.101
465.100	-23.978	0.101
465.200	-16.718	0.101
465.300	-11.789	0.101
465.400	-16.311	0.101
465.500	-18.644	0.101
465.600	-6.494	0.101
465.700	-19.424	0.101
465.800	-24.170	0.101
465.900	-21.584	0.101
466.000	-12.339	0.101
466.100	-20.801	0.101
466.200	-22.713	0.101
466.300	-25.431	0.101
466.400	-11.466	0.101
466.500	-7.298	0.101
466.600	-18.052	0.101
466.700	-29.160	0.101
466.800	-14.677	0.101
466.900	-20.430	0.101
467.000	-17.350	0.101
467.100	-17.780	0.101
467.200	-18.485	0.101
467.300	-15.515	0.101
467.400	-15.288	0.101
467.500	-9.032	0.101
467.600	-15.108	0.101
467.700	-21.534	0.101
467.800	-24.855	0.101
467.900	-16.421	0.101
468.000	-22.336	0.101
468.100	-20.383	0.101
468.200	-10.089	0.101
468.300	-20.065	0.101
468.400	-13.229	0.101
468.500	-13.798	0.101
468.600	-16.632	0.101
468.700	-20.554	0.101
468.800	-4.681	0.101
468.900	-11.547	0.101
469.000	-21.646	0.101
469.100	-13.658	0.101
469.200	-13.534	0.101
469.300	-18.672	0.101
469.400	-12.106	0.101
469.500	-13.310	0.101
469.600	-25.905	0.101
469.700	-22.200	0.101
469.800	-4.587	0.101
469.900	-18.448	0.101
470.000	-6.937	0.101
470.100	-18.859	0.101
470.200	-27.756	0.101
470.300	-11.070	0.101
470.400	-12.749	0.101
470.500	-11.589	0.101
470.600	-21.599	0.101
470.700	-17.931	0.101
470.800	-15.218	0.101
470.900	-22.177	0.101
471.000	-19.162	0.101
471.100	-10.164	0.101
471.200	-16.111	0.101
471.300	-23.992	0.101
471.400	-19.273	0.101
471.500	-13.337	0.101
471.600	-12.694	0.101
471.700	-19.953	0.101
471.800	-9.575	0.101
471.900	-20.130	0.101
472.000	-20.415	0.101
472.100	-20.141	0.101
472.200	-17.255	0.101
472.300	-22.148	0.101
472.400	-20.855	0.101
472.500	-13.900	0.101
472.600	-21.081	0.101
472.700	-21.775	0.101
472.800	-20.982	0.101
472.900	-16.155	0.101
473.000	-24.163	0.101
473.100	-15.428	0.101
473.200	-9.167	0.101
473.300	-16.735	0.101
473.400	-8.851	0.101
473.500	-13.069	0.101
473.600	-18.692	0.101
473.700	-17.696	0.101
473.800	-21.926	0.101
473.900	-16.353	0.101
474.000	-11.333	0.101
474.100	-13.721	0.101
474.200	-7.285	0.101
474.300	-6.102	0.101
474.400	-12.780	0.101
474.500	-17.038	0.101
474.600	-16.876	0.101
474.700	-22.086	0.101
474.800	-16.207	0.101
474.900	-17.894	0.101
475.000	-13.645	0.101
475.100	-11.295	0.101
475.200	-26.475	0.101
475.300	-20.257	0.101
475.400	-18.051	0.101
475.500	-18.738	0.101
475.600	-19.930	0.101
475.700	-15.800	0.101
475.800	-26.111	0.101
475.900	-5.309	0.101
476.000	-13.537	0.101
476.100	-17.397	0.101
476.200	-19.536	0.101
476.300	-17.319	0.101
476.400	-12.986	0.101
476.500	-17.634	0.101
476.600	-17.801	0.101
476.700	-12.494	0.101
476.800	-18.673	0.101
476.900	-15.277	0.101
477.000	-19.351	0.101
477.100	-21.398	0.101
477.200	-20.619	0.101
477.300	-17.875	0.101
477.400	-20.043	0.101
477.500	-22.648	0.101
477.600	-26.553	0.101
477.700	-13.101	0.101
477.800	-18.096	0.101
477.900	-19.073	0.101
478.000	-8.740	0.101
478.100	-9.761	0.101
478.200	-10.865	0.101
478.300	-4.210	0.101
478.400	-18.290	0.101
478.500	-16.857	0.101
478.600	-15.865	0.101
478.700	-19.556	0.101
478.800	-21.492	0.101
478.900	-18.385	0.101
479.000	-20.704	0.101
479.100	-20.687	0.101
479.200	-23.350	0.101
479.300	-16.005	0.101
479.400	-19.529	0.101
479.500	-7.693	0.101
479.600	-2.558	0.101
479.700	-17.740	0.101
479.800	-7.174	0.101
479.900	-16.851	0.101
480.000	-24.649	0.101
480.100	-13.676	0.101
480.200	-13.913	0.101
480.300	-12.425	0.101
480.400	-23.376	0.101
480.500	-10.111	0.101
480.600	-10.726	0.101
480.700	-1.876	0.101
480.800	-2.619	0.101
480.900	-8.249	0.101
481.000	-10.479	0.101
481.100	-2.283	0.101
481.200	-12.253	0.101
481.300	-5.495	0.101
481.400	10.362	0.101
481.500	9.315	0.101
481.600	-2.393	0.101
481.700	3.967	0.101
481.800	7.750	0.101
481.900	14.021	0.101
482.000	10.596	0.101
482.100	8.914	0.101
482.200	2.610	0.101
482.300	9.262	0.101
482.400	9.493	0.101
482.500	8.694	0.101
482.600	13.417	0.101
482.700	11.638	0.101
482.800	10.997	0.101
482.900	16.825	0.101
483.000	20.262	0.101
483.100	14.319	0.101
483.200	21.975	0.101
483.300	18.119	0.101
483.400	11.540	0.101
483.500	10.255	0.101
483.600	9.392	0.101
483.700	18.208	0.101
483.800	15.242	0.101
483.900	17.937	0.101
484.000	24.009	0.101
484.100	9.885	0.101
484.200	11.983	0.101
484.300	23.482	0.101
484.400	22.130	0.101
484.500	17.680	0.101
484.600	27.066	0.101
484.700	21.861	0.101
484.800	6.542	0.101
484.900	8.177	0.101
485.000	11.670	0.101
485.100	15.127	0.101
485.200	15.123	0.101
485.300	8.834	0.101
485.400	14.458	0.101
485.500	19.690	0.101
485.600	16.050	0.101
485.700	17.391	0.101
485.800	15.516	0.101
485.900	16.603	0.101
486.000	13.625	0.101
486.100	11.265	0.101
486.200	13.134	0.101
486.300	22.513	0.101
486.400	14.226	0.101
486.500	10.266	0.101
486.600	9.785	0.101
486.700	5.107	0.101
486.800	13.600	0.101
486.900	18.027	0.101
487.000	9.346	0.101
487.100	16.539	0.101
487.200	7.597	0.101
487.300	10.992	0.101
487.400	2.862	0.101
487.500	21.902	0.101
487.600	27.410	0.101
487.700	23.235	0.101
487.800	12.756	0.101
487.900	14.671	0.101
488.000	4.075	0.101
488.100	19.571	0.101
488.200	5.739	0.101
488.300	-2.227	0.101
488.400	6.908	0.101
488.500	12.778	0.101
488.600	12.450	0.101
488.700	16.323	0.101
488.800	11.123	0.101
488.900	18.196	0.101
489.000	18.070	0.101
489.100	3.888	0.101
489.200	8.817	0.101
489.300	8.592	0.101
489.400	13.301	0.101
489.500	14.527	0.101
489.600	7.268	0.101
489.700	21.962	0.101
489.800	6.754	0.101
489.900	12.430	0.101
490.000	14.272	0.101
490.100	13.198	0.101
490.200	22.294	0.101
490.300	19.092	0.101
490.400	17.680	0.101
490.500	28.285	0.101
490.600	11.158	0.101
490.700	9.606	0.101
490.800	1.395	0.101
490.900	23.364	0.101
491.000	14.457	0.101
491.100	15.302	0.101
491.200	6.710	0.101
491.300	18.370	0.101
491.400	23.013	0.101
491.500	19.393	0.101
491.600	17.051	0.101
491.700	17.720	0.101
491.800	19.751	0.101
491.900	20.311	0.101
492.000	9.514	0.101
492.100	21.846	0.101
492.200	15.171	0.101
492.300	14.439	0.101
492.400	15.060	0.101
492.500	13.243	0.101
492.600	7.307	0.101
492.700	8.338	0.101
492.800	13.452	0.101
492.900	13.505	0.101
493.000	11.923	0.101
493.100	22.100	0.101
493.200	16.791	0.101
493.300	9.563	0.101
493.400	17.813	0.101
493.500	11.840	0.101
493.600	8.356	0.101
493.700	16.613	0.101
493.800	9.780	0.101
493.900	17.416	0.101
494.000	12.265	0.101
494.100	17.283	0.101
494.200	22.926	0.101
494.300	16.170	0.101
494.400	14.344	0.101
494.500	6.775	0.101
494.600	20.587	0.101
494.700	16.927	0.101
494.800	14.699	0.101
494.900	16.135	0.101
495.000	9.096	0.101
495.100	18.456	0.101
495.200	9.782	0.101
495.300	18.566	0.101
495.400	8.448	0.101
495.500	14.315	0.101
495.600	13.780	0.101
495.700	16.351	0.101
495.800	11.155	0.101
495.900	23.072	0.101
496.000	14.306	0.101
496.100	17.005	0.101
496.200	10.425	0.101
496.300	23.290	0.101
496.400	8.907	0.101
496.500	7.569	0.101
496.600	17.220	0.101
496.700	22.324	0.101
496.800	9.591	0.101
496.900	22.112	0.101
497.000	13.261	0.101
497.100	23.607	0.101
497.200	22.745	0.101
497.300	10.921	0.101
497.400	8.259	0.101
497.500	17.869	0.101
497.600	10.810	0.101
497.700	22.359	0.101
497.800	17.164	0.101
497.900	27.665	0.101
498.000	9.490	0.101
498.100	22.998	0.101
498.200	22.674	0.101
498.300	22.985	0.101
498.400	17.701	0.101
498.500	24.649	0.101
498.600	12.972	0.101
498.700	14.254	0.101
498.800	17.832	0.101
498.900	29.911	0.101
499.000	28.126	0.101
499.100	24.934	0.101
499.200	6.877	0.101
499.300	19.296	0.101
499.400	25.652	0.101
499.500	29.066	0.101
499.600	26.789	0.101
499.700	21.300	0.101
499.800	15.986	0.101
499.900	26.073	0.101
500.000	12.335	0.101
500.100	25.281	0.101
500.200	21.072	0.101
500.300	16.785	0.101
500.400	29.952	0.101
500.500	26.674	0.101
500.600	24.276	0.101
500.700	16.139	0.101
500.800	23.308	0.101
500.900	20.095	0.101
501.000	16.458	0.101
501.100	22.307	0.101
501.200	18.129	0.101
501.300	28.636	0.101
501.400	17.252	0.101
501.500	21.857	0.101
501.600	19.823	0.101
501.700	23.931	0.101
501.800	32.505	0.101
501.900	26.360	0.101
502.000	22.037	0.101
502.100	32.775	0.101
502.200	23.375	0.101
502.300	26.555	0.101
502.400	25.957	0.101
502.500	29.453	0.101
502.600	30.309	0.101
502.700	31.698	0.101
502.800	16.249	0.101
502.900	27.578	0.101
503.000	31.551	0.101
503.100	32.899	0.101
503.200	20.112	0.101
503.300	29.302	0.101
503.400	19.920	0.101
503.500	33.922	0.101
503.600	16.072	0.101
503.700	30.973	0.101
503.800	23.730	0.101
503.900	33.338	0.101
504.000	34.761	0.101
504.100	23.478	0.101
504.200	27.399	0.101
504.300	31.483	0.101
504.400	39.627	0.101
504.500	24.962	0.101
504.600	16.592	0.101
504.700	25.278	0.101
504.800	30.274	0.101
504.900	31.309	0.101
505.000	30.230	0.101
505.100	25.226	0.101
505.200	20.953	0.101
505.300	29.950	0.101
505.400	27.186	0.101
505.500	35.571	0.101
505.600	20.340	0.101
505.700	24.391	0.101
505.800	17.049	0.101
505.900	26.296	0.101
506.000	26.135	0.101
506.100	31.838	0.101
506.200	26.525	0.101
506.300	30.931	0.101
506.400	32.713	0.101
506.500	28.849	0.101
506.600	34.567	0.101
506.700	24.696	0.101
506.800	19.781	0.101
506.900	28.051	0.101
507.000	23.967	0.101
507.100	25.566	0.101
507.200	17.900	0.101
507.300	32.806	0.101
507.400	35.370	0.101
507.500	32.064	0.101
507.600	23.852	0.101
507.700	29.865	0.101
507.800	36.990	0.101
507.900	36.135	0.101
508.000	34.505	0.101
508.100	30.908	0.101
508.200	23.777	0.101
508.300	27.014	0.101
508.400	28.396	0.101
508.500	39.285	0.101
508.600	30.901	0.101
508.700	29.742	0.101
508.800	31.253	0.101
508.900	37.519	0.101
509.000	24.428	0.101
509.100	34.507	0.101
509.200	38.288	0.101
509.300	21.904	0.101
509.400	25.696	0.101
509.500	30.719	0.101
509.600	26.126	0.101
509.700	34.768	0.101
509.800	27.012	0.101
509.900	25.264	0.101
510.000	36.002	0.101
510.100	40.060	0.101
510.200	31.401	0.101
510.300	36.774	0.101
510.400	31.432	0.101
510.500	28.328	0.101
510.600	31.436	0.101
510.700	31.600	0.101
510.800	31.101	0.101
510.900	34.310	0.101
511.000	39.348	0.101
511.100	40.145	0.101
511.200	22.935	0.101
511.300	31.911	0.101
511.400	31.698	0.101
511.500	23.659	0.101
511.600	26.186	0.101
511.700	29.419	0.101
511.800	32.517	0.101
511.900	31.264	0.101
512.000	35.198	0.101
512.100	33.599	0.101
512.200	16.889	0.101
512.300	31.303	0.101
512.400	21.567	0.101
512.500	35.356	0.101
512.600	26.020	0.101
512.700	27.065	0.101
512.800	31.078	0.101
512.900	35.199	0.101
513.000	33.366	0.101
513.100	20.975	0.101
513.200	28.777	0.101
513.300	33.580	0.101
513.400	31.122	0.101
513.500	30.045	0.101
513.600	34.358	0.101
513.700	37.239	0.101
513.800	25.876	0.101
513.900	35.519	0.101
514.000	22.852	0.101
514.100	35.177	0.101
514.200	31.042	0.101
514.300	39.004	0.101
514.400	36.488	0.101
514.500	30.635	0.101
514.600	35.075	0.101
514.700	39.507	0.101
514.800	33.885	0.101
514.900	36.961	0.101
515.000	27.470	0.101
515.100	20.617	0.101
515.200	33.299	0.101
515.300	33.653	0.101
515.400	33.902	0.101
515.500	40.971	0.101
515.600	29.884	0.101
515.700	21.679	0.101
515.800	35.918	0.101
515.900	30.340	0.101
516.000	32.233	0.101
516.100	31.289	0.101
516.200	31.871	0.101
516.300	33.963	0.101
516.400	34.964	0.101
516.500	28.786	0.101
516.600	31.740	0.101
516.700	26.927	0.101
516.800	38.722	0.101
516.900	27.695	0.101
517.000	30.337	0.101
517.100	23.878	0.101
517.200	35.188	0.101
517.300	27.133	0.101
517.400	37.182	0.101
517.500	33.046	0.101
517.600	31.289	0.101
517.700	47.185	0.101
517.800	31.098	0.101
517.900	29.461	0.101
518.000	32.792	0.101
518.100	31.509	0.101
518.200	33.334	0.101
518.300	37.127	0.101
518.400	26.685	0.101
518.500	36.450	0.101
518.600	31.704	0.101
518.700	33.145	0.101
518.800	27.141	0.101
518.900	32.013	0.101
519.000	38.384	0.101
519.100	39.470	0.101
519.200	35.137	0.101
519.300	26.014	0.101
519.400	29.947	0.101
519.500	33.711	0.101
519.600	30.358	0.101
519.700	38.703	0.101
519.800	36.863	0.101
519.900	38.905	0.101
520.000	20.073	0.101
520.100	28.527	0.101
520.200	32.932	0.101
520.300	28.350	0.101
520.400	34.549	0.101
520.500	21.679	0.101
520.600	30.782	0.101
520.700	28.128	0.101
520.800	38.491	0.101
520.900	25.759	0.101
521.000	31.921	0.101
521.100	39.857	0.101
521.200	39.907	0.101
521.300	23.794	0.101
521.400	32.544	0.101
521.500	31.120	0.101
521.600	33.950	0.101
521.700	34.697	0.101
521.800	29.299	0.101
521.900	24.034	0.101
522.000	31.510	0.101
522.100	29.303	0.101
522.200	29.038	0.101
522.300	30.728	0.101
522.400	38.090	0.101
522.500	28.509	0.101
522.600	32.698	0.101
522.700	24.075	0.101
522.800	27.790	0.101
522.900	30.293	0.101
523.000	25.845	0.101
523.100	34.168	0.101
523.200	33.481	0.101
523.300	33.418	0.101
523.400	40.258	0.101
523.500	32.084	0.101
523.600	30.499	0.101
523.700	30.448	0.101
523.800	39.880	0.101
523.900	34.174	0.101
524.000	27.376	0.101
524.100	28.077	0.101
524.200	36.475	0.101
524.300	30.324	0.101
524.400	31.687	0.101
524.500	18.554	0.101
524.600	29.835	0.101
524.700	36.235	0.101
524.800	38.323	0.101
524.900	33.476	0.101
525.000	33.058	0.101
525.100	22.357	0.101
525.200	22.390	0.101
525.300	31.493	0.101
525.400	38.896	0.101
525.500	26.917	0.101
525.600	33.355	0.101
525.700	29.058	0.101
525.800	33.044	0.101
525.900	32.919	0.101
526.000	29.066	0.101
526.100	37.422	0.101
526.200	33.483	0.101
526.300	32.946	0.101
526.400	18.787	0.101
526.500	31.055	0.101
526.600	39.716	0.101
526.700	40.072	0.101
526.800	36.093	0.101
526.900	30.262	0.101
527.000	33.586	0.101
527.100	37.007	0.101
527.200	29.824	0.101
527.300	27.907	0.101
527.400	30.376	0.101
527.500	16.456	0.101
527.600	22.088	0.101
527.700	23.922	0.101
527.800	30.824	0.101
527.900	30.890	0.101
528.000	41.373	0.101
528.100	25.834	0.101
528.200	35.597	0.101
528.300	34.471	0.101
528.400	36.535	0.101
528.500	28.384	0.101
528.600	29.389	0.101
528.700	34.805	0.101
528.800	39.051	0.101
528.900	40.282	0.101
529.000	26.836	0.101
529.100	24.969	0.101
529.200	30.457	0.101
529.300	31.092	0.101
529.400	25.989	0.101
529.500	37.686	0.101
529.600	30.986	0.101
529.700	31.270	0.101
529.800	37.376	0.101
529.900	28.260	0.101
530.000	32.707	0.101
530.100	38.550	0.101
530.200	30.569	0.101
530.300	32.528	0.101
530.400	24.816	0.101
530.500	21.648	0.101
530.600	41.565	0.101
530.700	36.621	0.101
530.800	33.207	0.101
530.900	30.265	0.101
531.000	36.387	0.101
531.100	21.901	0.101
531.200	33.603	0.101
531.300	26.738	0.101
531.400	32.581	0.101
531.500	26.153	0.101
531.600	34.953	0.101
531.700	33.252	0.101
531.800	37.602	0.101
531.900	23.427	0.101
532.000	28.702	0.101
532.100	31.347	0.101
532.200	34.010	0.101
532.300	45.009	0.101
532.400	28.956	0.101
532.500	25.723	0.101
532.600	38.013	0.101
532.700	37.678	0.101
532.800	29.320	0.101
532.900	36.799	0.101
533.000	33.820	0.101
533.100	27.754	0.101
533.200	22.380	0.101
533.300	39.823	0.101
533.400	30.911	0.101
533.500	34.719	0.101
533.600	30.124	0.101
533.700	29.013	0.101
533.800	37.906	0.101
533.900	33.550	0.101
534.000	36.478	0.101
534.100	26.707	0.101
534.200	19.306	0.101
534.300	25.743	0.101
534.400	44.661	0.101
534.500	27.122	0.101
534.600	24.196	0.101
534.700	29.541	0.101
534.800	22.450	0.101
534.900	33.733	0.101
535.000	25.322	0.101
535.100	19.489	0.101
535.200	28.467	0.101
535.300	21.227	0.101
535.400	39.681	0.101
535.500	38.455	0.101
535.600	45.862	0.101
535.700	29.883	0.101
535.800	24.932	0.101
535.900	41.926	0.101
536.000	29.352	0.101
536.100	19.550	0.101
536.200	28.350	0.101
536.300	24.872	0.101
536.400	22.593	0.101
536.500	37.063	0.101
536.600	37.861	0.101
536.700	38.866	0.101
536.800	37.071	0.101
536.900	30.912	0.101
537.000	25.832	0.101
537.100	33.999	0.101
537.200	36.039	0.101
537.300	26.738	0.101
537.400	33.349	0.101
537.500	30.957	0.101
537.600	26.559	0.101
537.700	40.192	0.101
537.800	35.647	0.101
537.900	29.198	0.101
538.000	33.947	0.101
538.100	20.515	0.101
538.200	37.868	0.101
538.300	27.471	0.101
538.400	31.060	0.101
538.500	34.879	0.101
538.600	31.666	0.101
538.700	32.803	0.101
538.800	24.711	0.101
538.900	26.768	0.101
539.000	34.868	0.101
539.100	32.705	0.101
539.200	30.426	0.101
539.300	27.870	0.101
539.400	24.766	0.101
539.500	35.431	0.101
539.600	41.613	0.101
539.700	33.427	0.101
539.800	33.591	0.101
539.900	24.169	0.101
540.000	36.176	0.101
540.100	24.291	0.101
540.200	24.755	0.101
540.300	26.212	0.101
540.400	46.931	0.101
540.500	28.660	0.101
540.600	20.988	0.101
540.700	21.158	0.101
540.800	17.805	0.101
540.900	28.927	0.101
541.000	20.587	0.101
541.100	4.738	0.101
541.200	19.742	0.101
541.300	23.593	0.101
541.400	18.758	0.101
541.500	12.919	0.101
541.600	18.698	0.101
541.700	13.993	0.101
541.800	14.122	0.101
541.900	10.954	0.101
542.000	10.055	0.101
542.100	7.584	0.101
542.200	9.916	0.101
542.300	4.732	0.101
542.400	4.308	0.101
542.500	2.771	0.101
542.600	11.860	0.101
542.700	16.449	0.101
542.800	24.402	0.101
542.900	-5.268	0.101
543.000	-6.143	0.101
543.100	-2.132	0.101
543.200	1.344	0.101
543.300	8.705	0.101
543.400	8.922	0.101
543.500	9.229	0.101
543.600	21.387	0.101
543.700	3.685	0.101
543.800	1.877	0.101
543.900	3.845	0.101
544.000	12.766	0.101
544.100	18.094	0.101
544.200	9.752	0.101
544.300	1.477	0.101
544.400	-10.393	0.101
544.500	-3.060	0.101
544.600	2.727	0.101
544.700	7.096	0.101
544.800	5.787	0.101
544.900	4.636	0.101
545.000	6.118	0.101
545.100	-2.140	0.101
545.200	8.852	0.101
545.300	-1.540	0.101
545.400	0.163	0.101
545.500	2.197	0.101
545.600	0.260	0.101
545.700	0.954	0.101
545.800	-5.987	0.101
545.900	3.516	0.101
546.000	9.391	0.101
546.100	0.860	0.101
546.200	-3.416	0.101
546.300	-2.349	0.101
546.400	6.746	0.101
546.500	-3.208	0.101
546.600	0.657	0.101
546.700	-0.654	0.101
546.800	12.743	0.101
546.900	1.686	0.101
547.000	9.098	0.101
547.100	3.767	0.101
547.200	2.716	0.101
547.300	10.780	0.101
547.400	2.021	0.101
547.500	0.101	0.101
547.600	-1.398	0.101
547.700	7.727	0.101
547.800	9.759	0.101
547.900	0.230	0.101
548.000	-2.116	0.101
548.100	-5.537	0.101
548.200	0.083	0.101
548.300	5.562	0.101
548.400	-0.931	0.101
548.500	-10.056	0.101
548.600	1.353	0.101
548.700	-5.114	0.101
548.800	7.576	0.101
548.900	2.317	0.101
549.000	9.942	0.101
549.100	3.282	0.101
549.200	3.320	0.101
549.300	-1.803	0.101
549.400	-6.963	0.101
549.500	-5.127	0.101
549.600	2.488	0.101
549.700	7.532	0.101
549.800	10.979	0.101
549.900	3.772	0.101
550.000	3.653	0.101
550.100	4.204	0.101
550.200	2.516	0.101
550.300	5.340	0.101
550.400	-0.330	0.101
550.500	-1.554	0.101
550.600	-11.735	0.101
550.700	1.005	0.101
550.800	-8.065	0.101
550.900	-7.099	0.101
551.000	1.069	0.101
551.100	-2.550	0.101
551.200	-4.177	0.101
551.300	-14.458	0.101
551.400	-7.259	0.101
551.500	-2.744	0.101
551.600	5.520	0.101
551.700	-5.495	0.101
551.800	-2.855	0.101
551.900	-9.551	0.101
552.000	-5.820	0.101
552.100	-14.850	0.101
552.200	0.558	0.101
552.300	-9.625	0.101
552.400	-7.626	0.101
552.500	-1.144	0.101
552.600	-1.473	0.101
552.700	2.629	0.101
552.800	0.044	0.101
552.900	-4.423	0.101
553.000	-10.636	0.101
553.100	-9.651	0.101
553.200	2.890	0.101
553.300	-6.287	0.101
553.400	-2.393	0.101
553.500	-8.299	0.101
553.600	-5.485	0.101
553.700	-5.313	0.101
553.800	-12.222	0.101
553.900	3.128	0.101
554.000	7.163	0.101
554.100	-12.078	0.101
554.200	1.946	0.101
554.300	-3.795	0.101
554.400	-1.501	0.101
554.500	-3.049	0.101
554.600	-5.756	0.101
554.700	-13.066	0.101
554.800	-12.839	0.101
554.900	-5.926	0.101
555.000	-1.056	0.101
555.100	-12.482	0.101
555.200	-8.956	0.101
555.300	-11.991	0.101
555.400	-3.400	0.101
555.500	-4.397	0.101
555.600	-4.249	0.101
555.700	-12.046	0.101
555.800	-6.518	0.101
555.900	-16.166	0.101
556.000	-2.376	0.101
556.100	-5.321	0.101
556.200	0.639	0.101
556.300	-7.215	0.101
556.400	-12.064	0.101
556.500	-8.590	0.101
556.600	-11.758	0.101
556.700	-3.274	0.101
556.800	3.899	0.101
556.900	-15.255	0.101
557.000	-9.602	0.101
557.100	-12.910	0.101
557.200	-6.860	0.101
557.300	-10.948	0.101
557.400	-14.669	0.101
557.500	-26.312	0.101
557.600	1.757	0.101
557.700	-10.751	0.101
557.800	-5.931	0.101
557.900	-21.593	0.101
558.000	-11.003	0.101
558.100	-7.528	0.101
558.200	-0.585	0.101
558.300	-13.430	0.101
558.400	-15.708	0.101
558.500	-14.181	0.101
558.600	-6.535	0.101
558.700	-8.444	0.101
558.800	-11.950	0.101
558.900	-10.576	0.101
559.000	-3.515	0.101
559.100	-14.783	0.101
559.200	-10.608	0.101
559.300	-13.474	0.101
559.400	-14.318	0.101
559.500	-12.775	0.101
559.600	-15.007	0.101
559.700	-27.436	0.101
559.800	-12.684	0.101
559.900	-8.974	0.101
560.000	-7.646	0.101
560.100	-5.414	0.101
560.200	-0.436	0.101
560.300	-14.539	0.101
560.400	-15.405	0.101
560.500	-17.692	0.101
560.600	-14.364	0.101
560.700	-15.323	0.101
560.800	-7.984	0.101
560.900	-9.111	0.101
561.000	-8.631	0.101
561.100	-8.909	0.101
561.200	-10.981	0.101
561.300	-19.204	0.101
561.400	-10.653	0.101
561.500	-11.643	0.101
561.600	-4.782	0.101
561.700	-16.370	0.101
561.800	-8.342	0.101
561.900	-21.011	0.101
562.000	-17.821	0.101
562.100	-7.669	0.101
562.200	-6.987	0.101
562.300	-17.329	0.101
562.400	-12.173	0.101
562.500	-20.578	0.101
562.600	-18.303	0.101
562.700	-17.968	0.101
562.800	-19.242	0.101
562.900	-20.705	0.101
563.000	-27.424	0.101
563.100	-13.152	0.101
563.200	-7.083	0.101
563.300	-14.489	0.101
563.400	-9.653	0.101
563.500	-12.509	0.101
563.600	-15.601	0.101
563.700	-20.279	0.101
563.800	-15.212	0.101
563.900	-11.782	0.101
564.000	-8.691	0.101
564.100	-4.226	0.101
564.200	-4.601	0.101
564.300	-24.433	0.101
564.400	-16.436	0.101
564.500	-24.814	0.101
564.600	-11.614	0.101
564.700	-25.998	0.101
564.800	-16.616	0.101
564.900	-15.564	0.101
565.000	-20.673	0.101
565.100	-19.092	0.101
565.200	-23.211	0.101
565.300	-12.767	0.101
565.400	-7.927	0.101
565.500	-17.589	0.101
565.600	-16.944	0.101
565.700	-21.854	0.101
565.800	-19.931	0.101
565.900	-12.424	0.101
566.000	-9.864	0.101
566.100	-16.438	0.101
566.200	-11.108	0.101
566.300	-23.213	0.101
566.400	-20.262	0.101
566.500	-18.288	0.101
566.600	-19.440	0.101
566.700	-21.390	0.101
566.800	-13.469	0.101
566.900	-17.895	0.101
567.000	-10.790	0.101
567.100	-16.216	0.101
567.200	-27.628	0.101
567.300	-28.330	0.101
567.400	-17.688	0.101
567.500	-18.479	0.101
567.600	-8.704	0.101
567.700	-24.149	0.101
567.800	-13.693	0.101
567.900	-13.680	0.101
568.000	-19.280	0.101
568.100	-19.802	0.101
568.200	-29.540	0.101
568.300	-19.325	0.101
568.400	-11.837	0.101
568.500	-15.756	0.101
568.600	-13.138	0.101
568.700	-19.488	0.101
568.800	-27.361	0.101
568.900	-16.695	0.101
569.000	-18.976	0.101
569.100	-8.343	0.101
569.200	-15.087	0.101
569.300	-26.145	0.101
569.400	-18.862	0.101
569.500	-11.985	0.101
569.600	-11.606	0.101
569.700	-16.355	0.101
569.800	-25.558	0.101
569.900	-32.651	0.101
570.000	-22.485	0.101
570.100	-20.800	0.101
570.200	-15.206	0.101
570.300	-23.351	0.101
570.400	-22.928	0.101
570.500	-23.980	0.101
570.600	-27.999	0.101
570.700	-21.444	0.101
570.800	-14.647	0.101
570.900	-27.855	0.101
571.000	-12.229	0.101
571.100	-20.067	0.101
571.200	-14.196	0.101
571.300	-18.222	0.101
571.400	-17.513	0.101
571.500	-3.452	0.101
571.600	-16.993	0.101
571.700	-16.813	0.101
571.800	-13.785	0.101
571.900	-24.057	0.101
572.000	-19.789	0.101
572.100	-23.639	0.101
572.200	-29.061	0.101
572.300	-31.095	0.101
572.400	-23.110	0.101
572.500	-18.300	0.101
572.600	-21.648	0.101
572.700	-18.284	0.101
572.800	-20.152	0.101
572.900	-21.616	0.101
573.000	-18.818	0.101
573.100	-15.068	0.101
573.200	-20.438	0.101
573.300	-25.906	0.101
573.400	-23.994	0.101
573.500	-16.820	0.101
573.600	-17.799	0.101
573.700	-21.789	0.101
573.800	-18.734	0.101
573.900	-9.881	0.101
574.000	-30.071	0.101
574.100	-23.253	0.101
574.200	-26.503	0.101
574.300	-24.754	0.101
574.400	-33.652	0.101
574.500	-16.013	0.101
574.600	-24.739	0.101
574.700	-18.891	0.101
574.800	-18.295	0.101
574.900	-24.389	0.101
575.000	-2.985	0.101
575.100	-14.611	0.101
575.200	-31.832	0.101
575.300	-16.221	0.101
575.400	-25.514	0.101
575.500	-19.597	0.101
575.600	-20.966	0.101
575.700	-18.422	0.101
575.800	-22.331	0.101
575.900	-20.695	0.101
576.000	-21.837	0.101
576.100	-26.081	0.101
576.200	-12.477	0.101
576.300	-20.863	0.101
576.400	-21.144	0.101
576.500	-22.092	0.101
576.600	-28.788	0.101
576.700	-24.306	0.101
576.800	-23.370	0.101
576.900	-26.513	0.101
577.000	-18.146	0.101
577.100	-26.048	0.101
577.200	-27.374	0.101
577.300	-17.972	0.101
577.400	-26.754	0.101
577.500	-26.922	0.101
577.600	-28.689	0.101
577.700	-22.721	0.101
577.800	-17.268	0.101
577.900	-16.229	0.101
578.000	-22.807	0.101
578.100	-25.820	0.101
578.200	-27.325	0.101
578.300	-15.553	0.101
578.400	-17.624	0.101
578.500	-15.026	0.101
578.600	-30.460	0.101
578.700	-27.280	0.101
578.800	-31.405	0.101
578.900	-17.706	0.101
579.000	-21.148	0.101
579.100	-25.797	0.101
579.200	-30.309	0.101
579.300	-22.585	0.101
579.400	-8.635	0.101
579.500	-16.974	0.101
579.600	-23.145	0.101
579.700	-26.676	0.101
579.800	-30.479	0.101
579.900	-27.485	0.101
580.000	-19.477	0.101
580.100	-19.323	0.101
580.200	-23.610	0.101
580.300	-16.982	0.101
580.400	-21.451	0.101
580.500	-26.208	0.101
580.600	-18.385	0.101
580.700	-20.230	0.101
580.800	-35.852	0.101
580.900	-25.251	0.101
581.000	-13.119	0.101
581.100	-12.405	0.101
581.200	-18.554	0.101
581.300	-22.461	0.101
581.400	-16.016	0.101
581.500	-29.898	0.101
581.600	-31.645	0.101
581.700	-38.373	0.101
581.800	-23.304	0.101
581.900	-9.358	0.101
582.000	-12.144	0.101
582.100	-26.010	0.101
582.200	-25.230	0.101
582.300	-11.847	0.101
582.400	-22.705	0.101
582.500	-23.750	0.101
582.600	-21.305	0.101
582.700	-33.087	0.101
582.800	-28.365	0.101
582.900	-36.643	0.101
583.000	-25.773	0.101
583.100	-19.254	0.101
583.200	-19.788	0.101
583.300	-22.432	0.101
583.400	-31.399	0.101
583.500	-26.219	0.101
583.600	-17.298	0.101
583.700	-17.935	0.101
583.800	-21.143	0.101
583.900	-22.365	0.101
584.000	-12.218	0.101
584.100	-12.843	0.101
584.200	-22.465	0.101
584.300	-21.927	0.101
584.400	-21.336	0.101
584.500	-31.051	0.101
584.600	-35.581	0.101
584.700	-28.252	0.101
584.800	-27.605	0.101
584.900	-20.612	0.101
585.000	-11.868	0.101
585.100	-13.456	0.101
585.200	-20.255	0.101
585.300	-22.152	0.101
585.400	-26.719	0.101
585.500	-21.009	0.101
585.600	-26.887	0.101
585.700	-27.424	0.101
585.800	-28.909	0.101
585.900	-11.627	0.101
586.000	-19.897	0.101
586.100	-26.878	0.101
586.200	-22.876	0.101
586.300	-21.347	0.101
586.400	-19.013	0.101
586.500	-26.065	0.101
586.600	-28.084	0.101
586.700	-21.336	0.101
586.800	-13.445	0.101
586.900	-28.290	0.101
587.000	-19.293	0.101
587.100	-26.257	0.101
587.200	-38.717	0.101
587.300	-21.395	0.101
587.400	-17.082	0.101
587.500	-6.220	0.101
587.600	-22.766	0.101
587.700	-20.821	0.101
587.800	-25.306	0.101
587.900	-19.563	0.101
588.000	-22.675	0.101
588.100	-7.851	0.101
588.200	-18.924	0.101
588.300	-23.205	0.101
588.400	-14.950	0.101
588.500	-22.940	0.101
588.600	-29.100	0.101
588.700	-16.770	0.101
588.800	-19.439	0.101
588.900	-11.790	0.101
589.000	-14.980	0.101
589.100	-34.138	0.101
589.200	-28.181	0.101
589.300	-22.355	0.101
589.400	-22.679	0.101
589.500	-24.974	0.101
589.600	-21.758	0.101
589.700	-20.357	0.101
589.800	-15.724	0.101
589.900	-18.757	0.101
590.000	-24.129	0.101
590.100	-14.451	0.101
590.200	-22.248	0.101
590.300	-30.124	0.101
590.400	-12.447	0.101
590.500	-24.954	0.101
590.600	-28.502	0.101
590.700	-27.155	0.101
590.800	-11.412	0.101
590.900	-21.573	0.101
591.000	-18.229	0.101
591.100	-29.531	0.101
591.200	-23.969	0.101
591.300	-18.677	0.101
591.400	-19.102	0.101
591.500	-13.698	0.101
591.600	-18.575	0.101
591.700	-29.581	0.101
591.800	-17.689	0.101
591.900	-16.041	0.101
592.000	-19.350	0.101
592.100	-28.753	0.101
592.200	-19.918	0.101
592.300	-20.915	0.101
592.400	-17.016	0.101
592.500	-9.976	0.101
592.600	-17.512	0.101
592.700	-12.250	0.101
592.800	-27.217	0.101
592.900	-15.553	0.101
593.000	-33.607	0.101
593.100	-30.765	0.101
593.200	-30.149	0.101
593.300	-18.410	0.101
593.400	-21.292	0.101
593.500	-12.779	0.101
593.600	-23.203	0.101
593.700	-21.500	0.101
593.800	-28.996	0.101
593.900	-21.494	0.101
594.000	-28.691	0.101
594.100	-22.303	0.101
594.200	-16.609	0.101
594.300	-24.087	0.101
594.400	-22.488	0.101
594.500	-22.285	0.101
594.600	-23.545	0.101
594.700	-14.322	0.101
594.800	-20.123	0.101
594.900	-21.160	0.101
595.000	-23.288	0.101
595.100	-16.001	0.101
595.200	-21.561	0.101
595.300	-23.696	0.101
595.400	-32.578	0.101
595.500	-24.846	0.101
595.600	-17.352	0.101
595.700	-20.164	0.101
595.800	-23.293	0.101
595.900	-18.486	0.101
596.000	-25.085	0.101
596.100	-17.595	0.101
596.200	-23.553	0.101
596.300	-15.338	0.101
596.400	-19.622	0.101
596.500	-28.126	0.101
596.600	-27.361	0.101
596.700	-13.617	0.101
596.800	-4.415	0.101
596.900	-24.741	0.101
597.000	-25.012	0.101
597.100	-32.921	0.101
597.200	-20.896	0.101
597.300	-16.083	0.101
597.400	-26.732	0.101
597.500	-16.878	0.101
597.600	-24.456	0.101
597.700	-14.318	0.101
597.800	-30.501	0.101
597.900	-20.912	0.101
598.000	-19.508	0.101
598.100	-17.454	0.101
598.200	-31.650	0.101
598.300	-18.168	0.101
598.400	-14.974	0.101
598.500	-27.177	0.101
598.600	-23.525	0.101
598.700	-12.999	0.101
598.800	-31.453	0.101
598.900	-31.540	0.101
599.000	-19.464	0.101
599.100	-16.834	0.101
599.200	-20.386	0.101
599.300	-9.550	0.101
599.400	-11.691	0.101
599.500	-19.035	0.101
599.600	-16.382	0.101
599.700	-27.244	0.101
599.800	-15.221	0.101
599.900	-22.726	0.101
600.000	-29.773	0.101
600.100	-18.114	0.101
600.200	-14.143	0.101
600.300	-33.243	0.101
600.400	-21.170	0.101
600.500	-17.912	0.101
600.600	-15.271	0.101
600.700	-13.079	0.101
600.800	-23.935	0.101
600.900	-18.708	0.101
601.000	-28.724	0.101
601.100	-25.756	0.101
601.200	-21.867	0.101
601.300	-16.489	0.101
601.400	-23.577	0.101
601.500	-14.638	0.101
601.600	-24.845	0.101
601.700	-13.524	0.101
601.800	-12.963	0.101
601.900	-20.352	0.101
602.000	-23.281	0.101
602.100	-14.078	0.101
602.200	-14.494	0.101
602.300	-16.304	0.101
602.400	-21.665	0.101
602.500	-26.268	0.101
602.600	-25.527	0.101
602.700	-16.870	0.101
602.800	-16.892	0.101
602.900	-20.471	0.101
603.000	-18.672	0.101
603.100	-17.335	0.101
603.200	-14.211	0.101
603.300	-17.277	0.101
603.400	-22.371	0.101
603.500	-24.303	0.101
603.600	-24.655	0.101
603.700	-12.775	0.101
603.800	-20.705	0.101
603.900	-18.275	0.101
604.000	-19.944	0.101
604.100	-18.444	0.101
604.200	-17.800	0.101
604.300	-11.732	0.101
604.400	-19.345	0.101
604.500	-29.236	0.101
604.600	-27.389	0.101
604.700	-14.814	0.101
604.800	-8.523	0.101
604.900	-17.787	0.101
605.000	-20.220	0.101
605.100	-17.850	0.101
605.200	-15.946	0.101
605.300	-19.964	0.101
605.400	-14.679	0.101
605.500	-18.311	0.101
605.600	-31.410	0.101
605.700	-11.161	0.101
605.800	-9.235	0.101
605.900	-20.476	0.101
606.000	-16.966	0.101
606.100	-15.912	0.101
606.200	-22.927	0.101
606.300	-17.453	0.101
606.400	-27.213	0.101
606.500	-17.645	0.101
606.600	-23.285	0.101
606.700	-19.271	0.101
606.800	-15.621	0.101
606.900	-17.056	0.101
607.000	-20.989	0.101
607.100	-27.459	0.101
607.200	-17.390	0.101
607.300	-16.127	0.101
607.400	-21.085	0.101
607.500	-19.459	0.101
607.600	-28.126	0.101
607.700	-26.282	0.101
607.800	-22.777	0.101
607.900	-15.903	0.101
608.000	-15.745	0.101
608.100	-15.803	0.101
608.200	-10.606	0.101
608.300	-13.685	0.101
608.400	-21.169	0.101
608.500	-17.323	0.101
608.600	-21.856	0.101
608.700	-13.053	0.101
608.800	-17.530	0.101
608.900	-22.209	0.101
609.000	-25.252	0.101
609.100	-10.174	0.101
609.200	-14.854	0.101
609.300	-21.326	0.101
609.400	-26.555	0.101
609.500	-31.491	0.101
609.600	-27.938	0.101
609.700	-14.572	0.101
609.800	-16.010	0.101
609.900	-14.354	0.101
610.000	-20.503	0.101
610.100	-17.871	0.101
610.200	-13.560	0.101
610.300	-9.227	0.101
610.400	-18.942	0.101
610.500	-17.326	0.101
610.600	-22.327	0.101
610.700	-18.279	0.101
610.800	-23.966	0.101
610.900	-13.768	0.101
611.000	-24.307	0.101
611.100	-22.911	0.101
611.200	-9.961	0.101
611.300	-5.802	0.101
611.400	-17.613	0.101
611.500	-26.027	0.101
611.600	-13.817	0.101
611.700	-12.909	0.101
611.800	-11.573	0.101
611.900	-13.347	0.101
612.000	-16.251	0.101
612.100	-12.811	0.101
612.200	-21.890	0.101
612.300	-18.761	0.101
612.400	-15.892	0.101
612.500	-22.105	0.101
612.600	-26.812	0.101
612.700	-29.752	0.101
612.800	-27.455	0.101
612.900	-18.408	0.101
613.000	-19.885	0.101
613.100	-8.347	0.101
613.200	-14.226	0.101
613.300	-13.692	0.101
613.400	-24.548	0.101
613.500	-15.994	0.101
613.600	-21.612	0.101
613.700	-17.325	0.101
613.800	-9.385	0.101
613.900	-11.828	0.101
614.000	-7.414	0.101
614.100	-19.342	0.101
614.200	-9.750	0.101
614.300	-15.182	0.101
614.400	-25.821	0.101
614.500	-17.083	0.101
614.600	-12.841	0.101
614.700	-21.934	0.101
614.800	-17.274	0.101
614.900	-21.378	0.101
615.000	-29.618	0.101
615.100	-7.508	0.101
615.200	-10.301	0.101
615.300	-13.067	0.101
615.400	-17.782	0.101
615.500	-16.900	0.101
615.600	-26.775	0.101
615.700	-13.307	0.101
615.800	-9.953	0.101
615.900	-17.780	0.101
616.000	-16.411	0.101
616.100	-10.600	0.101
616.200	-17.101	0.101
616.300	-10.148	0.101
616.400	-20.624	0.101
616.500	-28.649	0.101
616.600	-18.473	0.101
616.700	-12.314	0.101
616.800	-12.878	0.101
616.900	-5.261	0.101
617.000	-23.213	0.101
617.100	-11.843	0.101
617.200	-21.953	0.101
617.300	-26.094	0.101
617.400	-25.693	0.101
617.500	-25.941	0.101
617.600	-26.643	0.101
617.700	-25.124	0.101
617.800	-21.000	0.101
617.900	-9.519	0.101
618.000	-21.305	0.101
618.100	-4.583	0.101
618.200	-15.990	0.101
618.300	-25.227	0.101
618.400	-20.733	0.101
618.500	-7.073	0.101
618.600	-8.698	0.101
618.700	-9.875	0.101
618.800	-23.030	0.101
618.900	-20.511	0.101
619.000	-16.985	0.101
619.100	-13.912	0.101
619.200	-15.981	0.101
619.300	-17.630	0.101
619.400	-14.679	0.101
619.500	-18.833	0.101
619.600	-16.099	0.101
619.700	-16.619	0.101
619.800	-21.347	0.101
619.900	-14.413	0.101
620.000	-16.420	0.101
620.100	-22.836	0.101
620.200	-13.760	0.101
620.300	-12.071	0.101
620.400	-9.266	0.101
620.500	-16.932	0.101
620.600	-16.389	0.101
620.700	-13.771	0.101
620.800	-13.443	0.101
620.900	-19.005	0.101
621.000	-22.912	0.101
621.100	-22.960	0.101
621.200	-24.028	0.101
621.300	-10.030	0.101
621.400	-30.201	0.101
621.500	-15.190	0.101
621.600	-17.183	0.101
621.700	-13.203	0.101
621.800	-9.067	0.101
621.900	-15.640	0.101
622.000	-14.039	0.101
622.100	-22.019	0.101
622.200	-23.359	0.101
622.300	-21.643	0.101
622.400	-14.026	0.101
622.500	-19.736	0.101
622.600	-19.488	0.101
622.700	-10.415	0.101
622.800	-13.405	0.101
622.900	-24.787	0.101
623.000	-15.361	0.101
623.100	-10.694	0.101
623.200	-17.853	0.101
623.300	-18.060	0.101
623.400	-10.317	0.101
623.500	-13.089	0.101
623.600	-18.509	0.101
623.700	-15.654	0.101
623.800	-19.783	0.101
623.900	-18.380	0.101
624.000	-18.943	0.101
624.100	-11.661	0.101
624.200	-6.480	0.101
624.300	-20.828	0.101
624.400	-15.757	0.101
624.500	-25.387	0.101
624.600	-24.330	0.101
624.700	-15.235	0.101
624.800	-11.763	0.101
624.900	-9.583	0.101
625.000	-15.318	0.101
625.100	-18.157	0.101
625.200	-14.182	0.101
625.300	-16.480	0.101
625.400	-17.192	0.101
625.500	-13.569	0.101
625.600	-10.238	0.101
625.700	-8.542	0.101
625.800	-24.218	0.101
625.900	-15.453	0.101
626.000	-23.106	0.101
626.100	-17.412	0.101
626.200	-22.384	0.101
626.300	-10.120	0.101
626.400	-7.835	0.101
626.500	-20.629	0.101
626.600	-23.080	0.101
626.700	-18.976	0.101
626.800	-22.415	0.101
626.900	-12.908	0.100
627.000	-15.836	0.100
627.100	-11.421	0.100
627.200	-19.665	0.101
627.300	-13.351	0.100
627.400	-20.745	0.100
627.500	-12.480	0.100
627.600	-25.562	0.100
627.700	-13.828	0.100
627.800	-9.977	0.100
627.900	-10.544	0.100
628.000	-9.389	0.100
628.100	-7.201	0.100
628.200	-16.592	0.100
628.300	-12.597	0.100
628.400	-20.980	0.100
628.500	-16.073	0.100
628.600	-10.495	0.100
628.700	-11.091	0.100
628.800	-18.266	0.100
628.900	-18.905	0.100
629.000	-13.275	0.100
629.100	-17.297	0.100
629.200	-21.246	0.100
629.300	-9.761	0.100
629.400	-9.142	0.100
629.500	-15.590	0.100
629.600	-18.020	0.100
629.700	-24.089	0.100
629.800	-14.068	0.100
629.900	-17.052	0.100
630.000	-16.326	0.100
630.100	-13.638	0.100
630.200	-15.011	0.100
630.300	-20.143	0.100
630.400	-10.871	0.100
630.500	-8.344	0.100
630.600	-20.207	0.100
630.700	-19.377	0.100
630.800	-11.381	0.100
630.900	-10.366	0.100
631.000	-2.343	0.100
631.100	7.441	0.100
631.200	-1.530	0.100
631.300	-2.578	0.100
631.400	4.501	0.100
631.500	9.056	0.100
631.600	5.992	0.100
631.700	13.959	0.100
631.800	8.648	0.100
631.900	21.932	0.100
632.000	10.315	0.100
632.100	6.569	0.100
632.200	5.562	0.100
632.300	3.737	0.100
632.400	-0.473	0.100
632.500	11.432	0.100
632.600	28.167	0.100
632.700	14.437	0.100
632.800	9.929	0.100
632.900	13.654	0.100
633.000	29.005	0.100
633.100	13.127	0.100
633.200	25.459	0.100
633.300	15.055	0.100
633.400	5.738	0.100
633.500	19.252	0.100
633.600	18.315	0.100
633.700	16.009	0.100
633.800	10.984	0.100
633.900	13.779	0.100
634.000	16.762	0.100
634.100	28.222	0.100
634.200	22.265	0.100
634.300	13.239	0.100
634.400	14.907	0.100
634.500	24.273	0.100
634.600	25.928	0.100
634.700	24.009	0.100
634.800	8.276	0.100
634.900	20.408	0.100
635.000	26.954	0.100
635.100	22.446	0.100
635.200	14.004	0.100
635.300	14.400	0.100
635.400	8.600	0.100
635.500	18.743	0.100
635.600	12.563	0.100
635.700	5.370	0.100
635.800	13.609	0.100
635.900	13.923	0.100
636.000	4.212	0.100
636.100	0.329	0.100
636.200	21.363	0.100
636.300	29.424	0.100
636.400	18.272	0.100
636.500	26.507	0.100
636.600	20.507	0.100
636.700	6.700	0.100
636.800	8.212	0.100
636.900	6.323	0.100
637.000	2.972	0.100
637.100	8.705	0.100
637.200	14.004	0.100
637.300	20.445	0.100
637.400	6.246	0.100
637.500	14.750	0.100
637.600	18.495	0.100
637.700	14.740	0.100
637.800	16.948	0.100
637.900	16.909	0.100
638.000	7.720	0.100
638.100	13.653	0.100
638.200	7.745	0.100
638.300	8.821	0.100
638.400	13.176	0.100
638.500	19.738	0.100
638.600	20.051	0.100
638.700	6.774	0.100
638.800	17.036	0.100
638.900	13.324	0.100
639.000	13.347	0.100
639.100	23.043	0.100
639.200	19.705	0.100
639.300	14.645	0.100
639.400	8.062	0.100
639.500	10.564	0.100
639.600	9.708	0.100
639.700	15.965	0.100
639.800	19.274	0.100
639.900	7.568	0.100
640.000	11.681	0.100
640.100	16.298	0.100
640.200	17.340	0.100
640.300	12.585	0.100
640.400	7.753	0.100
640.500	9.469	0.100
640.600	18.166	0.100
640.700	8.028	0.100
640.800	25.808	0.100
640.900	24.478	0.100
641.000	14.434	0.100
641.100	6.710	0.100
641.200	7.823	0.100
641.300	10.804	0.100
641.400	19.449	0.100
641.500	7.150	0.100
641.600	8.476	0.100
641.700	14.860	0.100
641.800	20.940	0.100
641.900	23.114	0.100
642.000	9.306	0.100
642.100	13.900	0.100
642.200	14.081	0.100
642.300	13.624	0.100
642.400	12.996	0.100
642.500	10.576	0.100
642.600	14.974	0.100
642.700	9.675	0.100
642.800	28.831	0.100
642.900	13.955	0.100
643.000	17.858	0.100
643.100	21.359	0.100
643.200	17.661	0.100
643.300	7.132	0.100
643.400	12.787	0.100
643.500	16.041	0.100
643.600	19.848	0.100
643.700	14.418	0.100
643.800	18.509	0.100
643.900	8.889	0.100
644.000	14.588	0.100
644.100	20.399	0.100
644.200	25.569	0.100
644.300	25.748	0.101
644.400	10.653	0.100
644.500	18.166	0.101
644.600	12.911	0.101
644.700	20.328	0.100
644.800	16.450	0.101
644.900	18.243	0.101
645.000	22.745	0.100
645.100	23.575	0.100
645.200	16.818	0.100
645.300	15.027	0.100
645.400	15.812	0.100
645.500	19.957	0.100
645.600	20.846	0.100
645.700	9.940	0.100
645.800	15.183	0.100
645.900	18.871	0.100
646.000	18.651	0.100
646.100	20.358	0.101
646.200	10.858	0.101
646.300	15.899	0.100
646.400	11.413	0.101
646.500	12.939	0.100
646.600	22.804	0.101
646.700	11.670	0.100
646.800	19.989	0.100
646.900	12.158	0.101
647.000	23.736	0.101
647.100	16.858	0.100
647.200	14.514	0.100
647.300	22.665	0.100
647.400	27.603	0.100
647.500	25.745	0.100
647.600	17.811	0.101
647.700	17.431	0.101
647.800	22.189	0.100
647.900	19.094	0.101
648.000	11.320	0.100
648.100	7.539	0.100
648.200	12.783	0.100
648.300	30.771	0.101
648.400	20.863	0.101
648.500	16.904	0.100
648.600	22.478	0.101
648.700	19.189	0.101
648.800	19.849	0.101
648.900	22.301	0.101
649.000	35.826	0.101
649.100	29.937	0.100
649.200	27.109	0.101
649.300	16.003	0.101
649.400	18.954	0.101
649.500	16.101	0.101
649.600	24.083	0.101
649.700	24.338	0.101
649.800	20.679	0.101
649.900	17.645	0.101
650.000	32.211	0.101
650.100	24.706	0.101
650.200	14.390	0.101
650.300	16.518	0.101
650.400	31.183	0.101
650.500	30.021	0.101
650.600	16.635	0.101
650.700	25.561	0.101
650.800	26.560	0.101
650.900	24.063	0.101
651.000	17.405	0.101
651.100	18.108	0.101
651.200	19.145	0.101
651.300	21.496	0.101
651.400	36.397	0.101
651.500	28.551	0.101
651.600	34.897	0.101
651.700	25.338	0.101
651.800	24.083	0.101
651.900	24.328	0.101
652.000	27.502	0.101
652.100	23.060	0.101
652.200	29.579	0.101
652.300	29.962	0.101
652.400	33.498	0.101
652.500	28.893	0.101
652.600	26.221	0.101
652.700	25.882	0.101
652.800	27.840	0.101
652.900	12.223	0.101
653.000	17.431	0.101
653.100	27.004	0.101
653.200	30.049	0.101
653.300	37.061	0.101
653.400	27.840	0.101
653.500	29.651	0.101
653.600	23.938	0.101
653.700	16.715	0.101
653.800	32.371	0.101
653.900	22.803	0.101
654.000	33.930	0.101
654.100	21.706	0.101
654.200	35.836	0.101
654.300	26.174	0.101
654.400	32.361	0.101
654.500	25.636	0.101
654.600	29.171	0.101
654.700	20.758	0.101
654.800	37.607	0.101
654.900	24.584	0.101
655.000	26.438	0.101
655.100	24.185	0.101
655.200	31.798	0.101
655.300	27.001	0.101
655.400	27.362	0.101
655.500	22.311	0.101
655.600	23.669	0.101
655.700	19.342	0.101
655.800	30.570	0.101
655.900	29.594	0.101
656.000	29.436	0.101
656.100	36.260	0.101
656.200	29.781	0.100
656.300	29.678	0.101
656.400	29.144	0.101
656.500	31.765	0.101
656.600	30.541	0.100
656.700	23.336	0.101
656.800	32.347	0.101
656.900	22.779	0.101
657.000	37.854	0.101
657.100	33.946	0.101
657.200	27.915	0.101
657.300	21.913	0.101
657.400	33.651	0.101
657.500	29.647	0.101
657.600	33.367	0.101
657.700	26.786	0.100
657.800	26.048	0.101
657.900	33.575	0.101
658.000	28.439	0.101
658.100	26.601	0.101
658.200	39.928	0.101
658.300	34.072	0.101
658.400	36.586	0.101
658.500	21.794	0.101
658.600	40.742	0.101
658.700	34.445	0.101
658.800	32.449	0.101
658.900	30.998	0.101
659.000	34.307	0.101
659.100	29.014	0.101
659.200	27.629	0.101
659.300	33.831	0.101
659.400	27.053	0.101
659.500	32.382	0.101
659.600	28.414	0.101
659.700	29.118	0.101
659.800	23.906	0.101
659.900	22.613	0.101
660.000	33.049	0.101
660.100	34.204	0.101
660.200	27.961	0.100
660.300	39.005	0.101
660.400	38.598	0.101
660.500	28.494	0.100
660.600	17.619	0.101
660.700	16.941	0.100
660.800	36.051	0.101
660.900	36.040	0.100
661.000	29.744	0.101
661.100	39.172	0.100
661.200	30.508	0.100
661.300	18.998	0.101
661.400	25.398	0.101
661.500	27.711	0.101
661.600	38.174	0.100
661.700	22.893	0.101
661.800	34.530	0.101
661.900	32.650	0.101
662.000	38.501	0.100
662.100	42.375	0.100
662.200	37.325	0.101
662.300	30.059	0.101
662.400	33.068	0.101
662.500	23.369	0.101
662.600	31.564	0.101
662.700	28.127	0.101
662.800	22.472	0.100
662.900	23.802	0.100
663.000	33.851	0.101
663.100	26.688	0.101
663.200	38.420	0.101
663.300	33.557	0.101
663.400	32.585	0.100
663.500	28.424	0.100
663.600	26.342	0.101
663.700	22.942	0.100
663.800	36.424	0.101
663.900	28.909	0.101
664.000	38.116	0.100
664.100	27.328	0.100
664.200	37.965	0.101
664.300	32.555	0.100
664.400	36.249	0.101
664.500	38.034	0.100
664.600	49.197	0.100
664.700	29.965	0.100
664.800	31.947	0.101
664.900	24.446	0.101
665.000	27.094	0.101
665.100	27.966	0.100
665.200	29.103	0.100
665.300	38.538	0.100
665.400	27.269	0.100
665.500	32.133	0.101
665.600	30.621	0.100
665.700	15.126	0.100
665.800	31.839	0.101
665.900	29.383	0.100
666.000	26.170	0.101
666.100	26.950	0.101
666.200	29.741	0.101
666.300	38.887	0.101
666.400	46.472	0.101
666.500	44.556	0.100
666.600	40.098	0.100
666.700	23.770	0.100
666.800	27.902	0.101
666.900	31.165	0.101
667.000	23.436	0.101
667.100	34.533	0.101
667.200	25.754	0.101
667.300	25.774	0.101
667.400	39.808	0.101
667.500	21.668	0.101
667.600	26.346	0.101
667.700	30.416	0.101
667.800	41.976	0.101
667.900	30.533	0.101
668.000	37.731	0.101
668.100	31.097	0.101
668.200	24.559	0.101
668.300	26.713	0.100
668.400	39.914	0.101
668.500	34.041	0.101
668.600	30.049	0.101
668.700	32.799	0.101
668.800	42.108	0.101
668.900	34.573	0.101
669.000	31.304	0.100
669.100	34.631	0.101
669.200	31.047	0.100
669.300	20.448	0.101
669.400	36.304	0.100
669.500	32.970	0.101
669.600	29.932	0.101
669.700	27.611	0.101
669.800	26.543	0.100
669.900	25.124	0.100
670.000	38.210	0.101
670.100	34.952	0.101
670.200	35.235	0.101
670.300	20.031	0.100
670.400	36.808	0.101
670.500	34.369	0.101
670.600	37.658	0.101
670.700	28.310	0.101
670.800	37.961	0.101
670.900	29.200	0.101
671.000	29.215	0.100
671.100	30.326	0.100
671.200	35.288	0.101
671.300	37.936	0.101
671.400	37.655	0.100
671.500	26.753	0.101
671.600	29.545	0.100
671.700	30.183	0.101
671.800	30.257	0.101
671.900	43.286	0.101
672.000	42.169	0.101
672.100	37.408	0.101
672.200	32.149	0.101
672.300	32.322	0.101
672.400	29.394	0.101
672.500	42.414	0.101
672.600	28.567	0.101
672.700	25.469	0.101
672.800	31.339	0.101
672.900	30.898	0.101
673.000	22.845	0.101
673.100	18.690	0.101
673.200	41.869	0.101
673.300	31.090	0.101
673.400	32.982	0.101
673.500	27.407	0.101
673.600	33.879	0.101
673.700	31.416	0.101
673.800	34.327	0.101
673.900	36.812	0.101
674.000	21.579	0.101
674.100	21.843	0.101
674.200	32.692	0.101
674.300	21.085	0.101
674.400	31.332	0.101
674.500	26.955	0.101
674.600	37.384	0.101
674.700	20.969	0.101
674.800	34.974	0.101
674.900	46.750	0.101
675.000	26.535	0.101
675.100	35.478	0.101
675.200	41.977	0.101
675.300	40.384	0.101
675.400	30.272	0.101
675.500	28.105	0.101
675.600	38.696	0.101
675.700	27.470	0.101
675.800	35.818	0.101
675.900	36.632	0.101
676.000	31.697	0.101
676.100	33.227	0.100
676.200	36.714	0.101
676.300	26.641	0.101
676.400	27.644	0.101
676.500	22.421	0.101
676.600	33.090	0.101
676.700	29.735	0.101
676.800	40.197	0.101
676.900	39.667	0.101
677.000	43.196	0.101
677.100	32.813	0.101
677.200	29.043	0.101
677.300	29.072	0.101
677.400	25.387	0.101
677.500	22.014	0.101
677.600	44.088	0.101
677.700	34.560	0.101
677.800	33.102	0.101
677.900	34.411	0.101
678.000	26.881	0.101
678.100	27.090	0.101
678.200	28.305	0.101
678.300	35.312	0.101
678.400	35.992	0.101
678.500	43.110	0.101
678.600	32.521	0.101
678.700	27.712	0.101
678.800	35.922	0.101
678.900	32.121	0.101
679.000	32.539	0.101
679.100	36.232	0.101
679.200	35.490	0.101
679.300	21.574	0.101
679.400	33.751	0.101
679.500	34.940	0.101
679.600	31.357	0.101
679.700	22.103	0.101
679.800	31.920	0.101
679.900	32.138	0.101
680.000	43.254	0.101
680.100	27.943	0.101
680.200	36.868	0.101
680.300	37.438	0.101
680.400	29.660	0.101
680.500	31.280	0.101
680.600	27.801	0.101
680.700	27.467	0.101
680.800	25.812	0.101
680.900	26.476	0.101
681.000	41.515	0.101
681.100	39.956	0.101
681.200	35.712	0.101
681.300	20.405	0.101
681.400	33.735	0.101
681.500	34.537	0.101
681.600	35.708	0.101
681.700	31.593	0.101
681.800	35.828	0.101
681.900	35.344	0.101
682.000	40.195	0.101
682.100	34.939	0.101
682.200	25.991	0.101
682.300	20.022	0.101
682.400	22.484	0.101
682.500	33.878	0.101
682.600	23.020	0.101
682.700	21.725	0.101
682.800	32.411	0.101
682.900	31.805	0.100
683.000	41.197	0.100
683.100	23.890	0.101
683.200	33.132	0.100
683.300	33.804	0.100
683.400	35.926	0.100
683.500	28.361	0.100
683.600	46.996	0.100
683.700	37.637	0.100
683.800	35.002	0.100
683.900	30.898	0.100
684.000	22.735	0.100
684.100	20.494	0.100
684.200	26.935	0.100
684.300	30.403	0.100
684.400	25.124	0.100
684.500	31.236	0.100
684.600	38.800	0.100
684.700	31.598	0.100
684.800	26.827	0.100
684.900	28.952	0.100
685.000	32.660	0.100
685.100	32.201	0.100
685.200	38.281	0.100
685.300	25.087	0.100
685.400	23.544	0.100
685.500	22.965	0.100
685.600	26.296	0.100
685.700	26.658	0.100
685.800	41.311	0.100
685.900	38.868	0.100
686.000	19.981	0.100
686.100	42.078	0.100
686.200	40.926	0.100
686.300	30.264	0.100
686.400	35.037	0.100
686.500	35.170	0.100
686.600	25.086	0.100
686.700	30.067	0.100
686.800	29.750	0.100
686.900	37.183	0.100
687.000	31.065	0.100
687.100	24.638	0.100
687.200	29.300	0.100
687.300	31.734	0.100
687.400	32.465	0.100
687.500	37.419	0.100
687.600	35.444	0.100
687.700	17.196	0.100
687.800	21.137	0.100
687.900	33.991	0.100
688.000	31.690	0.100
688.100	28.665	0.100
688.200	34.100	0.100
688.300	33.260	0.100
688.400	35.233	0.100
688.500	36.579	0.100
688.600	36.901	0.100
688.700	34.035	0.100
688.800	34.091	0.100
688.900	37.010	0.100
689.000	36.557	0.100
689.100	17.493	0.100
689.200	18.209	0.100
689.300	25.518	0.100
689.400	38.491	0.100
689.500	31.079	0.100
689.600	30.678	0.100
689.700	30.307	0.100
689.800	16.989	0.100
689.900	29.353	0.100
690.000	23.863	0.100
690.100	34.664	0.100
690.200	32.423	0.100
690.300	31.109	0.100
690.400	25.797	0.100
690.500	37.380	0.100
690.600	33.386	0.100
690.700	24.708	0.100
690.800	30.538	0.100
690.900	22.075	0.100
691.000	15.451	0.100
691.100	17.075	0.100
691.200	18.751	0.100
691.300	8.371	0.100
691.400	14.057	0.100
691.500	24.994	0.100
691.600	29.074	0.100
691.700	10.446	0.100
691.800	14.478	0.100
691.900	16.450	0.100
692.000	11.270	0.100
692.100	16.671	0.100
692.200	12.569	0.100
692.300	14.272	0.100
692.400	18.461	0.100
692.500	0.301	0.100
692.600	1.156	0.100
692.700	11.553	0.100
692.800	9.360	0.100
692.900	3.354	0.100
693.000	5.902	0.100
693.100	13.282	0.100
693.200	16.206	0.100
693.300	-3.007	0.100
693.400	0.546	0.100
693.500	5.823	0.100
693.600	8.474	0.100
693.700	1.792	0.100
693.800	-0.034	0.100
693.900	5.902	0.100
694.000	13.152	0.100
694.100	-3.401	0.100
694.200	3.693	0.100
694.300	-5.672	0.100
694.400	-7.013	0.100
694.500	13.063	0.100
694.600	14.171	0.100
694.700	7.275	0.100
694.800	-1.344	0.100
694.900	5.238	0.100
695.000	2.757	0.100
695.100	-0.538	0.100
695.200	3.986	0.100
695.300	0.266	0.100
695.400	-1.273	0.100
695.500	2.660	0.100
695.600	4.030	0.100
695.700	3.193	0.100
695.800	-6.341	0.100
695.900	-5.625	0.100
696.000	0.610	0.100
696.100	16.921	0.100
696.200	8.839	0.100
696.300	5.005	0.100
696.400	3.292	0.100
696.500	-1.591	0.100
696.600	6.366	0.100
696.700	5.289	0.100
696.800	2.638	0.100
696.900	2.877	0.100
697.000	2.699	0.100
697.100	9.544	0.100
697.200	-5.539	0.100
697.300	0.298	0.100
697.400	0.643	0.100
697.500	9.340	0.100
697.600	8.528	0.100
697.700	8.994	0.100
697.800	0.767	0.100
697.900	-2.409	0.100
698.000	-3.033	0.100
698.100	1.707	0.100
698.200	-7.563	0.100
698.300	1.748	0.100
698.400	-4.597	0.100
698.500	-7.763	0.100
698.600	-7.867	0.100
698.700	7.472	0.100
698.800	0.496	0.100
698.900	-5.674	0.100
699.000	2.016	0.100
699.100	4.906	0.100
699.200	4.465	0.100
699.300	2.182	0.100
699.400	0.930	0.100
699.500	-6.944	0.100
699.600	-4.200	0.101
699.700	-5.660	0.101
699.800	-0.194	0.101
699.900	0.454	0.100
700.000	13.185	0.101
700.100	3.212	0.101
700.200	-1.426	0.101
700.300	-5.190	0.101
700.400	-3.845	0.101
700.500	-4.636	0.101
700.600	-9.660	0.101
700.700	1.785	0.101
700.800	-1.257	0.101
700.900	-4.736	0.101
701.000	-0.462	0.101
701.100	-6.567	0.101
701.200	0.054	0.101
701.300	-0.380	0.101
701.400	7.082	0.101
701.500	4.961	0.101
701.600	-5.746	0.101
701.700	-9.727	0.101
701.800	-11.146	0.101
701.900	-5.990	0.101
702.000	-1.082	0.101
702.100	2.174	0.101
702.200	7.181	0.101
702.300	-2.189	0.101
702.400	1.115	0.101
702.500	2.235	0.101
702.600	-5.977	0.101
702.700	-2.391	0.101
702.800	-5.606	0.101
702.900	-7.809	0.101
703.000	-2.988	0.101
703.100	3.538	0.101
703.200	2.956	0.100
703.300	-4.554	0.101
703.400	-4.135	0.101
703.500	-2.634	0.101
703.600	-8.372	0.101
703.700	-10.881	0.101
703.800	-5.249	0.101
703.900	-8.619	0.101
704.000	-12.999	0.101
704.100	-12.401	0.101
704.200	-5.635	0.101
704.300	6.620	0.101
704.400	1.785	0.101
704.500	-9.531	0.101
704.600	-12.011	0.101
704.700	-4.808	0.101
704.800	-5.300	0.101
704.900	-6.461	0.101
705.000	3.011	0.101
705.100	-10.782	0.101
705.200	-14.137	0.101
705.300	-9.969	0.101
705.400	-4.776	0.101
705.500	5.307	0.101
705.600	-2.744	0.101
705.700	-4.574	0.101
705.800	-3.163	0.101
705.900	6.628	0.101
706.000	-11.965	0.101
706.100	-12.491	0.101
706.200	-2.834	0.101
706.300	-13.557	0.101
706.400	-12.555	0.101
706.500	0.618	0.101
706.600	-6.243	0.101
706.700	-4.713	0.101
706.800	-13.149	0.101
706.900	-0.813	0.101
707.000	-8.152	0.101
707.100	-2.679	0.101
707.200	-21.532	0.101
707.300	-12.519	0.101
707.400	-10.576	0.101
707.500	-9.659	0.101
707.600	-15.696	0.101
707.700	-6.887	0.101
707.800	-14.023	0.101
707.900	-8.695	0.101
708.000	-14.868	0.101
708.100	-8.397	0.101
708.200	-12.143	0.101
708.300	-18.334	0.101
708.400	-19.779	0.101
708.500	-15.733	0.101
708.600	-8.894	0.101
708.700	-6.136	0.101
708.800	-4.833	0.101
708.900	-5.037	0.101
709.000	-12.211	0.101
709.100	-9.227	0.101
709.200	-23.617	0.101
709.300	-3.475	0.101
709.400	-5.278	0.101
709.500	-4.526	0.101
709.600	-8.697	0.101
709.700	-19.481	0.101
709.800	-13.346	0.101
709.900	-3.977	0.101
710.000	-12.640	0.101
710.100	-1.802	0.101
710.200	-10.247	0.101
710.300	-1.661	0.101
710.400	-11.880	0.101
710.500	-14.195	0.101
710.600	-14.393	0.101
710.700	-2.231	0.101
710.800	-20.374	0.100
710.900	-4.826	0.100
711.000	-17.684	0.100
711.100	-28.871	0.100
711.200	-12.823	0.100
711.300	3.757	0.100
711.400	-3.781	0.100
711.500	-4.262	0.100
711.600	-8.359	0.100
711.700	-20.395	0.100
711.800	-13.181	0.100
711.900	-10.781	0.100
712.000	-15.806	0.100
712.100	-22.987	0.101
712.200	-9.049	0.100
712.300	-12.669	0.100
712.400	-14.419	0.100
712.500	-21.829	0.100
712.600	-26.515	0.100
712.700	-11.302	0.100
712.800	-4.248	0.100
712.900	-6.393	0.100
713.000	-6.904	0.100
713.100	-16.714	0.100
713.200	-18.887	0.100
713.300	-15.283	0.100
713.400	-13.909	0.100
713.500	-21.453	0.100
713.600	-10.150	0.100
713.700	-17.279	0.100
713.800	-16.630	0.100
713.900	-8.281	0.100
714.000	-9.419	0.100
714.100	-10.364	0.100
714.200	-17.758	0.100
714.300	-15.549	0.100
714.400	-18.827	0.100
714.500	-24.947	0.100
714.600	-13.740	0.100
714.700	-17.070	0.101
714.800	-13.671	0.100
714.900	-14.093	0.100
715.000	-6.179	0.100
715.100	-12.140	0.100
715.200	-16.593	0.100
715.300	-13.593	0.100
715.400	-11.180	0.100
715.500	-15.577	0.100
715.600	-23.451	0.100
715.700	-10.641	0.100
715.800	-17.664	0.100
715.900	-18.992	0.100
716.000	-13.177	0.100
716.100	-18.228	0.100
716.200	-15.458	0.100
716.300	-14.082	0.100
716.400	-18.109	0.100
716.500	-10.607	0.100
716.600	-12.374	0.100
716.700	-9.322	0.100
716.800	-11.710	0.100
716.900	-14.667	0.100
717.000	-25.652	0.100
717.100	-16.066	0.100
717.200	-15.671	0.100
717.300	-21.296	0.100
717.400	-6.211	0.100
717.500	-11.417	0.100
717.600	-14.437	0.100
717.700	-15.396	0.100
717.800	-22.776	0.100
717.900	-9.384	0.100
718.000	-22.056	0.100
718.100	-12.039	0.100
718.200	-19.141	0.100
718.300	-27.216	0.100
718.400	-23.570	0.100
718.500	-23.998	0.100
718.600	-24.474	0.100
718.700	-19.970	0.100
718.800	-28.179	0.100
718.900	-21.181	0.100
719.000	-11.053	0.100
719.100	-8.760	0.100
719.200	-15.195	0.100
719.300	-11.670	0.100
719.400	-16.885	0.100
719.500	-29.321	0.100
719.600	-12.598	0.100
719.700	-12.843	0.100
719.800	-27.262	0.100
719.900	-14.978	0.100
720.000	-19.547	0.100
720.100	-19.755	0.100
720.200	-20.907	0.100
720.300	-23.635	0.100
720.400	-16.789	0.100
720.500	-15.956	0.100
720.600	-17.044	0.100
720.700	-21.304	0.100
720.800	-29.254	0.100
720.900	-13.822	0.100
721.000	-26.434	0.100
721.100	-28.171	0.100
721.200	-27.591	0.100
721.300	-18.629	0.100
721.400	-17.878	0.100
721.500	-13.917	0.100
721.600	-19.695	0.100
721.700	-16.338	0.100
721.800	-19.671	0.100
721.900	-19.389	0.100
722.000	-22.715	0.100
722.100	-21.407	0.100
722.200	-17.472	0.100
722.300	-28.557	0.100
722.400	-21.142	0.100
722.500	-16.200	0.100
722.600	-25.340	0.100
722.700	-24.729	0.100
722.800	-21.531	0.100
722.900	-21.127	0.100
723.000	-17.474	0.100
723.100	-9.876	0.100
723.200	-15.571	0.100
723.300	-14.582	0.100
723.400	-28.226	0.100
723.500	-18.237	0.100
723.600	-31.031	0.100
723.700	-25.869	0.100
723.800	-34.112	0.100
723.900	-25.766	0.100
724.000	-31.801	0.100
724.100	-25.102	0.100
724.200	-21.344	0.100
724.300	-20.031	0.100
724.400	-27.601	0.100
724.500	-22.710	0.100
724.600	-23.489	0.100
724.700	-12.258	0.100
724.800	-15.627	0.100
724.900	-24.408	0.100
725.000	-20.318	0.100
725.100	-22.761	0.100
725.200	-31.781	0.100
725.300	-17.663	0.100
725.400	-9.285	0.100
725.500	-19.309	0.100
725.600	-24.795	0.100
725.700	-17.735	0.100
725.800	-16.164	0.100
725.900	-19.137	0.100
726.000	-17.557	0.100
726.100	-20.653	0.100
726.200	-14.704	0.100
726.300	-20.074	0.100
726.400	-26.822	0.100
726.500	-22.112	0.100
726.600	-22.781	0.100
726.700	-18.759	0.100
726.800	-29.368	0.100
726.900	-24.914	0.100
727.000	-25.807	0.100
727.100	-18.688	0.100
727.200	-18.226	0.100
727.300	-18.486	0.100
727.400	-28.920	0.100
727.500	-22.484	0.100
727.600	-27.645	0.100
727.700	-21.904	0.100
727.800	-23.132	0.100
727.900	-21.314	0.100
728.000	-19.661	0.100
728.100	-13.748	0.100
728.200	-25.240	0.100
728.300	-23.084	0.100
728.400	-27.889	0.100
728.500	-21.988	0.100
728.600	-21.632	0.100
728.700	-19.755	0.100
728.800	-30.416	0.100
728.900	-22.086	0.100
729.000	-27.000	0.100
729.100	-29.887	0.100
729.200	-24.271	0.100
729.300	-21.095	0.100
729.400	-20.642	0.100
729.500	-27.096	0.100
729.600	-20.629	0.100
729.700	-16.007	0.100
729.800	-25.697	0.100
729.900	-27.424	0.100
730.000	-15.349	0.100
730.100	-19.422	0.100
730.200	-14.040	0.100
730.300	-11.012	0.100
730.400	-36.966	0.100
730.500	-33.087	0.100
730.600	-33.053	0.100
730.700	-24.112	0.100
730.800	-27.723	0.100
730.900	-29.507	0.100
731.000	-25.473	0.100
731.100	-23.558	0.100
731.200	-19.167	0.100
731.300	-20.873	0.100
731.400	-18.183	0.100
731.500	-24.690	0.100
731.600	-27.595	0.100
731.700	-15.574	0.100
731.800	-14.745	0.100
731.900	-23.571	0.100
732.000	-23.617	0.100
732.100	-23.260	0.100
732.200	-34.560	0.100
732.300	-17.134	0.100
732.400	-34.795	0.100
732.500	-21.118	0.100
732.600	-21.554	0.100
732.700	-34.867	0.100
732.800	-22.082	0.100
732.900	-13.259	0.100
733.000	-30.894	0.100
733.100	-28.043	0.100
733.200	-28.793	0.100
733.300	-23.349	0.100
733.400	-20.506	0.100
733.500	-18.488	0.101
733.600	-24.041	0.100
733.700	-13.339	0.101
733.800	-31.446	0.100
733.900	-24.095	0.100
734.000	-21.237	0.100
734.100	-26.341	0.100
734.200	-15.819	0.101
734.300	-16.120	0.101
734.400	-38.193	0.100
734.500	-27.892	0.100
734.600	-20.760	0.101
734.700	-17.341	0.101
734.800	-22.447	0.100
734.900	-16.234	0.101
735.000	-28.387	0.100
735.100	-12.074	0.101
735.200	-29.330	0.100
735.300	-31.047	0.100
735.400	-26.884	0.100
735.500	-21.370	0.101
735.600	-13.042	0.101
735.700	-21.149	0.100
735.800	-20.465	0.100
735.900	-27.277	0.100
736.000	-35.150	0.100
736.100	-20.110	0.101
736.200	-16.267	0.101
736.300	-23.692	0.100
736.400	-29.913	0.100
736.500	-21.626	0.100
736.600	-20.477	0.101
736.700	-22.008	0.100
736.800	-32.229	0.100
736.900	-25.010	0.100
737.000	-27.400	0.100
737.100	-17.043	0.101
737.200	-20.588	0.100
737.300	-16.665	0.100
737.400	-21.725	0.100
737.500	-15.464	0.101
737.600	-19.718	0.101
737.700	-25.731	0.100
737.800	-28.717	0.100
737.900	-20.705	0.101
738.000	-21.337	0.101
738.100	-21.634	0.100
738.200	-21.582	0.100
738.300	-19.314	0.101
738.400	-23.481	0.100
738.500	-27.666	0.100
738.600	-26.980	0.100
738.700	-25.895	0.100
738.800	-20.131	0.101
738.900	-21.092	0.101
739.000	-16.792	0.101
739.100	-15.941	0.101
739.200	-24.921	0.101
739.300	-24.021	0.101
739.400	-28.567	0.101
739.500	-19.632	0.101
739.600	-14.265	0.101
739.700	-25.810	0.101
739.800	-25.598	0.101
739.900	-21.947	0.101
740.000	-23.790	0.101
740.100	-23.689	0.101
740.200	-23.061	0.101
740.300	-24.430	0.101
740.400	-15.475	0.101
740.500	-16.690	0.101
740.600	-22.261	0.101
740.700	-26.323	0.101
740.800	-21.788	0.101
740.900	-23.793	0.101
741.000	-24.879	0.101
741.100	-18.639	0.101
741.200	-24.050	0.101
741.300	-20.868	0.101
741.400	-26.302	0.101
741.500	-25.326	0.101
741.600	-20.168	0.101
741.700	-20.201	0.101
741.800	-12.589	0.101
741.900	-5.779	0.101
742.000	-20.437	0.101
742.100	-21.717	0.101
742.200	-23.821	0.101
742.300	-14.323	0.101
742.400	-26.090	0.101
742.500	-26.205	0.101
742.600	-20.851	0.101
742.700	-17.749	0.101
742.800	-9.923	0.101
742.900	-19.084	0.101
743.000	-12.519	0.101
743.100	-29.991	0.101
743.200	-23.609	0.101
743.300	-22.369	0.101
743.400	-19.196	0.101
743.500	-24.260	0.101
743.600	-25.546	0.101
743.700	-12.344	0.101
743.800	-11.629	0.101
743.900	-16.297	0.101
744.000	-30.323	0.101
744.100	-18.756	0.101
744.200	-22.285	0.101
744.300	-29.938	0.101
744.400	-31.058	0.100
744.500	-26.000	0.100
744.600	-35.962	0.100
744.700	-24.171	0.100
744.800	-9.380	0.100
744.900	-11.967	0.100
745.000	-16.092	0.100
745.100	-15.703	0.100
745.200	-27.823	0.100
745.300	-29.130	0.100
745.400	-16.474	0.100
745.500	-23.511	0.100
745.600	-23.262	0.100
745.700	-9.412	0.100
745.800	-17.608	0.100
745.900	-15.945	0.100
746.000	-17.624	0.100
746.100	-24.249	0.100
746.200	-33.001	0.100
746.300	-16.092	0.100
746.400	-18.734	0.100
746.500	-17.835	0.100
746.600	-25.940	0.100
746.700	-31.874	0.100
746.800	-30.482	0.100
746.900	-17.210	0.100
747.000	-23.843	0.100
747.100	-16.761	0.100
747.200	-21.056	0.100
747.300	-28.433	0.100
747.400	-17.881	0.100
747.500	-21.044	0.100
747.600	-33.058	0.100
747.700	-22.293	0.100
747.800	-16.082	0.100
747.900	-20.670	0.100
748.000	-13.522	0.100
748.100	-16.376	0.100
748.200	-21.309	0.100
748.300	-19.573	0.100
748.400	-30.072	0.100
748.500	-17.968	0.100
748.600	-16.434	0.100
748.700	-11.163	0.100
748.800	-16.619	0.100
748.900	-17.222	0.100
749.000	-10.988	0.100
749.100	-14.085	0.100
749.200	-12.210	0.100
749.300	-16.673	0.100
749.400	-23.498	0.100
749.500	-22.914	0.100
749.600	-25.706	0.100
749.700	-22.407	0.100
749.800	-28.041	0.100
749.900	-22.266	0.100
750.000	-24.483	0.100
750.100	-20.343	0.100
750.200	-23.950	0.100
750.300	-19.412	0.100
750.400	-12.668	0.100
750.500	-13.579	0.100
750.600	-23.950	0.100
750.700	-21.621	0.100
750.800	-31.718	0.100
750.900	-16.827	0.100
751.000	-21.303	0.100
751.100	-17.030	0.100
751.200	-27.787	0.100
751.300	-22.178	0.100
751.400	-30.502	0.100
751.500	-26.179	0.100
751.600	-11.903	0.100
751.700	-20.416	0.100
751.800	-16.189	0.100
751.900	-14.779	0.100
752.000	-22.193	0.100
752.100	-19.572	0.100
752.200	-19.352	0.100
752.300	-26.223	0.100
752.400	-16.623	0.100
752.500	-26.238	0.100
752.600	-18.331	0.100
752.700	-19.814	0.100
752.800	-29.647	0.100
752.900	-15.497	0.100
753.000	-14.315	0.100
753.100	-17.413	0.100
753.200	-24.612	0.100
753.300	-13.310	0.100
753.400	-19.345	0.100
753.500	-28.033	0.100
753.600	-19.717	0.100
753.700	-23.577	0.100
753.800	-21.345	0.100
753.900	-21.136	0.100
754.000	-17.394	0.100
754.100	-22.343	0.100
754.200	-23.324	0.100
754.300	-17.276	0.100
754.400	-17.294	0.100
754.500	-20.225	0.100
754.600	-11.792	0.100
754.700	-15.263	0.100
754.800	-26.864	0.100
754.900	-29.957	0.100
755.000	-26.882	0.100
755.100	-11.021	0.100
755.200	-25.968	0.100
755.300	-10.044	0.100
755.400	-20.932	0.100
755.500	-19.745	0.100
755.600	-24.929	0.100
755.700	-21.857	0.100
755.800	-20.168	0.100
755.900	-17.455	0.100
756.000	-14.990	0.100
756.100	-21.763	0.100
756.200	-28.702	0.100
756.300	-19.251	0.100
756.400	-10.276	0.100
756.500	-4.935	0.100
756.600	-13.122	0.100
756.700	-30.304	0.100
756.800	-27.315	0.100
756.900	-20.585	0.100
757.000	-18.311	0.100
757.100	-14.828	0.100
757.200	-14.590	0.100
757.300	-18.020	0.100
757.400	-27.244	0.100
757.500	-22.943	0.100
757.600	-29.626	0.100
757.700	-24.710	0.100
757.800	-17.733	0.100
757.900	-13.270	0.100
758.000	-8.450	0.100
758.100	-23.511	0.100
758.200	-24.020	0.100
758.300	-17.251	0.100
758.400	-14.882	0.100
758.500	-12.501	0.100
758.600	-11.395	0.100
758.700	-27.365	0.100
758.800	-31.119	0.100
758.900	-20.050	0.100
759.000	-10.536	0.100
759.100	-25.022	0.100
759.200	-19.271	0.100
759.300	-18.092	0.100
759.400	-12.002	0.100
759.500	-30.305	0.100
759.600	-23.132	0.100
759.700	-24.748	0.100
759.800	-11.092	0.100
759.900	-17.698	0.100
760.000	-14.742	0.100
760.100	-27.076	0.100
760.200	-8.835	0.100
760.300	-22.162	0.100
760.400	-18.825	0.100
760.500	-13.670	0.100
760.600	-12.330	0.100
760.700	-16.061	0.100
760.800	-17.018	0.100
760.900	-16.656	0.100
761.000	-15.016	0.100
761.100	-15.737	0.101
761.200	-24.553	0.101
761.300	-17.643	0.101
761.400	-15.573	0.101
761.500	-13.963	0.101
761.600	-11.486	0.101
761.700	-11.978	0.101
761.800	-15.685	0.101
761.900	-19.321	0.101
762.000	-14.101	0.101
762.100	-12.117	0.101
762.200	-4.812	0.101
762.300	-20.705	0.101
762.400	-18.047	0.101
762.500	-29.980	0.101
762.600	-19.190	0.101
762.700	-22.316	0.101
762.800	-16.235	0.101
762.900	-26.453	0.101
763.000	-21.350	0.101
763.100	-25.789	0.101
763.200	-28.411	0.101
763.300	-11.755	0.101
763.400	-4.851	0.101
763.500	-14.577	0.101
763.600	-9.497	0.101
763.700	-19.063	0.101
763.800	-22.248	0.101
763.900	-18.158	0.101
764.000	-16.353	0.101
764.100	-31.427	0.101
764.200	-23.931	0.101
764.300	-22.878	0.101
764.400	-8.344	0.101
764.500	-22.883	0.101
764.600	-15.005	0.101
764.700	-12.861	0.101
764.800	-16.194	0.101
764.900	-28.129	0.101
765.000	-16.836	0.101
765.100	-11.216	0.101
765.200	-12.311	0.101
765.300	-6.796	0.101
765.400	-23.100	0.101
765.500	-17.140	0.101
765.600	-12.618	0.101
765.700	-17.676	0.101
765.800	-16.142	0.101
765.900	-10.674	0.101
766.000	-12.975	0.101
766.100	-14.807	0.101
766.200	-9.379	0.101
766.300	-20.734	0.101
766.400	-14.099	0.101
766.500	-21.037	0.101
766.600	-13.345	0.101
766.700	-15.919	0.101
766.800	-12.343	0.101
766.900	-10.478	0.101
767.000	-18.097	0.101
767.100	-12.084	0.101
767.200	-7.990	0.101
767.300	-7.142	0.101
767.400	-20.814	0.101
767.500	-21.534	0.101
767.600	-11.260	0.101
767.700	-10.834	0.101
767.800	-7.340	0.101
767.900	-16.105	0.101
768.000	-15.335	0.101
768.100	-17.566	0.101
768.200	-22.001	0.101
768.300	-15.305	0.101
768.400	-16.203	0.101
768.500	-23.932	0.101
768.600	-17.069	0.101
768.700	-18.355	0.101
768.800	-15.139	0.101
768.900	-3.739	0.101
769.000	-11.662	0.101
769.100	-21.205	0.101
769.200	-11.682	0.101
769.300	-14.076	0.101
769.400	-13.959	0.101
769.500	-21.007	0.101
769.600	-9.182	0.101
769.700	-13.381	0.101
769.800	-9.925	0.101
769.900	-10.625	0.101
770.000	-24.943	0.101
770.100	-28.196	0.101
770.200	-20.283	0.101
770.300	-8.486	0.101
770.400	-11.092	0.101
770.500	-4.741	0.101
770.600	-21.623	0.101
770.700	-14.819	0.101
770.800	-21.670	0.101
770.900	-15.054	0.101
771.000	-21.708	0.101
771.100	-21.973	0.101
771.200	-17.372	0.101
771.300	-18.991	0.101
771.400	-17.186	0.101
771.500	-10.092	0.101
771.600	-10.952	0.101
771.700	-8.001	0.101
771.800	-10.235	0.101
771.900	-17.995	0.101
772.000	0.351	0.101
772.100	-12.646	0.101
772.200	-24.842	0.101
772.300	-17.286	0.101
772.400	-15.940	0.101
772.500	-7.666	0.101
772.600	-10.586	0.101
772.700	-14.384	0.101
772.800	-18.107	0.101
772.900	-21.812	0.101
773.000	-7.327	0.101
773.100	-15.565	0.101
773.200	-22.100	0.101
773.300	-20.807	0.101
773.400	-13.465	0.101
773.500	-21.977	0.101
773.600	-13.812	0.101
773.700	-20.883	0.101
773.800	-20.787	0.101
773.900	-16.100	0.101
774.000	-12.324	0.101
774.100	-13.048	0.101
774.200	-11.501	0.101
774.300	-13.593	0.101
774.400	-12.452	0.101
774.500	-14.276	0.101
774.600	-21.784	0.101
774.700	-16.660	0.101
774.800	-14.272	0.101
774.900	-20.133	0.101
775.000	-12.480	0.101
775.100	-16.526	0.101
775.200	-13.164	0.101
775.300	-15.098	0.101
775.400	-10.593	0.101
775.500	-15.202	0.101
775.600	-10.189	0.101
775.700	-17.350	0.101
775.800	-23.119	0.101
775.900	-20.992	0.101
776.000	-16.793	0.101
776.100	-10.119	0.101
776.200	-10.922	0.101
776.300	-12.343	0.101
776.400	-6.798	0.101
776.500	-19.176	0.101
776.600	-23.721	0.101
776.700	-26.822	0.101
776.800	-12.433	0.101
776.900	-8.786	0.101
777.000	-10.447	0.101
777.100	-16.938	0.101
777.200	-13.112	0.101
777.300	-27.738	0.101
777.400	-13.877	0.101
777.500	-12.106	0.101
777.600	-6.085	0.101
777.700	-14.477	0.101
777.800	-16.534	0.101
777.900	-21.005	0.101
778.000	-15.501	0.101
778.100	-16.574	0.101
778.200	-16.018	0.101
778.300	-6.608	0.101
778.400	-8.185	0.101
778.500	-12.407	0.101
778.600	-8.330	0.101
778.700	-17.907	0.101
778.800	-26.754	0.101
778.900	-19.969	0.101
779.000	-12.484	0.101
779.100	-9.690	0.101
779.200	-18.714	0.101
779.300	-22.712	0.101
779.400	-13.440	0.101
779.500	-12.268	0.101
779.600	-11.759	0.101
779.700	-16.087	0.101
779.800	-6.209	0.101
779.900	-7.053	0.101
780.000	-15.072	0.101
780.100	-12.569	0.101
780.200	-10.974	0.101
780.300	-23.031	0.101
780.400	-11.792	0.101
780.500	-13.792	0.101
780.600	-14.477	0.101
780.700	-11.533	0.101
780.800	-0.392	0.101
780.900	-10.198	0.101
781.000	0.269	0.101
781.100	-10.830	0.101
781.200	-1.810	0.101
781.300	-11.812	0.101
781.400	3.588	0.101
781.500	7.314	0.101
781.600	12.945	0.101
781.700	5.548	0.101
781.800	-1.630	0.101
781.900	5.562	0.101
782.000	9.665	0.101
782.100	23.565	0.101
782.200	0.537	0.101
782.300	10.194	0.101
782.400	7.692	0.101
782.500	6.599	0.101
782.600	19.878	0.101
782.700	10.995	0.101
782.800	31.814	0.101
782.900	13.712	0.101
783.000	10.387	0.101
783.100	17.292	0.101
783.200	30.525	0.101
783.300	12.669	0.101
783.400	18.981	0.101
783.500	16.173	0.101
783.600	16.821	0.101
783.700	21.208	0.101
783.800	26.778	0.101
783.900	21.022	0.101
784.000	25.943	0.101
784.100	18.369	0.101
784.200	22.587	0.101
784.300	15.533	0.101
784.400	25.849	0.101
784.500	14.343	0.101
784.600	26.503	0.101
784.700	18.337	0.101
784.800	25.528	0.101
784.900	19.127	0.101
785.000	18.779	0.101
785.100	22.057	0.101
785.200	9.067	0.101
785.300	29.432	0.101
785.400	15.911	0.101
785.500	13.193	0.101
785.600	19.920	0.101
785.700	10.627	0.101
785.800	20.620	0.101
785.900	17.539	0.101
786.000	14.358	0.101
786.100	21.149	0.101
786.200	22.381	0.101
786.300	14.538	0.101
786.400	12.835	0.101
786.500	16.058	0.101
786.600	23.260	0.101
786.700	10.948	0.101
786.800	14.704	0.101
786.900	15.657	0.101
787.000	14.802	0.101
787.100	12.767	0.101
787.200	7.063	0.101
787.300	22.196	0.101
787.400	10.284	0.101
787.500	14.685	0.101
787.600	9.558	0.101
787.700	6.429	0.101
787.800	14.670	0.101
787.900	12.689	0.101
788.000	20.552	0.101
788.100	14.116	0.101
788.200	10.188	0.101
788.300	17.888	0.101
788.400	10.608	0.101
788.500	3.784	0.101
788.600	10.801	0.101
788.700	15.038	0.101
788.800	23.087	0.101
788.900	20.806	0.101
789.000	16.088	0.101
789.100	6.109	0.101
789.200	24.164	0.101
789.300	4.531	0.101
789.400	-1.004	0.101
789.500	11.697	0.101
789.600	19.612	0.101
789.700	9.193	0.101
789.800	11.399	0.101
789.900	20.287	0.101
790.000	16.205	0.101
790.100	20.948	0.101
790.200	29.934	0.101
790.300	16.468	0.101
790.400	17.563	0.101
790.500	12.079	0.101
790.600	15.342	0.101
790.700	11.524	0.101
790.800	17.915	0.101
790.900	16.923	0.101
791.000	26.915	0.101
791.100	14.273	0.101
791.200	19.334	0.101
791.300	18.451	0.101
791.400	12.774	0.101
791.500	9.666	0.101
791.600	25.432	0.101
791.700	16.870	0.101
791.800	15.797	0.101
791.900	9.474	0.101
792.000	7.623	0.101
792.100	19.492	0.101
792.200	15.611	0.101
792.300	9.392	0.101
792.400	4.118	0.101
792.500	20.236	0.101
792.600	3.939	0.101
792.700	9.965	0.101
792.800	16.881	0.101
792.900	21.942	0.101
793.000	7.431	0.101
793.100	10.617	0.101
793.200	19.674	0.101
793.300	10.693	0.101
793.400	11.517	0.101
793.500	16.202	0.101
793.600	14.522	0.101
793.700	15.840	0.101
793.800	26.911	0.101
793.900	25.804	0.101
794.000	22.862	0.101
794.100	15.205	0.101
794.200	23.490	0.101
794.300	16.689	0.101
794.400	20.939	0.101
794.500	12.120	0.101
794.600	14.687	0.101
794.700	17.695	0.101
794.800	17.785	0.101
794.900	16.011	0.101
795.000	18.102	0.101
795.100	10.812	0.101
795.200	25.831	0.101
795.300	10.196	0.101
795.400	29.062	0.101
795.500	20.761	0.101
795.600	28.438	0.101
795.700	20.467	0.101
795.800	12.612	0.101
795.900	11.831	0.101
796.000	22.470	0.101
796.100	14.670	0.101
796.200	11.777	0.101
796.300	14.619	0.101
796.400	22.149	0.101
796.500	20.225	0.101
796.600	12.768	0.101
796.700	10.286	0.101
796.800	13.479	0.101
796.900	16.691	0.101
797.000	15.830	0.101
797.100	21.231	0.101
797.200	28.653	0.101
797.300	20.895	0.101
797.400	29.148	0.101
797.500	16.541	0.101
797.600	23.942	0.101
797.700	14.873	0.101
797.800	22.315	0.101
797.900	22.367	0.101
798.000	18.342	0.101
798.100	25.391	0.101
798.200	27.205	0.101
798.300	21.340	0.101
798.400	21.402	0.101
798.500	14.960	0.101
798.600	28.012	0.101
798.700	24.617	0.101
798.800	16.918	0.101
798.900	22.944	0.101
799.000	21.991	0.101
799.100	18.373	0.101
799.200	23.994	0.101
799.300	33.106	0.101
799.400	31.504	0.101
799.500	30.743	0.101
799.600	33.557	0.101
799.700	22.575	0.101
799.800	19.261	0.101
799.900	22.081	0.101
800.000	27.160	0.101
