time /s	I /nA	E /V
0.100	-9.211	0.100
0.200	-31.022	0.100
0.300	-23.900	0.100
0.400	-28.046	0.100
0.500	-19.287	0.100
0.600	-25.826	0.100
0.700	-13.662	0.100
0.800	-22.360	0.100
0.900	-17.861	0.100
1.000	-18.899	0.100
1.100	-21.058	0.100
1.200	-27.413	0.100
1.300	-31.155	0.100
1.400	-4.034	0.100
1.500	-15.264	0.100
1.600	-19.970	0.100
1.700	-19.147	0.100
1.800	-33.063	0.100
1.900	-17.456	0.100
2.000	-32.387	0.100
2.100	-25.541	0.100
2.200	-6.997	0.100
2.300	-16.821	0.100
2.400	-22.924	0.100
2.500	-14.113	0.100
2.600	-16.479	0.100
2.700	-30.037	0.100
2.800	-25.559	0.100
2.900	-6.616	0.100
3.000	-30.719	0.100
3.100	-20.719	0.100
3.200	-5.307	0.100
3.300	-21.503	0.100
3.400	-18.539	0.100
3.500	-20.754	0.100
3.600	-14.503	0.100
3.700	-29.861	0.100
3.800	-20.200	0.100
3.900	-26.580	0.100
4.000	-13.844	0.100
4.100	-28.118	0.100
4.200	-27.986	0.100
4.300	-22.764	0.100
4.400	-22.827	0.100
4.500	-20.358	0.100
4.600	-15.172	0.100
4.700	-17.439	0.100
4.800	-11.972	0.100
4.900	-11.247	0.100
5.000	-17.662	0.100
5.100	-26.235	0.100
5.200	-21.326	0.100
5.300	-20.755	0.100
5.400	-38.822	0.100
5.500	-34.096	0.100
5.600	-24.172	0.100
5.700	-17.144	0.100
5.800	-20.084	0.100
5.900	-13.973	0.100
6.000	-19.545	0.100
6.100	-34.317	0.100
6.200	-11.872	0.100
6.300	-24.859	0.100
6.400	-12.837	0.100
6.500	-25.565	0.100
6.600	-20.578	0.100
6.700	-27.234	0.100
6.800	-30.830	0.100
6.900	-14.830	0.100
7.000	-18.825	0.100
7.100	-12.274	0.100
7.200	-35.563	0.100
7.300	-15.402	0.100
7.400	-14.550	0.100
7.500	-25.857	0.100
7.600	-31.740	0.100
7.700	-25.291	0.100
7.800	-20.063	0.100
7.900	-21.540	0.100
8.000	-14.564	0.100
8.100	-5.168	0.100
8.200	-26.163	0.100
8.300	-29.480	0.100
8.400	-20.111	0.100
8.500	-26.168	0.100
8.600	-29.053	0.100
8.700	-33.946	0.100
8.800	-11.214	0.100
8.900	-17.728	0.100
9.000	-24.973	0.100
9.100	-17.303	0.100
9.200	-21.622	0.100
9.300	-22.164	0.100
9.400	-21.175	0.100
9.500	-18.236	0.100
9.600	-25.346	0.100
9.700	-39.058	0.100
9.800	-20.090	0.100
9.900	-23.845	0.100
10.000	-22.614	0.100
10.100	-39.797	0.100
10.200	-27.363	0.100
10.300	-15.973	0.100
10.400	-8.998	0.100
10.500	-24.269	0.100
10.600	-40.265	0.100
10.700	-23.220	0.100
10.800	-19.324	0.100
10.900	-23.665	0.100
11.000	-18.031	0.100
11.100	-21.962	0.100
11.200	-15.318	0.100
11.300	-19.948	0.100
11.400	-27.601	0.100
11.500	-22.759	0.100
11.600	-11.526	0.100
11.700	-23.129	0.100
11.800	-16.386	0.100
11.900	-21.572	0.100
12.000	-12.232	0.100
12.100	-40.397	0.100
12.200	-9.963	0.100
12.300	-26.867	0.100
12.400	-29.973	0.100
12.500	-22.725	0.100
12.600	-29.277	0.100
12.700	-21.030	0.100
12.800	-18.689	0.100
12.900	-16.571	0.100
13.000	-21.048	0.100
13.100	-29.032	0.100
13.200	-16.369	0.100
13.300	-26.331	0.100
13.400	-30.846	0.100
13.500	-21.213	0.100
13.600	-13.874	0.100
13.700	-21.372	0.100
13.800	-23.864	0.100
13.900	-24.173	0.100
14.000	-14.051	0.100
14.100	-21.180	0.100
14.200	-8.319	0.100
14.300	-15.498	0.100
14.400	-36.491	0.100
14.500	-22.793	0.100
14.600	-28.742	0.100
14.700	-20.350	0.100
14.800	-14.964	0.100
14.900	-18.864	0.100
15.000	-29.231	0.100
15.100	-33.409	0.100
15.200	-27.324	0.100
15.300	-11.071	0.100
15.400	-13.762	0.100
15.500	-15.869	0.100
15.600	-18.475	0.100
15.700	-17.390	0.100
15.800	-20.935	0.100
15.900	-25.649	0.100
16.000	-17.759	0.100
16.100	-15.798	0.100
16.200	-22.687	0.100
16.300	-14.462	0.100
16.400	-18.411	0.100
16.500	-27.244	0.100
16.600	-13.590	0.100
16.700	-30.861	0.100
16.800	-15.878	0.100
16.900	-22.172	0.100
17.000	-5.631	0.100
17.100	-23.155	0.100
17.200	-13.151	0.100
17.300	-28.920	0.100
17.400	-31.969	0.100
17.500	-17.073	0.100
17.600	-0.341	0.100
17.700	-13.846	0.100
17.800	-21.373	0.100
17.900	-24.457	0.100
18.000	-22.647	0.100
18.100	-22.268	0.100
18.200	-25.056	0.100
18.300	-13.827	0.100
18.400	-26.038	0.100
18.500	-20.710	0.100
18.600	-22.063	0.100
18.700	-13.371	0.100
18.800	-22.550	0.100
18.900	-17.152	0.100
19.000	-30.668	0.100
19.100	-22.171	0.100
19.200	-26.506	0.100
19.300	-11.780	0.100
19.400	-14.186	0.100
19.500	-15.762	0.100
19.600	-12.656	0.100
19.700	-12.489	0.100
19.800	-20.571	0.100
19.900	-15.338	0.100
20.000	-12.670	0.100
20.100	-27.660	0.100
20.200	-21.899	0.100
20.300	-14.947	0.100
20.400	-12.545	0.100
20.500	-12.297	0.100
20.600	-5.881	0.100
20.700	-16.777	0.100
20.800	-26.901	0.100
20.900	-20.130	0.100
21.000	-23.668	0.100
21.100	-33.427	0.100
21.200	-9.699	0.100
21.300	-13.139	0.100
21.400	-23.744	0.100
21.500	-4.002	0.100
21.600	-24.798	0.100
21.700	-30.328	0.100
21.800	-29.210	0.100
21.900	-25.015	0.100
22.000	-6.214	0.100
22.100	-17.092	0.100
22.200	-27.308	0.100
22.300	-18.866	0.100
22.400	-14.271	0.100
22.500	-23.510	0.100
22.600	-27.589	0.100
22.700	-20.063	0.100
22.800	-17.274	0.100
22.900	-29.042	0.100
23.000	-20.079	0.100
23.100	-15.844	0.100
23.200	-19.812	0.100
23.300	-22.126	0.100
23.400	-30.745	0.100
23.500	-20.169	0.100
23.600	-21.664	0.100
23.700	-17.797	0.100
23.800	-11.109	0.100
23.900	-24.957	0.100
24.000	-24.139	0.100
24.100	-20.186	0.100
24.200	-31.212	0.100
24.300	-19.177	0.100
24.400	-13.876	0.100
24.500	-12.336	0.100
24.600	-28.466	0.100
24.700	-16.032	0.100
24.800	-13.151	0.100
24.900	-24.685	0.100
25.000	-13.665	0.100
25.100	-17.881	0.100
25.200	-20.439	0.100
25.300	-15.969	0.100
25.400	-20.698	0.100
25.500	-26.233	0.100
25.600	-31.972	0.100
25.700	-22.737	0.100
25.800	-21.930	0.100
25.900	-28.800	0.100
26.000	-20.530	0.100
26.100	-11.182	0.100
26.200	-16.355	0.100
26.300	-24.903	0.100
26.400	-35.677	0.100
26.500	-23.852	0.100
26.600	-21.492	0.100
26.700	-9.528	0.100
26.800	-22.785	0.100
26.900	-31.034	0.100
27.000	-20.036	0.100
27.100	-8.322	0.100
27.200	-22.560	0.100
27.300	-7.314	0.100
27.400	-22.051	0.100
27.500	-21.236	0.100
27.600	-11.752	0.100
27.700	-27.247	0.100
27.800	-23.687	0.100
27.900	-16.206	0.100
28.000	-20.991	0.100
28.100	-18.099	0.100
28.200	-4.022	0.100
28.300	-20.868	0.100
28.400	-26.776	0.100
28.500	-20.547	0.100
28.600	-7.709	0.100
28.700	-17.792	0.100
28.800	-29.182	0.100
28.900	-20.707	0.100
29.000	-14.320	0.100
29.100	-9.902	0.100
29.200	-24.737	0.100
29.300	-34.096	0.100
29.400	-17.382	0.100
29.500	-3.765	0.100
29.600	-17.928	0.100
29.700	5.733	0.100
29.800	3.511	0.100
29.900	2.788	0.100
30.000	29.318	0.100
30.100	34.915	0.100
30.200	35.708	0.100
30.300	40.858	0.100
30.400	61.630	0.100
30.500	48.607	0.100
30.600	45.282	0.100
30.700	58.119	0.100
30.800	51.597	0.100
30.900	37.033	0.100
31.000	39.570	0.100
31.100	60.109	0.100
31.200	66.398	0.100
31.300	43.428	0.100
31.400	47.262	0.100
31.500	52.278	0.100
31.600	28.706	0.100
31.700	43.636	0.100
31.800	67.154	0.100
31.900	37.729	0.100
32.000	39.661	0.100
32.100	35.377	0.100
32.200	50.041	0.100
32.300	40.982	0.100
32.400	35.469	0.100
32.500	43.759	0.100
32.600	35.159	0.100
32.700	24.351	0.100
32.800	35.886	0.100
32.900	30.758	0.100
33.000	50.497	0.100
33.100	37.644	0.100
33.200	24.497	0.100
33.300	38.137	0.100
33.400	36.401	0.100
33.500	25.099	0.100
33.600	11.939	0.100
33.700	41.366	0.100
33.800	37.723	0.100
33.900	41.661	0.100
34.000	35.927	0.100
34.100	34.579	0.100
34.200	33.269	0.100
34.300	21.099	0.100
34.400	25.568	0.100
34.500	41.137	0.100
34.600	41.384	0.100
34.700	58.880	0.100
34.800	38.185	0.100
34.900	44.002	0.100
35.000	51.020	0.100
35.100	24.559	0.100
35.200	43.555	0.100
35.300	37.274	0.100
35.400	36.143	0.100
35.500	45.264	0.100
35.600	37.956	0.100
35.700	34.062	0.100
35.800	52.576	0.100
35.900	50.181	0.100
36.000	57.384	0.100
36.100	49.902	0.100
36.200	55.735	0.100
36.300	48.524	0.100
36.400	45.213	0.100
36.500	46.621	0.100
36.600	69.390	0.100
36.700	41.973	0.100
36.800	42.564	0.100
36.900	59.132	0.100
37.000	37.370	0.100
37.100	52.323	0.100
37.200	72.255	0.100
37.300	74.166	0.100
37.400	34.596	0.100
37.500	47.306	0.100
37.600	65.314	0.100
37.700	53.389	0.100
37.800	58.439	0.100
37.900	55.953	0.100
38.000	57.774	0.100
38.100	59.216	0.100
38.200	62.883	0.100
38.300	62.860	0.100
38.400	59.620	0.100
38.500	65.341	0.100
38.600	57.861	0.100
38.700	70.951	0.100
38.800	69.318	0.100
38.900	63.590	0.100
39.000	62.755	0.100
39.100	50.573	0.100
39.200	62.403	0.100
39.300	72.012	0.100
39.400	59.866	0.100
39.500	55.891	0.100
39.600	60.938	0.100
39.700	56.316	0.100
39.800	76.679	0.100
39.900	52.766	0.100
40.000	63.600	0.100
40.100	54.013	0.100
40.200	77.554	0.100
40.300	65.353	0.100
40.400	75.002	0.100
40.500	69.009	0.100
40.600	68.334	0.100
40.700	68.019	0.100
40.800	71.568	0.100
40.900	75.492	0.100
41.000	62.475	0.100
41.100	66.945	0.100
41.200	51.973	0.100
41.300	64.216	0.100
41.400	63.991	0.100
41.500	65.017	0.100
41.600	58.532	0.100
41.700	67.544	0.100
41.800	52.773	0.100
41.900	61.395	0.100
42.000	64.017	0.100
42.100	69.412	0.100
42.200	67.481	0.100
42.300	75.222	0.100
42.400	62.230	0.100
42.500	59.537	0.100
42.600	73.083	0.100
42.700	57.505	0.100
42.800	65.990	0.100
42.900	67.816	0.100
43.000	68.438	0.100
43.100	63.541	0.100
43.200	62.613	0.100
43.300	65.835	0.100
43.400	70.525	0.100
43.500	67.899	0.100
43.600	73.612	0.100
43.700	57.895	0.100
43.800	82.568	0.100
43.900	57.100	0.100
44.000	56.619	0.100
44.100	69.248	0.100
44.200	68.155	0.100
44.300	57.100	0.100
44.400	76.252	0.100
44.500	66.193	0.100
44.600	71.007	0.100
44.700	65.406	0.100
44.800	68.207	0.100
44.900	64.284	0.100
45.000	64.526	0.100
45.100	62.604	0.100
45.200	66.061	0.100
45.300	65.793	0.100
45.400	83.496	0.100
45.500	70.267	0.100
45.600	62.097	0.100
45.700	72.512	0.100
45.800	69.349	0.100
45.900	70.789	0.100
46.000	76.360	0.100
46.100	58.498	0.100
46.200	61.467	0.100
46.300	80.271	0.100
46.400	71.349	0.100
46.500	72.632	0.100
46.600	77.755	0.100
46.700	67.373	0.100
46.800	61.737	0.100
46.900	64.856	0.100
47.000	72.494	0.100
47.100	69.196	0.100
47.200	85.474	0.100
47.300	61.317	0.100
47.400	64.840	0.100
47.500	55.886	0.100
47.600	77.590	0.100
47.700	68.512	0.100
47.800	65.904	0.100
47.900	66.406	0.100
48.000	58.801	0.100
48.100	69.614	0.099
48.200	70.509	0.100
48.300	78.578	0.100
48.400	79.793	0.100
48.500	69.412	0.100
48.600	73.347	0.100
48.700	65.115	0.100
48.800	69.557	0.100
48.900	69.810	0.100
49.000	64.299	0.100
49.100	87.560	0.100
49.200	67.061	0.100
49.300	64.930	0.100
49.400	78.394	0.100
49.500	68.534	0.100
49.600	65.291	0.100
49.700	68.528	0.100
49.800	58.046	0.099
49.900	72.205	0.100
50.000	74.998	0.100
50.100	68.909	0.100
50.200	77.307	0.100
50.300	55.398	0.100
50.400	66.863	0.100
50.500	75.479	0.100
50.600	61.842	0.100
50.700	73.041	0.100
50.800	65.115	0.100
50.900	67.790	0.099
51.000	72.894	0.100
51.100	81.518	0.100
51.200	66.156	0.100
51.300	60.479	0.100
51.400	64.658	0.100
51.500	60.299	0.100
51.600	63.113	0.100
51.700	71.836	0.100
51.800	73.525	0.100
51.900	69.515	0.100
52.000	68.816	0.100
52.100	78.352	0.100
52.200	67.197	0.100
52.300	67.766	0.100
52.400	68.328	0.100
52.500	58.464	0.100
52.600	79.393	0.100
52.700	67.997	0.100
52.800	71.868	0.100
52.900	76.725	0.100
53.000	60.700	0.100
53.100	57.642	0.100
53.200	54.432	0.100
53.300	75.447	0.100
53.400	71.025	0.100
53.500	72.816	0.100
53.600	65.327	0.100
53.700	61.178	0.100
53.800	65.388	0.100
53.900	59.910	0.100
54.000	70.146	0.100
54.100	57.418	0.100
54.200	61.277	0.100
54.300	64.622	0.100
54.400	76.375	0.100
54.500	62.872	0.100
54.600	66.310	0.100
54.700	67.599	0.100
54.800	74.085	0.100
54.900	61.306	0.100
55.000	64.661	0.099
55.100	68.088	0.100
55.200	66.837	0.100
55.300	68.329	0.100
55.400	62.027	0.100
55.500	43.474	0.100
55.600	58.591	0.100
55.700	51.511	0.100
55.800	62.436	0.100
55.900	74.774	0.100
56.000	71.722	0.100
56.100	61.625	0.100
56.200	61.703	0.100
56.300	61.904	0.100
56.400	73.202	0.099
56.500	63.605	0.099
56.600	68.939	0.100
56.700	67.237	0.100
56.800	68.286	0.100
56.900	56.224	0.099
57.000	59.226	0.100
57.100	67.766	0.099
57.200	53.867	0.099
57.300	66.218	0.099
57.400	54.920	0.100
57.500	76.283	0.100
57.600	66.629	0.100
57.700	60.919	0.099
57.800	48.925	0.100
57.900	65.470	0.100
58.000	75.663	0.099
58.100	72.433	0.100
58.200	65.514	0.100
58.300	74.506	0.099
58.400	69.064	0.099
58.500	53.733	0.100
58.600	45.972	0.100
58.700	80.105	0.100
58.800	70.768	0.099
58.900	59.982	0.100
59.000	60.539	0.100
59.100	66.777	0.100
59.200	58.792	0.100
59.300	55.133	0.100
59.400	67.131	0.099
59.500	70.648	0.099
59.600	70.677	0.099
59.700	66.105	0.100
59.800	65.049	0.099
59.900	65.597	0.099
60.000	63.239	0.099
60.100	59.840	0.099
60.200	60.066	0.099
60.300	61.143	0.099
60.400	61.957	0.100
60.500	68.019	0.100
60.600	67.880	0.099
60.700	70.012	0.100
60.800	55.360	0.099
60.900	71.702	0.099
61.000	66.213	0.100
61.100	55.660	0.100
61.200	51.898	0.099
61.300	67.536	0.100
61.400	71.473	0.100
61.500	50.291	0.099
61.600	63.635	0.099
61.700	61.735	0.099
61.800	71.003	0.099
61.900	70.727	0.099
62.000	65.209	0.099
62.100	57.902	0.099
62.200	62.225	0.099
62.300	63.558	0.099
62.400	65.350	0.099
62.500	62.346	0.099
62.600	70.381	0.100
62.700	62.534	0.099
62.800	61.233	0.099
62.900	54.114	0.100
63.000	59.410	0.099
63.100	58.567	0.099
63.200	58.692	0.099
63.300	53.355	0.099
63.400	61.976	0.099
63.500	60.369	0.099
63.600	59.037	0.099
63.700	58.029	0.099
63.800	61.287	0.099
63.900	56.565	0.100
64.000	70.836	0.099
64.100	62.898	0.099
64.200	56.618	0.099
64.300	59.322	0.100
64.400	66.043	0.099
64.500	64.557	0.099
64.600	55.056	0.099
64.700	70.113	0.099
64.800	54.765	0.100
64.900	64.011	0.099
65.000	56.540	0.099
65.100	68.642	0.100
65.200	81.018	0.100
65.300	60.876	0.099
65.400	81.626	0.099
65.500	61.032	0.099
65.600	71.641	0.099
65.700	67.358	0.099
65.800	61.521	0.099
65.900	54.557	0.099
66.000	64.287	0.099
66.100	58.389	0.099
66.200	62.873	0.099
66.300	54.776	0.099
66.400	64.375	0.099
66.500	57.964	0.099
66.600	49.643	0.099
66.700	60.455	0.099
66.800	69.399	0.099
66.900	67.601	0.099
67.000	64.117	0.099
67.100	63.660	0.099
67.200	67.190	0.099
67.300	62.136	0.099
67.400	82.434	0.099
67.500	73.514	0.099
67.600	60.720	0.099
67.700	64.982	0.099
67.800	68.639	0.099
67.900	48.058	0.099
68.000	69.301	0.099
68.100	62.898	0.099
68.200	55.341	0.099
68.300	66.808	0.099
68.400	69.169	0.099
68.500	71.506	0.099
68.600	67.695	0.099
68.700	68.297	0.099
68.800	69.379	0.099
68.900	61.589	0.099
69.000	64.245	0.099
69.100	49.547	0.099
69.200	60.489	0.099
69.300	71.174	0.099
69.400	58.453	0.099
69.500	71.164	0.099
69.600	63.258	0.099
69.700	56.197	0.099
69.800	62.776	0.099
69.900	72.051	0.099
70.000	52.710	0.099
70.100	57.155	0.099
70.200	62.916	0.099
70.300	74.379	0.099
70.400	60.920	0.099
70.500	59.753	0.099
70.600	60.965	0.099
70.700	61.706	0.099
70.800	56.834	0.099
70.900	75.105	0.099
71.000	67.417	0.099
71.100	51.870	0.099
71.200	68.060	0.099
71.300	70.303	0.099
71.400	67.726	0.099
71.500	62.767	0.099
71.600	68.523	0.099
71.700	62.179	0.099
71.800	46.038	0.099
71.900	80.898	0.099
72.000	75.590	0.099
72.100	70.690	0.099
72.200	56.668	0.099
72.300	63.028	0.099
72.400	50.759	0.099
72.500	67.726	0.099
72.600	63.401	0.099
72.700	72.527	0.099
72.800	62.886	0.099
72.900	63.903	0.099
73.000	56.256	0.099
73.100	73.951	0.099
73.200	69.230	0.099
73.300	60.114	0.099
73.400	65.571	0.099
73.500	70.806	0.099
73.600	67.625	0.099
73.700	65.981	0.099
73.800	59.640	0.099
73.900	67.855	0.099
74.000	58.725	0.099
74.100	72.005	0.099
74.200	62.963	0.099
74.300	65.032	0.099
74.400	78.323	0.099
74.500	78.951	0.099
74.600	61.407	0.099
74.700	62.304	0.099
74.800	68.045	0.099
74.900	67.420	0.099
75.000	67.109	0.099
75.100	65.283	0.099
75.200	70.761	0.099
75.300	65.968	0.099
75.400	67.247	0.099
75.500	68.298	0.099
75.600	59.073	0.099
75.700	68.090	0.099
75.800	59.531	0.099
75.900	62.596	0.099
76.000	60.430	0.099
76.100	67.462	0.099
76.200	66.116	0.099
76.300	82.237	0.099
76.400	69.843	0.099
76.500	60.247	0.099
76.600	49.104	0.099
76.700	74.434	0.099
76.800	70.038	0.099
76.900	65.248	0.099
77.000	59.237	0.099
77.100	84.184	0.099
77.200	64.064	0.099
77.300	63.314	0.099
77.400	67.247	0.099
77.500	48.913	0.099
77.600	57.094	0.099
77.700	69.325	0.099
77.800	70.318	0.099
77.900	68.083	0.099
78.000	79.147	0.099
78.100	72.974	0.099
78.200	68.780	0.099
78.300	59.853	0.099
78.400	68.791	0.099
78.500	61.239	0.099
78.600	72.610	0.099
78.700	66.074	0.099
78.800	65.864	0.099
78.900	62.590	0.099
79.000	59.469	0.099
79.100	62.802	0.099
79.200	76.753	0.099
79.300	62.640	0.099
79.400	73.441	0.099
79.500	65.683	0.099
79.600	62.474	0.099
79.700	63.349	0.099
79.800	66.706	0.099
79.900	64.238	0.099
80.000	92.470	0.099
80.100	73.632	0.099
80.200	62.939	0.099
80.300	70.227	0.099
80.400	65.210	0.099
80.500	64.571	0.099
80.600	60.901	0.099
80.700	66.273	0.099
80.800	68.470	0.099
80.900	74.088	0.099
81.000	72.697	0.099
81.100	64.300	0.099
81.200	66.666	0.099
81.300	76.601	0.099
81.400	65.657	0.099
81.500	64.640	0.099
81.600	52.761	0.099
81.700	69.458	0.099
81.800	75.681	0.099
81.900	76.221	0.099
82.000	81.590	0.099
82.100	67.958	0.099
82.200	60.466	0.099
82.300	69.351	0.099
82.400	68.168	0.099
82.500	67.058	0.099
82.600	58.611	0.099
82.700	68.827	0.099
82.800	72.223	0.099
82.900	57.379	0.099
83.000	74.891	0.099
83.100	71.754	0.099
83.200	70.729	0.099
83.300	76.233	0.099
83.400	56.151	0.099
83.500	53.257	0.099
83.600	73.988	0.099
83.700	73.397	0.099
83.800	84.402	0.099
83.900	66.231	0.099
84.000	60.201	0.099
84.100	68.305	0.099
84.200	58.736	0.099
84.300	64.976	0.099
84.400	70.093	0.099
84.500	70.554	0.099
84.600	67.453	0.099
84.700	71.123	0.099
84.800	68.969	0.099
84.900	59.811	0.099
85.000	59.111	0.099
85.100	76.326	0.099
85.200	64.096	0.099
85.300	56.685	0.099
85.400	79.116	0.099
85.500	77.835	0.099
85.600	75.650	0.099
85.700	60.883	0.099
85.800	68.286	0.099
85.900	73.205	0.099
86.000	60.047	0.099
86.100	72.745	0.099
86.200	67.710	0.099
86.300	74.909	0.099
86.400	62.321	0.099
86.500	69.318	0.099
86.600	64.234	0.099
86.700	57.223	0.099
86.800	78.456	0.099
86.900	86.600	0.099
87.000	69.658	0.099
87.100	74.028	0.099
87.200	78.666	0.099
87.300	73.701	0.099
87.400	62.066	0.099
87.500	69.424	0.099
87.600	58.688	0.099
87.700	63.132	0.099
87.800	61.022	0.099
87.900	67.053	0.099
88.000	81.456	0.099
88.100	71.153	0.099
88.200	71.736	0.099
88.300	68.033	0.099
88.400	69.533	0.099
88.500	75.700	0.099
88.600	70.645	0.099
88.700	80.523	0.099
88.800	66.305	0.099
88.900	72.709	0.099
89.000	65.041	0.099
89.100	78.024	0.099
89.200	66.915	0.099
89.300	68.232	0.099
89.400	76.514	0.099
89.500	68.123	0.099
89.600	61.576	0.099
89.700	39.676	0.099
89.800	46.120	0.099
89.900	49.759	0.099
90.000	32.545	0.099
90.100	36.889	0.099
90.200	17.026	0.099
90.300	9.981	0.099
90.400	9.756	0.099
90.500	-10.378	0.099
90.600	-4.894	0.099
90.700	-18.402	0.099
90.800	-14.050	0.099
90.900	-13.974	0.099
91.000	-7.924	0.099
91.100	-17.733	0.099
91.200	-11.723	0.099
91.300	-30.035	0.099
91.400	-45.314	0.099
91.500	-36.822	0.099
91.600	-27.347	0.099
91.700	-21.068	0.099
91.800	-20.719	0.099
91.900	-25.928	0.099
92.000	-31.950	0.099
92.100	-21.529	0.099
92.200	-43.397	0.099
92.300	-36.753	0.099
92.400	-14.239	0.099
92.500	-33.549	0.099
92.600	-33.486	0.099
92.700	-34.469	0.099
92.800	-32.938	0.099
92.900	-28.307	0.099
93.000	-35.587	0.099
93.100	-38.409	0.099
93.200	-24.848	0.099
93.300	-32.973	0.099
93.400	-20.370	0.099
93.500	-27.076	0.099
93.600	-26.097	0.099
93.700	-33.032	0.099
93.800	-28.628	0.099
93.900	-31.481	0.099
94.000	-19.761	0.099
94.100	-25.703	0.099
94.200	-21.822	0.099
94.300	-21.733	0.099
94.400	-18.861	0.099
94.500	-21.324	0.099
94.600	-17.496	0.099
94.700	-25.417	0.099
94.800	-30.486	0.099
94.900	-11.717	0.099
95.000	-24.718	0.099
95.100	-33.217	0.099
95.200	-30.486	0.099
95.300	-26.153	0.099
95.400	-29.099	0.099
95.500	-21.658	0.099
95.600	-32.568	0.099
95.700	-30.974	0.099
95.800	-25.850	0.099
95.900	-28.191	0.099
96.000	-30.457	0.099
96.100	-33.824	0.099
96.200	-20.804	0.099
96.300	-20.515	0.099
96.400	-18.923	0.099
96.500	-37.224	0.099
96.600	-31.356	0.099
96.700	-21.420	0.099
96.800	-27.782	0.099
96.900	-24.323	0.099
97.000	-22.622	0.099
97.100	-34.425	0.099
97.200	-24.970	0.099
97.300	-26.809	0.099
97.400	-16.613	0.099
97.500	-19.365	0.099
97.600	-39.585	0.099
97.700	-22.316	0.099
97.800	-25.836	0.099
97.900	-21.447	0.099
98.000	-22.102	0.099
98.100	-22.749	0.099
98.200	-30.858	0.099
98.300	-21.437	0.099
98.400	-23.199	0.099
98.500	-26.756	0.099
98.600	-21.311	0.099
98.700	-20.893	0.099
98.800	-44.845	0.099
98.900	-29.277	0.099
99.000	-35.329	0.099
99.100	-29.255	0.099
99.200	-20.677	0.099
99.300	-20.232	0.099
99.400	-33.517	0.099
99.500	-19.162	0.099
99.600	-17.108	0.099
99.700	-16.210	0.099
99.800	-33.445	0.099
99.900	-26.724	0.099
100.000	-28.004	0.099
100.100	-33.902	0.099
100.200	-15.587	0.099
100.300	-19.171	0.099
100.400	-24.812	0.099
100.500	-29.842	0.099
100.600	-27.158	0.099
100.700	-27.535	0.099
100.800	-19.831	0.099
100.900	-25.559	0.099
101.000	-40.477	0.099
101.100	-46.625	0.099
101.200	-23.347	0.099
101.300	-31.325	0.099
101.400	-34.385	0.099
101.500	-18.130	0.099
101.600	-22.204	0.099
101.700	-33.679	0.099
101.800	-45.117	0.099
101.900	-24.115	0.099
102.000	-36.643	0.099
102.100	-28.041	0.099
102.200	-32.824	0.099
102.300	-28.200	0.099
102.400	-31.051	0.099
102.500	-39.396	0.099
102.600	-43.341	0.099
102.700	-31.748	0.099
102.800	-14.189	0.099
102.900	-26.390	0.099
103.000	-28.444	0.099
103.100	-32.705	0.099
103.200	-28.562	0.099
103.300	-37.158	0.099
103.400	-40.573	0.099
103.500	-39.242	0.099
103.600	-27.672	0.099
103.700	-27.124	0.099
103.800	-21.438	0.099
103.900	-36.498	0.099
104.000	-43.552	0.099
104.100	-23.642	0.099
104.200	-35.213	0.099
104.300	-28.970	0.099
104.400	-29.797	0.099
104.500	-30.847	0.099
104.600	-21.016	0.099
104.700	-34.916	0.099
104.800	-39.928	0.099
104.900	-36.695	0.099
105.000	-46.172	0.099
105.100	-38.915	0.099
105.200	-27.894	0.099
105.300	-29.467	0.099
105.400	-34.928	0.099
105.500	-22.776	0.099
105.600	-33.836	0.099
105.700	-36.588	0.099
105.800	-28.169	0.099
105.900	-33.507	0.099
106.000	-41.129	0.099
106.100	-37.047	0.099
106.200	-28.179	0.099
106.300	-39.159	0.099
106.400	-37.402	0.099
106.500	-25.267	0.099
106.600	-27.922	0.099
106.700	-28.383	0.099
106.800	-33.555	0.099
106.900	-26.559	0.099
107.000	-33.941	0.099
107.100	-43.895	0.099
107.200	-33.462	0.099
107.300	-27.490	0.099
107.400	-38.486	0.099
107.500	-23.456	0.099
107.600	-48.938	0.099
107.700	-30.144	0.099
107.800	-25.276	0.099
107.900	-43.658	0.099
108.000	-33.260	0.099
108.100	-27.984	0.099
108.200	-34.087	0.099
108.300	-42.066	0.099
108.400	-41.973	0.099
108.500	-17.628	0.099
108.600	-43.469	0.099
108.700	-29.616	0.099
108.800	-36.624	0.099
108.900	-25.534	0.099
109.000	-41.401	0.099
109.100	-36.115	0.099
109.200	-33.302	0.099
109.300	-35.983	0.099
109.400	-36.619	0.099
109.500	-32.141	0.099
109.600	-34.214	0.099
109.700	-36.805	0.099
109.800	-28.320	0.099
109.900	-34.417	0.099
110.000	-38.918	0.099
110.100	-14.628	0.099
110.200	-42.006	0.099
110.300	-33.195	0.099
110.400	-35.908	0.099
110.500	-22.487	0.099
110.600	-32.115	0.099
110.700	-38.298	0.099
110.800	-28.761	0.099
110.900	-34.677	0.099
111.000	-37.707	0.099
111.100	-39.226	0.099
111.200	-32.736	0.099
111.300	-33.275	0.099
111.400	-44.365	0.099
111.500	-14.223	0.099
111.600	-37.882	0.099
111.700	-37.005	0.099
111.800	-33.614	0.099
111.900	-40.215	0.099
112.000	-36.501	0.099
112.100	-27.986	0.099
112.200	-32.526	0.099
112.300	-17.205	0.099
112.400	-46.913	0.099
112.500	-39.878	0.099
112.600	-38.787	0.099
112.700	-31.011	0.099
112.800	-33.586	0.099
112.900	-26.082	0.099
113.000	-27.949	0.099
113.100	-41.095	0.099
113.200	-33.887	0.099
113.300	-39.637	0.099
113.400	-31.495	0.099
113.500	-30.765	0.099
113.600	-38.891	0.099
113.700	-30.627	0.099
113.800	-37.284	0.099
113.900	-26.928	0.099
114.000	-34.436	0.099
114.100	-32.226	0.099
114.200	-29.839	0.099
114.300	-32.433	0.099
114.400	-38.709	0.099
114.500	-43.542	0.099
114.600	-35.829	0.099
114.700	-31.598	0.099
114.800	-39.696	0.099
114.900	-37.320	0.099
115.000	-30.555	0.099
115.100	-31.668	0.099
115.200	-39.609	0.099
115.300	-32.921	0.099
115.400	-45.712	0.099
115.500	-37.692	0.099
115.600	-33.360	0.099
115.700	-43.272	0.099
115.800	-29.800	0.099
115.900	-36.332	0.099
116.000	-32.380	0.099
116.100	-38.432	0.099
116.200	-35.783	0.099
116.300	-46.292	0.099
116.400	-41.215	0.099
116.500	-25.097	0.099
116.600	-41.336	0.099
116.700	-39.158	0.099
116.800	-41.183	0.099
116.900	-46.490	0.099
117.000	-43.368	0.099
117.100	-22.031	0.099
117.200	-49.141	0.099
117.300	-31.054	0.099
117.400	-30.992	0.099
117.500	-48.319	0.099
117.600	-29.629	0.099
117.700	-35.959	0.099
117.800	-32.106	0.099
117.900	-32.653	0.099
118.000	-32.273	0.099
118.100	-12.996	0.099
118.200	-47.295	0.099
118.300	-31.924	0.099
118.400	-37.665	0.099
118.500	-41.264	0.099
118.600	-32.795	0.099
118.700	-25.679	0.099
118.800	-33.858	0.099
118.900	-59.923	0.099
119.000	-40.754	0.099
119.100	-38.368	0.099
119.200	-47.201	0.099
119.300	-42.451	0.099
119.400	-30.818	0.099
119.500	-40.285	0.099
119.600	-35.146	0.099
119.700	-43.680	0.099
119.800	-36.135	0.099
119.900	-24.013	0.099
120.000	-41.524	0.099
120.100	-41.499	0.099
120.200	-31.314	0.099
120.300	-49.372	0.099
120.400	-32.225	0.099
120.500	-30.053	0.099
120.600	-36.681	0.099
120.700	-39.430	0.099
120.800	-30.880	0.099
120.900	-45.615	0.099
121.000	-45.352	0.099
121.100	-42.418	0.099
121.200	-37.774	0.099
121.300	-35.230	0.099
121.400	-26.015	0.099
121.500	-30.389	0.099
121.600	-44.726	0.099
121.700	-45.331	0.099
121.800	-32.308	0.099
121.900	-44.325	0.099
122.000	-32.416	0.099
122.100	-23.694	0.099
122.200	-27.475	0.099
122.300	-38.966	0.099
122.400	-33.544	0.099
122.500	-50.354	0.099
122.600	-37.120	0.099
122.700	-37.666	0.099
122.800	-31.292	0.099
122.900	-32.012	0.099
123.000	-36.423	0.099
123.100	-37.673	0.099
123.200	-50.995	0.099
123.300	-33.973	0.099
123.400	-37.088	0.099
123.500	-28.835	0.099
123.600	-29.019	0.099
123.700	-46.812	0.099
123.800	-39.550	0.099
123.900	-46.462	0.099
124.000	-39.924	0.099
124.100	-24.780	0.099
124.200	-31.109	0.099
124.300	-52.811	0.099
124.400	-38.573	0.099
124.500	-32.215	0.099
124.600	-28.311	0.099
124.700	-36.894	0.099
124.800	-33.561	0.099
124.900	-37.574	0.099
125.000	-39.391	0.099
125.100	-36.033	0.099
125.200	-43.843	0.099
125.300	-58.008	0.099
125.400	-32.681	0.099
125.500	-30.710	0.099
125.600	-34.009	0.099
125.700	-32.119	0.099
125.800	-46.387	0.099
125.900	-30.069	0.099
126.000	-46.986	0.099
126.100	-40.203	0.099
126.200	-31.675	0.099
126.300	-52.152	0.099
126.400	-31.428	0.099
126.500	-33.711	0.099
126.600	-34.890	0.099
126.700	-35.619	0.099
126.800	-40.601	0.099
126.900	-39.476	0.099
127.000	-40.379	0.099
127.100	-50.920	0.099
127.200	-47.975	0.099
127.300	-27.781	0.099
127.400	-47.750	0.099
127.500	-43.689	0.099
127.600	-48.567	0.099
127.700	-35.093	0.099
127.800	-38.888	0.099
127.900	-33.132	0.099
128.000	-35.074	0.099
128.100	-36.064	0.099
128.200	-28.258	0.099
128.300	-45.040	0.099
128.400	-36.273	0.099
128.500	-39.576	0.099
128.600	-41.482	0.099
128.700	-33.591	0.099
128.800	-47.303	0.099
128.900	-28.185	0.099
129.000	-19.218	0.099
129.100	-33.916	0.099
129.200	-35.861	0.099
129.300	-36.692	0.099
129.400	-31.731	0.099
129.500	-47.307	0.099
129.600	-33.250	0.099
129.700	-29.001	0.099
129.800	-39.704	0.099
129.900	-34.735	0.099
130.000	-30.189	0.099
130.100	-35.536	0.099
130.200	-35.008	0.099
130.300	-39.015	0.099
130.400	-32.703	0.099
130.500	-30.398	0.099
130.600	-46.548	0.099
130.700	-33.670	0.099
130.800	-40.006	0.099
130.900	-40.119	0.099
131.000	-28.699	0.099
131.100	-34.265	0.099
131.200	-37.456	0.099
131.300	-41.175	0.099
131.400	-26.502	0.099
131.500	-38.929	0.099
131.600	-32.848	0.099
131.700	-41.390	0.099
131.800	-29.560	0.099
131.900	-43.457	0.099
132.000	-43.087	0.100
132.100	-27.196	0.100
132.200	-33.259	0.100
132.300	-36.844	0.100
132.400	-39.822	0.100
132.500	-40.917	0.100
132.600	-21.602	0.100
132.700	-33.500	0.100
132.800	-41.947	0.100
132.900	-35.000	0.100
133.000	-42.888	0.100
133.100	-28.285	0.100
133.200	-31.974	0.100
133.300	-34.481	0.100
133.400	-45.164	0.100
133.500	-41.135	0.100
133.600	-46.051	0.100
133.700	-32.398	0.100
133.800	-38.863	0.100
133.900	-41.681	0.100
134.000	-50.521	0.100
134.100	-35.283	0.100
134.200	-30.659	0.100
134.300	-32.112	0.100
134.400	-52.462	0.100
134.500	-46.327	0.100
134.600	-23.636	0.100
134.700	-27.915	0.100
134.800	-39.452	0.100
134.900	-37.556	0.100
135.000	-33.334	0.100
135.100	-31.613	0.100
135.200	-23.762	0.100
135.300	-46.122	0.100
135.400	-32.193	0.100
135.500	-35.283	0.100
135.600	-36.139	0.100
135.700	-41.206	0.100
135.800	-33.823	0.100
135.900	-28.041	0.100
136.000	-29.565	0.100
136.100	-37.047	0.100
136.200	-51.912	0.100
136.300	-45.844	0.100
136.400	-30.311	0.100
136.500	-28.824	0.100
136.600	-44.077	0.100
136.700	-32.248	0.100
136.800	-32.227	0.100
136.900	-35.982	0.100
137.000	-51.832	0.100
137.100	-34.359	0.100
137.200	-38.194	0.100
137.300	-24.066	0.100
137.400	-33.491	0.100
137.500	-41.783	0.100
137.600	-40.510	0.100
137.700	-28.273	0.100
137.800	-37.954	0.100
137.900	-38.083	0.100
138.000	-31.453	0.100
138.100	-35.196	0.100
138.200	-41.124	0.100
138.300	-41.081	0.100
138.400	-33.003	0.100
138.500	-31.482	0.100
138.600	-21.908	0.100
138.700	-38.140	0.100
138.800	-32.112	0.100
138.900	-40.334	0.100
139.000	-29.001	0.100
139.100	-28.126	0.100
139.200	-40.294	0.100
139.300	-29.138	0.100
139.400	-31.247	0.100
139.500	-48.723	0.100
139.600	-23.473	0.100
139.700	-29.878	0.100
139.800	-47.239	0.100
139.900	-31.872	0.100
140.000	-25.908	0.100
140.100	-32.593	0.100
140.200	-39.753	0.100
140.300	-32.612	0.100
140.400	-31.409	0.100
140.500	-41.333	0.100
140.600	-28.509	0.100
140.700	-33.311	0.100
140.800	-39.295	0.100
140.900	-35.412	0.100
141.000	-19.554	0.100
141.100	-42.716	0.100
141.200	-33.356	0.100
141.300	-24.367	0.100
141.400	-30.234	0.100
141.500	-39.593	0.100
141.600	-39.033	0.100
141.700	-35.918	0.100
141.800	-48.913	0.100
141.900	-30.345	0.100
142.000	-28.831	0.100
142.100	-33.607	0.100
142.200	-31.690	0.100
142.300	-26.855	0.100
142.400	-34.927	0.100
142.500	-33.611	0.100
142.600	-29.437	0.100
142.700	-37.737	0.100
142.800	-37.161	0.100
142.900	-23.477	0.100
143.000	-29.179	0.100
143.100	-42.270	0.100
143.200	-22.712	0.100
143.300	-29.286	0.100
143.400	-22.641	0.100
143.500	-35.524	0.100
143.600	-31.073	0.100
143.700	-35.575	0.100
143.800	-39.126	0.100
143.900	-43.267	0.100
144.000	-31.785	0.100
144.100	-35.492	0.100
144.200	-29.064	0.100
144.300	-37.254	0.100
144.400	-21.251	0.100
144.500	-32.430	0.100
144.600	-32.700	0.100
144.700	-29.471	0.100
144.800	-29.328	0.100
144.900	-29.314	0.100
145.000	-26.958	0.100
145.100	-33.712	0.100
145.200	-45.793	0.100
145.300	-23.459	0.100
145.400	-36.072	0.100
145.500	-31.934	0.100
145.600	-35.577	0.100
145.700	-37.099	0.100
145.800	-31.640	0.100
145.900	-38.327	0.100
146.000	-40.499	0.100
146.100	-23.196	0.100
146.200	-22.204	0.100
146.300	-34.819	0.100
146.400	-32.821	0.100
146.500	-29.742	0.100
146.600	-51.533	0.100
146.700	-34.716	0.100
146.800	-20.893	0.100
146.900	-33.007	0.100
147.000	-33.016	0.100
147.100	-31.478	0.100
147.200	-25.409	0.100
147.300	-36.453	0.100
147.400	-26.025	0.100
147.500	-50.634	0.100
147.600	-24.719	0.100
147.700	-30.423	0.100
147.800	-25.722	0.100
147.900	-24.426	0.100
148.000	-27.234	0.100
148.100	-30.001	0.100
148.200	-28.648	0.100
148.300	-24.105	0.100
148.400	-27.550	0.100
148.500	-36.341	0.100
148.600	-46.462	0.100
148.700	-29.029	0.100
148.800	-23.401	0.100
148.900	-35.775	0.100
149.000	-34.590	0.100
149.100	-26.962	0.100
149.200	-12.832	0.100
149.300	-23.795	0.100
149.400	-29.851	0.100
149.500	-31.550	0.100
149.600	-26.226	0.100
149.700	-32.877	0.100
149.800	-40.805	0.100
149.900	-32.314	0.100
150.000	-30.504	0.100
150.100	-31.136	0.100
150.200	-23.118	0.100
150.300	-22.199	0.100
150.400	-39.671	0.100
150.500	-43.074	0.100
150.600	-37.174	0.100
150.700	-23.342	0.100
150.800	-44.781	0.100
150.900	-34.486	0.100
151.000	-31.500	0.100
151.100	-33.150	0.100
151.200	-24.954	0.100
151.300	-36.186	0.100
151.400	-18.482	0.100
151.500	-31.473	0.100
151.600	-27.965	0.100
151.700	-38.969	0.100
151.800	-27.836	0.100
151.900	-20.980	0.100
152.000	-25.098	0.100
152.100	-27.224	0.100
152.200	-42.464	0.100
152.300	-13.916	0.100
152.400	-42.171	0.100
152.500	-26.516	0.100
152.600	-29.951	0.100
152.700	-26.629	0.100
152.800	-18.374	0.100
152.900	-28.979	0.100
153.000	-36.747	0.100
153.100	-30.293	0.100
153.200	-31.872	0.100
153.300	-28.944	0.100
153.400	-37.033	0.100
153.500	-41.300	0.100
153.600	-30.535	0.100
153.700	-23.552	0.100
153.800	-32.895	0.100
153.900	-31.969	0.100
154.000	-27.244	0.100
154.100	-32.492	0.100
154.200	-30.378	0.100
154.300	-43.775	0.100
154.400	-37.682	0.100
154.500	-26.641	0.100
154.600	-39.050	0.100
154.700	-22.425	0.100
154.800	-31.189	0.100
154.900	-21.161	0.100
155.000	-31.320	0.100
155.100	-30.420	0.100
155.200	-27.667	0.100
155.300	-27.856	0.100
155.400	-37.721	0.100
155.500	-38.849	0.100
155.600	-22.332	0.100
155.700	-29.675	0.100
155.800	-15.369	0.100
155.900	-23.257	0.100
156.000	-32.938	0.100
156.100	-33.456	0.100
156.200	-30.603	0.100
156.300	-33.140	0.100
156.400	-34.968	0.100
156.500	-26.364	0.100
156.600	-34.321	0.100
156.700	-30.312	0.100
156.800	-27.357	0.100
156.900	-34.560	0.100
157.000	-35.006	0.100
157.100	-36.356	0.100
157.200	-31.218	0.100
157.300	-30.792	0.100
157.400	-34.780	0.100
157.500	-16.822	0.100
157.600	-29.879	0.100
157.700	-32.117	0.100
157.800	-30.981	0.100
157.900	-28.301	0.100
158.000	-25.695	0.100
158.100	-22.949	0.100
158.200	-17.319	0.100
158.300	-27.755	0.100
158.400	-32.899	0.100
158.500	-38.453	0.100
158.600	-19.092	0.100
158.700	-40.519	0.100
158.800	-25.265	0.100
158.900	-28.404	0.100
159.000	-21.284	0.100
159.100	-12.622	0.100
159.200	-33.649	0.100
159.300	-26.063	0.100
159.400	-27.022	0.100
159.500	-26.136	0.100
159.600	-21.552	0.100
159.700	-45.959	0.100
159.800	-31.704	0.100
159.900	-42.699	0.100
160.000	-22.688	0.100
160.100	-26.562	0.100
160.200	-32.734	0.100
160.300	-29.031	0.100
160.400	-33.719	0.100
160.500	-36.351	0.100
160.600	-33.656	0.100
160.700	-31.892	0.100
160.800	-19.410	0.100
160.900	-16.345	0.100
161.000	-24.752	0.100
161.100	-34.618	0.100
161.200	-28.867	0.100
161.300	-28.950	0.100
161.400	-30.226	0.100
161.500	-38.192	0.100
161.600	-24.021	0.100
161.700	-14.615	0.100
161.800	-30.973	0.100
161.900	-38.476	0.100
162.000	-33.070	0.100
162.100	-30.987	0.100
162.200	-28.931	0.100
162.300	-21.639	0.100
162.400	-27.363	0.100
162.500	-33.416	0.100
162.600	-33.471	0.100
162.700	-26.883	0.100
162.800	-38.124	0.100
162.900	-35.048	0.100
163.000	-27.852	0.100
163.100	-27.911	0.100
163.200	-42.476	0.100
163.300	-32.477	0.100
163.400	-21.346	0.100
163.500	-37.892	0.100
163.600	-18.234	0.100
163.700	-21.879	0.100
163.800	-20.913	0.100
163.900	-28.064	0.100
164.000	-25.126	0.100
164.100	-25.638	0.100
164.200	-36.671	0.100
164.300	-41.380	0.100
164.400	-28.133	0.100
164.500	-23.242	0.100
164.600	-30.333	0.100
164.700	-27.794	0.100
164.800	-35.949	0.100
164.900	-25.527	0.100
165.000	-30.422	0.100
165.100	-27.057	0.100
165.200	-33.661	0.100
165.300	-15.826	0.100
165.400	-39.572	0.100
165.500	-33.416	0.100
165.600	-33.071	0.100
165.700	-24.879	0.100
165.800	-38.363	0.100
165.900	-30.961	0.100
166.000	-17.580	0.100
166.100	-26.981	0.100
166.200	-39.511	0.100
166.300	-17.457	0.100
166.400	-31.760	0.100
166.500	-16.368	0.100
166.600	-18.584	0.100
166.700	-23.631	0.100
166.800	-34.567	0.100
166.900	-33.835	0.100
167.000	-30.372	0.100
167.100	-33.772	0.100
167.200	-43.325	0.100
167.300	-19.261	0.100
167.400	-34.174	0.100
167.500	-26.323	0.100
167.600	-31.745	0.100
167.700	-33.109	0.100
167.800	-31.557	0.100
167.900	-21.179	0.100
168.000	-23.267	0.100
168.100	-25.569	0.100
168.200	-22.928	0.100
168.300	-23.591	0.100
168.400	-45.087	0.100
168.500	-22.647	0.100
168.600	-21.632	0.100
168.700	-16.987	0.100
168.800	-32.489	0.100
168.900	-21.551	0.100
169.000	-30.735	0.100
169.100	-16.487	0.100
169.200	-21.961	0.100
169.300	-21.906	0.100
169.400	-39.591	0.100
169.500	-32.179	0.100
169.600	-25.747	0.100
169.700	-24.198	0.100
169.800	-27.046	0.100
169.900	-31.164	0.100
170.000	-22.578	0.100
170.100	-38.075	0.100
170.200	-0.401	0.100
170.300	-18.976	0.100
170.400	-31.172	0.100
170.500	-8.497	0.100
170.600	-39.034	0.100
170.700	-22.823	0.100
170.800	-31.186	0.100
170.900	-18.389	0.100
171.000	-31.535	0.100
171.100	-26.362	0.100
171.200	-27.981	0.100
171.300	-37.634	0.100
171.400	-31.705	0.100
171.500	-14.229	0.100
171.600	-18.214	0.100
171.700	-26.536	0.100
171.800	-26.688	0.100
171.900	-28.137	0.100
172.000	-35.297	0.100
172.100	-26.963	0.100
172.200	-22.400	0.100
172.300	-28.660	0.100
172.400	-27.149	0.100
172.500	-23.280	0.100
172.600	-21.657	0.100
172.700	-41.554	0.100
172.800	-22.926	0.100
172.900	-23.496	0.100
173.000	-24.712	0.100
173.100	-35.724	0.100
173.200	-37.154	0.100
173.300	-34.821	0.100
173.400	-26.906	0.100
173.500	-30.991	0.100
173.600	-20.774	0.100
173.700	-28.567	0.100
173.800	-16.024	0.100
173.900	-36.348	0.100
174.000	-34.455	0.100
174.100	-33.396	0.100
174.200	-44.594	0.100
174.300	-33.173	0.100
174.400	-25.562	0.100
174.500	-23.952	0.100
174.600	-24.875	0.100
174.700	-16.246	0.100
174.800	-21.545	0.100
174.900	-44.422	0.100
175.000	-27.420	0.100
175.100	-25.571	0.100
175.200	-30.102	0.100
175.300	-43.834	0.100
175.400	-21.218	0.100
175.500	-17.372	0.100
175.600	-13.703	0.100
175.700	-17.020	0.100
175.800	-23.774	0.100
175.900	-30.273	0.100
176.000	-18.786	0.100
176.100	-34.538	0.100
176.200	-22.458	0.100
176.300	-19.646	0.100
176.400	-16.953	0.100
176.500	-25.202	0.100
176.600	-41.668	0.100
176.700	-22.526	0.100
176.800	-29.784	0.100
176.900	-26.791	0.100
177.000	-31.227	0.100
177.100	-25.690	0.100
177.200	-16.270	0.100
177.300	-10.945	0.100
177.400	-33.286	0.100
177.500	-33.124	0.100
177.600	-8.156	0.100
177.700	-26.952	0.100
177.800	-26.019	0.100
177.900	-16.005	0.100
178.000	-32.325	0.100
178.100	-28.235	0.100
178.200	-17.146	0.100
178.300	-23.953	0.100
178.400	-28.544	0.100
178.500	-33.115	0.100
178.600	-20.354	0.100
178.700	-15.397	0.100
178.800	-41.920	0.100
178.900	-26.245	0.100
179.000	-38.893	0.100
179.100	-30.665	0.100
179.200	-26.061	0.100
179.300	-31.262	0.100
179.400	-20.831	0.100
179.500	-33.388	0.100
179.600	-11.187	0.100
179.700	-15.854	0.100
179.800	-13.423	0.100
179.900	14.997	0.100
180.000	31.311	0.100
180.100	42.444	0.100
180.200	43.135	0.100
180.300	44.203	0.100
180.400	45.099	0.100
180.500	42.233	0.100
180.600	36.151	0.100
180.700	48.264	0.100
180.800	46.183	0.100
180.900	52.304	0.100
181.000	41.547	0.100
181.100	45.064	0.100
181.200	50.112	0.100
181.300	49.028	0.100
181.400	41.187	0.100
181.500	45.759	0.100
181.600	47.195	0.100
181.700	40.650	0.100
181.800	36.952	0.100
181.900	36.302	0.100
182.000	35.614	0.100
182.100	44.595	0.100
182.200	38.249	0.100
182.300	43.826	0.100
182.400	40.809	0.100
182.500	33.560	0.100
182.600	23.597	0.100
182.700	35.803	0.100
182.800	43.325	0.100
182.900	34.412	0.100
183.000	31.570	0.100
183.100	30.408	0.100
183.200	43.333	0.100
183.300	29.016	0.100
183.400	24.118	0.100
183.500	11.719	0.100
183.600	28.401	0.100
183.700	30.219	0.100
183.800	25.628	0.100
183.900	34.924	0.100
184.000	31.513	0.100
184.100	31.326	0.100
184.200	27.415	0.100
184.300	33.245	0.100
184.400	29.361	0.100
184.500	30.246	0.100
184.600	43.927	0.100
184.700	29.752	0.100
184.800	36.799	0.100
184.900	44.931	0.100
185.000	20.111	0.100
185.100	32.107	0.100
185.200	33.725	0.100
185.300	39.207	0.100
185.400	36.552	0.100
185.500	42.088	0.100
185.600	36.431	0.100
185.700	53.800	0.100
185.800	38.708	0.100
185.900	42.921	0.100
186.000	49.484	0.100
186.100	50.531	0.100
186.200	50.004	0.100
186.300	52.038	0.100
186.400	37.530	0.100
186.500	53.839	0.100
186.600	54.411	0.100
186.700	45.840	0.100
186.800	57.413	0.100
186.900	40.323	0.100
187.000	47.389	0.100
187.100	58.618	0.100
187.200	55.979	0.100
187.300	52.882	0.100
187.400	64.239	0.100
187.500	59.919	0.100
187.600	46.062	0.100
187.700	66.922	0.100
187.800	49.978	0.100
187.900	56.113	0.100
188.000	69.427	0.100
188.100	66.977	0.100
188.200	58.813	0.100
188.300	65.201	0.100
188.400	77.977	0.100
188.500	64.791	0.100
188.600	57.560	0.100
188.700	71.604	0.100
188.800	74.862	0.100
188.900	74.023	0.100
189.000	69.270	0.100
189.100	56.245	0.100
189.200	74.230	0.100
189.300	77.255	0.100
189.400	68.397	0.100
189.500	78.297	0.100
189.600	80.433	0.100
189.700	70.115	0.100
189.800	84.359	0.100
189.900	67.610	0.100
190.000	82.597	0.100
190.100	67.307	0.100
190.200	67.429	0.100
190.300	71.421	0.100
190.400	61.180	0.100
190.500	67.662	0.100
190.600	77.949	0.100
190.700	77.611	0.100
190.800	66.777	0.100
190.900	74.482	0.100
191.000	76.094	0.100
191.100	88.804	0.100
191.200	79.245	0.100
191.300	75.605	0.100
191.400	71.575	0.100
191.500	78.650	0.100
191.600	76.557	0.100
191.700	71.095	0.100
191.800	78.034	0.100
191.900	58.694	0.100
192.000	61.730	0.100
192.100	82.378	0.100
192.200	82.361	0.100
192.300	67.047	0.100
192.400	68.537	0.100
192.500	83.427	0.100
192.600	85.844	0.100
192.700	61.928	0.100
192.800	72.132	0.100
192.900	85.499	0.100
193.000	94.783	0.100
193.100	64.088	0.100
193.200	79.505	0.100
193.300	85.146	0.100
193.400	74.582	0.100
193.500	83.179	0.100
193.600	68.448	0.100
193.700	76.938	0.100
193.800	70.894	0.100
193.900	64.524	0.100
194.000	80.797	0.100
194.100	70.775	0.100
194.200	60.954	0.100
194.300	72.131	0.100
194.400	74.852	0.100
194.500	72.538	0.100
194.600	80.340	0.100
194.700	61.205	0.100
194.800	74.525	0.100
194.900	94.397	0.100
195.000	71.737	0.100
195.100	82.248	0.100
195.200	73.464	0.100
195.300	82.039	0.100
195.400	68.087	0.100
195.500	66.910	0.100
195.600	75.207	0.100
195.700	76.406	0.100
195.800	77.802	0.100
195.900	68.456	0.100
196.000	78.945	0.100
196.100	69.639	0.100
196.200	63.954	0.100
196.300	71.289	0.100
196.400	72.697	0.100
196.500	65.940	0.100
196.600	74.377	0.100
196.700	74.824	0.100
196.800	73.484	0.100
196.900	71.938	0.100
197.000	62.629	0.100
197.100	68.101	0.100
197.200	75.506	0.100
197.300	78.623	0.100
197.400	85.031	0.100
197.500	77.875	0.100
197.600	77.610	0.100
197.700	62.231	0.100
197.800	74.876	0.100
197.900	57.062	0.100
198.000	65.406	0.100
198.100	72.796	0.100
198.200	68.232	0.100
198.300	66.564	0.100
198.400	71.705	0.100
198.500	88.307	0.100
198.600	65.857	0.100
198.700	61.827	0.100
198.800	87.588	0.100
198.900	67.213	0.100
199.000	74.527	0.100
199.100	69.674	0.100
199.200	69.926	0.100
199.300	70.795	0.100
199.400	72.226	0.100
199.500	81.533	0.100
199.600	63.541	0.100
199.700	70.613	0.100
199.800	87.678	0.100
199.900	65.451	0.100
200.000	61.943	0.100
200.100	74.778	0.100
200.200	73.482	0.100
200.300	56.952	0.100
200.400	69.074	0.100
200.500	63.982	0.100
200.600	76.899	0.100
200.700	68.056	0.100
200.800	61.285	0.100
200.900	62.758	0.100
201.000	65.813	0.100
201.100	76.031	0.100
201.200	71.825	0.100
201.300	59.729	0.100
201.400	57.140	0.100
201.500	86.767	0.100
201.600	76.062	0.100
201.700	62.762	0.100
201.800	52.482	0.100
201.900	75.358	0.100
202.000	78.742	0.100
202.100	67.590	0.100
202.200	71.502	0.100
202.300	72.590	0.100
202.400	66.252	0.100
202.500	70.709	0.100
202.600	75.045	0.100
202.700	74.355	0.100
202.800	61.599	0.100
202.900	75.634	0.100
203.000	70.071	0.100
203.100	60.187	0.100
203.200	55.747	0.100
203.300	57.003	0.100
203.400	75.871	0.100
203.500	69.102	0.100
203.600	74.940	0.100
203.700	82.438	0.100
203.800	67.327	0.100
203.900	65.301	0.100
204.000	54.785	0.100
204.100	63.778	0.100
204.200	69.879	0.100
204.300	61.658	0.100
204.400	68.681	0.100
204.500	69.963	0.100
204.600	70.196	0.100
204.700	58.060	0.100
204.800	64.040	0.100
204.900	66.680	0.100
205.000	69.808	0.100
205.100	73.928	0.100
205.200	67.962	0.100
205.300	73.731	0.100
205.400	67.731	0.100
205.500	54.182	0.100
205.600	55.818	0.100
205.700	84.083	0.100
205.800	70.837	0.100
205.900	72.346	0.100
206.000	69.845	0.100
206.100	60.812	0.100
206.200	55.157	0.100
206.300	64.326	0.100
206.400	60.986	0.099
206.500	65.702	0.100
206.600	77.646	0.100
206.700	72.323	0.100
206.800	61.930	0.100
206.900	61.059	0.100
207.000	78.022	0.100
207.100	69.215	0.100
207.200	74.295	0.100
207.300	69.378	0.100
207.400	56.581	0.100
207.500	72.742	0.100
207.600	69.335	0.100
207.700	71.784	0.100
207.800	68.119	0.100
207.900	64.246	0.100
208.000	61.990	0.100
208.100	66.501	0.100
208.200	68.593	0.100
208.300	64.866	0.100
208.400	54.808	0.100
208.500	59.532	0.100
208.600	61.982	0.100
208.700	82.310	0.100
208.800	62.597	0.100
208.900	65.719	0.100
209.000	69.246	0.100
209.100	63.788	0.100
209.200	52.136	0.100
209.300	71.853	0.100
209.400	82.147	0.100
209.500	56.145	0.100
209.600	74.582	0.100
209.700	68.153	0.100
209.800	66.379	0.100
209.900	59.734	0.100
210.000	72.332	0.100
210.100	78.873	0.100
210.200	66.782	0.100
210.300	55.479	0.100
210.400	57.091	0.100
210.500	51.734	0.100
210.600	74.704	0.100
210.700	80.393	0.100
210.800	78.103	0.100
210.900	65.456	0.100
211.000	66.941	0.100
211.100	55.533	0.100
211.200	64.445	0.100
211.300	72.270	0.100
211.400	68.832	0.100
211.500	66.027	0.100
211.600	70.822	0.100
211.700	66.815	0.100
211.800	65.770	0.100
211.900	71.117	0.100
212.000	65.648	0.100
212.100	61.105	0.100
212.200	68.451	0.100
212.300	56.480	0.100
212.400	69.248	0.100
212.500	68.276	0.100
212.600	67.046	0.100
212.700	56.555	0.100
212.800	74.862	0.100
212.900	73.219	0.100
213.000	76.840	0.100
213.100	67.711	0.100
213.200	58.126	0.100
213.300	72.103	0.100
213.400	53.358	0.100
213.500	54.340	0.100
213.600	68.872	0.100
213.700	69.046	0.100
213.800	82.402	0.100
213.900	64.085	0.100
214.000	66.380	0.100
214.100	64.736	0.100
214.200	63.214	0.100
214.300	72.249	0.100
214.400	62.143	0.100
214.500	57.692	0.100
214.600	72.031	0.100
214.700	67.834	0.100
214.800	71.001	0.100
214.900	67.094	0.100
215.000	64.279	0.100
215.100	68.533	0.100
215.200	70.745	0.100
215.300	68.776	0.100
215.400	65.916	0.100
215.500	59.765	0.100
215.600	72.014	0.100
215.700	73.134	0.100
215.800	58.832	0.100
215.900	62.019	0.100
216.000	70.437	0.100
216.100	66.489	0.100
216.200	65.206	0.100
216.300	74.109	0.100
216.400	57.570	0.100
216.500	60.897	0.100
216.600	65.229	0.100
216.700	66.036	0.100
216.800	77.514	0.100
216.900	58.645	0.100
217.000	65.203	0.100
217.100	69.947	0.100
217.200	80.564	0.100
217.300	67.175	0.100
217.400	71.892	0.100
217.500	66.498	0.100
217.600	61.058	0.100
217.700	71.976	0.100
217.800	78.919	0.100
217.900	62.748	0.100
218.000	60.211	0.100
218.100	65.465	0.100
218.200	78.626	0.100
218.300	74.233	0.100
218.400	67.160	0.100
218.500	62.319	0.100
218.600	65.721	0.100
218.700	68.679	0.100
218.800	63.704	0.100
218.900	47.950	0.100
219.000	85.335	0.100
219.100	66.963	0.100
219.200	67.099	0.100
219.300	65.236	0.100
219.400	48.420	0.100
219.500	66.478	0.100
219.600	63.893	0.100
219.700	70.239	0.100
219.800	83.070	0.100
219.900	69.846	0.100
220.000	67.393	0.100
220.100	56.769	0.100
220.200	57.197	0.100
220.300	65.494	0.100
220.400	68.106	0.100
220.500	74.798	0.100
220.600	61.253	0.100
220.700	69.042	0.100
220.800	72.285	0.100
220.900	63.673	0.100
221.000	64.506	0.100
221.100	73.955	0.100
221.200	70.360	0.100
221.300	76.645	0.100
221.400	70.995	0.100
221.500	72.321	0.100
221.600	71.637	0.100
221.700	90.045	0.100
221.800	70.935	0.100
221.900	60.023	0.100
222.000	58.073	0.100
222.100	60.768	0.100
222.200	85.493	0.100
222.300	80.583	0.100
222.400	78.638	0.100
222.500	62.719	0.100
222.600	64.209	0.100
222.700	81.830	0.100
222.800	61.017	0.100
222.900	63.581	0.100
223.000	58.533	0.100
223.100	67.621	0.100
223.200	69.750	0.100
223.300	54.646	0.100
223.400	73.805	0.100
223.500	71.171	0.100
223.600	71.487	0.100
223.700	73.852	0.100
223.800	68.088	0.100
223.900	71.858	0.100
224.000	65.338	0.100
224.100	67.895	0.100
224.200	67.661	0.100
224.300	60.135	0.100
224.400	73.812	0.100
224.500	64.783	0.100
224.600	71.307	0.100
224.700	63.479	0.100
224.800	61.653	0.100
224.900	71.597	0.100
225.000	61.038	0.100
225.100	63.890	0.100
225.200	81.083	0.100
225.300	56.495	0.100
225.400	75.429	0.100
225.500	62.501	0.100
225.600	68.088	0.100
225.700	71.590	0.100
225.800	65.113	0.100
225.900	72.712	0.100
226.000	72.178	0.100
226.100	69.994	0.100
226.200	65.835	0.100
226.300	52.605	0.100
226.400	79.407	0.100
226.500	57.176	0.100
226.600	64.077	0.100
226.700	68.326	0.100
226.800	60.272	0.100
226.900	64.028	0.100
227.000	56.422	0.100
227.100	58.435	0.100
227.200	75.049	0.100
227.300	73.294	0.100
227.400	76.058	0.100
227.500	71.207	0.100
227.600	66.366	0.100
227.700	51.060	0.100
227.800	65.269	0.100
227.900	70.183	0.100
228.000	75.561	0.100
228.100	66.671	0.100
228.200	73.270	0.100
228.300	68.217	0.100
228.400	71.279	0.100
228.500	72.399	0.100
228.600	72.304	0.100
228.700	64.959	0.100
228.800	70.365	0.100
228.900	59.849	0.100
229.000	72.068	0.100
229.100	65.279	0.100
229.200	73.697	0.100
229.300	73.576	0.100
229.400	65.469	0.100
229.500	72.607	0.100
229.600	68.374	0.100
229.700	68.583	0.100
229.800	66.727	0.100
229.900	85.072	0.100
230.000	73.633	0.100
230.100	72.157	0.100
230.200	63.376	0.100
230.300	56.706	0.100
230.400	60.133	0.100
230.500	73.407	0.100
230.600	58.811	0.100
230.700	64.047	0.100
230.800	81.907	0.100
230.900	69.931	0.100
231.000	53.179	0.100
231.100	71.506	0.100
231.200	73.006	0.100
231.300	70.935	0.100
231.400	62.593	0.100
231.500	71.919	0.100
231.600	75.238	0.100
231.700	73.106	0.100
231.800	63.003	0.100
231.900	68.581	0.100
232.000	68.729	0.100
232.100	58.790	0.100
232.200	62.033	0.100
232.300	65.312	0.100
232.400	65.412	0.100
232.500	77.206	0.100
232.600	64.741	0.100
232.700	62.226	0.100
232.800	73.808	0.100
232.900	65.531	0.100
233.000	67.164	0.100
233.100	64.439	0.100
233.200	63.197	0.100
233.300	78.071	0.100
233.400	72.613	0.100
233.500	63.333	0.100
233.600	68.001	0.100
233.700	69.640	0.100
233.800	59.126	0.100
233.900	76.471	0.100
234.000	67.423	0.100
234.100	58.172	0.100
234.200	60.572	0.100
234.300	85.585	0.100
234.400	71.392	0.100
234.500	69.770	0.100
234.600	65.402	0.100
234.700	66.070	0.100
234.800	70.635	0.100
234.900	71.119	0.100
235.000	74.106	0.100
235.100	61.837	0.100
235.200	70.125	0.100
235.300	64.917	0.100
235.400	65.185	0.100
235.500	59.577	0.100
235.600	79.441	0.100
235.700	68.214	0.100
235.800	58.409	0.100
235.900	76.135	0.100
236.000	66.641	0.100
236.100	70.209	0.100
236.200	84.331	0.100
236.300	63.599	0.100
236.400	64.383	0.100
236.500	66.127	0.100
236.600	88.997	0.100
236.700	56.112	0.100
236.800	72.071	0.100
236.900	61.793	0.100
237.000	70.709	0.100
237.100	59.868	0.100
237.200	69.458	0.100
237.300	71.671	0.100
237.400	74.075	0.100
237.500	71.725	0.100
237.600	75.991	0.100
237.700	75.007	0.100
237.800	70.910	0.100
237.900	57.487	0.100
238.000	60.952	0.100
238.100	65.253	0.100
238.200	68.720	0.100
238.300	67.529	0.100
238.400	67.951	0.100
238.500	69.981	0.100
238.600	67.882	0.100
238.700	67.629	0.100
238.800	68.410	0.100
238.900	65.324	0.100
239.000	70.963	0.100
239.100	71.685	0.100
239.200	70.922	0.100
239.300	71.145	0.100
239.400	68.279	0.100
239.500	71.472	0.100
239.600	74.616	0.100
239.700	60.812	0.100
239.800	52.551	0.100
239.900	43.911	0.100
240.000	41.370	0.100
240.100	30.722	0.100
240.200	14.725	0.100
240.300	15.913	0.100
240.400	3.647	0.100
240.500	0.760	0.100
240.600	-1.930	0.100
240.700	-11.022	0.100
240.800	-20.699	0.100
240.900	-17.159	0.100
241.000	-23.465	0.100
241.100	-14.060	0.100
241.200	-21.536	0.100
241.300	-21.037	0.100
241.400	-28.495	0.100
241.500	-41.002	0.100
241.600	-23.665	0.100
241.700	-20.542	0.100
241.800	-32.351	0.100
241.900	-31.309	0.100
242.000	-31.791	0.100
242.100	-32.343	0.100
242.200	-26.709	0.100
242.300	-24.712	0.100
242.400	-43.674	0.100
242.500	-54.295	0.100
242.600	-19.422	0.100
242.700	-29.865	0.100
242.800	-37.731	0.100
242.900	-32.877	0.100
243.000	-31.285	0.100
243.100	-53.228	0.100
243.200	-36.886	0.100
243.300	-32.366	0.100
243.400	-25.138	0.100
243.500	-31.276	0.100
243.600	-45.513	0.100
243.700	-38.088	0.100
243.800	-43.578	0.100
243.900	-52.898	0.100
244.000	-43.339	0.100
244.100	-36.547	0.100
244.200	-35.140	0.100
244.300	-22.986	0.100
244.400	-42.516	0.100
244.500	-35.639	0.100
244.600	-42.945	0.100
244.700	-27.292	0.100
244.800	-26.569	0.100
244.900	-39.944	0.100
245.000	-34.675	0.100
245.100	-26.821	0.100
245.200	-23.642	0.100
245.300	-29.770	0.100
245.400	-32.572	0.100
245.500	-30.685	0.100
245.600	-39.027	0.100
245.700	-38.069	0.100
245.800	-17.571	0.100
245.900	-30.017	0.100
246.000	-31.665	0.100
246.100	-42.906	0.100
246.200	-30.248	0.100
246.300	-31.353	0.100
246.400	-40.343	0.100
246.500	-25.172	0.100
246.600	-42.550	0.100
246.700	-37.566	0.100
246.800	-13.512	0.100
246.900	-21.324	0.100
247.000	-38.955	0.100
247.100	-29.149	0.100
247.200	-25.911	0.100
247.300	-29.102	0.100
247.400	-30.262	0.100
247.500	-34.620	0.100
247.600	-41.618	0.100
247.700	-25.231	0.100
247.800	-36.255	0.100
247.900	-33.362	0.100
248.000	-36.527	0.100
248.100	-28.914	0.100
248.200	-30.729	0.100
248.300	-37.749	0.100
248.400	-22.186	0.100
248.500	-35.237	0.100
248.600	-29.034	0.100
248.700	-32.271	0.100
248.800	-32.556	0.100
248.900	-23.929	0.100
249.000	-29.961	0.100
249.100	-33.372	0.100
249.200	-42.771	0.100
249.300	-28.415	0.100
249.400	-37.122	0.100
249.500	-34.044	0.100
249.600	-34.677	0.100
249.700	-40.191	0.100
249.800	-28.557	0.100
249.900	-37.701	0.100
250.000	-32.252	0.100
250.100	-25.988	0.100
250.200	-24.740	0.100
250.300	-36.876	0.100
250.400	-36.708	0.100
250.500	-37.277	0.100
250.600	-39.804	0.100
250.700	-26.002	0.100
250.800	-22.986	0.100
250.900	-31.019	0.100
251.000	-35.389	0.100
251.100	-45.624	0.100
251.200	-30.321	0.100
251.300	-32.783	0.100
251.400	-32.160	0.100
251.500	-26.546	0.100
251.600	-43.012	0.100
251.700	-47.707	0.100
251.800	-39.063	0.100
251.900	-26.186	0.100
252.000	-28.221	0.100
252.100	-36.615	0.100
252.200	-34.921	0.100
252.300	-46.371	0.100
252.400	-31.703	0.100
252.500	-38.470	0.100
252.600	-44.167	0.100
252.700	-39.012	0.100
252.800	-39.870	0.100
252.900	-39.671	0.100
253.000	-36.313	0.100
253.100	-55.503	0.100
253.200	-36.152	0.100
253.300	-29.474	0.100
253.400	-29.611	0.100
253.500	-31.817	0.100
253.600	-42.702	0.100
253.700	-38.088	0.100
253.800	-41.145	0.100
253.900	-55.099	0.100
254.000	-32.861	0.100
254.100	-30.617	0.100
254.200	-34.626	0.100
254.300	-49.574	0.100
254.400	-24.448	0.100
254.500	-41.915	0.100
254.600	-43.100	0.100
254.700	-36.488	0.100
254.800	-45.259	0.100
254.900	-45.742	0.100
255.000	-49.173	0.100
255.100	-39.970	0.100
255.200	-32.711	0.100
255.300	-30.969	0.100
255.400	-40.824	0.100
255.500	-40.258	0.100
255.600	-39.364	0.100
255.700	-35.345	0.100
255.800	-35.913	0.100
255.900	-43.623	0.100
256.000	-39.457	0.100
256.100	-39.399	0.100
256.200	-40.904	0.100
256.300	-42.388	0.100
256.400	-41.742	0.100
256.500	-37.811	0.100
256.600	-38.233	0.100
256.700	-34.492	0.100
256.800	-32.341	0.100
256.900	-47.326	0.100
257.000	-28.508	0.100
257.100	-41.125	0.100
257.200	-31.624	0.100
257.300	-63.114	0.100
257.400	-51.281	0.100
257.500	-36.262	0.100
257.600	-31.695	0.100
257.700	-29.850	0.100
257.800	-43.846	0.100
257.900	-49.660	0.100
258.000	-44.077	0.100
258.100	-40.965	0.100
258.200	-27.872	0.100
258.300	-37.171	0.100
258.400	-45.748	0.100
258.500	-36.197	0.100
258.600	-42.986	0.100
258.700	-46.115	0.100
258.800	-46.901	0.100
258.900	-39.066	0.100
259.000	-36.032	0.100
259.100	-42.320	0.100
259.200	-48.832	0.100
259.300	-45.126	0.100
259.400	-38.292	0.100
259.500	-50.980	0.100
259.600	-37.758	0.100
259.700	-27.564	0.100
259.800	-37.723	0.100
259.900	-35.943	0.100
260.000	-35.727	0.100
260.100	-35.084	0.100
260.200	-56.086	0.100
260.300	-48.665	0.100
260.400	-42.026	0.100
260.500	-37.321	0.100
260.600	-36.800	0.100
260.700	-37.786	0.100
260.800	-42.074	0.100
260.900	-42.554	0.100
261.000	-51.212	0.100
261.100	-45.977	0.100
261.200	-45.259	0.100
261.300	-41.407	0.100
261.400	-49.506	0.100
261.500	-34.367	0.100
261.600	-45.464	0.100
261.700	-31.022	0.100
261.800	-34.169	0.100
261.900	-39.876	0.100
262.000	-43.149	0.100
262.100	-44.264	0.100
262.200	-35.353	0.100
262.300	-42.701	0.100
262.400	-40.349	0.100
262.500	-32.090	0.100
262.600	-50.916	0.100
262.700	-42.523	0.100
262.800	-33.871	0.100
262.900	-34.341	0.100
263.000	-41.847	0.100
263.100	-47.152	0.100
263.200	-40.161	0.100
263.300	-36.435	0.100
263.400	-38.797	0.100
263.500	-36.517	0.100
263.600	-45.003	0.100
263.700	-34.534	0.100
263.800	-38.231	0.100
263.900	-47.268	0.100
264.000	-45.846	0.100
264.100	-25.073	0.100
264.200	-48.033	0.100
264.300	-35.359	0.100
264.400	-41.455	0.100
264.500	-58.505	0.100
264.600	-45.264	0.100
264.700	-36.354	0.100
264.800	-61.571	0.100
264.900	-30.077	0.100
265.000	-42.832	0.100
265.100	-42.354	0.100
265.200	-41.226	0.100
265.300	-38.201	0.100
265.400	-44.784	0.100
265.500	-54.127	0.100
265.600	-30.286	0.100
265.700	-36.713	0.100
265.800	-30.106	0.100
265.900	-41.596	0.100
266.000	-41.773	0.100
266.100	-43.253	0.100
266.200	-36.245	0.100
266.300	-40.059	0.100
266.400	-39.710	0.100
266.500	-39.711	0.100
266.600	-46.138	0.100
266.700	-33.797	0.100
266.800	-41.884	0.100
266.900	-35.861	0.100
267.000	-49.648	0.100
267.100	-39.885	0.100
267.200	-53.261	0.100
267.300	-39.231	0.100
267.400	-37.615	0.100
267.500	-41.036	0.100
267.600	-36.053	0.100
267.700	-31.106	0.100
267.800	-40.217	0.100
267.900	-50.162	0.100
268.000	-55.756	0.100
268.100	-25.920	0.100
268.200	-32.685	0.100
268.300	-46.408	0.100
268.400	-41.243	0.100
268.500	-39.576	0.100
268.600	-25.040	0.100
268.700	-64.947	0.100
268.800	-39.553	0.100
268.900	-30.497	0.100
269.000	-38.505	0.100
269.100	-45.081	0.100
269.200	-44.183	0.100
269.300	-40.504	0.100
269.400	-43.579	0.100
269.500	-45.834	0.100
269.600	-30.416	0.100
269.700	-40.862	0.100
269.800	-38.408	0.100
269.900	-38.254	0.100
270.000	-45.100	0.100
270.100	-40.062	0.100
270.200	-41.239	0.100
270.300	-30.123	0.100
270.400	-34.598	0.100
270.500	-56.922	0.100
270.600	-50.366	0.100
270.700	-46.641	0.100
270.800	-43.647	0.100
270.900	-37.060	0.100
271.000	-23.561	0.100
271.100	-47.793	0.100
271.200	-46.170	0.100
271.300	-56.319	0.100
271.400	-36.798	0.100
271.500	-26.168	0.100
271.600	-40.169	0.100
271.700	-39.392	0.100
271.800	-41.409	0.100
271.900	-52.005	0.100
272.000	-36.456	0.100
272.100	-44.288	0.100
272.200	-40.417	0.100
272.300	-48.621	0.100
272.400	-34.397	0.100
272.500	-41.322	0.100
272.600	-57.600	0.100
272.700	-32.168	0.100
272.800	-48.494	0.100
272.900	-56.516	0.100
273.000	-47.363	0.100
273.100	-47.630	0.100
273.200	-49.637	0.100
273.300	-38.251	0.100
273.400	-37.947	0.100
273.500	-49.197	0.100
273.600	-43.625	0.100
273.700	-34.649	0.100
273.800	-46.070	0.100
273.900	-46.823	0.100
274.000	-59.996	0.100
274.100	-29.348	0.100
274.200	-22.659	0.100
274.300	-46.103	0.100
274.400	-49.771	0.100
274.500	-35.842	0.100
274.600	-38.489	0.100
274.700	-47.611	0.100
274.800	-39.077	0.100
274.900	-46.330	0.100
275.000	-41.415	0.100
275.100	-31.918	0.100
275.200	-29.395	0.100
275.300	-37.133	0.100
275.400	-50.579	0.100
275.500	-43.675	0.100
275.600	-36.335	0.100
275.700	-40.007	0.100
275.800	-41.130	0.100
275.900	-55.158	0.100
276.000	-36.144	0.100
276.100	-42.108	0.100
276.200	-40.950	0.100
276.300	-41.891	0.100
276.400	-34.496	0.100
276.500	-33.392	0.100
276.600	-52.666	0.100
276.700	-26.385	0.100
276.800	-55.329	0.100
276.900	-46.192	0.100
277.000	-46.667	0.100
277.100	-29.631	0.100
277.200	-39.754	0.100
277.300	-38.889	0.100
277.400	-51.236	0.100
277.500	-50.435	0.100
277.600	-45.579	0.100
277.700	-49.276	0.100
277.800	-37.084	0.100
277.900	-37.569	0.100
278.000	-46.220	0.100
278.100	-39.574	0.100
278.200	-48.448	0.100
278.300	-39.276	0.100
278.400	-43.878	0.100
278.500	-33.612	0.100
278.600	-44.906	0.100
278.700	-44.656	0.100
278.800	-35.135	0.100
278.900	-45.616	0.100
279.000	-32.060	0.100
279.100	-48.173	0.100
279.200	-33.137	0.100
279.300	-52.395	0.100
279.400	-36.700	0.100
279.500	-33.998	0.100
279.600	-41.077	0.100
279.700	-33.940	0.100
279.800	-36.470	0.100
279.900	-47.153	0.100
280.000	-45.159	0.100
280.100	-48.024	0.100
280.200	-37.009	0.100
280.300	-43.034	0.100
280.400	-44.359	0.100
280.500	-37.214	0.100
280.600	-36.637	0.100
280.700	-46.496	0.100
280.800	-47.161	0.100
280.900	-41.850	0.100
281.000	-40.900	0.100
281.100	-47.474	0.100
281.200	-28.904	0.100
281.300	-43.957	0.100
281.400	-46.290	0.100
281.500	-44.684	0.100
281.600	-35.875	0.100
281.700	-39.967	0.100
281.800	-44.822	0.100
281.900	-35.086	0.100
282.000	-29.190	0.100
282.100	-43.171	0.100
282.200	-39.908	0.100
282.300	-45.951	0.100
282.400	-32.279	0.100
282.500	-36.346	0.100
282.600	-51.621	0.100
282.700	-49.908	0.100
282.800	-30.037	0.100
282.900	-35.766	0.100
283.000	-45.649	0.100
283.100	-42.792	0.100
283.200	-32.752	0.100
283.300	-46.455	0.100
283.400	-41.705	0.100
283.500	-25.833	0.100
283.600	-54.329	0.100
283.700	-29.006	0.100
283.800	-35.778	0.100
283.900	-41.051	0.100
284.000	-39.098	0.100
284.100	-35.216	0.100
284.200	-44.380	0.100
284.300	-46.701	0.100
284.400	-45.505	0.100
284.500	-44.902	0.100
284.600	-23.471	0.100
284.700	-38.770	0.100
284.800	-45.283	0.100
284.900	-48.370	0.100
285.000	-37.291	0.100
285.100	-43.255	0.100
285.200	-39.418	0.100
285.300	-37.493	0.100
285.400	-28.956	0.100
285.500	-27.701	0.100
285.600	-35.388	0.100
285.700	-44.943	0.100
285.800	-34.338	0.100
285.900	-46.925	0.100
286.000	-45.570	0.100
286.100	-49.593	0.100
286.200	-35.310	0.100
286.300	-40.662	0.100
286.400	-35.581	0.100
286.500	-48.134	0.100
286.600	-38.347	0.100
286.700	-41.677	0.100
286.800	-42.461	0.100
286.900	-52.229	0.100
287.000	-35.258	0.100
287.100	-27.469	0.100
287.200	-34.411	0.100
287.300	-41.112	0.100
287.400	-49.797	0.100
287.500	-39.790	0.100
287.600	-41.477	0.100
287.700	-26.247	0.100
287.800	-43.941	0.100
287.900	-36.830	0.100
288.000	-47.269	0.100
288.100	-42.121	0.100
288.200	-45.740	0.100
288.300	-42.884	0.100
288.400	-22.534	0.100
288.500	-35.286	0.100
288.600	-46.792	0.100
288.700	-64.076	0.100
288.800	-36.623	0.100
288.900	-29.686	0.100
289.000	-28.629	0.100
289.100	-61.739	0.100
289.200	-49.473	0.100
289.300	-32.743	0.100
289.400	-37.619	0.100
289.500	-38.770	0.100
289.600	-36.868	0.100
289.700	-48.703	0.100
289.800	-54.235	0.100
289.900	-30.081	0.100
290.000	-39.484	0.100
290.100	-33.897	0.100
290.200	-42.686	0.100
290.300	-45.087	0.100
290.400	-37.988	0.100
290.500	-39.936	0.100
290.600	-37.594	0.100
290.700	-43.984	0.100
290.800	-29.657	0.100
290.900	-40.683	0.100
291.000	-36.535	0.100
291.100	-38.608	0.100
291.200	-47.058	0.100
291.300	-40.795	0.100
291.400	-36.047	0.100
291.500	-33.070	0.100
291.600	-46.788	0.100
291.700	-29.000	0.100
291.800	-44.764	0.100
291.900	-32.633	0.100
292.000	-29.426	0.100
292.100	-33.911	0.100
292.200	-37.902	0.100
292.300	-30.742	0.100
292.400	-30.505	0.100
292.500	-44.697	0.100
292.600	-43.714	0.100
292.700	-45.352	0.100
292.800	-32.588	0.100
292.900	-37.075	0.100
293.000	-44.753	0.100
293.100	-45.328	0.100
293.200	-50.118	0.100
293.300	-39.370	0.100
293.400	-32.901	0.100
293.500	-33.901	0.100
293.600	-32.713	0.100
293.700	-23.653	0.100
293.800	-49.501	0.100
293.900	-36.912	0.100
294.000	-42.000	0.100
294.100	-42.608	0.100
294.200	-42.477	0.100
294.300	-31.495	0.100
294.400	-37.320	0.100
294.500	-40.171	0.100
294.600	-52.875	0.100
294.700	-37.230	0.100
294.800	-50.638	0.100
294.900	-34.652	0.100
295.000	-43.472	0.100
295.100	-36.873	0.100
295.200	-39.769	0.100
295.300	-34.539	0.100
295.400	-33.821	0.100
295.500	-29.767	0.100
295.600	-41.436	0.100
295.700	-34.883	0.100
295.800	-37.576	0.100
295.900	-47.417	0.100
296.000	-42.689	0.100
296.100	-31.295	0.100
296.200	-42.062	0.100
296.300	-25.134	0.100
296.400	-43.270	0.100
296.500	-32.500	0.100
296.600	-36.559	0.100
296.700	-33.321	0.100
296.800	-44.106	0.100
296.900	-34.014	0.100
297.000	-30.904	0.100
297.100	-31.227	0.100
297.200	-27.928	0.100
297.300	-46.312	0.100
297.400	-35.477	0.100
297.500	-34.883	0.100
297.600	-32.049	0.100
297.700	-47.529	0.100
297.800	-35.741	0.100
297.900	-48.074	0.100
298.000	-51.002	0.100
298.100	-39.127	0.100
298.200	-24.101	0.100
298.300	-38.155	0.100
298.400	-44.971	0.100
298.500	-35.936	0.100
298.600	-33.508	0.100
298.700	-41.463	0.100
298.800	-23.014	0.100
298.900	-34.713	0.100
299.000	-52.100	0.100
299.100	-32.612	0.100
299.200	-41.827	0.100
299.300	-24.712	0.100
299.400	-37.179	0.100
299.500	-35.247	0.100
299.600	-30.006	0.100
299.700	-32.747	0.100
299.800	-46.310	0.100
299.900	-35.581	0.100
300.000	-47.834	0.100
300.100	-29.154	0.100
300.200	-37.086	0.100
300.300	-34.996	0.100
300.400	-36.234	0.100
300.500	-37.259	0.100
300.600	-27.895	0.100
300.700	-31.047	0.100
300.800	-37.000	0.100
300.900	-30.493	0.100
301.000	-33.014	0.100
301.100	-41.423	0.100
301.200	-32.976	0.100
301.300	-25.981	0.100
301.400	-38.608	0.100
301.500	-39.224	0.100
301.600	-42.717	0.100
301.700	-43.788	0.100
301.800	-31.411	0.100
301.900	-40.268	0.100
302.000	-33.520	0.100
302.100	-33.445	0.100
302.200	-40.484	0.100
302.300	-35.650	0.100
302.400	-22.334	0.100
302.500	-29.309	0.100
302.600	-38.870	0.100
302.700	-39.942	0.100
302.800	-26.791	0.100
302.900	-39.558	0.100
303.000	-35.948	0.100
303.100	-26.209	0.100
303.200	-33.396	0.100
303.300	-32.012	0.100
303.400	-25.960	0.100
303.500	-34.673	0.100
303.600	-41.696	0.100
303.700	-40.633	0.100
303.800	-46.832	0.100
303.900	-31.056	0.100
304.000	-43.935	0.100
304.100	-40.295	0.100
304.200	-35.116	0.100
304.300	-32.884	0.100
304.400	-20.629	0.100
304.500	-41.160	0.100
304.600	-34.446	0.100
304.700	-33.610	0.100
304.800	-42.921	0.100
304.900	-36.867	0.100
305.000	-31.365	0.100
305.100	-18.614	0.100
305.200	-39.564	0.100
305.300	-44.278	0.100
305.400	-26.363	0.100
305.500	-38.910	0.100
305.600	-27.360	0.100
305.700	-31.469	0.100
305.800	-45.127	0.100
305.900	-42.685	0.100
306.000	-23.489	0.100
306.100	-32.912	0.100
306.200	-35.765	0.100
306.300	-20.518	0.100
306.400	-33.852	0.100
306.500	-30.745	0.100
306.600	-42.286	0.100
306.700	-31.286	0.100
306.800	-34.112	0.100
306.900	-31.045	0.100
307.000	-25.225	0.100
307.100	-36.579	0.100
307.200	-35.926	0.100
307.300	-37.100	0.100
307.400	-38.358	0.100
307.500	-23.954	0.100
307.600	-30.453	0.100
307.700	-32.000	0.100
307.800	-29.997	0.100
307.900	-39.178	0.100
308.000	-26.487	0.100
308.100	-32.266	0.100
308.200	-33.939	0.100
308.300	-27.758	0.100
308.400	-27.818	0.100
308.500	-42.305	0.100
308.600	-34.609	0.100
308.700	-41.695	0.100
308.800	-29.241	0.100
308.900	-34.875	0.100
309.000	-39.544	0.100
309.100	-36.967	0.100
309.200	-21.568	0.100
309.300	-28.772	0.100
309.400	-27.675	0.100
309.500	-26.345	0.100
309.600	-34.775	0.100
309.700	-27.607	0.100
309.800	-38.320	0.100
309.900	-38.546	0.100
310.000	-40.478	0.100
310.100	-45.472	0.100
310.200	-27.033	0.100
310.300	-26.549	0.100
310.400	-30.538	0.100
310.500	-38.947	0.100
310.600	-26.964	0.100
310.700	-30.198	0.100
310.800	-41.839	0.100
310.900	-38.167	0.100
311.000	-38.851	0.100
311.100	-33.830	0.100
311.200	-25.077	0.100
311.300	-30.435	0.100
311.400	-45.516	0.100
311.500	-28.557	0.100
311.600	-25.159	0.100
311.700	-21.500	0.100
311.800	-21.724	0.100
311.900	-38.168	0.100
312.000	-38.967	0.100
312.100	-24.323	0.100
312.200	-29.251	0.100
312.300	-34.633	0.100
312.400	-25.960	0.100
312.500	-39.816	0.100
312.600	-35.663	0.100
312.700	-37.669	0.100
312.800	-35.126	0.100
312.900	-38.749	0.100
313.000	-37.847	0.100
313.100	-26.148	0.100
313.200	-27.493	0.100
313.300	-25.437	0.100
313.400	-32.348	0.100
313.500	-30.466	0.100
313.600	-24.192	0.100
313.700	-33.766	0.100
313.800	-40.699	0.100
313.900	-32.486	0.100
314.000	-31.558	0.100
314.100	-32.355	0.100
314.200	-26.651	0.100
314.300	-35.907	0.100
314.400	-13.998	0.100
314.500	-27.876	0.100
314.600	-27.727	0.100
314.700	-36.610	0.100
314.800	-37.430	0.100
314.900	-26.918	0.100
315.000	-51.243	0.100
315.100	-43.993	0.100
315.200	-27.905	0.100
315.300	-28.020	0.100
315.400	-39.283	0.100
315.500	-23.582	0.100
315.600	-41.823	0.100
315.700	-21.590	0.100
315.800	-36.519	0.100
315.900	-24.486	0.100
316.000	-34.781	0.100
316.100	-21.550	0.100
316.200	-34.560	0.100
316.300	-33.711	0.100
316.400	-30.728	0.100
316.500	-31.532	0.100
316.600	-30.240	0.100
316.700	-35.200	0.100
316.800	-27.530	0.100
316.900	-48.696	0.100
317.000	-33.235	0.100
317.100	-30.480	0.100
317.200	-30.796	0.100
317.300	-27.016	0.100
317.400	-26.844	0.100
317.500	-19.616	0.100
317.600	-29.037	0.100
317.700	-36.304	0.100
317.800	-36.136	0.100
317.900	-28.117	0.100
318.000	-34.421	0.100
318.100	-40.492	0.100
318.200	-32.327	0.100
318.300	-20.825	0.100
318.400	-23.818	0.100
318.500	-25.823	0.100
318.600	-41.083	0.100
318.700	-35.827	0.100
318.800	-36.294	0.100
318.900	-31.082	0.100
319.000	-33.745	0.100
319.100	-26.038	0.100
319.200	-22.919	0.100
319.300	-25.369	0.100
319.400	-35.329	0.100
319.500	-43.037	0.100
319.600	-25.793	0.100
319.700	-27.590	0.100
319.800	-33.398	0.100
319.900	-37.280	0.100
320.000	-23.236	0.100
320.100	-28.143	0.100
320.200	-26.173	0.100
320.300	-24.173	0.100
320.400	-28.616	0.100
320.500	-38.996	0.100
320.600	-34.266	0.100
320.700	-47.255	0.100
320.800	-23.146	0.100
320.900	-23.219	0.100
321.000	-23.067	0.100
321.100	-31.050	0.100
321.200	-24.760	0.100
321.300	-34.581	0.100
321.400	-37.641	0.100
321.500	-33.832	0.100
321.600	-30.989	0.100
321.700	-39.230	0.100
321.800	-31.923	0.100
321.900	-25.016	0.100
322.000	-33.072	0.100
322.100	-36.304	0.100
322.200	-41.263	0.100
322.300	-27.935	0.100
322.400	-22.612	0.100
322.500	-37.353	0.100
322.600	-37.514	0.100
322.700	-23.769	0.100
322.800	-43.449	0.100
322.900	-29.409	0.100
323.000	-24.598	0.100
323.100	-39.259	0.100
323.200	-28.681	0.100
323.300	-18.823	0.100
323.400	-30.394	0.100
323.500	-25.357	0.100
323.600	-34.463	0.100
323.700	-44.736	0.100
323.800	-37.324	0.100
323.900	-25.017	0.100
324.000	-37.868	0.100
324.100	-39.652	0.100
324.200	-30.350	0.100
324.300	-27.094	0.100
324.400	-37.362	0.100
324.500	-21.377	0.100
324.600	-18.176	0.100
324.700	-39.357	0.100
324.800	-34.744	0.100
324.900	-39.683	0.100
325.000	-48.170	0.100
325.100	-19.059	0.100
325.200	-24.825	0.100
325.300	-31.977	0.100
325.400	-27.754	0.100
325.500	-20.675	0.100
325.600	-42.252	0.100
325.700	-45.069	0.100
325.800	-33.476	0.100
325.900	-29.090	0.100
326.000	-27.770	0.100
326.100	-25.330	0.100
326.200	-30.973	0.100
326.300	-39.286	0.100
326.400	-42.573	0.100
326.500	-23.522	0.100
326.600	-20.721	0.100
326.700	-23.171	0.100
326.800	-30.925	0.100
326.900	-27.862	0.100
327.000	-39.467	0.100
327.100	-29.350	0.100
327.200	-30.371	0.100
327.300	-25.948	0.100
327.400	-29.246	0.100
327.500	-38.644	0.100
327.600	-29.037	0.100
327.700	-22.056	0.100
327.800	-40.003	0.100
327.900	-37.192	0.100
328.000	-23.371	0.100
328.100	-26.957	0.100
328.200	-32.565	0.100
328.300	-43.123	0.100
328.400	-23.051	0.100
328.500	-37.663	0.100
328.600	-32.824	0.100
328.700	-39.999	0.100
328.800	-39.201	0.100
328.900	-20.523	0.100
329.000	-21.459	0.100
329.100	-26.877	0.100
329.200	-33.544	0.100
329.300	-27.695	0.100
329.400	-28.277	0.100
329.500	-20.763	0.100
329.600	-27.468	0.100
329.700	-22.872	0.100
329.800	-16.124	0.100
329.900	-8.035	0.100
330.000	5.649	0.100
330.100	34.300	0.100
330.200	38.373	0.100
330.300	30.522	0.100
330.400	27.975	0.100
330.500	43.504	0.100
330.600	50.627	0.100
330.700	42.891	0.100
330.800	43.019	0.100
330.900	36.762	0.100
331.000	55.541	0.100
331.100	55.094	0.100
331.200	34.296	0.100
331.300	45.824	0.100
331.400	47.021	0.100
331.500	24.149	0.100
331.600	48.759	0.100
331.700	32.811	0.100
331.800	36.462	0.100
331.900	37.956	0.100
332.000	39.953	0.100
332.100	47.250	0.100
332.200	26.622	0.100
332.300	31.502	0.100
332.400	41.836	0.100
332.500	41.361	0.100
332.600	39.339	0.100
332.700	31.215	0.100
332.800	37.896	0.100
332.900	25.427	0.100
333.000	40.821	0.100
333.100	36.367	0.100
333.200	41.472	0.100
333.300	32.023	0.100
333.400	29.280	0.100
333.500	18.807	0.100
333.600	14.126	0.100
333.700	34.582	0.100
333.800	18.311	0.100
333.900	36.005	0.100
334.000	30.195	0.100
334.100	33.678	0.100
334.200	19.748	0.100
334.300	14.794	0.100
334.400	11.391	0.100
334.500	33.162	0.100
334.600	32.450	0.100
334.700	26.806	0.100
334.800	24.536	0.100
334.900	33.653	0.100
335.000	30.623	0.100
335.100	42.034	0.100
335.200	24.136	0.100
335.300	44.822	0.100
335.400	37.789	0.100
335.500	35.637	0.100
335.600	38.466	0.100
335.700	41.279	0.100
335.800	41.242	0.100
335.900	32.626	0.100
336.000	34.367	0.100
336.100	32.327	0.100
336.200	46.567	0.100
336.300	41.829	0.100
336.400	54.564	0.100
336.500	41.287	0.100
336.600	47.502	0.100
336.700	49.276	0.100
336.800	50.475	0.100
336.900	47.589	0.100
337.000	55.089	0.100
337.100	56.353	0.100
337.200	52.662	0.100
337.300	57.396	0.100
337.400	47.464	0.100
337.500	35.457	0.100
337.600	57.506	0.100
337.700	66.840	0.100
337.800	57.243	0.100
337.900	64.856	0.100
338.000	68.449	0.100
338.100	49.516	0.100
338.200	57.267	0.100
338.300	58.476	0.100
338.400	60.718	0.100
338.500	68.161	0.100
338.600	66.309	0.100
338.700	66.009	0.100
338.800	51.129	0.100
338.900	65.786	0.100
339.000	48.220	0.100
339.100	63.235	0.100
339.200	81.940	0.100
339.300	72.867	0.100
339.400	63.080	0.100
339.500	58.239	0.100
339.600	67.496	0.100
339.700	71.299	0.100
339.800	67.487	0.100
339.900	70.828	0.100
340.000	57.629	0.100
340.100	69.777	0.100
340.200	63.348	0.100
340.300	72.708	0.100
340.400	70.409	0.100
340.500	68.737	0.100
340.600	72.006	0.100
340.700	69.446	0.100
340.800	65.558	0.100
340.900	78.389	0.100
341.000	68.811	0.100
341.100	52.758	0.100
341.200	73.640	0.100
341.300	61.477	0.100
341.400	89.238	0.100
341.500	75.720	0.100
341.600	78.392	0.100
341.700	58.527	0.100
341.800	69.209	0.100
341.900	65.178	0.100
342.000	64.188	0.100
342.100	72.760	0.100
342.200	65.056	0.100
342.300	77.427	0.100
342.400	72.624	0.100
342.500	79.473	0.100
342.600	66.291	0.100
342.700	66.442	0.100
342.800	64.137	0.100
342.900	77.629	0.100
343.000	63.844	0.100
343.100	57.482	0.100
343.200	65.292	0.100
343.300	70.802	0.100
343.400	71.550	0.100
343.500	74.111	0.100
343.600	63.861	0.100
343.700	68.384	0.100
343.800	70.500	0.100
343.900	77.329	0.100
344.000	64.194	0.100
344.100	83.953	0.100
344.200	88.307	0.100
344.300	82.835	0.100
344.400	62.802	0.100
344.500	76.199	0.100
344.600	68.210	0.100
344.700	72.768	0.100
344.800	72.269	0.100
344.900	79.281	0.100
345.000	70.894	0.100
345.100	59.124	0.100
345.200	70.899	0.100
345.300	58.388	0.100
345.400	72.404	0.100
345.500	67.246	0.100
345.600	82.440	0.100
345.700	68.606	0.100
345.800	80.463	0.100
345.900	85.388	0.100
346.000	71.802	0.100
346.100	68.170	0.100
346.200	93.163	0.100
346.300	78.320	0.100
346.400	71.846	0.100
346.500	66.970	0.100
346.600	62.269	0.100
346.700	71.701	0.100
346.800	68.908	0.100
346.900	58.872	0.100
347.000	94.803	0.100
347.100	76.227	0.100
347.200	63.351	0.100
347.300	74.383	0.100
347.400	75.755	0.100
347.500	80.253	0.100
347.600	78.692	0.100
347.700	70.224	0.100
347.800	72.395	0.100
347.900	80.812	0.100
348.000	85.809	0.100
348.100	54.474	0.100
348.200	51.426	0.100
348.300	80.388	0.100
348.400	83.383	0.100
348.500	69.720	0.100
348.600	77.796	0.100
348.700	67.551	0.100
348.800	68.737	0.100
348.900	66.143	0.100
349.000	73.931	0.100
349.100	55.341	0.100
349.200	87.113	0.100
349.300	66.115	0.100
349.400	67.538	0.100
349.500	58.759	0.100
349.600	72.263	0.100
349.700	69.190	0.100
349.800	67.257	0.100
349.900	53.801	0.100
350.000	74.862	0.100
350.100	70.371	0.100
350.200	69.164	0.099
350.300	69.549	0.100
350.400	69.046	0.100
350.500	70.458	0.100
350.600	70.965	0.100
350.700	75.233	0.100
350.800	67.758	0.100
350.900	64.737	0.100
351.000	80.598	0.100
351.100	64.811	0.100
351.200	69.845	0.100
351.300	71.200	0.099
351.400	57.964	0.100
351.500	74.978	0.100
351.600	78.900	0.100
351.700	76.976	0.100
351.800	73.149	0.100
351.900	66.872	0.100
352.000	73.641	0.100
352.100	60.669	0.100
352.200	62.362	0.100
352.300	76.723	0.100
352.400	55.554	0.100
352.500	71.275	0.100
352.600	70.653	0.100
352.700	80.271	0.100
352.800	78.004	0.100
352.900	55.808	0.100
353.000	66.500	0.100
353.100	64.569	0.100
353.200	68.547	0.100
353.300	73.665	0.100
353.400	72.887	0.100
353.500	64.542	0.100
353.600	74.993	0.100
353.700	64.409	0.100
353.800	84.609	0.100
353.900	73.266	0.100
354.000	61.298	0.100
354.100	54.762	0.100
354.200	73.136	0.100
354.300	53.343	0.100
354.400	58.617	0.100
354.500	72.352	0.100
354.600	71.844	0.100
354.700	63.500	0.100
354.800	60.750	0.100
354.900	69.848	0.100
355.000	64.999	0.100
355.100	70.599	0.100
355.200	70.807	0.100
355.300	70.068	0.100
355.400	57.114	0.100
355.500	71.310	0.100
355.600	68.395	0.100
355.700	65.605	0.100
355.800	71.389	0.100
355.900	83.680	0.100
356.000	76.884	0.100
356.100	59.860	0.100
356.200	60.420	0.100
356.300	58.469	0.100
356.400	65.505	0.100
356.500	63.476	0.100
356.600	67.425	0.100
356.700	70.604	0.100
356.800	64.641	0.100
356.900	68.663	0.100
357.000	60.323	0.100
357.100	67.459	0.100
357.200	63.397	0.100
357.300	65.357	0.100
357.400	68.126	0.100
357.500	68.918	0.100
357.600	72.109	0.100
357.700	51.486	0.100
357.800	71.612	0.100
357.900	66.278	0.100
358.000	77.131	0.100
358.100	68.760	0.100
358.200	63.941	0.100
358.300	61.363	0.100
358.400	71.690	0.100
358.500	73.731	0.100
358.600	58.790	0.100
358.700	73.680	0.100
358.800	52.588	0.100
358.900	64.344	0.100
359.000	65.589	0.100
359.100	62.649	0.100
359.200	70.634	0.100
359.300	71.857	0.100
359.400	67.815	0.100
359.500	58.563	0.100
359.600	71.676	0.100
359.700	56.363	0.100
359.800	64.455	0.100
359.900	68.032	0.100
360.000	64.170	0.100
360.100	67.093	0.100
360.200	70.102	0.100
360.300	67.070	0.100
360.400	80.989	0.100
360.500	55.899	0.100
360.600	61.961	0.100
360.700	66.421	0.100
360.800	66.212	0.100
360.900	75.557	0.100
361.000	64.570	0.100
361.100	58.086	0.100
361.200	65.356	0.100
361.300	64.765	0.100
361.400	85.385	0.100
361.500	69.027	0.100
361.600	66.181	0.100
361.700	70.003	0.100
361.800	67.402	0.100
361.900	65.740	0.100
362.000	61.192	0.100
362.100	83.367	0.100
362.200	57.879	0.100
362.300	59.494	0.100
362.400	65.799	0.100
362.500	63.886	0.100
362.600	57.981	0.100
362.700	65.694	0.100
362.800	57.124	0.100
362.900	51.744	0.100
363.000	67.814	0.100
363.100	72.833	0.100
363.200	75.365	0.100
363.300	71.261	0.100
363.400	63.408	0.100
363.500	55.006	0.100
363.600	85.028	0.100
363.700	68.184	0.100
363.800	63.806	0.100
363.900	68.680	0.100
364.000	68.552	0.100
364.100	61.537	0.100
364.200	68.309	0.100
364.300	56.913	0.100
364.400	67.849	0.100
364.500	66.791	0.100
364.600	76.524	0.100
364.700	76.093	0.100
364.800	67.846	0.100
364.900	72.414	0.100
365.000	74.383	0.100
365.100	72.500	0.100
365.200	67.315	0.100
365.300	60.819	0.100
365.400	66.363	0.100
365.500	69.252	0.100
365.600	70.764	0.100
365.700	79.851	0.100
365.800	62.561	0.100
365.900	72.142	0.100
366.000	65.962	0.100
366.100	73.216	0.100
366.200	75.623	0.100
366.300	63.152	0.100
366.400	74.085	0.100
366.500	75.463	0.100
366.600	71.990	0.100
366.700	54.115	0.100
366.800	70.185	0.100
366.900	54.115	0.100
367.000	74.553	0.100
367.100	73.647	0.100
367.200	55.479	0.100
367.300	72.090	0.100
367.400	65.867	0.100
367.500	63.105	0.100
367.600	66.753	0.100
367.700	63.282	0.100
367.800	65.434	0.100
367.900	65.926	0.100
368.000	75.279	0.100
368.100	62.431	0.100
368.200	71.047	0.100
368.300	73.000	0.100
368.400	76.600	0.100
368.500	56.453	0.100
368.600	64.651	0.100
368.700	75.185	0.100
368.800	63.150	0.100
368.900	57.280	0.100
369.000	76.938	0.100
369.100	78.140	0.100
369.200	74.954	0.100
369.300	72.931	0.100
369.400	64.020	0.100
369.500	56.372	0.100
369.600	92.273	0.100
369.700	65.731	0.100
369.800	58.713	0.100
369.900	60.379	0.100
370.000	81.997	0.100
370.100	75.587	0.100
370.200	57.294	0.100
370.300	78.332	0.100
370.400	65.612	0.100
370.500	56.549	0.100
370.600	67.497	0.100
370.700	82.498	0.100
370.800	78.101	0.100
370.900	73.619	0.100
371.000	63.454	0.100
371.100	50.484	0.100
371.200	53.986	0.100
371.300	71.986	0.100
371.400	74.902	0.100
371.500	60.779	0.100
371.600	71.479	0.100
371.700	63.887	0.100
371.800	77.579	0.100
371.900	64.508	0.100
372.000	50.174	0.100
372.100	80.153	0.100
372.200	84.187	0.100
372.300	73.752	0.100
372.400	68.498	0.100
372.500	81.464	0.100
372.600	74.464	0.100
372.700	72.118	0.100
372.800	74.188	0.100
372.900	78.791	0.100
373.000	73.146	0.100
373.100	52.839	0.100
373.200	62.871	0.100
373.300	68.883	0.100
373.400	69.863	0.100
373.500	73.813	0.100
373.600	62.475	0.100
373.700	56.798	0.100
373.800	61.900	0.100
373.900	70.033	0.100
374.000	63.157	0.100
374.100	70.981	0.100
374.200	66.300	0.100
374.300	70.419	0.100
374.400	73.647	0.100
374.500	77.590	0.100
374.600	67.687	0.100
374.700	64.828	0.100
374.800	75.476	0.100
374.900	68.243	0.100
375.000	67.908	0.100
375.100	80.434	0.100
375.200	69.506	0.100
375.300	58.707	0.100
375.400	60.366	0.100
375.500	76.677	0.100
375.600	78.554	0.100
375.700	52.335	0.100
375.800	52.757	0.100
375.900	70.245	0.100
376.000	71.481	0.100
376.100	73.270	0.100
376.200	68.063	0.100
376.300	56.520	0.100
376.400	76.500	0.100
376.500	65.549	0.100
376.600	67.211	0.100
376.700	67.110	0.100
376.800	77.987	0.100
376.900	58.413	0.100
377.000	67.967	0.100
377.100	78.127	0.100
377.200	70.616	0.100
377.300	72.980	0.100
377.400	73.362	0.100
377.500	68.776	0.100
377.600	82.836	0.100
377.700	65.950	0.100
377.800	76.099	0.100
377.900	74.281	0.100
378.000	67.122	0.100
378.100	63.486	0.100
378.200	83.397	0.100
378.300	60.149	0.100
378.400	71.603	0.100
378.500	75.915	0.100
378.600	69.510	0.100
378.700	75.666	0.100
378.800	77.101	0.100
378.900	65.978	0.100
379.000	63.428	0.100
379.100	74.934	0.100
379.200	57.308	0.100
379.300	66.382	0.100
379.400	72.529	0.100
379.500	59.194	0.100
379.600	63.795	0.100
379.700	63.913	0.100
379.800	78.300	0.100
379.900	60.615	0.100
380.000	67.126	0.100
380.100	60.167	0.100
380.200	68.170	0.100
380.300	76.977	0.100
380.400	71.867	0.100
380.500	69.802	0.100
380.600	57.679	0.100
380.700	76.140	0.100
380.800	76.733	0.100
380.900	71.781	0.100
381.000	70.291	0.100
381.100	72.358	0.100
381.200	70.256	0.100
381.300	53.007	0.100
381.400	68.314	0.100
381.500	68.190	0.100
381.600	64.834	0.100
381.700	74.033	0.100
381.800	48.530	0.100
381.900	77.858	0.100
382.000	66.870	0.100
382.100	63.414	0.100
382.200	69.672	0.100
382.300	68.042	0.100
382.400	68.363	0.100
382.500	77.634	0.100
382.600	67.719	0.100
382.700	79.914	0.100
382.800	74.531	0.100
382.900	55.078	0.100
383.000	46.773	0.100
383.100	80.135	0.100
383.200	66.302	0.100
383.300	59.838	0.100
383.400	78.837	0.100
383.500	85.088	0.100
383.600	61.881	0.100
383.700	44.569	0.100
383.800	65.411	0.100
383.900	80.779	0.100
384.000	70.161	0.100
384.100	54.514	0.100
384.200	75.314	0.100
384.300	70.179	0.100
384.400	85.613	0.100
384.500	66.573	0.100
384.600	65.510	0.100
384.700	66.891	0.100
384.800	62.909	0.100
384.900	77.890	0.100
385.000	57.887	0.100
385.100	79.787	0.100
385.200	68.942	0.100
385.300	76.615	0.100
385.400	72.508	0.100
385.500	65.117	0.100
385.600	64.499	0.100
385.700	62.521	0.100
385.800	64.275	0.100
385.900	75.804	0.100
386.000	66.443	0.100
386.100	76.303	0.100
386.200	69.194	0.100
386.300	67.419	0.100
386.400	67.109	0.100
386.500	71.493	0.100
386.600	68.710	0.100
386.700	74.499	0.100
386.800	68.802	0.100
386.900	58.988	0.100
387.000	61.017	0.100
387.100	68.815	0.100
387.200	68.475	0.100
387.300	68.912	0.100
387.400	71.671	0.100
387.500	63.167	0.100
387.600	80.332	0.100
387.700	59.188	0.100
387.800	60.133	0.100
387.900	71.562	0.100
388.000	81.286	0.100
388.100	79.230	0.100
388.200	85.609	0.100
388.300	79.409	0.100
388.400	53.279	0.100
388.500	70.015	0.100
388.600	74.436	0.100
388.700	61.202	0.100
388.800	77.837	0.100
388.900	69.765	0.100
389.000	70.275	0.100
389.100	60.601	0.100
389.200	68.491	0.100
389.300	75.204	0.100
389.400	69.225	0.100
389.500	70.712	0.100
389.600	72.230	0.100
389.700	74.602	0.100
389.800	49.018	0.100
389.900	38.198	0.100
390.000	42.774	0.100
390.100	35.146	0.100
390.200	29.807	0.100
390.300	2.521	0.100
390.400	13.761	0.100
390.500	10.266	0.100
390.600	-8.480	0.100
390.700	-1.695	0.100
390.800	-4.429	0.100
390.900	-2.154	0.100
391.000	-17.808	0.100
391.100	-26.678	0.100
391.200	-24.533	0.100
391.300	-22.547	0.100
391.400	-36.833	0.100
391.500	-30.881	0.100
391.600	-27.688	0.100
391.700	-37.125	0.100
391.800	-43.977	0.100
391.900	-49.366	0.100
392.000	-35.864	0.100
392.100	-30.670	0.100
392.200	-39.897	0.100
392.300	-37.703	0.100
392.400	-44.093	0.100
392.500	-36.400	0.100
392.600	-39.772	0.100
392.700	-37.528	0.100
392.800	-37.768	0.100
392.900	-46.731	0.100
393.000	-47.360	0.100
393.100	-34.476	0.100
393.200	-50.896	0.100
393.300	-50.642	0.100
393.400	-38.129	0.100
393.500	-37.119	0.100
393.600	-39.011	0.100
393.700	-28.792	0.100
393.800	-40.030	0.100
393.900	-25.051	0.100
394.000	-41.316	0.100
394.100	-39.014	0.100
394.200	-37.313	0.100
394.300	-28.833	0.100
394.400	-45.000	0.100
394.500	-30.819	0.100
394.600	-42.101	0.100
394.700	-31.625	0.100
394.800	-45.054	0.100
394.900	-37.445	0.100
395.000	-40.398	0.100
395.100	-35.826	0.100
395.200	-28.674	0.100
395.300	-36.129	0.100
395.400	-48.458	0.100
395.500	-37.424	0.100
395.600	-39.970	0.100
395.700	-38.572	0.100
395.800	-37.275	0.100
395.900	-33.676	0.100
396.000	-36.194	0.100
396.100	-38.087	0.100
396.200	-38.320	0.100
396.300	-34.334	0.100
396.400	-22.832	0.100
396.500	-44.138	0.100
396.600	-34.034	0.100
396.700	-38.376	0.100
396.800	-43.566	0.100
396.900	-31.994	0.100
397.000	-32.434	0.100
397.100	-38.783	0.100
397.200	-36.346	0.100
397.300	-34.412	0.100
397.400	-40.714	0.100
397.500	-32.128	0.100
397.600	-32.263	0.100
397.700	-34.638	0.100
397.800	-47.590	0.100
397.900	-35.386	0.100
398.000	-29.777	0.100
398.100	-43.787	0.100
398.200	-28.264	0.100
398.300	-34.117	0.100
398.400	-48.694	0.100
398.500	-24.415	0.100
398.600	-34.799	0.100
398.700	-41.362	0.100
398.800	-46.770	0.100
398.900	-40.757	0.100
399.000	-37.633	0.100
399.100	-44.807	0.100
399.200	-38.512	0.100
399.300	-35.931	0.100
399.400	-45.791	0.100
399.500	-25.778	0.100
399.600	-36.402	0.100
399.700	-35.144	0.100
399.800	-44.815	0.100
399.900	-42.940	0.100
400.000	-43.315	0.100
400.100	-30.916	0.100
400.200	-34.085	0.100
400.300	-44.111	0.100
400.400	-41.751	0.100
400.500	-41.224	0.100
400.600	-38.833	0.100
400.700	-39.247	0.100
400.800	-32.336	0.100
400.900	-49.505	0.100
401.000	-43.790	0.100
401.100	-38.829	0.100
401.200	-39.632	0.100
401.300	-34.438	0.100
401.400	-52.973	0.100
401.500	-32.123	0.100
401.600	-26.460	0.100
401.700	-43.349	0.100
401.800	-42.590	0.100
401.900	-44.702	0.100
402.000	-43.026	0.100
402.100	-28.911	0.100
402.200	-50.802	0.100
402.300	-35.702	0.100
402.400	-41.885	0.100
402.500	-37.036	0.100
402.600	-52.705	0.100
402.700	-33.554	0.100
402.800	-44.313	0.100
402.900	-45.050	0.100
403.000	-40.576	0.100
403.100	-36.358	0.100
403.200	-56.148	0.100
403.300	-38.858	0.100
403.400	-43.058	0.100
403.500	-35.470	0.100
403.600	-38.280	0.100
403.700	-34.409	0.100
403.800	-45.273	0.100
403.900	-51.297	0.100
404.000	-43.367	0.100
404.100	-43.123	0.100
404.200	-42.540	0.100
404.300	-34.210	0.100
404.400	-39.906	0.100
404.500	-42.004	0.100
404.600	-48.990	0.100
404.700	-38.036	0.100
404.800	-49.099	0.100
404.900	-33.916	0.100
405.000	-55.075	0.100
405.100	-34.140	0.100
405.200	-32.571	0.100
405.300	-48.851	0.100
405.400	-52.212	0.100
405.500	-44.048	0.100
405.600	-32.351	0.100
405.700	-39.557	0.100
405.800	-49.330	0.100
405.900	-40.449	0.100
406.000	-29.312	0.100
406.100	-55.367	0.100
406.200	-49.087	0.100
406.300	-55.020	0.100
406.400	-30.225	0.100
406.500	-38.564	0.100
406.600	-42.410	0.100
406.700	-45.320	0.100
406.800	-32.011	0.100
406.900	-47.901	0.100
407.000	-39.211	0.100
407.100	-36.801	0.100
407.200	-50.775	0.100
407.300	-47.249	0.100
407.400	-40.708	0.100
407.500	-38.464	0.100
407.600	-38.675	0.100
407.700	-33.221	0.100
407.800	-47.952	0.100
407.900	-38.979	0.100
408.000	-56.176	0.100
408.100	-41.926	0.100
408.200	-31.163	0.100
408.300	-45.492	0.100
408.400	-36.247	0.100
408.500	-30.953	0.100
408.600	-39.909	0.100
408.700	-45.403	0.100
408.800	-55.413	0.100
408.900	-51.775	0.100
409.000	-50.204	0.100
409.100	-30.765	0.100
409.200	-36.513	0.100
409.300	-33.765	0.100
409.400	-55.521	0.100
409.500	-33.860	0.100
409.600	-42.848	0.100
409.700	-50.860	0.100
409.800	-55.692	0.100
409.900	-42.551	0.100
410.000	-43.817	0.100
410.100	-42.954	0.100
410.200	-44.089	0.100
410.300	-45.852	0.100
410.400	-43.062	0.100
410.500	-40.033	0.100
410.600	-40.875	0.100
410.700	-58.652	0.100
410.800	-34.779	0.100
410.900	-40.830	0.100
411.000	-44.749	0.100
411.100	-45.880	0.100
411.200	-48.881	0.100
411.300	-48.223	0.100
411.400	-31.531	0.100
411.500	-46.111	0.100
411.600	-53.067	0.100
411.700	-48.078	0.100
411.800	-35.406	0.100
411.900	-25.604	0.100
412.000	-52.371	0.100
412.100	-52.866	0.100
412.200	-49.425	0.100
412.300	-34.095	0.100
412.400	-38.479	0.100
412.500	-41.151	0.100
412.600	-40.920	0.100
412.700	-34.553	0.100
412.800	-51.664	0.100
412.900	-38.073	0.100
413.000	-46.934	0.100
413.100	-50.280	0.100
413.200	-36.875	0.100
413.300	-52.312	0.100
413.400	-39.090	0.100
413.500	-41.710	0.100
413.600	-12.289	0.100
413.700	-51.531	0.100
413.800	-39.779	0.100
413.900	-42.189	0.100
414.000	-47.179	0.100
414.100	-43.383	0.100
414.200	-35.145	0.100
414.300	-45.716	0.100
414.400	-28.188	0.100
414.500	-49.313	0.100
414.600	-55.077	0.100
414.700	-50.714	0.100
414.800	-33.780	0.100
414.900	-41.612	0.100
415.000	-37.865	0.100
415.100	-43.439	0.100
415.200	-44.447	0.100
415.300	-42.858	0.100
415.400	-44.663	0.100
415.500	-41.349	0.100
415.600	-41.471	0.100
415.700	-52.852	0.100
415.800	-64.970	0.100
415.900	-49.451	0.100
416.000	-38.044	0.100
416.100	-42.455	0.100
416.200	-39.330	0.100
416.300	-37.123	0.100
416.400	-53.464	0.100
416.500	-45.281	0.100
416.600	-45.362	0.100
416.700	-46.434	0.100
416.800	-48.642	0.100
416.900	-48.407	0.100
417.000	-54.948	0.100
417.100	-33.530	0.100
417.200	-46.721	0.100
417.300	-58.517	0.100
417.400	-47.259	0.100
417.500	-36.142	0.100
417.600	-40.180	0.100
417.700	-38.550	0.100
417.800	-51.928	0.100
417.900	-55.184	0.100
418.000	-45.268	0.100
418.100	-44.707	0.100
418.200	-49.014	0.100
418.300	-64.814	0.100
418.400	-47.763	0.100
418.500	-41.409	0.100
418.600	-30.928	0.100
418.700	-38.069	0.100
418.800	-44.048	0.100
418.900	-63.086	0.100
419.000	-36.549	0.100
419.100	-37.415	0.100
419.200	-52.919	0.100
419.300	-48.248	0.100
419.400	-47.354	0.100
419.500	-39.339	0.100
419.600	-46.603	0.100
419.700	-36.591	0.100
419.800	-51.192	0.100
419.900	-49.679	0.100
420.000	-49.814	0.100
420.100	-39.422	0.100
420.200	-45.088	0.100
420.300	-39.395	0.100
420.400	-37.894	0.100
420.500	-41.489	0.100
420.600	-48.318	0.100
420.700	-39.145	0.100
420.800	-31.981	0.100
420.900	-42.252	0.100
421.000	-61.728	0.100
421.100	-42.287	0.100
421.200	-52.846	0.100
421.300	-44.143	0.100
421.400	-44.973	0.100
421.500	-46.052	0.100
421.600	-47.114	0.100
421.700	-39.060	0.100
421.800	-34.199	0.100
421.900	-48.635	0.100
422.000	-54.434	0.100
422.100	-48.060	0.100
422.200	-45.017	0.100
422.300	-37.575	0.100
422.400	-34.463	0.100
422.500	-49.032	0.100
422.600	-43.877	0.100
422.700	-52.361	0.100
422.800	-56.272	0.100
422.900	-36.808	0.100
423.000	-45.173	0.100
423.100	-50.355	0.100
423.200	-53.094	0.100
423.300	-36.477	0.100
423.400	-43.525	0.100
423.500	-49.945	0.100
423.600	-36.094	0.100
423.700	-46.063	0.100
423.800	-52.271	0.100
423.900	-42.238	0.100
424.000	-48.218	0.100
424.100	-46.260	0.100
424.200	-39.339	0.100
424.300	-47.408	0.100
424.400	-41.558	0.100
424.500	-39.415	0.100
424.600	-46.550	0.100
424.700	-41.238	0.100
424.800	-44.801	0.100
424.900	-39.433	0.100
425.000	-41.095	0.100
425.100	-51.545	0.100
425.200	-39.309	0.100
425.300	-44.188	0.100
425.400	-49.639	0.100
425.500	-36.126	0.100
425.600	-49.172	0.100
425.700	-37.909	0.100
425.800	-33.021	0.100
425.900	-46.968	0.100
426.000	-54.243	0.100
426.100	-43.008	0.100
426.200	-42.248	0.100
426.300	-53.049	0.100
426.400	-41.418	0.100
426.500	-56.225	0.100
426.600	-54.940	0.100
426.700	-44.546	0.100
426.800	-42.859	0.100
426.900	-42.462	0.100
427.000	-44.414	0.100
427.100	-40.115	0.100
427.200	-38.985	0.100
427.300	-43.755	0.100
427.400	-52.833	0.100
427.500	-49.781	0.100
427.600	-54.428	0.100
427.700	-33.865	0.100
427.800	-48.908	0.100
427.900	-39.322	0.100
428.000	-31.015	0.100
428.100	-35.050	0.100
428.200	-47.866	0.100
428.300	-55.664	0.100
428.400	-51.971	0.100
428.500	-35.396	0.100
428.600	-37.319	0.100
428.700	-44.342	0.100
428.800	-51.550	0.100
428.900	-40.126	0.100
429.000	-49.970	0.100
429.100	-40.355	0.100
429.200	-50.992	0.100
429.300	-39.678	0.100
429.400	-41.886	0.100
429.500	-34.095	0.100
429.600	-41.117	0.100
429.700	-47.138	0.100
429.800	-34.796	0.100
429.900	-46.215	0.100
430.000	-49.603	0.100
430.100	-44.628	0.100
430.200	-41.824	0.100
430.300	-36.291	0.100
430.400	-38.612	0.100
430.500	-61.327	0.100
430.600	-61.034	0.100
430.700	-36.938	0.100
430.800	-33.267	0.100
430.900	-50.757	0.100
431.000	-46.223	0.100
431.100	-41.017	0.100
431.200	-41.233	0.100
431.300	-51.324	0.100
431.400	-50.002	0.100
431.500	-36.238	0.100
431.600	-50.612	0.100
431.700	-31.110	0.100
431.800	-46.488	0.100
431.900	-46.631	0.100
432.000	-44.545	0.100
432.100	-29.766	0.100
432.200	-38.721	0.100
432.300	-35.281	0.100
432.400	-43.046	0.100
432.500	-53.115	0.100
432.600	-44.232	0.100
432.700	-35.876	0.100
432.800	-46.637	0.100
432.900	-43.618	0.100
433.000	-34.832	0.100
433.100	-40.370	0.100
433.200	-37.041	0.100
433.300	-52.457	0.100
433.400	-47.414	0.100
433.500	-37.146	0.100
433.600	-42.956	0.100
433.700	-34.944	0.100
433.800	-31.572	0.100
433.900	-48.592	0.100
434.000	-53.667	0.100
434.100	-42.655	0.100
434.200	-40.933	0.100
434.300	-42.716	0.100
434.400	-42.942	0.100
434.500	-48.966	0.100
434.600	-43.432	0.100
434.700	-45.101	0.100
434.800	-43.198	0.100
434.900	-34.790	0.100
435.000	-46.759	0.100
435.100	-40.929	0.100
435.200	-51.645	0.100
435.300	-47.264	0.100
435.400	-42.303	0.100
435.500	-51.853	0.100
435.600	-22.824	0.100
435.700	-42.751	0.100
435.800	-49.554	0.100
435.900	-46.842	0.100
436.000	-47.267	0.100
436.100	-46.326	0.100
436.200	-40.685	0.100
436.300	-38.189	0.100
436.400	-45.259	0.100
436.500	-38.900	0.100
436.600	-48.606	0.100
436.700	-31.655	0.100
436.800	-44.672	0.100
436.900	-37.186	0.100
437.000	-38.104	0.100
437.100	-43.842	0.100
437.200	-34.158	0.100
437.300	-38.545	0.100
437.400	-47.451	0.100
437.500	-53.377	0.100
437.600	-43.940	0.100
437.700	-30.297	0.100
437.800	-27.549	0.100
437.900	-36.997	0.100
438.000	-33.254	0.100
438.100	-43.326	0.100
438.200	-52.727	0.100
438.300	-40.912	0.100
438.400	-45.034	0.100
438.500	-34.184	0.100
438.600	-35.205	0.100
438.700	-49.960	0.100
438.800	-37.210	0.100
438.900	-39.757	0.100
439.000	-40.781	0.100
439.100	-42.764	0.100
439.200	-40.071	0.100
439.300	-47.847	0.100
439.400	-43.041	0.100
439.500	-52.193	0.100
439.600	-49.518	0.100
439.700	-37.900	0.100
439.800	-50.125	0.100
439.900	-43.755	0.100
440.000	-26.548	0.100
440.100	-26.389	0.100
440.200	-44.628	0.100
440.300	-42.855	0.100
440.400	-39.526	0.100
440.500	-38.868	0.100
440.600	-41.098	0.100
440.700	-40.777	0.100
440.800	-33.428	0.100
440.900	-46.031	0.100
441.000	-49.689	0.100
441.100	-31.201	0.100
441.200	-37.361	0.100
441.300	-45.134	0.100
441.400	-49.317	0.100
441.500	-44.932	0.100
441.600	-31.736	0.100
441.700	-44.176	0.100
441.800	-39.109	0.100
441.900	-58.792	0.100
442.000	-36.253	0.100
442.100	-17.683	0.100
442.200	-25.366	0.100
442.300	-35.784	0.100
442.400	-55.256	0.100
442.500	-34.518	0.100
442.600	-41.659	0.100
442.700	-46.958	0.100
442.800	-50.190	0.100
442.900	-31.880	0.100
443.000	-35.556	0.100
443.100	-44.430	0.100
443.200	-37.941	0.100
443.300	-48.563	0.100
443.400	-40.791	0.100
443.500	-30.538	0.100
443.600	-46.838	0.100
443.700	-29.449	0.100
443.800	-55.501	0.100
443.900	-37.778	0.100
444.000	-28.727	0.100
444.100	-29.407	0.100
444.200	-30.893	0.100
444.300	-35.343	0.100
444.400	-44.136	0.100
444.500	-31.294	0.100
444.600	-35.742	0.100
444.700	-52.801	0.100
444.800	-35.314	0.100
444.900	-41.514	0.100
445.000	-37.305	0.100
445.100	-54.025	0.100
445.200	-45.148	0.100
445.300	-36.744	0.100
445.400	-36.560	0.100
445.500	-37.409	0.100
445.600	-42.043	0.100
445.700	-36.935	0.100
445.800	-28.260	0.100
445.900	-36.583	0.100
446.000	-44.750	0.100
446.100	-34.923	0.100
446.200	-44.024	0.100
446.300	-42.280	0.100
446.400	-36.957	0.100
446.500	-39.503	0.100
446.600	-39.890	0.100
446.700	-16.338	0.100
446.800	-45.971	0.100
446.900	-37.667	0.100
447.000	-37.773	0.100
447.100	-32.409	0.100
447.200	-39.557	0.100
447.300	-38.141	0.100
447.400	-42.703	0.100
447.500	-41.782	0.100
447.600	-28.922	0.100
447.700	-46.156	0.100
447.800	-57.501	0.100
447.900	-52.913	0.100
448.000	-35.042	0.100
448.100	-29.431	0.100
448.200	-33.988	0.100
448.300	-35.230	0.100
448.400	-34.493	0.100
448.500	-24.595	0.100
448.600	-35.350	0.100
448.700	-44.345	0.100
448.800	-36.326	0.100
448.900	-34.317	0.100
449.000	-47.930	0.100
449.100	-34.467	0.100
449.200	-44.355	0.100
449.300	-33.389	0.100
449.400	-42.580	0.100
449.500	-40.354	0.100
449.600	-44.974	0.100
449.700	-42.192	0.100
449.800	-47.640	0.100
449.900	-37.050	0.100
450.000	-39.574	0.100
450.100	-14.217	0.100
450.200	-37.366	0.100
450.300	-37.293	0.100
450.400	-39.954	0.100
450.500	-33.533	0.100
450.600	-43.446	0.100
450.700	-37.801	0.100
450.800	-42.599	0.100
450.900	-45.002	0.100
451.000	-33.662	0.100
451.100	-33.634	0.100
451.200	-53.486	0.100
451.300	-40.509	0.100
451.400	-34.185	0.100
451.500	-45.862	0.100
451.600	-34.744	0.100
451.700	-49.549	0.100
451.800	-49.380	0.100
451.900	-43.290	0.100
452.000	-20.805	0.100
452.100	-43.433	0.100
452.200	-32.020	0.100
452.300	-31.899	0.100
452.400	-38.429	0.100
452.500	-34.278	0.100
452.600	-38.164	0.100
452.700	-45.420	0.100
452.800	-34.375	0.100
452.900	-26.169	0.100
453.000	-46.212	0.100
453.100	-29.861	0.100
453.200	-24.642	0.100
453.300	-47.180	0.100
453.400	-32.512	0.100
453.500	-36.755	0.100
453.600	-44.685	0.100
453.700	-29.032	0.100
453.800	-29.876	0.100
453.900	-29.940	0.100
454.000	-34.951	0.100
454.100	-32.022	0.100
454.200	-39.320	0.100
454.300	-39.727	0.100
454.400	-38.608	0.100
454.500	-37.583	0.100
454.600	-32.084	0.100
454.700	-48.063	0.100
454.800	-39.013	0.100
454.900	-36.524	0.100
455.000	-35.124	0.100
455.100	-36.060	0.100
455.200	-43.973	0.100
455.300	-33.895	0.100
455.400	-26.768	0.100
455.500	-35.716	0.100
455.600	-44.360	0.100
455.700	-36.410	0.100
455.800	-31.571	0.100
455.900	-39.389	0.100
456.000	-35.776	0.100
456.100	-38.896	0.100
456.200	-32.485	0.100
456.300	-31.573	0.100
456.400	-44.930	0.100
456.500	-29.790	0.100
456.600	-42.148	0.100
456.700	-35.253	0.100
456.800	-38.267	0.100
456.900	-48.671	0.100
457.000	-35.404	0.100
457.100	-31.485	0.100
457.200	-45.832	0.100
457.300	-38.189	0.100
457.400	-26.566	0.100
457.500	-30.277	0.100
457.600	-22.357	0.100
457.700	-27.356	0.100
457.800	-41.136	0.100
457.900	-46.904	0.100
458.000	-40.247	0.100
458.100	-48.887	0.100
458.200	-32.057	0.100
458.300	-42.617	0.100
458.400	-29.081	0.100
458.500	-35.513	0.100
458.600	-43.411	0.100
458.700	-22.825	0.100
458.800	-45.785	0.100
458.900	-34.440	0.100
459.000	-35.038	0.100
459.100	-20.711	0.100
459.200	-33.105	0.100
459.300	-53.709	0.100
459.400	-35.179	0.100
459.500	-46.128	0.100
459.600	-38.211	0.100
459.700	-24.431	0.100
459.800	-29.797	0.100
459.900	-32.766	0.100
460.000	-33.443	0.100
460.100	-41.845	0.100
460.200	-36.534	0.100
460.300	-34.195	0.100
460.400	-36.573	0.100
460.500	-31.004	0.100
460.600	-42.795	0.100
460.700	-26.399	0.100
460.800	-34.516	0.100
460.900	-25.558	0.100
461.000	-46.339	0.100
461.100	-34.903	0.100
461.200	-25.572	0.100
461.300	-38.986	0.100
461.400	-41.437	0.100
461.500	-31.619	0.100
461.600	-33.868	0.100
461.700	-35.897	0.100
461.800	-54.795	0.100
461.900	-38.330	0.100
462.000	-31.505	0.100
462.100	-32.559	0.100
462.200	-32.136	0.100
462.300	-35.743	0.100
462.400	-40.359	0.100
462.500	-30.643	0.100
462.600	-36.690	0.100
462.700	-24.139	0.100
462.800	-29.934	0.100
462.900	-27.249	0.100
463.000	-39.827	0.100
463.100	-38.489	0.100
463.200	-31.589	0.100
463.300	-43.099	0.100
463.400	-32.032	0.100
463.500	-27.660	0.100
463.600	-31.164	0.100
463.700	-53.894	0.100
463.800	-36.378	0.100
463.900	-27.446	0.100
464.000	-45.200	0.100
464.100	-28.951	0.100
464.200	-38.731	0.100
464.300	-23.047	0.100
464.400	-32.878	0.100
464.500	-31.716	0.100
464.600	-43.273	0.100
464.700	-30.613	0.100
464.800	-47.715	0.100
464.900	-38.293	0.100
465.000	-25.122	0.100
465.100	-35.036	0.100
465.200	-41.726	0.100
465.300	-38.251	0.100
465.400	-37.941	0.100
465.500	-33.071	0.100
465.600	-21.336	0.100
465.700	-36.556	0.100
465.800	-29.822	0.100
465.900	-27.480	0.100
466.000	-37.837	0.100
466.100	-32.519	0.100
466.200	-42.394	0.100
466.300	-31.407	0.100
466.400	-25.821	0.100
466.500	-36.993	0.100
466.600	-44.527	0.100
466.700	-38.463	0.100
466.800	-21.587	0.100
466.900	-36.758	0.100
467.000	-36.428	0.100
467.100	-25.105	0.100
467.200	-36.624	0.100
467.300	-36.871	0.100
467.400	-47.160	0.100
467.500	-29.882	0.100
467.600	-44.384	0.100
467.700	-20.927	0.100
467.800	-31.724	0.100
467.900	-38.582	0.100
468.000	-32.359	0.100
468.100	-34.468	0.100
468.200	-37.668	0.100
468.300	-38.720	0.100
468.400	-36.603	0.100
468.500	-21.540	0.100
468.600	-28.884	0.100
468.700	-42.929	0.100
468.800	-44.363	0.100
468.900	-32.708	0.100
469.000	-25.286	0.100
469.100	-27.651	0.100
469.200	-40.674	0.100
469.300	-27.257	0.100
469.400	-25.859	0.100
469.500	-42.512	0.100
469.600	-37.462	0.100
469.700	-22.467	0.100
469.800	-33.691	0.100
469.900	-36.801	0.100
470.000	-38.918	0.100
470.100	-27.938	0.100
470.200	-20.691	0.100
470.300	-35.704	0.100
470.400	-26.128	0.100
470.500	-36.958	0.100
470.600	-37.383	0.100
470.700	-34.850	0.100
470.800	-36.349	0.100
470.900	-17.632	0.100
471.000	-29.600	0.100
471.100	-33.733	0.100
471.200	-33.921	0.100
471.300	-38.813	0.100
471.400	-31.741	0.100
471.500	-21.367	0.100
471.600	-41.320	0.100
471.700	-38.460	0.100
471.800	-32.507	0.100
471.900	-29.562	0.100
472.000	-44.196	0.100
472.100	-48.177	0.100
472.200	-31.873	0.100
472.300	-22.835	0.100
472.400	-19.507	0.100
472.500	-33.227	0.100
472.600	-38.692	0.100
472.700	-35.416	0.100
472.800	-21.075	0.100
472.900	-33.833	0.100
473.000	-21.879	0.100
473.100	-38.756	0.100
473.200	-47.422	0.100
473.300	-27.863	0.100
473.400	-35.607	0.100
473.500	-27.480	0.100
473.600	-40.015	0.100
473.700	-22.407	0.100
473.800	-30.155	0.100
473.900	-28.581	0.100
474.000	-26.220	0.100
474.100	-41.835	0.100
474.200	-35.793	0.100
474.300	-25.239	0.100
474.400	-26.528	0.100
474.500	-40.238	0.100
474.600	-20.205	0.100
474.700	-30.882	0.100
474.800	-35.599	0.100
474.900	-32.061	0.100
475.000	-32.055	0.100
475.100	-32.311	0.100
475.200	-31.910	0.100
475.300	-28.507	0.100
475.400	-38.914	0.100
475.500	-21.307	0.100
475.600	-34.488	0.100
475.700	-30.699	0.100
475.800	-43.508	0.100
475.900	-43.050	0.100
476.000	-24.527	0.100
476.100	-30.339	0.100
476.200	-39.435	0.100
476.300	-40.214	0.100
476.400	-33.977	0.100
476.500	-37.340	0.100
476.600	-22.287	0.100
476.700	-34.149	0.100
476.800	-24.798	0.100
476.900	-31.142	0.100
477.000	-31.710	0.100
477.100	-32.342	0.100
477.200	-21.151	0.100
477.300	-21.329	0.100
477.400	-33.051	0.100
477.500	-37.596	0.100
477.600	-31.226	0.100
477.700	-29.826	0.100
477.800	-25.720	0.100
477.900	-35.026	0.100
478.000	-28.699	0.100
478.100	-21.855	0.100
478.200	-31.731	0.100
478.300	-30.799	0.100
478.400	-24.435	0.100
478.500	-29.807	0.100
478.600	-35.227	0.100
478.700	-30.039	0.100
478.800	-33.721	0.100
478.900	-33.650	0.100
479.000	-23.763	0.100
479.100	-37.509	0.100
479.200	-30.655	0.100
479.300	-35.316	0.100
479.400	-26.226	0.100
479.500	-28.957	0.100
479.600	-39.584	0.100
479.700	-35.605	0.100
479.800	-32.307	0.100
479.900	-40.638	0.100
480.000	6.143	0.100
480.100	21.610	0.100
480.200	17.693	0.100
480.300	23.575	0.100
480.400	42.118	0.100
480.500	58.773	0.100
480.600	42.989	0.100
480.700	40.960	0.100
480.800	39.855	0.100
480.900	38.176	0.100
481.000	40.385	0.100
481.100	48.798	0.100
481.200	49.817	0.100
481.300	53.823	0.100
481.400	41.648	0.100
481.500	38.866	0.100
481.600	44.884	0.100
481.700	34.419	0.100
481.800	39.293	0.100
481.900	37.143	0.100
482.000	52.636	0.100
482.100	45.023	0.100
482.200	34.110	0.100
482.300	39.743	0.100
482.400	34.495	0.100
482.500	32.662	0.100
482.600	33.196	0.100
482.700	33.459	0.100
482.800	26.086	0.100
482.900	37.138	0.100
483.000	30.814	0.100
483.100	36.175	0.100
483.200	25.469	0.100
483.300	32.660	0.100
483.400	34.466	0.100
483.500	27.379	0.100
483.600	26.947	0.100
483.700	23.408	0.100
483.800	25.478	0.100
483.900	36.401	0.100
484.000	23.722	0.100
484.100	27.140	0.100
484.200	24.212	0.100
484.300	20.937	0.100
484.400	14.712	0.100
484.500	37.472	0.100
484.600	16.726	0.100
484.700	28.338	0.100
484.800	39.411	0.100
484.900	30.736	0.100
485.000	34.692	0.100
485.100	29.085	0.100
485.200	23.271	0.100
485.300	23.700	0.100
485.400	42.409	0.100
485.500	26.856	0.100
485.600	29.759	0.100
485.700	27.453	0.100
485.800	46.924	0.100
485.900	49.214	0.100
486.000	34.730	0.100
486.100	30.093	0.100
486.200	39.364	0.100
486.300	40.775	0.100
486.400	35.225	0.100
486.500	46.530	0.100
486.600	46.232	0.100
486.700	46.832	0.100
486.800	46.170	0.100
486.900	51.253	0.100
487.000	52.041	0.100
487.100	44.031	0.100
487.200	52.170	0.100
487.300	40.411	0.100
487.400	64.602	0.100
487.500	51.604	0.100
487.600	55.383	0.100
487.700	54.950	0.100
487.800	47.046	0.100
487.900	58.963	0.100
488.000	51.405	0.100
488.100	51.497	0.100
488.200	58.602	0.100
488.300	55.258	0.100
488.400	52.801	0.100
488.500	60.758	0.100
488.600	56.453	0.100
488.700	55.522	0.100
488.800	62.012	0.100
488.900	51.210	0.100
489.000	61.282	0.100
489.100	69.787	0.100
489.200	62.369	0.100
489.300	69.001	0.100
489.400	80.056	0.100
489.500	66.129	0.100
489.600	71.198	0.100
489.700	58.462	0.100
489.800	70.051	0.100
489.900	71.177	0.100
490.000	59.297	0.100
490.100	73.348	0.100
490.200	65.438	0.100
490.300	69.696	0.100
490.400	65.732	0.100
490.500	65.308	0.100
490.600	65.217	0.100
490.700	58.483	0.100
490.800	79.965	0.100
490.900	55.737	0.100
491.000	81.796	0.100
491.100	68.074	0.100
491.200	64.592	0.100
491.300	85.513	0.100
491.400	72.440	0.100
491.500	66.541	0.100
491.600	79.406	0.100
491.700	72.068	0.100
491.800	66.526	0.100
491.900	60.499	0.100
492.000	76.120	0.100
492.100	59.822	0.100
492.200	61.655	0.100
492.300	74.678	0.100
492.400	73.573	0.100
492.500	72.912	0.100
492.600	69.971	0.100
492.700	55.980	0.100
492.800	64.963	0.100
492.900	63.537	0.100
493.000	86.461	0.100
493.100	79.671	0.100
493.200	80.119	0.100
493.300	65.368	0.100
493.400	70.352	0.100
493.500	69.643	0.100
493.600	58.470	0.100
493.700	77.624	0.100
493.800	63.539	0.100
493.900	61.558	0.100
494.000	66.509	0.100
494.100	65.280	0.100
494.200	65.815	0.100
494.300	72.470	0.100
494.400	85.483	0.100
494.500	71.755	0.100
494.600	78.879	0.100
494.700	66.598	0.100
494.800	66.402	0.100
494.900	76.487	0.100
495.000	74.997	0.100
495.100	78.482	0.100
495.200	77.393	0.100
495.300	76.514	0.100
495.400	62.818	0.100
495.500	70.748	0.100
495.600	79.071	0.100
495.700	72.543	0.100
495.800	74.820	0.100
495.900	74.096	0.100
496.000	70.676	0.100
496.100	70.890	0.100
496.200	68.890	0.100
496.300	62.759	0.100
496.400	65.779	0.100
496.500	63.724	0.100
496.600	66.399	0.100
496.700	75.660	0.100
496.800	71.259	0.100
496.900	77.721	0.100
497.000	55.163	0.100
497.100	75.783	0.100
497.200	73.962	0.100
497.300	86.264	0.100
497.400	64.100	0.100
497.500	53.014	0.100
497.600	70.062	0.100
497.700	67.246	0.100
497.800	74.744	0.100
497.900	59.672	0.100
498.000	75.353	0.100
498.100	86.649	0.100
498.200	66.360	0.100
498.300	78.642	0.100
498.400	60.012	0.100
498.500	56.908	0.100
498.600	79.810	0.100
498.700	72.410	0.100
498.800	85.983	0.100
498.900	75.523	0.100
499.000	78.290	0.100
499.100	73.558	0.100
499.200	62.958	0.100
499.300	58.175	0.100
499.400	73.112	0.100
499.500	74.374	0.100
499.600	63.514	0.100
499.700	66.411	0.100
499.800	69.904	0.100
499.900	78.365	0.100
500.000	68.658	0.100
500.100	75.576	0.100
500.200	60.004	0.100
500.300	71.677	0.100
500.400	58.559	0.100
500.500	56.441	0.100
500.600	63.791	0.100
500.700	58.506	0.100
500.800	72.093	0.100
500.900	70.937	0.100
501.000	68.153	0.100
501.100	72.020	0.100
501.200	64.246	0.100
501.300	69.824	0.100
501.400	71.917	0.100
501.500	65.471	0.100
501.600	52.221	0.100
501.700	73.684	0.100
501.800	65.610	0.100
501.900	74.742	0.100
502.000	54.433	0.100
502.100	77.801	0.100
502.200	56.278	0.100
502.300	73.727	0.100
502.400	76.536	0.100
502.500	74.293	0.100
502.600	60.358	0.100
502.700	65.488	0.100
502.800	74.939	0.100
502.900	72.633	0.100
503.000	54.710	0.100
503.100	68.134	0.100
503.200	78.561	0.100
503.300	49.192	0.100
503.400	65.811	0.100
503.500	73.152	0.100
503.600	63.403	0.100
503.700	64.786	0.100
503.800	67.030	0.100
503.900	59.525	0.100
504.000	68.296	0.100
504.100	73.450	0.100
504.200	62.984	0.100
504.300	73.083	0.100
504.400	72.846	0.100
504.500	66.339	0.100
504.600	59.819	0.100
504.700	77.063	0.100
504.800	68.130	0.100
504.900	65.405	0.100
505.000	66.903	0.100
505.100	65.430	0.100
505.200	54.285	0.100
505.300	65.159	0.100
505.400	74.079	0.100
505.500	72.553	0.100
505.600	72.717	0.100
505.700	70.164	0.100
505.800	63.966	0.100
505.900	71.870	0.100
506.000	59.057	0.100
506.100	67.364	0.100
506.200	75.792	0.100
506.300	63.776	0.100
506.400	61.255	0.100
506.500	63.128	0.100
506.600	62.961	0.100
506.700	66.428	0.100
506.800	60.533	0.100
506.900	67.616	0.100
507.000	72.047	0.100
507.100	72.637	0.100
507.200	66.171	0.100
507.300	58.712	0.100
507.400	58.142	0.100
507.500	78.016	0.100
507.600	63.180	0.100
507.700	75.259	0.100
507.800	61.920	0.100
507.900	64.477	0.100
508.000	56.843	0.100
508.100	67.703	0.100
508.200	65.013	0.100
508.300	81.124	0.100
508.400	64.162	0.100
508.500	68.718	0.100
508.600	59.303	0.100
508.700	69.068	0.100
508.800	57.292	0.100
508.900	74.185	0.100
509.000	63.379	0.100
509.100	66.669	0.100
509.200	78.527	0.100
509.300	64.863	0.100
509.400	50.040	0.100
509.500	71.961	0.100
509.600	69.338	0.100
509.700	56.739	0.100
509.800	71.864	0.100
509.900	66.622	0.100
510.000	65.329	0.100
510.100	75.559	0.100
510.200	72.767	0.100
510.300	51.548	0.100
510.400	53.490	0.100
510.500	58.195	0.100
510.600	60.059	0.100
510.700	82.213	0.100
510.800	63.339	0.100
510.900	62.101	0.100
511.000	68.367	0.100
511.100	73.206	0.100
511.200	70.490	0.100
511.300	70.733	0.100
511.400	58.571	0.100
511.500	65.088	0.100
511.600	70.598	0.100
511.700	49.059	0.100
511.800	65.687	0.100
511.900	62.888	0.100
512.000	73.439	0.100
512.100	74.556	0.100
512.200	66.015	0.100
512.300	77.798	0.100
512.400	62.682	0.100
512.500	64.642	0.100
512.600	64.674	0.100
512.700	53.975	0.100
512.800	63.795	0.100
512.900	54.000	0.100
513.000	70.219	0.100
513.100	62.964	0.100
513.200	66.974	0.100
513.300	69.630	0.100
513.400	76.773	0.100
513.500	63.457	0.100
513.600	72.914	0.100
513.700	75.076	0.100
513.800	69.583	0.100
513.900	71.943	0.100
514.000	61.587	0.100
514.100	58.382	0.100
514.200	65.800	0.100
514.300	61.476	0.100
514.400	60.363	0.100
514.500	76.625	0.100
514.600	67.376	0.100
514.700	73.522	0.100
514.800	53.702	0.100
514.900	79.718	0.100
515.000	79.177	0.100
515.100	56.823	0.100
515.200	67.080	0.100
515.300	62.598	0.100
515.400	64.217	0.100
515.500	63.018	0.100
515.600	75.259	0.100
515.700	53.675	0.100
515.800	64.955	0.100
515.900	75.029	0.100
516.000	53.039	0.100
516.100	63.476	0.100
516.200	67.888	0.100
516.300	64.334	0.100
516.400	61.816	0.100
516.500	74.700	0.100
516.600	67.637	0.100
516.700	65.872	0.100
516.800	68.982	0.100
516.900	70.713	0.100
517.000	82.926	0.100
517.100	69.421	0.100
517.200	57.237	0.100
517.300	81.756	0.100
517.400	61.963	0.100
517.500	63.052	0.100
517.600	53.267	0.100
517.700	70.926	0.100
517.800	68.752	0.100
517.900	59.340	0.100
518.000	63.651	0.100
518.100	74.498	0.100
518.200	83.378	0.100
518.300	66.829	0.100
518.400	58.980	0.100
518.500	64.319	0.100
518.600	74.513	0.100
518.700	73.156	0.100
518.800	74.771	0.100
518.900	64.077	0.100
519.000	58.389	0.100
519.100	66.167	0.100
519.200	70.906	0.100
519.300	80.052	0.100
519.400	77.103	0.100
519.500	62.905	0.100
519.600	72.020	0.100
519.700	71.559	0.100
519.800	80.231	0.100
519.900	52.324	0.100
520.000	68.469	0.100
520.100	67.163	0.100
520.200	54.366	0.100
520.300	82.090	0.100
520.400	75.676	0.100
520.500	74.262	0.100
520.600	71.192	0.100
520.700	76.379	0.100
520.800	58.618	0.100
520.900	64.588	0.100
521.000	73.308	0.100
521.100	73.314	0.100
521.200	80.001	0.100
521.300	72.347	0.100
521.400	65.913	0.100
521.500	66.432	0.100
521.600	53.047	0.100
521.700	69.585	0.100
521.800	68.176	0.100
521.900	65.108	0.100
522.000	67.593	0.100
522.100	77.188	0.100
522.200	68.970	0.100
522.300	72.612	0.100
522.400	78.660	0.100
522.500	78.103	0.100
522.600	70.531	0.100
522.700	69.646	0.100
522.800	77.817	0.100
522.900	74.150	0.100
523.000	69.576	0.100
523.100	72.206	0.100
523.200	72.504	0.100
523.300	69.711	0.100
523.400	67.911	0.100
523.500	64.579	0.100
523.600	62.300	0.100
523.700	64.507	0.100
523.800	78.730	0.100
523.900	71.985	0.100
524.000	65.479	0.100
524.100	68.991	0.100
524.200	69.440	0.100
524.300	67.559	0.100
524.400	82.296	0.100
524.500	64.574	0.100
524.600	62.937	0.100
524.700	70.204	0.100
524.800	61.903	0.100
524.900	65.552	0.100
525.000	68.607	0.100
525.100	63.656	0.100
525.200	61.852	0.100
525.300	60.850	0.100
525.400	61.968	0.100
525.500	70.516	0.100
525.600	78.681	0.100
525.700	68.347	0.100
525.800	80.563	0.100
525.900	74.800	0.100
526.000	69.555	0.100
526.100	62.064	0.100
526.200	68.805	0.100
526.300	71.030	0.100
526.400	59.731	0.100
526.500	68.164	0.100
526.600	77.015	0.100
526.700	48.517	0.100
526.800	67.851	0.100
526.900	79.510	0.100
527.000	59.278	0.100
527.100	81.651	0.100
527.200	73.057	0.100
527.300	64.761	0.100
527.400	67.300	0.100
527.500	78.827	0.100
527.600	68.268	0.100
527.700	53.422	0.100
527.800	68.774	0.100
527.900	72.738	0.100
528.000	74.193	0.100
528.100	69.813	0.100
528.200	80.340	0.100
528.300	78.523	0.100
528.400	71.923	0.100
528.500	68.968	0.100
528.600	70.415	0.100
528.700	74.590	0.100
528.800	66.341	0.100
528.900	81.574	0.100
529.000	62.138	0.100
529.100	67.896	0.100
529.200	54.718	0.100
529.300	73.086	0.100
529.400	75.168	0.100
529.500	70.790	0.100
529.600	65.644	0.100
529.700	65.532	0.100
529.800	96.337	0.100
529.900	68.624	0.100
530.000	72.530	0.100
530.100	74.308	0.100
530.200	70.181	0.100
530.300	75.933	0.100
530.400	62.352	0.100
530.500	70.176	0.100
530.600	65.380	0.100
530.700	79.239	0.100
530.800	65.085	0.100
530.900	68.510	0.100
531.000	60.153	0.100
531.100	62.887	0.100
531.200	88.480	0.100
531.300	77.551	0.100
531.400	67.788	0.100
531.500	75.270	0.100
531.600	66.410	0.100
531.700	72.581	0.100
531.800	64.842	0.100
531.900	68.038	0.100
532.000	67.030	0.100
532.100	64.608	0.100
532.200	69.804	0.100
532.300	74.525	0.100
532.400	78.861	0.100
532.500	74.962	0.100
532.600	72.857	0.100
532.700	70.462	0.100
532.800	64.626	0.100
532.900	67.728	0.100
533.000	66.800	0.100
533.100	64.780	0.100
533.200	64.973	0.100
533.300	71.338	0.100
533.400	71.765	0.100
533.500	68.821	0.100
533.600	77.945	0.100
533.700	83.088	0.100
533.800	69.259	0.100
533.900	70.315	0.100
534.000	78.395	0.100
534.100	77.740	0.100
534.200	59.480	0.100
534.300	71.687	0.100
534.400	60.635	0.100
534.500	67.814	0.100
534.600	64.309	0.100
534.700	71.751	0.100
534.800	75.765	0.100
534.900	66.668	0.100
535.000	54.740	0.100
535.100	74.443	0.100
535.200	70.604	0.100
535.300	79.998	0.100
535.400	67.039	0.100
535.500	62.656	0.100
535.600	71.981	0.100
535.700	79.086	0.100
535.800	65.411	0.100
535.900	69.058	0.100
536.000	62.021	0.100
536.100	62.607	0.100
536.200	71.889	0.100
536.300	70.215	0.100
536.400	63.656	0.100
536.500	68.060	0.100
536.600	66.500	0.100
536.700	64.720	0.100
536.800	70.448	0.100
536.900	76.586	0.100
537.000	72.743	0.100
537.100	60.578	0.100
537.200	71.178	0.100
537.300	56.898	0.100
537.400	81.568	0.100
537.500	72.087	0.100
537.600	67.015	0.100
537.700	64.372	0.100
537.800	65.928	0.100
537.900	59.055	0.100
538.000	57.945	0.100
538.100	78.412	0.100
538.200	78.637	0.100
538.300	51.115	0.100
538.400	85.055	0.100
538.500	81.258	0.100
538.600	71.891	0.100
538.700	71.124	0.100
538.800	59.882	0.100
538.900	53.031	0.100
539.000	77.788	0.100
539.100	71.415	0.100
539.200	56.895	0.100
539.300	65.088	0.100
539.400	72.231	0.100
539.500	76.074	0.100
539.600	73.486	0.100
539.700	74.603	0.100
539.800	62.019	0.100
539.900	47.940	0.100
540.000	54.750	0.100
540.100	49.192	0.100
540.200	25.330	0.100
540.300	11.906	0.100
540.400	17.723	0.100
540.500	9.295	0.100
540.600	6.960	0.100
540.700	0.951	0.100
540.800	-12.978	0.100
540.900	-17.740	0.100
541.000	-10.162	0.100
541.100	-20.975	0.100
541.200	-29.850	0.100
541.300	-30.464	0.100
541.400	-33.760	0.100
541.500	-38.602	0.100
541.600	-44.597	0.100
541.700	-42.200	0.100
541.800	-35.648	0.100
541.900	-50.253	0.100
542.000	-24.368	0.100
542.100	-43.464	0.100
542.200	-41.144	0.100
542.300	-35.374	0.100
542.400	-36.929	0.100
542.500	-46.106	0.100
542.600	-37.818	0.100
542.700	-39.686	0.100
542.800	-48.045	0.100
542.900	-41.347	0.100
543.000	-50.015	0.100
543.100	-41.247	0.100
543.200	-51.408	0.100
543.300	-45.870	0.100
543.400	-46.357	0.100
543.500	-35.086	0.100
543.600	-38.246	0.100
543.700	-45.625	0.100
543.800	-44.596	0.100
543.900	-55.019	0.100
544.000	-47.570	0.100
544.100	-45.537	0.100
544.200	-34.183	0.100
544.300	-38.945	0.100
544.400	-51.164	0.100
544.500	-35.137	0.100
544.600	-32.832	0.100
544.700	-50.866	0.100
544.800	-32.151	0.100
544.900	-36.324	0.100
545.000	-43.772	0.100
545.100	-41.792	0.100
545.200	-24.812	0.100
545.300	-59.899	0.100
545.400	-44.844	0.100
545.500	-43.054	0.100
545.600	-30.028	0.100
545.700	-45.779	0.100
545.800	-42.479	0.100
545.900	-53.862	0.100
546.000	-49.500	0.100
546.100	-47.622	0.100
546.200	-25.497	0.100
546.300	-44.726	0.100
546.400	-36.411	0.100
546.500	-32.735	0.100
546.600	-42.249	0.100
546.700	-41.706	0.100
546.800	-35.666	0.100
546.900	-35.733	0.100
547.000	-41.140	0.100
547.100	-34.869	0.100
547.200	-28.635	0.100
547.300	-46.625	0.100
547.400	-42.151	0.100
547.500	-37.596	0.100
547.600	-49.352	0.100
547.700	-33.707	0.100
547.800	-33.464	0.100
547.900	-52.820	0.100
548.000	-38.837	0.100
548.100	-27.584	0.100
548.200	-28.635	0.100
548.300	-27.538	0.100
548.400	-36.037	0.100
548.500	-41.415	0.100
548.600	-34.081	0.100
548.700	-41.426	0.100
548.800	-34.633	0.100
548.900	-41.653	0.100
549.000	-23.689	0.100
549.100	-36.543	0.100
549.200	-36.571	0.100
549.300	-30.715	0.100
549.400	-41.792	0.100
549.500	-57.768	0.100
549.600	-48.327	0.100
549.700	-41.980	0.100
549.800	-46.319	0.100
549.900	-43.031	0.100
550.000	-33.535	0.100
550.100	-34.424	0.100
550.200	-44.953	0.100
550.300	-42.508	0.100
550.400	-42.917	0.100
550.500	-44.680	0.100
550.600	-39.307	0.100
550.700	-45.145	0.100
550.800	-34.555	0.100
550.900	-45.172	0.100
551.000	-31.248	0.100
551.100	-34.005	0.100
551.200	-51.701	0.100
551.300	-35.419	0.100
551.400	-50.314	0.100
551.500	-37.551	0.100
551.600	-44.082	0.100
551.700	-40.081	0.100
551.800	-48.615	0.100
551.900	-40.050	0.100
552.000	-48.030	0.100
552.100	-40.415	0.100
552.200	-63.030	0.100
552.300	-41.017	0.100
552.400	-40.790	0.100
552.500	-43.744	0.100
552.600	-36.746	0.100
552.700	-47.474	0.100
552.800	-38.008	0.100
552.900	-46.218	0.100
553.000	-35.182	0.100
553.100	-44.730	0.100
553.200	-35.919	0.100
553.300	-31.219	0.100
553.400	-39.305	0.100
553.500	-53.847	0.100
553.600	-37.314	0.100
553.700	-38.236	0.100
553.800	-39.316	0.100
553.900	-40.988	0.100
554.000	-49.210	0.100
554.100	-46.939	0.100
554.200	-38.887	0.100
554.300	-36.263	0.100
554.400	-40.469	0.100
554.500	-48.678	0.100
554.600	-35.266	0.100
554.700	-45.036	0.100
554.800	-41.639	0.100
554.900	-45.822	0.100
555.000	-52.045	0.100
555.100	-37.578	0.100
555.200	-53.525	0.100
555.300	-32.688	0.100
555.400	-41.595	0.100
555.500	-35.944	0.100
555.600	-36.337	0.100
555.700	-53.161	0.100
555.800	-43.582	0.100
555.900	-45.958	0.100
556.000	-42.999	0.100
556.100	-35.364	0.100
556.200	-41.191	0.100
556.300	-47.881	0.100
556.400	-48.808	0.100
556.500	-45.713	0.100
556.600	-62.272	0.100
556.700	-34.250	0.100
556.800	-43.201	0.100
556.900	-40.330	0.100
557.000	-40.270	0.100
557.100	-46.937	0.100
557.200	-57.632	0.100
557.300	-46.852	0.100
557.400	-52.573	0.100
557.500	-32.808	0.100
557.600	-40.796	0.100
557.700	-50.530	0.100
557.800	-52.314	0.100
557.900	-43.583	0.100
558.000	-48.676	0.100
558.100	-42.102	0.100
558.200	-41.816	0.100
558.300	-38.384	0.100
558.400	-48.771	0.100
558.500	-56.567	0.100
558.600	-62.397	0.100
558.700	-53.041	0.100
558.800	-41.394	0.100
558.900	-37.615	0.100
559.000	-48.437	0.100
559.100	-42.682	0.100
559.200	-47.976	0.100
559.300	-52.079	0.100
559.400	-47.640	0.100
559.500	-39.420	0.100
559.600	-36.138	0.100
559.700	-26.744	0.100
559.800	-53.249	0.100
559.900	-56.847	0.100
560.000	-54.213	0.100
560.100	-52.159	0.100
560.200	-33.165	0.100
560.300	-46.666	0.100
560.400	-44.213	0.100
560.500	-57.791	0.100
560.600	-40.130	0.100
560.700	-46.138	0.100
560.800	-40.494	0.100
560.900	-43.579	0.100
561.000	-59.715	0.100
561.100	-43.241	0.100
561.200	-32.208	0.100
561.300	-44.163	0.100
561.400	-43.366	0.100
561.500	-44.143	0.100
561.600	-43.668	0.100
561.700	-44.815	0.100
561.800	-58.384	0.100
561.900	-42.748	0.100
562.000	-38.376	0.100
562.100	-48.572	0.100
562.200	-60.425	0.100
562.300	-44.595	0.100
562.400	-51.681	0.100
562.500	-38.400	0.100
562.600	-40.460	0.100
562.700	-35.470	0.100
562.800	-46.769	0.100
562.900	-52.036	0.100
563.000	-39.603	0.100
563.100	-45.319	0.100
563.200	-50.700	0.100
563.300	-40.888	0.100
563.400	-39.085	0.100
563.500	-48.499	0.100
563.600	-53.866	0.100
563.700	-56.823	0.100
563.800	-53.315	0.100
563.900	-23.499	0.100
564.000	-42.700	0.100
564.100	-48.593	0.100
564.200	-62.406	0.100
564.300	-47.542	0.100
564.400	-45.069	0.100
564.500	-55.261	0.100
564.600	-61.492	0.100
564.700	-37.308	0.100
564.800	-37.690	0.100
564.900	-39.182	0.100
565.000	-42.825	0.100
565.100	-52.749	0.100
565.200	-44.516	0.100
565.300	-48.845	0.100
565.400	-41.840	0.100
565.500	-44.427	0.100
565.600	-52.167	0.100
565.700	-58.748	0.100
565.800	-45.286	0.100
565.900	-28.107	0.100
566.000	-54.928	0.100
566.100	-33.729	0.100
566.200	-46.122	0.100
566.300	-46.181	0.100
566.400	-37.259	0.100
566.500	-48.040	0.100
566.600	-41.921	0.100
566.700	-43.067	0.100
566.800	-54.243	0.100
566.900	-44.687	0.100
567.000	-34.955	0.100
567.100	-54.041	0.100
567.200	-51.837	0.100
567.300	-44.553	0.100
567.400	-38.735	0.100
567.500	-43.787	0.100
567.600	-33.670	0.100
567.700	-60.318	0.100
567.800	-46.598	0.100
567.900	-49.002	0.100
568.000	-43.983	0.100
568.100	-50.892	0.100
568.200	-44.155	0.100
568.300	-48.718	0.100
568.400	-45.950	0.100
568.500	-50.697	0.100
568.600	-43.415	0.100
568.700	-62.121	0.100
568.800	-40.298	0.100
568.900	-43.019	0.100
569.000	-49.729	0.100
569.100	-44.329	0.100
569.200	-63.302	0.100
569.300	-39.975	0.100
569.400	-39.591	0.100
569.500	-40.084	0.100
569.600	-53.452	0.100
569.700	-51.450	0.100
569.800	-36.191	0.100
569.900	-39.884	0.100
570.000	-39.476	0.100
570.100	-45.952	0.100
570.200	-45.556	0.100
570.300	-51.947	0.100
570.400	-50.998	0.100
570.500	-48.902	0.100
570.600	-45.596	0.100
570.700	-41.547	0.100
570.800	-38.062	0.100
570.900	-39.795	0.100
571.000	-70.896	0.100
571.100	-38.359	0.100
571.200	-31.573	0.100
571.300	-40.165	0.100
571.400	-49.803	0.100
571.500	-41.448	0.100
571.600	-38.276	0.100
571.700	-53.627	0.100
571.800	-49.793	0.100
571.900	-47.438	0.100
572.000	-48.104	0.100
572.100	-57.439	0.100
572.200	-47.951	0.100
572.300	-46.384	0.100
572.400	-42.755	0.100
572.500	-46.474	0.100
572.600	-34.055	0.100
572.700	-28.978	0.100
572.800	-38.166	0.100
572.900	-42.064	0.100
573.000	-40.051	0.100
573.100	-56.727	0.100
573.200	-56.039	0.100
573.300	-47.770	0.100
573.400	-47.919	0.100
573.500	-46.753	0.100
573.600	-60.043	0.100
573.700	-43.577	0.100
573.800	-56.380	0.100
573.900	-43.688	0.100
574.000	-39.028	0.100
574.100	-41.418	0.100
574.200	-51.742	0.100
574.300	-40.648	0.100
574.400	-39.895	0.100
574.500	-52.345	0.100
574.600	-45.740	0.100
574.700	-54.108	0.100
574.800	-49.005	0.100
574.900	-37.925	0.100
575.000	-51.275	0.100
575.100	-40.075	0.100
575.200	-47.122	0.100
575.300	-47.256	0.100
575.400	-53.471	0.100
575.500	-40.498	0.100
575.600	-50.706	0.100
575.700	-52.775	0.100
575.800	-50.713	0.100
575.900	-32.530	0.100
576.000	-50.974	0.100
576.100	-49.361	0.100
576.200	-54.915	0.100
576.300	-40.074	0.100
576.400	-30.485	0.100
576.500	-43.835	0.100
576.600	-46.194	0.100
576.700	-50.507	0.100
576.800	-50.056	0.100
576.900	-47.647	0.100
577.000	-51.849	0.100
577.100	-41.895	0.100
577.200	-56.440	0.100
577.300	-48.615	0.100
577.400	-32.624	0.100
577.500	-61.280	0.100
577.600	-46.720	0.100
577.700	-34.902	0.100
577.800	-49.599	0.100
577.900	-44.904	0.100
578.000	-60.998	0.100
578.100	-54.251	0.100
578.200	-45.158	0.100
578.300	-45.217	0.100
578.400	-40.823	0.100
578.500	-42.929	0.100
578.600	-47.318	0.100
578.700	-44.414	0.100
578.800	-48.146	0.100
578.900	-40.186	0.100
579.000	-39.800	0.100
579.100	-44.160	0.100
579.200	-48.421	0.100
579.300	-48.935	0.100
579.400	-43.897	0.100
579.500	-37.216	0.100
579.600	-53.388	0.100
579.700	-53.671	0.100
579.800	-37.980	0.100
579.900	-28.648	0.100
580.000	-62.552	0.100
580.100	-42.407	0.100
580.200	-48.159	0.100
580.300	-42.196	0.100
580.400	-46.958	0.100
580.500	-41.942	0.100
580.600	-40.649	0.100
580.700	-36.172	0.100
580.800	-42.559	0.100
580.900	-58.847	0.100
581.000	-41.288	0.100
581.100	-52.191	0.100
581.200	-47.731	0.100
581.300	-28.894	0.100
581.400	-52.330	0.100
581.500	-44.947	0.100
581.600	-48.952	0.100
581.700	-42.820	0.100
581.800	-58.003	0.100
581.900	-32.082	0.100
582.000	-43.530	0.100
582.100	-54.412	0.100
582.200	-38.590	0.100
582.300	-53.346	0.100
582.400	-50.724	0.100
582.500	-50.976	0.100
582.600	-41.349	0.100
582.700	-31.151	0.100
582.800	-40.597	0.100
582.900	-50.284	0.100
583.000	-44.561	0.100
583.100	-39.100	0.100
583.200	-46.278	0.100
583.300	-61.870	0.100
583.400	-43.280	0.100
583.500	-45.436	0.100
583.600	-35.521	0.100
583.700	-49.217	0.100
583.800	-35.984	0.100
583.900	-40.314	0.100
584.000	-41.489	0.100
584.100	-47.280	0.100
584.200	-41.604	0.100
584.300	-36.667	0.100
584.400	-38.748	0.100
584.500	-50.342	0.100
584.600	-45.918	0.100
584.700	-37.716	0.100
584.800	-46.992	0.100
584.900	-46.583	0.099
585.000	-42.704	0.100
585.100	-40.990	0.100
585.200	-47.952	0.100
585.300	-46.090	0.100
585.400	-37.262	0.100
585.500	-45.464	0.100
585.600	-50.168	0.100
585.700	-42.840	0.100
585.800	-39.780	0.100
585.900	-41.213	0.100
586.000	-47.259	0.100
586.100	-37.776	0.100
586.200	-38.491	0.100
586.300	-35.252	0.100
586.400	-35.757	0.100
586.500	-36.874	0.100
586.600	-50.881	0.100
586.700	-42.281	0.100
586.800	-47.445	0.100
586.900	-37.464	0.100
587.000	-32.138	0.100
587.100	-45.135	0.100
587.200	-53.343	0.100
587.300	-36.134	0.100
587.400	-44.304	0.100
587.500	-39.585	0.100
587.600	-40.199	0.100
587.700	-53.379	0.100
587.800	-36.988	0.100
587.900	-35.734	0.100
588.000	-45.303	0.100
588.100	-31.316	0.100
588.200	-66.368	0.100
588.300	-33.669	0.100
588.400	-48.868	0.100
588.500	-45.774	0.100
588.600	-48.119	0.100
588.700	-53.741	0.100
588.800	-33.318	0.100
588.900	-51.326	0.100
589.000	-44.788	0.100
589.100	-35.034	0.100
589.200	-38.567	0.100
589.300	-43.722	0.100
589.400	-58.021	0.100
589.500	-37.009	0.100
589.600	-50.326	0.100
589.700	-47.784	0.100
589.800	-43.770	0.100
589.900	-40.011	0.100
590.000	-44.550	0.100
590.100	-32.545	0.100
590.200	-36.520	0.100
590.300	-39.798	0.100
590.400	-41.946	0.100
590.500	-42.592	0.100
590.600	-37.449	0.100
590.700	-35.402	0.100
590.800	-41.041	0.100
590.900	-51.916	0.100
591.000	-40.131	0.100
591.100	-32.037	0.100
591.200	-33.263	0.100
591.300	-40.785	0.100
591.400	-34.883	0.100
591.500	-52.427	0.100
591.600	-53.529	0.100
591.700	-52.133	0.100
591.800	-41.400	0.100
591.900	-37.102	0.100
592.000	-34.922	0.100
592.100	-46.954	0.100
592.200	-38.235	0.100
592.300	-35.210	0.100
592.400	-44.614	0.100
592.500	-36.815	0.100
592.600	-59.745	0.100
592.700	-32.309	0.100
592.800	-35.030	0.100
592.900	-54.221	0.100
593.000	-43.625	0.100
593.100	-40.450	0.100
593.200	-38.681	0.100
593.300	-33.036	0.100
593.400	-40.041	0.100
593.500	-29.547	0.100
593.600	-37.851	0.100
593.700	-46.674	0.100
593.800	-34.125	0.100
593.900	-30.677	0.100
594.000	-45.042	0.100
594.100	-42.968	0.100
594.200	-31.875	0.100
594.300	-35.942	0.100
594.400	-54.398	0.100
594.500	-35.949	0.100
594.600	-43.836	0.100
594.700	-51.062	0.100
594.800	-54.575	0.100
594.900	-35.439	0.100
595.000	-41.048	0.100
595.100	-33.429	0.100
595.200	-45.826	0.100
595.300	-41.659	0.100
595.400	-32.185	0.100
595.500	-52.126	0.100
595.600	-55.528	0.100
595.700	-33.362	0.100
595.800	-26.068	0.100
595.900	-49.045	0.100
596.000	-38.491	0.100
596.100	-30.817	0.100
596.200	-42.609	0.100
596.300	-45.476	0.100
596.400	-56.436	0.100
596.500	-43.936	0.100
596.600	-36.850	0.100
596.700	-47.141	0.100
596.800	-45.287	0.100
596.900	-40.042	0.100
597.000	-31.069	0.100
597.100	-39.849	0.100
597.200	-48.873	0.100
597.300	-29.403	0.100
597.400	-42.154	0.100
597.500	-59.105	0.100
597.600	-36.665	0.100
597.700	-35.953	0.100
597.800	-34.529	0.100
597.900	-37.917	0.100
598.000	-53.613	0.100
598.100	-42.678	0.100
598.200	-51.626	0.100
598.300	-30.154	0.100
598.400	-32.864	0.100
598.500	-44.139	0.100
598.600	-31.406	0.100
598.700	-42.102	0.100
598.800	-63.758	0.100
598.900	-36.501	0.100
599.000	-33.442	0.100
599.100	-47.902	0.100
599.200	-30.515	0.100
599.300	-32.604	0.100
599.400	-37.646	0.100
599.500	-35.540	0.100
599.600	-31.805	0.100
599.700	-52.907	0.100
599.800	-49.340	0.100
599.900	-30.045	0.100
600.000	-48.712	0.100
600.100	-26.411	0.100
600.200	-47.456	0.100
600.300	-38.100	0.100
600.400	-44.215	0.100
600.500	-32.122	0.100
600.600	-36.236	0.100
600.700	-34.547	0.100
600.800	-43.499	0.100
600.900	-43.309	0.100
601.000	-41.263	0.100
601.100	-39.599	0.100
601.200	-20.245	0.100
601.300	-41.938	0.100
601.400	-34.574	0.100
601.500	-35.255	0.100
601.600	-49.578	0.100
601.700	-38.821	0.100
601.800	-24.698	0.100
601.900	-46.189	0.100
602.000	-35.834	0.100
602.100	-36.901	0.100
602.200	-57.199	0.100
602.300	-48.840	0.100
602.400	-22.688	0.100
602.500	-39.811	0.100
602.600	-40.289	0.100
602.700	-38.717	0.100
602.800	-40.506	0.100
602.900	-47.799	0.100
603.000	-44.917	0.100
603.100	-26.885	0.100
603.200	-33.481	0.100
603.300	-32.422	0.100
603.400	-39.094	0.100
603.500	-41.389	0.100
603.600	-55.946	0.100
603.700	-32.181	0.100
603.800	-38.619	0.100
603.900	-28.783	0.100
604.000	-37.412	0.100
604.100	-38.770	0.100
604.200	-34.360	0.100
604.300	-35.464	0.100
604.400	-45.548	0.100
604.500	-34.332	0.100
604.600	-44.456	0.100
604.700	-52.310	0.100
604.800	-40.600	0.100
604.900	-33.426	0.100
605.000	-28.223	0.100
605.100	-30.168	0.100
605.200	-31.223	0.100
605.300	-39.833	0.100
605.400	-43.850	0.100
605.500	-38.047	0.100
605.600	-40.137	0.100
605.700	-34.574	0.100
605.800	-49.134	0.100
605.900	-40.827	0.100
606.000	-41.072	0.100
606.100	-28.902	0.100
606.200	-37.834	0.100
606.300	-37.850	0.100
606.400	-32.872	0.100
606.500	-29.362	0.100
606.600	-57.947	0.100
606.700	-29.196	0.100
606.800	-31.639	0.100
606.900	-33.205	0.100
607.000	-40.220	0.100
607.100	-31.128	0.100
607.200	-41.494	0.100
607.300	-53.681	0.100
607.400	-40.492	0.100
607.500	-38.473	0.100
607.600	-33.728	0.100
607.700	-46.356	0.100
607.800	-39.441	0.100
607.900	-36.123	0.100
608.000	-26.430	0.100
608.100	-33.136	0.100
608.200	-38.882	0.100
608.300	-35.514	0.100
608.400	-38.924	0.100
608.500	-31.533	0.100
608.600	-49.613	0.100
608.700	-24.435	0.100
608.800	-29.553	0.100
608.900	-46.442	0.100
609.000	-30.699	0.100
609.100	-35.463	0.100
609.200	-40.263	0.100
609.300	-32.891	0.100
609.400	-38.736	0.100
609.500	-23.459	0.100
609.600	-42.577	0.100
609.700	-40.075	0.100
609.800	-32.945	0.100
609.900	-40.065	0.100
610.000	-47.661	0.100
610.100	-38.667	0.100
610.200	-35.497	0.100
610.300	-36.228	0.100
610.400	-30.454	0.100
610.500	-30.570	0.100
610.600	-30.664	0.100
610.700	-41.294	0.100
610.800	-23.243	0.100
610.900	-31.096	0.100
611.000	-42.627	0.100
611.100	-31.090	0.100
611.200	-23.293	0.100
611.300	-38.529	0.100
611.400	-40.077	0.100
611.500	-42.903	0.100
611.600	-45.315	0.100
611.700	-56.063	0.100
611.800	-35.699	0.100
611.900	-25.476	0.100
612.000	-54.374	0.100
612.100	-42.979	0.100
612.200	-43.407	0.100
612.300	-14.809	0.100
612.400	-37.407	0.100
612.500	-35.719	0.100
612.600	-31.613	0.100
612.700	-38.159	0.100
612.800	-40.580	0.100
612.900	-30.089	0.100
613.000	-39.797	0.100
613.100	-47.841	0.100
613.200	-42.269	0.100
613.300	-39.882	0.100
613.400	-21.341	0.100
613.500	-30.867	0.100
613.600	-41.004	0.100
613.700	-40.737	0.100
613.800	-38.189	0.100
613.900	-40.461	0.100
614.000	-41.642	0.100
614.100	-30.196	0.100
614.200	-29.792	0.100
614.300	-37.019	0.100
614.400	-17.258	0.100
614.500	-31.355	0.100
614.600	-51.206	0.100
614.700	-25.357	0.100
614.800	-28.996	0.100
614.900	-34.108	0.100
615.000	-36.716	0.100
615.100	-50.049	0.100
615.200	-27.892	0.100
615.300	-30.078	0.100
615.400	-45.045	0.100
615.500	-38.594	0.100
615.600	-30.405	0.100
615.700	-30.475	0.100
615.800	-30.817	0.100
615.900	-33.220	0.100
616.000	-36.901	0.100
616.100	-32.511	0.100
616.200	-34.129	0.100
616.300	-37.914	0.100
616.400	-31.304	0.100
616.500	-39.664	0.100
616.600	-36.077	0.100
616.700	-37.775	0.100
616.800	-48.427	0.100
616.900	-20.969	0.100
617.000	-42.290	0.100
617.100	-19.221	0.100
617.200	-31.733	0.100
617.300	-28.727	0.100
617.400	-27.984	0.100
617.500	-33.912	0.100
617.600	-46.159	0.100
617.700	-21.772	0.100
617.800	-38.994	0.100
617.900	-32.491	0.100
618.000	-26.131	0.100
618.100	-30.074	0.100
618.200	-37.673	0.100
618.300	-29.784	0.100
618.400	-36.894	0.100
618.500	-46.959	0.100
618.600	-50.557	0.100
618.700	-37.830	0.100
618.800	-47.206	0.100
618.900	-36.141	0.100
619.000	-39.374	0.100
619.100	-24.589	0.100
619.200	-31.319	0.100
619.300	-36.604	0.100
619.400	-36.246	0.100
619.500	-22.923	0.100
619.600	-40.163	0.100
619.700	-43.909	0.100
619.800	-29.515	0.100
619.900	-36.149	0.100
620.000	-22.660	0.100
620.100	-35.749	0.100
620.200	-20.281	0.100
620.300	-32.279	0.100
620.400	-27.157	0.100
620.500	-20.179	0.100
620.600	-39.209	0.100
620.700	-34.239	0.100
620.800	-32.520	0.100
620.900	-25.331	0.100
621.000	-33.762	0.100
621.100	-36.275	0.100
621.200	-31.344	0.100
621.300	-18.514	0.100
621.400	-34.641	0.100
621.500	-38.192	0.100
621.600	-35.604	0.100
621.700	-49.725	0.100
621.800	-32.554	0.100
621.900	-27.800	0.100
622.000	-40.486	0.100
622.100	-27.500	0.100
622.200	-40.096	0.100
622.300	-35.329	0.100
622.400	-40.220	0.100
622.500	-38.209	0.100
622.600	-30.645	0.100
622.700	-29.279	0.100
622.800	-29.588	0.100
622.900	-33.966	0.100
623.000	-39.052	0.100
623.100	-21.882	0.100
623.200	-20.382	0.100
623.300	-37.164	0.100
623.400	-34.058	0.100
623.500	-35.955	0.100
623.600	-30.461	0.100
623.700	-52.265	0.100
623.800	-31.714	0.100
623.900	-20.751	0.100
624.000	-27.110	0.100
624.100	-49.469	0.100
624.200	-49.057	0.100
624.300	-32.471	0.100
624.400	-30.226	0.100
624.500	-38.050	0.100
624.600	-38.386	0.100
624.700	-41.805	0.100
624.800	-40.642	0.100
624.900	-31.111	0.100
625.000	-20.019	0.100
625.100	-29.588	0.100
625.200	-30.514	0.100
625.300	-46.564	0.100
625.400	-26.986	0.100
625.500	-30.344	0.100
625.600	-32.654	0.100
625.700	-34.597	0.100
625.800	-38.101	0.100
625.900	-35.429	0.100
626.000	-42.586	0.100
626.100	-41.532	0.100
626.200	-24.836	0.100
626.300	-36.509	0.100
626.400	-29.690	0.100
626.500	-30.453	0.100
626.600	-28.704	0.100
626.700	-25.538	0.100
626.800	-34.608	0.100
626.900	-29.047	0.100
627.000	-41.259	0.100
627.100	-37.871	0.100
627.200	-25.700	0.100
627.300	-37.734	0.100
627.400	-21.474	0.100
627.500	-34.308	0.100
627.600	-28.513	0.100
627.700	-40.749	0.100
627.800	-28.294	0.100
627.900	-23.445	0.100
628.000	-32.333	0.100
628.100	-43.261	0.100
628.200	-43.076	0.100
628.300	-38.508	0.100
628.400	-31.084	0.100
628.500	-26.670	0.100
628.600	-35.987	0.100
628.700	-32.898	0.100
628.800	-22.070	0.100
628.900	-22.984	0.100
629.000	-50.187	0.100
629.100	-34.319	0.100
629.200	-32.250	0.100
629.300	-28.434	0.100
629.400	-25.476	0.100
629.500	-34.395	0.100
629.600	-33.207	0.100
629.700	-24.770	0.100
629.800	-37.345	0.100
629.900	-15.207	0.100
630.000	-10.882	0.100
630.100	7.810	0.100
630.200	13.478	0.100
630.300	15.250	0.100
630.400	38.372	0.100
630.500	41.894	0.100
630.600	44.004	0.100
630.700	36.401	0.100
630.800	50.155	0.100
630.900	40.811	0.100
631.000	45.161	0.100
631.100	52.574	0.100
631.200	54.348	0.100
631.300	39.774	0.100
631.400	36.765	0.100
631.500	40.677	0.100
631.600	48.542	0.100
631.700	45.076	0.100
631.800	41.484	0.100
631.900	11.848	0.100
632.000	57.842	0.099
632.100	49.081	0.100
632.200	34.141	0.100
632.300	34.359	0.100
632.400	47.750	0.100
632.500	31.151	0.100
632.600	33.288	0.100
632.700	28.944	0.100
632.800	22.382	0.100
632.900	43.491	0.100
633.000	32.235	0.100
633.100	30.657	0.100
633.200	35.120	0.100
633.300	29.266	0.100
633.400	29.467	0.100
633.500	30.146	0.100
633.600	48.270	0.100
633.700	36.651	0.100
633.800	42.549	0.100
633.900	30.886	0.100
634.000	25.567	0.100
634.100	27.972	0.100
634.200	30.908	0.100
634.300	31.893	0.100
634.400	31.098	0.100
634.500	27.183	0.100
634.600	28.342	0.100
634.700	24.639	0.100
634.800	34.255	0.100
634.900	26.037	0.100
635.000	35.029	0.100
635.100	32.566	0.100
635.200	27.958	0.100
635.300	41.432	0.100
635.400	32.810	0.100
635.500	37.735	0.100
635.600	38.285	0.100
635.700	31.940	0.100
635.800	27.951	0.100
635.900	20.082	0.100
636.000	50.948	0.100
636.100	21.242	0.100
636.200	37.455	0.100
636.300	55.810	0.100
636.400	35.626	0.100
636.500	41.417	0.100
636.600	36.292	0.100
636.700	47.187	0.100
636.800	56.948	0.100
636.900	42.224	0.100
637.000	36.418	0.100
637.100	45.902	0.100
637.200	42.819	0.100
637.300	49.833	0.100
637.400	47.782	0.100
637.500	53.022	0.100
637.600	46.200	0.100
637.700	62.688	0.100
637.800	59.304	0.100
637.900	45.737	0.100
638.000	54.379	0.100
638.100	42.900	0.100
638.200	65.608	0.100
638.300	53.093	0.100
638.400	57.854	0.100
638.500	62.201	0.100
638.600	67.641	0.100
638.700	69.563	0.100
638.800	48.641	0.100
638.900	59.258	0.100
639.000	58.568	0.100
639.100	56.751	0.100
639.200	57.926	0.100
639.300	74.478	0.100
639.400	66.811	0.100
639.500	53.957	0.100
639.600	71.657	0.100
639.700	80.222	0.100
639.800	60.355	0.100
639.900	64.510	0.100
640.000	70.299	0.100
640.100	62.953	0.100
640.200	67.396	0.100
640.300	60.223	0.100
640.400	60.771	0.100
640.500	65.218	0.100
640.600	62.461	0.100
640.700	71.469	0.100
640.800	63.304	0.100
640.900	61.913	0.100
641.000	66.262	0.100
641.100	61.925	0.100
641.200	66.472	0.100
641.300	69.863	0.100
641.400	65.536	0.100
641.500	69.918	0.100
641.600	73.348	0.100
641.700	62.532	0.100
641.800	78.475	0.100
641.900	70.465	0.100
642.000	68.252	0.100
642.100	62.792	0.100
642.200	75.407	0.100
642.300	62.141	0.100
642.400	68.797	0.100
642.500	87.118	0.100
642.600	64.336	0.100
642.700	73.843	0.100
642.800	74.124	0.100
642.900	59.533	0.100
643.000	64.708	0.100
643.100	77.243	0.100
643.200	71.445	0.100
643.300	69.501	0.100
643.400	67.601	0.100
643.500	65.578	0.100
643.600	74.115	0.100
643.700	71.437	0.100
643.800	79.800	0.100
643.900	71.571	0.100
644.000	73.752	0.100
644.100	70.989	0.100
644.200	66.503	0.100
644.300	79.380	0.100
644.400	68.461	0.100
644.500	66.444	0.100
644.600	67.216	0.100
644.700	72.010	0.100
644.800	76.297	0.100
644.900	62.377	0.100
645.000	60.781	0.100
645.100	77.237	0.100
645.200	83.021	0.100
645.300	79.018	0.100
645.400	74.997	0.100
645.500	74.229	0.100
645.600	77.788	0.100
645.700	74.885	0.100
645.800	66.673	0.100
645.900	68.978	0.100
646.000	70.322	0.100
646.100	77.375	0.100
646.200	78.727	0.100
646.300	63.979	0.100
646.400	83.622	0.100
646.500	69.542	0.100
646.600	69.459	0.100
646.700	69.116	0.100
646.800	72.356	0.100
646.900	80.313	0.100
647.000	64.740	0.100
647.100	68.685	0.100
647.200	72.639	0.100
647.300	72.440	0.100
647.400	62.222	0.100
647.500	62.945	0.100
647.600	59.683	0.100
647.700	68.431	0.100
647.800	78.416	0.100
647.900	65.702	0.100
648.000	64.432	0.100
648.100	84.232	0.100
648.200	69.466	0.100
648.300	63.255	0.100
648.400	74.149	0.100
648.500	70.207	0.100
648.600	73.412	0.100
648.700	61.829	0.100
648.800	81.550	0.100
648.900	88.276	0.100
649.000	63.891	0.100
649.100	66.989	0.100
649.200	67.286	0.100
649.300	72.528	0.100
649.400	73.860	0.100
649.500	80.460	0.100
649.600	59.134	0.100
649.700	63.585	0.100
649.800	71.212	0.100
649.900	59.537	0.100
650.000	48.393	0.100
650.100	67.485	0.100
650.200	75.991	0.100
650.300	73.466	0.100
650.400	75.997	0.100
650.500	63.438	0.100
650.600	67.017	0.100
650.700	61.888	0.100
650.800	69.095	0.100
650.900	56.854	0.100
651.000	59.975	0.100
651.100	81.040	0.100
651.200	67.702	0.100
651.300	63.600	0.100
651.400	58.882	0.100
651.500	76.798	0.100
651.600	69.553	0.100
651.700	70.658	0.100
651.800	76.298	0.100
651.900	71.087	0.100
652.000	49.820	0.100
652.100	73.419	0.100
652.200	65.775	0.100
652.300	78.898	0.100
652.400	79.724	0.100
652.500	63.375	0.100
652.600	60.685	0.100
652.700	75.003	0.100
652.800	62.717	0.100
652.900	92.145	0.100
653.000	64.643	0.100
653.100	71.231	0.100
653.200	56.714	0.100
653.300	51.691	0.100
653.400	50.280	0.100
653.500	81.091	0.100
653.600	73.664	0.100
653.700	71.689	0.100
653.800	81.745	0.100
653.900	60.002	0.100
654.000	64.583	0.100
654.100	66.367	0.100
654.200	69.333	0.100
654.300	76.012	0.100
654.400	81.802	0.100
654.500	73.680	0.100
654.600	77.037	0.100
654.700	47.742	0.100
654.800	47.758	0.100
654.900	73.476	0.100
655.000	52.345	0.100
655.100	63.651	0.100
655.200	74.512	0.100
655.300	70.249	0.100
655.400	59.035	0.100
655.500	79.748	0.100
655.600	79.689	0.100
655.700	69.723	0.100
655.800	50.277	0.100
655.900	67.473	0.100
656.000	66.881	0.100
656.100	66.384	0.100
656.200	56.476	0.100
656.300	67.100	0.100
656.400	60.716	0.100
656.500	57.346	0.100
656.600	76.712	0.100
656.700	66.926	0.100
656.800	66.308	0.100
656.900	78.845	0.100
657.000	58.138	0.100
657.100	62.792	0.100
657.200	77.242	0.100
657.300	80.944	0.100
657.400	62.346	0.100
657.500	62.747	0.100
657.600	61.966	0.100
657.700	71.824	0.100
657.800	69.140	0.100
657.900	73.824	0.100
658.000	52.368	0.100
658.100	78.719	0.100
658.200	60.113	0.100
658.300	61.351	0.100
658.400	67.353	0.100
658.500	60.558	0.100
658.600	57.677	0.100
658.700	73.090	0.100
658.800	64.424	0.100
658.900	72.653	0.100
659.000	60.572	0.100
659.100	70.520	0.100
659.200	66.233	0.100
659.300	61.046	0.100
659.400	74.086	0.100
659.500	79.652	0.100
659.600	58.688	0.100
659.700	63.040	0.100
659.800	74.313	0.100
659.900	62.091	0.100
660.000	72.702	0.100
660.100	66.415	0.100
660.200	69.165	0.100
660.300	61.138	0.100
660.400	74.457	0.100
660.500	66.416	0.100
660.600	56.597	0.100
660.700	58.735	0.100
660.800	68.966	0.100
660.900	59.966	0.100
661.000	65.596	0.100
661.100	70.754	0.100
661.200	57.859	0.100
661.300	63.293	0.100
661.400	73.941	0.100
661.500	56.997	0.100
661.600	75.385	0.100
661.700	66.585	0.100
661.800	72.554	0.100
661.900	52.714	0.100
662.000	69.387	0.100
662.100	70.710	0.100
662.200	71.135	0.100
662.300	67.390	0.100
662.400	69.284	0.100
662.500	61.628	0.100
662.600	60.672	0.100
662.700	66.895	0.100
662.800	53.978	0.100
662.900	74.635	0.100
663.000	70.069	0.099
663.100	67.260	0.100
663.200	71.458	0.100
663.300	60.241	0.100
663.400	63.039	0.100
663.500	56.728	0.100
663.600	62.841	0.100
663.700	71.822	0.100
663.800	63.568	0.100
663.900	66.163	0.100
664.000	66.689	0.100
664.100	66.658	0.100
664.200	77.216	0.100
664.300	65.997	0.100
664.400	57.057	0.100
664.500	67.572	0.100
664.600	63.564	0.100
664.700	67.351	0.099
664.800	80.293	0.100
664.900	65.304	0.099
665.000	66.193	0.100
665.100	54.613	0.100
665.200	76.809	0.100
665.300	64.536	0.100
665.400	70.903	0.100
665.500	60.000	0.100
665.600	77.465	0.100
665.700	78.199	0.100
665.800	74.077	0.100
665.900	67.364	0.100
666.000	55.242	0.100
666.100	68.591	0.100
666.200	84.371	0.100
666.300	58.278	0.100
666.400	75.207	0.100
666.500	45.036	0.100
666.600	82.036	0.100
666.700	67.635	0.100
666.800	63.467	0.100
666.900	66.887	0.100
667.000	63.160	0.100
667.100	78.619	0.100
667.200	65.337	0.100
667.300	68.425	0.100
667.400	60.154	0.100
667.500	69.024	0.100
667.600	63.835	0.100
667.700	61.906	0.100
667.800	73.019	0.100
667.900	76.245	0.100
668.000	66.566	0.100
668.100	67.629	0.100
668.200	73.285	0.100
668.300	60.810	0.100
668.400	72.284	0.100
668.500	69.587	0.100
668.600	76.393	0.100
668.700	66.496	0.100
668.800	65.266	0.100
668.900	69.187	0.100
669.000	67.315	0.100
669.100	63.837	0.100
669.200	83.889	0.100
669.300	65.670	0.100
669.400	66.954	0.100
669.500	55.583	0.100
669.600	73.731	0.100
669.700	92.378	0.100
669.800	83.476	0.100
669.900	58.340	0.100
670.000	75.655	0.100
670.100	75.148	0.100
670.200	65.657	0.100
670.300	70.725	0.100
670.400	66.422	0.100
670.500	76.068	0.100
670.600	63.991	0.100
670.700	67.448	0.100
670.800	70.215	0.100
670.900	64.711	0.100
671.000	73.078	0.100
671.100	75.459	0.100
671.200	75.570	0.100
671.300	72.259	0.100
671.400	63.616	0.100
671.500	58.321	0.100
671.600	71.515	0.100
671.700	65.609	0.100
671.800	67.102	0.100
671.900	75.813	0.100
672.000	63.722	0.100
672.100	73.238	0.100
672.200	77.371	0.100
672.300	81.109	0.100
672.400	63.733	0.100
672.500	61.534	0.100
672.600	66.632	0.100
672.700	80.688	0.100
672.800	69.778	0.100
672.900	65.336	0.100
673.000	75.056	0.100
673.100	71.800	0.100
673.200	66.540	0.100
673.300	60.102	0.100
673.400	77.314	0.100
673.500	60.697	0.100
673.600	81.622	0.100
673.700	70.687	0.100
673.800	71.488	0.100
673.900	55.665	0.100
674.000	79.208	0.100
674.100	73.458	0.100
674.200	73.170	0.100
674.300	81.600	0.100
674.400	73.421	0.100
674.500	74.212	0.100
674.600	57.751	0.100
674.700	72.535	0.100
674.800	57.098	0.100
674.900	59.910	0.100
675.000	64.368	0.100
675.100	70.260	0.100
675.200	77.921	0.100
675.300	78.636	0.100
675.400	75.953	0.100
675.500	74.582	0.100
675.600	78.467	0.100
675.700	79.672	0.100
675.800	62.651	0.100
675.900	60.853	0.100
676.000	59.990	0.100
676.100	66.966	0.100
676.200	80.120	0.100
676.300	78.858	0.100
676.400	72.845	0.100
676.500	73.955	0.100
676.600	66.536	0.100
676.700	66.202	0.100
676.800	69.328	0.100
676.900	83.973	0.100
677.000	73.940	0.100
677.100	68.864	0.100
677.200	63.859	0.100
677.300	72.248	0.100
677.400	63.983	0.100
677.500	67.907	0.100
677.600	66.936	0.100
677.700	75.468	0.100
677.800	66.921	0.100
677.900	69.418	0.100
678.000	76.783	0.100
678.100	59.271	0.100
678.200	65.673	0.100
678.300	75.029	0.100
678.400	80.692	0.100
678.500	77.589	0.100
678.600	69.688	0.100
678.700	65.642	0.100
678.800	79.345	0.100
678.900	68.578	0.100
679.000	60.573	0.100
679.100	71.384	0.100
679.200	65.548	0.100
679.300	66.889	0.100
679.400	70.684	0.100
679.500	60.845	0.100
679.600	71.117	0.100
679.700	72.082	0.100
679.800	78.994	0.100
679.900	66.566	0.100
680.000	78.946	0.100
680.100	60.954	0.100
680.200	65.043	0.100
680.300	75.928	0.100
680.400	88.589	0.100
680.500	68.189	0.100
680.600	68.065	0.100
680.700	64.801	0.100
680.800	62.467	0.100
680.900	73.240	0.100
681.000	64.408	0.100
681.100	72.868	0.100
681.200	59.111	0.100
681.300	73.310	0.100
681.400	81.751	0.100
681.500	64.427	0.100
681.600	78.300	0.099
681.700	77.007	0.100
681.800	68.544	0.100
681.900	62.366	0.100
682.000	60.765	0.100
682.100	68.335	0.100
682.200	81.821	0.100
682.300	82.650	0.100
682.400	79.403	0.100
682.500	65.782	0.099
682.600	71.116	0.100
682.700	92.262	0.100
682.800	77.767	0.100
682.900	70.974	0.100
683.000	67.732	0.099
683.100	72.339	0.100
683.200	68.891	0.100
683.300	64.540	0.100
683.400	73.272	0.100
683.500	80.395	0.100
683.600	64.220	0.100
683.700	55.367	0.100
683.800	57.266	0.100
683.900	77.991	0.100
684.000	68.655	0.100
684.100	75.817	0.100
684.200	70.986	0.100
684.300	76.599	0.100
684.400	64.147	0.100
684.500	58.102	0.100
684.600	57.551	0.100
684.700	82.858	0.100
684.800	70.807	0.100
684.900	74.280	0.100
685.000	65.326	0.100
685.100	73.659	0.100
685.200	75.532	0.100
685.300	79.413	0.100
685.400	53.822	0.100
685.500	64.615	0.100
685.600	79.095	0.100
685.700	71.565	0.100
685.800	69.916	0.100
685.900	67.885	0.100
686.000	70.771	0.100
686.100	66.331	0.100
686.200	73.745	0.100
686.300	72.925	0.100
686.400	73.105	0.100
686.500	59.384	0.100
686.600	75.588	0.100
686.700	56.788	0.100
686.800	61.855	0.100
686.900	77.136	0.100
687.000	81.252	0.099
687.100	75.395	0.100
687.200	75.005	0.100
687.300	72.163	0.100
687.400	46.373	0.100
687.500	64.606	0.100
687.600	90.904	0.100
687.700	77.212	0.100
687.800	77.820	0.100
687.900	78.031	0.100
688.000	81.229	0.100
688.100	70.638	0.100
688.200	65.540	0.100
688.300	68.067	0.100
688.400	74.950	0.100
688.500	74.045	0.100
688.600	62.676	0.100
688.700	57.399	0.100
688.800	68.652	0.100
688.900	63.913	0.100
689.000	63.774	0.100
689.100	68.106	0.100
689.200	78.434	0.100
689.300	73.086	0.100
689.400	65.441	0.100
689.500	72.948	0.100
689.600	65.916	0.100
689.700	67.493	0.100
689.800	63.164	0.100
689.900	62.728	0.100
690.000	53.005	0.100
690.100	41.690	0.100
690.200	27.876	0.100
690.300	26.708	0.100
690.400	11.188	0.100
690.500	19.505	0.100
690.600	1.711	0.100
690.700	-6.232	0.100
690.800	-1.192	0.100
690.900	-21.881	0.100
691.000	-10.359	0.100
691.100	-13.817	0.100
691.200	-30.098	0.100
691.300	-29.151	0.100
691.400	-27.893	0.100
691.500	-37.766	0.100
691.600	-32.399	0.100
691.700	-34.626	0.100
691.800	-27.973	0.100
691.900	-37.458	0.100
692.000	-32.665	0.100
692.100	-57.205	0.100
692.200	-33.897	0.100
692.300	-30.940	0.100
692.400	-31.855	0.099
692.500	-39.682	0.100
692.600	-56.528	0.100
692.700	-56.726	0.100
692.800	-55.927	0.100
692.900	-41.094	0.100
693.000	-23.242	0.100
693.100	-41.104	0.100
693.200	-40.632	0.100
693.300	-48.187	0.100
693.400	-50.769	0.100
693.500	-27.274	0.100
693.600	-44.037	0.100
693.700	-54.453	0.100
693.800	-49.489	0.100
693.900	-34.150	0.100
694.000	-41.324	0.100
694.100	-28.018	0.100
694.200	-51.328	0.100
694.300	-36.279	0.100
694.400	-35.464	0.100
694.500	-26.373	0.100
694.600	-51.137	0.100
694.700	-48.997	0.100
694.800	-40.107	0.100
694.900	-35.990	0.100
695.000	-48.457	0.100
695.100	-51.528	0.100
695.200	-34.426	0.100
695.300	-46.467	0.100
695.400	-38.859	0.100
695.500	-50.428	0.100
695.600	-34.089	0.100
695.700	-36.294	0.100
695.800	-46.345	0.100
695.900	-38.179	0.100
696.000	-36.814	0.100
696.100	-43.939	0.100
696.200	-36.411	0.100
696.300	-57.462	0.100
696.400	-35.647	0.100
696.500	-52.433	0.100
696.600	-31.849	0.100
696.700	-49.842	0.100
696.800	-40.510	0.100
696.900	-33.058	0.100
697.000	-34.888	0.100
697.100	-44.494	0.100
697.200	-33.931	0.100
697.300	-57.659	0.100
697.400	-29.215	0.100
697.500	-45.744	0.100
697.600	-41.524	0.100
697.700	-42.134	0.100
697.800	-45.974	0.100
697.900	-48.801	0.100
698.000	-40.693	0.100
698.100	-36.953	0.100
698.200	-32.177	0.100
698.300	-39.717	0.100
698.400	-39.475	0.100
698.500	-48.924	0.100
698.600	-49.750	0.100
698.700	-56.999	0.099
698.800	-29.421	0.100
698.900	-37.594	0.100
699.000	-29.017	0.100
699.100	-45.292	0.100
699.200	-26.583	0.100
699.300	-43.897	0.100
699.400	-40.270	0.100
699.500	-35.447	0.100
699.600	-42.411	0.100
699.700	-44.699	0.100
699.800	-41.671	0.100
699.900	-46.526	0.100
700.000	-31.744	0.100
700.100	-35.821	0.100
700.200	-48.421	0.100
700.300	-33.851	0.100
700.400	-39.706	0.100
700.500	-39.548	0.100
700.600	-45.611	0.100
700.700	-57.654	0.100
700.800	-44.767	0.100
700.900	-44.989	0.100
701.000	-45.734	0.100
701.100	-39.928	0.100
701.200	-50.901	0.100
701.300	-42.512	0.100
701.400	-39.460	0.100
701.500	-46.786	0.100
701.600	-34.021	0.100
701.700	-47.932	0.100
701.800	-33.525	0.100
701.900	-44.542	0.100
702.000	-34.309	0.100
702.100	-42.818	0.100
702.200	-51.059	0.100
702.300	-46.933	0.100
702.400	-40.285	0.100
702.500	-42.458	0.100
702.600	-40.152	0.100
702.700	-60.690	0.100
702.800	-50.903	0.100
702.900	-41.085	0.100
703.000	-39.708	0.100
703.100	-40.606	0.100
703.200	-57.595	0.100
703.300	-27.499	0.100
703.400	-50.807	0.100
703.500	-51.399	0.100
703.600	-41.766	0.100
703.700	-46.757	0.100
703.800	-54.600	0.100
703.900	-42.461	0.100
704.000	-51.579	0.099
704.100	-46.815	0.100
704.200	-50.342	0.100
704.300	-52.361	0.100
704.400	-37.928	0.100
704.500	-55.244	0.100
704.600	-32.008	0.100
704.700	-56.807	0.100
704.800	-38.386	0.100
704.900	-52.782	0.100
705.000	-45.552	0.100
705.100	-47.865	0.100
705.200	-28.680	0.100
705.300	-42.050	0.100
705.400	-43.601	0.100
705.500	-42.307	0.100
705.600	-40.561	0.100
705.700	-50.182	0.100
705.800	-44.832	0.100
705.900	-55.898	0.100
706.000	-39.145	0.100
706.100	-36.728	0.100
706.200	-44.304	0.100
706.300	-44.379	0.100
706.400	-32.212	0.100
706.500	-53.652	0.100
706.600	-45.493	0.099
706.700	-54.553	0.100
706.800	-38.238	0.100
706.900	-45.487	0.100
707.000	-55.981	0.100
707.100	-37.866	0.100
707.200	-39.972	0.100
707.300	-44.253	0.100
707.400	-44.755	0.100
707.500	-52.968	0.100
707.600	-39.359	0.100
707.700	-49.219	0.100
707.800	-48.160	0.100
707.900	-52.660	0.100
708.000	-47.904	0.100
708.100	-51.553	0.100
708.200	-33.280	0.100
708.300	-49.383	0.100
708.400	-51.570	0.100
708.500	-47.852	0.100
708.600	-40.231	0.100
708.700	-55.107	0.100
708.800	-41.833	0.099
708.900	-48.437	0.100
709.000	-46.389	0.100
709.100	-37.944	0.100
709.200	-47.731	0.100
709.300	-55.683	0.100
709.400	-49.284	0.100
709.500	-36.035	0.099
709.600	-46.315	0.100
709.700	-58.813	0.100
709.800	-41.316	0.100
709.900	-42.265	0.100
710.000	-45.305	0.100
710.100	-48.112	0.100
710.200	-31.144	0.100
710.300	-56.819	0.100
710.400	-53.798	0.100
710.500	-41.594	0.099
710.600	-50.822	0.100
710.700	-34.113	0.100
710.800	-47.317	0.099
710.900	-49.493	0.100
711.000	-42.855	0.100
711.100	-42.240	0.100
711.200	-46.980	0.100
711.300	-47.562	0.100
711.400	-54.835	0.100
711.500	-58.614	0.100
711.600	-57.503	0.100
711.700	-47.389	0.100
711.800	-49.488	0.100
711.900	-44.158	0.100
712.000	-43.109	0.099
712.100	-45.034	0.100
712.200	-46.743	0.100
712.300	-49.089	0.100
712.400	-39.083	0.100
712.500	-47.916	0.100
712.600	-40.358	0.100
712.700	-42.030	0.100
712.800	-35.904	0.100
712.900	-57.022	0.099
713.000	-52.780	0.100
713.100	-40.375	0.100
713.200	-41.532	0.100
713.300	-51.734	0.100
713.400	-49.973	0.100
713.500	-39.058	0.100
713.600	-49.112	0.100
713.700	-49.565	0.099
713.800	-52.037	0.100
713.900	-42.224	0.100
714.000	-46.050	0.100
714.100	-49.634	0.100
714.200	-50.848	0.100
714.300	-53.456	0.100
714.400	-50.680	0.100
714.500	-56.898	0.100
714.600	-48.633	0.100
714.700	-47.377	0.100
714.800	-54.757	0.100
714.900	-40.135	0.100
715.000	-42.282	0.100
715.100	-53.578	0.100
715.200	-47.028	0.100
715.300	-39.475	0.100
715.400	-47.143	0.100
715.500	-43.467	0.100
715.600	-46.756	0.100
715.700	-52.207	0.100
715.800	-47.363	0.100
715.900	-42.387	0.100
716.000	-51.947	0.100
716.100	-51.188	0.100
716.200	-46.371	0.100
716.300	-45.498	0.100
716.400	-46.667	0.100
716.500	-46.678	0.099
716.600	-49.653	0.100
716.700	-51.807	0.100
716.800	-45.500	0.100
716.900	-53.451	0.100
717.000	-49.901	0.100
717.100	-52.584	0.100
717.200	-37.962	0.100
717.300	-45.494	0.100
717.400	-50.122	0.100
717.500	-54.706	0.100
717.600	-49.091	0.100
717.700	-40.844	0.100
717.800	-40.941	0.100
717.900	-68.339	0.100
718.000	-43.322	0.100
718.100	-40.933	0.100
718.200	-41.937	0.100
718.300	-32.417	0.100
718.400	-47.045	0.100
718.500	-50.029	0.100
718.600	-42.414	0.100
718.700	-48.111	0.100
718.800	-51.502	0.100
718.900	-59.384	0.100
719.000	-39.693	0.100
719.100	-54.768	0.100
719.200	-64.726	0.100
719.300	-54.812	0.100
719.400	-41.144	0.100
719.500	-37.557	0.100
719.600	-37.753	0.100
719.700	-45.823	0.100
719.800	-50.197	0.100
719.900	-57.232	0.099
720.000	-52.801	0.100
720.100	-47.459	0.100
720.200	-63.117	0.100
720.300	-30.983	0.100
720.400	-57.390	0.100
720.500	-40.430	0.100
720.600	-41.692	0.100
720.700	-46.190	0.100
720.800	-54.853	0.100
720.900	-62.259	0.100
721.000	-44.748	0.100
721.100	-45.597	0.100
721.200	-43.900	0.100
721.300	-42.410	0.100
721.400	-51.985	0.100
721.500	-36.905	0.100
721.600	-39.961	0.100
721.700	-46.176	0.100
721.800	-47.199	0.100
721.900	-44.174	0.100
722.000	-48.231	0.100
722.100	-59.886	0.100
722.200	-52.253	0.100
722.300	-47.018	0.100
722.400	-61.919	0.100
722.500	-42.843	0.100
722.600	-43.258	0.100
722.700	-56.406	0.100
722.800	-38.115	0.099
722.900	-47.142	0.100
723.000	-40.873	0.100
723.100	-46.854	0.100
723.200	-41.919	0.100
723.300	-49.503	0.100
723.400	-51.799	0.100
723.500	-44.868	0.100
723.600	-44.269	0.100
723.700	-46.267	0.100
723.800	-42.315	0.100
723.900	-40.755	0.100
724.000	-51.460	0.100
724.100	-54.721	0.100
724.200	-58.986	0.100
724.300	-34.065	0.100
724.400	-43.782	0.100
724.500	-46.464	0.100
724.600	-46.968	0.100
724.700	-43.809	0.100
724.800	-55.859	0.100
724.900	-37.654	0.100
725.000	-43.468	0.100
725.100	-57.559	0.100
725.200	-43.691	0.100
725.300	-38.244	0.100
725.400	-48.702	0.100
725.500	-56.132	0.100
725.600	-41.664	0.100
725.700	-44.083	0.100
725.800	-49.599	0.100
725.900	-56.849	0.100
726.000	-44.648	0.100
726.100	-43.985	0.100
726.200	-47.215	0.100
726.300	-48.531	0.100
726.400	-55.674	0.100
726.500	-61.126	0.100
726.600	-52.323	0.100
726.700	-47.303	0.100
726.800	-40.589	0.100
726.900	-51.033	0.100
727.000	-45.498	0.100
727.100	-38.683	0.100
727.200	-40.684	0.100
727.300	-43.913	0.100
727.400	-55.014	0.100
727.500	-44.785	0.100
727.600	-45.938	0.100
727.700	-45.222	0.100
727.800	-44.349	0.100
727.900	-60.800	0.100
728.000	-53.715	0.100
728.100	-43.200	0.100
728.200	-45.691	0.100
728.300	-44.903	0.100
728.400	-43.511	0.100
728.500	-39.953	0.100
728.600	-53.647	0.100
728.700	-59.879	0.100
728.800	-46.471	0.100
728.900	-52.526	0.100
729.000	-53.735	0.100
729.100	-47.284	0.100
729.200	-44.933	0.100
729.300	-49.889	0.100
729.400	-28.731	0.100
729.500	-32.178	0.100
729.600	-48.953	0.100
729.700	-53.345	0.100
729.800	-40.740	0.100
729.900	-48.292	0.100
730.000	-45.518	0.100
730.100	-50.937	0.100
730.200	-45.218	0.100
730.300	-37.698	0.100
730.400	-57.480	0.100
730.500	-52.929	0.100
730.600	-48.689	0.100
730.700	-47.489	0.100
730.800	-50.017	0.100
730.900	-30.463	0.100
731.000	-38.512	0.100
731.100	-49.959	0.100
731.200	-35.443	0.100
731.300	-41.945	0.100
731.400	-59.933	0.100
731.500	-54.457	0.100
731.600	-38.897	0.100
731.700	-42.248	0.100
731.800	-49.455	0.100
731.900	-42.014	0.100
732.000	-40.277	0.100
732.100	-40.438	0.100
732.200	-54.652	0.100
732.300	-41.990	0.100
732.400	-48.387	0.100
732.500	-36.994	0.100
732.600	-39.058	0.100
732.700	-48.708	0.100
732.800	-48.848	0.100
732.900	-37.287	0.100
733.000	-44.580	0.100
733.100	-52.001	0.100
733.200	-43.938	0.100
733.300	-48.606	0.100
733.400	-39.668	0.100
733.500	-42.072	0.100
733.600	-60.201	0.100
733.700	-39.763	0.100
733.800	-41.886	0.100
733.900	-42.527	0.100
734.000	-39.615	0.100
734.100	-44.385	0.100
734.200	-36.614	0.100
734.300	-36.981	0.100
734.400	-42.954	0.100
734.500	-49.183	0.100
734.600	-48.560	0.100
734.700	-36.393	0.100
734.800	-54.121	0.100
734.900	-49.858	0.100
735.000	-44.152	0.100
735.100	-39.601	0.100
735.200	-52.693	0.100
735.300	-36.461	0.100
735.400	-41.317	0.100
735.500	-46.930	0.100
735.600	-48.881	0.100
735.700	-45.975	0.100
735.800	-37.145	0.100
735.900	-43.277	0.100
736.000	-50.623	0.100
736.100	-50.192	0.100
736.200	-51.695	0.100
736.300	-36.924	0.100
736.400	-49.140	0.100
736.500	-41.367	0.100
736.600	-41.627	0.100
736.700	-42.333	0.099
736.800	-55.962	0.100
736.900	-41.667	0.100
737.000	-45.108	0.100
737.100	-43.258	0.100
737.200	-39.417	0.100
737.300	-53.242	0.100
737.400	-31.136	0.100
737.500	-39.760	0.100
737.600	-29.451	0.100
737.700	-47.579	0.100
737.800	-47.619	0.100
737.900	-50.951	0.100
738.000	-45.582	0.100
738.100	-40.670	0.100
738.200	-29.259	0.100
738.300	-52.938	0.100
738.400	-33.360	0.100
738.500	-35.125	0.100
738.600	-44.444	0.100
738.700	-44.917	0.100
738.800	-48.438	0.100
738.900	-28.819	0.100
739.000	-47.124	0.100
739.100	-44.187	0.100
739.200	-45.835	0.100
739.300	-39.309	0.100
739.400	-28.121	0.100
739.500	-42.874	0.100
739.600	-55.176	0.100
739.700	-46.098	0.100
739.800	-41.241	0.100
739.900	-37.988	0.100
740.000	-32.202	0.100
740.100	-45.499	0.100
740.200	-46.321	0.100
740.300	-47.590	0.100
740.400	-50.825	0.100
740.500	-41.340	0.100
740.600	-46.457	0.100
740.700	-41.873	0.100
740.800	-55.622	0.100
740.900	-50.983	0.100
741.000	-41.265	0.100
741.100	-33.108	0.100
741.200	-45.098	0.100
741.300	-48.316	0.100
741.400	-44.955	0.100
741.500	-36.226	0.100
741.600	-50.209	0.100
741.700	-41.017	0.100
741.800	-40.672	0.100
741.900	-32.637	0.100
742.000	-48.580	0.100
742.100	-42.765	0.100
742.200	-43.595	0.100
742.300	-43.934	0.100
742.400	-51.190	0.100
742.500	-47.688	0.100
742.600	-37.540	0.100
742.700	-38.485	0.100
742.800	-42.505	0.100
742.900	-42.965	0.100
743.000	-50.625	0.100
743.100	-48.167	0.100
743.200	-50.718	0.100
743.300	-43.974	0.100
743.400	-26.281	0.100
743.500	-33.189	0.100
743.600	-46.632	0.100
743.700	-40.865	0.100
743.800	-43.196	0.100
743.900	-34.759	0.099
744.000	-49.377	0.100
744.100	-33.392	0.100
744.200	-44.716	0.100
744.300	-49.672	0.100
744.400	-47.086	0.100
744.500	-44.576	0.100
744.600	-40.930	0.100
744.700	-34.694	0.100
744.800	-54.167	0.100
744.900	-42.815	0.100
745.000	-42.749	0.100
745.100	-54.954	0.100
745.200	-43.462	0.100
745.300	-34.615	0.100
745.400	-44.225	0.100
745.500	-38.430	0.100
745.600	-46.710	0.100
745.700	-56.988	0.100
745.800	-45.611	0.100
745.900	-28.443	0.100
746.000	-39.975	0.100
746.100	-34.139	0.100
746.200	-46.526	0.100
746.300	-42.707	0.100
746.400	-30.687	0.100
746.500	-37.898	0.100
746.600	-43.174	0.100
746.700	-13.745	0.099
746.800	-24.964	0.100
746.900	-31.961	0.100
747.000	-47.597	0.100
747.100	-45.558	0.100
747.200	-45.517	0.100
747.300	-39.162	0.100
747.400	-35.786	0.100
747.500	-37.467	0.100
747.600	-41.299	0.100
747.700	-45.223	0.100
747.800	-54.121	0.100
747.900	-43.126	0.100
748.000	-29.837	0.100
748.100	-25.851	0.100
748.200	-35.113	0.100
748.300	-52.990	0.100
748.400	-32.928	0.100
748.500	-39.906	0.100
748.600	-42.971	0.100
748.700	-42.700	0.100
748.800	-36.818	0.100
748.900	-41.270	0.100
749.000	-50.892	0.100
749.100	-36.068	0.100
749.200	-43.030	0.100
749.300	-41.331	0.100
749.400	-40.743	0.100
749.500	-38.972	0.100
749.600	-43.797	0.100
749.700	-37.715	0.100
749.800	-40.342	0.100
749.900	-44.499	0.100
750.000	-35.862	0.100
750.100	-39.453	0.100
750.200	-51.361	0.100
750.300	-36.820	0.100
750.400	-31.820	0.100
750.500	-35.410	0.100
750.600	-48.332	0.100
750.700	-47.244	0.100
750.800	-41.528	0.099
750.900	-25.277	0.100
751.000	-41.260	0.100
751.100	-38.758	0.100
751.200	-42.004	0.100
751.300	-47.228	0.100
751.400	-38.885	0.100
751.500	-37.557	0.100
751.600	-49.497	0.100
751.700	-39.911	0.100
751.800	-52.097	0.100
751.900	-53.854	0.100
752.000	-45.084	0.100
752.100	-22.438	0.100
752.200	-40.770	0.100
752.300	-30.105	0.100
752.400	-37.007	0.100
752.500	-47.003	0.100
752.600	-35.392	0.099
752.700	-37.285	0.100
752.800	-42.255	0.100
752.900	-28.468	0.100
753.000	-37.597	0.100
753.100	-42.174	0.100
753.200	-55.347	0.099
753.300	-35.450	0.100
753.400	-42.876	0.100
753.500	-45.760	0.100
753.600	-37.820	0.100
753.700	-42.580	0.100
753.800	-27.808	0.100
753.900	-30.460	0.100
754.000	-34.507	0.100
754.100	-43.986	0.100
754.200	-26.498	0.100
754.300	-32.580	0.100
754.400	-41.249	0.100
754.500	-28.317	0.100
754.600	-42.313	0.100
754.700	-45.087	0.100
754.800	-39.219	0.100
754.900	-37.840	0.100
755.000	-50.760	0.100
755.100	-40.925	0.100
755.200	-33.313	0.100
755.300	-30.594	0.100
755.400	-42.108	0.100
755.500	-39.968	0.100
755.600	-42.977	0.100
755.700	-41.855	0.100
755.800	-46.178	0.100
755.900	-35.211	0.100
756.000	-40.726	0.100
756.100	-45.558	0.099
756.200	-27.118	0.100
756.300	-42.166	0.100
756.400	-36.908	0.100
756.500	-29.882	0.100
756.600	-43.918	0.100
756.700	-35.216	0.100
756.800	-33.701	0.099
756.900	-44.121	0.100
757.000	-34.958	0.100
757.100	-47.414	0.099
757.200	-29.745	0.099
757.300	-20.197	0.099
757.400	-37.905	0.099
757.500	-54.855	0.100
757.600	-39.382	0.100
757.700	-53.896	0.100
757.800	-24.382	0.099
757.900	-31.059	0.100
758.000	-37.101	0.100
758.100	-39.421	0.100
758.200	-33.552	0.100
758.300	-40.459	0.100
758.400	-55.143	0.100
758.500	-34.948	0.100
758.600	-20.478	0.100
758.700	-31.708	0.100
758.800	-44.662	0.100
758.900	-39.818	0.100
759.000	-36.085	0.100
759.100	-31.110	0.099
759.200	-36.500	0.099
759.300	-40.009	0.099
759.400	-47.059	0.100
759.500	-34.445	0.100
759.600	-24.745	0.100
759.700	-43.793	0.100
759.800	-29.268	0.099
759.900	-38.222	0.100
760.000	-40.318	0.100
760.100	-31.873	0.100
760.200	-59.557	0.100
760.300	-45.023	0.100
760.400	-41.838	0.100
760.500	-31.012	0.100
760.600	-34.126	0.100
760.700	-37.296	0.100
760.800	-25.605	0.100
760.900	-26.860	0.100
761.000	-33.116	0.099
761.100	-49.289	0.100
761.200	-58.998	0.100
761.300	-21.069	0.100
761.400	-26.669	0.100
761.500	-33.364	0.100
761.600	-29.593	0.100
761.700	-44.156	0.100
761.800	-46.146	0.100
761.900	-44.384	0.100
762.000	-33.176	0.100
762.100	-35.084	0.099
762.200	-30.974	0.100
762.300	-34.926	0.100
762.400	-31.642	0.100
762.500	-39.227	0.100
762.600	-30.172	0.100
762.700	-31.838	0.100
762.800	-35.823	0.100
762.900	-46.357	0.100
763.000	-30.047	0.100
763.100	-26.333	0.100
763.200	-32.935	0.100
763.300	-45.751	0.100
763.400	-36.000	0.100
763.500	-32.263	0.099
763.600	-25.484	0.100
763.700	-35.230	0.100
763.800	-47.467	0.099
763.900	-34.378	0.100
764.000	-27.767	0.100
764.100	-32.375	0.100
764.200	-39.663	0.100
764.300	-39.864	0.100
764.400	-31.016	0.100
764.500	-36.563	0.100
764.600	-54.560	0.100
764.700	-42.593	0.100
764.800	-44.169	0.100
764.900	-36.215	0.100
765.000	-29.544	0.100
765.100	-25.496	0.100
765.200	-47.674	0.099
765.300	-28.725	0.100
765.400	-49.835	0.100
765.500	-36.912	0.100
765.600	-37.536	0.100
765.700	-38.889	0.100
765.800	-39.636	0.100
765.900	-36.226	0.099
766.000	-45.386	0.100
766.100	-33.438	0.100
766.200	-40.341	0.099
766.300	-39.981	0.100
766.400	-34.351	0.100
766.500	-17.732	0.100
766.600	-33.514	0.100
766.700	-35.207	0.100
766.800	-37.056	0.100
766.900	-34.481	0.100
767.000	-49.072	0.099
767.100	-40.640	0.100
767.200	-35.588	0.099
767.300	-29.102	0.100
767.400	-27.360	0.100
767.500	-44.047	0.100
767.600	-33.517	0.099
767.700	-49.365	0.099
767.800	-46.851	0.099
767.900	-37.188	0.099
768.000	-28.694	0.100
768.100	-37.340	0.100
768.200	-28.978	0.100
768.300	-26.513	0.099
768.400	-32.086	0.100
768.500	-33.225	0.099
768.600	-42.077	0.099
768.700	-32.578	0.100
768.800	-46.065	0.099
768.900	-30.323	0.100
769.000	-39.951	0.099
769.100	-22.305	0.100
769.200	-35.703	0.100
769.300	-32.547	0.099
769.400	-36.247	0.099
769.500	-47.104	0.100
769.600	-36.263	0.100
769.700	-25.588	0.099
769.800	-22.125	0.099
769.900	-43.790	0.099
770.000	-37.730	0.100
770.100	-40.846	0.100
770.200	-34.947	0.100
770.300	-27.664	0.099
770.400	-18.969	0.100
770.500	-31.498	0.100
770.600	-36.045	0.100
770.700	-37.176	0.100
770.800	-33.378	0.099
770.900	-35.704	0.100
771.000	-31.865	0.099
771.100	-36.492	0.100
771.200	-36.385	0.099
771.300	-32.057	0.100
771.400	-22.120	0.100
771.500	-31.163	0.099
771.600	-37.749	0.100
771.700	-38.640	0.100
771.800	-32.933	0.100
771.900	-41.004	0.100
772.000	-36.277	0.100
772.100	-23.633	0.100
772.200	-26.501	0.099
772.300	-45.835	0.100
772.400	-40.619	0.100
772.500	-38.102	0.100
772.600	-41.706	0.100
772.700	-35.157	0.099
772.800	-25.574	0.100
772.900	-30.799	0.100
773.000	-30.554	0.100
773.100	-32.221	0.099
773.200	-27.556	0.100
773.300	-43.907	0.099
773.400	-36.813	0.100
773.500	-38.332	0.100
773.600	-37.257	0.100
773.700	-31.931	0.099
773.800	-32.615	0.100
773.900	-35.390	0.099
774.000	-30.277	0.100
774.100	-26.261	0.100
774.200	-27.888	0.100
774.300	-33.133	0.099
774.400	-23.139	0.100
774.500	-28.725	0.100
774.600	-43.143	0.100
774.700	-52.734	0.100
774.800	-30.661	0.100
774.900	-35.137	0.100
775.000	-35.817	0.100
775.100	-37.154	0.100
775.200	-36.546	0.099
775.300	-33.099	0.099
775.400	-29.026	0.100
775.500	-30.152	0.100
775.600	-30.412	0.099
775.700	-32.447	0.100
775.800	-29.183	0.100
775.900	-30.150	0.100
776.000	-42.310	0.100
776.100	-31.874	0.100
776.200	-32.893	0.100
776.300	-26.455	0.100
776.400	-32.568	0.100
776.500	-41.121	0.100
776.600	-37.128	0.100
776.700	-41.136	0.100
776.800	-35.463	0.100
776.900	-22.798	0.100
777.000	-35.533	0.100
777.100	-32.356	0.100
777.200	-31.933	0.100
777.300	-40.763	0.100
777.400	-37.220	0.099
777.500	-30.694	0.100
777.600	-36.091	0.100
777.700	-31.357	0.100
777.800	-19.758	0.099
777.900	-31.858	0.100
778.000	-34.687	0.100
778.100	-40.674	0.100
778.200	-20.344	0.100
778.300	-19.499	0.100
778.400	-40.898	0.099
778.500	-32.198	0.100
778.600	-36.200	0.100
778.700	-48.224	0.099
778.800	-33.285	0.099
778.900	-44.278	0.099
779.000	-34.708	0.100
779.100	-27.849	0.100
779.200	-28.865	0.100
779.300	-49.385	0.099
779.400	-36.474	0.099
779.500	-28.475	0.099
779.600	-47.892	0.099
779.700	-34.863	0.100
779.800	-33.923	0.100
779.900	-24.136	0.100
780.000	-7.361	0.099
780.100	5.075	0.099
780.200	8.362	0.100
780.300	22.536	0.099
780.400	32.910	0.100
780.500	39.190	0.100
780.600	43.749	0.099
780.700	48.725	0.099
780.800	41.265	0.099
780.900	38.064	0.100
781.000	44.899	0.099
781.100	53.410	0.099
781.200	44.346	0.099
781.300	44.964	0.100
781.400	42.401	0.100
781.500	36.866	0.099
781.600	37.516	0.099
781.700	40.055	0.099
781.800	44.177	0.100
781.900	35.999	0.099
782.000	42.066	0.099
782.100	24.712	0.100
782.200	42.359	0.100
782.300	34.244	0.100
782.400	36.417	0.100
782.500	33.543	0.099
782.600	37.290	0.099
782.700	28.521	0.099
782.800	32.781	0.099
782.900	22.948	0.099
783.000	38.068	0.100
783.100	36.361	0.099
783.200	20.480	0.099
783.300	35.223	0.099
783.400	33.774	0.099
783.500	27.357	0.100
783.600	35.925	0.100
783.700	21.016	0.100
783.800	27.797	0.100
783.900	20.653	0.100
784.000	43.675	0.099
784.100	35.296	0.100
784.200	24.162	0.100
784.300	31.780	0.100
784.400	18.131	0.100
784.500	17.312	0.100
784.600	22.245	0.100
784.700	40.700	0.100
784.800	35.619	0.100
784.900	33.831	0.100
785.000	37.961	0.099
785.100	25.381	0.100
785.200	22.001	0.100
785.300	21.619	0.100
785.400	41.638	0.100
785.500	49.485	0.100
785.600	24.576	0.100
785.700	23.566	0.100
785.800	48.378	0.100
785.900	33.138	0.100
786.000	38.308	0.100
786.100	45.262	0.100
786.200	35.872	0.100
786.300	39.902	0.099
786.400	41.063	0.100
786.500	39.316	0.100
786.600	41.536	0.099
786.700	49.447	0.100
786.800	53.042	0.099
786.900	41.409	0.100
787.000	49.355	0.100
787.100	43.353	0.099
787.200	64.610	0.099
787.300	42.374	0.099
787.400	41.338	0.100
787.500	45.384	0.100
787.600	64.644	0.099
787.700	58.418	0.100
787.800	50.399	0.100
787.900	61.861	0.100
788.000	55.302	0.100
788.100	66.852	0.100
788.200	50.439	0.100
788.300	66.425	0.100
788.400	59.051	0.099
788.500	65.935	0.100
788.600	55.812	0.100
788.700	67.117	0.100
788.800	49.265	0.100
788.900	63.419	0.100
789.000	56.731	0.100
789.100	61.283	0.099
789.200	49.482	0.100
789.300	75.226	0.099
789.400	68.253	0.099
789.500	66.097	0.100
789.600	65.305	0.099
789.700	74.854	0.100
789.800	67.741	0.099
789.900	54.279	0.099
790.000	56.917	0.100
790.100	70.603	0.100
790.200	69.544	0.099
790.300	62.381	0.100
790.400	60.547	0.100
790.500	73.132	0.099
790.600	53.798	0.100
790.700	67.790	0.100
790.800	79.516	0.100
790.900	70.953	0.100
791.000	70.005	0.099
791.100	74.017	0.100
791.200	67.450	0.099
791.300	70.791	0.100
791.400	77.666	0.100
791.500	60.800	0.100
791.600	63.026	0.100
791.700	76.578	0.100
791.800	60.823	0.100
791.900	68.009	0.099
792.000	55.202	0.099
792.100	76.376	0.100
792.200	73.903	0.100
792.300	71.801	0.100
792.400	72.632	0.099
792.500	59.273	0.100
792.600	67.171	0.099
792.700	64.314	0.099
792.800	72.222	0.099
792.900	71.507	0.100
793.000	75.507	0.100
793.100	73.941	0.100
793.200	73.174	0.100
793.300	78.153	0.100
793.400	54.841	0.100
793.500	73.329	0.099
793.600	56.438	0.099
793.700	74.889	0.099
793.800	68.708	0.100
793.900	76.973	0.100
794.000	68.919	0.099
794.100	63.123	0.099
794.200	74.972	0.100
794.300	72.613	0.099
794.400	66.798	0.100
794.500	69.469	0.099
794.600	74.414	0.100
794.700	65.998	0.100
794.800	71.408	0.099
794.900	68.219	0.099
795.000	71.639	0.100
795.100	73.580	0.100
795.200	75.695	0.099
795.300	74.876	0.100
795.400	65.429	0.100
795.500	60.205	0.099
795.600	81.426	0.099
795.700	81.971	0.100
795.800	71.382	0.100
795.900	84.795	0.099
796.000	76.313	0.099
796.100	61.304	0.100
796.200	67.696	0.099
796.300	66.975	0.099
796.400	80.286	0.099
796.500	67.844	0.099
796.600	78.199	0.099
796.700	78.903	0.099
796.800	78.263	0.100
796.900	71.724	0.099
797.000	65.156	0.100
797.100	78.818	0.099
797.200	60.474	0.100
797.300	61.787	0.099
797.400	74.529	0.099
797.500	62.269	0.100
797.600	61.746	0.099
797.700	77.433	0.100
797.800	80.654	0.099
797.900	76.465	0.100
798.000	68.899	0.099
798.100	73.398	0.099
798.200	60.799	0.100
798.300	67.135	0.100
798.400	72.174	0.100
798.500	70.336	0.100
798.600	65.779	0.100
798.700	70.437	0.099
798.800	72.053	0.099
798.900	79.452	0.100
799.000	67.755	0.099
799.100	57.790	0.099
799.200	70.392	0.100
799.300	65.656	0.100
799.400	72.975	0.100
799.500	78.215	0.100
799.600	63.111	0.100
799.700	85.876	0.100
799.800	64.454	0.100
799.900	69.921	0.100
800.000	62.935	0.100
