time /s	I /nA	E /V
0.100	-25.963	0.100
0.200	-21.084	0.100
0.300	-30.127	0.100
0.400	-22.137	0.100
0.500	-32.811	0.100
0.600	-18.363	0.100
0.700	-16.954	0.100
0.800	-22.571	0.100
0.900	-38.485	0.100
1.000	-19.191	0.100
1.100	-19.114	0.100
1.200	-18.662	0.100
1.300	-22.101	0.100
1.400	-31.907	0.100
1.500	-14.548	0.100
1.600	-30.210	0.100
1.700	-17.436	0.100
1.800	-23.776	0.100
1.900	-33.760	0.100
2.000	-11.963	0.100
2.100	-20.152	0.100
2.200	-20.114	0.100
2.300	-26.823	0.100
2.400	-22.964	0.100
2.500	-11.955	0.100
2.600	-17.631	0.100
2.700	-31.459	0.100
2.800	-25.389	0.100
2.900	-23.282	0.100
3.000	-14.460	0.100
3.100	-27.351	0.100
3.200	-31.321	0.100
3.300	-27.794	0.100
3.400	-24.547	0.100
3.500	-18.330	0.100
3.600	-27.578	0.100
3.700	-14.288	0.100
3.800	-26.239	0.100
3.900	-24.782	0.100
4.000	-22.358	0.100
4.100	-23.784	0.100
4.200	-14.329	0.100
4.300	-21.065	0.100
4.400	-15.519	0.100
4.500	-33.301	0.100
4.600	-29.143	0.100
4.700	-26.885	0.100
4.800	-37.233	0.100
4.900	-30.439	0.100
5.000	-25.863	0.100
5.100	-25.641	0.100
5.200	-27.701	0.100
5.300	-20.277	0.100
5.400	-37.270	0.100
5.500	-17.235	0.100
5.600	-18.368	0.100
5.700	-29.351	0.100
5.800	-25.196	0.100
5.900	-28.571	0.100
6.000	-19.005	0.100
6.100	-15.592	0.100
6.200	-26.721	0.100
6.300	-19.446	0.100
6.400	-22.890	0.100
6.500	-33.241	0.100
6.600	-38.655	0.100
6.700	-13.647	0.100
6.800	-10.101	0.100
6.900	-16.518	0.100
7.000	-14.718	0.100
7.100	-35.353	0.100
7.200	-39.895	0.100
7.300	-17.538	0.100
7.400	-30.862	0.100
7.500	-30.940	0.100
7.600	-13.560	0.100
7.700	-31.433	0.100
7.800	-26.528	0.100
7.900	-16.759	0.100
8.000	-14.401	0.100
8.100	-25.492	0.100
8.200	-33.442	0.100
8.300	-16.574	0.100
8.400	-24.872	0.100
8.500	-24.109	0.100
8.600	-24.910	0.100
8.700	-21.626	0.100
8.800	-12.940	0.100
8.900	-13.872	0.100
9.000	-15.422	0.100
9.100	-39.039	0.100
9.200	-34.880	0.100
9.300	-15.817	0.100
9.400	-19.379	0.100
9.500	-20.248	0.100
9.600	-23.903	0.100
9.700	-31.767	0.100
9.800	-20.124	0.100
9.900	-26.687	0.100
10.000	-20.136	0.100
10.100	-33.289	0.100
10.200	-19.497	0.100
10.300	-16.038	0.100
10.400	-12.435	0.100
10.500	-20.965	0.100
10.600	-21.180	0.100
10.700	-22.592	0.100
10.800	-24.321	0.100
10.900	-41.010	0.100
11.000	-14.121	0.100
11.100	-24.414	0.100
11.200	-30.595	0.100
11.300	-0.237	0.100
11.400	-14.353	0.100
11.500	-10.816	0.100
11.600	-25.382	0.100
11.700	-28.512	0.100
11.800	-22.521	0.100
11.900	-37.976	0.100
12.000	-19.361	0.100
12.100	-19.831	0.100
12.200	-22.714	0.100
12.300	-10.330	0.100
12.400	-27.408	0.100
12.500	-29.118	0.100
12.600	-35.288	0.100
12.700	-16.800	0.100
12.800	-29.873	0.100
12.900	-24.278	0.100
13.000	-29.443	0.100
13.100	-17.466	0.100
13.200	-16.202	0.100
13.300	-18.337	0.100
13.400	-32.486	0.100
13.500	-20.621	0.100
13.600	-16.820	0.100
13.700	-12.270	0.100
13.800	-29.572	0.100
13.900	-25.857	0.100
14.000	-20.672	0.100
14.100	-35.210	0.100
14.200	-25.932	0.100
14.300	-20.370	0.100
14.400	-27.617	0.100
14.500	-26.537	0.100
14.600	-26.957	0.100
14.700	-26.593	0.100
14.800	-28.756	0.100
14.900	-20.555	0.100
15.000	-20.328	0.100
15.100	-25.256	0.100
15.200	-25.066	0.100
15.300	-9.092	0.100
15.400	-6.250	0.100
15.500	-25.393	0.100
15.600	-20.951	0.100
15.700	-17.009	0.100
15.800	-10.686	0.100
15.900	-24.346	0.100
16.000	-27.724	0.100
16.100	-23.591	0.100
16.200	-23.564	0.100
16.300	-20.987	0.100
16.400	-27.241	0.100
16.500	-31.347	0.100
16.600	-23.770	0.100
16.700	-18.382	0.100
16.800	-32.418	0.100
16.900	-18.099	0.100
17.000	-20.815	0.100
17.100	-30.835	0.100
17.200	-18.048	0.100
17.300	-16.658	0.100
17.400	-26.020	0.100
17.500	-36.191	0.100
17.600	-30.612	0.100
17.700	-19.681	0.100
17.800	-23.749	0.100
17.900	-32.923	0.100
18.000	-16.194	0.100
18.100	-20.977	0.100
18.200	-21.291	0.100
18.300	-19.452	0.100
18.400	-38.373	0.100
18.500	-36.187	0.100
18.600	-26.858	0.100
18.700	-15.657	0.100
18.800	-13.241	0.100
18.900	-22.533	0.100
19.000	-15.169	0.099
19.100	-16.949	0.100
19.200	-23.782	0.100
19.300	-27.157	0.100
19.400	-21.555	0.100
19.500	-21.296	0.100
19.600	-21.800	0.100
19.700	-30.016	0.100
19.800	-30.080	0.100
19.900	-19.849	0.100
20.000	-20.374	0.100
20.100	-38.657	0.100
20.200	-24.759	0.100
20.300	-24.561	0.100
20.400	-29.685	0.100
20.500	-28.340	0.100
20.600	-34.480	0.100
20.700	-23.644	0.100
20.800	-21.339	0.100
20.900	-14.464	0.100
21.000	-41.473	0.100
21.100	-12.790	0.100
21.200	-15.757	0.100
21.300	-25.242	0.100
21.400	-20.931	0.100
21.500	-24.707	0.100
21.600	-27.326	0.100
21.700	-30.213	0.100
21.800	-26.176	0.100
21.900	-8.274	0.100
22.000	-26.473	0.100
22.100	-3.925	0.100
22.200	-10.250	0.100
22.300	-12.481	0.100
22.400	-32.694	0.100
22.500	-22.658	0.100
22.600	-32.860	0.100
22.700	-18.297	0.100
22.800	-17.862	0.100
22.900	-23.978	0.100
23.000	-13.086	0.100
23.100	-38.215	0.100
23.200	-26.853	0.100
23.300	-14.182	0.100
23.400	-22.893	0.100
23.500	-23.037	0.099
23.600	-32.087	0.100
23.700	-27.149	0.100
23.800	-30.563	0.100
23.900	-12.060	0.100
24.000	-30.062	0.100
24.100	-18.549	0.100
24.200	-17.268	0.100
24.300	-12.257	0.100
24.400	-35.387	0.100
24.500	-18.429	0.100
24.600	-25.513	0.100
24.700	-15.094	0.100
24.800	-10.704	0.100
24.900	-18.082	0.100
25.000	-15.167	0.100
25.100	-15.489	0.100
25.200	-26.333	0.100
25.300	-32.621	0.100
25.400	-8.765	0.100
25.500	-22.628	0.100
25.600	-16.789	0.100
25.700	-29.402	0.100
25.800	-18.907	0.100
25.900	-23.812	0.100
26.000	-27.332	0.100
26.100	-36.322	0.100
26.200	-27.958	0.100
26.300	-21.051	0.100
26.400	-15.580	0.100
26.500	-28.014	0.100
26.600	-22.059	0.100
26.700	-22.105	0.100
26.800	-41.201	0.100
26.900	-27.210	0.100
27.000	-4.817	0.100
27.100	-21.577	0.100
27.200	-21.486	0.100
27.300	-24.141	0.100
27.400	-31.797	0.100
27.500	-20.777	0.100
27.600	-28.362	0.100
27.700	-14.480	0.100
27.800	-16.834	0.100
27.900	-38.096	0.100
28.000	-13.793	0.100
28.100	-25.419	0.100
28.200	-21.781	0.100
28.300	-8.866	0.100
28.400	-23.073	0.100
28.500	-20.914	0.100
28.600	-19.565	0.100
28.700	-37.244	0.100
28.800	-8.873	0.100
28.900	-4.839	0.100
29.000	-14.415	0.100
29.100	-15.623	0.100
29.200	-25.065	0.100
29.300	-21.618	0.100
29.400	-16.749	0.100
29.500	-27.057	0.100
29.600	-19.184	0.100
29.700	-30.533	0.100
29.800	-22.306	0.100
29.900	-27.878	0.100
30.000	-22.946	0.100
30.100	-18.107	0.100
30.200	-13.965	0.100
30.300	-20.157	0.100
30.400	-24.078	0.100
30.500	-13.597	0.100
30.600	-17.256	0.100
30.700	-20.674	0.100
30.800	-7.386	0.100
30.900	0.878	0.100
31.000	-14.095	0.100
31.100	3.504	0.100
31.200	14.090	0.100
31.300	18.180	0.100
31.400	17.528	0.100
31.500	11.009	0.100
31.600	18.053	0.100
31.700	19.420	0.100
31.800	12.964	0.100
31.900	10.650	0.100
32.000	12.236	0.100
32.100	23.847	0.100
32.200	13.806	0.100
32.300	11.881	0.100
32.400	8.207	0.100
32.500	10.293	0.100
32.600	11.071	0.100
32.700	-1.104	0.100
32.800	24.268	0.100
32.900	10.540	0.100
33.000	10.844	0.099
33.100	14.110	0.100
33.200	-0.210	0.100
33.300	8.828	0.100
33.400	12.815	0.100
33.500	9.383	0.100
33.600	8.667	0.100
33.700	-2.202	0.100
33.800	24.619	0.100
33.900	11.815	0.100
34.000	10.320	0.100
34.100	2.692	0.100
34.200	4.891	0.100
34.300	-8.808	0.100
34.400	-1.939	0.100
34.500	19.845	0.100
34.600	10.730	0.100
34.700	9.753	0.100
34.800	10.345	0.100
34.900	3.616	0.100
35.000	-9.087	0.100
35.100	10.757	0.100
35.200	11.820	0.100
35.300	8.133	0.100
35.400	3.695	0.100
35.500	-1.257	0.100
35.600	0.328	0.100
35.700	5.709	0.100
35.800	2.216	0.100
35.900	2.227	0.100
36.000	1.720	0.100
36.100	-1.396	0.100
36.200	2.392	0.100
36.300	8.115	0.100
36.400	7.619	0.100
36.500	-5.154	0.100
36.600	6.997	0.100
36.700	17.475	0.100
36.800	2.571	0.100
36.900	11.655	0.100
37.000	-4.790	0.100
37.100	-2.001	0.100
37.200	0.016	0.100
37.300	1.138	0.100
37.400	1.593	0.100
37.500	7.576	0.100
37.600	16.160	0.100
37.700	-3.537	0.100
37.800	8.871	0.100
37.900	14.211	0.100
38.000	8.177	0.100
38.100	4.311	0.100
38.200	6.235	0.100
38.300	7.858	0.100
38.400	-6.206	0.100
38.500	-0.708	0.100
38.600	2.255	0.100
38.700	-3.431	0.100
38.800	7.518	0.100
38.900	-0.145	0.100
39.000	17.429	0.100
39.100	13.265	0.100
39.200	5.847	0.100
39.300	10.884	0.100
39.400	8.205	0.100
39.500	10.686	0.100
39.600	-5.079	0.100
39.700	-2.496	0.100
39.800	13.202	0.100
39.900	-0.518	0.100
40.000	3.247	0.100
40.100	13.096	0.100
40.200	2.691	0.100
40.300	18.348	0.100
40.400	15.704	0.100
40.500	13.005	0.100
40.600	6.929	0.100
40.700	5.119	0.100
40.800	6.535	0.100
40.900	4.668	0.100
41.000	6.909	0.100
41.100	11.916	0.100
41.200	-11.842	0.100
41.300	-7.085	0.100
41.400	17.805	0.100
41.500	-0.189	0.100
41.600	9.747	0.100
41.700	19.196	0.100
41.800	18.855	0.100
41.900	-2.478	0.100
42.000	21.346	0.100
42.100	14.806	0.100
42.200	-5.748	0.100
42.300	2.418	0.100
42.400	11.692	0.100
42.500	5.964	0.100
42.600	1.530	0.100
42.700	8.293	0.100
42.800	16.188	0.100
42.900	19.743	0.100
43.000	6.844	0.100
43.100	-2.459	0.100
43.200	4.779	0.100
43.300	11.889	0.100
43.400	18.829	0.100
43.500	14.112	0.100
43.600	15.144	0.100
43.700	14.995	0.100
43.800	11.311	0.100
43.900	5.455	0.100
44.000	13.598	0.100
44.100	10.823	0.100
44.200	18.606	0.100
44.300	10.372	0.100
44.400	11.576	0.100
44.500	13.460	0.100
44.600	0.510	0.100
44.700	8.276	0.100
44.800	19.777	0.100
44.900	11.339	0.100
45.000	16.454	0.100
45.100	9.880	0.100
45.200	12.918	0.100
45.300	-1.182	0.100
45.400	14.818	0.100
45.500	20.553	0.100
45.600	22.950	0.100
45.700	1.530	0.100
45.800	-3.716	0.100
45.900	18.486	0.100
46.000	-3.613	0.100
46.100	26.643	0.100
46.200	10.908	0.100
46.300	13.935	0.100
46.400	16.308	0.100
46.500	14.798	0.100
46.600	12.133	0.100
46.700	12.208	0.100
46.800	11.593	0.100
46.900	5.834	0.100
47.000	21.454	0.100
47.100	11.571	0.100
47.200	14.988	0.100
47.300	11.622	0.100
47.400	9.746	0.100
47.500	5.195	0.100
47.600	4.823	0.100
47.700	25.292	0.100
47.800	12.007	0.100
47.900	16.800	0.100
48.000	23.284	0.100
48.100	20.457	0.100
48.200	4.792	0.100
48.300	16.040	0.100
48.400	2.698	0.100
48.500	10.267	0.100
48.600	10.793	0.100
48.700	23.778	0.100
48.800	22.656	0.100
48.900	23.967	0.100
49.000	23.976	0.100
49.100	21.753	0.100
49.200	11.366	0.100
49.300	16.791	0.100
49.400	6.063	0.100
49.500	-2.877	0.100
49.600	30.057	0.100
49.700	22.864	0.100
49.800	18.257	0.100
49.900	26.865	0.100
50.000	14.712	0.100
50.100	12.915	0.100
50.200	30.235	0.100
50.300	16.658	0.100
50.400	16.982	0.100
50.500	19.578	0.100
50.600	19.564	0.100
50.700	23.352	0.100
50.800	22.051	0.100
50.900	15.807	0.100
51.000	14.083	0.100
51.100	9.257	0.100
51.200	22.674	0.100
51.300	24.617	0.100
51.400	27.313	0.100
51.500	7.448	0.100
51.600	22.277	0.100
51.700	24.233	0.100
51.800	14.855	0.100
51.900	16.999	0.100
52.000	18.141	0.100
52.100	44.220	0.100
52.200	22.646	0.100
52.300	19.791	0.100
52.400	23.693	0.100
52.500	15.010	0.100
52.600	27.978	0.100
52.700	25.055	0.100
52.800	19.355	0.100
52.900	24.746	0.100
53.000	27.942	0.100
53.100	22.803	0.100
53.200	34.078	0.100
53.300	22.331	0.100
53.400	33.422	0.100
53.500	8.697	0.100
53.600	18.828	0.100
53.700	20.346	0.100
53.800	41.748	0.100
53.900	21.603	0.100
54.000	37.934	0.100
54.100	9.106	0.100
54.200	24.910	0.100
54.300	27.744	0.100
54.400	29.784	0.100
54.500	20.394	0.100
54.600	22.602	0.100
54.700	31.164	0.100
54.800	24.648	0.100
54.900	28.854	0.100
55.000	22.949	0.100
55.100	29.089	0.100
55.200	31.167	0.100
55.300	37.372	0.100
55.400	25.714	0.100
55.500	24.973	0.100
55.600	27.103	0.100
55.700	31.264	0.100
55.800	26.200	0.100
55.900	30.005	0.100
56.000	31.184	0.100
56.100	17.453	0.100
56.200	20.866	0.100
56.300	27.493	0.100
56.400	47.422	0.100
56.500	41.100	0.100
56.600	28.812	0.100
56.700	31.892	0.100
56.800	24.563	0.100
56.900	39.280	0.100
57.000	14.393	0.100
57.100	39.463	0.100
57.200	32.146	0.100
57.300	25.117	0.100
57.400	31.779	0.100
57.500	24.327	0.100
57.600	37.654	0.100
57.700	36.175	0.100
57.800	31.798	0.100
57.900	45.058	0.100
58.000	40.265	0.100
58.100	32.020	0.100
58.200	21.775	0.100
58.300	46.781	0.100
58.400	34.081	0.100
58.500	37.985	0.100
58.600	30.378	0.100
58.700	31.144	0.100
58.800	25.149	0.100
58.900	30.250	0.100
59.000	34.031	0.100
59.100	38.243	0.100
59.200	32.281	0.100
59.300	35.692	0.100
59.400	28.505	0.100
59.500	26.128	0.100
59.600	54.535	0.100
59.700	41.237	0.100
59.800	26.782	0.100
59.900	29.917	0.100
60.000	23.756	0.100
60.100	41.644	0.100
60.200	22.780	0.100
60.300	56.657	0.100
60.400	48.560	0.100
60.500	37.419	0.100
60.600	34.277	0.100
60.700	37.729	0.100
60.800	27.834	0.100
60.900	35.859	0.100
61.000	35.672	0.100
61.100	30.727	0.100
61.200	28.696	0.100
61.300	56.391	0.100
61.400	32.552	0.100
61.500	41.881	0.100
61.600	51.362	0.100
61.700	42.151	0.100
61.800	42.381	0.100
61.900	38.344	0.100
62.000	39.174	0.100
62.100	33.856	0.100
62.200	42.119	0.100
62.300	39.947	0.100
62.400	30.588	0.100
62.500	52.014	0.100
62.600	37.775	0.100
62.700	45.984	0.100
62.800	43.275	0.100
62.900	49.236	0.100
63.000	31.116	0.100
63.100	27.245	0.100
63.200	55.097	0.099
63.300	42.376	0.100
63.400	52.254	0.100
63.500	45.374	0.100
63.600	52.167	0.100
63.700	46.658	0.100
63.800	39.450	0.100
63.900	40.457	0.100
64.000	34.513	0.100
64.100	36.479	0.100
64.200	37.643	0.100
64.300	48.060	0.100
64.400	49.772	0.100
64.500	41.912	0.100
64.600	35.323	0.100
64.700	13.246	0.100
64.800	41.710	0.100
64.900	61.977	0.100
65.000	49.478	0.100
65.100	45.138	0.100
65.200	37.143	0.100
65.300	58.108	0.100
65.400	40.918	0.100
65.500	49.246	0.100
65.600	38.960	0.100
65.700	38.575	0.100
65.800	59.482	0.100
65.900	34.561	0.100
66.000	51.662	0.100
66.100	48.251	0.100
66.200	24.771	0.100
66.300	50.458	0.100
66.400	43.384	0.100
66.500	48.589	0.100
66.600	47.004	0.100
66.700	53.303	0.100
66.800	40.884	0.100
66.900	39.235	0.100
67.000	38.940	0.100
67.100	36.550	0.100
67.200	50.150	0.100
67.300	50.662	0.100
67.400	46.745	0.100
67.500	48.169	0.100
67.600	31.713	0.100
67.700	58.227	0.100
67.800	40.142	0.100
67.900	61.345	0.100
68.000	50.054	0.100
68.100	40.466	0.100
68.200	52.379	0.100
68.300	43.079	0.100
68.400	48.518	0.100
68.500	47.768	0.100
68.600	34.459	0.100
68.700	49.345	0.100
68.800	33.018	0.100
68.900	38.906	0.100
69.000	54.102	0.100
69.100	50.998	0.100
69.200	57.607	0.100
69.300	45.519	0.100
69.400	40.043	0.100
69.500	47.839	0.100
69.600	55.508	0.100
69.700	46.369	0.100
69.800	47.534	0.100
69.900	36.998	0.100
70.000	54.877	0.100
70.100	52.262	0.100
70.200	45.695	0.100
70.300	43.159	0.100
70.400	35.918	0.100
70.500	42.086	0.100
70.600	46.953	0.100
70.700	40.071	0.100
70.800	36.168	0.100
70.900	36.895	0.100
71.000	36.145	0.100
71.100	55.424	0.100
71.200	55.938	0.100
71.300	50.997	0.100
71.400	45.867	0.100
71.500	51.962	0.100
71.600	49.076	0.100
71.700	31.656	0.100
71.800	55.192	0.100
71.900	51.254	0.100
72.000	54.647	0.100
72.100	39.993	0.100
72.200	42.513	0.100
72.300	35.211	0.100
72.400	42.790	0.100
72.500	62.099	0.100
72.600	51.728	0.100
72.700	46.425	0.100
72.800	47.970	0.100
72.900	42.493	0.100
73.000	48.253	0.100
73.100	45.113	0.100
73.200	41.342	0.100
73.300	43.312	0.100
73.400	55.917	0.100
73.500	43.309	0.100
73.600	51.730	0.100
73.700	42.815	0.100
73.800	44.130	0.100
73.900	52.005	0.100
74.000	40.613	0.100
74.100	49.051	0.100
74.200	52.461	0.100
74.300	46.337	0.100
74.400	47.237	0.100
74.500	56.637	0.100
74.600	37.353	0.100
74.700	39.503	0.100
74.800	53.780	0.100
74.900	47.413	0.100
75.000	52.583	0.100
75.100	60.815	0.100
75.200	44.663	0.100
75.300	37.269	0.100
75.400	40.256	0.100
75.500	46.809	0.100
75.600	48.689	0.100
75.700	44.696	0.100
75.800	36.689	0.100
75.900	49.775	0.100
76.000	46.973	0.100
76.100	44.887	0.100
76.200	51.327	0.100
76.300	42.824	0.100
76.400	39.470	0.100
76.500	40.207	0.100
76.600	34.137	0.100
76.700	43.653	0.100
76.800	53.480	0.100
76.900	45.268	0.100
77.000	45.980	0.100
77.100	42.480	0.100
77.200	43.756	0.100
77.300	38.165	0.100
77.400	53.319	0.100
77.500	47.413	0.100
77.600	38.865	0.100
77.700	43.807	0.100
77.800	46.760	0.100
77.900	36.796	0.100
78.000	26.530	0.100
78.100	44.602	0.100
78.200	52.324	0.100
78.300	34.650	0.100
78.400	51.089	0.100
78.500	53.807	0.100
78.600	35.225	0.100
78.700	42.891	0.100
78.800	41.296	0.100
78.900	67.095	0.100
79.000	46.323	0.100
79.100	49.416	0.100
79.200	46.126	0.100
79.300	26.602	0.100
79.400	40.486	0.100
79.500	32.443	0.100
79.600	49.089	0.100
79.700	37.776	0.100
79.800	34.750	0.100
79.900	36.396	0.100
80.000	46.898	0.100
80.100	38.262	0.100
80.200	44.469	0.100
80.300	58.558	0.100
80.400	37.222	0.100
80.500	45.922	0.100
80.600	46.479	0.100
80.700	41.919	0.100
80.800	44.127	0.100
80.900	43.295	0.100
81.000	38.996	0.100
81.100	37.763	0.100
81.200	51.208	0.100
81.300	45.866	0.100
81.400	36.309	0.100
81.500	61.599	0.100
81.600	35.495	0.100
81.700	44.201	0.100
81.800	42.046	0.100
81.900	38.271	0.100
82.000	43.434	0.100
82.100	39.040	0.100
82.200	49.340	0.100
82.300	35.473	0.100
82.400	44.351	0.100
82.500	33.032	0.100
82.600	48.722	0.100
82.700	51.206	0.100
82.800	33.496	0.100
82.900	45.963	0.100
83.000	57.094	0.100
83.100	45.430	0.100
83.200	47.053	0.100
83.300	51.471	0.100
83.400	55.051	0.100
83.500	33.980	0.100
83.600	38.759	0.100
83.700	49.088	0.100
83.800	42.112	0.100
83.900	43.115	0.100
84.000	45.447	0.100
84.100	34.745	0.100
84.200	42.675	0.100
84.300	53.408	0.100
84.400	45.607	0.100
84.500	33.221	0.100
84.600	52.754	0.100
84.700	41.604	0.100
84.800	47.245	0.100
84.900	51.773	0.100
85.000	49.185	0.100
85.100	43.930	0.100
85.200	35.911	0.100
85.300	45.999	0.100
85.400	38.814	0.100
85.500	37.412	0.100
85.600	50.298	0.100
85.700	42.047	0.100
85.800	36.073	0.100
85.900	47.770	0.100
86.000	48.927	0.100
86.100	27.802	0.100
86.200	36.653	0.100
86.300	49.128	0.100
86.400	37.694	0.100
86.500	31.803	0.100
86.600	60.000	0.100
86.700	45.227	0.100
86.800	42.935	0.100
86.900	38.229	0.100
87.000	39.425	0.100
87.100	44.114	0.100
87.200	52.067	0.100
87.300	49.276	0.100
87.400	40.577	0.100
87.500	47.578	0.100
87.600	47.336	0.100
87.700	54.148	0.100
87.800	47.621	0.100
87.900	25.678	0.100
88.000	42.705	0.100
88.100	38.693	0.100
88.200	51.150	0.100
88.300	50.051	0.100
88.400	42.818	0.100
88.500	35.600	0.100
88.600	33.534	0.100
88.700	41.301	0.100
88.800	40.693	0.100
88.900	42.857	0.100
89.000	30.588	0.100
89.100	34.252	0.100
89.200	36.650	0.100
89.300	41.414	0.100
89.400	46.059	0.100
89.500	38.447	0.100
89.600	35.171	0.100
89.700	43.195	0.100
89.800	33.022	0.100
89.900	49.473	0.100
90.000	32.123	0.100
90.100	53.528	0.100
90.200	49.764	0.100
90.300	38.161	0.100
90.400	30.568	0.100
90.500	23.072	0.100
90.600	38.863	0.100
90.700	28.284	0.100
90.800	29.893	0.100
90.900	24.953	0.100
91.000	33.931	0.100
91.100	12.028	0.100
91.200	8.789	0.100
91.300	11.734	0.100
91.400	12.642	0.100
91.500	18.724	0.100
91.600	8.590	0.100
91.700	2.460	0.100
91.800	5.683	0.100
91.900	-2.673	0.099
92.000	8.333	0.100
92.100	-5.395	0.100
92.200	9.197	0.100
92.300	7.898	0.100
92.400	-5.226	0.100
92.500	-9.359	0.100
92.600	-8.644	0.100
92.700	-6.273	0.100
92.800	1.810	0.100
92.900	-0.803	0.100
93.000	-5.335	0.100
93.100	-2.207	0.100
93.200	-3.402	0.100
93.300	-24.668	0.100
93.400	-12.070	0.100
93.500	-2.974	0.100
93.600	-4.216	0.100
93.700	-1.361	0.100
93.800	-1.034	0.100
93.900	-6.735	0.100
94.000	1.269	0.100
94.100	-7.662	0.100
94.200	-12.882	0.100
94.300	-14.141	0.100
94.400	-0.838	0.100
94.500	-1.764	0.100
94.600	-8.591	0.100
94.700	-21.636	0.100
94.800	2.864	0.100
94.900	-9.197	0.100
95.000	-16.594	0.100
95.100	-13.447	0.100
95.200	-10.197	0.100
95.300	-14.787	0.100
95.400	-9.814	0.100
95.500	-14.537	0.100
95.600	-10.471	0.100
95.700	-29.439	0.100
95.800	-5.269	0.100
95.900	-16.867	0.100
96.000	2.333	0.100
96.100	-30.196	0.100
96.200	-10.311	0.100
96.300	-6.787	0.100
96.400	-9.414	0.100
96.500	-17.323	0.100
96.600	-1.817	0.100
96.700	-26.103	0.100
96.800	-3.527	0.100
96.900	-6.918	0.100
97.000	-18.108	0.100
97.100	-0.394	0.100
97.200	-12.088	0.100
97.300	-12.619	0.100
97.400	-15.483	0.100
97.500	-7.344	0.100
97.600	-1.980	0.100
97.700	-2.218	0.100
97.800	-12.187	0.100
97.900	-4.264	0.100
98.000	-20.224	0.100
98.100	1.091	0.100
98.200	-3.330	0.100
98.300	-5.573	0.100
98.400	-10.325	0.100
98.500	-6.785	0.100
98.600	-6.704	0.100
98.700	-9.138	0.100
98.800	-4.446	0.100
98.900	-12.930	0.100
99.000	-14.335	0.100
99.100	-4.888	0.100
99.200	-11.084	0.100
99.300	-17.633	0.100
99.400	-6.369	0.100
99.500	-15.958	0.100
99.600	-34.397	0.100
99.700	-6.264	0.100
99.800	-18.879	0.100
99.900	-17.230	0.100
100.000	-10.954	0.100
100.100	-1.167	0.100
100.200	-13.842	0.100
100.300	-16.082	0.100
100.400	-16.465	0.100
100.500	-3.114	0.100
100.600	-7.441	0.100
100.700	-4.692	0.100
100.800	-11.487	0.100
100.900	-3.904	0.100
101.000	-7.764	0.100
101.100	-16.421	0.100
101.200	-13.515	0.099
101.300	-1.527	0.100
101.400	-14.068	0.100
101.500	-20.682	0.100
101.600	-16.178	0.100
101.700	-9.830	0.100
101.800	-14.336	0.100
101.900	-11.478	0.100
102.000	-15.587	0.100
102.100	-15.442	0.100
102.200	-4.532	0.100
102.300	-10.267	0.100
102.400	-34.073	0.100
102.500	-17.396	0.100
102.600	-15.296	0.100
102.700	-7.882	0.100
102.800	-22.328	0.100
102.900	-17.356	0.100
103.000	-5.778	0.100
103.100	-4.716	0.100
103.200	-16.846	0.100
103.300	-12.898	0.100
103.400	-19.418	0.100
103.500	-16.203	0.100
103.600	-19.828	0.100
103.700	-0.532	0.100
103.800	-25.806	0.100
103.900	-16.192	0.100
104.000	-30.082	0.099
104.100	-11.635	0.100
104.200	-13.075	0.100
104.300	-18.722	0.100
104.400	-10.800	0.100
104.500	-21.124	0.100
104.600	-26.178	0.100
104.700	-25.047	0.100
104.800	-10.041	0.100
104.900	-16.855	0.100
105.000	-14.918	0.100
105.100	-10.028	0.100
105.200	-6.683	0.100
105.300	-23.462	0.100
105.400	-25.861	0.100
105.500	-17.511	0.100
105.600	-15.201	0.100
105.700	-20.328	0.100
105.800	-13.010	0.100
105.900	-7.394	0.100
106.000	-26.653	0.100
106.100	-10.792	0.100
106.200	-23.651	0.100
106.300	-12.504	0.100
106.400	-18.471	0.100
106.500	-25.000	0.100
106.600	-11.338	0.100
106.700	-12.377	0.100
106.800	-35.134	0.099
106.900	-20.186	0.100
107.000	-18.111	0.100
107.100	-8.584	0.100
107.200	-21.107	0.100
107.300	-9.680	0.100
107.400	-23.810	0.100
107.500	-18.228	0.100
107.600	-20.419	0.100
107.700	-23.779	0.100
107.800	-20.356	0.100
107.900	-29.531	0.100
108.000	-28.999	0.100
108.100	-13.481	0.100
108.200	-23.244	0.100
108.300	-14.644	0.100
108.400	-5.357	0.100
108.500	-24.421	0.100
108.600	-12.078	0.100
108.700	-7.237	0.100
108.800	-21.392	0.100
108.900	-22.523	0.100
109.000	-31.097	0.100
109.100	-13.534	0.100
109.200	-10.326	0.100
109.300	-19.882	0.100
109.400	-20.366	0.100
109.500	-33.291	0.100
109.600	-24.447	0.100
109.700	-5.939	0.100
109.800	-21.747	0.100
109.900	-7.754	0.100
110.000	-11.436	0.100
110.100	-28.337	0.100
110.200	-14.278	0.100
110.300	-18.974	0.100
110.400	-21.283	0.100
110.500	-10.766	0.100
110.600	-17.418	0.100
110.700	-21.451	0.100
110.800	-13.676	0.100
110.900	-31.478	0.100
111.000	-23.151	0.100
111.100	-8.523	0.100
111.200	-19.116	0.100
111.300	-30.841	0.100
111.400	-19.025	0.100
111.500	-20.679	0.100
111.600	-23.731	0.100
111.700	-13.784	0.100
111.800	-27.386	0.100
111.900	-26.572	0.100
112.000	-21.447	0.100
112.100	-23.981	0.100
112.200	-26.230	0.099
112.300	-29.340	0.100
112.400	-26.082	0.100
112.500	-20.475	0.100
112.600	-32.594	0.100
112.700	-26.988	0.100
112.800	-11.783	0.100
112.900	-22.401	0.100
113.000	-19.707	0.100
113.100	-15.487	0.100
113.200	-25.861	0.100
113.300	-12.645	0.100
113.400	-25.720	0.100
113.500	-25.458	0.100
113.600	-27.986	0.100
113.700	-18.324	0.100
113.800	-22.078	0.100
113.900	-27.408	0.100
114.000	-19.458	0.100
114.100	-10.836	0.100
114.200	-25.874	0.100
114.300	-24.954	0.100
114.400	-30.251	0.100
114.500	-31.347	0.100
114.600	-27.630	0.100
114.700	-7.323	0.100
114.800	-21.879	0.100
114.900	-20.312	0.100
115.000	-16.771	0.100
115.100	-27.880	0.100
115.200	-22.922	0.100
115.300	-27.765	0.100
115.400	-17.945	0.100
115.500	-29.082	0.100
115.600	-23.444	0.100
115.700	-29.302	0.100
115.800	-19.187	0.100
115.900	-31.598	0.100
116.000	-26.995	0.100
116.100	-17.963	0.100
116.200	-20.444	0.100
116.300	-9.996	0.100
116.400	-24.797	0.100
116.500	-8.901	0.100
116.600	-33.850	0.100
116.700	-40.316	0.100
116.800	-12.860	0.100
116.900	-16.215	0.100
117.000	-32.132	0.100
117.100	-29.390	0.100
117.200	-7.687	0.100
117.300	-42.286	0.100
117.400	-17.666	0.100
117.500	-20.614	0.100
117.600	-27.089	0.100
117.700	-32.144	0.100
117.800	-13.822	0.100
117.900	-23.905	0.100
118.000	-23.103	0.100
118.100	-19.962	0.100
118.200	-32.460	0.100
118.300	-24.335	0.100
118.400	-12.950	0.100
118.500	-35.472	0.100
118.600	-25.448	0.100
118.700	-39.872	0.100
118.800	-29.632	0.100
118.900	-31.914	0.100
119.000	-20.133	0.100
119.100	-23.726	0.100
119.200	-21.467	0.100
119.300	-23.381	0.100
119.400	-19.016	0.100
119.500	-24.856	0.100
119.600	-31.218	0.100
119.700	-19.270	0.100
119.800	-33.014	0.100
119.900	-28.758	0.100
120.000	-23.314	0.100
120.100	-18.796	0.100
120.200	-32.014	0.100
120.300	-35.107	0.100
120.400	-15.840	0.100
120.500	-26.803	0.100
120.600	-37.292	0.100
120.700	-34.654	0.100
120.800	-13.645	0.100
120.900	-35.514	0.100
121.000	-24.073	0.100
121.100	-28.507	0.100
121.200	-33.539	0.100
121.300	-40.187	0.100
121.400	-24.889	0.100
121.500	-28.468	0.100
121.600	-28.039	0.100
121.700	-12.898	0.100
121.800	-14.654	0.100
121.900	-33.054	0.100
122.000	-27.734	0.100
122.100	-24.580	0.100
122.200	-25.506	0.100
122.300	-18.301	0.100
122.400	-43.770	0.100
122.500	-27.304	0.100
122.600	-23.521	0.100
122.700	-26.914	0.100
122.800	-27.231	0.100
122.900	-30.789	0.100
123.000	-25.887	0.100
123.100	-30.973	0.100
123.200	-24.742	0.100
123.300	-11.123	0.100
123.400	-43.013	0.100
123.500	-22.376	0.100
123.600	-32.309	0.100
123.700	-24.705	0.100
123.800	-24.366	0.100
123.900	-31.062	0.100
124.000	-35.396	0.100
124.100	-30.177	0.100
124.200	-10.088	0.100
124.300	-25.930	0.100
124.400	-31.986	0.100
124.500	-40.132	0.100
124.600	-29.344	0.100
124.700	-31.186	0.100
124.800	-28.559	0.100
124.900	-27.059	0.100
125.000	-17.365	0.100
125.100	-33.475	0.100
125.200	-36.623	0.100
125.300	-26.090	0.100
125.400	-29.481	0.100
125.500	-21.594	0.100
125.600	-19.916	0.100
125.700	-22.363	0.100
125.800	-39.534	0.100
125.900	-36.422	0.100
126.000	-23.513	0.100
126.100	-27.221	0.100
126.200	-28.443	0.100
126.300	-35.022	0.100
126.400	-24.640	0.100
126.500	-28.543	0.100
126.600	-15.739	0.100
126.700	-27.991	0.100
126.800	-36.079	0.100
126.900	-30.709	0.100
127.000	-25.605	0.100
127.100	-33.552	0.100
127.200	-34.198	0.100
127.300	-26.055	0.100
127.400	-26.650	0.100
127.500	-18.754	0.100
127.600	-26.479	0.100
127.700	-23.645	0.100
127.800	-33.676	0.100
127.900	-32.865	0.100
128.000	-26.659	0.100
128.100	-19.765	0.100
128.200	-27.868	0.100
128.300	-27.271	0.100
128.400	-25.321	0.100
128.500	-30.828	0.100
128.600	-31.043	0.100
128.700	-22.150	0.100
128.800	-26.748	0.100
128.900	-35.452	0.100
129.000	-25.140	0.100
129.100	-28.242	0.100
129.200	-29.731	0.100
129.300	-28.659	0.100
129.400	-24.997	0.099
129.500	-19.734	0.100
129.600	-27.287	0.100
129.700	-30.676	0.100
129.800	-27.937	0.100
129.900	-30.721	0.100
130.000	-34.068	0.100
130.100	-26.094	0.100
130.200	-33.461	0.100
130.300	-45.128	0.100
130.400	-35.051	0.100
130.500	-29.127	0.100
130.600	-20.361	0.100
130.700	-34.332	0.100
130.800	-31.795	0.100
130.900	-31.179	0.100
131.000	-34.379	0.100
131.100	-25.818	0.100
131.200	-26.811	0.100
131.300	-29.310	0.100
131.400	-35.269	0.100
131.500	-23.789	0.100
131.600	-26.781	0.100
131.700	-21.807	0.100
131.800	-33.301	0.100
131.900	-34.173	0.100
132.000	-36.181	0.100
132.100	-32.340	0.100
132.200	-30.827	0.100
132.300	-29.471	0.100
132.400	-32.223	0.100
132.500	-29.105	0.100
132.600	-31.612	0.099
132.700	-33.419	0.100
132.800	-27.402	0.099
132.900	-23.899	0.100
133.000	-31.328	0.100
133.100	-21.580	0.100
133.200	-23.275	0.100
133.300	-27.610	0.100
133.400	-27.964	0.100
133.500	-26.080	0.100
133.600	-24.326	0.100
133.700	-31.816	0.100
133.800	-33.444	0.099
133.900	-22.274	0.100
134.000	-17.653	0.100
134.100	-32.579	0.100
134.200	-28.222	0.100
134.300	-31.660	0.100
134.400	-37.967	0.100
134.500	-28.231	0.100
134.600	-33.866	0.100
134.700	-24.911	0.100
134.800	-18.298	0.100
134.900	-23.345	0.100
135.000	-13.375	0.100
135.100	-38.124	0.100
135.200	-35.880	0.100
135.300	-34.096	0.100
135.400	-31.080	0.099
135.500	-39.100	0.099
135.600	-27.694	0.100
135.700	-9.754	0.100
135.800	-28.377	0.100
135.900	-30.642	0.099
136.000	-29.752	0.100
136.100	-29.372	0.100
136.200	-17.757	0.099
136.300	-18.099	0.100
136.400	-33.306	0.100
136.500	-23.871	0.100
136.600	-28.955	0.100
136.700	-31.244	0.100
136.800	-40.936	0.100
136.900	-33.917	0.100
137.000	-14.096	0.100
137.100	-47.837	0.100
137.200	-16.236	0.100
137.300	-27.774	0.100
137.400	-40.271	0.100
137.500	-29.772	0.100
137.600	-28.254	0.100
137.700	-29.071	0.100
137.800	-36.466	0.099
137.900	-17.409	0.100
138.000	-28.257	0.100
138.100	-30.963	0.100
138.200	-30.192	0.100
138.300	-39.892	0.100
138.400	-35.343	0.099
138.500	-21.636	0.100
138.600	-22.958	0.100
138.700	-34.656	0.100
138.800	-21.286	0.100
138.900	-39.223	0.100
139.000	-32.174	0.100
139.100	-26.421	0.100
139.200	-18.575	0.100
139.300	-12.938	0.100
139.400	-40.699	0.100
139.500	-37.810	0.100
139.600	-32.170	0.100
139.700	-26.608	0.100
139.800	-24.695	0.100
139.900	-29.573	0.100
140.000	-32.748	0.100
140.100	-18.447	0.100
140.200	-28.081	0.099
140.300	-25.457	0.100
140.400	-14.436	0.100
140.500	-24.674	0.100
140.600	-29.950	0.100
140.700	-28.925	0.100
140.800	-37.587	0.100
140.900	-28.005	0.100
141.000	-16.323	0.100
141.100	-27.019	0.100
141.200	-34.014	0.100
141.300	-35.651	0.100
141.400	-27.187	0.100
141.500	-35.318	0.100
141.600	-26.976	0.100
141.700	-23.978	0.100
141.800	-25.232	0.099
141.900	-23.669	0.100
142.000	-32.996	0.100
142.100	-28.179	0.099
142.200	-41.573	0.100
142.300	-18.601	0.100
142.400	-30.182	0.100
142.500	-29.947	0.100
142.600	-22.523	0.100
142.700	-36.142	0.099
142.800	-15.124	0.099
142.900	-26.453	0.100
143.000	-29.355	0.100
143.100	-28.239	0.100
143.200	-28.509	0.100
143.300	-24.709	0.100
143.400	-27.108	0.099
143.500	-31.291	0.100
143.600	-44.620	0.100
143.700	-24.910	0.100
143.800	-15.295	0.100
143.900	-22.849	0.100
144.000	-35.512	0.100
144.100	-37.023	0.100
144.200	-16.992	0.100
144.300	-31.204	0.099
144.400	-32.375	0.100
144.500	-25.213	0.100
144.600	-23.077	0.100
144.700	-30.389	0.100
144.800	-18.313	0.100
144.900	-22.780	0.100
145.000	-27.212	0.100
145.100	-28.721	0.100
145.200	-30.510	0.100
145.300	-25.122	0.100
145.400	-20.181	0.100
145.500	-42.578	0.099
145.600	-31.707	0.100
145.700	-29.392	0.100
145.800	-46.032	0.100
145.900	-13.452	0.100
146.000	-24.437	0.100
146.100	-28.865	0.100
146.200	-36.266	0.100
146.300	-38.353	0.100
146.400	-33.557	0.100
146.500	-27.784	0.100
146.600	-11.493	0.100
146.700	-34.295	0.099
146.800	-37.776	0.100
146.900	-14.446	0.100
147.000	-29.641	0.100
147.100	-20.454	0.100
147.200	-28.051	0.100
147.300	-28.207	0.100
147.400	-17.572	0.100
147.500	-27.528	0.100
147.600	-26.581	0.100
147.700	-22.378	0.100
147.800	-29.338	0.100
147.900	-26.591	0.100
148.000	-29.561	0.100
148.100	-34.705	0.100
148.200	-21.018	0.100
148.300	-26.386	0.100
148.400	-26.889	0.100
148.500	-22.831	0.100
148.600	-32.744	0.100
148.700	-35.520	0.100
148.800	-2.141	0.100
148.900	-31.027	0.100
149.000	-37.793	0.100
149.100	-31.868	0.099
149.200	-32.324	0.100
149.300	-23.994	0.100
149.400	-27.037	0.100
149.500	-30.282	0.100
149.600	-32.338	0.099
149.700	-29.361	0.100
149.800	-20.401	0.099
149.900	-20.373	0.100
150.000	-37.784	0.099
150.100	-32.180	0.100
150.200	-28.112	0.100
150.300	-20.068	0.100
150.400	-20.957	0.100
150.500	-38.782	0.099
150.600	-31.352	0.100
150.700	-22.939	0.100
150.800	-31.751	0.100
150.900	-27.945	0.099
151.000	-22.106	0.099
151.100	-26.904	0.100
151.200	-26.760	0.099
151.300	-20.686	0.100
151.400	-25.946	0.100
151.500	-32.608	0.100
151.600	-19.365	0.099
151.700	-30.157	0.099
151.800	-29.476	0.099
151.900	-17.550	0.100
152.000	-42.073	0.100
152.100	-27.302	0.100
152.200	-25.955	0.100
152.300	-28.526	0.100
152.400	-19.945	0.100
152.500	-16.513	0.100
152.600	-42.822	0.100
152.700	-8.286	0.100
152.800	-25.571	0.100
152.900	-24.157	0.100
153.000	-16.781	0.100
153.100	-22.501	0.100
153.200	-26.204	0.100
153.300	-10.558	0.100
153.400	-23.587	0.100
153.500	-25.409	0.100
153.600	-32.131	0.100
153.700	-27.418	0.100
153.800	-34.394	0.099
153.900	-27.690	0.100
154.000	-31.575	0.100
154.100	-21.104	0.100
154.200	-15.086	0.100
154.300	-27.847	0.100
154.400	-27.545	0.100
154.500	-15.632	0.100
154.600	-34.380	0.100
154.700	-35.778	0.100
154.800	-37.271	0.100
154.900	-21.991	0.100
155.000	-15.048	0.100
155.100	-21.252	0.100
155.200	-25.707	0.100
155.300	-30.367	0.100
155.400	-22.962	0.100
155.500	-27.641	0.100
155.600	-24.031	0.100
155.700	-23.890	0.099
155.800	-23.612	0.100
155.900	-29.843	0.100
156.000	-25.012	0.100
156.100	-36.325	0.100
156.200	-26.046	0.100
156.300	-25.361	0.100
156.400	-30.233	0.100
156.500	-29.543	0.100
156.600	-12.600	0.100
156.700	-20.687	0.100
156.800	-21.290	0.100
156.900	-25.787	0.100
157.000	-30.090	0.100
157.100	-22.993	0.100
157.200	-29.823	0.100
157.300	-24.964	0.100
157.400	-21.583	0.099
157.500	-27.411	0.100
157.600	-28.518	0.100
157.700	-18.259	0.100
157.800	-19.339	0.100
157.900	-30.259	0.100
158.000	-30.124	0.100
158.100	-16.665	0.100
158.200	-29.696	0.100
158.300	-27.103	0.100
158.400	-20.157	0.100
158.500	-18.605	0.100
158.600	-19.173	0.100
158.700	-26.710	0.100
158.800	-28.520	0.100
158.900	-35.000	0.100
159.000	-24.778	0.100
159.100	-16.859	0.100
159.200	-29.344	0.100
159.300	-27.373	0.100
159.400	-20.423	0.100
159.500	-22.117	0.100
159.600	-27.562	0.100
159.700	-9.601	0.100
159.800	-5.095	0.100
159.900	-31.127	0.100
160.000	-29.785	0.100
160.100	-38.228	0.100
160.200	-13.886	0.100
160.300	-18.208	0.100
160.400	-33.059	0.100
160.500	-30.045	0.100
160.600	-16.281	0.100
160.700	-33.731	0.100
160.800	-29.640	0.100
160.900	-8.935	0.100
161.000	-9.187	0.100
161.100	-20.250	0.100
161.200	-23.840	0.100
161.300	-23.554	0.100
161.400	-16.439	0.100
161.500	-37.922	0.100
161.600	-26.003	0.100
161.700	-22.779	0.100
161.800	-32.844	0.100
161.900	-25.441	0.100
162.000	-27.752	0.100
162.100	-21.289	0.100
162.200	-22.309	0.100
162.300	-28.866	0.100
162.400	-20.270	0.100
162.500	-30.251	0.100
162.600	-29.546	0.100
162.700	-29.775	0.100
162.800	-24.485	0.100
162.900	-20.846	0.100
163.000	-23.167	0.100
163.100	-26.945	0.100
163.200	-29.791	0.100
163.300	-27.219	0.100
163.400	-28.551	0.099
163.500	-22.461	0.100
163.600	-14.959	0.100
163.700	-26.310	0.100
163.800	-28.049	0.100
163.900	-27.608	0.099
164.000	-16.492	0.100
164.100	-28.282	0.100
164.200	-9.197	0.099
164.300	-17.687	0.100
164.400	-21.644	0.100
164.500	-24.449	0.100
164.600	-23.289	0.100
164.700	-31.916	0.100
164.800	-27.276	0.100
164.900	-25.207	0.100
165.000	-28.111	0.100
165.100	-20.639	0.100
165.200	-34.827	0.100
165.300	-25.714	0.100
165.400	-19.846	0.100
165.500	-23.494	0.100
165.600	-9.160	0.100
165.700	-23.415	0.100
165.800	-20.049	0.100
165.900	-30.809	0.100
166.000	-28.567	0.100
166.100	-24.143	0.100
166.200	-24.561	0.100
166.300	-28.938	0.100
166.400	-17.613	0.100
166.500	-21.101	0.100
166.600	-32.067	0.100
166.700	-15.379	0.100
166.800	-16.217	0.100
166.900	-27.968	0.100
167.000	-34.247	0.100
167.100	-24.167	0.100
167.200	-11.297	0.100
167.300	-24.856	0.100
167.400	-35.792	0.100
167.500	-28.241	0.100
167.600	-12.744	0.100
167.700	-30.248	0.100
167.800	-21.969	0.100
167.900	-23.498	0.100
168.000	-28.615	0.100
168.100	-27.057	0.100
168.200	-24.007	0.100
168.300	-35.539	0.100
168.400	-24.262	0.100
168.500	-28.574	0.100
168.600	-21.582	0.100
168.700	-34.272	0.100
168.800	-19.547	0.100
168.900	-16.109	0.099
169.000	-18.366	0.100
169.100	-23.684	0.100
169.200	-17.389	0.100
169.300	-24.869	0.100
169.400	-23.507	0.100
169.500	-20.527	0.100
169.600	-23.066	0.100
169.700	-19.284	0.100
169.800	-28.729	0.100
169.900	-16.416	0.100
170.000	-16.105	0.100
170.100	-12.610	0.100
170.200	-38.135	0.100
170.300	-18.025	0.100
170.400	-23.054	0.100
170.500	-25.092	0.100
170.600	-18.237	0.100
170.700	-26.270	0.100
170.800	-24.438	0.100
170.900	-15.931	0.100
171.000	-16.876	0.100
171.100	-25.276	0.100
171.200	-26.654	0.100
171.300	-27.040	0.100
171.400	-8.979	0.100
171.500	-21.211	0.100
171.600	-20.294	0.100
171.700	-29.616	0.100
171.800	-16.803	0.100
171.900	-26.000	0.100
172.000	-33.414	0.100
172.100	-28.302	0.100
172.200	-25.398	0.100
172.300	-22.543	0.100
172.400	-21.549	0.100
172.500	-14.959	0.100
172.600	-25.129	0.100
172.700	-30.044	0.100
172.800	-18.394	0.100
172.900	-24.370	0.100
173.000	-40.827	0.100
173.100	-21.909	0.100
173.200	-19.909	0.100
173.300	-38.039	0.100
173.400	-34.537	0.100
173.500	-20.893	0.100
173.600	-22.701	0.100
173.700	-9.859	0.100
173.800	-25.226	0.100
173.900	-25.376	0.100
174.000	-26.024	0.100
174.100	-25.168	0.100
174.200	-10.017	0.100
174.300	-19.703	0.100
174.400	-13.999	0.100
174.500	-15.874	0.100
174.600	-19.788	0.100
174.700	-32.686	0.100
174.800	-18.989	0.100
174.900	-29.829	0.100
175.000	-5.055	0.100
175.100	-29.878	0.100
175.200	-36.948	0.100
175.300	-12.994	0.100
175.400	-11.402	0.100
175.500	-25.853	0.100
175.600	-30.389	0.100
175.700	-17.463	0.100
175.800	-32.074	0.100
175.900	-25.250	0.100
176.000	-12.655	0.100
176.100	-15.793	0.100
176.200	-16.778	0.100
176.300	-28.857	0.100
176.400	-27.912	0.100
176.500	-15.564	0.100
176.600	-21.786	0.100
176.700	-19.256	0.100
176.800	-25.969	0.100
176.900	-18.623	0.100
177.000	-20.350	0.100
177.100	-14.514	0.100
177.200	-17.531	0.100
177.300	-31.261	0.100
177.400	-35.663	0.100
177.500	-24.132	0.100
177.600	-6.036	0.100
177.700	-1.987	0.100
177.800	-22.842	0.100
177.900	-38.573	0.100
178.000	-34.344	0.100
178.100	-9.672	0.100
178.200	-17.710	0.100
178.300	-27.047	0.100
178.400	-17.800	0.100
178.500	-26.218	0.100
178.600	-30.145	0.100
178.700	-11.782	0.100
178.800	-28.285	0.100
178.900	-21.024	0.100
179.000	-27.751	0.100
179.100	-15.760	0.100
179.200	-18.837	0.100
179.300	-26.450	0.100
179.400	-17.689	0.100
179.500	-22.478	0.100
179.600	-30.231	0.100
179.700	-22.313	0.100
179.800	-21.545	0.100
179.900	-18.026	0.100
180.000	-22.012	0.100
180.100	-42.628	0.100
180.200	-16.893	0.100
180.300	-23.261	0.100
180.400	-41.948	0.100
180.500	-9.075	0.100
180.600	-33.764	0.100
180.700	-16.980	0.100
180.800	-14.989	0.100
180.900	0.391	0.100
181.000	-5.082	0.100
181.100	7.171	0.100
181.200	6.010	0.100
181.300	12.321	0.100
181.400	17.460	0.100
181.500	9.771	0.100
181.600	11.204	0.100
181.700	9.536	0.100
181.800	22.124	0.100
181.900	16.922	0.100
182.000	6.404	0.100
182.100	3.461	0.100
182.200	3.101	0.100
182.300	12.659	0.100
182.400	9.879	0.100
182.500	8.584	0.100
182.600	14.191	0.100
182.700	13.307	0.100
182.800	20.731	0.100
182.900	5.170	0.100
183.000	20.667	0.100
183.100	10.904	0.100
183.200	8.049	0.100
183.300	0.140	0.100
183.400	2.638	0.100
183.500	8.880	0.100
183.600	14.416	0.100
183.700	19.930	0.100
183.800	10.972	0.100
183.900	-3.745	0.100
184.000	14.396	0.100
184.100	20.215	0.100
184.200	1.294	0.100
184.300	6.763	0.100
184.400	10.173	0.100
184.500	5.264	0.100
184.600	17.416	0.100
184.700	8.584	0.100
184.800	6.545	0.100
184.900	12.894	0.100
185.000	10.714	0.100
185.100	1.786	0.100
185.200	8.978	0.100
185.300	-3.343	0.100
185.400	5.502	0.100
185.500	5.067	0.100
185.600	11.911	0.100
185.700	6.743	0.100
185.800	15.797	0.100
185.900	3.533	0.100
186.000	8.515	0.100
186.100	18.107	0.100
186.200	9.308	0.100
186.300	6.038	0.100
186.400	-2.567	0.100
186.500	8.369	0.100
186.600	12.635	0.100
186.700	-0.855	0.100
186.800	10.307	0.100
186.900	15.452	0.100
187.000	5.369	0.100
187.100	8.274	0.100
187.200	14.092	0.100
187.300	6.944	0.100
187.400	15.439	0.100
187.500	12.408	0.100
187.600	10.932	0.100
187.700	3.066	0.100
187.800	-3.394	0.100
187.900	15.619	0.100
188.000	6.419	0.100
188.100	5.640	0.100
188.200	4.547	0.100
188.300	0.852	0.100
188.400	19.535	0.100
188.500	25.559	0.100
188.600	4.986	0.100
188.700	15.598	0.100
188.800	10.551	0.100
188.900	14.912	0.100
189.000	11.011	0.100
189.100	14.731	0.100
189.200	0.765	0.100
189.300	10.169	0.100
189.400	1.263	0.100
189.500	17.147	0.100
189.600	15.190	0.100
189.700	5.905	0.100
189.800	9.986	0.100
189.900	11.163	0.100
190.000	7.079	0.100
190.100	6.338	0.100
190.200	12.317	0.100
190.300	19.312	0.100
190.400	15.243	0.100
190.500	14.188	0.100
190.600	11.413	0.100
190.700	8.138	0.100
190.800	9.671	0.100
190.900	13.723	0.100
191.000	26.703	0.100
191.100	19.497	0.100
191.200	20.662	0.100
191.300	19.863	0.100
191.400	12.969	0.100
191.500	12.188	0.100
191.600	29.568	0.100
191.700	18.268	0.100
191.800	6.916	0.100
191.900	28.235	0.100
192.000	28.043	0.100
192.100	25.149	0.100
192.200	12.955	0.100
192.300	23.916	0.100
192.400	14.584	0.100
192.500	7.901	0.100
192.600	4.831	0.100
192.700	12.434	0.100
192.800	28.713	0.100
192.900	26.651	0.100
193.000	30.033	0.100
193.100	24.860	0.100
193.200	28.072	0.100
193.300	16.235	0.100
193.400	30.630	0.100
193.500	26.095	0.100
193.600	23.782	0.100
193.700	27.543	0.100
193.800	30.034	0.100
193.900	27.513	0.100
194.000	20.304	0.100
194.100	16.853	0.100
194.200	16.313	0.100
194.300	24.236	0.100
194.400	30.619	0.100
194.500	25.415	0.100
194.600	30.969	0.100
194.700	36.001	0.100
194.800	26.809	0.100
194.900	36.874	0.100
195.000	30.075	0.100
195.100	43.136	0.100
195.200	34.528	0.100
195.300	19.364	0.100
195.400	32.043	0.100
195.500	24.171	0.100
195.600	41.537	0.100
195.700	32.331	0.100
195.800	32.309	0.100
195.900	26.966	0.100
196.000	26.221	0.100
196.100	29.281	0.100
196.200	34.434	0.100
196.300	33.392	0.100
196.400	31.532	0.100
196.500	34.909	0.100
196.600	40.161	0.100
196.700	54.410	0.100
196.800	42.677	0.100
196.900	43.833	0.100
197.000	33.950	0.100
197.100	42.904	0.100
197.200	40.855	0.100
197.300	31.161	0.100
197.400	29.553	0.100
197.500	40.751	0.100
197.600	21.905	0.100
197.700	39.329	0.100
197.800	47.195	0.100
197.900	33.895	0.100
198.000	46.562	0.100
198.100	44.701	0.100
198.200	35.205	0.100
198.300	39.973	0.100
198.400	38.816	0.100
198.500	35.460	0.100
198.600	34.530	0.100
198.700	51.082	0.100
198.800	50.507	0.100
198.900	32.613	0.100
199.000	32.568	0.100
199.100	21.870	0.100
199.200	49.272	0.100
199.300	32.696	0.100
199.400	40.155	0.100
199.500	46.346	0.100
199.600	35.653	0.100
199.700	36.192	0.100
199.800	33.943	0.100
199.900	43.318	0.100
200.000	50.087	0.100
200.100	36.395	0.100
200.200	38.098	0.100
200.300	46.371	0.100
200.400	36.055	0.100
200.500	39.628	0.100
200.600	34.708	0.100
200.700	40.345	0.100
200.800	31.752	0.100
200.900	34.773	0.100
201.000	59.410	0.100
201.100	52.454	0.100
201.200	45.912	0.100
201.300	46.317	0.100
201.400	34.174	0.100
201.500	32.580	0.100
201.600	49.895	0.100
201.700	52.710	0.100
201.800	33.534	0.100
201.900	56.410	0.100
202.000	37.526	0.100
202.100	46.464	0.100
202.200	37.800	0.100
202.300	47.126	0.100
202.400	45.410	0.100
202.500	39.450	0.100
202.600	36.637	0.100
202.700	41.061	0.100
202.800	32.617	0.100
202.900	45.268	0.100
203.000	38.842	0.100
203.100	60.528	0.100
203.200	44.136	0.100
203.300	47.898	0.100
203.400	44.422	0.100
203.500	49.589	0.100
203.600	45.820	0.100
203.700	54.802	0.100
203.800	42.043	0.100
203.900	46.515	0.100
204.000	48.036	0.100
204.100	41.821	0.100
204.200	42.222	0.100
204.300	32.749	0.100
204.400	44.219	0.100
204.500	43.146	0.100
204.600	42.500	0.100
204.700	38.583	0.100
204.800	45.459	0.100
204.900	51.019	0.100
205.000	32.192	0.100
205.100	51.050	0.100
205.200	40.503	0.100
205.300	48.382	0.100
205.400	52.973	0.100
205.500	51.964	0.100
205.600	38.665	0.100
205.700	60.003	0.100
205.800	51.514	0.100
205.900	42.807	0.100
206.000	35.516	0.100
206.100	51.802	0.100
206.200	53.456	0.100
206.300	41.121	0.100
206.400	39.072	0.100
206.500	44.402	0.100
206.600	55.428	0.100
206.700	52.867	0.100
206.800	49.006	0.100
206.900	46.787	0.100
207.000	37.519	0.100
207.100	55.308	0.100
207.200	23.946	0.100
207.300	45.079	0.100
207.400	51.001	0.100
207.500	43.581	0.100
207.600	46.748	0.100
207.700	30.460	0.100
207.800	47.151	0.100
207.900	40.679	0.100
208.000	53.374	0.100
208.100	49.511	0.100
208.200	47.343	0.100
208.300	37.530	0.100
208.400	36.972	0.100
208.500	42.803	0.100
208.600	44.179	0.100
208.700	44.853	0.100
208.800	54.384	0.100
208.900	49.079	0.100
209.000	42.064	0.100
209.100	45.326	0.100
209.200	36.855	0.100
209.300	50.957	0.100
209.400	50.207	0.100
209.500	35.757	0.100
209.600	48.189	0.100
209.700	45.118	0.100
209.800	58.162	0.100
209.900	50.406	0.100
210.000	43.896	0.100
210.100	41.282	0.100
210.200	46.920	0.100
210.300	49.214	0.100
210.400	47.854	0.100
210.500	39.516	0.100
210.600	52.163	0.100
210.700	53.075	0.100
210.800	31.137	0.100
210.900	38.262	0.100
211.000	48.001	0.100
211.100	51.838	0.100
211.200	49.931	0.100
211.300	59.593	0.100
211.400	53.644	0.100
211.500	45.145	0.100
211.600	40.502	0.100
211.700	53.331	0.100
211.800	48.193	0.100
211.900	51.299	0.100
212.000	40.419	0.100
212.100	30.942	0.100
212.200	36.314	0.100
212.300	60.299	0.100
212.400	39.451	0.100
212.500	48.837	0.100
212.600	42.604	0.100
212.700	43.325	0.100
212.800	40.668	0.100
212.900	59.422	0.100
213.000	28.950	0.100
213.100	42.666	0.100
213.200	52.349	0.100
213.300	40.974	0.100
213.400	32.035	0.100
213.500	47.024	0.100
213.600	52.308	0.100
213.700	50.503	0.100
213.800	48.936	0.100
213.900	54.231	0.100
214.000	34.233	0.100
214.100	37.074	0.100
214.200	53.738	0.100
214.300	43.700	0.100
214.400	42.940	0.100
214.500	53.540	0.100
214.600	43.569	0.100
214.700	44.887	0.100
214.800	54.396	0.100
214.900	39.027	0.100
215.000	40.128	0.100
215.100	38.203	0.100
215.200	52.800	0.100
215.300	38.505	0.100
215.400	46.414	0.100
215.500	52.995	0.100
215.600	44.591	0.100
215.700	33.239	0.100
215.800	54.586	0.100
215.900	44.515	0.100
216.000	39.148	0.100
216.100	49.141	0.100
216.200	37.017	0.100
216.300	33.530	0.100
216.400	40.947	0.100
216.500	50.796	0.100
216.600	44.030	0.100
216.700	33.380	0.100
216.800	55.283	0.100
216.900	56.922	0.100
217.000	54.084	0.100
217.100	38.934	0.100
217.200	47.563	0.100
217.300	35.699	0.100
217.400	44.023	0.100
217.500	48.540	0.100
217.600	40.499	0.100
217.700	44.087	0.100
217.800	29.618	0.100
217.900	57.241	0.100
218.000	53.680	0.100
218.100	32.625	0.100
218.200	44.480	0.100
218.300	35.731	0.100
218.400	53.447	0.100
218.500	38.797	0.100
218.600	44.214	0.100
218.700	45.440	0.100
218.800	43.734	0.100
218.900	36.668	0.100
219.000	30.663	0.100
219.100	57.797	0.100
219.200	57.761	0.100
219.300	49.707	0.100
219.400	41.082	0.100
219.500	48.320	0.100
219.600	43.244	0.100
219.700	44.962	0.100
219.800	42.288	0.100
219.900	45.707	0.100
220.000	44.261	0.100
220.100	31.034	0.100
220.200	42.723	0.100
220.300	42.992	0.100
220.400	51.038	0.100
220.500	43.220	0.100
220.600	58.923	0.100
220.700	48.175	0.100
220.800	46.282	0.100
220.900	48.454	0.100
221.000	35.840	0.100
221.100	43.693	0.100
221.200	40.840	0.100
221.300	39.343	0.100
221.400	41.113	0.100
221.500	46.414	0.100
221.600	38.847	0.100
221.700	41.919	0.100
221.800	41.168	0.100
221.900	46.734	0.100
222.000	52.765	0.100
222.100	50.262	0.100
222.200	44.800	0.100
222.300	32.220	0.100
222.400	41.822	0.100
222.500	56.250	0.100
222.600	49.084	0.100
222.700	36.039	0.100
222.800	47.719	0.100
222.900	48.009	0.100
223.000	44.119	0.100
223.100	44.429	0.100
223.200	49.536	0.100
223.300	11.505	0.100
223.400	27.235	0.100
223.500	41.871	0.100
223.600	55.968	0.100
223.700	36.300	0.100
223.800	52.793	0.100
223.900	44.636	0.100
224.000	48.077	0.100
224.100	39.969	0.100
224.200	41.597	0.100
224.300	44.847	0.100
224.400	56.689	0.100
224.500	40.917	0.100
224.600	36.314	0.100
224.700	41.597	0.100
224.800	59.877	0.100
224.900	42.923	0.100
225.000	48.351	0.100
225.100	34.317	0.100
225.200	41.031	0.100
225.300	44.102	0.100
225.400	50.277	0.100
225.500	45.182	0.100
225.600	40.048	0.100
225.700	48.536	0.100
225.800	51.089	0.100
225.900	43.384	0.100
226.000	40.278	0.100
226.100	44.028	0.100
226.200	49.297	0.100
226.300	38.599	0.100
226.400	49.744	0.100
226.500	45.549	0.100
226.600	51.785	0.100
226.700	41.943	0.100
226.800	44.351	0.100
226.900	36.232	0.100
227.000	42.302	0.100
227.100	47.736	0.100
227.200	49.611	0.100
227.300	47.114	0.100
227.400	41.911	0.100
227.500	45.400	0.100
227.600	32.247	0.100
227.700	38.768	0.100
227.800	36.694	0.100
227.900	41.248	0.100
228.000	58.148	0.100
228.100	48.085	0.100
228.200	35.055	0.100
228.300	56.318	0.100
228.400	36.972	0.100
228.500	51.543	0.100
228.600	50.554	0.100
228.700	46.949	0.100
228.800	42.301	0.100
228.900	31.092	0.100
229.000	32.058	0.100
229.100	37.023	0.100
229.200	48.741	0.100
229.300	46.203	0.100
229.400	39.038	0.100
229.500	44.691	0.100
229.600	34.837	0.100
229.700	43.736	0.100
229.800	36.392	0.100
229.900	38.501	0.100
230.000	60.301	0.100
230.100	40.148	0.100
230.200	41.337	0.100
230.300	36.577	0.100
230.400	46.628	0.100
230.500	47.778	0.100
230.600	44.312	0.100
230.700	42.646	0.100
230.800	44.851	0.100
230.900	39.007	0.100
231.000	34.486	0.100
231.100	45.263	0.100
231.200	38.981	0.100
231.300	48.434	0.100
231.400	36.134	0.100
231.500	42.189	0.100
231.600	49.051	0.100
231.700	42.023	0.100
231.800	41.379	0.100
231.900	40.952	0.100
232.000	44.484	0.100
232.100	47.870	0.100
232.200	48.223	0.100
232.300	47.433	0.100
232.400	37.388	0.100
232.500	45.286	0.100
232.600	43.343	0.100
232.700	43.609	0.100
232.800	37.804	0.100
232.900	37.185	0.100
233.000	46.332	0.100
233.100	47.438	0.100
233.200	39.791	0.100
233.300	31.365	0.100
233.400	43.152	0.100
233.500	40.743	0.100
233.600	35.064	0.100
233.700	50.002	0.100
233.800	37.926	0.100
233.900	37.924	0.100
234.000	45.037	0.100
234.100	53.367	0.100
234.200	50.791	0.100
234.300	40.428	0.100
234.400	35.472	0.100
234.500	40.786	0.100
234.600	40.216	0.100
234.700	33.173	0.100
234.800	37.708	0.100
234.900	44.399	0.100
235.000	51.222	0.100
235.100	55.760	0.100
235.200	43.306	0.100
235.300	46.967	0.100
235.400	46.953	0.100
235.500	52.912	0.100
235.600	36.920	0.100
235.700	30.213	0.100
235.800	35.987	0.100
235.900	39.111	0.100
236.000	43.215	0.100
236.100	49.633	0.100
236.200	39.862	0.100
236.300	38.863	0.100
236.400	50.038	0.100
236.500	42.481	0.100
236.600	42.840	0.100
236.700	28.827	0.100
236.800	44.823	0.100
236.900	48.861	0.100
237.000	47.180	0.100
237.100	34.562	0.100
237.200	55.361	0.100
237.300	51.007	0.100
237.400	36.130	0.100
237.500	42.342	0.100
237.600	41.266	0.100
237.700	29.933	0.100
237.800	56.729	0.100
237.900	35.118	0.100
238.000	41.647	0.100
238.100	46.492	0.100
238.200	32.453	0.100
238.300	43.182	0.100
238.400	41.182	0.100
238.500	40.920	0.100
238.600	38.232	0.100
238.700	43.522	0.100
238.800	40.668	0.100
238.900	45.748	0.100
239.000	38.016	0.100
239.100	35.794	0.100
239.200	37.706	0.100
239.300	27.956	0.100
239.400	42.935	0.100
239.500	43.102	0.100
239.600	44.932	0.100
239.700	47.114	0.100
239.800	46.654	0.100
239.900	34.181	0.100
240.000	37.353	0.100
240.100	54.360	0.100
240.200	45.598	0.100
240.300	44.640	0.100
240.400	24.851	0.100
240.500	39.157	0.100
240.600	24.466	0.100
240.700	31.749	0.100
240.800	30.227	0.100
240.900	24.810	0.100
241.000	17.065	0.100
241.100	13.193	0.100
241.200	17.469	0.100
241.300	20.140	0.100
241.400	-0.635	0.100
241.500	7.846	0.100
241.600	9.750	0.100
241.700	4.822	0.100
241.800	1.810	0.100
241.900	15.757	0.100
242.000	5.457	0.100
242.100	-5.172	0.100
242.200	-5.741	0.100
242.300	-7.733	0.100
242.400	-7.903	0.100
242.500	6.968	0.100
242.600	-3.603	0.100
242.700	-10.309	0.100
242.800	-8.233	0.100
242.900	0.086	0.100
243.000	-12.281	0.100
243.100	-2.825	0.100
243.200	3.192	0.100
243.300	-5.439	0.100
243.400	-23.941	0.100
243.500	-1.234	0.100
243.600	-4.153	0.100
243.700	-1.208	0.100
243.800	0.898	0.100
243.900	-20.304	0.100
244.000	-13.182	0.100
244.100	-10.752	0.100
244.200	-22.022	0.100
244.300	-9.705	0.100
244.400	-19.364	0.100
244.500	-3.761	0.100
244.600	-8.596	0.100
244.700	-26.644	0.100
244.800	-19.016	0.100
244.900	-5.975	0.100
245.000	-13.779	0.100
245.100	-19.278	0.100
245.200	-3.556	0.100
245.300	-13.090	0.100
245.400	-24.628	0.100
245.500	-7.836	0.100
245.600	-19.266	0.100
245.700	-17.997	0.100
245.800	-29.434	0.100
245.900	-8.940	0.100
246.000	-16.090	0.100
246.100	-12.919	0.100
246.200	-18.938	0.100
246.300	-28.183	0.100
246.400	-18.750	0.100
246.500	-4.895	0.100
246.600	-14.500	0.100
246.700	-23.343	0.100
246.800	-8.598	0.100
246.900	-17.591	0.100
247.000	-24.624	0.100
247.100	-16.853	0.100
247.200	-3.487	0.100
247.300	-16.505	0.100
247.400	-21.164	0.100
247.500	-16.788	0.100
247.600	-10.082	0.100
247.700	-22.378	0.100
247.800	-3.831	0.100
247.900	-9.125	0.100
248.000	-13.430	0.100
248.100	-17.268	0.100
248.200	-16.947	0.100
248.300	-21.308	0.100
248.400	-7.656	0.100
248.500	-11.990	0.100
248.600	-24.005	0.100
248.700	-21.609	0.100
248.800	-14.770	0.100
248.900	3.712	0.100
249.000	-9.727	0.100
249.100	-13.946	0.100
249.200	-15.545	0.100
249.300	-19.565	0.100
249.400	-17.287	0.100
249.500	-11.375	0.100
249.600	-23.388	0.100
249.700	-0.366	0.100
249.800	-9.752	0.100
249.900	-18.481	0.100
250.000	-19.070	0.100
250.100	-5.720	0.100
250.200	-25.374	0.100
250.300	-11.057	0.100
250.400	-16.074	0.100
250.500	-9.486	0.100
250.600	-12.872	0.100
250.700	-8.511	0.100
250.800	-20.191	0.100
250.900	-12.406	0.100
251.000	-25.063	0.100
251.100	-11.965	0.100
251.200	-13.787	0.100
251.300	-19.158	0.100
251.400	-14.791	0.100
251.500	-15.104	0.100
251.600	-25.099	0.100
251.700	-16.955	0.100
251.800	-2.067	0.100
251.900	-31.053	0.100
252.000	-15.046	0.100
252.100	-24.732	0.100
252.200	-19.998	0.100
252.300	-21.040	0.100
252.400	-7.581	0.100
252.500	-20.605	0.100
252.600	-21.358	0.100
252.700	-8.896	0.100
252.800	-15.855	0.100
252.900	-23.206	0.100
253.000	-28.415	0.100
253.100	-18.582	0.100
253.200	-26.255	0.100
253.300	-14.014	0.100
253.400	-13.465	0.100
253.500	-25.979	0.100
253.600	-15.997	0.100
253.700	-6.512	0.100
253.800	-21.902	0.100
253.900	-15.813	0.100
254.000	-14.397	0.100
254.100	-30.216	0.100
254.200	-17.859	0.100
254.300	-12.345	0.100
254.400	-41.281	0.100
254.500	-24.662	0.100
254.600	-12.099	0.100
254.700	-20.672	0.100
254.800	-17.661	0.100
254.900	-16.835	0.100
255.000	-5.705	0.100
255.100	-26.461	0.100
255.200	-12.522	0.100
255.300	-33.209	0.099
255.400	-24.586	0.100
255.500	-30.247	0.099
255.600	-13.379	0.099
255.700	-25.112	0.099
255.800	-20.756	0.099
255.900	-2.336	0.099
256.000	-25.154	0.099
256.100	-10.769	0.099
256.200	-37.880	0.099
256.300	-6.286	0.099
256.400	-11.513	0.099
256.500	-12.115	0.099
256.600	-17.470	0.099
256.700	-11.465	0.099
256.800	-23.211	0.099
256.900	-32.978	0.099
257.000	-22.577	0.099
257.100	-16.222	0.099
257.200	-18.467	0.099
257.300	-13.008	0.099
257.400	-20.511	0.099
257.500	-29.819	0.099
257.600	-20.879	0.099
257.700	-19.332	0.099
257.800	-31.861	0.099
257.900	-19.826	0.099
258.000	-29.666	0.099
258.100	-16.718	0.099
258.200	-21.201	0.099
258.300	-22.562	0.099
258.400	-13.572	0.099
258.500	-30.153	0.099
258.600	-22.980	0.099
258.700	-15.373	0.099
258.800	-23.473	0.099
258.900	-30.282	0.099
259.000	-38.880	0.099
259.100	-6.883	0.099
259.200	-15.271	0.099
259.300	-28.120	0.099
259.400	-36.541	0.099
259.500	-19.492	0.099
259.600	-21.560	0.099
259.700	-16.742	0.099
259.800	-22.937	0.099
259.900	-26.605	0.099
260.000	-28.826	0.099
260.100	-20.584	0.099
260.200	-23.323	0.099
260.300	-30.007	0.099
260.400	-32.670	0.099
260.500	-35.716	0.099
260.600	-25.666	0.099
260.700	-21.224	0.099
260.800	-21.325	0.099
260.900	-25.068	0.099
261.000	-6.323	0.099
261.100	-20.360	0.099
261.200	-16.779	0.099
261.300	-34.401	0.099
261.400	-19.600	0.099
261.500	-16.810	0.099
261.600	-16.415	0.099
261.700	-17.945	0.099
261.800	-38.555	0.099
261.900	-22.519	0.099
262.000	-19.016	0.099
262.100	-19.476	0.099
262.200	-20.556	0.099
262.300	-38.749	0.099
262.400	-13.705	0.099
262.500	-27.138	0.099
262.600	-27.648	0.099
262.700	-24.902	0.099
262.800	-18.952	0.099
262.900	-18.829	0.099
263.000	-33.619	0.099
263.100	-34.721	0.099
263.200	-33.124	0.099
263.300	-6.413	0.099
263.400	-19.856	0.099
263.500	-33.388	0.099
263.600	-23.259	0.099
263.700	-30.472	0.099
263.800	-21.547	0.099
263.900	-36.895	0.099
264.000	-24.789	0.099
264.100	-34.118	0.099
264.200	-24.441	0.099
264.300	-17.530	0.099
264.400	-38.462	0.099
264.500	-19.183	0.099
264.600	-21.520	0.099
264.700	-17.208	0.099
264.800	-17.564	0.099
264.900	-41.375	0.099
265.000	-36.642	0.099
265.100	-22.081	0.099
265.200	-26.639	0.099
265.300	-26.691	0.099
265.400	-33.369	0.099
265.500	-20.450	0.099
265.600	-23.980	0.099
265.700	-33.008	0.099
265.800	-22.964	0.099
265.900	-18.756	0.099
266.000	-33.158	0.099
266.100	-29.554	0.099
266.200	-32.566	0.099
266.300	-30.830	0.099
266.400	-33.208	0.099
266.500	-33.981	0.099
266.600	-41.145	0.099
266.700	-24.685	0.099
266.800	-30.164	0.099
266.900	-20.218	0.099
267.000	-34.505	0.099
267.100	-32.569	0.099
267.200	-30.871	0.099
267.300	-14.807	0.099
267.400	-27.377	0.099
267.500	-33.972	0.099
267.600	-28.224	0.099
267.700	-28.746	0.099
267.800	-29.181	0.099
267.900	-27.631	0.099
268.000	-31.660	0.099
268.100	-25.696	0.099
268.200	-25.994	0.099
268.300	-30.055	0.099
268.400	-42.057	0.099
268.500	-9.725	0.099
268.600	-38.101	0.099
268.700	-45.071	0.099
268.800	-18.877	0.099
268.900	-26.328	0.099
269.000	-23.974	0.099
269.100	-38.504	0.099
269.200	-27.572	0.099
269.300	-24.255	0.099
269.400	-25.854	0.099
269.500	-27.453	0.099
269.600	-25.991	0.099
269.700	-28.646	0.099
269.800	-31.963	0.099
269.900	-19.040	0.099
270.000	-37.940	0.099
270.100	-19.189	0.099
270.200	-37.724	0.099
270.300	-25.396	0.099
270.400	-38.691	0.099
270.500	-14.763	0.099
270.600	-24.239	0.099
270.700	-25.216	0.099
270.800	-28.902	0.099
270.900	-34.245	0.099
271.000	-24.006	0.099
271.100	-30.681	0.099
271.200	-14.650	0.099
271.300	-20.329	0.099
271.400	-38.149	0.099
271.500	-23.702	0.099
271.600	-41.403	0.099
271.700	-31.247	0.099
271.800	-37.386	0.099
271.900	-17.769	0.099
272.000	-36.022	0.099
272.100	-20.002	0.099
272.200	-29.790	0.099
272.300	-37.984	0.099
272.400	-28.360	0.099
272.500	-39.533	0.099
272.600	-20.938	0.099
272.700	-19.728	0.099
272.800	-27.419	0.099
272.900	-43.577	0.099
273.000	-19.215	0.099
273.100	-38.576	0.099
273.200	-20.469	0.099
273.300	-35.495	0.099
273.400	-23.981	0.099
273.500	-29.582	0.099
273.600	-34.064	0.099
273.700	-30.542	0.099
273.800	-29.105	0.099
273.900	-16.514	0.099
274.000	-31.508	0.099
274.100	-28.375	0.099
274.200	-34.966	0.099
274.300	-25.462	0.099
274.400	-31.511	0.099
274.500	-28.371	0.099
274.600	-46.300	0.099
274.700	-33.162	0.099
274.800	-31.589	0.099
274.900	-26.009	0.099
275.000	-31.559	0.099
275.100	-36.558	0.099
275.200	-32.151	0.099
275.300	-28.622	0.100
275.400	-32.787	0.100
275.500	-45.820	0.100
275.600	-36.391	0.100
275.700	-23.745	0.100
275.800	-32.184	0.100
275.900	-31.325	0.100
276.000	-19.747	0.100
276.100	-35.572	0.100
276.200	-29.250	0.100
276.300	-28.102	0.100
276.400	-19.212	0.100
276.500	-19.036	0.100
276.600	-37.017	0.100
276.700	-43.776	0.100
276.800	-24.942	0.100
276.900	-46.697	0.100
277.000	-39.996	0.100
277.100	-27.141	0.100
277.200	-26.972	0.100
277.300	-17.140	0.100
277.400	-30.008	0.100
277.500	-24.490	0.100
277.600	-33.409	0.100
277.700	-19.371	0.099
277.800	-17.120	0.100
277.900	-35.371	0.100
278.000	-43.341	0.100
278.100	-31.870	0.100
278.200	-15.464	0.100
278.300	-20.474	0.100
278.400	-33.376	0.100
278.500	-38.905	0.100
278.600	-29.668	0.100
278.700	-19.741	0.100
278.800	-29.046	0.100
278.900	-30.929	0.100
279.000	-41.915	0.100
279.100	-32.829	0.100
279.200	-31.486	0.100
279.300	-27.639	0.100
279.400	-36.104	0.100
279.500	-22.754	0.100
279.600	-32.803	0.100
279.700	-29.833	0.100
279.800	-28.806	0.100
279.900	-40.746	0.100
280.000	-42.779	0.100
280.100	-12.687	0.100
280.200	-22.831	0.100
280.300	-21.698	0.100
280.400	-38.259	0.100
280.500	-20.553	0.100
280.600	-33.342	0.100
280.700	-30.360	0.100
280.800	-41.396	0.100
280.900	-34.329	0.100
281.000	-29.649	0.100
281.100	-43.194	0.100
281.200	-18.836	0.100
281.300	-27.346	0.100
281.400	-30.959	0.100
281.500	-27.070	0.100
281.600	-28.258	0.100
281.700	-39.300	0.100
281.800	-37.163	0.100
281.900	-30.960	0.100
282.000	-22.675	0.100
282.100	-27.198	0.100
282.200	-29.819	0.100
282.300	-29.813	0.100
282.400	-30.412	0.100
282.500	-34.796	0.100
282.600	-23.790	0.100
282.700	-32.024	0.100
282.800	-25.608	0.100
282.900	-31.202	0.100
283.000	-21.612	0.100
283.100	-40.925	0.100
283.200	-31.831	0.100
283.300	-23.449	0.100
283.400	-32.465	0.100
283.500	-44.266	0.100
283.600	-33.454	0.100
283.700	-37.905	0.100
283.800	-25.622	0.100
283.900	-36.793	0.100
284.000	-30.346	0.100
284.100	-21.488	0.100
284.200	-26.493	0.100
284.300	-34.566	0.100
284.400	-40.521	0.100
284.500	-17.229	0.100
284.600	-21.369	0.100
284.700	-29.070	0.100
284.800	-30.200	0.100
284.900	-41.079	0.100
285.000	-44.311	0.100
285.100	-22.685	0.100
285.200	-21.229	0.100
285.300	-40.094	0.100
285.400	-35.422	0.100
285.500	-36.692	0.100
285.600	-40.136	0.100
285.700	-20.126	0.100
285.800	-18.064	0.100
285.900	-33.260	0.100
286.000	-38.801	0.100
286.100	-35.624	0.100
286.200	-39.865	0.100
286.300	-32.348	0.100
286.400	-23.270	0.100
286.500	-31.307	0.100
286.600	-22.967	0.100
286.700	-33.909	0.100
286.800	-32.500	0.100
286.900	-25.260	0.100
287.000	-22.460	0.100
287.100	-39.305	0.100
287.200	-27.022	0.100
287.300	-23.375	0.100
287.400	-29.331	0.100
287.500	-35.556	0.100
287.600	-35.984	0.100
287.700	-11.535	0.100
287.800	-33.456	0.100
287.900	-32.180	0.100
288.000	-20.708	0.100
288.100	-34.194	0.100
288.200	-33.708	0.100
288.300	-19.139	0.100
288.400	-33.664	0.100
288.500	-22.595	0.100
288.600	-24.656	0.100
288.700	-21.055	0.100
288.800	-27.672	0.100
288.900	-29.731	0.100
289.000	-38.565	0.100
289.100	-24.135	0.100
289.200	-40.072	0.100
289.300	-31.635	0.100
289.400	-43.329	0.100
289.500	-29.820	0.100
289.600	-22.798	0.100
289.700	-33.227	0.100
289.800	-29.321	0.100
289.900	-19.473	0.100
290.000	-39.605	0.100
290.100	-29.898	0.100
290.200	-32.332	0.100
290.300	-24.451	0.100
290.400	-47.293	0.100
290.500	-26.204	0.100
290.600	-29.610	0.100
290.700	-25.582	0.100
290.800	-26.441	0.100
290.900	-30.825	0.100
291.000	-24.506	0.100
291.100	-26.747	0.100
291.200	-33.880	0.100
291.300	-36.525	0.100
291.400	-31.927	0.100
291.500	-25.649	0.100
291.600	-29.113	0.100
291.700	-36.483	0.100
291.800	-24.856	0.100
291.900	-29.935	0.100
292.000	-26.130	0.100
292.100	-28.361	0.100
292.200	-27.657	0.100
292.300	-28.135	0.100
292.400	-29.377	0.100
292.500	-37.109	0.100
292.600	-30.944	0.100
292.700	-35.373	0.100
292.800	-13.733	0.100
292.900	-26.932	0.100
293.000	-27.316	0.100
293.100	-25.352	0.100
293.200	-37.908	0.100
293.300	-32.694	0.100
293.400	-33.641	0.100
293.500	-23.844	0.100
293.600	-27.673	0.100
293.700	-32.123	0.100
293.800	-28.660	0.100
293.900	-9.042	0.100
294.000	-26.332	0.100
294.100	-26.445	0.100
294.200	-30.335	0.100
294.300	-24.569	0.100
294.400	-17.067	0.100
294.500	-24.035	0.100
294.600	-25.045	0.100
294.700	-32.464	0.100
294.800	-33.974	0.100
294.900	-21.590	0.100
295.000	-21.604	0.100
295.100	-31.270	0.100
295.200	-27.387	0.100
295.300	-24.087	0.100
295.400	-22.726	0.100
295.500	-31.780	0.100
295.600	-33.453	0.100
295.700	-30.374	0.100
295.800	-25.709	0.100
295.900	-14.595	0.100
296.000	-34.519	0.100
296.100	-68.154	0.100
296.200	-38.882	0.100
296.300	-7.875	0.100
296.400	-10.645	0.100
296.500	-41.222	0.100
296.600	-29.912	0.100
296.700	-36.244	0.100
296.800	-26.299	0.100
296.900	-20.478	0.100
297.000	-33.669	0.100
297.100	-37.717	0.100
297.200	-26.559	0.100
297.300	-27.616	0.100
297.400	-39.265	0.100
297.500	-31.485	0.100
297.600	-24.741	0.100
297.700	-23.100	0.100
297.800	-27.803	0.100
297.900	-35.622	0.100
298.000	-27.637	0.100
298.100	-30.841	0.100
298.200	-18.525	0.100
298.300	-27.086	0.100
298.400	-26.267	0.100
298.500	-23.845	0.100
298.600	-31.577	0.100
298.700	-32.007	0.100
298.800	-31.469	0.100
298.900	-21.548	0.100
299.000	-19.523	0.100
299.100	-24.256	0.100
299.200	-23.148	0.100
299.300	-38.777	0.100
299.400	-22.583	0.100
299.500	-28.757	0.100
299.600	-33.410	0.100
299.700	-33.120	0.100
299.800	-19.811	0.100
299.900	-25.964	0.100
300.000	-35.100	0.100
300.100	-21.105	0.100
300.200	-26.613	0.100
300.300	-35.136	0.100
300.400	-45.397	0.100
300.500	-19.693	0.100
300.600	-33.071	0.100
300.700	-32.087	0.100
300.800	-17.499	0.100
300.900	-36.888	0.100
301.000	-41.141	0.100
301.100	-26.872	0.100
301.200	-12.500	0.100
301.300	-22.729	0.100
301.400	-26.296	0.100
301.500	-37.787	0.100
301.600	-22.907	0.100
301.700	-28.151	0.100
301.800	-31.446	0.100
301.900	-27.550	0.100
302.000	-27.111	0.100
302.100	-15.955	0.100
302.200	-23.450	0.100
302.300	-34.762	0.100
302.400	-25.111	0.100
302.500	-27.479	0.100
302.600	-35.054	0.100
302.700	-30.976	0.100
302.800	-26.053	0.100
302.900	-39.530	0.100
303.000	-18.979	0.100
303.100	-21.424	0.100
303.200	-27.886	0.100
303.300	-21.761	0.100
303.400	-22.969	0.100
303.500	-14.719	0.100
303.600	-25.017	0.100
303.700	-29.448	0.100
303.800	-25.114	0.100
303.900	-28.750	0.100
304.000	-21.321	0.100
304.100	-32.386	0.100
304.200	-39.271	0.100
304.300	-20.910	0.100
304.400	-28.339	0.100
304.500	-28.821	0.100
304.600	-12.412	0.100
304.700	-26.498	0.100
304.800	-15.669	0.100
304.900	-46.652	0.100
305.000	-17.902	0.100
305.100	-36.323	0.100
305.200	-17.073	0.100
305.300	-19.400	0.100
305.400	-32.848	0.100
305.500	-54.516	0.100
305.600	-25.928	0.100
305.700	-15.918	0.100
305.800	-25.633	0.100
305.900	-28.810	0.100
306.000	-22.281	0.100
306.100	-26.502	0.100
306.200	-23.750	0.100
306.300	-26.260	0.100
306.400	-19.746	0.100
306.500	-27.888	0.100
306.600	-33.921	0.100
306.700	-25.682	0.100
306.800	-29.550	0.100
306.900	-26.777	0.100
307.000	-17.434	0.100
307.100	-34.262	0.100
307.200	-15.032	0.100
307.300	-21.165	0.100
307.400	-23.778	0.100
307.500	-38.158	0.100
307.600	-37.672	0.100
307.700	-12.870	0.100
307.800	-44.308	0.100
307.900	-15.968	0.100
308.000	-16.128	0.100
308.100	-13.979	0.100
308.200	-21.719	0.100
308.300	-28.479	0.100
308.400	-42.450	0.100
308.500	-29.277	0.100
308.600	-27.527	0.100
308.700	-28.076	0.100
308.800	-18.023	0.100
308.900	-29.476	0.100
309.000	-26.745	0.100
309.100	-27.428	0.100
309.200	-17.872	0.100
309.300	-19.863	0.100
309.400	-22.214	0.100
309.500	-32.221	0.100
309.600	-25.846	0.100
309.700	-24.419	0.100
309.800	-22.071	0.100
309.900	-23.547	0.100
310.000	-23.040	0.100
310.100	-24.349	0.100
310.200	-32.926	0.100
310.300	-22.409	0.100
310.400	-39.809	0.100
310.500	-10.479	0.100
310.600	-15.348	0.100
310.700	-26.584	0.100
310.800	-20.700	0.100
310.900	-30.136	0.100
311.000	-33.225	0.100
311.100	-26.880	0.100
311.200	-25.251	0.100
311.300	-18.780	0.100
311.400	-21.807	0.100
311.500	-27.042	0.100
311.600	-28.019	0.100
311.700	-28.603	0.100
311.800	-26.606	0.100
311.900	-18.504	0.100
312.000	-30.678	0.100
312.100	-10.551	0.100
312.200	-32.458	0.100
312.300	-32.700	0.100
312.400	-23.161	0.100
312.500	-18.003	0.100
312.600	-32.073	0.100
312.700	-20.885	0.100
312.800	-34.408	0.100
312.900	-31.235	0.100
313.000	-31.631	0.100
313.100	-25.640	0.100
313.200	-29.371	0.100
313.300	-30.584	0.100
313.400	-9.530	0.100
313.500	-20.208	0.100
313.600	-30.149	0.100
313.700	-37.519	0.100
313.800	-16.691	0.100
313.900	-8.317	0.100
314.000	-17.827	0.100
314.100	-36.751	0.100
314.200	-15.557	0.100
314.300	-16.363	0.100
314.400	-25.898	0.100
314.500	-27.394	0.100
314.600	-30.496	0.100
314.700	-39.916	0.100
314.800	-31.069	0.100
314.900	-21.317	0.100
315.000	-26.236	0.100
315.100	-31.159	0.100
315.200	-12.106	0.100
315.300	-18.519	0.100
315.400	-18.647	0.100
315.500	-31.973	0.100
315.600	-29.278	0.100
315.700	-16.214	0.100
315.800	-27.424	0.100
315.900	-27.999	0.100
316.000	-46.167	0.100
316.100	-6.363	0.100
316.200	-8.091	0.100
316.300	-21.693	0.100
316.400	-30.035	0.100
316.500	-22.821	0.100
316.600	-27.507	0.100
316.700	-26.369	0.100
316.800	-30.379	0.100
316.900	-28.443	0.100
317.000	-32.224	0.100
317.100	-29.186	0.100
317.200	-20.590	0.100
317.300	-20.890	0.100
317.400	-30.276	0.100
317.500	-22.945	0.100
317.600	-19.517	0.100
317.700	-24.306	0.100
317.800	-30.482	0.100
317.900	-24.853	0.100
318.000	-26.290	0.100
318.100	-20.534	0.100
318.200	-25.587	0.100
318.300	-17.227	0.100
318.400	-23.942	0.100
318.500	-24.019	0.100
318.600	-24.439	0.100
318.700	-25.733	0.100
318.800	-18.346	0.100
318.900	-29.907	0.100
319.000	-13.835	0.100
319.100	-25.709	0.100
319.200	-28.182	0.100
319.300	-21.261	0.100
319.400	-21.694	0.100
319.500	-34.786	0.100
319.600	-35.386	0.099
319.700	-19.950	0.100
319.800	-9.286	0.100
319.900	-27.146	0.100
320.000	-36.244	0.100
320.100	-24.053	0.100
320.200	-23.171	0.100
320.300	-20.578	0.100
320.400	-16.859	0.100
320.500	-30.120	0.100
320.600	-29.337	0.100
320.700	-30.027	0.100
320.800	-24.621	0.100
320.900	-9.847	0.100
321.000	-17.202	0.100
321.100	-16.990	0.100
321.200	-26.772	0.100
321.300	-30.744	0.100
321.400	-20.998	0.100
321.500	-27.769	0.100
321.600	-22.554	0.100
321.700	-36.047	0.100
321.800	-16.680	0.100
321.900	-25.743	0.100
322.000	-16.113	0.100
322.100	-13.932	0.100
322.200	-24.370	0.100
322.300	-29.261	0.100
322.400	-28.256	0.100
322.500	-24.860	0.100
322.600	-28.205	0.100
322.700	-29.050	0.100
322.800	-26.859	0.100
322.900	-26.607	0.100
323.000	-21.899	0.100
323.100	-29.413	0.100
323.200	-28.678	0.100
323.300	-23.872	0.100
323.400	-24.939	0.100
323.500	-19.072	0.100
323.600	-25.108	0.100
323.700	-6.358	0.100
323.800	-26.282	0.100
323.900	-17.881	0.100
324.000	-27.709	0.100
324.100	-18.089	0.100
324.200	-21.432	0.100
324.300	-20.492	0.100
324.400	-32.153	0.100
324.500	-25.942	0.100
324.600	-11.475	0.100
324.700	-26.980	0.100
324.800	-37.057	0.099
324.900	-27.203	0.100
325.000	-16.542	0.100
325.100	-26.030	0.100
325.200	-26.727	0.100
325.300	-24.305	0.100
325.400	-12.770	0.100
325.500	-11.835	0.100
325.600	-18.781	0.100
325.700	-21.900	0.100
325.800	-21.522	0.100
325.900	-21.564	0.100
326.000	-21.665	0.100
326.100	-28.781	0.100
326.200	-37.783	0.100
326.300	-2.604	0.100
326.400	-22.558	0.100
326.500	-25.762	0.100
326.600	-23.787	0.100
326.700	-23.494	0.100
326.800	-20.697	0.100
326.900	-31.171	0.100
327.000	-28.502	0.100
327.100	-18.412	0.100
327.200	-24.473	0.100
327.300	-23.731	0.100
327.400	-30.757	0.100
327.500	-32.477	0.100
327.600	-16.892	0.100
327.700	-12.760	0.100
327.800	-33.638	0.100
327.900	-22.006	0.100
328.000	-33.241	0.100
328.100	-24.084	0.100
328.200	-27.835	0.100
328.300	-26.636	0.100
328.400	-15.674	0.100
328.500	-35.478	0.100
328.600	-38.507	0.100
328.700	-18.302	0.100
328.800	-16.860	0.100
328.900	-15.957	0.100
329.000	-21.378	0.100
329.100	-17.940	0.100
329.200	-21.752	0.100
329.300	-24.122	0.100
329.400	-21.602	0.100
329.500	-16.850	0.100
329.600	-14.173	0.100
329.700	-24.276	0.100
329.800	-32.545	0.100
329.900	-29.242	0.100
330.000	-19.173	0.100
330.100	-25.102	0.100
330.200	-29.582	0.100
330.300	-35.325	0.100
330.400	-16.793	0.100
330.500	-17.744	0.100
330.600	-24.089	0.100
330.700	-25.255	0.100
330.800	1.067	0.100
330.900	-19.103	0.100
331.000	-7.322	0.100
331.100	4.666	0.100
331.200	17.126	0.100
331.300	12.996	0.100
331.400	10.669	0.100
331.500	17.318	0.100
331.600	19.297	0.100
331.700	18.334	0.100
331.800	18.553	0.100
331.900	9.150	0.100
332.000	23.000	0.100
332.100	10.329	0.100
332.200	20.858	0.100
332.300	9.298	0.100
332.400	15.156	0.100
332.500	12.288	0.100
332.600	-0.649	0.100
332.700	5.914	0.100
332.800	5.416	0.100
332.900	18.480	0.100
333.000	15.661	0.100
333.100	6.014	0.100
333.200	-2.631	0.100
333.300	11.166	0.100
333.400	16.330	0.100
333.500	-1.900	0.100
333.600	18.175	0.100
333.700	5.646	0.100
333.800	10.286	0.100
333.900	9.042	0.100
334.000	10.988	0.100
334.100	13.228	0.100
334.200	15.099	0.100
334.300	2.789	0.100
334.400	17.009	0.100
334.500	8.474	0.100
334.600	2.100	0.100
334.700	12.487	0.100
334.800	5.471	0.100
334.900	8.514	0.100
335.000	11.952	0.100
335.100	-1.608	0.100
335.200	21.117	0.100
335.300	12.321	0.100
335.400	15.467	0.100
335.500	6.128	0.100
335.600	1.976	0.100
335.700	21.132	0.100
335.800	4.465	0.100
335.900	6.803	0.100
336.000	8.149	0.100
336.100	7.289	0.100
336.200	8.143	0.100
336.300	10.728	0.100
336.400	-0.650	0.100
336.500	3.033	0.100
336.600	23.227	0.100
336.700	0.640	0.100
336.800	7.579	0.100
336.900	12.912	0.100
337.000	-6.628	0.100
337.100	0.914	0.100
337.200	3.121	0.100
337.300	13.686	0.100
337.400	1.728	0.100
337.500	5.967	0.100
337.600	10.585	0.100
337.700	5.568	0.100
337.800	6.213	0.100
337.900	-5.507	0.100
338.000	0.435	0.100
338.100	11.330	0.100
338.200	10.061	0.100
338.300	-2.906	0.100
338.400	10.314	0.100
338.500	16.042	0.100
338.600	9.037	0.100
338.700	7.184	0.100
338.800	15.293	0.100
338.900	4.839	0.100
339.000	13.831	0.100
339.100	13.071	0.100
339.200	13.838	0.100
339.300	9.815	0.100
339.400	16.501	0.100
339.500	15.990	0.100
339.600	15.034	0.100
339.700	16.534	0.100
339.800	14.991	0.100
339.900	13.018	0.100
340.000	4.450	0.100
340.100	15.509	0.100
340.200	23.289	0.100
340.300	17.632	0.100
340.400	19.013	0.100
340.500	18.611	0.100
340.600	9.847	0.100
340.700	22.629	0.100
340.800	16.601	0.100
340.900	8.902	0.100
341.000	9.761	0.100
341.100	14.681	0.100
341.200	16.825	0.100
341.300	16.270	0.100
341.400	-1.618	0.100
341.500	5.320	0.100
341.600	17.465	0.100
341.700	19.348	0.100
341.800	19.236	0.100
341.900	19.143	0.100
342.000	20.748	0.100
342.100	18.172	0.100
342.200	14.822	0.100
342.300	31.483	0.100
342.400	22.101	0.100
342.500	25.350	0.100
342.600	25.505	0.100
342.700	17.313	0.100
342.800	24.336	0.100
342.900	30.939	0.100
343.000	12.886	0.100
343.100	29.726	0.100
343.200	35.651	0.100
343.300	25.853	0.100
343.400	28.265	0.100
343.500	30.600	0.100
343.600	14.156	0.100
343.700	29.465	0.100
343.800	36.181	0.100
343.900	18.802	0.100
344.000	26.658	0.100
344.100	18.362	0.100
344.200	38.353	0.100
344.300	34.928	0.100
344.400	37.881	0.100
344.500	17.669	0.100
344.600	34.231	0.100
344.700	35.642	0.100
344.800	37.698	0.100
344.900	32.865	0.100
345.000	29.400	0.100
345.100	27.566	0.100
345.200	49.123	0.100
345.300	19.378	0.100
345.400	36.332	0.100
345.500	37.454	0.099
345.600	20.347	0.100
345.700	33.417	0.100
345.800	31.166	0.100
345.900	34.467	0.100
346.000	33.157	0.100
346.100	36.560	0.100
346.200	43.875	0.100
346.300	23.809	0.100
346.400	30.831	0.100
346.500	34.189	0.100
346.600	53.914	0.100
346.700	27.537	0.100
346.800	35.049	0.100
346.900	42.334	0.100
347.000	30.361	0.100
347.100	35.699	0.100
347.200	45.679	0.100
347.300	40.095	0.100
347.400	35.545	0.100
347.500	35.105	0.100
347.600	45.111	0.100
347.700	46.276	0.100
347.800	42.439	0.100
347.900	33.033	0.100
348.000	36.480	0.100
348.100	50.791	0.100
348.200	29.472	0.100
348.300	36.299	0.100
348.400	45.062	0.100
348.500	40.468	0.100
348.600	37.207	0.100
348.700	38.746	0.100
348.800	50.769	0.100
348.900	33.154	0.100
349.000	33.471	0.100
349.100	37.517	0.100
349.200	33.687	0.100
349.300	42.545	0.100
349.400	49.421	0.100
349.500	42.072	0.100
349.600	49.069	0.100
349.700	40.234	0.100
349.800	29.983	0.100
349.900	23.148	0.100
350.000	46.398	0.100
350.100	43.076	0.100
350.200	40.704	0.100
350.300	43.419	0.100
350.400	40.290	0.100
350.500	46.075	0.100
350.600	39.557	0.100
350.700	36.855	0.100
350.800	42.187	0.100
350.900	44.992	0.100
351.000	47.571	0.100
351.100	33.958	0.100
351.200	37.051	0.100
351.300	44.679	0.100
351.400	45.062	0.100
351.500	45.912	0.100
351.600	36.560	0.100
351.700	49.614	0.100
351.800	41.268	0.100
351.900	43.742	0.100
352.000	40.427	0.100
352.100	38.307	0.100
352.200	45.563	0.100
352.300	41.029	0.100
352.400	42.855	0.100
352.500	38.993	0.100
352.600	38.570	0.100
352.700	41.292	0.100
352.800	40.332	0.100
352.900	55.811	0.100
353.000	45.258	0.100
353.100	45.326	0.100
353.200	46.187	0.100
353.300	37.538	0.100
353.400	49.813	0.100
353.500	47.151	0.100
353.600	50.793	0.100
353.700	49.960	0.100
353.800	47.871	0.100
353.900	56.543	0.100
354.000	46.617	0.100
354.100	53.649	0.100
354.200	43.177	0.100
354.300	36.286	0.100
354.400	41.624	0.100
354.500	54.119	0.100
354.600	48.428	0.100
354.700	53.992	0.100
354.800	46.253	0.100
354.900	43.035	0.100
355.000	56.465	0.100
355.100	61.815	0.100
355.200	37.315	0.100
355.300	47.364	0.100
355.400	47.606	0.100
355.500	46.206	0.100
355.600	44.068	0.100
355.700	44.953	0.100
355.800	48.673	0.100
355.900	51.253	0.100
356.000	50.949	0.100
356.100	47.342	0.100
356.200	56.604	0.100
356.300	54.067	0.100
356.400	43.434	0.100
356.500	53.728	0.100
356.600	40.825	0.100
356.700	47.741	0.100
356.800	58.727	0.100
356.900	40.151	0.100
357.000	51.566	0.100
357.100	55.347	0.100
357.200	57.738	0.100
357.300	42.214	0.100
357.400	48.483	0.100
357.500	54.385	0.100
357.600	44.168	0.100
357.700	55.857	0.100
357.800	41.450	0.100
357.900	47.263	0.100
358.000	50.003	0.100
358.100	46.684	0.100
358.200	50.173	0.100
358.300	41.522	0.100
358.400	50.317	0.100
358.500	48.259	0.100
358.600	42.990	0.100
358.700	45.789	0.100
358.800	55.258	0.100
358.900	52.362	0.100
359.000	50.918	0.100
359.100	39.832	0.100
359.200	45.987	0.100
359.300	48.698	0.100
359.400	43.089	0.100
359.500	48.826	0.100
359.600	52.205	0.100
359.700	48.101	0.100
359.800	47.589	0.100
359.900	45.318	0.100
360.000	50.122	0.100
360.100	64.629	0.100
360.200	56.070	0.100
360.300	53.265	0.100
360.400	42.292	0.100
360.500	39.882	0.100
360.600	37.359	0.100
360.700	52.557	0.100
360.800	44.092	0.100
360.900	50.840	0.100
361.000	50.761	0.100
361.100	41.756	0.100
361.200	40.214	0.100
361.300	44.057	0.100
361.400	42.240	0.100
361.500	46.467	0.100
361.600	41.554	0.100
361.700	53.124	0.100
361.800	46.264	0.100
361.900	49.358	0.100
362.000	40.091	0.100
362.100	39.835	0.100
362.200	56.624	0.100
362.300	48.180	0.100
362.400	49.760	0.100
362.500	34.404	0.100
362.600	49.096	0.100
362.700	54.314	0.100
362.800	46.434	0.100
362.900	62.311	0.100
363.000	49.041	0.100
363.100	29.580	0.100
363.200	42.683	0.100
363.300	44.224	0.100
363.400	57.310	0.100
363.500	56.511	0.100
363.600	48.891	0.100
363.700	47.199	0.100
363.800	41.181	0.100
363.900	50.034	0.100
364.000	54.144	0.100
364.100	50.456	0.100
364.200	43.343	0.100
364.300	45.731	0.100
364.400	42.341	0.100
364.500	46.878	0.100
364.600	35.057	0.100
364.700	47.057	0.100
364.800	43.740	0.100
364.900	52.018	0.100
365.000	60.266	0.100
365.100	46.323	0.099
365.200	54.867	0.100
365.300	51.672	0.100
365.400	37.246	0.100
365.500	50.111	0.100
365.600	38.000	0.100
365.700	36.328	0.100
365.800	49.509	0.100
365.900	56.203	0.100
366.000	47.905	0.100
366.100	46.792	0.100
366.200	61.019	0.100
366.300	38.932	0.100
366.400	48.901	0.100
366.500	33.594	0.100
366.600	54.897	0.100
366.700	38.938	0.100
366.800	41.467	0.100
366.900	43.546	0.100
367.000	45.605	0.100
367.100	55.006	0.100
367.200	61.286	0.100
367.300	54.707	0.100
367.400	36.289	0.100
367.500	33.862	0.100
367.600	48.394	0.100
367.700	37.416	0.100
367.800	56.573	0.100
367.900	42.689	0.100
368.000	50.545	0.100
368.100	52.152	0.100
368.200	52.178	0.100
368.300	48.400	0.100
368.400	47.708	0.100
368.500	53.671	0.100
368.600	41.930	0.100
368.700	47.889	0.100
368.800	32.318	0.100
368.900	45.243	0.100
369.000	52.162	0.100
369.100	27.999	0.100
369.200	44.251	0.100
369.300	46.794	0.100
369.400	45.100	0.100
369.500	48.562	0.100
369.600	46.233	0.100
369.700	26.821	0.100
369.800	52.994	0.100
369.900	28.339	0.100
370.000	30.647	0.100
370.100	56.054	0.100
370.200	52.006	0.100
370.300	42.239	0.100
370.400	50.816	0.100
370.500	53.473	0.100
370.600	45.201	0.100
370.700	34.222	0.100
370.800	50.695	0.100
370.900	38.391	0.100
371.000	41.770	0.100
371.100	53.916	0.100
371.200	45.913	0.100
371.300	51.943	0.100
371.400	47.985	0.100
371.500	47.806	0.100
371.600	33.632	0.100
371.700	44.414	0.100
371.800	46.360	0.100
371.900	41.254	0.100
372.000	52.467	0.100
372.100	52.107	0.100
372.200	45.151	0.100
372.300	50.213	0.100
372.400	47.232	0.100
372.500	39.986	0.100
372.600	46.755	0.100
372.700	46.680	0.100
372.800	43.066	0.100
372.900	39.430	0.100
373.000	56.763	0.100
373.100	40.252	0.100
373.200	42.642	0.100
373.300	36.814	0.100
373.400	41.288	0.100
373.500	53.918	0.100
373.600	47.169	0.100
373.700	60.176	0.100
373.800	51.780	0.100
373.900	38.983	0.100
374.000	44.175	0.100
374.100	36.198	0.100
374.200	37.844	0.100
374.300	46.987	0.100
374.400	48.344	0.100
374.500	43.650	0.100
374.600	41.818	0.100
374.700	46.193	0.100
374.800	46.424	0.100
374.900	31.730	0.100
375.000	34.405	0.100
375.100	43.780	0.100
375.200	48.372	0.100
375.300	52.833	0.100
375.400	38.588	0.100
375.500	37.369	0.100
375.600	45.646	0.100
375.700	33.697	0.100
375.800	38.254	0.100
375.900	57.370	0.100
376.000	55.615	0.100
376.100	60.317	0.100
376.200	41.061	0.100
376.300	35.487	0.100
376.400	39.495	0.100
376.500	38.782	0.100
376.600	58.147	0.100
376.700	39.975	0.100
376.800	42.493	0.100
376.900	28.929	0.100
377.000	39.987	0.100
377.100	51.353	0.100
377.200	30.657	0.100
377.300	44.810	0.100
377.400	43.411	0.100
377.500	40.003	0.100
377.600	52.961	0.100
377.700	48.332	0.100
377.800	42.835	0.100
377.900	43.874	0.100
378.000	48.711	0.100
378.100	47.837	0.100
378.200	35.272	0.100
378.300	42.646	0.100
378.400	44.050	0.100
378.500	35.436	0.100
378.600	58.168	0.100
378.700	34.873	0.100
378.800	39.059	0.100
378.900	58.897	0.100
379.000	43.037	0.100
379.100	40.019	0.100
379.200	43.146	0.100
379.300	48.532	0.100
379.400	45.000	0.100
379.500	27.557	0.100
379.600	49.758	0.100
379.700	35.021	0.100
379.800	36.764	0.100
379.900	46.758	0.100
380.000	55.287	0.100
380.100	36.816	0.100
380.200	44.924	0.100
380.300	44.249	0.100
380.400	43.100	0.100
380.500	48.269	0.100
380.600	33.093	0.100
380.700	60.828	0.100
380.800	37.166	0.100
380.900	38.275	0.100
381.000	48.349	0.100
381.100	40.683	0.100
381.200	50.892	0.100
381.300	41.782	0.100
381.400	49.919	0.100
381.500	42.040	0.100
381.600	44.382	0.100
381.700	24.357	0.100
381.800	49.790	0.100
381.900	39.275	0.100
382.000	53.541	0.100
382.100	43.249	0.100
382.200	30.847	0.100
382.300	53.642	0.100
382.400	51.126	0.100
382.500	40.244	0.100
382.600	36.862	0.100
382.700	53.835	0.100
382.800	42.153	0.100
382.900	47.976	0.100
383.000	38.170	0.100
383.100	40.897	0.100
383.200	38.361	0.100
383.300	50.461	0.100
383.400	45.951	0.100
383.500	38.895	0.100
383.600	54.940	0.100
383.700	42.966	0.100
383.800	38.302	0.100
383.900	42.289	0.100
384.000	40.118	0.100
384.100	29.260	0.100
384.200	43.651	0.100
384.300	45.293	0.100
384.400	50.566	0.100
384.500	32.237	0.100
384.600	39.481	0.100
384.700	38.949	0.100
384.800	51.363	0.100
384.900	42.900	0.100
385.000	39.060	0.100
385.100	42.746	0.100
385.200	51.062	0.100
385.300	46.498	0.100
385.400	31.052	0.100
385.500	43.010	0.100
385.600	38.201	0.100
385.700	41.745	0.100
385.800	31.431	0.100
385.900	58.539	0.100
386.000	34.143	0.100
386.100	43.222	0.100
386.200	53.446	0.100
386.300	50.861	0.100
386.400	41.813	0.100
386.500	39.069	0.100
386.600	28.705	0.100
386.700	33.982	0.100
386.800	49.267	0.100
386.900	39.717	0.100
387.000	44.489	0.100
387.100	44.454	0.100
387.200	35.652	0.100
387.300	44.074	0.100
387.400	45.606	0.100
387.500	44.910	0.100
387.600	37.513	0.100
387.700	33.166	0.100
387.800	39.647	0.100
387.900	32.802	0.100
388.000	42.653	0.100
388.100	45.229	0.100
388.200	48.975	0.100
388.300	41.087	0.100
388.400	48.007	0.100
388.500	19.542	0.100
388.600	50.662	0.100
388.700	40.602	0.100
388.800	35.596	0.100
388.900	50.198	0.100
389.000	40.257	0.100
389.100	30.929	0.100
389.200	45.794	0.100
389.300	47.051	0.100
389.400	40.356	0.100
389.500	48.675	0.100
389.600	35.541	0.100
389.700	38.240	0.100
389.800	36.049	0.100
389.900	34.175	0.100
390.000	51.776	0.100
390.100	43.263	0.100
390.200	46.809	0.100
390.300	54.467	0.100
390.400	48.042	0.100
390.500	41.476	0.100
390.600	33.431	0.100
390.700	34.054	0.100
390.800	34.928	0.100
390.900	6.491	0.100
391.000	13.664	0.100
391.100	15.087	0.100
391.200	13.698	0.100
391.300	14.606	0.100
391.400	7.934	0.100
391.500	13.377	0.100
391.600	-11.238	0.100
391.700	11.061	0.100
391.800	11.780	0.100
391.900	-17.069	0.100
392.000	4.453	0.100
392.100	-10.164	0.100
392.200	-0.892	0.100
392.300	-7.585	0.100
392.400	5.630	0.100
392.500	5.119	0.100
392.600	-10.784	0.100
392.700	8.258	0.100
392.800	-11.749	0.100
392.900	-3.213	0.100
393.000	-4.155	0.100
393.100	-18.668	0.100
393.200	4.920	0.100
393.300	-16.997	0.100
393.400	-14.764	0.100
393.500	8.703	0.100
393.600	-6.375	0.100
393.700	0.449	0.100
393.800	-14.262	0.100
393.900	-5.789	0.100
394.000	-20.328	0.100
394.100	-12.261	0.100
394.200	-13.552	0.100
394.300	-23.111	0.100
394.400	-11.231	0.100
394.500	-17.786	0.100
394.600	-21.488	0.100
394.700	-21.492	0.100
394.800	-10.752	0.100
394.900	-18.350	0.100
395.000	-14.387	0.100
395.100	-26.037	0.100
395.200	-12.517	0.100
395.300	-13.349	0.100
395.400	-19.486	0.100
395.500	-29.197	0.100
395.600	-22.121	0.100
395.700	-8.205	0.100
395.800	-13.101	0.100
395.900	-14.779	0.100
396.000	-18.091	0.100
396.100	-27.813	0.100
396.200	-24.881	0.100
396.300	-27.103	0.100
396.400	-18.008	0.100
396.500	-8.825	0.100
396.600	-11.492	0.100
396.700	-30.472	0.100
396.800	-22.560	0.100
396.900	-18.821	0.100
397.000	-11.358	0.100
397.100	-0.039	0.100
397.200	-1.650	0.100
397.300	-17.838	0.100
397.400	-9.852	0.100
397.500	-9.857	0.100
397.600	-11.884	0.100
397.700	-33.233	0.100
397.800	-20.289	0.100
397.900	-21.780	0.100
398.000	-15.524	0.100
398.100	-6.594	0.100
398.200	-8.627	0.100
398.300	-16.027	0.100
398.400	-19.215	0.100
398.500	-14.486	0.100
398.600	-29.815	0.100
398.700	-27.008	0.100
398.800	-20.392	0.100
398.900	-27.271	0.100
399.000	-14.140	0.100
399.100	-7.986	0.100
399.200	-42.141	0.100
399.300	-17.326	0.100
399.400	2.278	0.100
399.500	-11.224	0.100
399.600	-12.089	0.100
399.700	-14.264	0.100
399.800	-6.379	0.100
399.900	-23.938	0.100
400.000	-26.299	0.100
400.100	-25.363	0.100
400.200	-23.232	0.100
400.300	-5.718	0.100
400.400	-24.958	0.100
400.500	-27.365	0.100
400.600	-7.029	0.100
400.700	-18.211	0.100
400.800	-40.244	0.100
400.900	-26.909	0.100
401.000	-16.863	0.100
401.100	-15.681	0.100
401.200	-10.875	0.100
401.300	-13.856	0.100
401.400	-16.620	0.100
401.500	-17.093	0.100
401.600	-21.807	0.100
401.700	-12.213	0.100
401.800	-14.566	0.100
401.900	-28.178	0.100
402.000	-16.029	0.100
402.100	-24.512	0.100
402.200	-19.096	0.100
402.300	-16.181	0.100
402.400	-15.140	0.100
402.500	-19.353	0.100
402.600	-16.104	0.100
402.700	-21.135	0.100
402.800	-23.219	0.100
402.900	-12.015	0.100
403.000	-31.425	0.100
403.100	-23.462	0.100
403.200	-14.811	0.100
403.300	-27.045	0.100
403.400	-20.674	0.100
403.500	-15.388	0.100
403.600	-18.529	0.100
403.700	-24.099	0.100
403.800	-24.698	0.100
403.900	-25.260	0.100
404.000	-14.155	0.100
404.100	-8.956	0.100
404.200	-21.852	0.100
404.300	-24.155	0.100
404.400	-15.964	0.100
404.500	-12.240	0.100
404.600	-36.489	0.100
404.700	-25.045	0.100
404.800	-26.956	0.100
404.900	-23.783	0.100
405.000	-14.133	0.100
405.100	-11.656	0.100
405.200	-21.414	0.100
405.300	-33.858	0.100
405.400	-4.484	0.100
405.500	-29.008	0.100
405.600	-30.592	0.100
405.700	-11.607	0.100
405.800	-20.971	0.100
405.900	-25.184	0.100
406.000	-22.158	0.100
406.100	-20.738	0.100
406.200	-15.938	0.100
406.300	-21.395	0.100
406.400	-26.475	0.100
406.500	-22.234	0.100
406.600	-17.829	0.100
406.700	-18.274	0.100
406.800	-25.567	0.100
406.900	-12.201	0.100
407.000	-14.765	0.100
407.100	-24.905	0.100
407.200	-24.880	0.100
407.300	-23.127	0.100
407.400	-26.234	0.100
407.500	-14.826	0.100
407.600	-22.467	0.100
407.700	-22.401	0.100
407.800	-22.634	0.100
407.900	-25.462	0.100
408.000	-26.827	0.100
408.100	-19.984	0.100
408.200	-18.124	0.100
408.300	-28.647	0.100
408.400	-30.225	0.100
408.500	-16.554	0.100
408.600	-17.589	0.100
408.700	-23.028	0.100
408.800	-32.397	0.100
408.900	-23.986	0.100
409.000	-22.358	0.100
409.100	-21.222	0.100
409.200	-14.768	0.100
409.300	-22.994	0.100
409.400	-10.580	0.100
409.500	-14.359	0.100
409.600	-31.429	0.100
409.700	-39.607	0.100
409.800	-21.415	0.100
409.900	-24.421	0.100
410.000	-25.082	0.100
410.100	-26.432	0.100
410.200	-26.382	0.100
410.300	-19.278	0.100
410.400	-23.993	0.100
410.500	-7.680	0.100
410.600	-24.914	0.100
410.700	-23.901	0.100
410.800	-29.546	0.100
410.900	-28.539	0.100
411.000	-25.987	0.100
411.100	-29.421	0.100
411.200	-16.584	0.100
411.300	-15.056	0.100
411.400	-24.380	0.100
411.500	-27.468	0.100
411.600	-40.871	0.100
411.700	-21.641	0.100
411.800	-18.583	0.100
411.900	-21.928	0.100
412.000	-34.160	0.100
412.100	-25.096	0.100
412.200	-35.821	0.100
412.300	-24.220	0.100
412.400	-26.143	0.100
412.500	-18.798	0.100
412.600	-29.383	0.100
412.700	-17.622	0.100
412.800	-33.989	0.100
412.900	-24.563	0.100
413.000	-17.150	0.100
413.100	-19.031	0.100
413.200	-27.787	0.100
413.300	-27.323	0.100
413.400	-27.247	0.100
413.500	-27.383	0.100
413.600	-10.967	0.100
413.700	-24.684	0.100
413.800	-48.016	0.100
413.900	-29.677	0.100
414.000	-24.585	0.100
414.100	-18.228	0.100
414.200	-23.368	0.100
414.300	-28.778	0.100
414.400	-30.215	0.100
414.500	-18.585	0.100
414.600	-20.785	0.100
414.700	-26.121	0.100
414.800	-35.566	0.100
414.900	-28.683	0.100
415.000	-26.770	0.100
415.100	-26.633	0.100
415.200	-28.398	0.100
415.300	-25.089	0.100
415.400	-26.169	0.100
415.500	-17.337	0.100
415.600	-20.645	0.100
415.700	-21.968	0.100
415.800	-33.140	0.100
415.900	-21.621	0.100
416.000	-27.924	0.100
416.100	-14.735	0.100
416.200	-34.041	0.100
416.300	-39.126	0.100
416.400	-25.280	0.100
416.500	-35.631	0.100
416.600	-24.792	0.100
416.700	-25.911	0.100
416.800	-19.848	0.100
416.900	-31.043	0.100
417.000	-32.533	0.100
417.100	-29.184	0.100
417.200	-15.954	0.100
417.300	-29.226	0.100
417.400	-21.142	0.100
417.500	-28.429	0.100
417.600	-34.763	0.100
417.700	-38.020	0.100
417.800	-15.690	0.100
417.900	-19.709	0.100
418.000	-23.952	0.100
418.100	-17.913	0.100
418.200	-31.196	0.100
418.300	-27.637	0.100
418.400	-26.434	0.100
418.500	-35.461	0.100
418.600	-31.657	0.100
418.700	-16.334	0.100
418.800	-34.878	0.100
418.900	-20.971	0.100
419.000	-25.327	0.100
419.100	-25.640	0.100
419.200	-31.015	0.100
419.300	-39.759	0.100
419.400	-42.094	0.100
419.500	-25.105	0.100
419.600	-28.376	0.100
419.700	-34.067	0.100
419.800	-29.258	0.100
419.900	-34.588	0.100
420.000	-23.590	0.100
420.100	-20.668	0.100
420.200	-30.307	0.100
420.300	-25.699	0.100
420.400	-30.967	0.100
420.500	-35.041	0.100
420.600	-28.267	0.100
420.700	-39.404	0.100
420.800	-30.571	0.100
420.900	-18.825	0.100
421.000	-33.098	0.100
421.100	-18.345	0.100
421.200	-25.132	0.100
421.300	-30.357	0.100
421.400	-27.957	0.100
421.500	-25.127	0.100
421.600	-33.787	0.100
421.700	-24.296	0.100
421.800	-29.579	0.100
421.900	-45.110	0.100
422.000	-27.263	0.100
422.100	-39.586	0.100
422.200	-28.652	0.100
422.300	-21.706	0.100
422.400	-23.944	0.100
422.500	-24.607	0.100
422.600	-30.702	0.100
422.700	-42.109	0.100
422.800	-30.691	0.100
422.900	-23.575	0.100
423.000	-25.565	0.100
423.100	-27.727	0.100
423.200	-35.610	0.100
423.300	-45.400	0.100
423.400	-30.474	0.100
423.500	-43.976	0.100
423.600	-28.170	0.100
423.700	-23.375	0.100
423.800	-26.845	0.100
423.900	-23.425	0.100
424.000	-38.029	0.100
424.100	-46.301	0.100
424.200	-14.931	0.100
424.300	-28.004	0.100
424.400	-24.334	0.100
424.500	-29.305	0.100
424.600	-31.981	0.100
424.700	-30.345	0.100
424.800	-41.121	0.100
424.900	-20.002	0.100
425.000	-20.632	0.100
425.100	-24.132	0.100
425.200	-29.011	0.100
425.300	-40.402	0.100
425.400	-29.257	0.100
425.500	-25.845	0.100
425.600	-40.710	0.100
425.700	-29.856	0.100
425.800	-22.891	0.100
425.900	-21.039	0.100
426.000	-26.109	0.100
426.100	-41.764	0.100
426.200	-32.536	0.100
426.300	-26.612	0.100
426.400	-33.784	0.100
426.500	-38.436	0.100
426.600	-30.393	0.100
426.700	-27.402	0.100
426.800	-37.455	0.100
426.900	-22.541	0.100
427.000	-29.602	0.100
427.100	-31.354	0.100
427.200	-31.346	0.100
427.300	-28.616	0.100
427.400	-39.198	0.100
427.500	-35.994	0.100
427.600	-27.061	0.100
427.700	-38.571	0.100
427.800	-29.885	0.100
427.900	-35.547	0.100
428.000	-22.028	0.100
428.100	-33.303	0.100
428.200	-20.431	0.100
428.300	-23.136	0.100
428.400	-33.596	0.100
428.500	-29.323	0.100
428.600	-26.864	0.100
428.700	-25.491	0.100
428.800	-37.368	0.099
428.900	-44.314	0.100
429.000	-33.700	0.100
429.100	-34.690	0.100
429.200	-25.613	0.100
429.300	-36.208	0.100
429.400	-39.201	0.100
429.500	-34.878	0.100
429.600	-30.592	0.100
429.700	-20.122	0.100
429.800	-34.995	0.100
429.900	-33.442	0.100
430.000	-30.646	0.100
430.100	-29.291	0.100
430.200	-27.753	0.100
430.300	-42.966	0.100
430.400	-33.739	0.100
430.500	-23.904	0.100
430.600	-22.333	0.100
430.700	-26.386	0.100
430.800	-30.031	0.100
430.900	-43.146	0.100
431.000	-25.335	0.100
431.100	-23.139	0.100
431.200	-31.737	0.100
431.300	-30.072	0.100
431.400	-25.579	0.100
431.500	-25.772	0.100
431.600	-40.713	0.100
431.700	-34.044	0.100
431.800	-20.643	0.100
431.900	-46.391	0.100
432.000	-29.711	0.100
432.100	-32.611	0.100
432.200	-30.459	0.100
432.300	-35.011	0.100
432.400	-49.189	0.100
432.500	-33.609	0.100
432.600	-25.825	0.100
432.700	-27.105	0.100
432.800	-40.120	0.100
432.900	-25.781	0.100
433.000	-29.280	0.100
433.100	-30.477	0.100
433.200	-29.845	0.100
433.300	-35.918	0.100
433.400	-36.474	0.100
433.500	-28.283	0.100
433.600	-2.906	0.100
433.700	-35.586	0.100
433.800	-26.349	0.100
433.900	-21.426	0.100
434.000	-22.595	0.100
434.100	-34.623	0.100
434.200	-35.662	0.100
434.300	-34.532	0.100
434.400	-34.734	0.100
434.500	-40.062	0.100
434.600	-33.835	0.100
434.700	-14.835	0.100
434.800	-29.768	0.100
434.900	-21.103	0.100
435.000	-24.168	0.100
435.100	-36.644	0.100
435.200	-52.627	0.100
435.300	-22.286	0.100
435.400	-34.547	0.100
435.500	-30.338	0.100
435.600	-40.817	0.100
435.700	-31.539	0.100
435.800	-20.899	0.100
435.900	-28.669	0.100
436.000	-36.164	0.100
436.100	-29.756	0.100
436.200	-26.029	0.100
436.300	-38.799	0.100
436.400	-4.467	0.100
436.500	-24.075	0.100
436.600	-33.668	0.100
436.700	-26.433	0.100
436.800	-27.776	0.100
436.900	-37.129	0.100
437.000	-25.096	0.100
437.100	-39.111	0.100
437.200	-30.621	0.100
437.300	-14.636	0.100
437.400	-33.501	0.100
437.500	-29.147	0.100
437.600	-33.205	0.100
437.700	-24.008	0.100
437.800	-27.810	0.100
437.900	-35.724	0.100
438.000	-32.311	0.100
438.100	-15.344	0.100
438.200	-20.536	0.100
438.300	-25.696	0.100
438.400	-25.954	0.100
438.500	-25.732	0.100
438.600	-41.192	0.100
438.700	-46.884	0.100
438.800	-26.451	0.100
438.900	-43.805	0.100
439.000	-29.166	0.100
439.100	-17.755	0.100
439.200	-36.238	0.100
439.300	-18.734	0.100
439.400	-26.576	0.100
439.500	-31.519	0.100
439.600	-17.860	0.100
439.700	-40.161	0.100
439.800	-35.692	0.100
439.900	-31.301	0.100
440.000	-37.658	0.100
440.100	-25.611	0.100
440.200	-22.986	0.100
440.300	-32.900	0.100
440.400	-27.652	0.100
440.500	-31.485	0.100
440.600	-9.596	0.100
440.700	-29.897	0.100
440.800	-34.543	0.100
440.900	-22.926	0.100
441.000	-26.549	0.100
441.100	-36.298	0.100
441.200	-22.868	0.100
441.300	-25.272	0.100
441.400	-34.009	0.100
441.500	-32.886	0.100
441.600	-42.056	0.099
441.700	-26.384	0.100
441.800	-20.750	0.100
441.900	-26.724	0.100
442.000	-37.532	0.100
442.100	-37.522	0.100
442.200	-23.125	0.100
442.300	-28.102	0.100
442.400	-36.961	0.100
442.500	-25.955	0.100
442.600	-32.282	0.100
442.700	-21.484	0.099
442.800	-37.740	0.100
442.900	-27.565	0.100
443.000	-34.383	0.100
443.100	-19.687	0.100
443.200	-32.486	0.100
443.300	-35.638	0.100
443.400	-38.949	0.100
443.500	-23.539	0.100
443.600	-28.712	0.100
443.700	-32.947	0.100
443.800	-31.645	0.100
443.900	-23.223	0.100
444.000	-36.892	0.100
444.100	-23.887	0.100
444.200	-37.202	0.100
444.300	-16.851	0.100
444.400	-25.277	0.100
444.500	-24.639	0.100
444.600	-26.898	0.100
444.700	-35.567	0.100
444.800	-22.648	0.100
444.900	-24.082	0.100
445.000	-30.901	0.100
445.100	-20.475	0.100
445.200	-21.649	0.100
445.300	-29.988	0.100
445.400	-26.126	0.100
445.500	-26.219	0.100
445.600	-31.666	0.100
445.700	-33.118	0.100
445.800	-36.165	0.100
445.900	-35.780	0.100
446.000	-25.025	0.100
446.100	-22.363	0.100
446.200	-19.349	0.100
446.300	-27.860	0.100
446.400	-30.160	0.100
446.500	-20.431	0.100
446.600	-32.846	0.100
446.700	-30.331	0.100
446.800	-35.812	0.100
446.900	-43.001	0.100
447.000	-27.855	0.100
447.100	-27.801	0.100
447.200	-15.538	0.100
447.300	-15.153	0.100
447.400	-27.179	0.100
447.500	-34.947	0.100
447.600	-12.817	0.100
447.700	-41.921	0.100
447.800	-27.837	0.100
447.900	-53.997	0.100
448.000	-24.597	0.100
448.100	-20.358	0.100
448.200	-29.963	0.100
448.300	-35.624	0.100
448.400	-26.658	0.100
448.500	-21.166	0.100
448.600	-29.357	0.100
448.700	-32.016	0.100
448.800	-31.657	0.100
448.900	-14.116	0.100
449.000	-32.285	0.100
449.100	-39.062	0.100
449.200	-24.371	0.100
449.300	-13.451	0.100
449.400	-25.647	0.100
449.500	-32.147	0.099
449.600	-23.925	0.100
449.700	-22.700	0.100
449.800	-30.599	0.100
449.900	-31.941	0.099
450.000	-19.795	0.100
450.100	-26.841	0.100
450.200	-17.068	0.100
450.300	-37.366	0.100
450.400	-28.020	0.100
450.500	-17.309	0.100
450.600	-28.663	0.100
450.700	-28.646	0.100
450.800	-29.113	0.100
450.900	-44.534	0.100
451.000	-27.740	0.100
451.100	-22.682	0.100
451.200	-12.786	0.100
451.300	-23.543	0.100
451.400	-28.429	0.100
451.500	-30.376	0.100
451.600	-31.709	0.100
451.700	-20.449	0.100
451.800	-20.499	0.100
451.900	-23.434	0.100
452.000	-28.966	0.100
452.100	-44.589	0.100
452.200	-25.780	0.100
452.300	-20.809	0.100
452.400	-16.148	0.100
452.500	-13.680	0.100
452.600	-25.203	0.100
452.700	-8.691	0.100
452.800	-31.943	0.100
452.900	-32.679	0.100
453.000	-31.656	0.100
453.100	-46.977	0.100
453.200	-17.666	0.100
453.300	-26.718	0.100
453.400	-28.193	0.100
453.500	-23.943	0.100
453.600	-29.013	0.100
453.700	-26.652	0.100
453.800	-26.289	0.100
453.900	-31.365	0.100
454.000	-31.921	0.100
454.100	-32.169	0.100
454.200	-32.603	0.100
454.300	-23.829	0.100
454.400	-18.185	0.100
454.500	-29.740	0.100
454.600	-26.631	0.100
454.700	-33.153	0.100
454.800	-24.022	0.100
454.900	-27.101	0.100
455.000	-19.520	0.100
455.100	-29.256	0.100
455.200	-33.565	0.100
455.300	-13.009	0.100
455.400	-34.578	0.100
455.500	-7.779	0.100
455.600	-16.828	0.100
455.700	-31.356	0.100
455.800	-29.804	0.100
455.900	-22.128	0.100
456.000	-23.948	0.100
456.100	-37.361	0.100
456.200	-31.846	0.100
456.300	-31.999	0.100
456.400	-30.960	0.100
456.500	-25.497	0.099
456.600	-19.381	0.100
456.700	-13.125	0.100
456.800	-27.444	0.100
456.900	-31.054	0.100
457.000	-35.896	0.099
457.100	-20.317	0.100
457.200	-12.231	0.100
457.300	-26.351	0.100
457.400	-33.088	0.100
457.500	-31.014	0.100
457.600	-16.127	0.100
457.700	-21.129	0.100
457.800	-29.044	0.100
457.900	-19.810	0.100
458.000	-36.874	0.100
458.100	-31.047	0.100
458.200	-37.049	0.100
458.300	-24.576	0.100
458.400	-16.173	0.100
458.500	-37.515	0.100
458.600	-21.587	0.100
458.700	-31.005	0.100
458.800	-30.055	0.100
458.900	-29.366	0.100
459.000	-31.160	0.100
459.100	-21.197	0.100
459.200	-36.350	0.100
459.300	-29.805	0.100
459.400	-36.683	0.099
459.500	-19.334	0.100
459.600	-24.860	0.100
459.700	-18.596	0.100
459.800	-30.668	0.100
459.900	-32.132	0.100
460.000	-35.758	0.100
460.100	-43.361	0.100
460.200	-25.153	0.100
460.300	-20.977	0.100
460.400	-18.497	0.100
460.500	-32.524	0.100
460.600	-25.790	0.100
460.700	-24.852	0.100
460.800	-32.891	0.100
460.900	-19.425	0.100
461.000	-28.962	0.100
461.100	-27.095	0.100
461.200	-20.646	0.100
461.300	-22.453	0.100
461.400	-34.899	0.100
461.500	-20.603	0.100
461.600	-35.500	0.100
461.700	-25.368	0.100
461.800	-25.540	0.100
461.900	-23.418	0.100
462.000	-36.748	0.100
462.100	-24.236	0.100
462.200	-33.687	0.100
462.300	-21.842	0.100
462.400	-13.311	0.100
462.500	-25.229	0.100
462.600	-25.163	0.100
462.700	-35.359	0.100
462.800	-26.482	0.100
462.900	-14.630	0.100
463.000	-14.979	0.100
463.100	-30.422	0.100
463.200	-26.149	0.100
463.300	-21.480	0.100
463.400	-22.512	0.100
463.500	-31.405	0.100
463.600	-27.306	0.100
463.700	-24.784	0.100
463.800	-30.872	0.100
463.900	-16.651	0.100
464.000	-29.419	0.100
464.100	-19.180	0.100
464.200	-31.039	0.100
464.300	-21.116	0.100
464.400	-8.689	0.100
464.500	-39.561	0.100
464.600	-23.902	0.100
464.700	-7.670	0.100
464.800	-36.527	0.100
464.900	-23.039	0.100
465.000	-18.379	0.100
465.100	-22.325	0.100
465.200	-25.733	0.100
465.300	-31.929	0.100
465.400	-29.580	0.100
465.500	-31.552	0.100
465.600	-33.211	0.099
465.700	-20.452	0.100
465.800	-19.798	0.100
465.900	-13.119	0.100
466.000	-36.289	0.100
466.100	-24.719	0.100
466.200	-25.240	0.100
466.300	-27.223	0.100
466.400	-30.795	0.100
466.500	-26.312	0.100
466.600	-31.301	0.100
466.700	-24.283	0.100
466.800	-25.386	0.100
466.900	-28.766	0.100
467.000	-22.144	0.100
467.100	-28.975	0.100
467.200	-23.741	0.100
467.300	-19.975	0.100
467.400	-8.303	0.100
467.500	-30.761	0.100
467.600	-36.459	0.100
467.700	-25.322	0.100
467.800	-29.804	0.100
467.900	-19.084	0.100
468.000	-24.259	0.100
468.100	-22.526	0.100
468.200	-27.797	0.100
468.300	-26.725	0.100
468.400	-17.880	0.100
468.500	-29.606	0.100
468.600	-15.446	0.100
468.700	-28.072	0.100
468.800	-25.227	0.100
468.900	-21.023	0.100
469.000	-20.023	0.100
469.100	-34.577	0.100
469.200	-4.738	0.100
469.300	-27.533	0.100
469.400	-36.179	0.100
469.500	-23.775	0.100
469.600	-17.185	0.100
469.700	-19.146	0.100
469.800	-36.442	0.100
469.900	-26.518	0.100
470.000	-20.443	0.100
470.100	-14.135	0.100
470.200	-24.438	0.100
470.300	-13.308	0.100
470.400	-41.928	0.100
470.500	-21.549	0.100
470.600	-14.861	0.100
470.700	-27.955	0.100
470.800	-17.787	0.100
470.900	-25.889	0.100
471.000	-23.589	0.100
471.100	-30.244	0.100
471.200	-25.568	0.100
471.300	-25.222	0.100
471.400	-15.768	0.100
471.500	-21.687	0.100
471.600	-33.320	0.100
471.700	-19.830	0.100
471.800	-23.346	0.100
471.900	-21.664	0.100
472.000	-22.544	0.100
472.100	-21.153	0.100
472.200	-19.980	0.100
472.300	-21.513	0.100
472.400	-6.084	0.100
472.500	-30.193	0.100
472.600	-7.385	0.100
472.700	-25.471	0.100
472.800	-21.081	0.100
472.900	-27.424	0.100
473.000	-38.052	0.100
473.100	-17.372	0.100
473.200	-10.608	0.100
473.300	-39.159	0.100
473.400	-25.674	0.100
473.500	-27.616	0.100
473.600	-38.397	0.100
473.700	-27.608	0.100
473.800	-11.258	0.100
473.900	-22.344	0.100
474.000	-30.104	0.100
474.100	-16.469	0.100
474.200	-37.752	0.100
474.300	-30.317	0.100
474.400	-24.726	0.100
474.500	-24.134	0.100
474.600	-21.102	0.100
474.700	-29.449	0.100
474.800	-17.257	0.100
474.900	-34.508	0.100
475.000	-29.630	0.100
475.100	-4.703	0.100
475.200	-27.913	0.100
475.300	-34.641	0.100
475.400	-26.645	0.100
475.500	-13.836	0.100
475.600	-20.412	0.100
475.700	-24.329	0.100
475.800	-30.638	0.100
475.900	-18.684	0.100
476.000	-24.576	0.100
476.100	-21.614	0.100
476.200	-25.899	0.100
476.300	-15.932	0.100
476.400	-30.804	0.100
476.500	-26.806	0.100
476.600	-25.520	0.100
476.700	-9.428	0.100
476.800	-28.444	0.100
476.900	-16.654	0.100
477.000	-19.178	0.100
477.100	-27.967	0.100
477.200	-19.513	0.100
477.300	-18.903	0.100
477.400	-15.395	0.100
477.500	-21.010	0.100
477.600	-13.365	0.100
477.700	-19.767	0.100
477.800	-19.548	0.100
477.900	-14.605	0.100
478.000	-29.663	0.100
478.100	-35.606	0.100
478.200	-9.407	0.100
478.300	-26.954	0.100
478.400	-30.603	0.099
478.500	-25.004	0.100
478.600	-22.958	0.100
478.700	-31.184	0.100
478.800	-15.734	0.100
478.900	-20.085	0.100
479.000	-30.841	0.100
479.100	-41.449	0.100
479.200	-13.768	0.100
479.300	-16.523	0.100
479.400	-31.989	0.100
479.500	-18.567	0.100
479.600	-9.864	0.100
479.700	-21.489	0.100
479.800	-12.941	0.100
479.900	-20.605	0.100
480.000	-22.776	0.100
480.100	-20.632	0.100
480.200	-29.134	0.100
480.300	-25.832	0.100
480.400	-16.401	0.100
480.500	-26.956	0.100
480.600	-21.120	0.100
480.700	-26.125	0.100
480.800	-22.481	0.100
480.900	-6.107	0.100
481.000	-4.984	0.100
481.100	-1.001	0.100
481.200	2.158	0.100
481.300	-3.415	0.100
481.400	16.675	0.100
481.500	13.505	0.100
481.600	11.793	0.100
481.700	9.892	0.100
481.800	17.409	0.100
481.900	26.901	0.100
482.000	33.100	0.100
482.100	22.712	0.100
482.200	2.549	0.100
482.300	11.799	0.100
482.400	15.421	0.100
482.500	27.507	0.100
482.600	21.790	0.100
482.700	9.502	0.100
482.800	18.143	0.100
482.900	9.997	0.100
483.000	17.708	0.100
483.100	13.857	0.100
483.200	8.392	0.100
483.300	13.033	0.100
483.400	26.378	0.100
483.500	16.406	0.100
483.600	7.021	0.100
483.700	15.740	0.100
483.800	14.114	0.100
483.900	8.144	0.100
484.000	-0.705	0.099
484.100	12.052	0.100
484.200	11.709	0.100
484.300	0.648	0.100
484.400	12.197	0.100
484.500	4.477	0.100
484.600	14.733	0.100
484.700	11.624	0.100
484.800	1.460	0.100
484.900	7.197	0.100
485.000	1.929	0.100
485.100	12.255	0.100
485.200	17.465	0.100
485.300	7.459	0.100
485.400	9.524	0.100
485.500	12.309	0.100
485.600	0.438	0.100
485.700	9.190	0.100
485.800	7.875	0.100
485.900	6.870	0.100
486.000	8.766	0.100
486.100	0.618	0.100
486.200	-0.125	0.100
486.300	17.096	0.100
486.400	10.148	0.100
486.500	2.868	0.100
486.600	5.980	0.100
486.700	9.465	0.100
486.800	13.644	0.100
486.900	12.660	0.100
487.000	1.618	0.100
487.100	9.401	0.100
487.200	7.154	0.100
487.300	6.153	0.100
487.400	9.618	0.100
487.500	6.645	0.100
487.600	21.778	0.100
487.700	18.153	0.100
487.800	-1.253	0.100
487.900	4.631	0.100
488.000	8.547	0.100
488.100	13.258	0.100
488.200	10.914	0.100
488.300	9.763	0.100
488.400	5.841	0.100
488.500	4.840	0.100
488.600	11.921	0.100
488.700	7.829	0.100
488.800	0.989	0.100
488.900	-3.279	0.100
489.000	14.182	0.100
489.100	10.707	0.100
489.200	12.026	0.100
489.300	11.865	0.100
489.400	7.446	0.100
489.500	19.617	0.100
489.600	13.437	0.100
489.700	21.393	0.100
489.800	11.673	0.100
489.900	22.100	0.100
490.000	21.949	0.100
490.100	7.749	0.100
490.200	12.970	0.100
490.300	27.046	0.100
490.400	16.924	0.100
490.500	17.659	0.100
490.600	12.463	0.100
490.700	7.087	0.100
490.800	24.595	0.100
490.900	20.585	0.100
491.000	25.860	0.100
491.100	12.279	0.100
491.200	24.970	0.100
491.300	17.489	0.100
491.400	15.450	0.100
491.500	24.540	0.100
491.600	24.505	0.100
491.700	30.532	0.100
491.800	24.371	0.100
491.900	15.265	0.100
492.000	20.552	0.100
492.100	8.263	0.100
492.200	27.001	0.100
492.300	23.958	0.100
492.400	35.426	0.100
492.500	27.267	0.100
492.600	31.198	0.100
492.700	25.186	0.100
492.800	18.486	0.100
492.900	21.669	0.100
493.000	25.977	0.100
493.100	29.701	0.100
493.200	35.273	0.100
493.300	9.493	0.100
493.400	16.870	0.100
493.500	39.931	0.100
493.600	23.077	0.100
493.700	25.072	0.100
493.800	28.485	0.100
493.900	35.354	0.100
494.000	34.158	0.100
494.100	32.718	0.100
494.200	43.047	0.100
494.300	28.067	0.100
494.400	36.058	0.100
494.500	18.359	0.100
494.600	33.621	0.100
494.700	35.988	0.100
494.800	26.189	0.100
494.900	31.835	0.100
495.000	34.594	0.100
495.100	42.533	0.100
495.200	34.426	0.100
495.300	26.440	0.100
495.400	25.276	0.100
495.500	47.270	0.100
495.600	28.073	0.100
495.700	36.161	0.100
495.800	35.048	0.100
495.900	32.174	0.100
496.000	31.392	0.100
496.100	39.695	0.100
496.200	39.244	0.100
496.300	43.037	0.100
496.400	32.674	0.100
496.500	38.742	0.100
496.600	38.841	0.100
496.700	43.978	0.100
496.800	35.864	0.100
496.900	36.441	0.100
497.000	44.523	0.100
497.100	35.104	0.100
497.200	40.452	0.100
497.300	38.799	0.100
497.400	38.034	0.100
497.500	34.236	0.100
497.600	47.326	0.100
497.700	35.558	0.100
497.800	26.824	0.100
497.900	41.383	0.100
498.000	27.360	0.100
498.100	40.352	0.100
498.200	39.868	0.100
498.300	40.231	0.100
498.400	49.326	0.100
498.500	35.977	0.100
498.600	25.696	0.100
498.700	36.186	0.100
498.800	40.723	0.100
498.900	34.875	0.100
499.000	48.447	0.100
499.100	43.552	0.100
499.200	30.464	0.100
499.300	42.088	0.100
499.400	29.013	0.100
499.500	36.901	0.100
499.600	44.557	0.100
499.700	53.409	0.100
499.800	43.484	0.100
499.900	35.708	0.100
500.000	41.584	0.100
500.100	43.641	0.100
500.200	42.056	0.100
500.300	41.200	0.100
500.400	41.343	0.100
500.500	41.129	0.100
500.600	45.276	0.100
500.700	42.924	0.100
500.800	36.081	0.100
500.900	47.821	0.100
501.000	32.736	0.100
501.100	39.257	0.100
501.200	51.246	0.100
501.300	34.920	0.100
501.400	34.436	0.100
501.500	23.609	0.100
501.600	52.674	0.100
501.700	38.613	0.100
501.800	52.563	0.100
501.900	49.054	0.100
502.000	51.287	0.100
502.100	53.812	0.100
502.200	40.221	0.100
502.300	45.878	0.100
502.400	41.675	0.100
502.500	45.932	0.100
502.600	44.765	0.100
502.700	37.699	0.100
502.800	55.594	0.100
502.900	55.852	0.100
503.000	40.582	0.100
503.100	40.212	0.100
503.200	51.566	0.100
503.300	54.807	0.100
503.400	42.166	0.100
503.500	39.589	0.100
503.600	39.779	0.100
503.700	55.967	0.100
503.800	48.592	0.100
503.900	42.531	0.100
504.000	43.174	0.100
504.100	48.018	0.100
504.200	49.297	0.100
504.300	46.004	0.100
504.400	39.210	0.100
504.500	56.691	0.100
504.600	47.270	0.100
504.700	51.207	0.100
504.800	39.433	0.100
504.900	61.053	0.100
505.000	38.117	0.100
505.100	41.346	0.100
505.200	37.518	0.100
505.300	52.405	0.100
505.400	47.802	0.100
505.500	48.505	0.100
505.600	51.864	0.100
505.700	47.674	0.100
505.800	61.212	0.100
505.900	43.789	0.100
506.000	52.969	0.100
506.100	49.522	0.100
506.200	53.378	0.100
506.300	61.306	0.100
506.400	42.090	0.100
506.500	48.784	0.100
506.600	52.777	0.100
506.700	57.646	0.100
506.800	53.679	0.100
506.900	47.436	0.100
507.000	49.524	0.100
507.100	52.646	0.100
507.200	49.377	0.100
507.300	57.108	0.100
507.400	58.921	0.100
507.500	49.184	0.100
507.600	36.653	0.100
507.700	52.690	0.100
507.800	46.783	0.100
507.900	55.970	0.100
508.000	45.921	0.100
508.100	48.002	0.100
508.200	62.694	0.100
508.300	50.703	0.100
508.400	42.049	0.100
508.500	53.887	0.100
508.600	45.122	0.100
508.700	46.365	0.100
508.800	44.210	0.100
508.900	62.786	0.100
509.000	53.499	0.100
509.100	52.917	0.100
509.200	43.512	0.100
509.300	46.211	0.100
509.400	57.284	0.100
509.500	52.992	0.100
509.600	34.623	0.100
509.700	48.059	0.100
509.800	33.181	0.100
509.900	40.261	0.100
510.000	48.648	0.100
510.100	63.383	0.100
510.200	49.452	0.100
510.300	54.524	0.100
510.400	51.900	0.100
510.500	52.685	0.100
510.600	49.621	0.100
510.700	52.411	0.100
510.800	49.963	0.100
510.900	38.042	0.100
511.000	53.373	0.100
511.100	44.946	0.100
511.200	45.552	0.100
511.300	45.242	0.100
511.400	54.037	0.100
511.500	43.926	0.100
511.600	52.604	0.100
511.700	45.035	0.100
511.800	45.260	0.100
511.900	47.804	0.100
512.000	50.081	0.100
512.100	46.936	0.100
512.200	60.844	0.100
512.300	36.991	0.100
512.400	32.601	0.100
512.500	50.433	0.100
512.600	55.219	0.100
512.700	51.845	0.100
512.800	41.028	0.100
512.900	43.441	0.100
513.000	48.295	0.100
513.100	38.356	0.100
513.200	55.619	0.100
513.300	46.878	0.100
513.400	65.863	0.100
513.500	51.784	0.100
513.600	45.474	0.100
513.700	47.507	0.100
513.800	46.336	0.100
513.900	43.987	0.100
514.000	55.138	0.100
514.100	39.970	0.100
514.200	48.871	0.100
514.300	57.686	0.100
514.400	39.319	0.100
514.500	61.655	0.100
514.600	47.644	0.100
514.700	54.259	0.100
514.800	37.397	0.100
514.900	46.756	0.100
515.000	54.589	0.100
515.100	35.705	0.100
515.200	45.267	0.100
515.300	57.214	0.100
515.400	56.393	0.100
515.500	38.208	0.100
515.600	48.660	0.100
515.700	43.897	0.100
515.800	54.278	0.100
515.900	49.262	0.100
516.000	55.541	0.100
516.100	35.441	0.100
516.200	45.540	0.100
516.300	44.403	0.100
516.400	43.347	0.100
516.500	46.141	0.100
516.600	47.723	0.100
516.700	37.392	0.100
516.800	53.838	0.100
516.900	53.374	0.100
517.000	52.773	0.100
517.100	45.724	0.100
517.200	35.070	0.100
517.300	37.216	0.100
517.400	45.167	0.100
517.500	57.249	0.100
517.600	53.867	0.100
517.700	41.415	0.100
517.800	44.142	0.100
517.900	42.759	0.100
518.000	43.384	0.100
518.100	33.779	0.100
518.200	49.445	0.100
518.300	57.094	0.100
518.400	45.527	0.100
518.500	54.235	0.100
518.600	45.376	0.100
518.700	44.154	0.100
518.800	48.249	0.100
518.900	46.189	0.100
519.000	53.031	0.100
519.100	40.352	0.100
519.200	51.242	0.100
519.300	47.672	0.100
519.400	59.092	0.100
519.500	54.152	0.100
519.600	41.434	0.100
519.700	43.970	0.100
519.800	48.940	0.100
519.900	39.935	0.100
520.000	50.745	0.100
520.100	50.782	0.100
520.200	51.152	0.100
520.300	38.239	0.100
520.400	52.746	0.100
520.500	58.538	0.100
520.600	40.984	0.100
520.700	46.109	0.100
520.800	40.056	0.100
520.900	49.146	0.100
521.000	60.918	0.100
521.100	44.203	0.100
521.200	16.456	0.099
521.300	42.509	0.100
521.400	29.961	0.100
521.500	46.985	0.100
521.600	48.602	0.100
521.700	56.333	0.100
521.800	43.775	0.100
521.900	51.599	0.100
522.000	42.788	0.100
522.100	37.144	0.100
522.200	46.902	0.100
522.300	47.890	0.100
522.400	44.725	0.100
522.500	45.957	0.100
522.600	37.707	0.100
522.700	47.752	0.100
522.800	48.029	0.100
522.900	37.224	0.100
523.000	44.424	0.100
523.100	51.239	0.100
523.200	48.750	0.100
523.300	52.815	0.100
523.400	31.542	0.100
523.500	45.291	0.100
523.600	48.380	0.100
523.700	57.231	0.100
523.800	36.427	0.100
523.900	47.341	0.100
524.000	38.537	0.100
524.100	36.600	0.100
524.200	52.020	0.100
524.300	54.010	0.100
524.400	43.866	0.100
524.500	45.550	0.100
524.600	56.704	0.100
524.700	45.007	0.100
524.800	44.134	0.100
524.900	50.207	0.100
525.000	46.713	0.100
525.100	47.335	0.100
525.200	39.556	0.100
525.300	50.229	0.100
525.400	46.278	0.100
525.500	45.370	0.100
525.600	49.903	0.099
525.700	40.871	0.100
525.800	51.696	0.100
525.900	43.183	0.100
526.000	46.999	0.100
526.100	39.022	0.100
526.200	54.287	0.100
526.300	48.539	0.100
526.400	43.998	0.100
526.500	42.908	0.100
526.600	41.306	0.100
526.700	48.243	0.100
526.800	51.136	0.100
526.900	48.057	0.100
527.000	37.060	0.100
527.100	29.246	0.100
527.200	37.784	0.100
527.300	50.384	0.100
527.400	49.678	0.100
527.500	38.825	0.100
527.600	40.214	0.100
527.700	48.301	0.100
527.800	56.559	0.100
527.900	47.206	0.100
528.000	57.083	0.100
528.100	43.936	0.100
528.200	40.439	0.100
528.300	35.667	0.100
528.400	51.776	0.100
528.500	57.427	0.100
528.600	40.168	0.100
528.700	48.780	0.100
528.800	41.041	0.100
528.900	48.477	0.100
529.000	44.087	0.100
529.100	49.738	0.100
529.200	40.663	0.100
529.300	46.363	0.100
529.400	50.977	0.100
529.500	46.821	0.100
529.600	43.419	0.100
529.700	45.180	0.100
529.800	40.408	0.100
529.900	33.133	0.100
530.000	51.578	0.100
530.100	45.121	0.100
530.200	49.040	0.100
530.300	46.996	0.100
530.400	51.376	0.100
530.500	49.347	0.100
530.600	57.447	0.100
530.700	36.793	0.100
530.800	48.560	0.100
530.900	33.417	0.100
531.000	52.412	0.100
531.100	51.018	0.100
531.200	36.882	0.100
531.300	54.850	0.100
531.400	44.604	0.100
531.500	52.847	0.100
531.600	19.690	0.100
531.700	46.369	0.100
531.800	30.963	0.100
531.900	50.669	0.100
532.000	42.326	0.100
532.100	47.813	0.100
532.200	52.389	0.100
532.300	54.144	0.100
532.400	26.548	0.100
532.500	40.471	0.100
532.600	54.427	0.100
532.700	38.361	0.100
532.800	48.792	0.100
532.900	44.229	0.100
533.000	48.600	0.100
533.100	51.072	0.100
533.200	38.643	0.100
533.300	54.138	0.100
533.400	34.483	0.100
533.500	46.078	0.100
533.600	33.484	0.100
533.700	46.796	0.100
533.800	42.561	0.100
533.900	46.838	0.100
534.000	35.622	0.100
534.100	37.953	0.100
534.200	43.506	0.100
534.300	45.737	0.100
534.400	26.134	0.100
534.500	25.641	0.100
534.600	36.508	0.100
534.700	46.620	0.100
534.800	39.372	0.100
534.900	47.552	0.100
535.000	50.566	0.100
535.100	49.173	0.100
535.200	50.105	0.100
535.300	24.380	0.100
535.400	47.466	0.100
535.500	40.322	0.100
535.600	45.543	0.100
535.700	32.115	0.100
535.800	40.614	0.100
535.900	36.806	0.100
536.000	41.912	0.100
536.100	47.831	0.100
536.200	31.311	0.100
536.300	45.799	0.100
536.400	45.355	0.100
536.500	44.772	0.100
536.600	56.338	0.100
536.700	36.330	0.100
536.800	43.110	0.100
536.900	46.872	0.100
537.000	42.089	0.100
537.100	49.995	0.100
537.200	46.031	0.100
537.300	47.967	0.100
537.400	35.316	0.100
537.500	43.747	0.100
537.600	55.583	0.100
537.700	45.981	0.100
537.800	46.235	0.100
537.900	41.569	0.100
538.000	39.720	0.100
538.100	44.666	0.100
538.200	47.626	0.100
538.300	28.974	0.100
538.400	44.593	0.100
538.500	53.372	0.100
538.600	50.631	0.100
538.700	30.625	0.100
538.800	37.181	0.100
538.900	48.337	0.100
539.000	33.972	0.100
539.100	41.573	0.100
539.200	43.464	0.100
539.300	30.932	0.100
539.400	51.399	0.100
539.500	30.331	0.100
539.600	52.586	0.100
539.700	43.971	0.100
539.800	41.338	0.100
539.900	41.878	0.100
540.000	42.795	0.100
540.100	29.650	0.100
540.200	42.306	0.100
540.300	47.570	0.100
540.400	41.798	0.100
540.500	34.291	0.100
540.600	37.727	0.100
540.700	27.353	0.100
540.800	27.665	0.100
540.900	33.630	0.100
541.000	26.578	0.100
541.100	1.713	0.100
541.200	21.905	0.100
541.300	18.908	0.100
541.400	12.815	0.100
541.500	0.076	0.100
541.600	9.792	0.100
541.700	18.172	0.100
541.800	2.263	0.100
541.900	16.180	0.100
542.000	-0.244	0.100
542.100	-1.584	0.100
542.200	-0.079	0.100
542.300	-5.880	0.100
542.400	-1.609	0.100
542.500	-7.018	0.100
542.600	-11.631	0.100
542.700	-12.653	0.100
542.800	7.401	0.100
542.900	-9.228	0.100
543.000	-4.987	0.100
543.100	-7.015	0.100
543.200	-1.901	0.100
543.300	-11.595	0.100
543.400	-11.042	0.100
543.500	-7.699	0.100
543.600	-8.671	0.100
543.700	-6.478	0.100
543.800	-19.238	0.100
543.900	-18.564	0.100
544.000	-10.414	0.100
544.100	-11.400	0.100
544.200	-9.236	0.100
544.300	-16.036	0.100
544.400	-14.306	0.100
544.500	-9.523	0.100
544.600	-10.988	0.100
544.700	-14.743	0.100
544.800	-19.854	0.100
544.900	-20.314	0.100
545.000	-17.180	0.100
545.100	-23.050	0.100
545.200	-36.849	0.100
545.300	-19.419	0.100
545.400	-11.271	0.100
545.500	-16.045	0.100
545.600	-29.016	0.100
545.700	-33.481	0.100
545.800	2.067	0.100
545.900	-20.162	0.100
546.000	-27.520	0.100
546.100	-15.930	0.100
546.200	-16.698	0.100
546.300	-28.215	0.100
546.400	-19.741	0.100
546.500	-18.247	0.100
546.600	-0.671	0.100
546.700	-22.095	0.100
546.800	-16.508	0.100
546.900	-26.557	0.100
547.000	-11.184	0.100
547.100	-19.612	0.100
547.200	-18.107	0.100
547.300	-26.502	0.100
547.400	-16.201	0.100
547.500	-18.130	0.100
547.600	-22.658	0.100
547.700	-13.669	0.100
547.800	-13.731	0.100
547.900	-13.245	0.100
548.000	-19.476	0.100
548.100	-18.970	0.100
548.200	-5.373	0.100
548.300	-13.700	0.100
548.400	-10.224	0.100
548.500	-12.428	0.100
548.600	-10.396	0.100
548.700	-26.111	0.100
548.800	-19.938	0.100
548.900	-15.598	0.100
549.000	-6.951	0.100
549.100	-10.634	0.100
549.200	-21.515	0.100
549.300	-19.725	0.100
549.400	-7.636	0.100
549.500	-11.422	0.100
549.600	-14.288	0.100
549.700	-14.235	0.100
549.800	-20.596	0.100
549.900	-12.818	0.100
550.000	-30.608	0.100
550.100	-26.311	0.100
550.200	-18.496	0.100
550.300	-9.504	0.100
550.400	-22.131	0.100
550.500	-20.080	0.100
550.600	-22.332	0.100
550.700	-13.213	0.100
550.800	-24.880	0.100
550.900	-17.673	0.100
551.000	-8.258	0.100
551.100	-12.226	0.100
551.200	-15.949	0.100
551.300	-32.379	0.100
551.400	-23.181	0.100
551.500	-17.826	0.100
551.600	-24.576	0.100
551.700	-13.514	0.100
551.800	-2.689	0.100
551.900	-23.403	0.100
552.000	-20.821	0.100
552.100	-12.585	0.100
552.200	-30.860	0.100
552.300	-26.353	0.100
552.400	-8.400	0.100
552.500	-19.231	0.100
552.600	-18.043	0.100
552.700	-23.585	0.100
552.800	-14.259	0.100
552.900	-31.287	0.100
553.000	-17.898	0.100
553.100	-0.619	0.100
553.200	-9.233	0.100
553.300	-17.218	0.100
553.400	-10.550	0.100
553.500	-12.942	0.100
553.600	-16.520	0.100
553.700	-16.007	0.100
553.800	-23.996	0.100
553.900	-23.927	0.100
554.000	-23.624	0.100
554.100	-24.209	0.100
554.200	-14.388	0.100
554.300	-19.037	0.100
554.400	-23.031	0.100
554.500	-18.482	0.100
554.600	-36.879	0.100
554.700	-27.015	0.100
554.800	-18.142	0.100
554.900	-22.752	0.100
555.000	-27.700	0.099
555.100	-24.065	0.100
555.200	-19.841	0.100
555.300	-26.073	0.100
555.400	-19.464	0.100
555.500	-29.707	0.100
555.600	-19.935	0.100
555.700	-11.160	0.100
555.800	-23.360	0.100
555.900	-11.760	0.100
556.000	-32.459	0.100
556.100	-11.474	0.100
556.200	-15.535	0.100
556.300	-23.238	0.100
556.400	-15.361	0.100
556.500	-22.321	0.100
556.600	-27.049	0.100
556.700	-11.833	0.100
556.800	-31.364	0.100
556.900	-28.171	0.100
557.000	-10.206	0.100
557.100	-29.532	0.100
557.200	-26.766	0.100
557.300	-25.072	0.100
557.400	-30.448	0.100
557.500	-22.106	0.100
557.600	-30.825	0.100
557.700	-18.902	0.100
557.800	-21.853	0.100
557.900	-17.075	0.100
558.000	-41.281	0.100
558.100	-27.807	0.100
558.200	-26.303	0.100
558.300	-29.077	0.100
558.400	-28.763	0.100
558.500	-15.464	0.100
558.600	-20.383	0.100
558.700	-19.259	0.100
558.800	-12.184	0.100
558.900	-30.211	0.100
559.000	-33.294	0.100
559.100	-26.066	0.100
559.200	-34.036	0.100
559.300	-22.671	0.100
559.400	-20.894	0.100
559.500	-19.067	0.100
559.600	-23.016	0.100
559.700	-34.230	0.100
559.800	-27.214	0.100
559.900	-16.230	0.100
560.000	-31.397	0.100
560.100	-26.617	0.100
560.200	-19.187	0.100
560.300	-22.388	0.100
560.400	-16.253	0.100
560.500	-25.029	0.100
560.600	-20.693	0.100
560.700	-25.275	0.100
560.800	-30.667	0.100
560.900	-33.027	0.100
561.000	-35.553	0.100
561.100	-14.460	0.100
561.200	-20.550	0.100
561.300	-7.808	0.100
561.400	-24.130	0.100
561.500	-25.820	0.100
561.600	-1.256	0.100
561.700	-23.190	0.100
561.800	-35.074	0.100
561.900	-41.080	0.100
562.000	-22.566	0.100
562.100	-10.448	0.100
562.200	-7.567	0.100
562.300	-15.759	0.100
562.400	-30.783	0.100
562.500	-29.727	0.100
562.600	-22.130	0.100
562.700	-30.650	0.100
562.800	-21.604	0.100
562.900	-30.060	0.100
563.000	-16.261	0.100
563.100	-42.328	0.100
563.200	-28.980	0.100
563.300	-14.715	0.100
563.400	-17.722	0.100
563.500	-19.835	0.100
563.600	-27.036	0.100
563.700	-18.702	0.100
563.800	-26.702	0.100
563.900	-30.773	0.100
564.000	-28.783	0.100
564.100	-24.507	0.100
564.200	-25.505	0.100
564.300	-37.932	0.100
564.400	-33.607	0.100
564.500	-15.320	0.100
564.600	-33.710	0.100
564.700	-34.257	0.100
564.800	-20.524	0.100
564.900	-17.721	0.100
565.000	-20.250	0.100
565.100	-23.024	0.100
565.200	-20.962	0.100
565.300	-49.961	0.100
565.400	-33.205	0.100
565.500	-37.105	0.100
565.600	-25.718	0.100
565.700	-12.450	0.100
565.800	-33.443	0.100
565.900	-22.333	0.100
566.000	-25.991	0.100
566.100	-35.743	0.100
566.200	-35.111	0.100
566.300	-12.067	0.100
566.400	-19.593	0.100
566.500	-31.868	0.100
566.600	-17.083	0.100
566.700	-26.119	0.100
566.800	-32.603	0.100
566.900	-17.505	0.100
567.000	-13.508	0.100
567.100	-35.029	0.100
567.200	-51.961	0.100
567.300	-23.823	0.100
567.400	-21.458	0.100
567.500	-47.493	0.100
567.600	-29.940	0.099
567.700	-15.793	0.100
567.800	-35.212	0.100
567.900	-24.267	0.100
568.000	-25.458	0.100
568.100	-38.392	0.100
568.200	-36.142	0.100
568.300	-24.946	0.100
568.400	-26.701	0.100
568.500	-24.669	0.100
568.600	-32.799	0.100
568.700	-25.017	0.100
568.800	-32.100	0.100
568.900	-39.229	0.100
569.000	-31.006	0.100
569.100	-21.059	0.100
569.200	-33.621	0.100
569.300	-40.460	0.100
569.400	-33.210	0.100
569.500	-29.902	0.100
569.600	-34.837	0.100
569.700	-24.347	0.100
569.800	-27.219	0.100
569.900	-26.134	0.100
570.000	-26.590	0.100
570.100	-22.108	0.100
570.200	-23.855	0.100
570.300	-24.249	0.100
570.400	-24.828	0.100
570.500	-29.566	0.100
570.600	-27.062	0.100
570.700	-39.150	0.100
570.800	-22.112	0.100
570.900	-20.979	0.100
571.000	-38.818	0.100
571.100	-31.356	0.100
571.200	-34.151	0.100
571.300	-33.250	0.100
571.400	-28.383	0.100
571.500	-35.596	0.100
571.600	-33.709	0.100
571.700	-26.195	0.100
571.800	-29.273	0.100
571.900	-41.606	0.100
572.000	-28.750	0.100
572.100	-35.266	0.100
572.200	-23.153	0.100
572.300	-27.934	0.100
572.400	-16.837	0.100
572.500	-24.671	0.100
572.600	-33.552	0.100
572.700	-29.256	0.100
572.800	-30.742	0.100
572.900	-49.145	0.100
573.000	-22.443	0.100
573.100	-24.015	0.100
573.200	-34.884	0.100
573.300	-31.717	0.100
573.400	-30.952	0.100
573.500	-29.410	0.100
573.600	-28.440	0.100
573.700	-25.616	0.100
573.800	-31.464	0.100
573.900	-29.189	0.100
574.000	-30.928	0.100
574.100	-25.602	0.100
574.200	-24.285	0.100
574.300	-37.278	0.100
574.400	-28.395	0.100
574.500	-32.567	0.100
574.600	-38.439	0.100
574.700	-20.420	0.100
574.800	-33.070	0.100
574.900	-23.713	0.100
575.000	-31.168	0.100
575.100	-31.839	0.100
575.200	-22.997	0.100
575.300	-40.836	0.100
575.400	-44.345	0.100
575.500	-28.311	0.100
575.600	-29.060	0.100
575.700	-26.093	0.100
575.800	-30.634	0.100
575.900	-29.618	0.100
576.000	-41.107	0.100
576.100	-29.354	0.100
576.200	-33.111	0.100
576.300	-37.757	0.100
576.400	-25.098	0.100
576.500	-15.317	0.100
576.600	-28.569	0.100
576.700	-29.762	0.100
576.800	-34.734	0.100
576.900	-29.244	0.100
577.000	-28.789	0.100
577.100	-31.714	0.100
577.200	-37.595	0.100
577.300	-20.536	0.100
577.400	-37.770	0.100
577.500	-29.953	0.100
577.600	-31.111	0.100
577.700	-40.130	0.100
577.800	-28.532	0.100
577.900	-34.652	0.100
578.000	-32.250	0.100
578.100	-30.795	0.100
578.200	-19.033	0.100
578.300	-21.344	0.100
578.400	-33.711	0.100
578.500	-30.885	0.100
578.600	-34.700	0.100
578.700	-37.772	0.100
578.800	-31.889	0.100
578.900	-24.653	0.100
579.000	-25.106	0.100
579.100	-41.360	0.100
579.200	-33.020	0.100
579.300	-25.308	0.100
579.400	-28.846	0.100
579.500	-52.790	0.100
579.600	-30.574	0.100
579.700	-32.239	0.100
579.800	-24.419	0.100
579.900	-27.960	0.100
580.000	-32.558	0.100
580.100	-36.921	0.100
580.200	-23.183	0.100
580.300	-25.148	0.100
580.400	-17.250	0.100
580.500	-35.168	0.100
580.600	-23.976	0.100
580.700	-33.669	0.100
580.800	-29.398	0.100
580.900	-37.560	0.100
581.000	-31.420	0.100
581.100	-32.910	0.100
581.200	-27.708	0.100
581.300	-31.614	0.100
581.400	-29.560	0.100
581.500	-23.164	0.100
581.600	-32.146	0.100
581.700	-29.232	0.100
581.800	-37.410	0.100
581.900	-19.048	0.100
582.000	-27.576	0.100
582.100	-31.130	0.100
582.200	-27.363	0.100
582.300	-32.932	0.100
582.400	-29.036	0.100
582.500	-29.897	0.100
582.600	-29.928	0.100
582.700	-26.175	0.100
582.800	-27.213	0.100
582.900	-41.243	0.100
583.000	-26.888	0.100
583.100	-28.051	0.100
583.200	-39.829	0.100
583.300	-30.960	0.100
583.400	-35.130	0.100
583.500	-25.676	0.100
583.600	-20.243	0.100
583.700	-32.194	0.100
583.800	-43.352	0.100
583.900	-41.492	0.100
584.000	-13.674	0.100
584.100	-31.692	0.100
584.200	-29.918	0.100
584.300	-31.216	0.100
584.400	-28.317	0.100
584.500	-30.139	0.100
584.600	-41.985	0.100
584.700	-27.634	0.100
584.800	-29.172	0.100
584.900	-25.193	0.100
585.000	-31.750	0.100
585.100	-30.403	0.100
585.200	-22.547	0.100
585.300	-41.517	0.100
585.400	-15.558	0.100
585.500	-31.786	0.100
585.600	-25.998	0.100
585.700	-26.537	0.100
585.800	-28.967	0.100
585.900	-22.704	0.100
586.000	-37.616	0.100
586.100	-40.563	0.100
586.200	-33.210	0.100
586.300	-21.599	0.100
586.400	-32.749	0.100
586.500	-22.696	0.100
586.600	-29.699	0.100
586.700	-25.677	0.100
586.800	-33.216	0.100
586.900	-29.047	0.100
587.000	-28.243	0.100
587.100	-24.155	0.100
587.200	-29.467	0.100
587.300	-26.601	0.100
587.400	-15.429	0.100
587.500	-32.237	0.100
587.600	-35.656	0.100
587.700	-26.581	0.100
587.800	-43.328	0.100
587.900	-35.256	0.100
588.000	-29.184	0.100
588.100	-13.736	0.100
588.200	-25.386	0.100
588.300	-32.973	0.100
588.400	-37.871	0.100
588.500	-15.422	0.100
588.600	-27.360	0.100
588.700	-26.197	0.100
588.800	-28.575	0.100
588.900	-18.331	0.100
589.000	-32.024	0.100
589.100	-43.122	0.100
589.200	-32.014	0.100
589.300	-24.173	0.100
589.400	-16.853	0.100
589.500	-24.630	0.100
589.600	-34.982	0.100
589.700	-31.712	0.100
589.800	-47.148	0.100
589.900	-29.058	0.100
590.000	-37.504	0.100
590.100	-33.296	0.100
590.200	-24.373	0.100
590.300	-14.626	0.100
590.400	-29.319	0.100
590.500	-31.849	0.100
590.600	-32.784	0.100
590.700	-34.033	0.100
590.800	-12.934	0.100
590.900	-24.721	0.100
591.000	-44.235	0.100
591.100	-32.515	0.100
591.200	-35.552	0.100
591.300	-22.825	0.100
591.400	-30.831	0.100
591.500	-22.450	0.100
591.600	-35.537	0.100
591.700	-25.578	0.100
591.800	-33.050	0.100
591.900	-25.397	0.100
592.000	-27.710	0.100
592.100	-27.592	0.100
592.200	-26.429	0.100
592.300	-25.191	0.100
592.400	-36.729	0.100
592.500	-28.266	0.100
592.600	-30.037	0.100
592.700	-29.976	0.100
592.800	-24.036	0.100
592.900	-53.521	0.100
593.000	-40.240	0.100
593.100	-17.404	0.100
593.200	-27.573	0.100
593.300	-16.030	0.100
593.400	-28.456	0.100
593.500	-35.436	0.100
593.600	-26.015	0.100
593.700	-27.494	0.100
593.800	-24.683	0.100
593.900	-23.180	0.100
594.000	-32.534	0.100
594.100	-23.788	0.100
594.200	-32.880	0.100
594.300	-33.930	0.100
594.400	-28.385	0.100
594.500	-34.773	0.100
594.600	-25.513	0.100
594.700	-25.462	0.100
594.800	-19.432	0.100
594.900	-26.357	0.100
595.000	-31.184	0.100
595.100	-36.460	0.100
595.200	-39.524	0.100
595.300	-38.072	0.100
595.400	-23.613	0.100
595.500	-21.016	0.100
595.600	-29.744	0.100
595.700	-37.296	0.100
595.800	-24.322	0.100
595.900	-34.160	0.100
596.000	-49.352	0.100
596.100	-27.273	0.100
596.200	-25.819	0.100
596.300	-40.443	0.100
596.400	-20.680	0.100
596.500	-20.905	0.100
596.600	-19.401	0.100
596.700	-34.180	0.100
596.800	-29.864	0.100
596.900	-27.806	0.100
597.000	-25.687	0.100
597.100	-12.876	0.100
597.200	-17.250	0.100
597.300	-30.135	0.100
597.400	-30.323	0.100
597.500	-36.347	0.100
597.600	-22.300	0.100
597.700	-30.622	0.100
597.800	-17.394	0.100
597.900	-15.997	0.100
598.000	-35.373	0.100
598.100	-37.730	0.100
598.200	-19.707	0.100
598.300	-31.939	0.100
598.400	-29.774	0.100
598.500	-38.287	0.100
598.600	-24.496	0.100
598.700	-29.759	0.100
598.800	-25.073	0.100
598.900	-27.933	0.100
599.000	-28.678	0.100
599.100	-27.245	0.100
599.200	-25.392	0.100
599.300	-17.748	0.100
599.400	-23.042	0.100
599.500	-31.784	0.100
599.600	-26.263	0.100
599.700	-30.270	0.100
599.800	-27.808	0.100
599.900	-20.788	0.100
600.000	-31.292	0.100
600.100	-16.861	0.100
600.200	-23.003	0.100
600.300	-29.510	0.100
600.400	-20.972	0.100
600.500	-14.591	0.100
600.600	-36.725	0.100
600.700	-48.698	0.100
600.800	-23.042	0.100
600.900	-31.200	0.100
601.000	-24.213	0.100
601.100	-22.472	0.100
601.200	-25.752	0.100
601.300	-22.010	0.100
601.400	-35.012	0.100
601.500	-24.305	0.100
601.600	-31.780	0.100
601.700	-20.739	0.100
601.800	-29.921	0.100
601.900	-35.306	0.100
602.000	-15.241	0.100
602.100	-15.035	0.100
602.200	-20.961	0.100
602.300	-31.687	0.100
602.400	-25.611	0.100
602.500	-27.387	0.100
602.600	-14.388	0.100
602.700	-37.283	0.100
602.800	-15.462	0.100
602.900	-32.695	0.100
603.000	-27.046	0.100
603.100	-27.883	0.100
603.200	-18.215	0.100
603.300	-28.108	0.100
603.400	-13.678	0.100
603.500	-27.912	0.100
603.600	-27.092	0.100
603.700	-25.747	0.100
603.800	-20.366	0.100
603.900	-14.602	0.100
604.000	-26.004	0.100
604.100	-25.481	0.100
604.200	-35.544	0.100
604.300	-32.233	0.100
604.400	-28.786	0.100
604.500	-30.968	0.100
604.600	-37.949	0.100
604.700	-14.252	0.100
604.800	-40.860	0.100
604.900	-28.427	0.100
605.000	-12.747	0.100
605.100	-28.187	0.100
605.200	-29.394	0.100
605.300	-26.614	0.100
605.400	-29.376	0.100
605.500	-22.438	0.100
605.600	-44.641	0.100
605.700	-26.469	0.100
605.800	-21.062	0.100
605.900	-46.968	0.100
606.000	-21.250	0.100
606.100	-18.358	0.100
606.200	-31.688	0.100
606.300	-18.413	0.100
606.400	-15.048	0.100
606.500	-30.453	0.100
606.600	-30.659	0.100
606.700	-13.449	0.100
606.800	-38.358	0.100
606.900	-25.732	0.100
607.000	-42.149	0.100
607.100	-10.708	0.100
607.200	-29.957	0.100
607.300	-32.795	0.099
607.400	-8.798	0.100
607.500	-17.913	0.100
607.600	-25.019	0.100
607.700	-23.320	0.100
607.800	-28.610	0.100
607.900	-27.668	0.100
608.000	-23.692	0.100
608.100	-19.912	0.100
608.200	-12.890	0.100
608.300	-34.287	0.100
608.400	-24.112	0.100
608.500	-17.823	0.100
608.600	-18.847	0.100
608.700	-33.260	0.100
608.800	-27.681	0.100
608.900	-28.513	0.100
609.000	-28.591	0.100
609.100	-23.505	0.100
609.200	-36.146	0.100
609.300	-19.227	0.100
609.400	-17.522	0.100
609.500	-25.092	0.100
609.600	-18.596	0.100
609.700	-36.121	0.099
609.800	-28.947	0.100
609.900	-22.065	0.100
610.000	-14.515	0.100
610.100	-25.743	0.100
610.200	-20.913	0.100
610.300	-25.912	0.100
610.400	-27.041	0.100
610.500	-22.876	0.100
610.600	-25.050	0.100
610.700	-34.335	0.100
610.800	-25.014	0.099
610.900	-25.051	0.100
611.000	-32.572	0.100
611.100	-20.208	0.100
611.200	-27.967	0.100
611.300	-31.548	0.100
611.400	-24.969	0.100
611.500	-22.266	0.100
611.600	-28.411	0.100
611.700	-19.980	0.100
611.800	-34.636	0.099
611.900	-17.749	0.100
612.000	-25.795	0.100
612.100	-13.424	0.100
612.200	-37.018	0.100
612.300	-12.212	0.100
612.400	-29.384	0.100
612.500	-27.512	0.100
612.600	-17.999	0.100
612.700	-27.088	0.100
612.800	-20.535	0.100
612.900	-27.828	0.100
613.000	-26.830	0.100
613.100	-26.020	0.100
613.200	-26.894	0.100
613.300	-28.188	0.100
613.400	-25.655	0.100
613.500	-21.905	0.100
613.600	-27.266	0.100
613.700	-26.820	0.100
613.800	-31.736	0.100
613.900	-25.688	0.100
614.000	-26.732	0.100
614.100	-25.866	0.100
614.200	-25.474	0.100
614.300	-41.116	0.100
614.400	-30.181	0.100
614.500	-35.804	0.100
614.600	-16.408	0.100
614.700	-34.023	0.100
614.800	-21.547	0.100
614.900	-24.752	0.100
615.000	-16.051	0.100
615.100	-18.214	0.100
615.200	-23.028	0.100
615.300	-30.659	0.100
615.400	-30.920	0.100
615.500	-32.271	0.100
615.600	-13.455	0.100
615.700	-13.514	0.100
615.800	-26.985	0.100
615.900	-23.998	0.100
616.000	-22.536	0.100
616.100	-26.350	0.100
616.200	-36.589	0.100
616.300	-10.222	0.100
616.400	-23.828	0.100
616.500	-24.707	0.100
616.600	-22.515	0.100
616.700	-25.922	0.100
616.800	-24.890	0.100
616.900	-22.439	0.100
617.000	-19.450	0.100
617.100	-21.667	0.100
617.200	-16.214	0.100
617.300	-13.605	0.100
617.400	-16.926	0.100
617.500	-27.850	0.100
617.600	-28.038	0.100
617.700	-27.516	0.100
617.800	-30.752	0.100
617.900	-39.801	0.100
618.000	-34.639	0.100
618.100	-8.851	0.100
618.200	-33.652	0.100
618.300	-22.763	0.100
618.400	-29.167	0.100
618.500	-21.995	0.100
618.600	-25.415	0.100
618.700	-31.151	0.100
618.800	-23.309	0.100
618.900	-24.313	0.100
619.000	-12.957	0.100
619.100	-19.304	0.100
619.200	-20.517	0.100
619.300	-21.243	0.100
619.400	-10.036	0.100
619.500	-26.329	0.100
619.600	-26.263	0.100
619.700	-9.894	0.100
619.800	-23.883	0.100
619.900	-18.049	0.100
620.000	-18.828	0.100
620.100	-36.916	0.100
620.200	-18.778	0.100
620.300	-31.790	0.100
620.400	-20.606	0.100
620.500	-33.089	0.100
620.600	-18.034	0.100
620.700	-27.140	0.100
620.800	-15.832	0.100
620.900	-29.294	0.100
621.000	-28.042	0.100
621.100	-15.561	0.100
621.200	-22.738	0.100
621.300	-14.960	0.100
621.400	-17.318	0.100
621.500	-24.007	0.100
621.600	-32.693	0.100
621.700	-26.804	0.100
621.800	-30.035	0.100
621.900	-23.461	0.100
622.000	-15.008	0.100
622.100	-29.701	0.100
622.200	-22.005	0.100
622.300	-13.659	0.100
622.400	-25.582	0.100
622.500	-28.377	0.100
622.600	-27.537	0.100
622.700	-27.243	0.100
622.800	-16.197	0.100
622.900	-27.297	0.100
623.000	-13.164	0.100
623.100	-10.496	0.100
623.200	-31.665	0.100
623.300	-28.709	0.100
623.400	-22.342	0.100
623.500	-15.181	0.100
623.600	-17.418	0.100
623.700	-22.729	0.100
623.800	-23.456	0.100
623.900	-23.543	0.100
624.000	-28.739	0.100
624.100	-21.754	0.100
624.200	-35.060	0.100
624.300	-23.036	0.100
624.400	-18.296	0.100
624.500	-26.998	0.100
624.600	-33.460	0.100
624.700	-18.993	0.100
624.800	-26.808	0.100
624.900	-34.278	0.100
625.000	-19.967	0.100
625.100	-12.924	0.100
625.200	-19.485	0.100
625.300	-31.726	0.100
625.400	-9.260	0.100
625.500	-15.808	0.100
625.600	-32.145	0.100
625.700	-19.315	0.100
625.800	-1.502	0.100
625.900	-26.127	0.100
626.000	-30.959	0.100
626.100	-31.189	0.100
626.200	-29.339	0.100
626.300	-30.606	0.100
626.400	-17.035	0.100
626.500	-16.538	0.100
626.600	-26.990	0.099
626.700	-21.491	0.100
626.800	-21.703	0.100
626.900	-24.501	0.100
627.000	-24.671	0.100
627.100	-16.623	0.100
627.200	-19.907	0.100
627.300	-29.837	0.100
627.400	-20.026	0.100
627.500	-29.972	0.100
627.600	-25.378	0.100
627.700	-24.943	0.100
627.800	-27.189	0.100
627.900	-30.736	0.100
628.000	-25.525	0.100
628.100	-16.418	0.100
628.200	-24.876	0.100
628.300	-34.011	0.100
628.400	-23.350	0.100
628.500	-30.690	0.100
628.600	-15.476	0.100
628.700	-15.241	0.100
628.800	-26.804	0.100
628.900	-24.652	0.100
629.000	-31.244	0.100
629.100	-26.245	0.100
629.200	-12.019	0.100
629.300	-13.480	0.100
629.400	-22.062	0.100
629.500	-27.768	0.100
629.600	-16.474	0.100
629.700	-33.919	0.100
629.800	-22.937	0.100
629.900	-35.912	0.100
630.000	-40.406	0.100
630.100	-15.341	0.100
630.200	-35.549	0.100
630.300	-19.716	0.100
630.400	-27.171	0.100
630.500	-24.990	0.100
630.600	-6.103	0.100
630.700	-23.469	0.100
630.800	-9.394	0.100
630.900	-12.612	0.100
631.000	-12.164	0.100
631.100	1.917	0.100
631.200	6.249	0.100
631.300	28.671	0.100
631.400	7.232	0.100
631.500	9.740	0.100
631.600	32.276	0.100
631.700	25.511	0.100
631.800	12.744	0.100
631.900	1.342	0.100
632.000	9.883	0.100
632.100	34.483	0.100
632.200	30.360	0.100
632.300	21.357	0.100
632.400	19.444	0.100
632.500	14.317	0.100
632.600	15.386	0.100
632.700	9.176	0.100
632.800	11.281	0.100
632.900	19.937	0.100
633.000	6.915	0.100
633.100	7.333	0.100
633.200	26.023	0.100
633.300	7.400	0.100
633.400	2.316	0.100
633.500	25.524	0.100
633.600	21.704	0.100
633.700	1.126	0.100
633.800	6.608	0.100
633.900	10.305	0.100
634.000	15.666	0.100
634.100	5.528	0.100
634.200	15.268	0.100
634.300	8.770	0.100
634.400	7.603	0.100
634.500	11.966	0.100
634.600	12.405	0.100
634.700	24.902	0.100
634.800	14.948	0.100
634.900	1.786	0.100
635.000	9.249	0.100
635.100	3.803	0.100
635.200	-3.213	0.100
635.300	4.609	0.100
635.400	30.645	0.100
635.500	-0.740	0.100
635.600	7.569	0.099
635.700	14.551	0.100
635.800	12.918	0.100
635.900	18.285	0.099
636.000	6.914	0.100
636.100	10.004	0.100
636.200	16.976	0.099
636.300	12.404	0.100
636.400	16.701	0.100
636.500	4.672	0.100
636.600	9.233	0.100
636.700	10.705	0.100
636.800	17.707	0.100
636.900	12.894	0.100
637.000	-0.590	0.100
637.100	4.889	0.100
637.200	9.838	0.100
637.300	-1.365	0.100
637.400	14.609	0.100
637.500	5.359	0.100
637.600	10.566	0.100
637.700	2.702	0.100
637.800	4.503	0.100
637.900	5.671	0.100
638.000	22.343	0.100
638.100	19.255	0.100
638.200	3.820	0.100
638.300	24.693	0.100
638.400	15.593	0.100
638.500	6.336	0.100
638.600	12.556	0.100
638.700	13.875	0.100
638.800	11.583	0.100
638.900	31.015	0.100
639.000	13.113	0.100
639.100	4.165	0.099
639.200	13.444	0.100
639.300	8.096	0.100
639.400	10.966	0.100
639.500	-0.992	0.100
639.600	13.600	0.100
639.700	23.890	0.100
639.800	14.660	0.100
639.900	13.054	0.100
640.000	18.418	0.100
640.100	9.379	0.100
640.200	10.163	0.100
640.300	8.522	0.100
640.400	13.521	0.100
640.500	22.072	0.100
640.600	25.353	0.100
640.700	28.364	0.100
640.800	19.000	0.100
640.900	21.698	0.100
641.000	23.075	0.100
641.100	22.433	0.100
641.200	13.425	0.100
641.300	23.478	0.100
641.400	11.660	0.100
641.500	17.690	0.100
641.600	27.923	0.100
641.700	33.446	0.100
641.800	26.871	0.100
641.900	14.032	0.100
642.000	27.575	0.100
642.100	14.659	0.100
642.200	28.393	0.100
642.300	24.680	0.099
642.400	12.390	0.100
642.500	31.738	0.100
642.600	10.984	0.100
642.700	26.563	0.100
642.800	1.477	0.100
642.900	24.561	0.100
643.000	43.652	0.100
643.100	23.692	0.100
643.200	46.304	0.100
643.300	22.726	0.100
643.400	37.627	0.100
643.500	35.701	0.100
643.600	23.272	0.100
643.700	39.493	0.100
643.800	24.962	0.100
643.900	16.493	0.100
644.000	41.597	0.100
644.100	38.025	0.100
644.200	24.077	0.100
644.300	23.578	0.100
644.400	44.942	0.100
644.500	24.121	0.100
644.600	20.326	0.100
644.700	44.527	0.100
644.800	27.147	0.100
644.900	35.169	0.100
645.000	48.629	0.100
645.100	43.543	0.100
645.200	42.266	0.100
645.300	17.995	0.100
645.400	32.387	0.100
645.500	28.486	0.100
645.600	41.427	0.100
645.700	39.970	0.100
645.800	28.397	0.100
645.900	28.517	0.100
646.000	38.337	0.100
646.100	33.606	0.100
646.200	46.198	0.099
646.300	32.038	0.100
646.400	36.809	0.100
646.500	41.982	0.100
646.600	32.623	0.100
646.700	29.720	0.100
646.800	33.571	0.100
646.900	43.820	0.100
647.000	34.921	0.100
647.100	33.044	0.100
647.200	35.232	0.100
647.300	37.577	0.100
647.400	58.904	0.100
647.500	26.211	0.100
647.600	40.791	0.100
647.700	36.945	0.100
647.800	48.025	0.100
647.900	51.174	0.100
648.000	43.888	0.100
648.100	39.919	0.100
648.200	44.977	0.099
648.300	41.727	0.100
648.400	47.344	0.100
648.500	28.357	0.100
648.600	48.575	0.100
648.700	52.272	0.100
648.800	32.405	0.100
648.900	40.410	0.100
649.000	34.128	0.099
649.100	38.463	0.100
649.200	57.298	0.100
649.300	52.373	0.100
649.400	45.608	0.100
649.500	40.783	0.100
649.600	51.439	0.100
649.700	46.364	0.100
649.800	41.885	0.100
649.900	44.728	0.100
650.000	45.226	0.100
650.100	49.342	0.099
650.200	35.940	0.100
650.300	40.927	0.100
650.400	49.739	0.100
650.500	49.747	0.100
650.600	43.442	0.099
650.700	39.312	0.100
650.800	41.838	0.099
650.900	50.635	0.099
651.000	46.210	0.100
651.100	39.576	0.100
651.200	45.335	0.100
651.300	40.777	0.099
651.400	48.789	0.099
651.500	39.611	0.100
651.600	41.603	0.100
651.700	56.166	0.099
651.800	56.431	0.099
651.900	48.108	0.100
652.000	26.098	0.100
652.100	47.198	0.100
652.200	41.632	0.100
652.300	53.934	0.100
652.400	47.687	0.099
652.500	43.558	0.100
652.600	27.149	0.100
652.700	46.836	0.100
652.800	51.838	0.100
652.900	44.255	0.100
653.000	47.465	0.099
653.100	52.063	0.099
653.200	42.995	0.100
653.300	49.159	0.100
653.400	42.388	0.099
653.500	43.598	0.099
653.600	43.286	0.100
653.700	47.006	0.099
653.800	50.840	0.100
653.900	50.036	0.099
654.000	31.673	0.100
654.100	52.823	0.100
654.200	65.995	0.100
654.300	51.407	0.099
654.400	55.274	0.100
654.500	56.316	0.099
654.600	25.995	0.100
654.700	46.043	0.100
654.800	44.978	0.099
654.900	48.318	0.100
655.000	48.319	0.099
655.100	40.340	0.100
655.200	61.756	0.099
655.300	54.443	0.100
655.400	56.998	0.100
655.500	46.963	0.100
655.600	48.572	0.100
655.700	51.149	0.100
655.800	41.691	0.100
655.900	47.985	0.100
656.000	31.224	0.100
656.100	48.975	0.100
656.200	48.195	0.100
656.300	67.277	0.099
656.400	40.498	0.100
656.500	45.669	0.100
656.600	55.692	0.100
656.700	64.589	0.099
656.800	63.185	0.100
656.900	44.136	0.100
657.000	37.560	0.099
657.100	60.599	0.100
657.200	53.470	0.100
657.300	53.750	0.100
657.400	46.736	0.100
657.500	53.459	0.100
657.600	33.686	0.100
657.700	62.662	0.100
657.800	50.535	0.100
657.900	58.696	0.100
658.000	43.365	0.100
658.100	49.064	0.100
658.200	40.536	0.100
658.300	50.842	0.100
658.400	59.617	0.100
658.500	57.866	0.100
658.600	48.196	0.100
658.700	51.537	0.100
658.800	45.138	0.100
658.900	49.926	0.100
659.000	61.995	0.100
659.100	49.134	0.100
659.200	44.279	0.100
659.300	54.977	0.100
659.400	44.108	0.100
659.500	57.709	0.100
659.600	37.986	0.100
659.700	54.027	0.100
659.800	53.165	0.100
659.900	56.134	0.100
660.000	48.696	0.100
660.100	38.795	0.100
660.200	45.954	0.100
660.300	56.056	0.100
660.400	51.754	0.100
660.500	49.782	0.100
660.600	50.068	0.100
660.700	53.645	0.100
660.800	64.417	0.100
660.900	52.371	0.100
661.000	49.524	0.100
661.100	54.664	0.100
661.200	39.314	0.100
661.300	61.212	0.100
661.400	47.905	0.100
661.500	55.471	0.100
661.600	59.046	0.099
661.700	50.339	0.100
661.800	52.631	0.100
661.900	48.946	0.100
662.000	49.136	0.100
662.100	38.381	0.100
662.200	46.042	0.100
662.300	55.526	0.100
662.400	51.439	0.100
662.500	41.593	0.100
662.600	44.819	0.100
662.700	58.048	0.100
662.800	49.949	0.100
662.900	46.244	0.100
663.000	41.146	0.100
663.100	56.604	0.100
663.200	45.617	0.100
663.300	53.623	0.100
663.400	56.100	0.100
663.500	52.341	0.100
663.600	45.575	0.100
663.700	54.166	0.100
663.800	39.919	0.100
663.900	53.897	0.100
664.000	52.358	0.100
664.100	37.169	0.100
664.200	41.024	0.100
664.300	47.325	0.100
664.400	45.253	0.100
664.500	37.935	0.099
664.600	55.948	0.100
664.700	47.638	0.100
664.800	53.048	0.100
664.900	55.241	0.100
665.000	48.252	0.100
665.100	48.288	0.100
665.200	44.319	0.100
665.300	41.781	0.100
665.400	46.328	0.100
665.500	63.068	0.100
665.600	43.255	0.100
665.700	44.742	0.100
665.800	44.976	0.100
665.900	49.620	0.100
666.000	47.027	0.099
666.100	44.432	0.100
666.200	55.380	0.100
666.300	49.436	0.100
666.400	53.344	0.100
666.500	45.285	0.100
666.600	55.991	0.100
666.700	44.560	0.100
666.800	33.220	0.100
666.900	46.321	0.100
667.000	37.027	0.100
667.100	60.753	0.100
667.200	50.341	0.100
667.300	45.792	0.100
667.400	72.589	0.100
667.500	49.617	0.100
667.600	50.537	0.100
667.700	41.815	0.100
667.800	50.998	0.100
667.900	44.568	0.100
668.000	52.303	0.100
668.100	44.892	0.100
668.200	53.177	0.100
668.300	32.542	0.100
668.400	40.238	0.100
668.500	53.335	0.100
668.600	54.569	0.100
668.700	49.703	0.100
668.800	46.519	0.100
668.900	47.195	0.100
669.000	43.021	0.100
669.100	49.610	0.100
669.200	35.351	0.100
669.300	47.635	0.100
669.400	44.413	0.100
669.500	47.410	0.100
669.600	40.365	0.100
669.700	48.625	0.100
669.800	31.071	0.100
669.900	53.016	0.100
670.000	53.658	0.100
670.100	36.568	0.099
670.200	47.068	0.100
670.300	39.713	0.100
670.400	27.949	0.100
670.500	52.964	0.100
670.600	51.586	0.100
670.700	43.307	0.100
670.800	38.847	0.100
670.900	41.845	0.100
671.000	48.654	0.100
671.100	63.759	0.100
671.200	45.566	0.100
671.300	40.993	0.100
671.400	35.052	0.100
671.500	49.229	0.100
671.600	49.710	0.100
671.700	42.652	0.100
671.800	57.393	0.100
671.900	44.341	0.100
672.000	38.404	0.099
672.100	34.529	0.100
672.200	55.370	0.100
672.300	56.231	0.100
672.400	51.972	0.100
672.500	39.005	0.100
672.600	54.223	0.100
672.700	42.997	0.100
672.800	46.622	0.100
672.900	52.215	0.099
673.000	36.463	0.100
673.100	49.823	0.100
673.200	46.577	0.100
673.300	41.046	0.100
673.400	48.524	0.100
673.500	44.736	0.100
673.600	44.062	0.100
673.700	52.444	0.099
673.800	43.189	0.100
673.900	40.235	0.100
674.000	58.134	0.100
674.100	38.003	0.100
674.200	45.460	0.100
674.300	44.345	0.100
674.400	48.907	0.100
674.500	46.583	0.100
674.600	51.295	0.100
674.700	44.209	0.100
674.800	48.601	0.100
674.900	59.880	0.100
675.000	43.720	0.100
675.100	36.965	0.100
675.200	36.469	0.099
675.300	39.965	0.100
675.400	32.421	0.100
675.500	42.964	0.100
675.600	51.374	0.100
675.700	46.254	0.100
675.800	48.262	0.100
675.900	46.410	0.100
676.000	38.698	0.100
676.100	59.616	0.100
676.200	44.190	0.100
676.300	45.316	0.100
676.400	45.213	0.100
676.500	45.637	0.100
676.600	33.831	0.099
676.700	36.511	0.100
676.800	50.342	0.100
676.900	48.429	0.099
677.000	48.053	0.100
677.100	36.883	0.100
677.200	46.672	0.100
677.300	48.425	0.100
677.400	50.467	0.100
677.500	40.192	0.099
677.600	52.914	0.100
677.700	46.118	0.100
677.800	39.817	0.100
677.900	51.579	0.100
678.000	31.151	0.100
678.100	41.126	0.100
678.200	41.221	0.100
678.300	41.542	0.100
678.400	38.685	0.100
678.500	48.087	0.100
678.600	49.073	0.100
678.700	41.205	0.100
678.800	42.391	0.100
678.900	39.125	0.100
679.000	53.258	0.100
679.100	31.388	0.100
679.200	39.798	0.100
679.300	33.623	0.100
679.400	44.420	0.100
679.500	47.181	0.100
679.600	39.072	0.100
679.700	63.763	0.099
679.800	43.182	0.100
679.900	52.694	0.100
680.000	49.992	0.100
680.100	34.537	0.099
680.200	49.161	0.100
680.300	35.523	0.100
680.400	44.351	0.100
680.500	53.595	0.100
680.600	44.875	0.100
680.700	27.805	0.100
680.800	55.155	0.100
680.900	38.562	0.100
681.000	38.272	0.100
681.100	53.207	0.100
681.200	48.478	0.100
681.300	41.659	0.100
681.400	41.621	0.100
681.500	31.318	0.100
681.600	38.234	0.100
681.700	47.555	0.100
681.800	33.568	0.100
681.900	56.824	0.100
682.000	60.921	0.100
682.100	38.520	0.100
682.200	47.000	0.100
682.300	54.687	0.100
682.400	35.367	0.100
682.500	37.943	0.100
682.600	54.303	0.100
682.700	39.433	0.100
682.800	37.237	0.100
682.900	47.085	0.100
683.000	47.106	0.100
683.100	50.840	0.100
683.200	37.449	0.100
683.300	55.171	0.100
683.400	44.435	0.100
683.500	44.741	0.100
683.600	46.909	0.100
683.700	42.085	0.100
683.800	47.173	0.100
683.900	32.163	0.100
684.000	28.453	0.100
684.100	50.106	0.100
684.200	43.454	0.100
684.300	40.932	0.100
684.400	44.526	0.100
684.500	46.650	0.100
684.600	50.163	0.100
684.700	28.019	0.100
684.800	35.355	0.100
684.900	49.874	0.100
685.000	41.588	0.100
685.100	45.579	0.100
685.200	50.979	0.100
685.300	48.322	0.100
685.400	43.764	0.100
685.500	47.001	0.100
685.600	41.991	0.100
685.700	40.713	0.100
685.800	43.152	0.100
685.900	43.128	0.100
686.000	41.289	0.100
686.100	44.493	0.100
686.200	24.954	0.100
686.300	53.773	0.100
686.400	47.707	0.100
686.500	46.276	0.100
686.600	41.928	0.100
686.700	40.202	0.100
686.800	48.611	0.100
686.900	39.343	0.100
687.000	43.404	0.100
687.100	40.720	0.100
687.200	36.671	0.100
687.300	35.067	0.100
687.400	44.612	0.100
687.500	47.972	0.100
687.600	45.783	0.100
687.700	44.030	0.100
687.800	35.748	0.099
687.900	42.192	0.100
688.000	45.763	0.100
688.100	41.917	0.100
688.200	41.563	0.100
688.300	38.935	0.100
688.400	33.218	0.100
688.500	38.891	0.099
688.600	36.956	0.099
688.700	38.017	0.100
688.800	47.287	0.100
688.900	35.502	0.100
689.000	61.387	0.099
689.100	41.348	0.100
689.200	48.475	0.100
689.300	31.068	0.100
689.400	50.452	0.099
689.500	25.013	0.100
689.600	38.085	0.100
689.700	52.451	0.100
689.800	46.689	0.100
689.900	48.456	0.100
690.000	41.001	0.100
690.100	41.075	0.100
690.200	45.865	0.099
690.300	45.254	0.100
690.400	47.450	0.100
690.500	34.961	0.099
690.600	46.878	0.100
690.700	47.184	0.100
690.800	32.489	0.100
690.900	32.944	0.100
691.000	34.680	0.100
691.100	32.998	0.100
691.200	24.203	0.100
691.300	17.598	0.100
691.400	15.310	0.100
691.500	15.205	0.100
691.600	2.441	0.100
691.700	15.071	0.100
691.800	-2.057	0.100
691.900	6.415	0.100
692.000	-2.721	0.100
692.100	-6.599	0.100
692.200	5.818	0.100
692.300	3.484	0.100
692.400	3.832	0.100
692.500	3.893	0.100
692.600	-9.629	0.100
692.700	-1.629	0.099
692.800	0.495	0.099
692.900	7.160	0.099
693.000	-1.751	0.100
693.100	-21.397	0.100
693.200	1.476	0.100
693.300	-13.615	0.100
693.400	-8.398	0.100
693.500	-5.674	0.100
693.600	-11.959	0.100
693.700	-15.869	0.100
693.800	-6.402	0.100
693.900	-14.993	0.100
694.000	-11.044	0.100
694.100	-22.211	0.100
694.200	-17.111	0.100
694.300	-15.968	0.100
694.400	-14.884	0.100
694.500	-20.668	0.100
694.600	-10.924	0.100
694.700	-13.784	0.100
694.800	-14.748	0.100
694.900	-3.854	0.100
695.000	-17.228	0.100
695.100	-12.279	0.100
695.200	-23.066	0.100
695.300	-21.041	0.099
695.400	-12.249	0.100
695.500	-29.890	0.099
695.600	-16.703	0.100
695.700	-14.546	0.100
695.800	-11.870	0.100
695.900	-20.500	0.099
696.000	-14.717	0.100
696.100	-29.172	0.100
696.200	-28.949	0.100
696.300	-21.903	0.100
696.400	-7.292	0.100
696.500	-14.368	0.100
696.600	-29.023	0.100
696.700	-20.116	0.100
696.800	-16.497	0.100
696.900	-10.868	0.100
697.000	-17.216	0.100
697.100	-17.872	0.100
697.200	-12.469	0.100
697.300	-31.899	0.100
697.400	-16.136	0.100
697.500	-13.707	0.100
697.600	-21.640	0.100
697.700	-11.047	0.100
697.800	-14.421	0.100
697.900	-29.192	0.100
698.000	-15.386	0.100
698.100	-18.043	0.100
698.200	-8.329	0.100
698.300	-18.257	0.100
698.400	-17.934	0.100
698.500	-18.792	0.100
698.600	-16.516	0.100
698.700	-9.847	0.100
698.800	-11.018	0.100
698.900	-10.957	0.100
699.000	-20.394	0.100
699.100	-27.334	0.100
699.200	-27.676	0.100
699.300	-28.539	0.100
699.400	-15.629	0.100
699.500	-25.427	0.100
699.600	-6.135	0.100
699.700	-15.725	0.100
699.800	-14.834	0.100
699.900	-13.329	0.100
700.000	-13.187	0.100
700.100	-22.934	0.099
700.200	-18.858	0.100
700.300	-3.279	0.100
700.400	-14.731	0.100
700.500	-24.529	0.100
700.600	-7.376	0.100
700.700	-10.088	0.100
700.800	-16.247	0.100
700.900	-21.022	0.100
701.000	-17.234	0.100
701.100	-23.589	0.100
701.200	-23.726	0.100
701.300	-19.506	0.100
701.400	-24.226	0.100
701.500	-17.250	0.100
701.600	-21.907	0.100
701.700	-22.667	0.100
701.800	-23.853	0.100
701.900	-24.239	0.100
702.000	-23.788	0.100
702.100	-21.934	0.100
702.200	-24.016	0.100
702.300	-10.065	0.100
702.400	-17.924	0.100
702.500	-15.972	0.100
702.600	-26.944	0.100
702.700	-7.831	0.100
702.800	-24.753	0.100
702.900	-21.273	0.100
703.000	-16.958	0.100
703.100	-18.875	0.100
703.200	-15.706	0.100
703.300	-21.462	0.100
703.400	-24.728	0.100
703.500	-22.227	0.100
703.600	-22.215	0.100
703.700	-19.014	0.100
703.800	-15.216	0.100
703.900	-17.039	0.100
704.000	-19.706	0.100
704.100	-8.432	0.100
704.200	-20.484	0.100
704.300	-30.663	0.100
704.400	-20.934	0.100
704.500	-27.741	0.100
704.600	-10.611	0.100
704.700	-25.009	0.100
704.800	-17.600	0.100
704.900	-13.082	0.100
705.000	-25.690	0.100
705.100	-31.959	0.100
705.200	-25.339	0.100
705.300	-15.341	0.100
705.400	-17.616	0.100
705.500	-35.509	0.100
705.600	-11.524	0.100
705.700	-17.250	0.100
705.800	-17.268	0.100
705.900	-27.725	0.100
706.000	-29.066	0.100
706.100	-19.848	0.100
706.200	-16.688	0.100
706.300	-28.873	0.100
706.400	-19.475	0.100
706.500	-39.084	0.100
706.600	-20.913	0.100
706.700	-16.589	0.100
706.800	-30.372	0.100
706.900	-27.044	0.100
707.000	-20.397	0.100
707.100	-20.088	0.100
707.200	-34.231	0.100
707.300	-22.801	0.100
707.400	-21.236	0.100
707.500	-27.803	0.100
707.600	-12.536	0.100
707.700	-18.428	0.100
707.800	-23.392	0.100
707.900	-28.745	0.100
708.000	-22.431	0.100
708.100	-21.331	0.100
708.200	-15.140	0.100
708.300	-20.103	0.100
708.400	-22.135	0.100
708.500	-21.893	0.100
708.600	-31.836	0.100
708.700	-9.623	0.100
708.800	-22.812	0.100
708.900	-16.074	0.100
709.000	-25.378	0.100
709.100	-33.480	0.100
709.200	-29.870	0.100
709.300	-20.936	0.100
709.400	-12.192	0.100
709.500	-28.150	0.100
709.600	-26.578	0.100
709.700	-22.397	0.100
709.800	-17.656	0.100
709.900	-27.631	0.100
710.000	-17.031	0.100
710.100	-20.434	0.100
710.200	-17.997	0.100
710.300	-21.017	0.100
710.400	-21.285	0.100
710.500	-36.778	0.100
710.600	-24.269	0.100
710.700	-33.121	0.100
710.800	-19.858	0.100
710.900	-28.896	0.100
711.000	-3.283	0.100
711.100	-31.761	0.100
711.200	-18.335	0.100
711.300	-16.310	0.100
711.400	-21.372	0.100
711.500	-35.290	0.100
711.600	-27.298	0.100
711.700	-24.380	0.100
711.800	-27.937	0.100
711.900	-28.630	0.100
712.000	-23.228	0.100
712.100	-17.265	0.100
712.200	-13.482	0.100
712.300	-23.588	0.100
712.400	-24.952	0.100
712.500	-20.497	0.100
712.600	-25.011	0.100
712.700	-40.400	0.100
712.800	-26.435	0.100
712.900	-27.183	0.100
713.000	-19.562	0.100
713.100	-24.947	0.100
713.200	-23.693	0.100
713.300	-22.825	0.100
713.400	-24.066	0.100
713.500	-34.495	0.100
713.600	-24.737	0.100
713.700	-21.635	0.100
713.800	-24.632	0.100
713.900	-24.686	0.100
714.000	-22.197	0.100
714.100	-29.235	0.100
714.200	-34.966	0.100
714.300	-31.151	0.100
714.400	-32.982	0.100
714.500	-19.132	0.100
714.600	-20.901	0.100
714.700	-24.312	0.100
714.800	-34.447	0.100
714.900	-25.628	0.100
715.000	-39.283	0.100
715.100	-28.871	0.100
715.200	-13.901	0.100
715.300	-36.503	0.099
715.400	-21.277	0.100
715.500	-17.208	0.100
715.600	-26.780	0.100
715.700	-31.517	0.100
715.800	-30.471	0.100
715.900	-26.939	0.100
716.000	-38.332	0.100
716.100	-27.248	0.100
716.200	-27.689	0.100
716.300	-17.997	0.100
716.400	-22.313	0.100
716.500	-33.794	0.100
716.600	-20.573	0.100
716.700	-31.056	0.100
716.800	-19.725	0.100
716.900	-24.354	0.100
717.000	-19.620	0.100
717.100	-27.718	0.100
717.200	-23.185	0.100
717.300	-30.042	0.100
717.400	-26.515	0.100
717.500	-33.856	0.100
717.600	-45.601	0.100
717.700	-18.839	0.100
717.800	-24.556	0.100
717.900	-29.129	0.100
718.000	-22.951	0.100
718.100	-31.266	0.100
718.200	-24.110	0.100
718.300	-29.433	0.100
718.400	-24.916	0.100
718.500	-22.957	0.100
718.600	-38.651	0.099
718.700	-24.941	0.100
718.800	-23.481	0.100
718.900	-26.788	0.100
719.000	-23.659	0.100
719.100	-30.487	0.100
719.200	-26.828	0.100
719.300	-23.692	0.100
719.400	-22.285	0.100
719.500	-38.897	0.100
719.600	-27.216	0.100
719.700	-37.490	0.100
719.800	-21.782	0.100
719.900	-32.086	0.100
720.000	-30.495	0.099
720.100	-20.232	0.100
720.200	-14.597	0.100
720.300	-27.752	0.100
720.400	-26.454	0.100
720.500	-41.381	0.100
720.600	-25.324	0.100
720.700	-26.190	0.100
720.800	-25.154	0.100
720.900	-26.494	0.100
721.000	-31.414	0.100
721.100	-28.306	0.100
721.200	-31.883	0.100
721.300	-28.978	0.100
721.400	-41.612	0.100
721.500	-31.850	0.100
721.600	-38.251	0.100
721.700	-29.894	0.100
721.800	-30.538	0.100
721.900	-31.912	0.100
722.000	-28.398	0.100
722.100	-26.215	0.100
722.200	-40.646	0.100
722.300	-27.232	0.100
722.400	-27.901	0.100
722.500	-31.494	0.099
722.600	-20.349	0.100
722.700	-36.687	0.100
722.800	-35.765	0.100
722.900	-27.955	0.100
723.000	-33.999	0.100
723.100	-38.272	0.100
723.200	-22.442	0.100
723.300	-26.268	0.100
723.400	-34.549	0.100
723.500	-34.945	0.100
723.600	-22.481	0.100
723.700	-24.074	0.100
723.800	-18.439	0.100
723.900	-37.354	0.100
724.000	-25.963	0.100
724.100	-37.587	0.100
724.200	-34.342	0.100
724.300	-35.746	0.100
724.400	-29.755	0.100
724.500	-27.725	0.100
724.600	-36.875	0.100
724.700	-30.975	0.100
724.800	-32.274	0.100
724.900	-32.774	0.100
725.000	-22.355	0.100
725.100	-34.433	0.100
725.200	-32.371	0.100
725.300	-30.787	0.100
725.400	-28.974	0.100
725.500	-38.045	0.100
725.600	-18.207	0.100
725.700	-29.337	0.100
725.800	-21.747	0.100
725.900	-32.392	0.100
726.000	-29.572	0.100
726.100	-35.904	0.100
726.200	-31.034	0.100
726.300	-12.276	0.100
726.400	-31.198	0.100
726.500	-34.366	0.100
726.600	-32.981	0.100
726.700	-39.481	0.100
726.800	-39.611	0.100
726.900	-30.382	0.100
727.000	-27.662	0.100
727.100	-30.368	0.100
727.200	-31.576	0.100
727.300	-43.375	0.100
727.400	-28.262	0.100
727.500	-29.424	0.100
727.600	-51.405	0.100
727.700	-24.529	0.100
727.800	-37.632	0.100
727.900	-25.336	0.100
728.000	-31.785	0.100
728.100	-39.398	0.100
728.200	-32.170	0.100
728.300	-39.590	0.100
728.400	-33.821	0.100
728.500	-13.784	0.100
728.600	-29.229	0.100
728.700	-36.612	0.100
728.800	-34.290	0.100
728.900	-27.926	0.100
729.000	-29.076	0.100
729.100	-32.898	0.100
729.200	-29.524	0.100
729.300	-35.307	0.100
729.400	-37.882	0.100
729.500	-28.067	0.100
729.600	-28.731	0.100
729.700	-41.381	0.100
729.800	-38.747	0.100
729.900	-24.281	0.100
730.000	-19.010	0.100
730.100	-25.326	0.100
730.200	-27.462	0.100
730.300	-31.032	0.100
730.400	-12.718	0.100
730.500	-28.045	0.100
730.600	-38.635	0.100
730.700	-34.971	0.100
730.800	-31.561	0.100
730.900	-39.255	0.100
731.000	-36.477	0.100
731.100	-22.452	0.100
731.200	-34.074	0.100
731.300	-14.562	0.100
731.400	-26.279	0.100
731.500	-42.383	0.100
731.600	-30.499	0.100
731.700	-31.111	0.100
731.800	-36.149	0.100
731.900	-36.936	0.100
732.000	-26.784	0.100
732.100	-22.810	0.100
732.200	-26.724	0.100
732.300	-29.751	0.100
732.400	-22.853	0.100
732.500	-36.734	0.100
732.600	-25.373	0.100
732.700	-21.225	0.100
732.800	-33.928	0.100
732.900	-49.749	0.100
733.000	-30.769	0.100
733.100	-15.361	0.100
733.200	-20.435	0.100
733.300	-26.382	0.100
733.400	-30.230	0.100
733.500	-29.373	0.100
733.600	-40.910	0.100
733.700	-29.871	0.100
733.800	-27.711	0.100
733.900	-20.364	0.100
734.000	-18.514	0.100
734.100	-23.485	0.100
734.200	-37.225	0.100
734.300	-38.602	0.100
734.400	-34.074	0.100
734.500	-33.604	0.100
734.600	-21.277	0.100
734.700	-21.126	0.100
734.800	-30.268	0.100
734.900	-33.447	0.100
735.000	-37.153	0.100
735.100	-30.204	0.100
735.200	-26.633	0.100
735.300	-39.039	0.100
735.400	-15.720	0.100
735.500	-24.625	0.100
735.600	-36.080	0.100
735.700	-23.229	0.100
735.800	-35.805	0.100
735.900	-36.122	0.100
736.000	-18.767	0.100
736.100	-29.552	0.100
736.200	-25.174	0.100
736.300	-32.369	0.100
736.400	-39.449	0.100
736.500	-29.859	0.100
736.600	-24.332	0.100
736.700	-31.689	0.100
736.800	-32.271	0.100
736.900	-27.985	0.100
737.000	-20.901	0.100
737.100	-42.395	0.100
737.200	-34.698	0.100
737.300	-33.719	0.100
737.400	-29.687	0.100
737.500	-27.646	0.100
737.600	-12.163	0.100
737.700	-32.460	0.100
737.800	-37.363	0.100
737.900	-20.842	0.100
738.000	-25.814	0.100
738.100	-30.631	0.100
738.200	-37.285	0.100
738.300	-18.264	0.100
738.400	-42.746	0.100
738.500	-18.083	0.100
738.600	-33.269	0.100
738.700	-32.792	0.100
738.800	-37.864	0.100
738.900	-15.629	0.100
739.000	-35.126	0.100
739.100	-20.310	0.100
739.200	-25.949	0.100
739.300	-36.336	0.100
739.400	-32.947	0.100
739.500	-27.310	0.100
739.600	-21.056	0.100
739.700	-24.144	0.100
739.800	-31.344	0.100
739.900	-18.676	0.100
740.000	-37.784	0.100
740.100	-18.513	0.100
740.200	-32.263	0.100
740.300	-36.572	0.100
740.400	-46.411	0.100
740.500	-36.171	0.100
740.600	-32.383	0.100
740.700	-32.613	0.100
740.800	-21.127	0.100
740.900	-26.944	0.100
741.000	-20.380	0.100
741.100	-31.939	0.100
741.200	-25.674	0.100
741.300	-29.769	0.100
741.400	-40.473	0.100
741.500	-25.239	0.100
741.600	-22.096	0.100
741.700	-31.387	0.100
741.800	-31.058	0.100
741.900	-34.306	0.100
742.000	-29.503	0.100
742.100	-26.963	0.100
742.200	-29.472	0.100
742.300	-28.038	0.100
742.400	-33.600	0.100
742.500	-28.304	0.100
742.600	-31.681	0.100
742.700	-26.964	0.100
742.800	-34.286	0.100
742.900	-40.197	0.100
743.000	-25.037	0.100
743.100	-19.684	0.100
743.200	-30.441	0.100
743.300	-35.976	0.100
743.400	-30.163	0.100
743.500	-14.065	0.100
743.600	-18.319	0.100
743.700	-33.366	0.100
743.800	-26.675	0.100
743.900	-30.393	0.100
744.000	-25.792	0.100
744.100	-34.672	0.100
744.200	-29.228	0.100
744.300	-24.711	0.100
744.400	-30.134	0.100
744.500	-36.278	0.100
744.600	-37.990	0.100
744.700	-27.145	0.100
744.800	-39.452	0.100
744.900	-19.588	0.100
745.000	-37.971	0.100
745.100	-29.849	0.100
745.200	-32.753	0.100
745.300	-32.392	0.100
745.400	-41.786	0.100
745.500	-38.493	0.100
745.600	-26.111	0.100
745.700	-21.331	0.100
745.800	-22.545	0.100
745.900	-22.822	0.100
746.000	-30.098	0.100
746.100	-18.309	0.100
746.200	-31.186	0.100
746.300	-34.380	0.100
746.400	-28.610	0.100
746.500	-29.546	0.100
746.600	-11.633	0.100
746.700	-30.020	0.100
746.800	-22.894	0.100
746.900	-29.047	0.100
747.000	-27.618	0.100
747.100	-27.168	0.100
747.200	-25.463	0.100
747.300	-28.025	0.100
747.400	-20.695	0.100
747.500	-28.183	0.100
747.600	-51.500	0.100
747.700	-33.871	0.100
747.800	-17.802	0.100
747.900	-30.474	0.100
748.000	-31.018	0.100
748.100	-19.723	0.100
748.200	-37.305	0.100
748.300	-28.671	0.100
748.400	-47.519	0.100
748.500	-18.603	0.100
748.600	-11.354	0.100
748.700	-34.482	0.100
748.800	-46.964	0.100
748.900	-21.991	0.100
749.000	-21.851	0.100
749.100	-33.848	0.100
749.200	-29.792	0.100
749.300	-30.579	0.100
749.400	-23.488	0.100
749.500	-45.630	0.100
749.600	-24.023	0.100
749.700	-17.302	0.100
749.800	-34.883	0.100
749.900	-24.556	0.100
750.000	-24.552	0.100
750.100	-13.960	0.100
750.200	-37.066	0.100
750.300	-32.684	0.100
750.400	-25.012	0.100
750.500	-26.095	0.100
750.600	-24.275	0.100
750.700	-29.129	0.100
750.800	-19.367	0.100
750.900	-12.076	0.100
751.000	-31.789	0.100
751.100	-22.979	0.100
751.200	-29.178	0.100
751.300	-39.762	0.100
751.400	-22.334	0.100
751.500	-26.147	0.100
751.600	-21.673	0.100
751.700	-12.390	0.100
751.800	-31.494	0.100
751.900	-39.193	0.100
752.000	-21.853	0.100
752.100	-26.264	0.100
752.200	-33.017	0.100
752.300	-44.362	0.100
752.400	-25.892	0.100
752.500	-26.042	0.100
752.600	-26.980	0.100
752.700	-21.601	0.100
752.800	-32.883	0.100
752.900	-20.949	0.100
753.000	-21.076	0.100
753.100	-26.195	0.100
753.200	-24.055	0.100
753.300	-34.597	0.100
753.400	-31.702	0.100
753.500	-17.320	0.100
753.600	-24.474	0.100
753.700	-28.415	0.100
753.800	-29.564	0.100
753.900	-28.820	0.100
754.000	-34.009	0.100
754.100	-24.276	0.100
754.200	-16.424	0.100
754.300	-33.593	0.100
754.400	-30.986	0.100
754.500	-35.506	0.100
754.600	-32.631	0.100
754.700	-27.280	0.100
754.800	-22.593	0.099
754.900	-34.280	0.100
755.000	-27.329	0.100
755.100	-25.214	0.100
755.200	-27.717	0.100
755.300	-18.935	0.099
755.400	-42.488	0.100
755.500	-27.417	0.100
755.600	-28.693	0.100
755.700	-33.175	0.100
755.800	-26.091	0.100
755.900	-23.421	0.100
756.000	-25.175	0.100
756.100	-21.086	0.100
756.200	-22.580	0.100
756.300	-33.328	0.100
756.400	-27.010	0.100
756.500	-18.680	0.100
756.600	-44.715	0.100
756.700	-31.044	0.100
756.800	-29.054	0.100
756.900	-19.773	0.100
757.000	-20.985	0.099
757.100	-38.768	0.100
757.200	-24.122	0.100
757.300	-20.608	0.100
757.400	-10.905	0.100
757.500	-21.943	0.100
757.600	-20.408	0.099
757.700	-32.514	0.100
757.800	-46.379	0.099
757.900	-21.307	0.100
758.000	-16.794	0.100
758.100	-25.242	0.100
758.200	-25.659	0.100
758.300	-31.124	0.099
758.400	-29.219	0.100
758.500	-17.729	0.100
758.600	-34.168	0.099
758.700	-32.943	0.099
758.800	-20.226	0.100
758.900	-40.091	0.099
759.000	-26.996	0.099
759.100	-23.008	0.100
759.200	-22.671	0.099
759.300	-33.565	0.099
759.400	-24.953	0.100
759.500	-22.876	0.100
759.600	-28.017	0.099
759.700	-19.462	0.099
759.800	-17.938	0.100
759.900	-35.709	0.100
760.000	-25.766	0.100
760.100	-23.972	0.099
760.200	-22.725	0.100
760.300	-13.091	0.099
760.400	-28.767	0.099
760.500	-17.634	0.099
760.600	-28.193	0.099
760.700	-18.380	0.099
760.800	-26.563	0.099
760.900	-43.375	0.099
761.000	-31.693	0.100
761.100	-26.412	0.100
761.200	-22.063	0.099
761.300	-21.967	0.100
761.400	-32.338	0.099
761.500	-24.630	0.099
761.600	-20.340	0.100
761.700	-24.478	0.099
761.800	-9.746	0.099
761.900	-21.586	0.100
762.000	-23.786	0.100
762.100	-45.126	0.100
762.200	-26.190	0.099
762.300	-24.133	0.099
762.400	-29.242	0.099
762.500	-25.349	0.099
762.600	-16.887	0.100
762.700	-25.990	0.099
762.800	-35.174	0.099
762.900	-20.928	0.099
763.000	-20.633	0.099
763.100	-21.237	0.099
763.200	-17.945	0.099
763.300	-16.629	0.099
763.400	-16.841	0.099
763.500	-27.013	0.099
763.600	-31.844	0.099
763.700	-20.708	0.099
763.800	-28.752	0.099
763.900	-20.501	0.099
764.000	-23.400	0.099
764.100	-17.896	0.099
764.200	-17.708	0.099
764.300	-32.021	0.099
764.400	-38.419	0.099
764.500	-38.455	0.099
764.600	-32.782	0.099
764.700	-36.444	0.099
764.800	-18.759	0.099
764.900	-16.027	0.099
765.000	-26.153	0.099
765.100	-22.950	0.099
765.200	-17.769	0.099
765.300	-14.373	0.099
765.400	-26.283	0.099
765.500	-34.403	0.099
765.600	-29.174	0.099
765.700	-28.517	0.099
765.800	-21.911	0.099
765.900	-31.006	0.099
766.000	-19.343	0.099
766.100	-5.978	0.099
766.200	-26.713	0.099
766.300	-30.996	0.099
766.400	-24.251	0.099
766.500	-38.714	0.099
766.600	-29.399	0.099
766.700	-10.426	0.099
766.800	-16.936	0.099
766.900	-30.517	0.099
767.000	-33.030	0.099
767.100	-23.520	0.099
767.200	-19.383	0.099
767.300	-29.605	0.099
767.400	-18.995	0.099
767.500	-36.190	0.099
767.600	-20.602	0.099
767.700	-19.259	0.099
767.800	-17.517	0.099
767.900	-23.420	0.100
768.000	-28.565	0.099
768.100	-21.683	0.099
768.200	-36.579	0.099
768.300	-14.619	0.099
768.400	-25.091	0.099
768.500	-24.546	0.099
768.600	-31.652	0.099
768.700	-27.908	0.099
768.800	-18.908	0.099
768.900	-38.470	0.099
769.000	-19.521	0.099
769.100	-9.628	0.099
769.200	-17.696	0.099
769.300	-17.105	0.099
769.400	-29.482	0.099
769.500	-18.058	0.099
769.600	-33.124	0.099
769.700	-32.491	0.099
769.800	-9.730	0.099
769.900	-26.856	0.099
770.000	-26.007	0.099
770.100	-32.937	0.099
770.200	-21.195	0.099
770.300	-26.271	0.099
770.400	-25.603	0.099
770.500	-20.186	0.099
770.600	-33.398	0.099
770.700	-25.202	0.099
770.800	4.182	0.099
770.900	-19.539	0.099
771.000	-24.536	0.099
771.100	-23.624	0.099
771.200	-28.791	0.099
771.300	-4.773	0.099
771.400	-31.389	0.099
771.500	-22.467	0.099
771.600	-29.306	0.099
771.700	-21.042	0.099
771.800	-27.777	0.099
771.900	-14.281	0.099
772.000	-18.532	0.099
772.100	-32.848	0.099
772.200	-28.366	0.099
772.300	-23.895	0.099
772.400	-14.550	0.099
772.500	-26.980	0.099
772.600	-25.763	0.099
772.700	-18.807	0.099
772.800	-13.859	0.099
772.900	-28.406	0.099
773.000	-36.872	0.099
773.100	-21.608	0.099
773.200	-16.698	0.099
773.300	-14.883	0.099
773.400	-26.494	0.099
773.500	-31.319	0.099
773.600	-23.516	0.099
773.700	-22.995	0.099
773.800	-31.860	0.099
773.900	-19.977	0.099
774.000	-14.761	0.099
774.100	-24.792	0.099
774.200	-32.912	0.099
774.300	-16.831	0.099
774.400	-11.104	0.099
774.500	-35.711	0.099
774.600	-12.656	0.099
774.700	-21.928	0.099
774.800	-28.562	0.099
774.900	-25.838	0.099
775.000	-11.834	0.099
775.100	-22.066	0.099
775.200	-29.026	0.099
775.300	-26.871	0.099
775.400	-27.522	0.099
775.500	-18.118	0.099
775.600	-13.105	0.099
775.700	-21.078	0.099
775.800	-26.885	0.099
775.900	-28.539	0.099
776.000	-27.823	0.099
776.100	-14.885	0.099
776.200	-27.488	0.099
776.300	-18.964	0.099
776.400	-26.396	0.099
776.500	-19.139	0.099
776.600	-33.422	0.099
776.700	-26.687	0.099
776.800	-39.397	0.099
776.900	-16.178	0.099
777.000	-33.570	0.099
777.100	-29.206	0.099
777.200	-28.132	0.099
777.300	-17.938	0.099
777.400	-22.840	0.099
777.500	-38.562	0.099
777.600	-11.797	0.099
777.700	-26.440	0.099
777.800	-23.360	0.099
777.900	-25.644	0.099
778.000	-33.019	0.099
778.100	-21.362	0.099
778.200	-29.305	0.099
778.300	-21.061	0.099
778.400	-12.363	0.099
778.500	-11.471	0.099
778.600	-30.184	0.099
778.700	-20.328	0.099
778.800	-22.620	0.099
778.900	-29.634	0.099
779.000	-18.809	0.099
779.100	-25.579	0.099
779.200	-30.069	0.099
779.300	-24.098	0.099
779.400	-13.616	0.099
779.500	-14.724	0.099
779.600	-26.436	0.099
779.700	-22.092	0.099
779.800	-31.817	0.099
779.900	-18.945	0.099
780.000	-34.720	0.099
780.100	-31.682	0.099
780.200	-20.553	0.099
780.300	-10.919	0.099
780.400	-18.837	0.099
780.500	-11.994	0.099
780.600	-20.133	0.099
780.700	-17.745	0.099
780.800	-21.397	0.099
780.900	-17.787	0.099
781.000	-10.063	0.099
781.100	-4.915	0.099
781.200	3.792	0.099
781.300	-1.478	0.099
781.400	30.102	0.099
781.500	10.172	0.099
781.600	12.441	0.099
781.700	26.593	0.099
781.800	21.699	0.099
781.900	27.127	0.099
782.000	21.624	0.099
782.100	29.048	0.099
782.200	17.620	0.099
782.300	30.496	0.099
782.400	10.952	0.099
782.500	13.216	0.099
782.600	18.732	0.099
782.700	13.884	0.099
782.800	16.509	0.099
782.900	13.601	0.099
783.000	14.838	0.099
783.100	16.820	0.099
783.200	11.223	0.099
783.300	3.860	0.099
783.400	14.660	0.099
783.500	7.986	0.099
783.600	20.310	0.099
783.700	3.822	0.099
783.800	19.428	0.099
783.900	13.132	0.099
784.000	3.629	0.099
784.100	7.803	0.099
784.200	23.738	0.099
784.300	23.495	0.099
784.400	16.485	0.099
784.500	8.843	0.099
784.600	19.919	0.099
784.700	1.373	0.099
784.800	15.979	0.099
784.900	6.773	0.099
785.000	-3.029	0.099
785.100	12.467	0.099
785.200	15.475	0.099
785.300	6.020	0.099
785.400	12.424	0.099
785.500	21.335	0.099
785.600	6.867	0.099
785.700	3.975	0.099
785.800	2.758	0.099
785.900	10.860	0.099
786.000	13.871	0.099
786.100	7.985	0.099
786.200	4.454	0.099
786.300	8.105	0.099
786.400	-2.392	0.099
786.500	10.819	0.099
786.600	17.012	0.099
786.700	7.760	0.099
786.800	7.005	0.099
786.900	7.664	0.099
787.000	13.858	0.099
787.100	20.716	0.099
787.200	14.023	0.099
787.300	3.435	0.099
787.400	18.985	0.099
787.500	-1.272	0.099
787.600	-3.239	0.099
787.700	32.754	0.099
787.800	12.739	0.099
787.900	10.010	0.099
788.000	0.083	0.099
788.100	11.228	0.099
788.200	11.975	0.099
788.300	6.716	0.099
788.400	15.965	0.099
788.500	17.663	0.099
788.600	12.099	0.099
788.700	10.249	0.099
788.800	1.418	0.099
788.900	22.702	0.099
789.000	17.120	0.099
789.100	10.555	0.099
789.200	17.446	0.099
789.300	10.869	0.099
789.400	25.713	0.099
789.500	15.204	0.099
789.600	7.957	0.099
789.700	15.908	0.099
789.800	12.260	0.099
789.900	18.469	0.099
790.000	16.275	0.099
790.100	21.693	0.099
790.200	12.049	0.099
790.300	21.857	0.099
790.400	26.790	0.099
790.500	23.487	0.099
790.600	10.487	0.099
790.700	23.244	0.099
790.800	26.243	0.099
790.900	14.386	0.099
791.000	10.506	0.099
791.100	23.786	0.099
791.200	15.726	0.099
791.300	9.868	0.099
791.400	22.958	0.099
791.500	26.629	0.099
791.600	24.929	0.099
791.700	20.141	0.099
791.800	10.139	0.099
791.900	30.068	0.099
792.000	39.870	0.099
792.100	26.638	0.099
792.200	24.360	0.099
792.300	25.236	0.099
792.400	31.000	0.099
792.500	24.838	0.099
792.600	23.445	0.099
792.700	31.346	0.099
792.800	32.684	0.099
792.900	34.446	0.099
793.000	31.147	0.099
793.100	23.681	0.099
793.200	37.983	0.099
793.300	36.363	0.099
793.400	29.569	0.099
793.500	32.787	0.099
793.600	33.876	0.099
793.700	18.925	0.099
793.800	33.816	0.099
793.900	24.696	0.099
794.000	40.971	0.099
794.100	40.013	0.099
794.200	44.495	0.099
794.300	35.394	0.099
794.400	27.675	0.099
794.500	26.075	0.099
794.600	34.751	0.099
794.700	38.380	0.099
794.800	43.015	0.099
794.900	24.323	0.099
795.000	25.812	0.099
795.100	44.763	0.099
795.200	36.502	0.099
795.300	35.718	0.099
795.400	39.080	0.099
795.500	35.130	0.099
795.600	33.526	0.099
795.700	38.423	0.099
795.800	40.495	0.099
795.900	40.015	0.099
796.000	45.620	0.099
796.100	36.614	0.099
796.200	41.201	0.099
796.300	37.033	0.099
796.400	25.575	0.099
796.500	44.491	0.099
796.600	52.710	0.099
796.700	50.713	0.099
796.800	38.605	0.099
796.900	48.766	0.099
797.000	43.066	0.099
797.100	47.799	0.099
797.200	39.944	0.099
797.300	39.197	0.099
797.400	39.197	0.099
797.500	42.933	0.099
797.600	42.431	0.099
797.700	30.501	0.099
797.800	36.274	0.099
797.900	41.664	0.099
798.000	50.011	0.099
798.100	50.740	0.099
798.200	47.089	0.099
798.300	41.443	0.099
798.400	38.280	0.099
798.500	56.398	0.099
798.600	44.318	0.099
798.700	51.210	0.099
798.800	42.131	0.099
798.900	38.171	0.099
799.000	50.666	0.099
799.100	53.745	0.099
799.200	58.861	0.099
799.300	42.342	0.099
799.400	36.756	0.099
799.500	41.279	0.099
799.600	39.019	0.099
799.700	34.224	0.099
799.800	31.886	0.099
799.900	41.885	0.099
800.000	55.063	0.099
