time /s	I /nA	E /V
0.100	-37.098	0.100
0.200	-21.484	0.100
0.300	-20.614	0.100
0.400	-36.169	0.100
0.500	-43.055	0.100
0.600	-27.889	0.100
0.700	-31.374	0.100
0.800	-34.181	0.100
0.900	-31.327	0.099
1.000	-21.131	0.100
1.100	-39.355	0.100
1.200	-23.178	0.100
1.300	-33.139	0.100
1.400	-26.848	0.100
1.500	-23.591	0.100
1.600	-39.674	0.100
1.700	-29.978	0.100
1.800	-38.723	0.100
1.900	-34.197	0.100
2.000	-13.014	0.100
2.100	-20.955	0.100
2.200	-34.035	0.100
2.300	-30.842	0.100
2.400	-26.657	0.100
2.500	-29.412	0.100
2.600	-27.877	0.100
2.700	-39.773	0.100
2.800	-29.874	0.100
2.900	-28.708	0.100
3.000	-29.622	0.100
3.100	-31.120	0.100
3.200	-49.026	0.100
3.300	-20.363	0.100
3.400	-34.174	0.100
3.500	-27.130	0.100
3.600	-35.029	0.100
3.700	-40.689	0.100
3.800	-16.591	0.100
3.900	-22.619	0.100
4.000	-29.093	0.100
4.100	-45.057	0.100
4.200	-40.777	0.100
4.300	-25.879	0.100
4.400	-19.276	0.100
4.500	-28.305	0.100
4.600	-36.863	0.100
4.700	-33.733	0.100
4.800	-31.106	0.100
4.900	-37.865	0.100
5.000	-17.222	0.100
5.100	-31.720	0.100
5.200	-22.476	0.100
5.300	-28.690	0.100
5.400	-33.224	0.100
5.500	-24.502	0.100
5.600	-43.106	0.100
5.700	-33.534	0.100
5.800	-29.585	0.100
5.900	-44.447	0.100
6.000	-34.075	0.100
6.100	-29.003	0.100
6.200	-14.895	0.100
6.300	-41.147	0.100
6.400	-40.992	0.100
6.500	-27.191	0.100
6.600	-26.964	0.100
6.700	-24.579	0.100
6.800	-30.823	0.100
6.900	-29.618	0.100
7.000	-29.545	0.100
7.100	-24.755	0.100
7.200	-26.564	0.100
7.300	-32.292	0.100
7.400	-27.391	0.100
7.500	-37.294	0.100
7.600	-28.937	0.100
7.700	-39.920	0.100
7.800	-25.729	0.100
7.900	-21.774	0.100
8.000	-31.919	0.100
8.100	-37.089	0.100
8.200	-37.815	0.100
8.300	-31.688	0.100
8.400	-15.086	0.100
8.500	-20.758	0.100
8.600	-36.200	0.100
8.700	-34.261	0.100
8.800	-28.680	0.100
8.900	-33.642	0.100
9.000	-21.934	0.100
9.100	-28.397	0.100
9.200	-29.965	0.100
9.300	-22.578	0.100
9.400	-33.850	0.100
9.500	-20.243	0.100
9.600	-35.266	0.100
9.700	-23.822	0.100
9.800	-21.414	0.100
9.900	-33.480	0.100
10.000	-36.835	0.100
10.100	-28.900	0.100
10.200	-22.612	0.100
10.300	-27.601	0.100
10.400	-31.129	0.100
10.500	-28.089	0.100
10.600	-24.235	0.100
10.700	-15.726	0.100
10.800	-28.756	0.100
10.900	-36.835	0.100
11.000	-31.347	0.100
11.100	-31.666	0.100
11.200	-19.509	0.100
11.300	-24.711	0.100
11.400	-16.103	0.100
11.500	-41.671	0.100
11.600	-28.229	0.100
11.700	-15.534	0.100
11.800	-41.740	0.100
11.900	-42.316	0.100
12.000	-15.325	0.100
12.100	-15.957	0.100
12.200	-28.851	0.100
12.300	-37.052	0.100
12.400	-31.116	0.100
12.500	-17.549	0.100
12.600	-26.463	0.100
12.700	-27.303	0.100
12.800	-27.906	0.100
12.900	-38.601	0.100
13.000	-36.703	0.100
13.100	-36.889	0.100
13.200	-26.337	0.100
13.300	-17.922	0.100
13.400	-21.207	0.100
13.500	-28.129	0.100
13.600	-34.078	0.100
13.700	-16.368	0.100
13.800	-25.759	0.100
13.900	-24.704	0.100
14.000	-31.083	0.100
14.100	-24.146	0.100
14.200	-33.304	0.100
14.300	-32.033	0.100
14.400	-27.397	0.100
14.500	-31.141	0.100
14.600	-25.680	0.100
14.700	-25.804	0.100
14.800	-28.652	0.100
14.900	-24.391	0.100
15.000	-30.847	0.100
15.100	-21.185	0.100
15.200	-34.928	0.100
15.300	-40.880	0.100
15.400	-32.259	0.100
15.500	-20.382	0.100
15.600	-13.540	0.100
15.700	-27.231	0.100
15.800	-29.531	0.100
15.900	-29.469	0.100
16.000	-27.135	0.100
16.100	-23.204	0.100
16.200	-33.346	0.100
16.300	-11.746	0.100
16.400	-20.808	0.100
16.500	-22.884	0.100
16.600	-21.300	0.100
16.700	-39.512	0.100
16.800	-40.484	0.100
16.900	-37.513	0.100
17.000	-26.841	0.100
17.100	-16.339	0.100
17.200	-25.907	0.100
17.300	-26.246	0.100
17.400	-29.819	0.100
17.500	-21.079	0.100
17.600	-23.434	0.100
17.700	-18.371	0.100
17.800	-35.730	0.100
17.900	-21.785	0.100
18.000	-20.913	0.100
18.100	-36.328	0.100
18.200	-24.658	0.100
18.300	-23.933	0.100
18.400	-22.944	0.100
18.500	-26.623	0.100
18.600	-34.447	0.100
18.700	-32.139	0.100
18.800	-23.256	0.100
18.900	-22.471	0.100
19.000	-35.961	0.100
19.100	-31.341	0.100
19.200	-33.838	0.100
19.300	-41.076	0.100
19.400	-21.223	0.100
19.500	-18.937	0.100
19.600	-24.782	0.100
19.700	-16.721	0.100
19.800	-27.909	0.100
19.900	-25.113	0.100
20.000	-39.777	0.100
20.100	-31.696	0.100
20.200	-25.439	0.100
20.300	-18.518	0.100
20.400	-27.380	0.100
20.500	-26.730	0.100
20.600	-25.964	0.100
20.700	-21.055	0.100
20.800	-23.475	0.100
20.900	-34.274	0.100
21.000	-22.570	0.100
21.100	-34.281	0.100
21.200	-26.421	0.100
21.300	-43.618	0.100
21.400	-30.039	0.100
21.500	-24.378	0.100
21.600	-22.086	0.100
21.700	-27.407	0.100
21.800	-25.624	0.100
21.900	-30.223	0.100
22.000	-22.953	0.100
22.100	-22.740	0.100
22.200	-39.784	0.100
22.300	-28.450	0.100
22.400	-18.008	0.100
22.500	-27.209	0.100
22.600	-20.709	0.100
22.700	-26.615	0.100
22.800	-27.965	0.100
22.900	-28.386	0.100
23.000	-17.247	0.100
23.100	-23.916	0.100
23.200	-26.726	0.100
23.300	-27.104	0.100
23.400	-27.138	0.100
23.500	-29.119	0.100
23.600	-33.519	0.100
23.700	-43.864	0.100
23.800	-15.356	0.100
23.900	-26.634	0.100
24.000	-30.792	0.100
24.100	-30.363	0.100
24.200	-35.860	0.100
24.300	-24.927	0.100
24.400	-19.346	0.100
24.500	-25.865	0.100
24.600	-31.972	0.100
24.700	-24.939	0.100
24.800	-31.313	0.100
24.900	-39.736	0.100
25.000	-11.877	0.100
25.100	-31.555	0.100
25.200	-31.609	0.100
25.300	-23.403	0.100
25.400	-13.904	0.100
25.500	-21.824	0.100
25.600	-29.414	0.100
25.700	-17.993	0.100
25.800	-42.610	0.100
25.900	-25.431	0.100
26.000	-29.428	0.100
26.100	-20.329	0.100
26.200	-25.149	0.100
26.300	-36.519	0.100
26.400	-21.260	0.100
26.500	-23.493	0.100
26.600	-19.985	0.100
26.700	-17.453	0.100
26.800	-27.438	0.100
26.900	-27.190	0.100
27.000	-24.855	0.100
27.100	-31.208	0.100
27.200	-15.202	0.100
27.300	-37.273	0.100
27.400	-29.867	0.100
27.500	-22.423	0.100
27.600	-24.672	0.100
27.700	-29.792	0.100
27.800	-36.305	0.100
27.900	-33.592	0.100
28.000	-20.590	0.100
28.100	-28.319	0.100
28.200	-24.690	0.100
28.300	-12.857	0.100
28.400	-28.890	0.100
28.500	-39.799	0.100
28.600	-31.951	0.100
28.700	-40.414	0.100
28.800	-22.501	0.100
28.900	-20.181	0.100
29.000	-19.783	0.100
29.100	-30.736	0.100
29.200	-26.868	0.100
29.300	-10.935	0.100
29.400	-12.685	0.100
29.500	-29.023	0.100
29.600	-28.574	0.100
29.700	-5.122	0.100
29.800	-2.546	0.100
29.900	-1.647	0.100
30.000	-4.391	0.100
30.100	16.256	0.100
30.200	23.119	0.100
30.300	17.492	0.100
30.400	26.851	0.100
30.500	54.028	0.100
30.600	52.131	0.100
30.700	40.844	0.100
30.800	3.101	0.100
30.900	13.827	0.100
31.000	31.550	0.100
31.100	36.550	0.100
31.200	30.363	0.100
31.300	32.487	0.100
31.400	23.636	0.100
31.500	36.954	0.100
31.600	16.656	0.100
31.700	20.781	0.100
31.800	39.170	0.100
31.900	22.640	0.100
32.000	24.675	0.100
32.100	19.526	0.100
32.200	24.435	0.100
32.300	10.311	0.100
32.400	31.125	0.100
32.500	20.530	0.100
32.600	17.251	0.100
32.700	22.351	0.100
32.800	11.976	0.100
32.900	26.605	0.100
33.000	24.961	0.100
33.100	19.384	0.100
33.200	6.109	0.100
33.300	26.915	0.100
33.400	9.468	0.100
33.500	14.982	0.100
33.600	16.655	0.100
33.700	-6.985	0.100
33.800	24.005	0.100
33.900	25.724	0.100
34.000	20.591	0.100
34.100	27.282	0.100
34.200	31.312	0.100
34.300	29.383	0.100
34.400	14.573	0.100
34.500	7.944	0.100
34.600	12.311	0.100
34.700	6.541	0.100
34.800	0.829	0.100
34.900	7.249	0.100
35.000	10.799	0.100
35.100	23.724	0.100
35.200	-0.517	0.100
35.300	17.173	0.100
35.400	16.124	0.100
35.500	12.578	0.100
35.600	13.579	0.100
35.700	18.975	0.100
35.800	12.694	0.100
35.900	13.247	0.100
36.000	11.762	0.100
36.100	15.683	0.100
36.200	12.662	0.100
36.300	18.790	0.100
36.400	13.256	0.100
36.500	15.250	0.100
36.600	21.399	0.100
36.700	15.879	0.100
36.800	14.379	0.100
36.900	18.493	0.100
37.000	23.842	0.100
37.100	17.609	0.100
37.200	27.099	0.100
37.300	28.926	0.100
37.400	26.782	0.100
37.500	31.373	0.100
37.600	21.951	0.100
37.700	37.738	0.100
37.800	32.576	0.100
37.900	30.720	0.100
38.000	19.657	0.100
38.100	19.629	0.100
38.200	36.250	0.100
38.300	46.993	0.100
38.400	32.888	0.100
38.500	27.244	0.100
38.600	30.405	0.100
38.700	37.493	0.100
38.800	30.078	0.100
38.900	47.566	0.100
39.000	21.516	0.100
39.100	32.517	0.100
39.200	46.438	0.100
39.300	40.135	0.100
39.400	51.913	0.100
39.500	41.530	0.100
39.600	34.902	0.100
39.700	43.415	0.100
39.800	51.011	0.100
39.900	52.247	0.100
40.000	65.092	0.100
40.100	43.504	0.100
40.200	46.262	0.100
40.300	44.395	0.100
40.400	42.400	0.100
40.500	37.941	0.100
40.600	46.504	0.100
40.700	52.636	0.100
40.800	43.826	0.100
40.900	48.667	0.100
41.000	44.393	0.100
41.100	42.921	0.100
41.200	55.221	0.100
41.300	49.711	0.100
41.400	51.397	0.100
41.500	33.282	0.100
41.600	34.005	0.100
41.700	60.014	0.100
41.800	51.859	0.100
41.900	67.767	0.100
42.000	41.167	0.100
42.100	49.432	0.100
42.200	45.911	0.100
42.300	62.825	0.100
42.400	45.829	0.100
42.500	45.062	0.100
42.600	52.329	0.100
42.700	46.663	0.100
42.800	51.497	0.100
42.900	45.392	0.100
43.000	64.487	0.100
43.100	58.531	0.100
43.200	42.082	0.100
43.300	56.146	0.100
43.400	49.530	0.100
43.500	56.411	0.100
43.600	56.690	0.100
43.700	52.898	0.100
43.800	62.962	0.100
43.900	53.222	0.100
44.000	59.730	0.100
44.100	61.419	0.100
44.200	55.234	0.100
44.300	46.293	0.100
44.400	40.220	0.100
44.500	56.482	0.100
44.600	52.238	0.100
44.700	54.039	0.100
44.800	61.793	0.100
44.900	53.175	0.100
45.000	54.991	0.100
45.100	54.570	0.100
45.200	48.530	0.100
45.300	50.441	0.100
45.400	38.960	0.100
45.500	66.624	0.100
45.600	65.616	0.100
45.700	53.394	0.100
45.800	50.901	0.100
45.900	53.008	0.100
46.000	44.930	0.100
46.100	61.052	0.100
46.200	60.204	0.100
46.300	52.707	0.100
46.400	47.495	0.100
46.500	50.277	0.100
46.600	72.244	0.100
46.700	54.125	0.100
46.800	57.052	0.100
46.900	54.930	0.100
47.000	56.843	0.100
47.100	50.828	0.100
47.200	51.076	0.100
47.300	35.163	0.100
47.400	51.956	0.100
47.500	58.945	0.100
47.600	53.400	0.100
47.700	61.540	0.100
47.800	49.342	0.100
47.900	58.396	0.100
48.000	46.886	0.100
48.100	46.478	0.100
48.200	58.192	0.100
48.300	43.734	0.100
48.400	52.977	0.100
48.500	65.468	0.100
48.600	51.822	0.100
48.700	55.579	0.100
48.800	57.687	0.100
48.900	51.540	0.100
49.000	65.359	0.100
49.100	51.056	0.100
49.200	54.929	0.100
49.300	44.994	0.100
49.400	52.527	0.100
49.500	57.075	0.100
49.600	57.217	0.100
49.700	55.817	0.100
49.800	56.463	0.100
49.900	65.075	0.100
50.000	57.642	0.100
50.100	53.506	0.100
50.200	58.645	0.100
50.300	54.598	0.100
50.400	61.184	0.100
50.500	52.185	0.100
50.600	55.549	0.100
50.700	58.547	0.100
50.800	62.343	0.100
50.900	52.155	0.100
51.000	45.425	0.100
51.100	57.737	0.100
51.200	52.755	0.100
51.300	47.270	0.100
51.400	43.258	0.100
51.500	52.488	0.100
51.600	57.058	0.100
51.700	62.261	0.100
51.800	54.753	0.100
51.900	51.226	0.100
52.000	52.769	0.100
52.100	50.780	0.100
52.200	59.262	0.100
52.300	66.692	0.100
52.400	52.480	0.100
52.500	59.224	0.100
52.600	46.382	0.100
52.700	56.219	0.100
52.800	43.627	0.100
52.900	59.040	0.100
53.000	53.161	0.100
53.100	55.203	0.100
53.200	53.238	0.100
53.300	51.299	0.100
53.400	47.595	0.100
53.500	62.826	0.100
53.600	46.694	0.100
53.700	44.137	0.100
53.800	61.495	0.100
53.900	65.712	0.100
54.000	52.924	0.100
54.100	76.027	0.100
54.200	60.223	0.100
54.300	66.026	0.100
54.400	55.741	0.100
54.500	52.828	0.100
54.600	57.497	0.100
54.700	54.741	0.100
54.800	50.519	0.100
54.900	58.778	0.100
55.000	53.052	0.100
55.100	64.287	0.100
55.200	51.266	0.100
55.300	63.279	0.100
55.400	57.987	0.100
55.500	53.857	0.100
55.600	45.568	0.100
55.700	54.151	0.100
55.800	71.605	0.100
55.900	63.066	0.100
56.000	55.210	0.100
56.100	56.972	0.100
56.200	62.111	0.100
56.300	56.522	0.100
56.400	47.300	0.100
56.500	58.035	0.100
56.600	52.551	0.100
56.700	49.471	0.100
56.800	59.402	0.100
56.900	62.290	0.100
57.000	45.175	0.100
57.100	51.311	0.100
57.200	55.680	0.100
57.300	71.584	0.100
57.400	58.995	0.100
57.500	57.961	0.100
57.600	63.487	0.099
57.700	49.777	0.100
57.800	63.042	0.100
57.900	50.573	0.100
58.000	45.093	0.099
58.100	53.971	0.100
58.200	63.579	0.100
58.300	64.685	0.100
58.400	50.487	0.100
58.500	53.142	0.100
58.600	59.575	0.100
58.700	65.713	0.100
58.800	59.834	0.100
58.900	55.648	0.100
59.000	51.687	0.100
59.100	61.742	0.100
59.200	64.092	0.100
59.300	59.804	0.100
59.400	58.134	0.100
59.500	48.136	0.100
59.600	51.481	0.100
59.700	45.822	0.100
59.800	65.893	0.100
59.900	55.390	0.100
60.000	63.130	0.100
60.100	61.722	0.100
60.200	49.189	0.100
60.300	49.501	0.100
60.400	54.693	0.100
60.500	58.909	0.100
60.600	53.289	0.100
60.700	61.488	0.100
60.800	57.692	0.100
60.900	53.541	0.100
61.000	52.605	0.100
61.100	64.434	0.100
61.200	40.691	0.100
61.300	43.344	0.100
61.400	64.188	0.100
61.500	51.935	0.100
61.600	61.604	0.100
61.700	60.781	0.100
61.800	57.211	0.100
61.900	47.032	0.100
62.000	61.807	0.100
62.100	57.312	0.100
62.200	49.623	0.100
62.300	54.320	0.100
62.400	40.479	0.100
62.500	60.415	0.100
62.600	57.206	0.100
62.700	59.280	0.100
62.800	61.399	0.100
62.900	59.844	0.100
63.000	67.323	0.100
63.100	47.829	0.100
63.200	49.925	0.100
63.300	57.097	0.100
63.400	53.698	0.100
63.500	63.184	0.100
63.600	47.168	0.100
63.700	57.545	0.100
63.800	66.447	0.100
63.900	45.836	0.100
64.000	62.363	0.100
64.100	57.805	0.100
64.200	62.921	0.100
64.300	51.865	0.100
64.400	57.401	0.100
64.500	58.836	0.100
64.600	46.214	0.100
64.700	60.152	0.100
64.800	60.167	0.100
64.900	57.868	0.100
65.000	55.928	0.100
65.100	55.525	0.100
65.200	63.282	0.100
65.300	54.912	0.100
65.400	54.871	0.100
65.500	43.042	0.100
65.600	49.642	0.100
65.700	60.716	0.100
65.800	66.729	0.100
65.900	39.088	0.100
66.000	43.694	0.100
66.100	63.858	0.100
66.200	54.780	0.100
66.300	60.272	0.100
66.400	60.449	0.100
66.500	60.453	0.100
66.600	54.458	0.100
66.700	54.554	0.100
66.800	53.126	0.100
66.900	50.157	0.100
67.000	56.159	0.100
67.100	59.471	0.100
67.200	44.112	0.100
67.300	60.544	0.100
67.400	59.192	0.100
67.500	50.773	0.100
67.600	57.841	0.100
67.700	52.062	0.100
67.800	57.919	0.100
67.900	48.840	0.100
68.000	56.001	0.100
68.100	62.059	0.100
68.200	55.880	0.100
68.300	47.209	0.100
68.400	61.586	0.100
68.500	48.773	0.100
68.600	54.214	0.100
68.700	46.005	0.100
68.800	52.011	0.100
68.900	61.826	0.100
69.000	48.550	0.100
69.100	55.513	0.100
69.200	49.349	0.100
69.300	56.253	0.100
69.400	58.060	0.100
69.500	52.031	0.100
69.600	50.636	0.100
69.700	44.401	0.100
69.800	59.024	0.100
69.900	64.451	0.100
70.000	59.899	0.100
70.100	53.130	0.100
70.200	55.840	0.100
70.300	47.341	0.100
70.400	51.306	0.100
70.500	58.426	0.100
70.600	45.574	0.100
70.700	50.575	0.100
70.800	58.881	0.100
70.900	48.561	0.100
71.000	45.739	0.100
71.100	61.809	0.100
71.200	48.294	0.100
71.300	57.487	0.100
71.400	45.662	0.100
71.500	53.340	0.100
71.600	60.249	0.100
71.700	59.792	0.100
71.800	49.063	0.100
71.900	53.472	0.100
72.000	57.922	0.100
72.100	51.374	0.100
72.200	55.298	0.100
72.300	54.235	0.100
72.400	56.526	0.100
72.500	40.204	0.100
72.600	50.175	0.100
72.700	55.638	0.100
72.800	64.671	0.100
72.900	55.586	0.100
73.000	50.372	0.100
73.100	42.739	0.100
73.200	53.650	0.100
73.300	58.917	0.100
73.400	63.030	0.100
73.500	52.913	0.100
73.600	38.085	0.100
73.700	45.692	0.100
73.800	40.936	0.100
73.900	59.930	0.100
74.000	56.277	0.100
74.100	58.393	0.100
74.200	54.899	0.100
74.300	53.432	0.100
74.400	56.424	0.100
74.500	52.232	0.100
74.600	63.234	0.100
74.700	48.183	0.100
74.800	50.426	0.100
74.900	52.391	0.100
75.000	52.450	0.100
75.100	39.240	0.100
75.200	38.676	0.100
75.300	62.128	0.100
75.400	54.818	0.100
75.500	54.566	0.100
75.600	54.969	0.100
75.700	64.763	0.100
75.800	57.637	0.100
75.900	48.495	0.100
76.000	36.465	0.100
76.100	47.071	0.100
76.200	50.281	0.100
76.300	71.003	0.100
76.400	56.065	0.100
76.500	48.467	0.100
76.600	43.526	0.100
76.700	56.179	0.100
76.800	50.088	0.100
76.900	54.859	0.100
77.000	59.386	0.100
77.100	44.538	0.100
77.200	51.133	0.100
77.300	43.681	0.100
77.400	49.483	0.100
77.500	60.118	0.100
77.600	54.288	0.100
77.700	47.349	0.100
77.800	48.208	0.100
77.900	52.268	0.100
78.000	52.363	0.100
78.100	52.282	0.100
78.200	47.229	0.100
78.300	47.699	0.100
78.400	50.585	0.100
78.500	61.620	0.100
78.600	43.152	0.100
78.700	50.340	0.100
78.800	49.990	0.100
78.900	49.476	0.100
79.000	54.702	0.100
79.100	51.821	0.100
79.200	53.117	0.100
79.300	56.280	0.100
79.400	34.612	0.100
79.500	45.060	0.100
79.600	59.590	0.100
79.700	47.701	0.100
79.800	55.381	0.100
79.900	61.692	0.100
80.000	56.297	0.100
80.100	56.859	0.100
80.200	55.759	0.100
80.300	50.507	0.100
80.400	53.802	0.100
80.500	56.941	0.100
80.600	51.908	0.100
80.700	45.565	0.100
80.800	40.172	0.100
80.900	46.254	0.100
81.000	53.077	0.100
81.100	63.372	0.100
81.200	50.362	0.100
81.300	42.275	0.100
81.400	50.302	0.100
81.500	56.104	0.100
81.600	53.503	0.100
81.700	52.369	0.100
81.800	49.223	0.100
81.900	56.701	0.100
82.000	37.236	0.100
82.100	52.708	0.100
82.200	47.970	0.100
82.300	58.336	0.100
82.400	44.247	0.100
82.500	53.444	0.100
82.600	43.853	0.100
82.700	52.338	0.100
82.800	50.068	0.100
82.900	51.147	0.100
83.000	50.073	0.100
83.100	56.154	0.100
83.200	52.619	0.100
83.300	53.254	0.100
83.400	42.068	0.100
83.500	59.470	0.100
83.600	38.511	0.100
83.700	55.500	0.100
83.800	53.133	0.100
83.900	43.669	0.100
84.000	48.939	0.100
84.100	54.342	0.100
84.200	38.021	0.100
84.300	45.936	0.100
84.400	55.393	0.100
84.500	53.470	0.100
84.600	46.788	0.100
84.700	50.586	0.100
84.800	43.101	0.100
84.900	58.316	0.100
85.000	52.776	0.100
85.100	55.867	0.100
85.200	57.524	0.100
85.300	49.867	0.100
85.400	48.088	0.100
85.500	59.475	0.100
85.600	51.839	0.100
85.700	58.431	0.100
85.800	53.938	0.100
85.900	50.274	0.100
86.000	53.998	0.100
86.100	58.862	0.100
86.200	47.929	0.100
86.300	57.332	0.100
86.400	46.650	0.100
86.500	39.817	0.100
86.600	44.792	0.100
86.700	46.642	0.100
86.800	55.507	0.100
86.900	41.164	0.100
87.000	59.641	0.100
87.100	48.920	0.100
87.200	61.201	0.100
87.300	59.592	0.100
87.400	50.330	0.100
87.500	53.901	0.100
87.600	53.801	0.100
87.700	45.984	0.100
87.800	60.607	0.100
87.900	39.857	0.100
88.000	57.459	0.100
88.100	54.216	0.100
88.200	44.508	0.100
88.300	54.538	0.100
88.400	50.262	0.100
88.500	41.505	0.100
88.600	62.942	0.100
88.700	48.307	0.100
88.800	51.151	0.100
88.900	36.934	0.100
89.000	54.323	0.100
89.100	59.099	0.100
89.200	48.239	0.100
89.300	41.461	0.100
89.400	43.319	0.100
89.500	53.484	0.100
89.600	52.051	0.100
89.700	28.319	0.100
89.800	24.179	0.100
89.900	28.788	0.100
90.000	32.558	0.100
90.100	17.295	0.100
90.200	12.107	0.100
90.300	18.285	0.100
90.400	24.286	0.100
90.500	1.888	0.100
90.600	2.544	0.100
90.700	-1.005	0.100
90.800	5.503	0.100
90.900	12.196	0.100
91.000	-0.919	0.100
91.100	-3.668	0.100
91.200	0.691	0.100
91.300	-24.447	0.100
91.400	-15.452	0.100
91.500	-7.537	0.100
91.600	-8.344	0.100
91.700	-9.363	0.100
91.800	-0.059	0.100
91.900	-8.060	0.100
92.000	-15.840	0.100
92.100	-11.527	0.100
92.200	-23.774	0.100
92.300	-16.119	0.100
92.400	-18.627	0.100
92.500	-21.752	0.100
92.600	-17.534	0.100
92.700	-11.940	0.100
92.800	-9.429	0.100
92.900	-28.878	0.100
93.000	-20.229	0.100
93.100	-18.464	0.100
93.200	-7.949	0.100
93.300	-13.580	0.100
93.400	-7.425	0.100
93.500	-30.854	0.100
93.600	-41.514	0.100
93.700	-15.959	0.100
93.800	-24.217	0.100
93.900	-16.965	0.100
94.000	-22.254	0.100
94.100	-29.019	0.100
94.200	-30.199	0.100
94.300	-25.262	0.099
94.400	-19.801	0.100
94.500	-21.325	0.100
94.600	-12.060	0.100
94.700	-29.850	0.100
94.800	-33.352	0.100
94.900	-31.326	0.100
95.000	-24.288	0.100
95.100	-15.703	0.100
95.200	-21.889	0.100
95.300	-14.646	0.100
95.400	-36.862	0.100
95.500	-32.159	0.100
95.600	-32.947	0.100
95.700	-28.440	0.100
95.800	-25.486	0.100
95.900	-37.516	0.100
96.000	-27.342	0.100
96.100	-38.255	0.100
96.200	-22.158	0.100
96.300	-17.560	0.100
96.400	-21.421	0.100
96.500	-24.456	0.100
96.600	-27.590	0.100
96.700	-32.126	0.100
96.800	-29.345	0.100
96.900	-30.538	0.100
97.000	-31.055	0.100
97.100	-29.425	0.100
97.200	-23.078	0.100
97.300	-13.863	0.100
97.400	-26.875	0.100
97.500	-33.507	0.100
97.600	-32.479	0.100
97.700	-34.693	0.100
97.800	-39.582	0.100
97.900	-21.690	0.100
98.000	-18.298	0.100
98.100	-25.427	0.100
98.200	-23.784	0.100
98.300	-19.141	0.100
98.400	-24.976	0.100
98.500	-21.808	0.100
98.600	-26.684	0.100
98.700	-3.858	0.100
98.800	-11.485	0.100
98.900	-18.793	0.100
99.000	-32.143	0.100
99.100	-22.081	0.100
99.200	-29.049	0.100
99.300	-26.231	0.100
99.400	-25.552	0.100
99.500	-23.858	0.100
99.600	-21.292	0.100
99.700	-32.187	0.100
99.800	-17.927	0.100
99.900	-19.829	0.100
100.000	-26.061	0.100
100.100	-33.426	0.100
100.200	-21.997	0.100
100.300	-31.328	0.100
100.400	-30.241	0.100
100.500	-36.581	0.100
100.600	-20.360	0.100
100.700	-26.815	0.100
100.800	-22.678	0.100
100.900	-27.991	0.100
101.000	-21.677	0.100
101.100	-28.866	0.100
101.200	-31.929	0.100
101.300	-25.522	0.100
101.400	-31.226	0.100
101.500	-27.378	0.100
101.600	-19.557	0.100
101.700	-37.908	0.100
101.800	-28.899	0.100
101.900	-33.046	0.100
102.000	-23.960	0.100
102.100	-22.371	0.100
102.200	-25.175	0.100
102.300	-24.010	0.100
102.400	-34.551	0.100
102.500	-36.786	0.100
102.600	-22.216	0.100
102.700	-30.858	0.100
102.800	-24.720	0.100
102.900	-21.710	0.100
103.000	-29.618	0.100
103.100	-25.908	0.100
103.200	-33.653	0.100
103.300	-16.032	0.100
103.400	-39.657	0.100
103.500	-44.395	0.099
103.600	-19.280	0.100
103.700	-30.168	0.099
103.800	-37.823	0.100
103.900	-24.058	0.100
104.000	-20.425	0.100
104.100	-36.308	0.100
104.200	-37.108	0.100
104.300	-31.708	0.100
104.400	-13.049	0.100
104.500	-26.786	0.100
104.600	-18.560	0.100
104.700	-28.020	0.100
104.800	-25.472	0.100
104.900	-25.431	0.099
105.000	-23.727	0.100
105.100	-34.374	0.100
105.200	-33.655	0.100
105.300	-37.999	0.100
105.400	-39.487	0.100
105.500	-22.310	0.099
105.600	-29.412	0.099
105.700	-26.207	0.100
105.800	-48.786	0.100
105.900	-31.835	0.099
106.000	-18.111	0.100
106.100	-19.143	0.099
106.200	-27.178	0.100
106.300	-38.713	0.100
106.400	-26.319	0.100
106.500	-35.356	0.100
106.600	-34.275	0.099
106.700	-25.074	0.100
106.800	-26.429	0.100
106.900	-31.569	0.099
107.000	-45.272	0.100
107.100	-31.066	0.099
107.200	-26.232	0.100
107.300	-26.084	0.100
107.400	-31.230	0.099
107.500	-29.000	0.100
107.600	-35.558	0.100
107.700	-40.787	0.099
107.800	-24.934	0.100
107.900	-32.412	0.100
108.000	-29.917	0.100
108.100	-18.215	0.100
108.200	-21.983	0.100
108.300	-43.783	0.099
108.400	-33.398	0.099
108.500	-28.651	0.100
108.600	-21.442	0.099
108.700	-48.136	0.100
108.800	-44.360	0.099
108.900	-27.301	0.099
109.000	-32.606	0.100
109.100	-23.089	0.100
109.200	-50.464	0.100
109.300	-36.672	0.099
109.400	-40.447	0.100
109.500	-41.272	0.099
109.600	-28.261	0.100
109.700	-28.526	0.100
109.800	-20.237	0.100
109.900	-19.570	0.100
110.000	-30.064	0.099
110.100	-39.632	0.100
110.200	-29.156	0.100
110.300	-39.189	0.099
110.400	-32.240	0.099
110.500	-49.050	0.099
110.600	-27.613	0.099
110.700	-27.202	0.099
110.800	-30.191	0.099
110.900	-34.519	0.099
111.000	-27.417	0.100
111.100	-32.562	0.099
111.200	-25.215	0.100
111.300	-38.089	0.100
111.400	-34.252	0.099
111.500	-32.506	0.099
111.600	-41.027	0.099
111.700	-34.650	0.099
111.800	-36.323	0.099
111.900	-34.018	0.099
112.000	-21.877	0.099
112.100	-17.525	0.099
112.200	-42.117	0.099
112.300	-39.189	0.099
112.400	-34.366	0.099
112.500	-35.290	0.099
112.600	-26.383	0.099
112.700	-22.473	0.100
112.800	-30.094	0.100
112.900	-41.629	0.099
113.000	-39.860	0.100
113.100	-38.042	0.099
113.200	-35.649	0.099
113.300	-32.688	0.099
113.400	-39.573	0.099
113.500	-42.763	0.099
113.600	-19.528	0.099
113.700	-24.775	0.099
113.800	-41.669	0.099
113.900	-35.209	0.099
114.000	-47.795	0.099
114.100	-32.934	0.099
114.200	-41.320	0.099
114.300	-33.632	0.099
114.400	-31.565	0.099
114.500	-35.662	0.099
114.600	-36.006	0.099
114.700	-29.497	0.099
114.800	-37.043	0.099
114.900	-37.672	0.099
115.000	-40.280	0.099
115.100	-41.688	0.099
115.200	-34.194	0.099
115.300	-31.326	0.099
115.400	-33.843	0.099
115.500	-37.432	0.099
115.600	-46.624	0.099
115.700	-37.932	0.099
115.800	-37.996	0.099
115.900	-33.196	0.099
116.000	-27.338	0.099
116.100	-29.471	0.099
116.200	-36.920	0.099
116.300	-45.571	0.099
116.400	-49.784	0.099
116.500	-32.336	0.099
116.600	-41.528	0.099
116.700	-43.304	0.099
116.800	-29.932	0.099
116.900	-27.704	0.099
117.000	-39.977	0.099
117.100	-39.047	0.099
117.200	-44.707	0.099
117.300	-36.312	0.099
117.400	-25.986	0.099
117.500	-40.627	0.099
117.600	-40.922	0.099
117.700	-37.588	0.099
117.800	-26.501	0.099
117.900	-44.937	0.099
118.000	-44.763	0.099
118.100	-38.375	0.099
118.200	-37.565	0.099
118.300	-29.510	0.099
118.400	-27.363	0.099
118.500	-40.161	0.099
118.600	-47.655	0.099
118.700	-38.839	0.099
118.800	-44.151	0.099
118.900	-45.948	0.099
119.000	-29.253	0.099
119.100	-25.293	0.099
119.200	-46.982	0.099
119.300	-35.205	0.099
119.400	-34.971	0.099
119.500	-38.820	0.099
119.600	-35.582	0.099
119.700	-39.137	0.099
119.800	-25.847	0.099
119.900	-40.109	0.099
120.000	-33.278	0.099
120.100	-47.534	0.099
120.200	-32.594	0.099
120.300	-50.075	0.099
120.400	-27.783	0.099
120.500	-40.468	0.099
120.600	-40.699	0.099
120.700	-45.010	0.099
120.800	-41.000	0.099
120.900	-38.972	0.099
121.000	-41.015	0.099
121.100	-57.539	0.099
121.200	-44.164	0.099
121.300	-29.978	0.099
121.400	-28.110	0.099
121.500	-38.111	0.099
121.600	-37.613	0.099
121.700	-32.925	0.099
121.800	-38.824	0.099
121.900	-37.425	0.099
122.000	-43.877	0.099
122.100	-40.719	0.099
122.200	-41.898	0.099
122.300	-33.956	0.099
122.400	-35.859	0.099
122.500	-40.109	0.099
122.600	-37.621	0.099
122.700	-58.543	0.099
122.800	-39.916	0.099
122.900	-29.219	0.099
123.000	-42.652	0.099
123.100	-51.257	0.099
123.200	-27.039	0.099
123.300	-49.341	0.099
123.400	-44.124	0.099
123.500	-42.736	0.099
123.600	-34.958	0.099
123.700	-39.227	0.099
123.800	-50.078	0.099
123.900	-39.098	0.099
124.000	-45.887	0.099
124.100	-47.382	0.099
124.200	-43.076	0.099
124.300	-38.996	0.099
124.400	-41.207	0.099
124.500	-42.341	0.099
124.600	-31.508	0.099
124.700	-33.089	0.099
124.800	-30.370	0.099
124.900	-37.297	0.099
125.000	-38.090	0.099
125.100	-31.217	0.099
125.200	-43.313	0.099
125.300	-46.066	0.099
125.400	-29.524	0.099
125.500	-36.141	0.099
125.600	-43.307	0.099
125.700	-45.419	0.099
125.800	-41.070	0.099
125.900	-51.278	0.099
126.000	-34.211	0.099
126.100	-37.056	0.099
126.200	-44.819	0.099
126.300	-40.741	0.099
126.400	-39.829	0.099
126.500	-38.896	0.099
126.600	-38.304	0.099
126.700	-36.564	0.099
126.800	-43.459	0.099
126.900	-41.695	0.099
127.000	-42.074	0.099
127.100	-33.261	0.099
127.200	-28.344	0.099
127.300	-36.832	0.099
127.400	-39.704	0.099
127.500	-43.783	0.099
127.600	-40.845	0.099
127.700	-43.123	0.099
127.800	-39.269	0.099
127.900	-41.357	0.099
128.000	-32.753	0.099
128.100	-39.023	0.099
128.200	-44.592	0.099
128.300	-56.799	0.099
128.400	-35.335	0.099
128.500	-46.028	0.099
128.600	-35.840	0.099
128.700	-44.324	0.099
128.800	-35.643	0.099
128.900	-26.687	0.099
129.000	-29.740	0.099
129.100	-31.506	0.099
129.200	-44.081	0.099
129.300	-31.131	0.099
129.400	-43.581	0.099
129.500	-35.905	0.099
129.600	-42.611	0.099
129.700	-38.551	0.099
129.800	-40.506	0.099
129.900	-43.141	0.099
130.000	-49.795	0.099
130.100	-29.826	0.099
130.200	-33.235	0.099
130.300	-45.069	0.099
130.400	-33.340	0.099
130.500	-33.078	0.099
130.600	-38.148	0.099
130.700	-39.311	0.099
130.800	-42.840	0.099
130.900	-37.555	0.099
131.000	-37.427	0.099
131.100	-44.261	0.099
131.200	-42.279	0.099
131.300	-37.920	0.099
131.400	-40.950	0.099
131.500	-33.346	0.099
131.600	-42.205	0.099
131.700	-45.067	0.099
131.800	-44.544	0.099
131.900	-33.402	0.099
132.000	-31.907	0.099
132.100	-38.070	0.099
132.200	-44.841	0.099
132.300	-38.537	0.099
132.400	-43.302	0.099
132.500	-36.901	0.099
132.600	-27.340	0.099
132.700	-37.202	0.099
132.800	-33.821	0.099
132.900	-55.331	0.099
133.000	-31.800	0.099
133.100	-35.181	0.099
133.200	-41.310	0.099
133.300	-38.982	0.099
133.400	-47.449	0.099
133.500	-41.110	0.099
133.600	-31.040	0.099
133.700	-34.833	0.099
133.800	-44.416	0.099
133.900	-28.743	0.099
134.000	-53.391	0.099
134.100	-37.602	0.099
134.200	-36.481	0.099
134.300	-32.048	0.099
134.400	-28.610	0.099
134.500	-40.247	0.099
134.600	-42.332	0.099
134.700	-44.870	0.099
134.800	-38.809	0.099
134.900	-36.118	0.099
135.000	-36.747	0.099
135.100	-38.171	0.099
135.200	-39.439	0.099
135.300	-50.202	0.099
135.400	-29.536	0.099
135.500	-35.755	0.099
135.600	-40.197	0.099
135.700	-44.133	0.099
135.800	-47.618	0.099
135.900	-29.552	0.099
136.000	-26.258	0.099
136.100	-37.910	0.099
136.200	-38.964	0.099
136.300	-39.570	0.099
136.400	-46.509	0.099
136.500	-33.049	0.099
136.600	-45.321	0.099
136.700	-37.752	0.099
136.800	-39.378	0.099
136.900	-31.830	0.099
137.000	-45.682	0.099
137.100	-43.614	0.099
137.200	-26.832	0.099
137.300	-40.282	0.099
137.400	-47.252	0.099
137.500	-40.241	0.099
137.600	-45.268	0.099
137.700	-34.749	0.099
137.800	-22.589	0.099
137.900	-27.918	0.099
138.000	-34.585	0.099
138.100	-46.011	0.099
138.200	-38.756	0.099
138.300	-43.590	0.099
138.400	-27.597	0.099
138.500	-33.937	0.099
138.600	-37.981	0.099
138.700	-36.808	0.099
138.800	-42.922	0.099
138.900	-25.256	0.099
139.000	-28.257	0.099
139.100	-43.053	0.099
139.200	-30.655	0.099
139.300	-30.297	0.099
139.400	-47.249	0.099
139.500	-42.636	0.099
139.600	-36.852	0.099
139.700	-36.461	0.099
139.800	-58.040	0.099
139.900	-33.701	0.099
140.000	-40.325	0.099
140.100	-34.715	0.099
140.200	-21.863	0.099
140.300	-35.408	0.099
140.400	-42.351	0.099
140.500	-36.820	0.099
140.600	-36.538	0.099
140.700	-33.705	0.099
140.800	-37.954	0.099
140.900	-42.088	0.099
141.000	-50.331	0.099
141.100	-30.649	0.099
141.200	-22.240	0.099
141.300	-30.361	0.099
141.400	-35.742	0.099
141.500	-36.580	0.099
141.600	-42.545	0.099
141.700	-33.677	0.099
141.800	-44.237	0.099
141.900	-43.512	0.099
142.000	-32.219	0.099
142.100	-32.050	0.099
142.200	-39.066	0.099
142.300	-40.556	0.099
142.400	-35.025	0.099
142.500	-23.490	0.099
142.600	-36.081	0.099
142.700	-47.678	0.099
142.800	-40.203	0.099
142.900	-29.402	0.099
143.000	-38.770	0.099
143.100	-32.077	0.099
143.200	-36.629	0.099
143.300	-31.898	0.099
143.400	-38.173	0.099
143.500	-35.466	0.099
143.600	-27.189	0.099
143.700	-25.034	0.099
143.800	-35.731	0.099
143.900	-31.794	0.099
144.000	-50.447	0.099
144.100	-41.579	0.099
144.200	-27.557	0.099
144.300	-35.493	0.099
144.400	-32.321	0.099
144.500	-41.453	0.099
144.600	-35.159	0.099
144.700	-35.600	0.099
144.800	-35.408	0.099
144.900	-39.143	0.099
145.000	-42.115	0.099
145.100	-39.096	0.099
145.200	-42.305	0.099
145.300	-35.808	0.099
145.400	-21.274	0.099
145.500	-47.594	0.099
145.600	-34.323	0.099
145.700	-43.489	0.099
145.800	-41.872	0.099
145.900	-32.428	0.099
146.000	-28.382	0.099
146.100	-24.827	0.099
146.200	-35.954	0.099
146.300	-40.081	0.099
146.400	-52.148	0.099
146.500	-29.200	0.099
146.600	-29.117	0.099
146.700	-27.074	0.099
146.800	-29.694	0.099
146.900	-38.813	0.099
147.000	-45.795	0.099
147.100	-25.642	0.099
147.200	-40.910	0.099
147.300	-31.231	0.099
147.400	-34.748	0.099
147.500	-37.945	0.099
147.600	-27.618	0.099
147.700	-35.566	0.099
147.800	-47.208	0.099
147.900	-42.238	0.099
148.000	-30.217	0.099
148.100	-27.455	0.099
148.200	-26.840	0.099
148.300	-29.453	0.099
148.400	-28.033	0.099
148.500	-40.209	0.099
148.600	-40.890	0.099
148.700	-41.868	0.099
148.800	-27.841	0.099
148.900	-28.049	0.099
149.000	-31.492	0.099
149.100	-33.315	0.099
149.200	-43.699	0.099
149.300	-37.697	0.099
149.400	-30.926	0.099
149.500	-36.616	0.099
149.600	-22.023	0.099
149.700	-44.667	0.099
149.800	-39.809	0.099
149.900	-34.813	0.099
150.000	-29.205	0.099
150.100	-20.642	0.099
150.200	-16.428	0.099
150.300	-43.834	0.099
150.400	-36.073	0.099
150.500	-31.075	0.099
150.600	-30.876	0.099
150.700	-25.361	0.099
150.800	-35.843	0.099
150.900	-40.096	0.099
151.000	-49.507	0.099
151.100	-34.334	0.099
151.200	-15.343	0.099
151.300	-26.402	0.099
151.400	-30.886	0.099
151.500	-28.275	0.099
151.600	-36.763	0.099
151.700	-36.963	0.099
151.800	-34.474	0.099
151.900	-33.992	0.099
152.000	-36.144	0.099
152.100	-32.082	0.099
152.200	-42.820	0.099
152.300	-38.565	0.099
152.400	-35.400	0.099
152.500	-34.478	0.099
152.600	-30.907	0.099
152.700	-36.494	0.099
152.800	-29.711	0.099
152.900	-17.982	0.099
153.000	-38.424	0.099
153.100	-25.712	0.099
153.200	-33.905	0.099
153.300	-31.271	0.099
153.400	-40.711	0.099
153.500	-37.437	0.099
153.600	-28.767	0.099
153.700	-34.264	0.099
153.800	-31.842	0.099
153.900	-33.861	0.099
154.000	-35.469	0.099
154.100	-39.508	0.099
154.200	-18.495	0.099
154.300	-27.825	0.099
154.400	-41.167	0.099
154.500	-37.018	0.099
154.600	-18.689	0.099
154.700	-41.520	0.099
154.800	-21.749	0.099
154.900	-31.110	0.099
155.000	-35.749	0.099
155.100	-29.497	0.099
155.200	-37.218	0.099
155.300	-27.744	0.099
155.400	-26.688	0.099
155.500	-32.741	0.099
155.600	-34.793	0.099
155.700	-35.233	0.099
155.800	-38.483	0.099
155.900	-21.237	0.099
156.000	-33.522	0.099
156.100	-32.505	0.099
156.200	-28.548	0.099
156.300	-30.705	0.099
156.400	-35.411	0.099
156.500	-30.737	0.099
156.600	-28.531	0.099
156.700	-21.076	0.099
156.800	-39.809	0.099
156.900	-24.667	0.099
157.000	-29.998	0.099
157.100	-27.742	0.099
157.200	-34.100	0.099
157.300	-40.882	0.099
157.400	-39.968	0.099
157.500	-36.406	0.099
157.600	-36.931	0.099
157.700	-21.852	0.099
157.800	-33.026	0.099
157.900	-14.994	0.099
158.000	-33.521	0.099
158.100	-28.127	0.099
158.200	-25.187	0.099
158.300	-42.925	0.099
158.400	-26.502	0.099
158.500	-34.430	0.099
158.600	-39.289	0.099
158.700	-23.504	0.099
158.800	-22.261	0.099
158.900	-32.184	0.099
159.000	-30.363	0.099
159.100	-31.537	0.099
159.200	-39.858	0.099
159.300	-32.616	0.099
159.400	-37.791	0.099
159.500	-27.816	0.099
159.600	-30.755	0.099
159.700	-46.141	0.099
159.800	-28.559	0.099
159.900	-37.367	0.099
160.000	-21.262	0.099
160.100	-31.494	0.099
160.200	-28.266	0.099
160.300	-31.984	0.099
160.400	-31.974	0.099
160.500	-41.388	0.099
160.600	-29.109	0.099
160.700	-19.454	0.099
160.800	-32.017	0.099
160.900	-31.196	0.099
161.000	-28.144	0.099
161.100	-31.622	0.099
161.200	-18.575	0.099
161.300	-19.233	0.099
161.400	-28.599	0.099
161.500	-32.741	0.099
161.600	-38.473	0.099
161.700	-37.380	0.099
161.800	-31.389	0.099
161.900	-31.060	0.099
162.000	-35.806	0.099
162.100	-28.090	0.099
162.200	-37.572	0.099
162.300	-37.520	0.099
162.400	-27.813	0.099
162.500	-18.704	0.099
162.600	-34.879	0.099
162.700	-33.649	0.099
162.800	-18.661	0.099
162.900	-33.485	0.099
163.000	-40.400	0.099
163.100	-38.084	0.099
163.200	-43.471	0.099
163.300	-26.935	0.099
163.400	-20.923	0.099
163.500	-28.389	0.099
163.600	-33.725	0.099
163.700	-33.656	0.099
163.800	-32.084	0.099
163.900	-45.053	0.099
164.000	-32.493	0.099
164.100	-29.836	0.099
164.200	-28.943	0.099
164.300	-32.479	0.099
164.400	-29.750	0.099
164.500	-33.142	0.099
164.600	-25.578	0.099
164.700	-33.414	0.099
164.800	-19.011	0.099
164.900	-25.908	0.099
165.000	-33.639	0.099
165.100	-32.101	0.099
165.200	-31.479	0.099
165.300	-27.210	0.099
165.400	-35.967	0.099
165.500	-17.805	0.099
165.600	-25.090	0.099
165.700	-38.616	0.099
165.800	-29.826	0.099
165.900	-26.703	0.099
166.000	-25.105	0.099
166.100	-31.900	0.099
166.200	-40.334	0.099
166.300	-26.663	0.099
166.400	-29.451	0.099
166.500	-25.100	0.099
166.600	-20.340	0.099
166.700	-35.510	0.099
166.800	-31.975	0.099
166.900	-32.288	0.099
167.000	-18.707	0.099
167.100	-18.702	0.099
167.200	-23.951	0.099
167.300	-29.980	0.099
167.400	-31.131	0.099
167.500	-30.826	0.099
167.600	-29.747	0.099
167.700	-18.830	0.099
167.800	-29.202	0.099
167.900	-33.683	0.099
168.000	-22.911	0.099
168.100	-25.915	0.099
168.200	-31.029	0.099
168.300	-42.152	0.099
168.400	-32.731	0.099
168.500	-23.134	0.099
168.600	-32.333	0.099
168.700	-37.865	0.099
168.800	-28.080	0.099
168.900	-32.037	0.099
169.000	-21.872	0.099
169.100	-31.244	0.099
169.200	-31.246	0.099
169.300	-43.478	0.099
169.400	-25.204	0.099
169.500	-16.923	0.099
169.600	-26.772	0.099
169.700	-28.689	0.099
169.800	-45.039	0.099
169.900	-8.124	0.099
170.000	-24.107	0.099
170.100	-22.261	0.099
170.200	-19.630	0.099
170.300	-24.545	0.099
170.400	-25.620	0.099
170.500	-35.748	0.099
170.600	-36.624	0.099
170.700	-19.561	0.099
170.800	-38.801	0.099
170.900	-35.763	0.099
171.000	-29.317	0.099
171.100	-25.771	0.099
171.200	-24.858	0.099
171.300	-34.037	0.099
171.400	-32.404	0.099
171.500	-7.547	0.099
171.600	-22.345	0.099
171.700	-25.604	0.099
171.800	-34.790	0.099
171.900	-26.675	0.099
172.000	-31.830	0.099
172.100	-33.827	0.099
172.200	-19.724	0.099
172.300	-20.562	0.099
172.400	-31.312	0.099
172.500	-22.829	0.099
172.600	-23.336	0.099
172.700	-27.855	0.099
172.800	-29.920	0.099
172.900	-26.258	0.099
173.000	-13.794	0.099
173.100	-18.333	0.099
173.200	-29.843	0.099
173.300	-32.082	0.099
173.400	-32.969	0.099
173.500	-15.713	0.099
173.600	-15.604	0.099
173.700	-35.458	0.099
173.800	-46.486	0.099
173.900	-24.462	0.099
174.000	-21.361	0.099
174.100	-29.468	0.099
174.200	-27.044	0.099
174.300	-25.668	0.099
174.400	-39.569	0.099
174.500	-28.949	0.099
174.600	-18.291	0.099
174.700	-19.278	0.099
174.800	-26.548	0.099
174.900	-23.480	0.099
175.000	-27.106	0.099
175.100	-35.170	0.099
175.200	-30.675	0.099
175.300	-15.020	0.099
175.400	-30.800	0.099
175.500	-38.122	0.099
175.600	-28.182	0.099
175.700	-29.308	0.099
175.800	-30.572	0.099
175.900	-16.432	0.100
176.000	-27.598	0.100
176.100	-43.457	0.100
176.200	-33.172	0.100
176.300	-27.561	0.100
176.400	-38.503	0.100
176.500	-22.288	0.100
176.600	-34.219	0.100
176.700	-17.822	0.100
176.800	-25.089	0.100
176.900	-38.125	0.100
177.000	-22.922	0.100
177.100	-20.092	0.100
177.200	-24.701	0.100
177.300	-32.624	0.100
177.400	-40.278	0.100
177.500	-31.120	0.100
177.600	-24.142	0.100
177.700	-33.213	0.100
177.800	-20.394	0.100
177.900	-34.520	0.100
178.000	-33.961	0.100
178.100	-26.568	0.100
178.200	-23.173	0.100
178.300	-23.247	0.100
178.400	-38.921	0.100
178.500	-25.925	0.100
178.600	-20.345	0.100
178.700	-39.724	0.100
178.800	-28.923	0.100
178.900	-11.029	0.100
179.000	-14.385	0.100
179.100	-23.664	0.100
179.200	-28.399	0.100
179.300	-30.431	0.100
179.400	-24.038	0.100
179.500	-25.819	0.100
179.600	-26.452	0.100
179.700	-27.727	0.100
179.800	-0.127	0.100
179.900	-2.991	0.100
180.000	-3.789	0.100
180.100	6.272	0.100
180.200	13.343	0.100
180.300	14.930	0.100
180.400	35.437	0.100
180.500	22.510	0.100
180.600	31.080	0.100
180.700	34.098	0.100
180.800	18.243	0.100
180.900	31.786	0.100
181.000	31.800	0.100
181.100	35.070	0.100
181.200	26.677	0.100
181.300	33.931	0.100
181.400	13.940	0.100
181.500	26.844	0.100
181.600	29.247	0.100
181.700	27.118	0.100
181.800	18.413	0.100
181.900	35.202	0.100
182.000	15.684	0.100
182.100	16.448	0.100
182.200	12.584	0.100
182.300	27.515	0.100
182.400	16.492	0.100
182.500	10.499	0.100
182.600	21.125	0.100
182.700	21.476	0.100
182.800	24.604	0.100
182.900	15.431	0.100
183.000	12.525	0.100
183.100	19.819	0.100
183.200	10.109	0.100
183.300	17.248	0.100
183.400	20.176	0.100
183.500	16.499	0.100
183.600	13.670	0.100
183.700	6.202	0.100
183.800	24.317	0.100
183.900	17.036	0.100
184.000	25.170	0.100
184.100	21.506	0.100
184.200	13.410	0.100
184.300	17.356	0.100
184.400	11.293	0.100
184.500	19.820	0.100
184.600	25.740	0.100
184.700	22.481	0.100
184.800	29.826	0.100
184.900	10.017	0.100
185.000	5.229	0.100
185.100	14.836	0.100
185.200	24.908	0.100
185.300	21.054	0.100
185.400	21.939	0.100
185.500	14.790	0.100
185.600	4.503	0.100
185.700	8.115	0.100
185.800	24.753	0.100
185.900	14.078	0.100
186.000	22.160	0.100
186.100	24.044	0.100
186.200	11.693	0.100
186.300	23.313	0.100
186.400	18.135	0.100
186.500	19.633	0.100
186.600	21.226	0.100
186.700	15.617	0.100
186.800	16.131	0.100
186.900	26.945	0.100
187.000	16.034	0.100
187.100	16.143	0.100
187.200	35.278	0.100
187.300	21.131	0.100
187.400	30.855	0.100
187.500	32.471	0.100
187.600	36.219	0.100
187.700	35.004	0.100
187.800	30.963	0.100
187.900	13.802	0.100
188.000	25.689	0.100
188.100	34.138	0.100
188.200	52.225	0.100
188.300	42.228	0.100
188.400	42.443	0.100
188.500	28.615	0.100
188.600	28.606	0.100
188.700	40.871	0.100
188.800	49.985	0.100
188.900	26.206	0.100
189.000	32.970	0.100
189.100	49.321	0.100
189.200	42.636	0.100
189.300	50.221	0.100
189.400	35.308	0.100
189.500	55.840	0.100
189.600	49.241	0.100
189.700	49.544	0.100
189.800	50.444	0.100
189.900	43.306	0.100
190.000	59.670	0.100
190.100	46.695	0.100
190.200	45.160	0.100
190.300	56.324	0.100
190.400	51.297	0.100
190.500	57.449	0.100
190.600	54.873	0.100
190.700	52.237	0.100
190.800	49.576	0.100
190.900	67.416	0.100
191.000	68.141	0.100
191.100	50.722	0.100
191.200	58.666	0.100
191.300	44.957	0.100
191.400	60.933	0.100
191.500	66.793	0.100
191.600	69.275	0.100
191.700	62.837	0.100
191.800	57.271	0.100
191.900	59.714	0.100
192.000	54.014	0.100
192.100	68.124	0.100
192.200	54.490	0.100
192.300	74.630	0.100
192.400	61.594	0.100
192.500	55.095	0.100
192.600	66.177	0.100
192.700	52.805	0.100
192.800	66.523	0.100
192.900	59.078	0.100
193.000	57.535	0.100
193.100	75.839	0.100
193.200	71.161	0.100
193.300	57.395	0.100
193.400	61.654	0.100
193.500	64.812	0.100
193.600	69.086	0.100
193.700	53.805	0.100
193.800	58.772	0.100
193.900	70.772	0.100
194.000	65.987	0.100
194.100	68.487	0.100
194.200	66.014	0.100
194.300	54.489	0.100
194.400	56.723	0.100
194.500	69.781	0.100
194.600	61.026	0.100
194.700	70.980	0.100
194.800	65.079	0.100
194.900	56.880	0.100
195.000	54.694	0.100
195.100	59.967	0.100
195.200	80.711	0.100
195.300	66.200	0.100
195.400	73.652	0.100
195.500	70.027	0.100
195.600	62.335	0.100
195.700	53.164	0.100
195.800	67.769	0.100
195.900	69.110	0.100
196.000	63.269	0.100
196.100	58.972	0.100
196.200	63.957	0.100
196.300	66.027	0.100
196.400	69.017	0.100
196.500	63.867	0.100
196.600	62.008	0.100
196.700	61.677	0.100
196.800	60.223	0.100
196.900	61.753	0.100
197.000	66.600	0.100
197.100	62.031	0.100
197.200	66.056	0.100
197.300	63.971	0.100
197.400	65.834	0.100
197.500	62.937	0.100
197.600	64.938	0.100
197.700	57.385	0.100
197.800	60.790	0.100
197.900	66.842	0.100
198.000	65.384	0.100
198.100	60.222	0.100
198.200	51.776	0.100
198.300	65.078	0.100
198.400	71.540	0.100
198.500	47.612	0.100
198.600	54.702	0.100
198.700	72.858	0.100
198.800	61.168	0.100
198.900	56.282	0.100
199.000	54.766	0.100
199.100	64.008	0.100
199.200	65.773	0.100
199.300	55.807	0.100
199.400	68.614	0.100
199.500	58.344	0.100
199.600	51.576	0.100
199.700	63.581	0.100
199.800	62.674	0.100
199.900	65.962	0.100
200.000	74.291	0.100
200.100	69.069	0.100
200.200	62.735	0.100
200.300	55.119	0.100
200.400	58.630	0.100
200.500	63.500	0.100
200.600	64.841	0.100
200.700	50.255	0.100
200.800	57.718	0.100
200.900	69.015	0.100
201.000	62.789	0.100
201.100	66.395	0.100
201.200	58.984	0.100
201.300	58.488	0.100
201.400	48.308	0.100
201.500	65.690	0.100
201.600	53.459	0.100
201.700	72.384	0.100
201.800	57.234	0.100
201.900	65.539	0.100
202.000	50.834	0.100
202.100	65.263	0.100
202.200	60.732	0.100
202.300	56.934	0.100
202.400	62.865	0.100
202.500	52.773	0.100
202.600	60.689	0.100
202.700	65.886	0.100
202.800	65.302	0.100
202.900	60.353	0.100
203.000	53.333	0.100
203.100	63.000	0.100
203.200	53.634	0.100
203.300	59.756	0.100
203.400	63.080	0.100
203.500	62.754	0.100
203.600	56.254	0.100
203.700	47.655	0.100
203.800	70.116	0.100
203.900	63.152	0.100
204.000	65.301	0.100
204.100	54.877	0.100
204.200	51.399	0.100
204.300	62.488	0.100
204.400	38.874	0.100
204.500	63.368	0.100
204.600	59.185	0.100
204.700	73.341	0.100
204.800	45.083	0.100
204.900	61.283	0.100
205.000	53.365	0.100
205.100	56.917	0.100
205.200	63.258	0.100
205.300	58.892	0.100
205.400	65.629	0.100
205.500	50.954	0.100
205.600	45.239	0.100
205.700	64.598	0.100
205.800	61.976	0.100
205.900	58.053	0.100
206.000	62.444	0.100
206.100	54.445	0.100
206.200	66.690	0.100
206.300	61.551	0.100
206.400	47.252	0.100
206.500	68.212	0.100
206.600	55.581	0.100
206.700	54.321	0.100
206.800	59.259	0.100
206.900	65.265	0.100
207.000	54.277	0.100
207.100	50.525	0.100
207.200	65.302	0.100
207.300	51.795	0.100
207.400	63.857	0.100
207.500	68.438	0.100
207.600	66.700	0.100
207.700	49.392	0.100
207.800	51.763	0.100
207.900	56.106	0.100
208.000	53.165	0.100
208.100	64.985	0.100
208.200	62.429	0.100
208.300	56.137	0.100
208.400	47.181	0.100
208.500	62.128	0.100
208.600	67.837	0.100
208.700	65.131	0.100
208.800	58.962	0.100
208.900	43.841	0.100
209.000	50.859	0.100
209.100	65.703	0.100
209.200	71.808	0.100
209.300	55.064	0.100
209.400	63.348	0.100
209.500	42.866	0.100
209.600	60.416	0.100
209.700	63.464	0.100
209.800	61.705	0.100
209.900	58.178	0.100
210.000	55.842	0.100
210.100	61.162	0.100
210.200	65.274	0.100
210.300	67.240	0.100
210.400	53.250	0.100
210.500	54.687	0.100
210.600	52.784	0.100
210.700	48.475	0.100
210.800	61.829	0.100
210.900	63.925	0.100
211.000	51.826	0.100
211.100	61.446	0.100
211.200	62.405	0.100
211.300	47.434	0.100
211.400	57.335	0.100
211.500	51.651	0.100
211.600	60.297	0.100
211.700	66.613	0.100
211.800	43.847	0.100
211.900	64.600	0.100
212.000	68.106	0.100
212.100	63.327	0.100
212.200	56.700	0.100
212.300	58.041	0.100
212.400	54.542	0.100
212.500	47.664	0.100
212.600	57.793	0.100
212.700	45.923	0.100
212.800	62.767	0.100
212.900	59.691	0.100
213.000	56.658	0.100
213.100	56.646	0.100
213.200	55.568	0.100
213.300	60.414	0.100
213.400	49.358	0.100
213.500	69.097	0.100
213.600	50.912	0.100
213.700	54.900	0.100
213.800	45.468	0.100
213.900	55.343	0.100
214.000	69.879	0.100
214.100	59.074	0.100
214.200	49.174	0.100
214.300	60.728	0.100
214.400	64.835	0.100
214.500	60.713	0.100
214.600	56.029	0.100
214.700	53.875	0.100
214.800	53.831	0.100
214.900	48.971	0.100
215.000	69.298	0.100
215.100	49.669	0.100
215.200	52.737	0.100
215.300	55.177	0.100
215.400	68.060	0.100
215.500	56.154	0.100
215.600	52.871	0.100
215.700	52.204	0.100
215.800	57.877	0.100
215.900	58.753	0.100
216.000	55.639	0.100
216.100	54.225	0.100
216.200	60.224	0.100
216.300	57.008	0.100
216.400	56.154	0.100
216.500	55.971	0.100
216.600	52.372	0.100
216.700	67.708	0.100
216.800	61.211	0.100
216.900	60.157	0.100
217.000	55.395	0.100
217.100	44.989	0.100
217.200	56.346	0.100
217.300	64.722	0.100
217.400	60.336	0.100
217.500	53.915	0.100
217.600	58.474	0.100
217.700	57.444	0.100
217.800	41.453	0.100
217.900	57.710	0.100
218.000	50.342	0.100
218.100	71.938	0.100
218.200	49.418	0.100
218.300	44.339	0.100
218.400	51.760	0.100
218.500	59.395	0.100
218.600	62.265	0.100
218.700	62.974	0.100
218.800	49.764	0.100
218.900	51.222	0.100
219.000	56.300	0.100
219.100	60.723	0.100
219.200	54.071	0.100
219.300	48.997	0.100
219.400	57.803	0.100
219.500	45.005	0.100
219.600	44.515	0.100
219.700	52.607	0.100
219.800	62.738	0.100
219.900	65.655	0.100
220.000	49.075	0.100
220.100	54.410	0.100
220.200	55.819	0.100
220.300	55.009	0.100
220.400	45.802	0.100
220.500	51.037	0.100
220.600	57.306	0.100
220.700	50.930	0.100
220.800	36.758	0.100
220.900	74.239	0.100
221.000	65.542	0.100
221.100	55.031	0.100
221.200	50.692	0.100
221.300	45.776	0.100
221.400	47.066	0.100
221.500	57.827	0.100
221.600	57.348	0.100
221.700	46.878	0.100
221.800	45.352	0.100
221.900	52.834	0.100
222.000	61.028	0.100
222.100	45.309	0.100
222.200	41.506	0.100
222.300	38.030	0.100
222.400	57.217	0.100
222.500	53.267	0.100
222.600	39.098	0.100
222.700	53.372	0.100
222.800	57.627	0.100
222.900	61.921	0.100
223.000	55.789	0.100
223.100	46.752	0.100
223.200	51.518	0.100
223.300	55.922	0.100
223.400	47.487	0.100
223.500	42.079	0.100
223.600	54.637	0.100
223.700	49.152	0.100
223.800	46.821	0.100
223.900	64.314	0.100
224.000	57.865	0.100
224.100	48.649	0.100
224.200	57.838	0.100
224.300	52.813	0.100
224.400	46.872	0.100
224.500	66.742	0.100
224.600	48.164	0.100
224.700	42.878	0.100
224.800	58.188	0.100
224.900	59.762	0.100
225.000	45.847	0.100
225.100	77.060	0.100
225.200	65.326	0.100
225.300	56.771	0.100
225.400	47.331	0.100
225.500	50.036	0.100
225.600	57.248	0.100
225.700	47.714	0.100
225.800	44.031	0.100
225.900	45.988	0.100
226.000	54.295	0.100
226.100	45.381	0.100
226.200	53.345	0.100
226.300	61.837	0.100
226.400	40.057	0.100
226.500	27.535	0.100
226.600	38.509	0.100
226.700	45.732	0.100
226.800	39.648	0.100
226.900	56.714	0.100
227.000	65.755	0.100
227.100	53.956	0.100
227.200	57.139	0.100
227.300	54.484	0.100
227.400	49.077	0.100
227.500	59.924	0.100
227.600	51.874	0.100
227.700	39.805	0.100
227.800	47.226	0.100
227.900	49.222	0.100
228.000	62.729	0.100
228.100	47.188	0.100
228.200	57.463	0.100
228.300	54.553	0.100
228.400	48.065	0.100
228.500	54.179	0.100
228.600	57.144	0.100
228.700	40.736	0.100
228.800	59.792	0.100
228.900	53.424	0.100
229.000	53.839	0.100
229.100	50.673	0.100
229.200	64.463	0.100
229.300	45.427	0.100
229.400	42.262	0.100
229.500	36.480	0.100
229.600	47.812	0.100
229.700	49.250	0.100
229.800	60.749	0.100
229.900	38.795	0.100
230.000	50.971	0.100
230.100	64.420	0.100
230.200	46.193	0.100
230.300	56.166	0.100
230.400	37.330	0.100
230.500	60.475	0.100
230.600	48.830	0.100
230.700	47.342	0.100
230.800	51.020	0.100
230.900	52.553	0.100
231.000	54.152	0.100
231.100	40.586	0.100
231.200	59.444	0.100
231.300	55.597	0.100
231.400	43.827	0.100
231.500	60.900	0.100
231.600	57.120	0.100
231.700	40.154	0.100
231.800	47.516	0.100
231.900	45.605	0.100
232.000	54.183	0.100
232.100	54.465	0.100
232.200	48.655	0.100
232.300	52.631	0.100
232.400	41.836	0.100
232.500	42.974	0.100
232.600	54.213	0.100
232.700	49.436	0.100
232.800	45.906	0.100
232.900	57.754	0.100
233.000	55.260	0.100
233.100	43.418	0.100
233.200	55.801	0.100
233.300	53.096	0.100
233.400	43.119	0.100
233.500	48.430	0.100
233.600	46.745	0.100
233.700	46.533	0.100
233.800	56.831	0.100
233.900	59.247	0.100
234.000	46.979	0.100
234.100	57.379	0.100
234.200	45.611	0.100
234.300	42.083	0.100
234.400	56.620	0.100
234.500	56.285	0.100
234.600	47.361	0.100
234.700	48.677	0.100
234.800	54.665	0.100
234.900	43.559	0.100
235.000	61.365	0.100
235.100	34.383	0.100
235.200	56.070	0.100
235.300	57.582	0.100
235.400	56.012	0.100
235.500	57.614	0.100
235.600	56.170	0.100
235.700	54.862	0.100
235.800	49.125	0.100
235.900	51.367	0.100
236.000	43.198	0.100
236.100	49.849	0.100
236.200	59.920	0.100
236.300	50.869	0.100
236.400	47.191	0.100
236.500	45.605	0.100
236.600	44.251	0.100
236.700	41.999	0.100
236.800	46.044	0.100
236.900	52.188	0.100
237.000	41.757	0.100
237.100	47.347	0.100
237.200	56.970	0.100
237.300	46.252	0.100
237.400	47.870	0.100
237.500	41.835	0.100
237.600	46.802	0.100
237.700	61.372	0.100
237.800	45.724	0.100
237.900	55.487	0.100
238.000	54.324	0.100
238.100	45.719	0.100
238.200	46.003	0.100
238.300	54.603	0.100
238.400	45.138	0.100
238.500	49.548	0.100
238.600	43.861	0.100
238.700	46.111	0.100
238.800	49.499	0.100
238.900	50.891	0.100
239.000	50.438	0.100
239.100	50.679	0.100
239.200	57.375	0.100
239.300	57.031	0.100
239.400	49.688	0.100
239.500	36.118	0.100
239.600	58.952	0.100
239.700	42.752	0.100
239.800	51.608	0.100
239.900	39.396	0.100
240.000	25.881	0.100
240.100	24.737	0.100
240.200	25.922	0.100
240.300	31.637	0.100
240.400	3.315	0.100
240.500	10.348	0.100
240.600	14.617	0.100
240.700	20.064	0.100
240.800	14.890	0.100
240.900	8.594	0.100
241.000	8.852	0.100
241.100	-1.884	0.100
241.200	-6.716	0.100
241.300	-2.849	0.100
241.400	6.648	0.100
241.500	1.310	0.100
241.600	-15.420	0.100
241.700	-9.018	0.100
241.800	-15.401	0.100
241.900	-10.336	0.100
242.000	-10.992	0.100
242.100	-8.599	0.100
242.200	2.604	0.100
242.300	-14.343	0.100
242.400	-13.629	0.100
242.500	-13.044	0.100
242.600	-10.262	0.100
242.700	-12.505	0.100
242.800	-8.630	0.100
242.900	-28.515	0.100
243.000	-23.137	0.100
243.100	-21.242	0.100
243.200	-19.049	0.100
243.300	-28.046	0.100
243.400	-32.066	0.100
243.500	-32.352	0.100
243.600	-18.174	0.100
243.700	-15.784	0.100
243.800	-15.441	0.100
243.900	-18.157	0.100
244.000	-17.656	0.100
244.100	-27.814	0.100
244.200	-33.102	0.100
244.300	-31.187	0.100
244.400	-21.081	0.100
244.500	-29.787	0.100
244.600	-38.848	0.100
244.700	-39.985	0.100
244.800	-21.200	0.100
244.900	-24.855	0.100
245.000	-41.292	0.100
245.100	-30.711	0.100
245.200	-45.479	0.100
245.300	-44.874	0.100
245.400	-23.130	0.100
245.500	-36.659	0.100
245.600	-22.579	0.100
245.700	-28.660	0.100
245.800	-42.334	0.100
245.900	-37.425	0.100
246.000	-37.571	0.100
246.100	-32.011	0.100
246.200	-24.506	0.100
246.300	-27.404	0.100
246.400	-23.985	0.100
246.500	-33.229	0.100
246.600	-30.621	0.100
246.700	-29.212	0.100
246.800	-23.582	0.100
246.900	-26.543	0.100
247.000	-30.466	0.100
247.100	-33.525	0.100
247.200	-39.617	0.100
247.300	-26.219	0.100
247.400	-29.061	0.100
247.500	-22.399	0.100
247.600	-23.069	0.100
247.700	-26.040	0.100
247.800	-43.949	0.100
247.900	-20.917	0.100
248.000	-20.460	0.100
248.100	-33.210	0.100
248.200	-28.005	0.100
248.300	-34.647	0.100
248.400	-32.740	0.100
248.500	-27.076	0.100
248.600	-30.633	0.100
248.700	-21.635	0.100
248.800	-31.717	0.100
248.900	-32.454	0.100
249.000	-39.267	0.100
249.100	-19.297	0.100
249.200	-16.867	0.100
249.300	-29.209	0.100
249.400	-22.319	0.100
249.500	-31.942	0.100
249.600	-29.852	0.100
249.700	-21.116	0.100
249.800	-29.769	0.100
249.900	-38.433	0.100
250.000	-31.896	0.100
250.100	-37.184	0.100
250.200	-20.038	0.100
250.300	-35.488	0.100
250.400	-36.966	0.100
250.500	-26.335	0.100
250.600	-28.737	0.100
250.700	-42.137	0.100
250.800	-25.630	0.100
250.900	-28.708	0.100
251.000	-28.066	0.100
251.100	-40.961	0.100
251.200	-40.395	0.100
251.300	-24.509	0.100
251.400	-24.189	0.100
251.500	-35.721	0.100
251.600	-30.007	0.100
251.700	-31.681	0.100
251.800	-34.189	0.100
251.900	-23.821	0.100
252.000	-27.848	0.100
252.100	-35.192	0.100
252.200	-28.594	0.100
252.300	-34.046	0.100
252.400	-23.886	0.100
252.500	-27.725	0.100
252.600	-20.335	0.100
252.700	-33.124	0.100
252.800	-27.223	0.100
252.900	-36.123	0.100
253.000	-36.202	0.100
253.100	-21.080	0.100
253.200	-28.416	0.100
253.300	-38.726	0.100
253.400	-36.940	0.100
253.500	-40.766	0.100
253.600	-35.366	0.100
253.700	-44.728	0.100
253.800	-23.263	0.100
253.900	-15.220	0.100
254.000	-22.476	0.100
254.100	-37.977	0.100
254.200	-35.456	0.100
254.300	-34.055	0.100
254.400	-22.936	0.100
254.500	-35.095	0.100
254.600	-25.671	0.100
254.700	-28.729	0.100
254.800	-23.291	0.100
254.900	-33.379	0.100
255.000	-32.335	0.100
255.100	-36.313	0.100
255.200	-30.939	0.100
255.300	-42.125	0.100
255.400	-31.510	0.100
255.500	-27.986	0.100
255.600	-28.153	0.100
255.700	-29.527	0.100
255.800	-35.257	0.100
255.900	-35.144	0.100
256.000	-27.221	0.100
256.100	-18.336	0.100
256.200	-27.609	0.100
256.300	-30.260	0.100
256.400	-36.788	0.100
256.500	-35.315	0.100
256.600	-31.928	0.100
256.700	-20.928	0.100
256.800	-32.869	0.100
256.900	-36.943	0.100
257.000	-36.585	0.100
257.100	-26.027	0.100
257.200	-31.058	0.100
257.300	-28.085	0.100
257.400	-41.181	0.100
257.500	-23.460	0.100
257.600	-24.846	0.100
257.700	-49.940	0.100
257.800	-34.366	0.100
257.900	-38.147	0.100
258.000	-33.258	0.100
258.100	-31.925	0.100
258.200	-38.871	0.100
258.300	-36.294	0.100
258.400	-34.846	0.100
258.500	-37.298	0.100
258.600	-25.903	0.100
258.700	-42.992	0.100
258.800	-43.217	0.100
258.900	-18.431	0.100
259.000	-41.505	0.100
259.100	-34.533	0.100
259.200	-35.063	0.100
259.300	-30.547	0.100
259.400	-34.169	0.100
259.500	-38.969	0.100
259.600	-33.292	0.100
259.700	-29.490	0.100
259.800	-44.244	0.100
259.900	-35.571	0.100
260.000	-36.624	0.100
260.100	-34.117	0.100
260.200	-39.372	0.100
260.300	-33.058	0.100
260.400	-33.496	0.100
260.500	-25.405	0.100
260.600	-31.981	0.100
260.700	-35.435	0.100
260.800	-33.134	0.100
260.900	-36.995	0.100
261.000	-35.053	0.100
261.100	-35.782	0.100
261.200	-36.278	0.100
261.300	-32.412	0.100
261.400	-36.505	0.100
261.500	-35.344	0.100
261.600	-39.133	0.100
261.700	-33.226	0.100
261.800	-33.183	0.100
261.900	-43.839	0.100
262.000	-33.614	0.100
262.100	-33.884	0.100
262.200	-39.796	0.100
262.300	-32.689	0.100
262.400	-28.970	0.100
262.500	-36.967	0.100
262.600	-35.440	0.100
262.700	-37.408	0.100
262.800	-45.508	0.100
262.900	-39.563	0.100
263.000	-46.641	0.100
263.100	-40.585	0.100
263.200	-23.129	0.100
263.300	-31.202	0.100
263.400	-46.869	0.100
263.500	-42.461	0.100
263.600	-25.253	0.100
263.700	-23.863	0.100
263.800	-35.150	0.100
263.900	-40.051	0.100
264.000	-43.044	0.100
264.100	-39.273	0.100
264.200	-34.147	0.100
264.300	-32.771	0.100
264.400	-39.947	0.100
264.500	-29.480	0.100
264.600	-35.674	0.100
264.700	-38.908	0.100
264.800	-29.695	0.100
264.900	-37.743	0.100
265.000	-39.931	0.100
265.100	-38.331	0.100
265.200	-41.888	0.100
265.300	-42.655	0.100
265.400	-34.422	0.100
265.500	-22.326	0.100
265.600	-33.276	0.100
265.700	-36.740	0.100
265.800	-47.715	0.100
265.900	-49.311	0.100
266.000	-33.723	0.100
266.100	-40.427	0.100
266.200	-30.896	0.100
266.300	-34.428	0.100
266.400	-37.396	0.100
266.500	-29.026	0.100
266.600	-40.994	0.100
266.700	-29.831	0.100
266.800	-39.948	0.100
266.900	-39.840	0.100
267.000	-30.860	0.100
267.100	-30.112	0.100
267.200	-43.252	0.100
267.300	-41.095	0.100
267.400	-41.261	0.100
267.500	-43.604	0.100
267.600	-49.966	0.100
267.700	-38.391	0.100
267.800	-40.417	0.100
267.900	-36.178	0.100
268.000	-42.910	0.100
268.100	-37.473	0.100
268.200	-36.058	0.100
268.300	-50.833	0.100
268.400	-42.776	0.100
268.500	-23.693	0.100
268.600	-30.805	0.100
268.700	-37.229	0.100
268.800	-52.253	0.100
268.900	-39.714	0.100
269.000	-34.571	0.100
269.100	-36.005	0.100
269.200	-38.422	0.100
269.300	-32.368	0.100
269.400	-44.344	0.100
269.500	-42.254	0.100
269.600	-39.285	0.100
269.700	-43.655	0.100
269.800	-43.079	0.100
269.900	-50.060	0.100
270.000	-44.204	0.100
270.100	-35.937	0.100
270.200	-37.441	0.100
270.300	-34.548	0.100
270.400	-44.765	0.100
270.500	-40.094	0.100
270.600	-43.730	0.100
270.700	-36.299	0.100
270.800	-31.050	0.100
270.900	-32.432	0.100
271.000	-46.919	0.100
271.100	-36.981	0.100
271.200	-34.849	0.100
271.300	-42.143	0.100
271.400	-44.048	0.100
271.500	-33.672	0.100
271.600	-44.233	0.100
271.700	-50.089	0.100
271.800	-42.760	0.100
271.900	-23.866	0.100
272.000	-32.933	0.100
272.100	-42.680	0.100
272.200	-40.600	0.100
272.300	-41.421	0.100
272.400	-50.472	0.100
272.500	-40.013	0.100
272.600	-43.081	0.100
272.700	-35.506	0.100
272.800	-49.701	0.100
272.900	-40.211	0.100
273.000	-47.417	0.100
273.100	-23.142	0.100
273.200	-47.572	0.100
273.300	-45.617	0.100
273.400	-43.265	0.100
273.500	-35.135	0.100
273.600	-45.119	0.100
273.700	-39.061	0.100
273.800	-32.688	0.100
273.900	-40.067	0.100
274.000	-40.091	0.100
274.100	-36.797	0.100
274.200	-32.611	0.100
274.300	-37.801	0.100
274.400	-44.588	0.100
274.500	-48.536	0.100
274.600	-43.528	0.100
274.700	-41.719	0.100
274.800	-25.452	0.100
274.900	-53.481	0.100
275.000	-49.417	0.100
275.100	-38.765	0.100
275.200	-41.288	0.100
275.300	-35.149	0.100
275.400	-41.959	0.100
275.500	-39.636	0.100
275.600	-36.794	0.100
275.700	-39.480	0.100
275.800	-35.824	0.100
275.900	-48.493	0.100
276.000	-22.990	0.100
276.100	-32.010	0.100
276.200	-44.104	0.100
276.300	-39.997	0.100
276.400	-50.374	0.100
276.500	-39.431	0.100
276.600	-45.279	0.100
276.700	-41.542	0.100
276.800	-44.587	0.100
276.900	-44.671	0.100
277.000	-43.800	0.100
277.100	-28.174	0.100
277.200	-42.878	0.100
277.300	-37.663	0.100
277.400	-44.329	0.100
277.500	-38.815	0.100
277.600	-51.466	0.100
277.700	-36.774	0.100
277.800	-23.571	0.100
277.900	-47.204	0.100
278.000	-41.164	0.100
278.100	-38.279	0.100
278.200	-40.415	0.100
278.300	-45.045	0.100
278.400	-35.341	0.100
278.500	-31.978	0.100
278.600	-40.023	0.100
278.700	-47.119	0.100
278.800	-41.496	0.100
278.900	-40.967	0.100
279.000	-31.514	0.100
279.100	-44.133	0.100
279.200	-53.606	0.100
279.300	-46.230	0.100
279.400	-35.064	0.100
279.500	-31.661	0.100
279.600	-37.887	0.100
279.700	-45.822	0.100
279.800	-41.449	0.100
279.900	-41.846	0.100
280.000	-42.103	0.100
280.100	-33.205	0.100
280.200	-40.881	0.100
280.300	-35.184	0.100
280.400	-41.472	0.100
280.500	-43.660	0.100
280.600	-60.350	0.100
280.700	-41.975	0.100
280.800	-34.617	0.100
280.900	-37.938	0.100
281.000	-43.092	0.100
281.100	-51.277	0.100
281.200	-34.131	0.100
281.300	-29.514	0.100
281.400	-38.105	0.100
281.500	-36.782	0.100
281.600	-34.453	0.100
281.700	-47.965	0.100
281.800	-30.899	0.100
281.900	-52.803	0.100
282.000	-52.142	0.100
282.100	-34.167	0.100
282.200	-49.227	0.100
282.300	-30.657	0.100
282.400	-39.718	0.100
282.500	-36.335	0.100
282.600	-39.029	0.100
282.700	-36.751	0.100
282.800	-45.036	0.100
282.900	-33.270	0.100
283.000	-37.012	0.100
283.100	-49.492	0.100
283.200	-37.433	0.100
283.300	-35.606	0.100
283.400	-38.944	0.100
283.500	-44.870	0.100
283.600	-32.134	0.100
283.700	-33.994	0.100
283.800	-40.877	0.100
283.900	-44.139	0.100
284.000	-35.957	0.100
284.100	-49.672	0.100
284.200	-45.762	0.100
284.300	-43.753	0.100
284.400	-37.914	0.100
284.500	-47.870	0.100
284.600	-35.360	0.100
284.700	-32.599	0.100
284.800	-44.786	0.100
284.900	-33.780	0.100
285.000	-36.692	0.100
285.100	-49.287	0.100
285.200	-43.186	0.100
285.300	-41.672	0.100
285.400	-26.210	0.100
285.500	-30.406	0.100
285.600	-35.413	0.100
285.700	-46.711	0.100
285.800	-39.956	0.100
285.900	-41.068	0.100
286.000	-31.656	0.100
286.100	-33.501	0.100
286.200	-46.542	0.100
286.300	-47.387	0.100
286.400	-44.837	0.100
286.500	-36.612	0.100
286.600	-28.948	0.100
286.700	-31.060	0.100
286.800	-44.033	0.100
286.900	-36.634	0.100
287.000	-38.548	0.100
287.100	-45.249	0.100
287.200	-36.235	0.100
287.300	-33.718	0.100
287.400	-40.314	0.100
287.500	-51.599	0.100
287.600	-45.510	0.100
287.700	-39.363	0.100
287.800	-34.418	0.100
287.900	-23.683	0.100
288.000	-34.249	0.100
288.100	-40.927	0.100
288.200	-40.111	0.100
288.300	-35.865	0.100
288.400	-36.982	0.100
288.500	-38.580	0.100
288.600	-46.161	0.100
288.700	-35.388	0.100
288.800	-41.046	0.100
288.900	-38.563	0.100
289.000	-45.359	0.100
289.100	-26.663	0.100
289.200	-41.061	0.100
289.300	-36.366	0.100
289.400	-32.092	0.100
289.500	-34.998	0.100
289.600	-45.715	0.100
289.700	-31.891	0.100
289.800	-31.493	0.100
289.900	-43.976	0.100
290.000	-37.236	0.100
290.100	-38.719	0.100
290.200	-28.951	0.100
290.300	-41.712	0.100
290.400	-47.052	0.100
290.500	-41.987	0.100
290.600	-29.342	0.100
290.700	-42.101	0.100
290.800	-34.575	0.100
290.900	-40.617	0.100
291.000	-33.013	0.100
291.100	-29.120	0.100
291.200	-43.667	0.100
291.300	-41.452	0.100
291.400	-39.334	0.100
291.500	-36.202	0.100
291.600	-40.935	0.100
291.700	-36.940	0.100
291.800	-42.471	0.100
291.900	-38.152	0.100
292.000	-46.948	0.100
292.100	-43.062	0.100
292.200	-31.616	0.100
292.300	-36.629	0.100
292.400	-32.797	0.100
292.500	-29.811	0.100
292.600	-44.367	0.100
292.700	-39.099	0.100
292.800	-33.177	0.100
292.900	-40.470	0.100
293.000	-25.576	0.100
293.100	-23.378	0.100
293.200	-38.010	0.100
293.300	-42.890	0.100
293.400	-41.287	0.100
293.500	-35.541	0.100
293.600	-33.592	0.100
293.700	-36.549	0.100
293.800	-46.349	0.100
293.900	-29.405	0.100
294.000	-38.838	0.100
294.100	-36.462	0.100
294.200	-36.467	0.100
294.300	-30.517	0.100
294.400	-35.801	0.100
294.500	-33.480	0.100
294.600	-41.481	0.100
294.700	-48.463	0.100
294.800	-30.960	0.100
294.900	-27.925	0.100
295.000	-27.800	0.100
295.100	-39.144	0.100
295.200	-26.599	0.100
295.300	-35.000	0.100
295.400	-31.087	0.100
295.500	-34.325	0.100
295.600	-35.881	0.100
295.700	-35.199	0.100
295.800	-33.785	0.100
295.900	-28.543	0.100
296.000	-29.614	0.100
296.100	-39.743	0.100
296.200	-44.371	0.100
296.300	-34.072	0.100
296.400	-35.099	0.100
296.500	-39.756	0.100
296.600	-34.905	0.100
296.700	-38.063	0.100
296.800	-36.104	0.100
296.900	-42.836	0.100
297.000	-42.621	0.100
297.100	-41.370	0.100
297.200	-34.277	0.100
297.300	-39.307	0.100
297.400	-37.140	0.100
297.500	-37.082	0.100
297.600	-33.675	0.100
297.700	-27.201	0.100
297.800	-30.418	0.100
297.900	-40.157	0.100
298.000	-40.222	0.100
298.100	-36.915	0.100
298.200	-25.595	0.100
298.300	-30.870	0.100
298.400	-38.217	0.100
298.500	-33.418	0.100
298.600	-47.569	0.100
298.700	-38.337	0.100
298.800	-27.279	0.100
298.900	-28.360	0.100
299.000	-32.528	0.100
299.100	-41.459	0.100
299.200	-22.291	0.100
299.300	-35.055	0.100
299.400	-43.887	0.100
299.500	-37.386	0.100
299.600	-33.145	0.100
299.700	-33.216	0.100
299.800	-30.956	0.100
299.900	-33.117	0.100
300.000	-35.532	0.100
300.100	-33.732	0.100
300.200	-29.984	0.100
300.300	-46.065	0.100
300.400	-39.760	0.100
300.500	-40.641	0.100
300.600	-29.626	0.100
300.700	-25.096	0.100
300.800	-30.941	0.100
300.900	-51.046	0.100
301.000	-30.671	0.100
301.100	-32.581	0.100
301.200	-40.586	0.100
301.300	-35.290	0.100
301.400	-30.928	0.100
301.500	-39.626	0.100
301.600	-36.607	0.100
301.700	-33.132	0.100
301.800	-29.498	0.100
301.900	-41.487	0.100
302.000	-34.778	0.100
302.100	-18.623	0.100
302.200	-45.598	0.100
302.300	-29.809	0.100
302.400	-33.844	0.100
302.500	-39.240	0.100
302.600	-45.524	0.100
302.700	-46.865	0.100
302.800	-28.580	0.100
302.900	-48.373	0.100
303.000	-33.663	0.100
303.100	-36.432	0.100
303.200	-32.874	0.100
303.300	-28.555	0.100
303.400	-41.059	0.100
303.500	-32.633	0.100
303.600	-28.486	0.100
303.700	-26.809	0.100
303.800	-38.316	0.100
303.900	-46.071	0.100
304.000	-33.720	0.100
304.100	-31.544	0.100
304.200	-25.414	0.100
304.300	-28.660	0.100
304.400	-42.367	0.100
304.500	-36.708	0.100
304.600	-31.687	0.100
304.700	-35.376	0.100
304.800	-28.467	0.100
304.900	-32.033	0.100
305.000	-41.841	0.100
305.100	-39.807	0.100
305.200	-34.481	0.100
305.300	-33.489	0.100
305.400	-35.187	0.100
305.500	-29.586	0.100
305.600	-39.420	0.100
305.700	-49.495	0.100
305.800	-23.748	0.100
305.900	-37.723	0.100
306.000	-35.822	0.100
306.100	-32.860	0.100
306.200	-39.574	0.100
306.300	-24.152	0.100
306.400	-26.666	0.100
306.500	-36.008	0.100
306.600	-42.252	0.100
306.700	-38.746	0.100
306.800	-34.431	0.100
306.900	-30.352	0.100
307.000	-19.856	0.100
307.100	-35.649	0.100
307.200	-37.858	0.100
307.300	-32.900	0.100
307.400	-24.586	0.100
307.500	-33.441	0.100
307.600	-35.990	0.100
307.700	-42.495	0.100
307.800	-33.572	0.100
307.900	-35.258	0.100
308.000	-31.306	0.100
308.100	-32.629	0.100
308.200	-22.230	0.100
308.300	-26.600	0.100
308.400	-36.152	0.100
308.500	-30.163	0.100
308.600	-43.728	0.100
308.700	-25.509	0.100
308.800	-30.213	0.100
308.900	-45.415	0.100
309.000	-34.866	0.100
309.100	-31.071	0.100
309.200	-25.279	0.100
309.300	-36.325	0.100
309.400	-33.857	0.100
309.500	-36.585	0.100
309.600	-25.664	0.100
309.700	-35.882	0.100
309.800	-34.344	0.100
309.900	-21.026	0.100
310.000	-18.677	0.100
310.100	-29.719	0.100
310.200	-28.247	0.100
310.300	-38.796	0.100
310.400	-37.260	0.100
310.500	-44.573	0.100
310.600	-18.722	0.100
310.700	-29.775	0.100
310.800	-34.649	0.100
310.900	-33.951	0.100
311.000	-39.404	0.100
311.100	-21.436	0.100
311.200	-21.685	0.100
311.300	-30.056	0.100
311.400	-32.370	0.100
311.500	-39.286	0.100
311.600	-35.660	0.100
311.700	-35.626	0.100
311.800	-34.592	0.100
311.900	-24.081	0.100
312.000	-33.323	0.100
312.100	-41.642	0.100
312.200	-25.663	0.100
312.300	-31.133	0.100
312.400	-26.993	0.100
312.500	-23.958	0.100
312.600	-31.240	0.100
312.700	-41.351	0.100
312.800	-30.742	0.100
312.900	-39.883	0.100
313.000	-25.982	0.100
313.100	-26.442	0.100
313.200	-40.509	0.100
313.300	-34.911	0.100
313.400	-23.116	0.100
313.500	-25.982	0.100
313.600	-33.458	0.100
313.700	-41.005	0.100
313.800	-31.844	0.100
313.900	-27.700	0.100
314.000	-31.372	0.100
314.100	-28.381	0.100
314.200	-27.490	0.100
314.300	-35.937	0.100
314.400	-31.966	0.100
314.500	-27.214	0.100
314.600	-31.034	0.100
314.700	-24.506	0.100
314.800	-29.513	0.100
314.900	-40.240	0.100
315.000	-33.687	0.100
315.100	-25.290	0.100
315.200	-28.067	0.100
315.300	-26.358	0.100
315.400	-24.259	0.100
315.500	-36.720	0.100
315.600	-37.486	0.100
315.700	-32.996	0.100
315.800	-23.737	0.100
315.900	-27.160	0.100
316.000	-27.668	0.100
316.100	-29.887	0.100
316.200	-41.255	0.100
316.300	-29.580	0.100
316.400	-23.241	0.100
316.500	-35.868	0.100
316.600	-35.130	0.100
316.700	-33.325	0.100
316.800	-25.936	0.100
316.900	-22.546	0.100
317.000	-26.384	0.100
317.100	-27.540	0.100
317.200	-28.039	0.100
317.300	-29.538	0.100
317.400	-34.847	0.100
317.500	-17.299	0.100
317.600	-30.259	0.100
317.700	-37.542	0.100
317.800	-42.462	0.100
317.900	-26.405	0.100
318.000	-22.740	0.100
318.100	-7.069	0.100
318.200	-17.597	0.100
318.300	-19.187	0.100
318.400	-29.413	0.100
318.500	-35.259	0.100
318.600	-33.956	0.100
318.700	-31.622	0.100
318.800	-23.213	0.100
318.900	-22.954	0.100
319.000	-39.439	0.100
319.100	-38.158	0.100
319.200	-33.146	0.100
319.300	-28.045	0.100
319.400	-14.284	0.100
319.500	-36.785	0.100
319.600	-31.849	0.100
319.700	-35.125	0.100
319.800	-35.064	0.100
319.900	-23.905	0.100
320.000	-23.979	0.100
320.100	-39.649	0.100
320.200	-29.424	0.100
320.300	-29.430	0.100
320.400	-36.548	0.100
320.500	-33.401	0.100
320.600	-28.097	0.100
320.700	-30.208	0.100
320.800	-33.609	0.100
320.900	-27.689	0.100
321.000	-37.932	0.100
321.100	-22.862	0.100
321.200	-30.280	0.100
321.300	-31.056	0.100
321.400	-22.039	0.100
321.500	-25.162	0.100
321.600	-26.276	0.100
321.700	-28.294	0.100
321.800	-34.234	0.100
321.900	-30.405	0.100
322.000	-17.180	0.100
322.100	-43.769	0.100
322.200	-29.710	0.100
322.300	-30.098	0.100
322.400	-30.289	0.100
322.500	-22.366	0.100
322.600	-37.419	0.100
322.700	-22.134	0.100
322.800	-32.797	0.100
322.900	-24.590	0.100
323.000	-28.395	0.100
323.100	-33.395	0.100
323.200	-34.838	0.100
323.300	-32.436	0.100
323.400	-29.325	0.100
323.500	-19.812	0.100
323.600	-33.978	0.100
323.700	-26.122	0.100
323.800	-31.843	0.100
323.900	-27.118	0.100
324.000	-29.931	0.100
324.100	-35.295	0.100
324.200	-28.216	0.100
324.300	-35.243	0.100
324.400	-28.704	0.100
324.500	-36.947	0.100
324.600	-20.359	0.100
324.700	-30.172	0.100
324.800	-41.814	0.100
324.900	-36.735	0.100
325.000	-31.678	0.100
325.100	-12.728	0.100
325.200	-21.651	0.100
325.300	-29.095	0.100
325.400	-30.351	0.100
325.500	-45.372	0.100
325.600	-22.799	0.100
325.700	-33.632	0.100
325.800	-19.499	0.100
325.900	-28.239	0.100
326.000	-34.170	0.100
326.100	-36.033	0.100
326.200	-31.665	0.100
326.300	-18.425	0.100
326.400	-24.242	0.100
326.500	-24.138	0.100
326.600	-32.397	0.100
326.700	-28.035	0.100
326.800	-34.725	0.100
326.900	-28.143	0.100
327.000	-28.082	0.100
327.100	-31.167	0.100
327.200	-39.901	0.100
327.300	-25.602	0.100
327.400	-35.013	0.100
327.500	-30.710	0.100
327.600	-22.836	0.100
327.700	-33.604	0.100
327.800	-37.191	0.100
327.900	-28.234	0.100
328.000	-25.860	0.100
328.100	-26.789	0.100
328.200	-25.399	0.100
328.300	-34.124	0.100
328.400	-41.433	0.100
328.500	-21.733	0.100
328.600	-27.307	0.100
328.700	-22.222	0.100
328.800	-20.155	0.100
328.900	-36.640	0.100
329.000	-39.672	0.100
329.100	-37.499	0.100
329.200	-25.458	0.100
329.300	-28.911	0.100
329.400	-16.700	0.100
329.500	-29.153	0.100
329.600	-31.223	0.100
329.700	-23.254	0.100
329.800	-15.300	0.100
329.900	-2.044	0.100
330.000	7.026	0.100
330.100	6.689	0.100
330.200	11.549	0.100
330.300	18.614	0.100
330.400	30.879	0.100
330.500	37.262	0.100
330.600	27.216	0.100
330.700	38.388	0.100
330.800	15.363	0.100
330.900	26.301	0.100
331.000	39.629	0.100
331.100	29.076	0.100
331.200	30.492	0.100
331.300	33.832	0.100
331.400	22.565	0.100
331.500	22.534	0.100
331.600	16.943	0.100
331.700	28.702	0.100
331.800	25.637	0.100
331.900	19.576	0.100
332.000	18.198	0.100
332.100	28.563	0.100
332.200	26.426	0.100
332.300	14.025	0.100
332.400	16.732	0.100
332.500	11.362	0.100
332.600	30.770	0.100
332.700	26.259	0.100
332.800	20.236	0.100
332.900	31.314	0.100
333.000	16.201	0.100
333.100	14.564	0.100
333.200	14.387	0.100
333.300	20.634	0.100
333.400	15.769	0.100
333.500	14.467	0.100
333.600	12.261	0.100
333.700	8.157	0.100
333.800	27.018	0.100
333.900	22.467	0.100
334.000	24.619	0.100
334.100	27.041	0.100
334.200	8.327	0.100
334.300	-11.961	0.100
334.400	17.694	0.100
334.500	29.653	0.100
334.600	10.741	0.100
334.700	14.938	0.100
334.800	24.065	0.100
334.900	22.098	0.100
335.000	17.739	0.100
335.100	24.654	0.100
335.200	19.234	0.100
335.300	15.767	0.100
335.400	5.784	0.100
335.500	7.450	0.100
335.600	17.361	0.100
335.700	10.719	0.100
335.800	22.338	0.100
335.900	12.844	0.100
336.000	24.693	0.100
336.100	15.292	0.100
336.200	28.915	0.100
336.300	26.710	0.100
336.400	26.797	0.100
336.500	13.559	0.100
336.600	13.425	0.100
336.700	21.237	0.100
336.800	19.892	0.100
336.900	24.390	0.100
337.000	25.924	0.100
337.100	18.082	0.100
337.200	25.449	0.100
337.300	12.773	0.100
337.400	31.221	0.100
337.500	38.157	0.100
337.600	33.883	0.100
337.700	20.965	0.100
337.800	18.711	0.100
337.900	34.083	0.100
338.000	30.493	0.100
338.100	36.605	0.100
338.200	33.783	0.100
338.300	31.146	0.100
338.400	36.322	0.100
338.500	34.438	0.100
338.600	31.538	0.100
338.700	36.491	0.100
338.800	43.103	0.100
338.900	42.999	0.100
339.000	46.278	0.100
339.100	41.374	0.100
339.200	42.999	0.100
339.300	27.346	0.100
339.400	34.310	0.100
339.500	36.799	0.100
339.600	45.341	0.100
339.700	60.356	0.100
339.800	48.410	0.100
339.900	61.911	0.100
340.000	54.993	0.100
340.100	43.246	0.100
340.200	43.626	0.100
340.300	57.601	0.100
340.400	57.045	0.100
340.500	59.198	0.100
340.600	57.773	0.100
340.700	47.772	0.100
340.800	41.789	0.100
340.900	58.284	0.100
341.000	51.465	0.100
341.100	44.038	0.100
341.200	53.251	0.100
341.300	49.983	0.100
341.400	56.740	0.100
341.500	53.169	0.100
341.600	59.618	0.100
341.700	57.051	0.100
341.800	53.084	0.100
341.900	56.256	0.100
342.000	59.254	0.100
342.100	74.576	0.100
342.200	57.440	0.100
342.300	63.616	0.100
342.400	50.933	0.100
342.500	54.728	0.100
342.600	54.423	0.100
342.700	67.308	0.100
342.800	52.119	0.100
342.900	72.840	0.100
343.000	61.063	0.100
343.100	55.091	0.100
343.200	58.273	0.100
343.300	59.328	0.100
343.400	72.623	0.100
343.500	76.174	0.100
343.600	56.907	0.100
343.700	62.341	0.100
343.800	60.248	0.100
343.900	63.897	0.100
344.000	73.651	0.100
344.100	63.551	0.100
344.200	51.938	0.100
344.300	54.923	0.100
344.400	60.238	0.100
344.500	67.020	0.100
344.600	73.732	0.100
344.700	73.510	0.100
344.800	54.413	0.100
344.900	60.422	0.100
345.000	69.308	0.100
345.100	66.672	0.100
345.200	56.286	0.100
345.300	54.781	0.100
345.400	71.129	0.100
345.500	57.913	0.100
345.600	63.010	0.100
345.700	66.215	0.100
345.800	60.850	0.100
345.900	46.423	0.100
346.000	61.928	0.100
346.100	55.255	0.100
346.200	74.622	0.100
346.300	76.963	0.100
346.400	57.607	0.100
346.500	59.909	0.100
346.600	59.530	0.100
346.700	73.194	0.100
346.800	70.725	0.100
346.900	73.845	0.100
347.000	68.452	0.100
347.100	49.152	0.100
347.200	59.862	0.100
347.300	62.358	0.100
347.400	55.788	0.100
347.500	64.884	0.100
347.600	57.405	0.100
347.700	56.602	0.100
347.800	63.475	0.100
347.900	54.279	0.100
348.000	58.937	0.100
348.100	69.305	0.100
348.200	71.393	0.100
348.300	63.397	0.100
348.400	57.430	0.100
348.500	62.475	0.100
348.600	69.493	0.100
348.700	65.317	0.100
348.800	52.022	0.100
348.900	57.203	0.100
349.000	63.507	0.100
349.100	58.512	0.100
349.200	63.728	0.100
349.300	67.497	0.100
349.400	69.917	0.100
349.500	62.288	0.100
349.600	47.545	0.100
349.700	60.636	0.100
349.800	69.062	0.100
349.900	69.700	0.100
350.000	54.434	0.100
350.100	59.424	0.100
350.200	58.947	0.100
350.300	65.474	0.100
350.400	61.121	0.100
350.500	69.954	0.100
350.600	63.359	0.100
350.700	55.049	0.100
350.800	67.807	0.100
350.900	71.481	0.100
351.000	64.058	0.100
351.100	53.785	0.100
351.200	66.298	0.100
351.300	63.710	0.100
351.400	55.904	0.100
351.500	65.151	0.100
351.600	56.150	0.100
351.700	54.741	0.100
351.800	51.495	0.100
351.900	59.408	0.100
352.000	58.598	0.100
352.100	75.448	0.100
352.200	63.289	0.100
352.300	57.957	0.100
352.400	57.639	0.100
352.500	61.728	0.100
352.600	50.268	0.100
352.700	53.749	0.100
352.800	67.362	0.100
352.900	67.817	0.100
353.000	62.404	0.100
353.100	53.804	0.100
353.200	64.506	0.100
353.300	53.579	0.100
353.400	63.618	0.100
353.500	60.066	0.100
353.600	59.250	0.100
353.700	55.955	0.100
353.800	62.563	0.100
353.900	70.309	0.100
354.000	65.238	0.100
354.100	56.862	0.100
354.200	68.136	0.100
354.300	56.282	0.100
354.400	66.939	0.100
354.500	69.378	0.100
354.600	60.169	0.100
354.700	55.511	0.100
354.800	49.505	0.100
354.900	53.391	0.100
355.000	67.609	0.100
355.100	62.224	0.100
355.200	56.499	0.100
355.300	65.074	0.100
355.400	57.571	0.100
355.500	59.420	0.100
355.600	57.420	0.100
355.700	60.169	0.100
355.800	59.394	0.100
355.900	45.049	0.100
356.000	69.685	0.100
356.100	60.335	0.100
356.200	60.980	0.100
356.300	60.694	0.100
356.400	56.618	0.100
356.500	65.199	0.100
356.600	53.877	0.100
356.700	49.459	0.100
356.800	48.009	0.100
356.900	66.969	0.100
357.000	62.497	0.100
357.100	62.841	0.100
357.200	57.091	0.100
357.300	55.531	0.100
357.400	58.148	0.100
357.500	54.182	0.100
357.600	51.709	0.100
357.700	68.396	0.100
357.800	57.005	0.100
357.900	58.809	0.100
358.000	61.781	0.100
358.100	59.017	0.100
358.200	53.032	0.100
358.300	55.457	0.100
358.400	56.564	0.100
358.500	66.454	0.100
358.600	63.271	0.100
358.700	62.637	0.100
358.800	64.819	0.100
358.900	62.048	0.100
359.000	42.946	0.100
359.100	58.475	0.100
359.200	67.965	0.100
359.300	54.488	0.100
359.400	56.474	0.100
359.500	58.942	0.100
359.600	65.758	0.100
359.700	52.015	0.100
359.800	59.307	0.100
359.900	43.852	0.100
360.000	54.554	0.100
360.100	58.045	0.100
360.200	61.520	0.100
360.300	65.783	0.100
360.400	55.198	0.100
360.500	71.515	0.100
360.600	55.949	0.100
360.700	56.582	0.100
360.800	57.836	0.100
360.900	60.837	0.100
361.000	54.917	0.100
361.100	51.944	0.100
361.200	51.449	0.100
361.300	62.045	0.100
361.400	50.235	0.100
361.500	61.812	0.100
361.600	71.554	0.100
361.700	48.765	0.100
361.800	44.858	0.100
361.900	65.378	0.100
362.000	55.249	0.100
362.100	61.240	0.100
362.200	56.364	0.100
362.300	52.854	0.100
362.400	47.474	0.100
362.500	53.233	0.100
362.600	56.460	0.100
362.700	56.716	0.100
362.800	52.847	0.100
362.900	66.018	0.100
363.000	51.820	0.100
363.100	56.032	0.100
363.200	53.016	0.100
363.300	54.612	0.100
363.400	61.351	0.100
363.500	58.855	0.100
363.600	56.589	0.100
363.700	62.365	0.100
363.800	50.392	0.100
363.900	62.003	0.100
364.000	60.376	0.100
364.100	52.299	0.100
364.200	39.151	0.100
364.300	68.510	0.100
364.400	67.136	0.100
364.500	59.927	0.100
364.600	44.655	0.100
364.700	49.489	0.100
364.800	47.039	0.100
364.900	50.882	0.100
365.000	55.247	0.100
365.100	54.407	0.100
365.200	59.997	0.100
365.300	45.685	0.100
365.400	60.331	0.100
365.500	50.250	0.100
365.600	61.462	0.100
365.700	62.494	0.100
365.800	43.022	0.100
365.900	64.518	0.100
366.000	53.729	0.100
366.100	60.953	0.100
366.200	70.541	0.100
366.300	55.317	0.100
366.400	54.100	0.100
366.500	53.559	0.100
366.600	50.596	0.100
366.700	45.722	0.100
366.800	55.151	0.100
366.900	61.687	0.100
367.000	50.695	0.100
367.100	49.665	0.100
367.200	47.327	0.100
367.300	65.546	0.100
367.400	53.480	0.100
367.500	57.347	0.100
367.600	55.993	0.100
367.700	40.652	0.100
367.800	42.871	0.100
367.900	49.869	0.100
368.000	59.486	0.100
368.100	50.447	0.100
368.200	54.771	0.100
368.300	47.841	0.100
368.400	55.953	0.100
368.500	51.955	0.100
368.600	64.757	0.100
368.700	50.421	0.100
368.800	36.089	0.100
368.900	43.296	0.100
369.000	60.050	0.100
369.100	55.884	0.100
369.200	63.400	0.100
369.300	55.329	0.100
369.400	49.270	0.100
369.500	49.777	0.100
369.600	68.250	0.100
369.700	52.554	0.100
369.800	44.334	0.100
369.900	39.034	0.100
370.000	60.741	0.100
370.100	51.885	0.100
370.200	51.915	0.100
370.300	48.931	0.100
370.400	68.662	0.100
370.500	70.339	0.100
370.600	51.612	0.100
370.700	46.125	0.100
370.800	61.627	0.100
370.900	49.169	0.100
371.000	53.445	0.100
371.100	55.971	0.100
371.200	26.985	0.100
371.300	51.326	0.100
371.400	64.328	0.100
371.500	62.844	0.100
371.600	48.159	0.100
371.700	50.366	0.100
371.800	51.526	0.100
371.900	52.374	0.100
372.000	52.635	0.100
372.100	45.741	0.100
372.200	42.785	0.100
372.300	51.223	0.100
372.400	52.179	0.100
372.500	56.779	0.100
372.600	48.437	0.100
372.700	50.588	0.100
372.800	54.802	0.100
372.900	57.981	0.100
373.000	47.366	0.100
373.100	55.774	0.100
373.200	48.593	0.100
373.300	61.619	0.100
373.400	47.205	0.100
373.500	50.586	0.100
373.600	44.188	0.100
373.700	45.130	0.100
373.800	60.406	0.100
373.900	50.367	0.100
374.000	44.634	0.100
374.100	57.450	0.100
374.200	44.458	0.100
374.300	53.851	0.100
374.400	54.525	0.100
374.500	53.272	0.100
374.600	51.840	0.100
374.700	45.599	0.100
374.800	59.526	0.100
374.900	52.097	0.100
375.000	57.424	0.100
375.100	45.930	0.100
375.200	47.781	0.100
375.300	48.890	0.100
375.400	51.781	0.100
375.500	62.120	0.100
375.600	53.170	0.100
375.700	52.010	0.100
375.800	53.416	0.100
375.900	45.330	0.100
376.000	62.765	0.100
376.100	53.204	0.100
376.200	51.560	0.100
376.300	38.354	0.100
376.400	48.255	0.100
376.500	56.841	0.100
376.600	49.684	0.100
376.700	46.400	0.100
376.800	49.876	0.100
376.900	47.695	0.100
377.000	38.887	0.100
377.100	54.994	0.100
377.200	56.344	0.100
377.300	57.958	0.100
377.400	53.547	0.100
377.500	52.255	0.100
377.600	47.163	0.100
377.700	49.816	0.100
377.800	52.195	0.100
377.900	56.686	0.100
378.000	44.435	0.100
378.100	52.791	0.100
378.200	58.721	0.100
378.300	42.107	0.100
378.400	53.329	0.100
378.500	50.561	0.100
378.600	50.626	0.100
378.700	47.060	0.100
378.800	49.649	0.100
378.900	49.300	0.100
379.000	47.983	0.100
379.100	48.712	0.100
379.200	47.001	0.100
379.300	54.631	0.100
379.400	46.823	0.100
379.500	47.818	0.100
379.600	45.986	0.100
379.700	48.770	0.100
379.800	51.731	0.100
379.900	47.812	0.100
380.000	55.577	0.100
380.100	59.209	0.100
380.200	51.439	0.100
380.300	46.223	0.100
380.400	48.334	0.100
380.500	44.936	0.100
380.600	59.054	0.100
380.700	47.225	0.100
380.800	60.923	0.100
380.900	52.957	0.100
381.000	52.967	0.100
381.100	52.410	0.100
381.200	58.173	0.100
381.300	46.950	0.100
381.400	56.204	0.100
381.500	33.069	0.100
381.600	44.990	0.100
381.700	39.662	0.100
381.800	53.152	0.100
381.900	54.098	0.100
382.000	52.400	0.100
382.100	56.221	0.100
382.200	50.442	0.100
382.300	42.954	0.100
382.400	54.921	0.100
382.500	59.655	0.100
382.600	50.125	0.100
382.700	46.232	0.100
382.800	54.472	0.100
382.900	48.831	0.100
383.000	37.617	0.100
383.100	60.285	0.100
383.200	66.354	0.100
383.300	53.464	0.100
383.400	56.766	0.100
383.500	39.709	0.100
383.600	53.661	0.100
383.700	54.760	0.100
383.800	52.304	0.100
383.900	45.086	0.100
384.000	36.902	0.100
384.100	53.160	0.100
384.200	47.546	0.100
384.300	33.571	0.100
384.400	42.518	0.100
384.500	46.810	0.100
384.600	42.517	0.100
384.700	42.954	0.100
384.800	45.377	0.100
384.900	50.298	0.100
385.000	54.601	0.100
385.100	52.575	0.100
385.200	59.446	0.100
385.300	43.330	0.100
385.400	41.692	0.100
385.500	52.695	0.100
385.600	53.171	0.100
385.700	48.890	0.100
385.800	39.469	0.100
385.900	57.617	0.100
386.000	35.600	0.100
386.100	55.829	0.100
386.200	59.366	0.100
386.300	40.523	0.100
386.400	47.511	0.100
386.500	55.787	0.100
386.600	55.850	0.100
386.700	55.471	0.100
386.800	56.045	0.100
386.900	49.249	0.100
387.000	45.220	0.100
387.100	41.735	0.100
387.200	55.637	0.100
387.300	59.916	0.100
387.400	55.979	0.100
387.500	49.236	0.100
387.600	49.461	0.100
387.700	37.807	0.100
387.800	48.935	0.100
387.900	47.757	0.100
388.000	55.884	0.100
388.100	49.628	0.100
388.200	39.337	0.100
388.300	56.695	0.100
388.400	49.234	0.100
388.500	57.339	0.100
388.600	57.590	0.100
388.700	46.802	0.100
388.800	23.624	0.100
388.900	58.622	0.100
389.000	54.375	0.100
389.100	30.316	0.100
389.200	57.043	0.100
389.300	53.767	0.100
389.400	59.456	0.100
389.500	43.833	0.100
389.600	51.761	0.100
389.700	41.177	0.100
389.800	41.583	0.100
389.900	34.702	0.100
390.000	26.623	0.100
390.100	27.105	0.100
390.200	11.983	0.100
390.300	26.489	0.100
390.400	17.151	0.100
390.500	14.508	0.100
390.600	13.905	0.100
390.700	4.498	0.100
390.800	5.868	0.100
390.900	7.734	0.100
391.000	-0.756	0.100
391.100	-3.007	0.100
391.200	-5.525	0.100
391.300	-1.721	0.100
391.400	6.702	0.100
391.500	1.920	0.100
391.600	-5.786	0.100
391.700	2.194	0.100
391.800	-8.106	0.100
391.900	-2.919	0.100
392.000	-7.528	0.100
392.100	-8.361	0.100
392.200	-10.402	0.100
392.300	-18.052	0.100
392.400	-17.102	0.100
392.500	-23.105	0.100
392.600	-15.885	0.100
392.700	0.570	0.100
392.800	-15.549	0.100
392.900	-15.041	0.100
393.000	-4.687	0.100
393.100	-19.010	0.100
393.200	-17.358	0.100
393.300	-18.105	0.100
393.400	-24.602	0.100
393.500	-30.516	0.100
393.600	-27.631	0.100
393.700	-26.647	0.100
393.800	-20.898	0.100
393.900	-27.934	0.100
394.000	-35.229	0.100
394.100	-47.311	0.100
394.200	-25.786	0.100
394.300	-23.956	0.100
394.400	-36.499	0.100
394.500	-32.942	0.100
394.600	-30.581	0.100
394.700	-31.537	0.100
394.800	-37.602	0.100
394.900	-29.068	0.100
395.000	-28.382	0.100
395.100	-49.833	0.100
395.200	-42.639	0.100
395.300	-41.035	0.100
395.400	-33.629	0.100
395.500	-41.264	0.100
395.600	-33.226	0.100
395.700	-39.791	0.100
395.800	-37.686	0.100
395.900	-35.894	0.100
396.000	-20.678	0.100
396.100	-28.871	0.100
396.200	-33.772	0.100
396.300	-34.439	0.100
396.400	-41.274	0.100
396.500	-40.387	0.100
396.600	-37.989	0.100
396.700	-36.727	0.100
396.800	-30.899	0.100
396.900	-36.158	0.100
397.000	-36.602	0.100
397.100	-29.791	0.100
397.200	-40.070	0.100
397.300	-23.990	0.100
397.400	-44.274	0.100
397.500	-22.332	0.100
397.600	-45.029	0.100
397.700	-27.704	0.100
397.800	-28.680	0.100
397.900	-28.187	0.100
398.000	-38.922	0.100
398.100	-30.970	0.100
398.200	-22.970	0.100
398.300	-27.858	0.100
398.400	-33.137	0.100
398.500	-28.013	0.100
398.600	-21.702	0.100
398.700	-34.907	0.100
398.800	-34.491	0.100
398.900	-23.928	0.100
399.000	-44.652	0.100
399.100	-29.664	0.100
399.200	-23.349	0.100
399.300	-30.820	0.100
399.400	-31.588	0.100
399.500	-41.626	0.100
399.600	-23.335	0.100
399.700	-29.252	0.100
399.800	-39.633	0.100
399.900	-49.540	0.100
400.000	-34.680	0.100
400.100	-24.234	0.100
400.200	-28.836	0.100
400.300	-37.135	0.100
400.400	-33.086	0.100
400.500	-23.988	0.100
400.600	-35.194	0.100
400.700	-27.387	0.100
400.800	-35.280	0.100
400.900	-31.315	0.100
401.000	-30.561	0.100
401.100	-31.850	0.100
401.200	-27.148	0.100
401.300	-25.174	0.100
401.400	-26.019	0.100
401.500	-33.732	0.100
401.600	-46.682	0.100
401.700	-41.999	0.100
401.800	-29.807	0.100
401.900	-25.437	0.100
402.000	-27.373	0.100
402.100	-27.462	0.100
402.200	-24.619	0.100
402.300	-37.388	0.100
402.400	-41.429	0.100
402.500	-32.609	0.100
402.600	-31.500	0.100
402.700	-29.882	0.100
402.800	-50.530	0.100
402.900	-38.435	0.100
403.000	-21.348	0.100
403.100	-30.681	0.100
403.200	-15.255	0.100
403.300	-40.951	0.100
403.400	-36.521	0.100
403.500	-40.363	0.100
403.600	-31.245	0.100
403.700	-31.849	0.100
403.800	-28.293	0.100
403.900	-35.805	0.100
404.000	-42.468	0.100
404.100	-22.081	0.100
404.200	-30.283	0.100
404.300	-55.829	0.100
404.400	-26.877	0.100
404.500	-39.285	0.100
404.600	-23.025	0.100
404.700	-34.145	0.100
404.800	-31.102	0.100
404.900	-31.691	0.100
405.000	-33.683	0.100
405.100	-36.200	0.100
405.200	-32.405	0.100
405.300	-40.322	0.100
405.400	-39.955	0.100
405.500	-27.230	0.100
405.600	-28.522	0.100
405.700	-36.218	0.100
405.800	-36.579	0.100
405.900	-36.265	0.100
406.000	-32.499	0.100
406.100	-34.559	0.100
406.200	-39.339	0.100
406.300	-37.580	0.100
406.400	-33.288	0.100
406.500	-42.088	0.100
406.600	-34.415	0.100
406.700	-28.671	0.100
406.800	-31.967	0.100
406.900	-34.769	0.100
407.000	-37.532	0.100
407.100	-35.140	0.100
407.200	-21.662	0.100
407.300	-28.479	0.100
407.400	-34.883	0.100
407.500	-47.794	0.100
407.600	-41.865	0.100
407.700	-33.526	0.100
407.800	-22.838	0.100
407.900	-43.555	0.100
408.000	-40.334	0.100
408.100	-36.601	0.100
408.200	-34.462	0.100
408.300	-43.246	0.100
408.400	-26.231	0.100
408.500	-30.304	0.100
408.600	-30.650	0.100
408.700	-46.755	0.100
408.800	-52.237	0.100
408.900	-27.914	0.100
409.000	-25.521	0.100
409.100	-27.479	0.100
409.200	-37.668	0.100
409.300	-38.229	0.100
409.400	-24.436	0.100
409.500	-33.770	0.100
409.600	-30.970	0.100
409.700	-35.251	0.100
409.800	-36.650	0.100
409.900	-33.388	0.100
410.000	-35.151	0.099
410.100	-32.396	0.100
410.200	-33.941	0.100
410.300	-38.266	0.100
410.400	-38.195	0.100
410.500	-35.416	0.100
410.600	-41.370	0.100
410.700	-42.722	0.100
410.800	-35.829	0.100
410.900	-40.187	0.100
411.000	-38.760	0.100
411.100	-35.434	0.100
411.200	-30.889	0.100
411.300	-26.142	0.100
411.400	-38.125	0.100
411.500	-31.858	0.100
411.600	-42.928	0.100
411.700	-37.576	0.100
411.800	-33.815	0.100
411.900	-36.060	0.100
412.000	-44.317	0.100
412.100	-37.669	0.100
412.200	-53.157	0.100
412.300	-49.534	0.100
412.400	-38.805	0.100
412.500	-35.499	0.099
412.600	-33.286	0.100
412.700	-36.096	0.099
412.800	-38.390	0.100
412.900	-35.349	0.100
413.000	-36.194	0.100
413.100	-35.734	0.100
413.200	-33.328	0.100
413.300	-50.707	0.100
413.400	-47.465	0.100
413.500	-33.590	0.100
413.600	-29.247	0.100
413.700	-38.860	0.100
413.800	-44.194	0.100
413.900	-38.823	0.100
414.000	-50.990	0.100
414.100	-33.418	0.100
414.200	-36.050	0.100
414.300	-47.131	0.100
414.400	-45.730	0.100
414.500	-39.991	0.100
414.600	-31.551	0.100
414.700	-33.574	0.100
414.800	-31.511	0.100
414.900	-52.438	0.100
415.000	-38.856	0.100
415.100	-46.315	0.100
415.200	-29.751	0.099
415.300	-43.346	0.100
415.400	-34.472	0.100
415.500	-42.944	0.100
415.600	-41.189	0.100
415.700	-37.545	0.100
415.800	-45.199	0.100
415.900	-40.189	0.100
416.000	-40.980	0.100
416.100	-35.821	0.100
416.200	-41.751	0.100
416.300	-40.069	0.100
416.400	-37.477	0.100
416.500	-33.813	0.099
416.600	-43.742	0.100
416.700	-46.731	0.100
416.800	-44.000	0.100
416.900	-52.110	0.100
417.000	-34.477	0.100
417.100	-31.954	0.100
417.200	-35.716	0.100
417.300	-45.009	0.100
417.400	-37.949	0.100
417.500	-42.974	0.100
417.600	-32.882	0.100
417.700	-40.248	0.100
417.800	-37.652	0.100
417.900	-50.739	0.100
418.000	-46.178	0.100
418.100	-39.142	0.100
418.200	-40.156	0.100
418.300	-33.264	0.100
418.400	-43.018	0.100
418.500	-40.783	0.100
418.600	-41.727	0.100
418.700	-42.729	0.100
418.800	-36.575	0.100
418.900	-29.156	0.100
419.000	-42.708	0.100
419.100	-45.502	0.100
419.200	-45.646	0.100
419.300	-38.314	0.100
419.400	-41.751	0.100
419.500	-41.571	0.100
419.600	-36.170	0.100
419.700	-30.658	0.100
419.800	-59.186	0.100
419.900	-34.631	0.100
420.000	-32.185	0.100
420.100	-39.745	0.100
420.200	-50.379	0.100
420.300	-45.121	0.100
420.400	-38.342	0.099
420.500	-40.348	0.100
420.600	-41.695	0.100
420.700	-47.305	0.100
420.800	-43.449	0.100
420.900	-48.065	0.100
421.000	-42.764	0.100
421.100	-48.527	0.100
421.200	-28.064	0.100
421.300	-45.020	0.100
421.400	-34.928	0.100
421.500	-47.428	0.100
421.600	-28.653	0.100
421.700	-30.334	0.100
421.800	-46.037	0.100
421.900	-46.143	0.100
422.000	-43.412	0.100
422.100	-43.930	0.100
422.200	-45.732	0.100
422.300	-29.725	0.100
422.400	-29.935	0.099
422.500	-43.881	0.100
422.600	-46.171	0.100
422.700	-39.734	0.100
422.800	-44.000	0.100
422.900	-39.071	0.100
423.000	-29.150	0.100
423.100	-46.050	0.100
423.200	-45.117	0.100
423.300	-48.990	0.100
423.400	-38.586	0.100
423.500	-47.780	0.100
423.600	-40.297	0.100
423.700	-43.447	0.100
423.800	-55.907	0.100
423.900	-51.020	0.100
424.000	-50.438	0.100
424.100	-41.681	0.099
424.200	-35.054	0.100
424.300	-49.112	0.100
424.400	-37.818	0.100
424.500	-44.589	0.100
424.600	-57.074	0.100
424.700	-43.756	0.100
424.800	-38.591	0.100
424.900	-45.018	0.100
425.000	-52.741	0.100
425.100	-35.053	0.100
425.200	-39.582	0.100
425.300	-30.744	0.100
425.400	-35.949	0.100
425.500	-42.233	0.100
425.600	-36.664	0.100
425.700	-50.933	0.100
425.800	-32.114	0.099
425.900	-30.248	0.100
426.000	-29.059	0.100
426.100	-49.226	0.100
426.200	-52.573	0.100
426.300	-37.599	0.100
426.400	-33.385	0.100
426.500	-42.960	0.100
426.600	-43.611	0.100
426.700	-45.137	0.100
426.800	-43.207	0.099
426.900	-51.294	0.100
427.000	-31.992	0.100
427.100	-45.105	0.100
427.200	-36.485	0.100
427.300	-41.692	0.100
427.400	-50.798	0.100
427.500	-42.875	0.100
427.600	-44.621	0.100
427.700	-33.095	0.100
427.800	-33.087	0.100
427.900	-58.076	0.100
428.000	-50.890	0.100
428.100	-42.118	0.100
428.200	-30.262	0.100
428.300	-44.173	0.100
428.400	-42.365	0.100
428.500	-52.033	0.100
428.600	-48.228	0.100
428.700	-42.350	0.100
428.800	-23.791	0.100
428.900	-38.172	0.100
429.000	-46.135	0.099
429.100	-54.366	0.100
429.200	-40.519	0.100
429.300	-44.005	0.100
429.400	-40.536	0.100
429.500	-41.484	0.100
429.600	-43.613	0.100
429.700	-44.082	0.100
429.800	-37.713	0.099
429.900	-27.422	0.100
430.000	-35.562	0.100
430.100	-41.725	0.100
430.200	-43.569	0.100
430.300	-48.268	0.100
430.400	-54.982	0.100
430.500	-49.098	0.100
430.600	-41.507	0.100
430.700	-52.417	0.100
430.800	-53.261	0.100
430.900	-38.358	0.100
431.000	-46.116	0.100
431.100	-47.097	0.100
431.200	-42.670	0.100
431.300	-45.488	0.100
431.400	-36.722	0.100
431.500	-44.313	0.100
431.600	-31.153	0.100
431.700	-42.396	0.100
431.800	-42.331	0.100
431.900	-41.289	0.100
432.000	-40.790	0.100
432.100	-49.378	0.100
432.200	-27.960	0.099
432.300	-41.623	0.100
432.400	-47.491	0.100
432.500	-36.211	0.100
432.600	-42.636	0.100
432.700	-50.736	0.100
432.800	-54.670	0.100
432.900	-34.068	0.100
433.000	-38.466	0.100
433.100	-41.515	0.100
433.200	-43.331	0.100
433.300	-39.149	0.100
433.400	-30.308	0.100
433.500	-50.779	0.100
433.600	-56.000	0.100
433.700	-54.552	0.100
433.800	-49.313	0.100
433.900	-52.094	0.100
434.000	-38.482	0.100
434.100	-29.381	0.100
434.200	-30.807	0.100
434.300	-49.935	0.100
434.400	-51.235	0.100
434.500	-41.252	0.100
434.600	-51.230	0.100
434.700	-37.092	0.100
434.800	-39.741	0.100
434.900	-41.720	0.100
435.000	-56.338	0.100
435.100	-47.178	0.100
435.200	-28.109	0.100
435.300	-32.784	0.100
435.400	-40.243	0.100
435.500	-43.840	0.100
435.600	-51.688	0.100
435.700	-26.467	0.100
435.800	-42.049	0.100
435.900	-38.599	0.100
436.000	-36.883	0.100
436.100	-32.793	0.100
436.200	-32.241	0.100
436.300	-24.535	0.100
436.400	-37.666	0.100
436.500	-42.411	0.100
436.600	-43.324	0.100
436.700	-47.701	0.100
436.800	-57.138	0.100
436.900	-36.738	0.100
437.000	-36.449	0.100
437.100	-28.678	0.100
437.200	-37.460	0.100
437.300	-56.469	0.100
437.400	-39.992	0.100
437.500	-41.877	0.100
437.600	-32.637	0.100
437.700	-43.941	0.100
437.800	-33.049	0.100
437.900	-44.576	0.100
438.000	-32.491	0.100
438.100	-51.636	0.100
438.200	-42.450	0.100
438.300	-41.598	0.100
438.400	-31.091	0.100
438.500	-40.410	0.100
438.600	-44.336	0.100
438.700	-33.583	0.100
438.800	-32.535	0.100
438.900	-33.304	0.100
439.000	-41.582	0.100
439.100	-50.928	0.100
439.200	-33.858	0.100
439.300	-47.907	0.100
439.400	-33.409	0.100
439.500	-45.782	0.100
439.600	-53.279	0.100
439.700	-35.437	0.100
439.800	-43.066	0.100
439.900	-40.404	0.100
440.000	-40.821	0.100
440.100	-35.215	0.100
440.200	-33.150	0.100
440.300	-42.466	0.100
440.400	-39.069	0.100
440.500	-44.433	0.100
440.600	-40.494	0.100
440.700	-45.343	0.100
440.800	-42.745	0.100
440.900	-54.192	0.100
441.000	-34.587	0.100
441.100	-41.317	0.100
441.200	-42.685	0.100
441.300	-36.873	0.100
441.400	-49.882	0.100
441.500	-38.788	0.100
441.600	-37.779	0.100
441.700	-41.966	0.100
441.800	-40.102	0.100
441.900	-35.718	0.100
442.000	-51.041	0.100
442.100	-50.420	0.100
442.200	-37.487	0.100
442.300	-27.947	0.100
442.400	-42.739	0.100
442.500	-47.554	0.100
442.600	-46.182	0.100
442.700	-30.212	0.100
442.800	-41.137	0.100
442.900	-39.933	0.100
443.000	-37.077	0.100
443.100	-42.247	0.100
443.200	-52.845	0.100
443.300	-49.771	0.100
443.400	-37.830	0.100
443.500	-32.569	0.100
443.600	-36.747	0.100
443.700	-40.954	0.100
443.800	-46.657	0.100
443.900	-38.066	0.100
444.000	-28.874	0.100
444.100	-35.862	0.100
444.200	-53.865	0.100
444.300	-38.352	0.100
444.400	-38.868	0.100
444.500	-51.269	0.100
444.600	-41.141	0.100
444.700	-40.420	0.100
444.800	-30.897	0.100
444.900	-37.848	0.100
445.000	-36.485	0.100
445.100	-39.053	0.100
445.200	-35.475	0.100
445.300	-37.635	0.100
445.400	-43.548	0.100
445.500	-39.231	0.100
445.600	-38.090	0.100
445.700	-43.030	0.100
445.800	-28.617	0.099
445.900	-35.733	0.100
446.000	-50.456	0.100
446.100	-38.858	0.100
446.200	-28.742	0.100
446.300	-32.275	0.100
446.400	-39.616	0.100
446.500	-49.302	0.100
446.600	-36.517	0.100
446.700	-38.866	0.100
446.800	-41.681	0.100
446.900	-42.839	0.100
447.000	-28.052	0.100
447.100	-26.408	0.100
447.200	-39.872	0.100
447.300	-47.683	0.100
447.400	-36.445	0.100
447.500	-29.796	0.100
447.600	-24.536	0.100
447.700	-45.238	0.100
447.800	-41.032	0.100
447.900	-32.179	0.100
448.000	-45.970	0.100
448.100	-45.281	0.100
448.200	-37.165	0.100
448.300	-37.439	0.100
448.400	-38.241	0.100
448.500	-34.032	0.100
448.600	-32.429	0.100
448.700	-37.605	0.100
448.800	-29.088	0.100
448.900	-45.182	0.100
449.000	-46.695	0.100
449.100	-45.867	0.100
449.200	-29.363	0.100
449.300	-33.458	0.100
449.400	-36.091	0.100
449.500	-41.065	0.100
449.600	-40.519	0.100
449.700	-33.147	0.100
449.800	-28.110	0.099
449.900	-36.833	0.100
450.000	-46.881	0.100
450.100	-34.492	0.100
450.200	-41.465	0.100
450.300	-41.881	0.100
450.400	-44.846	0.100
450.500	-44.392	0.100
450.600	-27.873	0.100
450.700	-29.925	0.100
450.800	-45.390	0.100
450.900	-33.735	0.100
451.000	-24.671	0.100
451.100	-32.496	0.100
451.200	-35.818	0.100
451.300	-30.920	0.100
451.400	-38.894	0.100
451.500	-30.943	0.100
451.600	-29.117	0.100
451.700	-29.337	0.100
451.800	-39.049	0.100
451.900	-31.133	0.100
452.000	-33.127	0.100
452.100	-33.956	0.100
452.200	-38.614	0.100
452.300	-38.776	0.099
452.400	-50.594	0.100
452.500	-31.042	0.100
452.600	-33.897	0.100
452.700	-43.310	0.100
452.800	-39.894	0.100
452.900	-32.565	0.100
453.000	-31.182	0.100
453.100	-43.386	0.100
453.200	-25.312	0.100
453.300	-33.149	0.100
453.400	-37.468	0.100
453.500	-29.940	0.100
453.600	-42.910	0.100
453.700	-39.655	0.100
453.800	-35.300	0.100
453.900	-32.156	0.100
454.000	-29.370	0.100
454.100	-39.750	0.100
454.200	-39.965	0.100
454.300	-37.100	0.100
454.400	-40.677	0.100
454.500	-28.114	0.100
454.600	-31.172	0.100
454.700	-31.109	0.100
454.800	-33.708	0.100
454.900	-32.565	0.100
455.000	-46.074	0.100
455.100	-29.856	0.100
455.200	-29.841	0.100
455.300	-27.139	0.100
455.400	-45.690	0.100
455.500	-38.011	0.100
455.600	-31.098	0.100
455.700	-32.766	0.100
455.800	-30.953	0.100
455.900	-31.637	0.100
456.000	-38.493	0.100
456.100	-43.224	0.100
456.200	-28.719	0.100
456.300	-37.990	0.100
456.400	-34.787	0.099
456.500	-44.464	0.100
456.600	-21.373	0.100
456.700	-33.523	0.100
456.800	-33.964	0.100
456.900	-25.266	0.100
457.000	-36.923	0.100
457.100	-43.474	0.100
457.200	-35.884	0.100
457.300	-26.485	0.100
457.400	-34.664	0.100
457.500	-21.447	0.100
457.600	-24.818	0.100
457.700	-26.276	0.100
457.800	-37.813	0.100
457.900	-53.775	0.100
458.000	-24.501	0.100
458.100	-31.787	0.100
458.200	-31.601	0.100
458.300	-51.683	0.100
458.400	-45.362	0.100
458.500	-35.736	0.100
458.600	-32.246	0.100
458.700	-26.215	0.100
458.800	-38.011	0.100
458.900	-39.318	0.100
459.000	-39.076	0.100
459.100	-30.062	0.100
459.200	-21.671	0.100
459.300	-39.496	0.100
459.400	-40.083	0.100
459.500	-38.566	0.100
459.600	-41.953	0.100
459.700	-32.729	0.100
459.800	-31.473	0.100
459.900	-23.758	0.100
460.000	-37.016	0.100
460.100	-25.842	0.100
460.200	-30.365	0.100
460.300	-38.548	0.100
460.400	-39.580	0.100
460.500	-30.566	0.100
460.600	-35.716	0.100
460.700	-38.040	0.100
460.800	-37.214	0.100
460.900	-39.669	0.100
461.000	-38.429	0.100
461.100	-30.582	0.100
461.200	-33.847	0.100
461.300	-39.852	0.100
461.400	-26.909	0.100
461.500	-34.282	0.100
461.600	-38.939	0.100
461.700	-34.891	0.100
461.800	-26.304	0.100
461.900	-30.091	0.100
462.000	-41.762	0.100
462.100	-36.617	0.100
462.200	-29.066	0.100
462.300	-21.279	0.100
462.400	-33.552	0.100
462.500	-33.572	0.100
462.600	-21.038	0.100
462.700	-39.217	0.100
462.800	-27.469	0.100
462.900	-41.274	0.100
463.000	-41.959	0.100
463.100	-44.553	0.100
463.200	-25.896	0.100
463.300	-40.033	0.100
463.400	-19.941	0.099
463.500	-30.380	0.100
463.600	-39.907	0.100
463.700	-18.947	0.100
463.800	-33.816	0.100
463.900	-41.183	0.100
464.000	-30.110	0.100
464.100	-46.311	0.100
464.200	-32.987	0.100
464.300	-34.819	0.100
464.400	-28.078	0.100
464.500	-27.241	0.100
464.600	-28.258	0.100
464.700	-32.298	0.100
464.800	-41.667	0.100
464.900	-34.934	0.100
465.000	-24.404	0.100
465.100	-30.380	0.100
465.200	-39.908	0.100
465.300	-46.295	0.100
465.400	-33.227	0.100
465.500	-34.030	0.100
465.600	-21.807	0.100
465.700	-14.584	0.100
465.800	-25.469	0.100
465.900	-40.280	0.100
466.000	-39.921	0.100
466.100	-40.419	0.099
466.200	-23.242	0.100
466.300	-33.626	0.100
466.400	-30.089	0.100
466.500	-34.357	0.100
466.600	-38.799	0.100
466.700	-38.311	0.100
466.800	-25.603	0.100
466.900	-25.959	0.100
467.000	-37.298	0.100
467.100	-40.920	0.100
467.200	-34.732	0.100
467.300	-30.274	0.100
467.400	-20.350	0.100
467.500	-41.211	0.100
467.600	-40.191	0.100
467.700	-46.294	0.100
467.800	-22.382	0.100
467.900	-16.489	0.100
468.000	-30.754	0.100
468.100	-26.589	0.100
468.200	-32.254	0.100
468.300	-41.866	0.100
468.400	-31.968	0.100
468.500	-30.120	0.100
468.600	-30.958	0.100
468.700	-34.809	0.100
468.800	-33.118	0.100
468.900	-39.624	0.100
469.000	-26.399	0.100
469.100	-29.708	0.100
469.200	-35.974	0.100
469.300	-33.704	0.100
469.400	-21.600	0.100
469.500	-36.546	0.100
469.600	-44.392	0.100
469.700	-22.546	0.100
469.800	-24.168	0.100
469.900	-29.012	0.100
470.000	-31.164	0.100
470.100	-32.559	0.100
470.200	-34.146	0.100
470.300	-27.915	0.100
470.400	-28.219	0.100
470.500	-35.576	0.100
470.600	-31.473	0.100
470.700	-38.166	0.100
470.800	-28.457	0.100
470.900	-26.939	0.100
471.000	-30.523	0.100
471.100	-21.817	0.100
471.200	-21.691	0.100
471.300	-32.736	0.100
471.400	-24.894	0.100
471.500	-35.152	0.100
471.600	-18.989	0.100
471.700	-36.413	0.100
471.800	-47.867	0.100
471.900	-30.086	0.100
472.000	-27.868	0.100
472.100	-27.320	0.100
472.200	-30.473	0.100
472.300	-29.484	0.100
472.400	-31.629	0.100
472.500	-26.438	0.100
472.600	-32.804	0.100
472.700	-29.796	0.100
472.800	-33.940	0.100
472.900	-22.391	0.100
473.000	-45.365	0.100
473.100	-32.718	0.100
473.200	-35.339	0.100
473.300	-23.198	0.100
473.400	-39.767	0.100
473.500	-30.413	0.100
473.600	-40.441	0.100
473.700	-38.766	0.100
473.800	-46.045	0.100
473.900	-32.102	0.100
474.000	-42.317	0.100
474.100	-27.937	0.100
474.200	-32.795	0.100
474.300	-35.126	0.100
474.400	-20.022	0.100
474.500	-32.392	0.100
474.600	-31.009	0.099
474.700	-38.703	0.100
474.800	-37.045	0.100
474.900	-21.092	0.100
475.000	-17.264	0.100
475.100	-37.472	0.100
475.200	-33.862	0.100
475.300	-20.545	0.100
475.400	-30.293	0.100
475.500	-29.723	0.100
475.600	-31.353	0.100
475.700	-19.672	0.100
475.800	-38.653	0.100
475.900	-33.354	0.100
476.000	-27.998	0.100
476.100	-24.217	0.100
476.200	-32.053	0.100
476.300	-27.311	0.100
476.400	-45.205	0.100
476.500	-35.800	0.100
476.600	-25.493	0.100
476.700	-25.955	0.100
476.800	-30.698	0.100
476.900	-32.004	0.100
477.000	-21.415	0.100
477.100	-29.766	0.100
477.200	-29.918	0.100
477.300	-21.778	0.100
477.400	-29.185	0.100
477.500	-32.579	0.100
477.600	-27.488	0.100
477.700	-33.058	0.100
477.800	-29.168	0.100
477.900	-30.673	0.100
478.000	-33.041	0.100
478.100	-19.975	0.100
478.200	-36.127	0.100
478.300	-24.426	0.100
478.400	-42.112	0.100
478.500	-36.110	0.100
478.600	-24.016	0.100
478.700	-18.314	0.100
478.800	-24.146	0.100
478.900	-32.676	0.100
479.000	-26.791	0.100
479.100	-23.127	0.100
479.200	-34.402	0.100
479.300	-33.248	0.100
479.400	-29.177	0.100
479.500	-29.673	0.100
479.600	-16.601	0.100
479.700	-27.019	0.100
479.800	-32.940	0.100
479.900	-20.913	0.100
480.000	-14.174	0.100
480.100	-5.473	0.100
480.200	11.576	0.100
480.300	15.377	0.100
480.400	19.690	0.100
480.500	35.941	0.100
480.600	28.374	0.100
480.700	32.300	0.100
480.800	35.841	0.100
480.900	35.508	0.100
481.000	38.410	0.100
481.100	31.865	0.100
481.200	19.303	0.100
481.300	21.855	0.100
481.400	28.108	0.100
481.500	36.830	0.100
481.600	30.238	0.100
481.700	26.205	0.100
481.800	18.192	0.100
481.900	19.810	0.100
482.000	40.502	0.100
482.100	35.047	0.100
482.200	17.826	0.100
482.300	11.021	0.100
482.400	21.945	0.100
482.500	13.334	0.100
482.600	23.405	0.100
482.700	16.203	0.100
482.800	8.625	0.100
482.900	15.752	0.100
483.000	23.541	0.100
483.100	25.252	0.100
483.200	13.463	0.100
483.300	14.905	0.100
483.400	20.544	0.100
483.500	10.084	0.100
483.600	17.162	0.100
483.700	17.487	0.100
483.800	16.762	0.100
483.900	21.045	0.100
484.000	7.906	0.100
484.100	16.161	0.100
484.200	5.409	0.100
484.300	15.222	0.100
484.400	13.823	0.100
484.500	17.310	0.100
484.600	4.040	0.100
484.700	23.166	0.100
484.800	16.383	0.100
484.900	18.855	0.100
485.000	18.417	0.100
485.100	7.439	0.100
485.200	25.634	0.100
485.300	21.426	0.100
485.400	17.345	0.100
485.500	21.296	0.100
485.600	22.487	0.100
485.700	14.831	0.100
485.800	18.791	0.100
485.900	9.911	0.100
486.000	16.496	0.100
486.100	19.312	0.100
486.200	19.378	0.100
486.300	14.045	0.100
486.400	11.471	0.100
486.500	11.955	0.100
486.600	18.302	0.100
486.700	17.385	0.100
486.800	24.284	0.100
486.900	21.564	0.100
487.000	20.221	0.100
487.100	14.175	0.100
487.200	31.845	0.100
487.300	21.591	0.100
487.400	24.185	0.100
487.500	36.592	0.100
487.600	20.292	0.100
487.700	19.930	0.100
487.800	30.560	0.100
487.900	32.550	0.100
488.000	41.228	0.100
488.100	41.228	0.100
488.200	27.377	0.100
488.300	16.594	0.100
488.400	39.736	0.100
488.500	37.802	0.100
488.600	39.472	0.100
488.700	34.107	0.100
488.800	19.376	0.100
488.900	40.466	0.100
489.000	36.174	0.100
489.100	41.043	0.100
489.200	45.930	0.100
489.300	28.806	0.100
489.400	43.837	0.100
489.500	54.112	0.100
489.600	30.191	0.100
489.700	53.291	0.100
489.800	41.434	0.100
489.900	53.723	0.100
490.000	36.289	0.100
490.100	48.663	0.100
490.200	52.563	0.100
490.300	51.632	0.100
490.400	49.640	0.100
490.500	50.994	0.100
490.600	58.287	0.100
490.700	49.549	0.100
490.800	45.322	0.100
490.900	48.668	0.100
491.000	61.729	0.100
491.100	53.335	0.100
491.200	49.704	0.100
491.300	62.521	0.100
491.400	61.128	0.100
491.500	65.866	0.100
491.600	56.048	0.100
491.700	41.545	0.100
491.800	49.342	0.100
491.900	77.277	0.100
492.000	67.164	0.100
492.100	63.200	0.100
492.200	54.295	0.100
492.300	55.763	0.100
492.400	60.768	0.100
492.500	58.444	0.100
492.600	55.228	0.100
492.700	51.976	0.100
492.800	69.829	0.100
492.900	55.306	0.100
493.000	65.410	0.100
493.100	44.103	0.100
493.200	58.268	0.100
493.300	70.713	0.100
493.400	51.572	0.100
493.500	64.404	0.100
493.600	53.617	0.100
493.700	68.086	0.100
493.800	65.604	0.100
493.900	61.461	0.100
494.000	63.030	0.100
494.100	54.335	0.100
494.200	62.240	0.100
494.300	64.919	0.100
494.400	69.312	0.100
494.500	57.749	0.100
494.600	63.952	0.100
494.700	60.544	0.100
494.800	65.288	0.100
494.900	66.085	0.100
495.000	60.306	0.100
495.100	60.144	0.100
495.200	64.870	0.100
495.300	58.575	0.100
495.400	68.189	0.100
495.500	66.309	0.100
495.600	66.901	0.100
495.700	51.189	0.100
495.800	45.162	0.100
495.900	59.738	0.100
496.000	62.215	0.100
496.100	68.570	0.100
496.200	60.707	0.100
496.300	66.293	0.100
496.400	52.957	0.100
496.500	55.037	0.100
496.600	63.128	0.100
496.700	72.070	0.100
496.800	61.860	0.100
496.900	65.160	0.100
497.000	70.435	0.100
497.100	66.843	0.100
497.200	67.335	0.100
497.300	72.041	0.100
497.400	70.779	0.100
497.500	47.687	0.100
497.600	70.852	0.100
497.700	68.913	0.100
497.800	63.246	0.100
497.900	65.578	0.100
498.000	64.403	0.100
498.100	62.952	0.100
498.200	67.979	0.100
498.300	53.161	0.100
498.400	67.152	0.100
498.500	56.318	0.100
498.600	64.337	0.100
498.700	56.859	0.100
498.800	61.562	0.100
498.900	54.181	0.100
499.000	58.505	0.100
499.100	70.652	0.100
499.200	68.588	0.100
499.300	58.292	0.100
499.400	51.769	0.100
499.500	69.664	0.100
499.600	77.203	0.100
499.700	57.919	0.100
499.800	60.715	0.100
499.900	57.878	0.100
500.000	54.389	0.100
500.100	63.619	0.100
500.200	68.542	0.100
500.300	74.743	0.100
500.400	71.494	0.100
500.500	51.142	0.100
500.600	57.803	0.100
500.700	69.532	0.100
500.800	62.629	0.100
500.900	51.917	0.100
501.000	71.348	0.100
501.100	63.035	0.100
501.200	55.610	0.100
501.300	54.053	0.100
501.400	66.846	0.100
501.500	69.348	0.100
501.600	49.994	0.100
501.700	56.783	0.100
501.800	58.198	0.100
501.900	52.516	0.100
502.000	71.763	0.100
502.100	66.304	0.100
502.200	55.347	0.100
502.300	52.931	0.100
502.400	55.700	0.100
502.500	75.562	0.100
502.600	69.970	0.100
502.700	64.645	0.100
502.800	62.159	0.100
502.900	60.789	0.100
503.000	59.825	0.100
503.100	54.064	0.100
503.200	72.312	0.100
503.300	62.143	0.100
503.400	53.096	0.100
503.500	60.846	0.100
503.600	57.961	0.100
503.700	63.133	0.100
503.800	70.177	0.100
503.900	64.088	0.100
504.000	54.295	0.100
504.100	60.733	0.100
504.200	52.919	0.100
504.300	64.999	0.100
504.400	50.019	0.100
504.500	57.448	0.100
504.600	66.247	0.100
504.700	62.718	0.100
504.800	56.777	0.100
504.900	61.560	0.100
505.000	60.886	0.100
505.100	47.009	0.100
505.200	54.851	0.100
505.300	52.480	0.100
505.400	63.177	0.100
505.500	72.227	0.100
505.600	52.118	0.100
505.700	50.538	0.100
505.800	55.405	0.100
505.900	66.498	0.100
506.000	68.946	0.100
506.100	64.413	0.100
506.200	62.189	0.100
506.300	63.912	0.100
506.400	58.272	0.100
506.500	63.351	0.100
506.600	56.503	0.100
506.700	62.965	0.100
506.800	61.257	0.100
506.900	58.919	0.100
507.000	52.827	0.100
507.100	56.141	0.100
507.200	57.135	0.100
507.300	79.341	0.100
507.400	50.951	0.100
507.500	68.689	0.100
507.600	64.033	0.100
507.700	65.747	0.100
507.800	69.662	0.100
507.900	69.771	0.100
508.000	55.981	0.100
508.100	47.870	0.100
508.200	49.294	0.100
508.300	60.145	0.100
508.400	73.546	0.100
508.500	53.245	0.100
508.600	59.523	0.100
508.700	52.539	0.100
508.800	50.114	0.100
508.900	55.959	0.100
509.000	59.006	0.100
509.100	56.668	0.100
509.200	60.531	0.100
509.300	54.187	0.100
509.400	50.226	0.100
509.500	64.298	0.100
509.600	68.075	0.100
509.700	43.176	0.100
509.800	48.929	0.100
509.900	54.904	0.100
510.000	47.121	0.100
510.100	60.369	0.100
510.200	61.724	0.100
510.300	55.451	0.100
510.400	52.338	0.100
510.500	63.506	0.100
510.600	52.307	0.100
510.700	60.112	0.100
510.800	59.757	0.100
510.900	60.692	0.100
511.000	50.814	0.100
511.100	59.364	0.100
511.200	59.478	0.100
511.300	51.641	0.100
511.400	55.271	0.100
511.500	67.250	0.100
511.600	65.769	0.100
511.700	41.984	0.100
511.800	63.795	0.100
511.900	61.163	0.100
512.000	56.336	0.100
512.100	52.600	0.100
512.200	61.788	0.100
512.300	59.459	0.100
512.400	54.812	0.100
512.500	63.177	0.100
512.600	54.363	0.100
512.700	64.223	0.100
512.800	54.235	0.100
512.900	56.284	0.100
513.000	57.583	0.100
513.100	50.688	0.100
513.200	53.917	0.100
513.300	53.134	0.100
513.400	46.294	0.100
513.500	51.700	0.100
513.600	55.846	0.100
513.700	53.739	0.100
513.800	59.737	0.100
513.900	56.625	0.100
514.000	59.947	0.100
514.100	53.031	0.100
514.200	45.964	0.100
514.300	56.677	0.100
514.400	71.162	0.100
514.500	46.439	0.100
514.600	54.479	0.100
514.700	55.896	0.100
514.800	64.240	0.100
514.900	51.214	0.100
515.000	50.673	0.100
515.100	57.407	0.100
515.200	56.292	0.100
515.300	53.143	0.100
515.400	58.732	0.100
515.500	61.341	0.100
515.600	42.801	0.100
515.700	42.192	0.100
515.800	50.887	0.100
515.900	64.400	0.100
516.000	50.727	0.100
516.100	59.749	0.100
516.200	59.027	0.100
516.300	59.232	0.100
516.400	61.960	0.100
516.500	47.271	0.100
516.600	63.594	0.100
516.700	67.847	0.100
516.800	53.117	0.100
516.900	40.603	0.100
517.000	54.647	0.100
517.100	53.777	0.100
517.200	50.295	0.100
517.300	64.851	0.100
517.400	50.036	0.100
517.500	42.803	0.100
517.600	55.301	0.100
517.700	53.552	0.100
517.800	59.830	0.100
517.900	64.213	0.100
518.000	44.146	0.100
518.100	55.977	0.100
518.200	58.180	0.100
518.300	49.666	0.100
518.400	58.117	0.100
518.500	49.590	0.100
518.600	42.585	0.100
518.700	56.573	0.100
518.800	37.433	0.100
518.900	60.072	0.100
519.000	48.907	0.100
519.100	58.966	0.100
519.200	47.474	0.100
519.300	53.163	0.100
519.400	51.747	0.100
519.500	74.196	0.100
519.600	66.219	0.100
519.700	61.793	0.100
519.800	57.437	0.100
519.900	52.265	0.100
520.000	41.477	0.100
520.100	46.223	0.100
520.200	56.786	0.100
520.300	54.814	0.100
520.400	49.191	0.100
520.500	63.389	0.100
520.600	45.546	0.100
520.700	56.558	0.100
520.800	55.739	0.100
520.900	44.575	0.100
521.000	58.075	0.100
521.100	57.596	0.100
521.200	50.952	0.100
521.300	63.348	0.100
521.400	53.841	0.100
521.500	51.633	0.100
521.600	41.721	0.100
521.700	54.351	0.100
521.800	54.394	0.100
521.900	55.859	0.100
522.000	51.983	0.100
522.100	52.275	0.100
522.200	46.822	0.100
522.300	47.777	0.100
522.400	45.806	0.100
522.500	61.068	0.100
522.600	58.835	0.100
522.700	61.445	0.100
522.800	43.139	0.100
522.900	53.002	0.100
523.000	53.938	0.100
523.100	43.116	0.100
523.200	34.540	0.100
523.300	57.387	0.100
523.400	52.722	0.100
523.500	47.284	0.100
523.600	61.753	0.100
523.700	51.778	0.100
523.800	50.278	0.100
523.900	50.564	0.100
524.000	57.786	0.100
524.100	56.972	0.100
524.200	55.509	0.100
524.300	63.751	0.100
524.400	53.851	0.100
524.500	39.641	0.100
524.600	59.936	0.100
524.700	51.703	0.100
524.800	53.044	0.100
524.900	51.098	0.100
525.000	49.814	0.100
525.100	46.861	0.100
525.200	46.573	0.100
525.300	58.806	0.100
525.400	58.166	0.100
525.500	44.849	0.100
525.600	44.536	0.100
525.700	52.448	0.100
525.800	52.202	0.100
525.900	58.101	0.100
526.000	56.349	0.100
526.100	47.988	0.100
526.200	42.778	0.100
526.300	53.424	0.100
526.400	65.788	0.100
526.500	45.936	0.100
526.600	52.617	0.100
526.700	63.614	0.100
526.800	48.548	0.100
526.900	52.365	0.100
527.000	49.106	0.100
527.100	45.793	0.100
527.200	56.252	0.100
527.300	61.291	0.100
527.400	53.006	0.100
527.500	33.101	0.100
527.600	51.218	0.100
527.700	53.359	0.100
527.800	53.322	0.100
527.900	43.382	0.100
528.000	53.920	0.100
528.100	47.952	0.100
528.200	64.992	0.100
528.300	58.590	0.100
528.400	49.446	0.100
528.500	49.181	0.100
528.600	53.996	0.100
528.700	52.232	0.100
528.800	46.082	0.100
528.900	48.886	0.100
529.000	45.967	0.100
529.100	44.550	0.100
529.200	55.978	0.100
529.300	51.970	0.100
529.400	58.640	0.100
529.500	45.127	0.100
529.600	32.597	0.100
529.700	51.862	0.100
529.800	57.101	0.100
529.900	51.387	0.100
530.000	50.512	0.100
530.100	52.709	0.100
530.200	43.626	0.100
530.300	40.278	0.100
530.400	43.417	0.100
530.500	68.000	0.100
530.600	51.894	0.100
530.700	39.511	0.100
530.800	35.477	0.100
530.900	61.067	0.100
531.000	53.653	0.100
531.100	59.541	0.100
531.200	43.441	0.100
531.300	48.334	0.100
531.400	54.119	0.100
531.500	47.835	0.100
531.600	41.594	0.100
531.700	38.369	0.100
531.800	59.133	0.100
531.900	58.324	0.100
532.000	57.478	0.100
532.100	51.939	0.100
532.200	45.895	0.100
532.300	52.092	0.100
532.400	46.009	0.100
532.500	48.730	0.100
532.600	52.805	0.100
532.700	23.651	0.100
532.800	55.424	0.100
532.900	46.954	0.100
533.000	55.741	0.100
533.100	68.142	0.100
533.200	44.599	0.100
533.300	45.612	0.100
533.400	47.102	0.100
533.500	48.878	0.100
533.600	53.415	0.100
533.700	49.288	0.100
533.800	39.878	0.100
533.900	49.119	0.100
534.000	52.823	0.100
534.100	56.730	0.100
534.200	30.275	0.100
534.300	46.414	0.100
534.400	43.971	0.100
534.500	45.724	0.100
534.600	40.971	0.100
534.700	68.928	0.100
534.800	55.952	0.100
534.900	35.976	0.100
535.000	57.210	0.100
535.100	58.890	0.100
535.200	56.920	0.100
535.300	50.954	0.100
535.400	40.042	0.100
535.500	46.119	0.100
535.600	64.394	0.100
535.700	42.952	0.100
535.800	47.764	0.100
535.900	51.234	0.100
536.000	52.754	0.100
536.100	52.392	0.100
536.200	32.693	0.100
536.300	53.584	0.100
536.400	44.379	0.100
536.500	46.109	0.100
536.600	51.866	0.100
536.700	52.146	0.100
536.800	55.797	0.100
536.900	46.991	0.100
537.000	55.381	0.100
537.100	53.910	0.100
537.200	52.488	0.100
537.300	52.178	0.100
537.400	39.163	0.100
537.500	46.205	0.100
537.600	52.015	0.100
537.700	53.503	0.100
537.800	54.009	0.100
537.900	40.794	0.100
538.000	45.039	0.100
538.100	59.226	0.100
538.200	47.263	0.100
538.300	44.435	0.100
538.400	39.191	0.100
538.500	51.840	0.100
538.600	60.961	0.100
538.700	35.692	0.100
538.800	65.983	0.100
538.900	42.929	0.100
539.000	46.519	0.100
539.100	58.282	0.100
539.200	50.551	0.100
539.300	46.266	0.100
539.400	47.417	0.100
539.500	44.334	0.100
539.600	51.905	0.100
539.700	53.215	0.100
539.800	42.590	0.100
539.900	26.952	0.100
540.000	45.553	0.100
540.100	30.222	0.100
540.200	22.957	0.100
540.300	8.766	0.100
540.400	11.750	0.100
540.500	24.946	0.100
540.600	8.620	0.100
540.700	4.669	0.100
540.800	9.650	0.100
540.900	5.979	0.100
541.000	-3.352	0.100
541.100	9.071	0.100
541.200	9.851	0.100
541.300	-5.369	0.100
541.400	-4.921	0.100
541.500	-0.918	0.100
541.600	-10.362	0.100
541.700	-5.087	0.100
541.800	-5.629	0.100
541.900	-5.239	0.100
542.000	-9.941	0.100
542.100	-18.334	0.100
542.200	-17.372	0.100
542.300	-12.628	0.100
542.400	-9.580	0.100
542.500	3.656	0.100
542.600	-6.946	0.100
542.700	-13.882	0.100
542.800	-22.709	0.100
542.900	-21.461	0.100
543.000	-22.753	0.100
543.100	-27.622	0.100
543.200	-16.138	0.100
543.300	-15.021	0.100
543.400	-29.130	0.100
543.500	-16.680	0.100
543.600	-18.644	0.100
543.700	-13.996	0.100
543.800	-27.210	0.100
543.900	-20.932	0.100
544.000	-20.189	0.100
544.100	-27.247	0.100
544.200	-37.543	0.100
544.300	-39.336	0.100
544.400	-40.727	0.100
544.500	-33.911	0.100
544.600	-34.003	0.100
544.700	-17.596	0.100
544.800	-28.396	0.100
544.900	-40.144	0.100
545.000	-35.143	0.100
545.100	-29.152	0.100
545.200	-34.237	0.100
545.300	-41.173	0.100
545.400	-38.484	0.100
545.500	-34.876	0.100
545.600	-37.217	0.100
545.700	-31.953	0.100
545.800	-38.698	0.100
545.900	-31.469	0.100
546.000	-34.295	0.100
546.100	-35.807	0.100
546.200	-43.059	0.100
546.300	-22.432	0.100
546.400	-25.272	0.100
546.500	-35.252	0.100
546.600	-35.194	0.100
546.700	-26.986	0.100
546.800	-42.794	0.100
546.900	-20.511	0.100
547.000	-23.835	0.100
547.100	-28.827	0.100
547.200	-41.031	0.100
547.300	-36.714	0.100
547.400	-32.103	0.100
547.500	-32.887	0.100
547.600	-27.047	0.100
547.700	-28.874	0.100
547.800	-36.269	0.100
547.900	-32.725	0.100
548.000	-43.482	0.100
548.100	-30.726	0.100
548.200	-21.309	0.100
548.300	-21.629	0.100
548.400	-40.053	0.100
548.500	-26.769	0.100
548.600	-36.356	0.100
548.700	-33.701	0.100
548.800	-23.100	0.100
548.900	-28.348	0.100
549.000	-36.908	0.100
549.100	-29.720	0.100
549.200	-28.079	0.100
549.300	-32.720	0.100
549.400	-30.433	0.100
549.500	-25.081	0.100
549.600	-36.147	0.100
549.700	-29.454	0.100
549.800	-19.151	0.100
549.900	-23.612	0.100
550.000	-25.791	0.100
550.100	-28.706	0.100
550.200	-30.918	0.100
550.300	-30.200	0.100
550.400	-23.586	0.100
550.500	-40.345	0.100
550.600	-40.958	0.100
550.700	-29.834	0.100
550.800	-38.631	0.100
550.900	-31.566	0.100
551.000	-31.703	0.100
551.100	-25.770	0.100
551.200	-31.216	0.100
551.300	-30.388	0.100
551.400	-26.904	0.100
551.500	-43.791	0.100
551.600	-30.621	0.100
551.700	-25.491	0.100
551.800	-31.684	0.100
551.900	-29.243	0.100
552.000	-35.388	0.100
552.100	-32.668	0.100
552.200	-38.026	0.100
552.300	-35.463	0.100
552.400	-25.211	0.100
552.500	-31.014	0.100
552.600	-36.103	0.100
552.700	-30.732	0.100
552.800	-33.741	0.100
552.900	-21.404	0.100
553.000	-41.963	0.100
553.100	-46.675	0.100
553.200	-27.068	0.100
553.300	-30.846	0.100
553.400	-28.182	0.100
553.500	-26.003	0.100
553.600	-33.028	0.100
553.700	-34.791	0.100
553.800	-33.809	0.100
553.900	-44.751	0.100
554.000	-28.813	0.100
554.100	-29.899	0.100
554.200	-32.333	0.100
554.300	-32.224	0.100
554.400	-42.122	0.100
554.500	-35.667	0.100
554.600	-28.467	0.100
554.700	-38.182	0.100
554.800	-41.957	0.100
554.900	-39.959	0.100
555.000	-30.015	0.100
555.100	-29.681	0.100
555.200	-25.762	0.100
555.300	-38.860	0.100
555.400	-41.854	0.100
555.500	-34.117	0.100
555.600	-33.817	0.100
555.700	-29.982	0.100
555.800	-28.967	0.100
555.900	-35.377	0.100
556.000	-45.578	0.100
556.100	-41.510	0.100
556.200	-39.410	0.100
556.300	-34.208	0.100
556.400	-34.001	0.100
556.500	-26.737	0.100
556.600	-40.278	0.100
556.700	-37.762	0.100
556.800	-34.359	0.100
556.900	-24.323	0.100
557.000	-41.263	0.100
557.100	-36.212	0.100
557.200	-31.591	0.100
557.300	-28.920	0.100
557.400	-43.290	0.100
557.500	-25.500	0.100
557.600	-31.920	0.100
557.700	-42.651	0.100
557.800	-30.981	0.100
557.900	-40.724	0.100
558.000	-36.532	0.100
558.100	-24.835	0.100
558.200	-36.806	0.100
558.300	-43.139	0.100
558.400	-43.298	0.100
558.500	-38.027	0.100
558.600	-32.111	0.100
558.700	-27.360	0.100
558.800	-30.651	0.100
558.900	-41.997	0.100
559.000	-38.258	0.100
559.100	-51.081	0.100
559.200	-34.383	0.100
559.300	-26.820	0.100
559.400	-36.863	0.100
559.500	-26.015	0.100
559.600	-44.664	0.100
559.700	-49.003	0.100
559.800	-23.310	0.100
559.900	-26.621	0.100
560.000	-37.543	0.100
560.100	-38.829	0.100
560.200	-45.607	0.100
560.300	-33.769	0.100
560.400	-43.700	0.100
560.500	-32.063	0.100
560.600	-28.474	0.100
560.700	-36.362	0.100
560.800	-39.847	0.100
560.900	-37.156	0.100
561.000	-41.534	0.100
561.100	-26.719	0.100
561.200	-35.786	0.100
561.300	-56.577	0.100
561.400	-41.099	0.100
561.500	-47.289	0.100
561.600	-33.782	0.100
561.700	-28.568	0.100
561.800	-40.453	0.100
561.900	-40.200	0.100
562.000	-35.219	0.100
562.100	-41.947	0.100
562.200	-33.343	0.100
562.300	-44.566	0.100
562.400	-50.840	0.100
562.500	-43.574	0.100
562.600	-40.818	0.100
562.700	-26.797	0.100
562.800	-26.467	0.100
562.900	-24.529	0.100
563.000	-46.535	0.100
563.100	-42.926	0.100
563.200	-34.081	0.100
563.300	-37.896	0.100
563.400	-44.665	0.100
563.500	-33.213	0.100
563.600	-40.284	0.100
563.700	-53.860	0.100
563.800	-43.683	0.100
563.900	-35.455	0.100
564.000	-34.449	0.100
564.100	-43.262	0.100
564.200	-36.909	0.100
564.300	-31.413	0.100
564.400	-41.239	0.100
564.500	-42.858	0.100
564.600	-39.071	0.100
564.700	-43.533	0.100
564.800	-41.551	0.100
564.900	-51.989	0.100
565.000	-34.016	0.100
565.100	-30.393	0.100
565.200	-35.290	0.100
565.300	-46.653	0.100
565.400	-35.226	0.100
565.500	-43.747	0.100
565.600	-38.823	0.100
565.700	-37.068	0.100
565.800	-39.306	0.100
565.900	-47.148	0.100
566.000	-43.085	0.100
566.100	-32.618	0.100
566.200	-50.705	0.100
566.300	-40.532	0.100
566.400	-32.671	0.100
566.500	-27.794	0.100
566.600	-42.807	0.100
566.700	-46.665	0.100
566.800	-37.643	0.100
566.900	-35.927	0.100
567.000	-37.771	0.100
567.100	-48.797	0.100
567.200	-35.003	0.100
567.300	-52.034	0.100
567.400	-38.420	0.100
567.500	-29.305	0.100
567.600	-47.758	0.100
567.700	-44.665	0.100
567.800	-42.569	0.100
567.900	-40.947	0.100
568.000	-33.633	0.100
568.100	-41.343	0.100
568.200	-48.276	0.100
568.300	-34.889	0.100
568.400	-45.282	0.100
568.500	-47.900	0.100
568.600	-31.798	0.100
568.700	-29.413	0.100
568.800	-40.967	0.100
568.900	-41.147	0.100
569.000	-48.740	0.100
569.100	-28.383	0.100
569.200	-34.304	0.100
569.300	-55.386	0.100
569.400	-46.940	0.100
569.500	-27.228	0.100
569.600	-41.788	0.100
569.700	-43.250	0.100
569.800	-41.752	0.100
569.900	-45.476	0.100
570.000	-32.918	0.100
570.100	-46.672	0.100
570.200	-53.242	0.100
570.300	-41.079	0.100
570.400	-37.033	0.100
570.500	-41.171	0.100
570.600	-42.654	0.100
570.700	-54.833	0.100
570.800	-50.928	0.100
570.900	-42.785	0.100
571.000	-30.998	0.100
571.100	-33.546	0.100
571.200	-44.719	0.100
571.300	-39.096	0.100
571.400	-36.883	0.100
571.500	-60.671	0.100
571.600	-33.104	0.100
571.700	-36.744	0.100
571.800	-42.359	0.100
571.900	-46.283	0.100
572.000	-42.207	0.100
572.100	-48.791	0.100
572.200	-34.615	0.100
572.300	-43.555	0.100
572.400	-44.282	0.100
572.500	-53.309	0.100
572.600	-36.824	0.100
572.700	-31.066	0.100
572.800	-47.231	0.100
572.900	-41.591	0.100
573.000	-46.644	0.100
573.100	-40.151	0.100
573.200	-42.773	0.100
573.300	-30.709	0.100
573.400	-38.155	0.100
573.500	-45.760	0.100
573.600	-41.481	0.100
573.700	-47.117	0.100
573.800	-38.933	0.100
573.900	-33.220	0.100
574.000	-38.198	0.100
574.100	-46.920	0.100
574.200	-48.006	0.100
574.300	-50.253	0.100
574.400	-36.311	0.100
574.500	-26.688	0.100
574.600	-33.984	0.100
574.700	-54.840	0.100
574.800	-52.133	0.100
574.900	-56.247	0.100
575.000	-39.321	0.100
575.100	-42.923	0.100
575.200	-33.183	0.100
575.300	-45.103	0.100
575.400	-39.109	0.100
575.500	-44.324	0.100
575.600	-42.220	0.100
575.700	-48.561	0.100
575.800	-36.694	0.100
575.900	-41.455	0.100
576.000	-44.194	0.100
576.100	-43.474	0.100
576.200	-35.319	0.100
576.300	-23.558	0.100
576.400	-39.392	0.100
576.500	-43.047	0.100
576.600	-45.569	0.100
576.700	-36.132	0.100
576.800	-44.840	0.100
576.900	-32.022	0.100
577.000	-54.650	0.100
577.100	-54.407	0.100
577.200	-36.915	0.100
577.300	-41.366	0.100
577.400	-43.123	0.100
577.500	-40.821	0.100
577.600	-51.598	0.100
577.700	-48.874	0.100
577.800	-54.105	0.100
577.900	-50.196	0.100
578.000	-42.018	0.100
578.100	-39.705	0.100
578.200	-35.436	0.100
578.300	-44.858	0.100
578.400	-46.100	0.100
578.500	-49.793	0.100
578.600	-52.504	0.100
578.700	-40.769	0.100
578.800	-41.823	0.100
578.900	-45.125	0.100
579.000	-47.581	0.100
579.100	-51.931	0.100
579.200	-43.686	0.100
579.300	-33.697	0.100
579.400	-44.971	0.100
579.500	-55.715	0.100
579.600	-47.267	0.100
579.700	-51.043	0.100
579.800	-31.501	0.100
579.900	-35.574	0.100
580.000	-40.598	0.100
580.100	-49.050	0.100
580.200	-37.322	0.100
580.300	-50.260	0.100
580.400	-47.391	0.100
580.500	-39.592	0.100
580.600	-48.951	0.100
580.700	-39.208	0.100
580.800	-33.833	0.100
580.900	-38.847	0.100
581.000	-38.835	0.100
581.100	-45.991	0.100
581.200	-42.350	0.100
581.300	-49.280	0.100
581.400	-57.055	0.100
581.500	-39.765	0.100
581.600	-40.136	0.100
581.700	-47.619	0.100
581.800	-42.356	0.100
581.900	-41.564	0.100
582.000	-40.065	0.100
582.100	-48.931	0.100
582.200	-36.664	0.100
582.300	-43.522	0.100
582.400	-53.343	0.100
582.500	-41.338	0.100
582.600	-48.097	0.100
582.700	-34.854	0.100
582.800	-51.968	0.100
582.900	-30.705	0.100
583.000	-41.334	0.100
583.100	-44.014	0.100
583.200	-35.896	0.100
583.300	-29.641	0.100
583.400	-31.550	0.100
583.500	-48.821	0.100
583.600	-35.925	0.100
583.700	-57.255	0.100
583.800	-42.381	0.100
583.900	-40.770	0.100
584.000	-36.603	0.100
584.100	-53.405	0.100
584.200	-38.402	0.100
584.300	-49.539	0.100
584.400	-38.341	0.100
584.500	-38.494	0.100
584.600	-26.301	0.100
584.700	-39.335	0.100
584.800	-42.714	0.100
584.900	-42.608	0.100
585.000	-40.856	0.100
585.100	-49.130	0.100
585.200	-54.455	0.100
585.300	-43.994	0.100
585.400	-40.554	0.100
585.500	-33.934	0.100
585.600	-42.983	0.100
585.700	-38.365	0.100
585.800	-47.882	0.100
585.900	-54.362	0.100
586.000	-36.883	0.100
586.100	-51.720	0.100
586.200	-35.609	0.100
586.300	-50.026	0.100
586.400	-26.668	0.100
586.500	-44.522	0.100
586.600	-51.685	0.100
586.700	-35.074	0.100
586.800	-42.574	0.100
586.900	-44.981	0.100
587.000	-53.041	0.100
587.100	-42.964	0.100
587.200	-50.207	0.100
587.300	-40.760	0.100
587.400	-30.307	0.100
587.500	-36.384	0.100
587.600	-47.307	0.100
587.700	-47.245	0.100
587.800	-55.214	0.100
587.900	-47.281	0.100
588.000	-42.123	0.100
588.100	-23.942	0.100
588.200	-42.335	0.100
588.300	-49.972	0.100
588.400	-34.410	0.100
588.500	-42.250	0.100
588.600	-39.573	0.100
588.700	-42.528	0.100
588.800	-41.333	0.100
588.900	-45.314	0.100
589.000	-38.603	0.100
589.100	-40.833	0.100
589.200	-43.961	0.100
589.300	-46.989	0.100
589.400	-41.436	0.100
589.500	-41.990	0.100
589.600	-53.031	0.100
589.700	-38.348	0.100
589.800	-48.778	0.100
589.900	-29.493	0.100
590.000	-36.073	0.100
590.100	-44.920	0.100
590.200	-36.674	0.100
590.300	-41.143	0.100
590.400	-40.201	0.100
590.500	-40.063	0.100
590.600	-43.627	0.100
590.700	-37.865	0.100
590.800	-44.832	0.100
590.900	-39.316	0.100
591.000	-33.866	0.100
591.100	-35.450	0.100
591.200	-45.435	0.100
591.300	-43.520	0.100
591.400	-40.852	0.100
591.500	-44.132	0.100
591.600	-39.663	0.100
591.700	-41.663	0.100
591.800	-33.554	0.100
591.900	-38.723	0.100
592.000	-38.240	0.100
592.100	-30.894	0.100
592.200	-32.764	0.100
592.300	-46.785	0.100
592.400	-49.029	0.100
592.500	-41.954	0.100
592.600	-37.663	0.100
592.700	-49.513	0.100
592.800	-28.714	0.100
592.900	-33.191	0.100
593.000	-44.466	0.100
593.100	-44.033	0.100
593.200	-34.656	0.100
593.300	-29.420	0.100
593.400	-29.451	0.100
593.500	-43.402	0.100
593.600	-43.557	0.100
593.700	-40.501	0.100
593.800	-34.030	0.100
593.900	-45.975	0.100
594.000	-37.421	0.100
594.100	-44.511	0.100
594.200	-44.585	0.100
594.300	-24.860	0.100
594.400	-31.041	0.100
594.500	-41.456	0.100
594.600	-39.917	0.100
594.700	-49.711	0.100
594.800	-46.937	0.100
594.900	-37.129	0.100
595.000	-26.285	0.100
595.100	-29.329	0.100
595.200	-41.827	0.100
595.300	-47.891	0.100
595.400	-42.504	0.100
595.500	-34.327	0.100
595.600	-26.804	0.100
595.700	-45.821	0.100
595.800	-52.021	0.100
595.900	-35.092	0.100
596.000	-35.746	0.100
596.100	-31.250	0.100
596.200	-28.948	0.100
596.300	-47.970	0.100
596.400	-39.116	0.100
596.500	-45.857	0.100
596.600	-33.130	0.100
596.700	-32.146	0.100
596.800	-37.488	0.100
596.900	-35.198	0.100
597.000	-45.484	0.100
597.100	-47.253	0.100
597.200	-32.691	0.100
597.300	-42.366	0.100
597.400	-35.873	0.100
597.500	-24.004	0.100
597.600	-34.536	0.100
597.700	-44.710	0.100
597.800	-35.756	0.100
597.900	-23.748	0.100
598.000	-32.189	0.100
598.100	-45.744	0.100
598.200	-38.149	0.100
598.300	-45.743	0.100
598.400	-37.579	0.100
598.500	-46.318	0.100
598.600	-30.492	0.100
598.700	-37.167	0.100
598.800	-26.847	0.100
598.900	-25.327	0.100
599.000	-33.983	0.100
599.100	-39.893	0.100
599.200	-40.783	0.100
599.300	-34.902	0.100
599.400	-38.506	0.100
599.500	-38.878	0.100
599.600	-37.807	0.100
599.700	-27.544	0.100
599.800	-30.306	0.100
599.900	-50.875	0.100
600.000	-41.263	0.100
600.100	-43.147	0.100
600.200	-31.021	0.100
600.300	-40.314	0.100
600.400	-35.410	0.100
600.500	-36.324	0.100
600.600	-38.905	0.100
600.700	-47.507	0.100
600.800	-27.452	0.100
600.900	-38.319	0.100
601.000	-32.480	0.100
601.100	-42.557	0.100
601.200	-32.115	0.100
601.300	-39.996	0.100
601.400	-26.126	0.100
601.500	-35.637	0.100
601.600	-37.468	0.100
601.700	-45.863	0.100
601.800	-36.821	0.100
601.900	-30.417	0.100
602.000	-27.029	0.100
602.100	-32.159	0.100
602.200	-31.529	0.100
602.300	-31.722	0.100
602.400	-44.665	0.100
602.500	-40.253	0.100
602.600	-36.876	0.100
602.700	-34.076	0.100
602.800	-41.516	0.100
602.900	-33.382	0.100
603.000	-40.568	0.100
603.100	-24.545	0.100
603.200	-33.449	0.100
603.300	-37.155	0.100
603.400	-31.469	0.100
603.500	-39.296	0.100
603.600	-36.802	0.100
603.700	-37.165	0.100
603.800	-27.927	0.100
603.900	-36.666	0.100
604.000	-31.269	0.100
604.100	-34.287	0.100
604.200	-27.831	0.100
604.300	-41.482	0.100
604.400	-39.039	0.100
604.500	-34.206	0.100
604.600	-38.148	0.100
604.700	-28.966	0.100
604.800	-40.490	0.100
604.900	-41.819	0.100
605.000	-26.322	0.100
605.100	-36.698	0.100
605.200	-28.255	0.100
605.300	-45.426	0.100
605.400	-24.478	0.100
605.500	-39.632	0.100
605.600	-21.478	0.100
605.700	-36.355	0.100
605.800	-38.879	0.100
605.900	-44.407	0.100
606.000	-39.521	0.100
606.100	-33.056	0.100
606.200	-35.803	0.100
606.300	-34.644	0.100
606.400	-39.988	0.100
606.500	-41.649	0.100
606.600	-26.429	0.100
606.700	-27.748	0.100
606.800	-24.435	0.100
606.900	-31.948	0.100
607.000	-33.288	0.100
607.100	-47.164	0.100
607.200	-45.062	0.100
607.300	-35.958	0.100
607.400	-29.311	0.100
607.500	-36.108	0.100
607.600	-37.807	0.100
607.700	-33.181	0.100
607.800	-27.375	0.100
607.900	-18.483	0.100
608.000	-41.092	0.100
608.100	-34.763	0.100
608.200	-36.103	0.100
608.300	-34.653	0.100
608.400	-24.828	0.100
608.500	-29.952	0.100
608.600	-27.137	0.100
608.700	-27.786	0.100
608.800	-38.339	0.100
608.900	-32.533	0.100
609.000	-29.558	0.100
609.100	-32.278	0.100
609.200	-35.137	0.100
609.300	-36.178	0.100
609.400	-43.792	0.100
609.500	-31.120	0.100
609.600	-30.204	0.100
609.700	-31.023	0.100
609.800	-42.064	0.100
609.900	-21.652	0.100
610.000	-40.763	0.100
610.100	-38.188	0.100
610.200	-36.211	0.100
610.300	-36.022	0.100
610.400	-34.949	0.100
610.500	-36.751	0.100
610.600	-38.725	0.100
610.700	-39.349	0.100
610.800	-40.572	0.100
610.900	-21.530	0.100
611.000	-20.955	0.100
611.100	-29.428	0.100
611.200	-33.599	0.100
611.300	-35.911	0.100
611.400	-43.927	0.100
611.500	-33.042	0.100
611.600	-30.298	0.100
611.700	-35.178	0.100
611.800	-41.106	0.100
611.900	-42.298	0.100
612.000	-28.433	0.100
612.100	-35.513	0.100
612.200	-24.062	0.100
612.300	-33.903	0.100
612.400	-33.503	0.100
612.500	-36.292	0.100
612.600	-41.940	0.100
612.700	-49.342	0.100
612.800	-34.912	0.100
612.900	-29.744	0.100
613.000	-29.151	0.100
613.100	-37.466	0.100
613.200	-20.449	0.100
613.300	-25.817	0.100
613.400	-37.290	0.100
613.500	-36.369	0.100
613.600	-41.258	0.100
613.700	-41.930	0.100
613.800	-33.526	0.100
613.900	-28.585	0.100
614.000	-47.193	0.100
614.100	-40.127	0.100
614.200	-25.496	0.100
614.300	-35.736	0.100
614.400	-25.896	0.100
614.500	-32.066	0.100
614.600	-24.737	0.100
614.700	-35.800	0.100
614.800	-25.534	0.100
614.900	-29.157	0.100
615.000	-49.356	0.100
615.100	-28.150	0.100
615.200	-42.769	0.100
615.300	-43.790	0.100
615.400	-24.654	0.100
615.500	-22.453	0.100
615.600	-33.075	0.100
615.700	-34.609	0.100
615.800	-29.625	0.100
615.900	-26.535	0.100
616.000	-33.246	0.100
616.100	-33.456	0.100
616.200	-45.111	0.100
616.300	-36.696	0.100
616.400	-36.541	0.100
616.500	-30.884	0.100
616.600	-29.858	0.100
616.700	-26.646	0.100
616.800	-25.635	0.100
616.900	-35.902	0.100
617.000	-41.275	0.100
617.100	-30.313	0.100
617.200	-22.809	0.100
617.300	-24.069	0.100
617.400	-38.997	0.100
617.500	-40.447	0.100
617.600	-31.509	0.100
617.700	-34.552	0.100
617.800	-31.878	0.100
617.900	-35.166	0.100
618.000	-26.402	0.100
618.100	-31.338	0.100
618.200	-22.935	0.100
618.300	-27.306	0.100
618.400	-26.954	0.100
618.500	-30.025	0.100
618.600	-38.219	0.100
618.700	-25.307	0.100
618.800	-39.797	0.100
618.900	-34.174	0.100
619.000	-10.417	0.100
619.100	-27.626	0.100
619.200	-39.000	0.100
619.300	-45.769	0.100
619.400	-29.982	0.100
619.500	-45.533	0.100
619.600	-29.147	0.100
619.700	-36.474	0.100
619.800	-38.204	0.100
619.900	-36.068	0.100
620.000	-34.375	0.100
620.100	-32.462	0.100
620.200	-31.667	0.100
620.300	-22.702	0.100
620.400	-27.013	0.100
620.500	-41.997	0.100
620.600	-16.876	0.100
620.700	-36.876	0.100
620.800	-31.588	0.100
620.900	-16.769	0.100
621.000	-29.699	0.100
621.100	-34.134	0.100
621.200	-38.318	0.100
621.300	-34.205	0.100
621.400	-30.119	0.100
621.500	-19.065	0.100
621.600	-20.426	0.100
621.700	-30.054	0.100
621.800	-20.145	0.100
621.900	-38.475	0.100
622.000	-25.431	0.100
622.100	-30.665	0.100
622.200	-38.869	0.100
622.300	-28.233	0.100
622.400	-14.552	0.100
622.500	-29.654	0.100
622.600	-35.999	0.100
622.700	-39.011	0.100
622.800	-29.948	0.100
622.900	-21.089	0.100
623.000	-8.873	0.100
623.100	-33.844	0.100
623.200	-28.478	0.100
623.300	-35.734	0.100
623.400	-27.803	0.100
623.500	-32.280	0.100
623.600	-29.600	0.100
623.700	-37.811	0.100
623.800	-28.158	0.100
623.900	-32.383	0.100
624.000	-27.799	0.100
624.100	-31.078	0.100
624.200	-37.519	0.100
624.300	-33.538	0.100
624.400	-20.174	0.100
624.500	-23.055	0.100
624.600	-39.492	0.100
624.700	-25.683	0.100
624.800	-32.745	0.100
624.900	-25.722	0.100
625.000	-42.555	0.100
625.100	-29.240	0.100
625.200	-26.274	0.100
625.300	-47.327	0.100
625.400	-20.308	0.100
625.500	-27.824	0.100
625.600	-35.973	0.100
625.700	-30.268	0.100
625.800	-28.416	0.100
625.900	-32.408	0.100
626.000	-33.567	0.100
626.100	-30.025	0.100
626.200	-28.736	0.100
626.300	-33.291	0.100
626.400	-37.607	0.100
626.500	-29.121	0.100
626.600	-24.260	0.100
626.700	-35.242	0.100
626.800	-34.772	0.100
626.900	-20.855	0.100
627.000	-26.688	0.100
627.100	-24.618	0.100
627.200	-14.222	0.100
627.300	-28.986	0.100
627.400	-38.879	0.100
627.500	-33.895	0.100
627.600	-43.073	0.100
627.700	-22.360	0.100
627.800	-31.376	0.100
627.900	-22.653	0.100
628.000	-39.254	0.100
628.100	-42.474	0.100
628.200	-38.611	0.100
628.300	-32.286	0.100
628.400	-19.406	0.100
628.500	-23.635	0.100
628.600	-27.893	0.100
628.700	-29.504	0.100
628.800	-42.836	0.100
628.900	-28.388	0.100
629.000	-34.368	0.100
629.100	-23.545	0.100
629.200	-27.757	0.100
629.300	-26.052	0.100
629.400	-27.151	0.100
629.500	-29.637	0.100
629.600	-42.725	0.100
629.700	-24.471	0.100
629.800	-30.063	0.100
629.900	-24.008	0.100
630.000	-20.841	0.100
630.100	3.073	0.100
630.200	9.638	0.100
630.300	9.944	0.100
630.400	10.021	0.100
630.500	22.437	0.100
630.600	34.196	0.100
630.700	31.203	0.100
630.800	28.384	0.100
630.900	24.885	0.100
631.000	23.277	0.100
631.100	23.899	0.100
631.200	39.472	0.100
631.300	40.939	0.100
631.400	34.340	0.100
631.500	26.840	0.100
631.600	18.800	0.100
631.700	26.285	0.100
631.800	19.978	0.100
631.900	26.465	0.100
632.000	26.000	0.100
632.100	14.361	0.100
632.200	29.950	0.100
632.300	32.764	0.100
632.400	7.642	0.100
632.500	4.939	0.100
632.600	10.050	0.100
632.700	14.409	0.100
632.800	14.063	0.100
632.900	18.476	0.100
633.000	11.503	0.100
633.100	21.874	0.100
633.200	17.885	0.100
633.300	21.592	0.100
633.400	14.336	0.100
633.500	15.844	0.100
633.600	23.241	0.100
633.700	2.136	0.100
633.800	9.764	0.100
633.900	10.281	0.100
634.000	20.056	0.100
634.100	13.942	0.100
634.200	30.548	0.100
634.300	21.545	0.100
634.400	20.551	0.100
634.500	19.126	0.100
634.600	12.360	0.100
634.700	23.657	0.100
634.800	13.957	0.100
634.900	23.466	0.100
635.000	19.627	0.100
635.100	28.872	0.100
635.200	9.137	0.100
635.300	27.876	0.100
635.400	4.037	0.100
635.500	28.875	0.100
635.600	14.020	0.100
635.700	19.306	0.100
635.800	25.382	0.100
635.900	16.086	0.100
636.000	30.962	0.100
636.100	23.756	0.100
636.200	23.171	0.100
636.300	19.005	0.100
636.400	21.740	0.100
636.500	13.006	0.100
636.600	32.065	0.100
636.700	23.789	0.100
636.800	22.061	0.100
636.900	20.182	0.100
637.000	28.745	0.100
637.100	29.447	0.100
637.200	29.039	0.100
637.300	25.795	0.100
637.400	25.651	0.100
637.500	26.325	0.100
637.600	29.997	0.100
637.700	18.350	0.100
637.800	32.440	0.100
637.900	29.620	0.100
638.000	22.795	0.100
638.100	30.833	0.100
638.200	41.623	0.100
638.300	37.975	0.100
638.400	42.948	0.100
638.500	38.205	0.100
638.600	30.113	0.100
638.700	43.470	0.100
638.800	47.790	0.100
638.900	38.461	0.100
639.000	49.458	0.100
639.100	41.450	0.100
639.200	46.808	0.100
639.300	29.435	0.100
639.400	43.135	0.100
639.500	52.387	0.100
639.600	46.407	0.100
639.700	46.578	0.100
639.800	52.092	0.100
639.900	34.018	0.100
640.000	43.686	0.100
640.100	57.412	0.100
640.200	52.214	0.100
640.300	48.257	0.100
640.400	48.960	0.100
640.500	51.560	0.100
640.600	55.084	0.100
640.700	61.158	0.100
640.800	49.527	0.100
640.900	57.834	0.100
641.000	56.723	0.100
641.100	48.338	0.100
641.200	62.583	0.100
641.300	54.052	0.100
641.400	60.963	0.100
641.500	57.068	0.100
641.600	45.862	0.100
641.700	57.045	0.100
641.800	54.479	0.100
641.900	54.664	0.100
642.000	53.961	0.100
642.100	58.718	0.100
642.200	61.690	0.100
642.300	60.279	0.100
642.400	57.997	0.100
642.500	62.914	0.100
642.600	53.787	0.100
642.700	59.388	0.100
642.800	53.281	0.100
642.900	60.203	0.100
643.000	63.179	0.100
643.100	73.534	0.100
643.200	64.282	0.100
643.300	69.217	0.100
643.400	58.676	0.100
643.500	73.017	0.100
643.600	65.770	0.100
643.700	65.654	0.100
643.800	68.561	0.100
643.900	55.018	0.100
644.000	58.623	0.100
644.100	60.495	0.100
644.200	74.429	0.100
644.300	55.670	0.100
644.400	56.737	0.100
644.500	60.356	0.100
644.600	59.222	0.100
644.700	64.668	0.100
644.800	70.139	0.100
644.900	70.093	0.100
645.000	67.844	0.100
645.100	66.006	0.100
645.200	59.279	0.100
645.300	66.454	0.100
645.400	72.456	0.100
645.500	39.932	0.100
645.600	61.798	0.100
645.700	56.699	0.100
645.800	52.425	0.100
645.900	66.186	0.100
646.000	72.906	0.100
646.100	60.497	0.100
646.200	68.911	0.100
646.300	54.162	0.100
646.400	63.909	0.100
646.500	68.106	0.100
646.600	60.042	0.100
646.700	67.299	0.100
646.800	68.943	0.100
646.900	57.551	0.100
647.000	57.773	0.100
647.100	61.820	0.100
647.200	71.163	0.100
647.300	67.586	0.100
647.400	65.504	0.100
647.500	62.522	0.100
647.600	73.644	0.100
647.700	47.898	0.100
647.800	59.502	0.100
647.900	62.086	0.100
648.000	65.718	0.100
648.100	61.678	0.100
648.200	64.349	0.100
648.300	54.814	0.100
648.400	77.365	0.100
648.500	57.410	0.100
648.600	69.701	0.100
648.700	68.795	0.100
648.800	70.083	0.100
648.900	69.694	0.100
649.000	76.451	0.100
649.100	45.456	0.100
649.200	59.692	0.100
649.300	73.481	0.100
649.400	59.397	0.100
649.500	59.880	0.100
649.600	68.717	0.100
649.700	59.595	0.100
649.800	60.286	0.100
649.900	54.686	0.100
650.000	77.350	0.100
650.100	59.711	0.100
650.200	64.530	0.100
650.300	68.963	0.100
650.400	60.448	0.100
650.500	64.958	0.100
650.600	66.869	0.100
650.700	64.357	0.100
650.800	53.975	0.100
650.900	62.713	0.100
651.000	62.812	0.100
651.100	60.428	0.100
651.200	56.072	0.100
651.300	50.021	0.100
651.400	54.639	0.100
651.500	58.249	0.100
651.600	74.330	0.100
651.700	65.104	0.100
651.800	66.107	0.100
651.900	66.810	0.100
652.000	64.865	0.100
652.100	58.385	0.100
652.200	59.755	0.100
652.300	68.711	0.100
652.400	72.003	0.100
652.500	60.215	0.100
652.600	64.899	0.100
652.700	63.009	0.100
652.800	67.824	0.100
652.900	68.263	0.100
653.000	69.406	0.100
653.100	44.629	0.100
653.200	55.262	0.100
653.300	53.779	0.100
653.400	58.672	0.100
653.500	72.665	0.100
653.600	57.812	0.100
653.700	65.464	0.100
653.800	56.888	0.100
653.900	60.264	0.100
654.000	63.471	0.100
654.100	63.294	0.100
654.200	62.352	0.100
654.300	68.113	0.100
654.400	45.744	0.100
654.500	54.727	0.100
654.600	65.587	0.100
654.700	61.827	0.100
654.800	57.144	0.100
654.900	66.081	0.100
655.000	62.894	0.100
655.100	53.663	0.100
655.200	65.935	0.100
655.300	52.843	0.100
655.400	40.725	0.100
655.500	64.497	0.100
655.600	64.509	0.100
655.700	70.529	0.100
655.800	74.565	0.100
655.900	68.177	0.100
656.000	60.702	0.100
656.100	45.355	0.100
656.200	58.053	0.100
656.300	65.382	0.100
656.400	65.896	0.100
656.500	71.684	0.100
656.600	60.580	0.100
656.700	55.586	0.100
656.800	50.606	0.100
656.900	63.486	0.100
657.000	67.605	0.100
657.100	62.099	0.100
657.200	59.229	0.100
657.300	57.239	0.100
657.400	55.733	0.100
657.500	54.205	0.100
657.600	73.796	0.100
657.700	69.289	0.100
657.800	66.640	0.100
657.900	56.667	0.100
658.000	52.918	0.100
658.100	64.946	0.100
658.200	64.604	0.100
658.300	63.699	0.100
658.400	61.582	0.100
658.500	49.247	0.100
658.600	58.576	0.100
658.700	64.516	0.100
658.800	56.468	0.100
658.900	59.558	0.100
659.000	57.980	0.100
659.100	45.815	0.100
659.200	68.006	0.100
659.300	62.213	0.100
659.400	63.509	0.100
659.500	55.911	0.100
659.600	42.336	0.100
659.700	56.631	0.100
659.800	70.207	0.100
659.900	71.645	0.100
660.000	61.266	0.100
660.100	58.106	0.100
660.200	55.543	0.100
660.300	49.329	0.100
660.400	61.117	0.100
660.500	68.126	0.100
660.600	62.270	0.100
660.700	58.181	0.100
660.800	58.203	0.100
660.900	50.324	0.100
661.000	57.460	0.100
661.100	60.391	0.100
661.200	73.517	0.100
661.300	66.609	0.100
661.400	52.064	0.100
661.500	48.600	0.100
661.600	62.770	0.100
661.700	66.516	0.100
661.800	59.353	0.100
661.900	55.080	0.100
662.000	51.931	0.100
662.100	63.101	0.100
662.200	46.710	0.100
662.300	62.533	0.100
662.400	62.905	0.100
662.500	56.798	0.100
662.600	40.495	0.100
662.700	59.057	0.100
662.800	59.805	0.100
662.900	57.948	0.100
663.000	66.883	0.100
663.100	56.506	0.100
663.200	54.361	0.100
663.300	46.145	0.100
663.400	65.067	0.100
663.500	61.844	0.100
663.600	57.234	0.100
663.700	54.998	0.100
663.800	61.724	0.100
663.900	47.526	0.100
664.000	65.708	0.100
664.100	56.711	0.100
664.200	63.410	0.100
664.300	59.980	0.100
664.400	42.235	0.100
664.500	57.238	0.100
664.600	59.456	0.100
664.700	61.711	0.100
664.800	56.064	0.100
664.900	61.833	0.100
665.000	50.362	0.100
665.100	54.522	0.100
665.200	61.732	0.100
665.300	58.978	0.100
665.400	60.920	0.100
665.500	48.558	0.100
665.600	63.625	0.100
665.700	57.889	0.100
665.800	57.169	0.100
665.900	63.064	0.100
666.000	55.556	0.100
666.100	60.480	0.100
666.200	43.353	0.100
666.300	58.793	0.100
666.400	59.376	0.100
666.500	55.147	0.100
666.600	51.228	0.100
666.700	58.931	0.100
666.800	52.266	0.100
666.900	38.737	0.100
667.000	59.884	0.100
667.100	63.911	0.100
667.200	57.585	0.100
667.300	57.422	0.100
667.400	57.191	0.100
667.500	55.451	0.100
667.600	49.839	0.100
667.700	63.254	0.100
667.800	48.784	0.100
667.900	53.317	0.100
668.000	54.481	0.100
668.100	60.462	0.100
668.200	60.900	0.100
668.300	58.085	0.100
668.400	57.332	0.100
668.500	53.452	0.100
668.600	59.386	0.100
668.700	51.272	0.100
668.800	54.453	0.100
668.900	37.991	0.100
669.000	53.530	0.100
669.100	60.612	0.100
669.200	59.387	0.100
669.300	56.164	0.100
669.400	54.408	0.100
669.500	59.244	0.100
669.600	49.647	0.100
669.700	66.762	0.100
669.800	63.290	0.100
669.900	50.249	0.100
670.000	54.586	0.100
670.100	53.913	0.100
670.200	51.526	0.100
670.300	58.898	0.100
670.400	57.995	0.100
670.500	66.415	0.100
670.600	56.140	0.100
670.700	45.383	0.100
670.800	54.553	0.100
670.900	57.298	0.100
671.000	56.669	0.100
671.100	54.891	0.100
671.200	55.769	0.100
671.300	51.591	0.100
671.400	54.164	0.100
671.500	60.169	0.100
671.600	53.863	0.100
671.700	51.663	0.100
671.800	57.634	0.100
671.900	61.103	0.100
672.000	64.245	0.100
672.100	54.578	0.100
672.200	57.012	0.100
672.300	62.500	0.100
672.400	50.650	0.100
672.500	47.945	0.100
672.600	47.893	0.100
672.700	48.520	0.100
672.800	60.893	0.100
672.900	64.295	0.100
673.000	57.581	0.100
673.100	53.496	0.100
673.200	64.038	0.100
673.300	59.589	0.100
673.400	55.506	0.100
673.500	51.933	0.100
673.600	49.881	0.100
673.700	57.776	0.100
673.800	56.985	0.100
673.900	49.107	0.100
674.000	62.075	0.100
674.100	42.238	0.100
674.200	55.137	0.100
674.300	54.193	0.100
674.400	49.344	0.100
674.500	49.768	0.100
674.600	57.797	0.100
674.700	60.814	0.100
674.800	51.413	0.100
674.900	45.162	0.100
675.000	56.303	0.100
675.100	61.115	0.100
675.200	54.779	0.100
675.300	51.686	0.100
675.400	47.165	0.100
675.500	54.779	0.100
675.600	58.603	0.100
675.700	45.709	0.100
675.800	47.182	0.100
675.900	67.320	0.100
676.000	49.089	0.100
676.100	60.917	0.100
676.200	50.876	0.100
676.300	62.021	0.100
676.400	48.129	0.100
676.500	55.586	0.100
676.600	39.674	0.100
676.700	48.600	0.100
676.800	50.218	0.100
676.900	59.171	0.100
677.000	61.046	0.100
677.100	51.187	0.100
677.200	54.471	0.100
677.300	31.578	0.100
677.400	56.330	0.100
677.500	58.948	0.100
677.600	59.568	0.100
677.700	56.806	0.100
677.800	52.750	0.100
677.900	46.037	0.100
678.000	62.646	0.100
678.100	53.891	0.100
678.200	52.362	0.100
678.300	46.904	0.100
678.400	56.670	0.100
678.500	38.025	0.100
678.600	47.957	0.100
678.700	50.627	0.100
678.800	45.635	0.100
678.900	54.175	0.100
679.000	48.663	0.100
679.100	46.265	0.100
679.200	62.153	0.100
679.300	55.051	0.100
679.400	53.765	0.100
679.500	52.961	0.100
679.600	53.799	0.100
679.700	47.302	0.100
679.800	42.849	0.100
679.900	54.554	0.100
680.000	55.654	0.100
680.100	51.102	0.100
680.200	58.055	0.100
680.300	46.012	0.100
680.400	43.667	0.100
680.500	51.084	0.100
680.600	63.995	0.100
680.700	52.231	0.100
680.800	46.460	0.100
680.900	53.049	0.100
681.000	64.549	0.100
681.100	63.155	0.100
681.200	39.332	0.100
681.300	54.092	0.100
681.400	38.836	0.100
681.500	54.610	0.100
681.600	51.313	0.100
681.700	46.569	0.100
681.800	56.828	0.100
681.900	54.064	0.100
682.000	50.461	0.100
682.100	50.383	0.100
682.200	56.539	0.100
682.300	61.180	0.100
682.400	45.649	0.100
682.500	57.099	0.100
682.600	53.318	0.100
682.700	39.481	0.100
682.800	44.399	0.100
682.900	51.588	0.100
683.000	36.982	0.100
683.100	57.148	0.100
683.200	53.716	0.100
683.300	59.677	0.100
683.400	47.070	0.100
683.500	66.344	0.100
683.600	53.355	0.100
683.700	40.444	0.100
683.800	61.683	0.100
683.900	64.905	0.100
684.000	44.261	0.100
684.100	42.748	0.100
684.200	49.245	0.100
684.300	51.809	0.100
684.400	50.208	0.100
684.500	45.680	0.100
684.600	52.561	0.100
684.700	47.585	0.100
684.800	55.919	0.100
684.900	42.427	0.100
685.000	47.502	0.100
685.100	56.765	0.100
685.200	57.013	0.100
685.300	43.800	0.100
685.400	41.495	0.100
685.500	38.912	0.100
685.600	56.108	0.100
685.700	52.539	0.100
685.800	57.349	0.100
685.900	45.211	0.100
686.000	47.049	0.100
686.100	53.082	0.100
686.200	61.700	0.100
686.300	52.064	0.100
686.400	50.977	0.100
686.500	47.869	0.100
686.600	52.682	0.100
686.700	53.792	0.100
686.800	47.125	0.100
686.900	49.491	0.100
687.000	52.812	0.100
687.100	61.492	0.100
687.200	36.778	0.100
687.300	54.906	0.100
687.400	53.353	0.100
687.500	47.057	0.100
687.600	59.460	0.100
687.700	50.003	0.100
687.800	41.251	0.100
687.900	49.453	0.100
688.000	60.427	0.100
688.100	50.672	0.100
688.200	46.645	0.100
688.300	62.347	0.100
688.400	53.560	0.100
688.500	53.528	0.100
688.600	45.849	0.100
688.700	48.707	0.100
688.800	47.836	0.100
688.900	36.336	0.100
689.000	47.201	0.100
689.100	42.871	0.100
689.200	52.727	0.100
689.300	50.454	0.100
689.400	54.005	0.100
689.500	45.568	0.100
689.600	48.346	0.100
689.700	42.202	0.100
689.800	50.489	0.100
689.900	47.305	0.100
690.000	30.186	0.100
690.100	34.218	0.100
690.200	23.393	0.100
690.300	24.480	0.100
690.400	29.447	0.100
690.500	22.389	0.100
690.600	4.412	0.100
690.700	13.438	0.100
690.800	14.367	0.100
690.900	15.454	0.100
691.000	2.831	0.100
691.100	10.251	0.100
691.200	-5.499	0.100
691.300	7.658	0.100
691.400	-4.040	0.100
691.500	2.768	0.100
691.600	6.364	0.100
691.700	-2.437	0.100
691.800	-12.494	0.100
691.900	0.256	0.100
692.000	-9.647	0.100
692.100	-6.070	0.100
692.200	-5.856	0.100
692.300	-23.743	0.100
692.400	-11.442	0.100
692.500	-18.557	0.100
692.600	-15.541	0.100
692.700	5.713	0.100
692.800	-9.625	0.100
692.900	-9.098	0.100
693.000	-10.254	0.100
693.100	-10.634	0.100
693.200	-26.056	0.100
693.300	-18.502	0.100
693.400	-21.527	0.100
693.500	-18.417	0.100
693.600	-15.296	0.100
693.700	-22.844	0.100
693.800	-35.145	0.100
693.900	-21.564	0.100
694.000	-21.794	0.100
694.100	-24.386	0.100
694.200	-29.378	0.100
694.300	-22.341	0.100
694.400	-19.450	0.100
694.500	-34.016	0.100
694.600	-35.897	0.100
694.700	-35.878	0.100
694.800	-34.192	0.100
694.900	-38.248	0.100
695.000	-32.062	0.100
695.100	-25.741	0.100
695.200	-33.898	0.100
695.300	-30.726	0.100
695.400	-49.016	0.100
695.500	-27.354	0.100
695.600	-20.603	0.100
695.700	-37.717	0.100
695.800	-47.412	0.100
695.900	-39.616	0.100
696.000	-42.507	0.100
696.100	-26.675	0.100
696.200	-30.097	0.100
696.300	-39.909	0.100
696.400	-40.009	0.100
696.500	-48.042	0.100
696.600	-54.890	0.100
696.700	-38.054	0.100
696.800	-26.600	0.100
696.900	-27.170	0.100
697.000	-36.396	0.100
697.100	-31.993	0.100
697.200	-28.721	0.100
697.300	-35.387	0.100
697.400	-32.969	0.100
697.500	-18.615	0.100
697.600	-36.185	0.100
697.700	-36.547	0.100
697.800	-38.944	0.100
697.900	-28.694	0.100
698.000	-27.530	0.100
698.100	-27.220	0.100
698.200	-24.522	0.100
698.300	-27.331	0.100
698.400	-37.632	0.100
698.500	-34.144	0.100
698.600	-34.515	0.100
698.700	-22.359	0.100
698.800	-30.697	0.100
698.900	-33.922	0.100
699.000	-17.115	0.100
699.100	-33.252	0.100
699.200	-37.248	0.100
699.300	-31.710	0.100
699.400	-23.531	0.100
699.500	-41.241	0.100
699.600	-37.636	0.100
699.700	-33.381	0.100
699.800	-26.207	0.100
699.900	-30.209	0.100
700.000	-48.987	0.100
700.100	-38.638	0.100
700.200	-22.761	0.100
700.300	-33.450	0.100
700.400	-30.122	0.100
700.500	-28.158	0.100
700.600	-38.830	0.100
700.700	-32.450	0.100
700.800	-44.817	0.100
700.900	-26.155	0.100
701.000	-26.949	0.100
701.100	-47.792	0.100
701.200	-34.763	0.100
701.300	-19.461	0.100
701.400	-32.767	0.100
701.500	-21.959	0.100
701.600	-34.584	0.100
701.700	-30.345	0.100
701.800	-25.159	0.100
701.900	-41.768	0.100
702.000	-26.287	0.100
702.100	-36.008	0.100
702.200	-22.263	0.100
702.300	-47.136	0.100
702.400	-37.335	0.100
702.500	-31.390	0.100
702.600	-32.174	0.100
702.700	-21.648	0.100
702.800	-29.613	0.100
702.900	-28.987	0.100
703.000	-39.011	0.100
703.100	-32.108	0.100
703.200	-25.970	0.100
703.300	-40.866	0.100
703.400	-31.621	0.100
703.500	-35.061	0.100
703.600	-40.413	0.100
703.700	-41.107	0.100
703.800	-24.704	0.100
703.900	-27.062	0.100
704.000	-29.745	0.100
704.100	-27.449	0.100
704.200	-31.847	0.100
704.300	-32.237	0.100
704.400	-32.273	0.100
704.500	-28.915	0.100
704.600	-31.521	0.100
704.700	-40.992	0.100
704.800	-48.994	0.100
704.900	-35.876	0.100
705.000	-38.477	0.100
705.100	-26.075	0.100
705.200	-38.242	0.100
705.300	-39.408	0.100
705.400	-33.648	0.100
705.500	-40.184	0.100
705.600	-44.571	0.100
705.700	-21.224	0.100
705.800	-32.791	0.100
705.900	-37.849	0.100
706.000	-25.278	0.100
706.100	-33.909	0.100
706.200	-24.106	0.100
706.300	-30.710	0.100
706.400	-43.637	0.100
706.500	-50.133	0.100
706.600	-34.409	0.100
706.700	-29.123	0.100
706.800	-40.192	0.100
706.900	-30.641	0.100
707.000	-39.536	0.100
707.100	-39.986	0.100
707.200	-33.829	0.100
707.300	-21.538	0.100
707.400	-39.101	0.100
707.500	-33.896	0.100
707.600	-41.989	0.100
707.700	-35.571	0.100
707.800	-36.547	0.100
707.900	-34.484	0.100
708.000	-27.510	0.100
708.100	-35.417	0.100
708.200	-30.006	0.100
708.300	-52.204	0.100
708.400	-26.973	0.100
708.500	-37.281	0.100
708.600	-31.460	0.100
708.700	-26.792	0.100
708.800	-40.306	0.100
708.900	-38.536	0.100
709.000	-29.849	0.100
709.100	-30.809	0.100
709.200	-32.707	0.100
709.300	-39.313	0.100
709.400	-54.540	0.100
709.500	-42.283	0.100
709.600	-31.552	0.100
709.700	-28.115	0.100
709.800	-33.862	0.100
709.900	-29.593	0.100
710.000	-30.845	0.100
710.100	-54.289	0.100
710.200	-33.010	0.100
710.300	-32.605	0.100
710.400	-30.750	0.100
710.500	-28.729	0.100
710.600	-45.422	0.100
710.700	-50.641	0.100
710.800	-29.839	0.100
710.900	-38.128	0.100
711.000	-30.875	0.100
711.100	-40.318	0.100
711.200	-41.670	0.100
711.300	-61.950	0.100
711.400	-44.615	0.100
711.500	-36.597	0.100
711.600	-39.272	0.100
711.700	-44.132	0.100
711.800	-22.702	0.100
711.900	-32.618	0.100
712.000	-37.037	0.100
712.100	-35.617	0.100
712.200	-35.458	0.100
712.300	-34.062	0.100
712.400	-42.283	0.100
712.500	-36.617	0.100
712.600	-31.756	0.100
712.700	-34.879	0.100
712.800	-52.458	0.100
712.900	-45.069	0.100
713.000	-28.154	0.100
713.100	-36.578	0.100
713.200	-48.092	0.100
713.300	-30.870	0.100
713.400	-33.960	0.100
713.500	-56.084	0.100
713.600	-34.623	0.100
713.700	-24.224	0.100
713.800	-29.144	0.100
713.900	-46.268	0.100
714.000	-44.338	0.100
714.100	-28.374	0.100
714.200	-43.644	0.100
714.300	-28.554	0.100
714.400	-34.873	0.100
714.500	-41.952	0.100
714.600	-40.956	0.100
714.700	-40.467	0.100
714.800	-41.406	0.100
714.900	-39.469	0.100
715.000	-37.189	0.100
715.100	-40.959	0.100
715.200	-48.755	0.100
715.300	-35.595	0.100
715.400	-31.722	0.100
715.500	-35.326	0.100
715.600	-35.902	0.100
715.700	-44.736	0.100
715.800	-39.879	0.100
715.900	-53.982	0.100
716.000	-35.981	0.100
716.100	-32.688	0.100
716.200	-45.929	0.100
716.300	-46.079	0.100
716.400	-39.897	0.100
716.500	-36.647	0.100
716.600	-35.203	0.100
716.700	-49.408	0.100
716.800	-39.651	0.100
716.900	-46.684	0.100
717.000	-38.057	0.100
717.100	-38.755	0.100
717.200	-30.454	0.100
717.300	-28.204	0.100
717.400	-36.112	0.100
717.500	-59.759	0.100
717.600	-40.136	0.100
717.700	-33.622	0.100
717.800	-30.585	0.100
717.900	-35.685	0.100
718.000	-42.582	0.100
718.100	-39.399	0.100
718.200	-34.302	0.100
718.300	-48.601	0.100
718.400	-43.635	0.100
718.500	-36.992	0.100
718.600	-42.632	0.100
718.700	-48.906	0.100
718.800	-46.326	0.100
718.900	-40.381	0.100
719.000	-38.893	0.100
719.100	-46.203	0.100
719.200	-36.038	0.100
719.300	-42.877	0.100
719.400	-47.582	0.100
719.500	-49.143	0.100
719.600	-45.525	0.100
719.700	-40.531	0.100
719.800	-35.074	0.100
719.900	-47.678	0.100
720.000	-38.304	0.100
720.100	-48.441	0.100
720.200	-42.110	0.100
720.300	-28.519	0.100
720.400	-42.186	0.100
720.500	-52.780	0.100
720.600	-36.896	0.100
720.700	-37.283	0.100
720.800	-30.315	0.100
720.900	-45.609	0.100
721.000	-42.755	0.100
721.100	-44.252	0.100
721.200	-41.397	0.100
721.300	-39.178	0.100
721.400	-38.849	0.100
721.500	-39.903	0.100
721.600	-36.588	0.100
721.700	-43.216	0.100
721.800	-41.645	0.100
721.900	-41.042	0.100
722.000	-40.037	0.100
722.100	-39.333	0.100
722.200	-45.344	0.100
722.300	-34.253	0.100
722.400	-58.449	0.100
722.500	-36.788	0.100
722.600	-27.768	0.100
722.700	-51.223	0.100
722.800	-47.864	0.100
722.900	-43.894	0.100
723.000	-46.198	0.100
723.100	-47.904	0.100
723.200	-34.742	0.100
723.300	-37.497	0.100
723.400	-43.758	0.100
723.500	-49.608	0.100
723.600	-31.519	0.100
723.700	-38.971	0.100
723.800	-39.678	0.100
723.900	-37.167	0.100
724.000	-42.361	0.100
724.100	-36.779	0.100
724.200	-38.112	0.100
724.300	-45.663	0.100
724.400	-53.067	0.100
724.500	-43.194	0.100
724.600	-46.973	0.100
724.700	-38.218	0.100
724.800	-35.861	0.100
724.900	-39.603	0.100
725.000	-44.455	0.100
725.100	-43.654	0.100
725.200	-45.665	0.100
725.300	-47.276	0.100
725.400	-41.321	0.100
725.500	-36.637	0.100
725.600	-50.378	0.100
725.700	-58.709	0.100
725.800	-48.944	0.100
725.900	-41.685	0.100
726.000	-27.298	0.100
726.100	-33.635	0.100
726.200	-38.338	0.100
726.300	-38.806	0.100
726.400	-46.633	0.100
726.500	-46.363	0.100
726.600	-47.053	0.100
726.700	-40.869	0.100
726.800	-45.668	0.100
726.900	-28.125	0.100
727.000	-59.706	0.100
727.100	-50.370	0.100
727.200	-40.823	0.100
727.300	-41.639	0.100
727.400	-35.265	0.100
727.500	-36.038	0.100
727.600	-43.101	0.100
727.700	-44.844	0.100
727.800	-38.296	0.100
727.900	-38.913	0.100
728.000	-45.921	0.100
728.100	-42.101	0.100
728.200	-47.395	0.100
728.300	-38.323	0.100
728.400	-38.887	0.100
728.500	-45.535	0.100
728.600	-37.074	0.100
728.700	-38.847	0.100
728.800	-38.222	0.100
728.900	-42.438	0.100
729.000	-51.941	0.100
729.100	-32.778	0.100
729.200	-43.100	0.100
729.300	-51.009	0.100
729.400	-46.685	0.100
729.500	-35.162	0.100
729.600	-41.560	0.100
729.700	-44.192	0.100
729.800	-50.414	0.100
729.900	-39.296	0.100
730.000	-48.976	0.100
730.100	-58.036	0.100
730.200	-52.717	0.100
730.300	-28.925	0.100
730.400	-46.561	0.100
730.500	-44.153	0.100
730.600	-50.275	0.100
730.700	-35.771	0.100
730.800	-44.053	0.100
730.900	-45.726	0.100
731.000	-46.203	0.100
731.100	-52.911	0.100
731.200	-35.131	0.100
731.300	-42.385	0.100
731.400	-41.324	0.100
731.500	-42.524	0.100
731.600	-46.529	0.100
731.700	-46.128	0.100
731.800	-28.026	0.100
731.900	-39.188	0.100
732.000	-40.052	0.100
732.100	-42.470	0.100
732.200	-43.942	0.100
732.300	-40.232	0.100
732.400	-43.673	0.100
732.500	-45.630	0.100
732.600	-42.054	0.100
732.700	-43.625	0.100
732.800	-39.461	0.100
732.900	-40.748	0.100
733.000	-43.233	0.100
733.100	-31.094	0.100
733.200	-29.790	0.100
733.300	-46.334	0.100
733.400	-45.557	0.100
733.500	-43.501	0.100
733.600	-37.611	0.100
733.700	-28.113	0.100
733.800	-42.606	0.100
733.900	-51.033	0.100
734.000	-48.079	0.100
734.100	-44.660	0.100
734.200	-43.943	0.100
734.300	-39.785	0.100
734.400	-41.458	0.100
734.500	-36.399	0.100
734.600	-45.652	0.100
734.700	-42.692	0.100
734.800	-36.750	0.100
734.900	-48.851	0.100
735.000	-47.097	0.100
735.100	-46.363	0.100
735.200	-40.281	0.100
735.300	-40.310	0.100
735.400	-57.008	0.100
735.500	-16.183	0.100
735.600	-42.773	0.100
735.700	-58.937	0.100
735.800	-42.128	0.100
735.900	-39.216	0.100
736.000	-37.632	0.100
736.100	-28.421	0.100
736.200	-42.587	0.100
736.300	-37.908	0.100
736.400	-43.648	0.100
736.500	-30.330	0.100
736.600	-45.465	0.100
736.700	-44.364	0.100
736.800	-34.312	0.100
736.900	-34.646	0.100
737.000	-42.301	0.100
737.100	-38.771	0.100
737.200	-36.537	0.100
737.300	-50.966	0.100
737.400	-40.208	0.100
737.500	-52.016	0.100
737.600	-59.179	0.100
737.700	-33.691	0.100
737.800	-43.930	0.100
737.900	-29.610	0.100
738.000	-45.518	0.100
738.100	-37.283	0.100
738.200	-58.332	0.100
738.300	-36.290	0.100
738.400	-41.158	0.100
738.500	-43.730	0.100
738.600	-47.292	0.100
738.700	-42.358	0.100
738.800	-34.808	0.100
738.900	-36.265	0.100
739.000	-30.388	0.100
739.100	-28.613	0.100
739.200	-37.490	0.100
739.300	-47.297	0.100
739.400	-44.794	0.100
739.500	-36.682	0.100
739.600	-22.593	0.100
739.700	-46.645	0.100
739.800	-35.270	0.100
739.900	-42.255	0.100
740.000	-40.962	0.100
740.100	-44.642	0.100
740.200	-34.674	0.100
740.300	-39.713	0.100
740.400	-31.048	0.100
740.500	-43.328	0.100
740.600	-42.954	0.100
740.700	-28.988	0.100
740.800	-39.697	0.100
740.900	-38.359	0.100
741.000	-36.198	0.100
741.100	-52.390	0.100
741.200	-27.933	0.100
741.300	-32.706	0.100
741.400	-35.190	0.100
741.500	-38.988	0.100
741.600	-46.139	0.100
741.700	-32.571	0.100
741.800	-33.130	0.100
741.900	-26.117	0.100
742.000	-34.370	0.100
742.100	-48.873	0.100
742.200	-40.193	0.100
742.300	-46.177	0.100
742.400	-22.832	0.100
742.500	-29.934	0.100
742.600	-43.321	0.100
742.700	-33.838	0.100
742.800	-41.363	0.100
742.900	-39.904	0.100
743.000	-40.227	0.100
743.100	-33.272	0.100
743.200	-41.091	0.100
743.300	-45.132	0.100
743.400	-40.355	0.100
743.500	-43.876	0.100
743.600	-42.103	0.100
743.700	-33.651	0.100
743.800	-40.895	0.100
743.900	-47.113	0.100
744.000	-40.041	0.100
744.100	-36.424	0.100
744.200	-33.375	0.100
744.300	-33.087	0.100
744.400	-31.558	0.100
744.500	-34.551	0.100
744.600	-32.595	0.100
744.700	-31.662	0.100
744.800	-38.955	0.100
744.900	-49.128	0.100
745.000	-43.704	0.100
745.100	-40.725	0.100
745.200	-41.094	0.100
745.300	-38.892	0.100
745.400	-41.780	0.100
745.500	-41.708	0.100
745.600	-34.671	0.100
745.700	-43.620	0.100
745.800	-38.933	0.100
745.900	-33.597	0.100
746.000	-42.769	0.100
746.100	-31.837	0.100
746.200	-45.079	0.100
746.300	-48.672	0.100
746.400	-41.509	0.100
746.500	-37.772	0.100
746.600	-20.810	0.100
746.700	-46.067	0.100
746.800	-38.430	0.100
746.900	-42.977	0.100
747.000	-33.983	0.100
747.100	-34.199	0.100
747.200	-33.395	0.100
747.300	-32.032	0.100
747.400	-44.200	0.100
747.500	-39.670	0.100
747.600	-29.502	0.100
747.700	-38.141	0.100
747.800	-34.650	0.100
747.900	-26.200	0.100
748.000	-46.091	0.100
748.100	-33.399	0.100
748.200	-41.511	0.100
748.300	-34.576	0.100
748.400	-36.488	0.100
748.500	-40.690	0.100
748.600	-35.362	0.100
748.700	-43.561	0.100
748.800	-35.212	0.100
748.900	-40.776	0.100
749.000	-26.206	0.100
749.100	-36.451	0.100
749.200	-33.260	0.100
749.300	-43.958	0.100
749.400	-33.216	0.100
749.500	-31.640	0.100
749.600	-32.092	0.100
749.700	-41.346	0.100
749.800	-49.545	0.100
749.900	-30.899	0.100
750.000	-32.874	0.100
750.100	-35.202	0.100
750.200	-34.070	0.100
750.300	-39.722	0.100
750.400	-41.341	0.100
750.500	-36.311	0.100
750.600	-30.749	0.100
750.700	-40.942	0.100
750.800	-50.249	0.100
750.900	-40.018	0.100
751.000	-27.169	0.100
751.100	-39.579	0.100
751.200	-30.319	0.100
751.300	-26.722	0.100
751.400	-27.872	0.100
751.500	-43.311	0.100
751.600	-26.556	0.100
751.700	-36.741	0.100
751.800	-40.426	0.100
751.900	-36.271	0.100
752.000	-46.523	0.100
752.100	-40.985	0.100
752.200	-46.731	0.100
752.300	-35.607	0.100
752.400	-35.447	0.100
752.500	-24.593	0.100
752.600	-35.658	0.100
752.700	-30.112	0.100
752.800	-43.589	0.100
752.900	-28.423	0.100
753.000	-41.736	0.100
753.100	-34.232	0.100
753.200	-33.769	0.100
753.300	-50.981	0.100
753.400	-32.038	0.100
753.500	-40.285	0.100
753.600	-27.657	0.100
753.700	-26.452	0.100
753.800	-40.040	0.100
753.900	-29.367	0.100
754.000	-40.304	0.100
754.100	-34.195	0.100
754.200	-24.619	0.100
754.300	-34.572	0.100
754.400	-35.217	0.100
754.500	-47.638	0.100
754.600	-36.713	0.100
754.700	-29.372	0.100
754.800	-33.329	0.100
754.900	-42.735	0.100
755.000	-29.923	0.100
755.100	-35.567	0.100
755.200	-30.755	0.100
755.300	-34.835	0.100
755.400	-34.772	0.100
755.500	-26.220	0.100
755.600	-41.770	0.100
755.700	-47.010	0.100
755.800	-38.785	0.100
755.900	-27.890	0.100
756.000	-33.237	0.100
756.100	-40.114	0.100
756.200	-34.587	0.100
756.300	-34.736	0.100
756.400	-30.359	0.100
756.500	-26.492	0.100
756.600	-26.453	0.100
756.700	-39.587	0.100
756.800	-42.054	0.100
756.900	-35.595	0.100
757.000	-44.956	0.100
757.100	-22.654	0.100
757.200	-25.167	0.100
757.300	-32.330	0.100
757.400	-38.254	0.100
757.500	-37.917	0.100
757.600	-40.372	0.100
757.700	-30.218	0.100
757.800	-31.561	0.100
757.900	-39.757	0.100
758.000	-46.341	0.100
758.100	-37.602	0.100
758.200	-19.221	0.100
758.300	-30.165	0.100
758.400	-32.154	0.100
758.500	-28.532	0.100
758.600	-45.683	0.100
758.700	-44.568	0.100
758.800	-28.054	0.100
758.900	-33.157	0.100
759.000	-32.859	0.100
759.100	-39.324	0.100
759.200	-35.212	0.100
759.300	-17.602	0.100
759.400	-22.883	0.100
759.500	-30.225	0.100
759.600	-34.478	0.100
759.700	-33.941	0.100
759.800	-36.571	0.100
759.900	-26.536	0.100
760.000	-21.261	0.100
760.100	-19.442	0.100
760.200	-33.401	0.100
760.300	-41.604	0.100
760.400	-37.825	0.100
760.500	-38.457	0.100
760.600	-37.288	0.100
760.700	-19.234	0.100
760.800	-32.327	0.100
760.900	-35.929	0.100
761.000	-39.594	0.100
761.100	-35.069	0.100
761.200	-34.035	0.100
761.300	-29.504	0.100
761.400	-32.637	0.100
761.500	-31.731	0.100
761.600	-38.432	0.100
761.700	-36.779	0.100
761.800	-32.515	0.100
761.900	-28.078	0.100
762.000	-29.383	0.100
762.100	-29.731	0.100
762.200	-22.549	0.100
762.300	-30.426	0.100
762.400	-28.672	0.100
762.500	-34.156	0.100
762.600	-34.459	0.100
762.700	-40.770	0.100
762.800	-34.702	0.100
762.900	-30.996	0.100
763.000	-48.893	0.100
763.100	-33.600	0.100
763.200	-39.352	0.100
763.300	-34.518	0.100
763.400	-42.959	0.100
763.500	-37.153	0.100
763.600	-32.487	0.100
763.700	-34.976	0.100
763.800	-40.919	0.100
763.900	-28.037	0.100
764.000	-34.930	0.100
764.100	-40.424	0.100
764.200	-28.294	0.100
764.300	-15.912	0.100
764.400	-46.565	0.100
764.500	-31.482	0.100
764.600	-32.793	0.100
764.700	-33.466	0.100
764.800	-27.098	0.100
764.900	-30.746	0.100
765.000	-33.690	0.100
765.100	-23.906	0.100
765.200	-37.640	0.100
765.300	-32.033	0.100
765.400	-20.369	0.100
765.500	-42.307	0.100
765.600	-34.115	0.100
765.700	-34.325	0.100
765.800	-26.487	0.100
765.900	-34.978	0.100
766.000	-41.421	0.100
766.100	-33.886	0.100
766.200	-26.334	0.100
766.300	-31.883	0.100
766.400	-22.373	0.100
766.500	-34.133	0.100
766.600	-44.954	0.100
766.700	-30.067	0.100
766.800	-28.262	0.100
766.900	-22.882	0.100
767.000	-38.093	0.100
767.100	-31.219	0.100
767.200	-31.347	0.100
767.300	-40.416	0.100
767.400	-45.191	0.100
767.500	-33.436	0.100
767.600	-31.993	0.100
767.700	-19.132	0.100
767.800	-39.923	0.100
767.900	-35.992	0.100
768.000	-36.270	0.100
768.100	-17.309	0.100
768.200	-27.105	0.100
768.300	-26.046	0.100
768.400	-35.026	0.100
768.500	-35.303	0.100
768.600	-28.943	0.100
768.700	-27.169	0.100
768.800	-41.616	0.100
768.900	-23.083	0.100
769.000	-23.781	0.100
769.100	-33.224	0.100
769.200	-36.651	0.100
769.300	-25.029	0.100
769.400	-30.986	0.100
769.500	-36.923	0.100
769.600	-39.760	0.100
769.700	-31.082	0.100
769.800	-31.525	0.100
769.900	-34.428	0.100
770.000	-26.245	0.100
770.100	-37.801	0.100
770.200	-35.329	0.100
770.300	-43.934	0.100
770.400	-33.940	0.100
770.500	-23.541	0.100
770.600	-27.909	0.100
770.700	-33.711	0.100
770.800	-32.041	0.100
770.900	-30.980	0.100
771.000	-32.919	0.100
771.100	-36.866	0.100
771.200	-33.476	0.100
771.300	-16.464	0.100
771.400	-38.858	0.100
771.500	-31.950	0.100
771.600	-26.718	0.100
771.700	-15.927	0.100
771.800	-14.565	0.100
771.900	-35.542	0.100
772.000	-30.338	0.100
772.100	-42.806	0.100
772.200	-20.262	0.100
772.300	-19.606	0.100
772.400	-35.848	0.100
772.500	-35.941	0.100
772.600	-35.164	0.100
772.700	-43.881	0.100
772.800	-25.731	0.100
772.900	-38.230	0.100
773.000	-13.310	0.100
773.100	-28.204	0.100
773.200	-33.261	0.100
773.300	-30.022	0.100
773.400	-23.659	0.100
773.500	-33.582	0.100
773.600	-37.494	0.100
773.700	-32.504	0.100
773.800	-28.232	0.100
773.900	-39.523	0.100
774.000	-35.863	0.100
774.100	-28.733	0.100
774.200	-29.733	0.100
774.300	-33.304	0.100
774.400	-31.213	0.100
774.500	-28.409	0.100
774.600	-31.387	0.100
774.700	-32.739	0.100
774.800	-24.223	0.100
774.900	-19.242	0.100
775.000	-25.630	0.100
775.100	-24.890	0.100
775.200	-28.119	0.100
775.300	-20.798	0.100
775.400	-40.471	0.100
775.500	-27.399	0.100
775.600	-35.711	0.100
775.700	-23.348	0.100
775.800	-21.055	0.100
775.900	-27.689	0.100
776.000	-25.832	0.100
776.100	-34.029	0.100
776.200	-22.339	0.100
776.300	-33.237	0.100
776.400	-27.811	0.100
776.500	-21.985	0.100
776.600	-30.217	0.100
776.700	-37.675	0.100
776.800	-33.271	0.100
776.900	-27.081	0.100
777.000	-35.060	0.100
777.100	-30.669	0.100
777.200	-37.015	0.100
777.300	-31.061	0.100
777.400	-52.017	0.100
777.500	-19.746	0.100
777.600	-26.390	0.100
777.700	-29.378	0.100
777.800	-24.492	0.100
777.900	-27.041	0.100
778.000	-37.106	0.100
778.100	-32.748	0.100
778.200	-25.090	0.100
778.300	-25.771	0.100
778.400	-31.771	0.100
778.500	-31.741	0.100
778.600	-28.275	0.100
778.700	-29.245	0.100
778.800	-27.443	0.100
778.900	-34.534	0.100
779.000	-22.093	0.100
779.100	-30.096	0.100
779.200	-30.185	0.100
779.300	-20.032	0.100
779.400	-27.009	0.100
779.500	-31.628	0.100
779.600	-20.308	0.100
779.700	-21.320	0.100
779.800	-36.245	0.100
779.900	-27.245	0.100
780.000	-19.367	0.100
780.100	-13.931	0.100
780.200	-3.728	0.100
780.300	-6.159	0.100
780.400	28.364	0.100
780.500	12.527	0.100
780.600	23.854	0.100
780.700	25.787	0.100
780.800	28.491	0.100
780.900	35.381	0.100
781.000	14.887	0.100
781.100	31.189	0.100
781.200	38.326	0.100
781.300	19.658	0.100
781.400	27.822	0.100
781.500	27.039	0.100
781.600	41.994	0.100
781.700	40.265	0.100
781.800	32.943	0.100
781.900	23.910	0.100
782.000	26.522	0.100
782.100	36.381	0.100
782.200	25.675	0.100
782.300	33.562	0.100
782.400	15.810	0.100
782.500	18.157	0.100
782.600	20.368	0.100
782.700	21.355	0.100
782.800	30.024	0.100
782.900	18.962	0.100
783.000	18.213	0.100
783.100	13.472	0.100
783.200	2.244	0.100
783.300	22.219	0.100
783.400	18.148	0.100
783.500	19.956	0.100
783.600	23.874	0.100
783.700	18.052	0.100
783.800	13.137	0.100
783.900	20.319	0.100
784.000	21.755	0.100
784.100	17.400	0.100
784.200	22.041	0.100
784.300	8.238	0.100
784.400	24.622	0.100
784.500	19.413	0.100
784.600	23.494	0.100
784.700	20.467	0.100
784.800	15.677	0.100
784.900	17.188	0.100
785.000	27.761	0.100
785.100	30.383	0.100
785.200	13.683	0.100
785.300	11.068	0.100
785.400	21.491	0.100
785.500	16.283	0.100
785.600	23.173	0.100
785.700	5.332	0.100
785.800	21.687	0.100
785.900	23.558	0.100
786.000	13.936	0.100
786.100	19.113	0.100
786.200	22.320	0.100
786.300	13.365	0.100
786.400	23.552	0.100
786.500	24.882	0.100
786.600	21.679	0.100
786.700	23.345	0.100
786.800	16.078	0.100
786.900	21.131	0.100
787.000	28.227	0.100
787.100	24.871	0.100
787.200	31.015	0.100
787.300	29.692	0.100
787.400	25.206	0.100
787.500	46.007	0.100
787.600	29.300	0.100
787.700	32.141	0.100
787.800	24.797	0.100
787.900	32.844	0.100
788.000	37.993	0.100
788.100	37.645	0.100
788.200	32.509	0.100
788.300	43.221	0.100
788.400	39.362	0.100
788.500	37.538	0.100
788.600	35.073	0.100
788.700	32.576	0.100
788.800	51.851	0.100
788.900	61.257	0.100
789.000	37.066	0.100
789.100	35.211	0.100
789.200	42.732	0.100
789.300	47.071	0.100
789.400	46.434	0.100
789.500	51.908	0.100
789.600	46.605	0.100
789.700	47.461	0.100
789.800	55.227	0.100
789.900	58.723	0.100
790.000	46.502	0.100
790.100	52.811	0.100
790.200	41.891	0.100
790.300	53.119	0.100
790.400	53.033	0.100
790.500	57.842	0.100
790.600	48.168	0.100
790.700	68.065	0.100
790.800	39.317	0.100
790.900	55.856	0.100
791.000	57.040	0.100
791.100	60.456	0.100
791.200	65.592	0.100
791.300	57.971	0.100
791.400	51.943	0.100
791.500	48.241	0.100
791.600	52.429	0.100
791.700	63.011	0.100
791.800	63.508	0.100
791.900	56.521	0.100
792.000	63.125	0.100
792.100	70.176	0.100
792.200	58.749	0.100
792.300	53.170	0.100
792.400	62.531	0.100
792.500	56.989	0.100
792.600	59.472	0.100
792.700	70.577	0.100
792.800	68.829	0.100
792.900	63.590	0.100
793.000	61.306	0.100
793.100	64.810	0.100
793.200	60.874	0.100
793.300	67.409	0.100
793.400	66.543	0.100
793.500	57.010	0.100
793.600	62.160	0.100
793.700	57.415	0.100
793.800	56.925	0.100
793.900	69.290	0.100
794.000	60.756	0.100
794.100	65.734	0.100
794.200	68.956	0.100
794.300	59.324	0.100
794.400	64.691	0.100
794.500	59.074	0.100
794.600	68.796	0.100
794.700	78.372	0.100
794.800	69.927	0.100
794.900	70.025	0.100
795.000	62.535	0.100
795.100	61.484	0.100
795.200	65.122	0.100
795.300	57.345	0.100
795.400	65.941	0.100
795.500	62.518	0.100
795.600	62.226	0.100
795.700	81.290	0.100
795.800	69.084	0.100
795.900	53.077	0.100
796.000	63.261	0.100
796.100	64.819	0.100
796.200	56.476	0.100
796.300	69.681	0.100
796.400	67.103	0.100
796.500	57.454	0.100
796.600	59.847	0.100
796.700	58.692	0.100
796.800	68.485	0.100
796.900	69.583	0.100
797.000	63.018	0.100
797.100	73.128	0.100
797.200	60.608	0.100
797.300	70.897	0.100
797.400	67.375	0.100
797.500	61.306	0.100
797.600	67.694	0.100
797.700	62.116	0.100
797.800	62.934	0.100
797.900	64.836	0.100
798.000	75.645	0.100
798.100	70.792	0.100
798.200	58.106	0.100
798.300	62.543	0.100
798.400	78.266	0.100
798.500	63.698	0.100
798.600	63.842	0.100
798.700	75.780	0.100
798.800	67.529	0.100
798.900	69.218	0.100
799.000	58.986	0.100
799.100	70.525	0.100
799.200	65.523	0.100
799.300	62.833	0.100
799.400	54.956	0.100
799.500	62.025	0.100
799.600	66.656	0.100
799.700	66.677	0.100
799.800	73.094	0.100
799.900	69.398	0.100
800.000	68.990	0.100
