time /s	I /nA	E /V
0.100	-24.999	0.100
0.200	-21.664	0.100
0.300	-18.266	0.100
0.400	-24.576	0.100
0.500	-21.496	0.100
0.600	-13.548	0.100
0.700	-23.414	0.100
0.800	-25.774	0.100
0.900	-22.842	0.100
1.000	-7.318	0.100
1.100	-28.487	0.100
1.200	-24.378	0.100
1.300	-29.824	0.100
1.400	-18.271	0.100
1.500	-19.578	0.100
1.600	-19.438	0.100
1.700	-31.466	0.100
1.800	-24.382	0.100
1.900	-24.756	0.100
2.000	-16.682	0.100
2.100	-23.436	0.100
2.200	-24.154	0.100
2.300	-11.456	0.100
2.400	-24.456	0.100
2.500	-23.349	0.100
2.600	-24.803	0.100
2.700	-8.250	0.100
2.800	-38.562	0.100
2.900	-13.912	0.100
3.000	-16.034	0.100
3.100	-21.551	0.100
3.200	-20.993	0.100
3.300	-13.494	0.100
3.400	-19.707	0.100
3.500	-29.192	0.100
3.600	-33.898	0.100
3.700	-18.538	0.100
3.800	-24.791	0.100
3.900	-19.288	0.100
4.000	-6.212	0.100
4.100	-21.104	0.100
4.200	-21.444	0.100
4.300	-25.646	0.100
4.400	-18.464	0.100
4.500	-17.144	0.100
4.600	-13.350	0.100
4.700	-33.057	0.100
4.800	-25.588	0.100
4.900	-21.887	0.100
5.000	-18.068	0.100
5.100	-17.113	0.100
5.200	-32.451	0.100
5.300	-16.193	0.100
5.400	-16.003	0.100
5.500	-23.073	0.100
5.600	-23.811	0.100
5.700	-20.425	0.100
5.800	-18.003	0.100
5.900	-26.676	0.100
6.000	-27.157	0.100
6.100	-24.770	0.100
6.200	-20.165	0.100
6.300	-25.962	0.100
6.400	-29.252	0.100
6.500	-37.038	0.100
6.600	-21.909	0.100
6.700	-2.709	0.100
6.800	-9.128	0.100
6.900	-25.165	0.100
7.000	-16.494	0.100
7.100	-21.453	0.100
7.200	-20.387	0.100
7.300	-18.374	0.100
7.400	-6.158	0.100
7.500	-18.230	0.100
7.600	-24.652	0.100
7.700	-27.798	0.100
7.800	-24.577	0.100
7.900	-14.260	0.100
8.000	-21.128	0.100
8.100	-27.118	0.100
8.200	-16.207	0.100
8.300	-26.214	0.100
8.400	-21.801	0.100
8.500	-21.012	0.100
8.600	-26.186	0.100
8.700	-25.634	0.100
8.800	-18.224	0.100
8.900	-18.315	0.100
9.000	-22.815	0.100
9.100	-17.695	0.100
9.200	-8.478	0.100
9.300	-19.187	0.100
9.400	-20.574	0.100
9.500	-29.745	0.100
9.600	-29.801	0.100
9.700	-22.041	0.100
9.800	-10.524	0.100
9.900	-17.474	0.100
10.000	-22.461	0.100
10.100	-12.687	0.100
10.200	-15.602	0.100
10.300	-17.713	0.100
10.400	-24.092	0.100
10.500	-29.778	0.100
10.600	-26.327	0.100
10.700	-28.922	0.100
10.800	-14.678	0.100
10.900	-14.999	0.100
11.000	-15.711	0.100
11.100	-16.338	0.100
11.200	-34.767	0.100
11.300	-17.649	0.100
11.400	-15.015	0.100
11.500	-25.626	0.100
11.600	-19.422	0.100
11.700	-29.207	0.100
11.800	-25.878	0.100
11.900	-22.963	0.100
12.000	-16.301	0.100
12.100	-22.152	0.100
12.200	-16.849	0.100
12.300	-22.446	0.100
12.400	-26.744	0.100
12.500	-27.878	0.100
12.600	-36.889	0.100
12.700	-5.986	0.100
12.800	-22.852	0.100
12.900	-24.132	0.100
13.000	-16.467	0.100
13.100	-25.475	0.100
13.200	-17.260	0.100
13.300	-23.496	0.100
13.400	-28.156	0.100
13.500	-28.045	0.100
13.600	-22.026	0.100
13.700	-21.090	0.100
13.800	-18.757	0.100
13.900	-22.804	0.100
14.000	-29.845	0.100
14.100	-13.406	0.100
14.200	-18.056	0.100
14.300	-20.919	0.100
14.400	-21.208	0.100
14.500	-15.925	0.100
14.600	-20.982	0.100
14.700	-29.532	0.100
14.800	-24.429	0.100
14.900	-15.231	0.100
15.000	-14.594	0.100
15.100	-20.448	0.100
15.200	-19.554	0.100
15.300	-33.851	0.100
15.400	-19.927	0.100
15.500	-13.970	0.100
15.600	-10.751	0.100
15.700	-15.190	0.100
15.800	-22.701	0.100
15.900	-23.105	0.100
16.000	-22.497	0.100
16.100	-11.636	0.100
16.200	-27.245	0.100
16.300	-18.264	0.100
16.400	-22.339	0.100
16.500	-31.006	0.100
16.600	-18.335	0.100
16.700	-19.840	0.100
16.800	-15.615	0.100
16.900	-15.524	0.100
17.000	-23.503	0.100
17.100	-21.384	0.100
17.200	-26.064	0.100
17.300	-10.772	0.100
17.400	-14.226	0.100
17.500	-28.174	0.100
17.600	-34.420	0.100
17.700	-20.053	0.100
17.800	-20.638	0.100
17.900	-22.619	0.100
18.000	-6.187	0.100
18.100	-13.983	0.100
18.200	-19.868	0.100
18.300	-28.264	0.100
18.400	-17.119	0.100
18.500	-28.018	0.100
18.600	-17.038	0.100
18.700	-19.467	0.100
18.800	-28.879	0.100
18.900	-15.315	0.100
19.000	-15.315	0.100
19.100	-34.767	0.100
19.200	-21.612	0.100
19.300	-18.055	0.100
19.400	-17.594	0.100
19.500	-32.052	0.100
19.600	-18.836	0.100
19.700	-21.943	0.100
19.800	-16.777	0.100
19.900	-24.120	0.100
20.000	-29.014	0.100
20.100	-21.982	0.100
20.200	-20.411	0.100
20.300	-25.790	0.100
20.400	-14.558	0.100
20.500	-33.330	0.100
20.600	-13.931	0.100
20.700	-22.805	0.100
20.800	-22.264	0.100
20.900	-16.218	0.100
21.000	-2.034	0.100
21.100	-29.549	0.100
21.200	-4.421	0.100
21.300	-24.804	0.100
21.400	-20.967	0.100
21.500	-25.327	0.100
21.600	-16.608	0.100
21.700	-27.923	0.100
21.800	-14.682	0.100
21.900	-19.688	0.100
22.000	-17.352	0.100
22.100	-17.141	0.100
22.200	-23.385	0.100
22.300	-21.049	0.100
22.400	-18.769	0.100
22.500	-24.977	0.100
22.600	-16.658	0.100
22.700	-21.731	0.100
22.800	-21.757	0.100
22.900	-23.873	0.100
23.000	-31.075	0.100
23.100	-20.958	0.100
23.200	-12.547	0.100
23.300	-15.539	0.100
23.400	-24.484	0.100
23.500	-22.252	0.100
23.600	-30.424	0.100
23.700	-20.849	0.100
23.800	-25.585	0.100
23.900	-6.099	0.100
24.000	-18.176	0.100
24.100	-20.909	0.100
24.200	-14.729	0.100
24.300	-18.042	0.100
24.400	-19.176	0.100
24.500	-26.194	0.100
24.600	-28.574	0.100
24.700	-20.724	0.100
24.800	-32.549	0.100
24.900	-14.718	0.100
25.000	-12.260	0.100
25.100	-27.166	0.100
25.200	-27.401	0.100
25.300	-21.435	0.100
25.400	-10.075	0.100
25.500	-14.574	0.100
25.600	-34.750	0.100
25.700	-12.993	0.100
25.800	-13.114	0.100
25.900	-25.953	0.100
26.000	-17.117	0.100
26.100	-23.888	0.100
26.200	-10.966	0.100
26.300	-17.944	0.100
26.400	-25.358	0.100
26.500	-21.673	0.100
26.600	-17.229	0.100
26.700	-18.419	0.100
26.800	-19.059	0.100
26.900	-14.636	0.100
27.000	-28.454	0.100
27.100	-23.159	0.100
27.200	-25.459	0.100
27.300	-17.639	0.100
27.400	-27.019	0.100
27.500	-15.062	0.100
27.600	-32.135	0.100
27.700	-25.729	0.100
27.800	-16.713	0.100
27.900	-18.801	0.100
28.000	-16.580	0.100
28.100	-23.882	0.100
28.200	-20.591	0.100
28.300	-25.603	0.100
28.400	-21.841	0.100
28.500	-12.354	0.100
28.600	-34.442	0.100
28.700	-23.473	0.100
28.800	-39.141	0.100
28.900	-16.691	0.100
29.000	-7.731	0.100
29.100	-9.012	0.100
29.200	-12.389	0.100
29.300	-25.993	0.100
29.400	-24.976	0.100
29.500	-25.707	0.100
29.600	-33.327	0.100
29.700	-0.771	0.100
29.800	-12.151	0.100
29.900	-36.212	0.100
30.000	-29.127	0.100
30.100	-11.178	0.100
30.200	-17.934	0.100
30.300	-8.681	0.100
30.400	9.200	0.100
30.500	8.530	0.100
30.600	14.440	0.100
30.700	37.074	0.100
30.800	42.539	0.100
30.900	49.234	0.100
31.000	51.594	0.100
31.100	42.961	0.100
31.200	52.836	0.100
31.300	61.738	0.100
31.400	68.876	0.100
31.500	59.807	0.100
31.600	60.764	0.100
31.700	43.321	0.100
31.800	53.207	0.100
31.900	65.525	0.100
32.000	64.296	0.100
32.100	53.666	0.100
32.200	61.634	0.100
32.300	52.901	0.100
32.400	53.149	0.100
32.500	57.918	0.100
32.600	49.167	0.100
32.700	45.487	0.100
32.800	60.363	0.100
32.900	45.991	0.100
33.000	40.200	0.100
33.100	45.042	0.100
33.200	53.602	0.100
33.300	57.159	0.100
33.400	41.104	0.100
33.500	33.832	0.100
33.600	43.347	0.100
33.700	51.545	0.100
33.800	46.656	0.100
33.900	38.632	0.100
34.000	39.118	0.100
34.100	19.457	0.100
34.200	28.496	0.100
34.300	52.120	0.100
34.400	49.346	0.100
34.500	37.202	0.100
34.600	34.904	0.100
34.700	46.575	0.100
34.800	36.550	0.100
34.900	45.149	0.100
35.000	53.496	0.100
35.100	44.853	0.100
35.200	46.147	0.100
35.300	41.017	0.100
35.400	42.858	0.100
35.500	49.375	0.100
35.600	58.452	0.100
35.700	43.908	0.100
35.800	51.334	0.100
35.900	63.021	0.100
36.000	56.049	0.100
36.100	61.255	0.100
36.200	55.174	0.100
36.300	49.174	0.100
36.400	58.993	0.100
36.500	57.361	0.100
36.600	66.451	0.100
36.700	58.778	0.100
36.800	67.231	0.100
36.900	71.461	0.100
37.000	80.457	0.100
37.100	76.727	0.100
37.200	75.616	0.100
37.300	69.036	0.100
37.400	50.921	0.100
37.500	84.024	0.100
37.600	75.669	0.100
37.700	71.448	0.100
37.800	78.334	0.100
37.900	80.467	0.100
38.000	61.821	0.100
38.100	79.842	0.100
38.200	81.489	0.100
38.300	75.236	0.100
38.400	74.586	0.100
38.500	86.598	0.100
38.600	91.562	0.100
38.700	73.161	0.100
38.800	58.034	0.100
38.900	82.483	0.100
39.000	83.724	0.100
39.100	64.900	0.100
39.200	97.479	0.100
39.300	89.046	0.100
39.400	82.015	0.100
39.500	82.775	0.100
39.600	87.146	0.100
39.700	72.589	0.100
39.800	77.792	0.100
39.900	84.076	0.100
40.000	81.584	0.100
40.100	74.542	0.100
40.200	86.931	0.100
40.300	79.781	0.100
40.400	79.904	0.100
40.500	83.074	0.100
40.600	75.317	0.100
40.700	77.235	0.100
40.800	87.857	0.100
40.900	82.347	0.100
41.000	80.673	0.100
41.100	76.779	0.100
41.200	79.224	0.100
41.300	81.862	0.100
41.400	83.700	0.100
41.500	79.176	0.100
41.600	76.681	0.100
41.700	70.797	0.100
41.800	81.480	0.100
41.900	78.713	0.100
42.000	80.474	0.100
42.100	71.423	0.100
42.200	80.547	0.100
42.300	74.785	0.100
42.400	74.969	0.100
42.500	90.769	0.100
42.600	81.461	0.100
42.700	77.223	0.100
42.800	89.317	0.100
42.900	84.255	0.100
43.000	69.266	0.100
43.100	85.473	0.100
43.200	85.463	0.100
43.300	80.095	0.100
43.400	76.489	0.100
43.500	83.939	0.100
43.600	80.608	0.100
43.700	93.359	0.100
43.800	85.210	0.100
43.900	68.613	0.100
44.000	80.188	0.100
44.100	72.883	0.100
44.200	76.537	0.100
44.300	79.995	0.100
44.400	76.062	0.100
44.500	79.652	0.100
44.600	87.777	0.100
44.700	93.602	0.100
44.800	77.516	0.100
44.900	69.000	0.100
45.000	78.544	0.100
45.100	76.120	0.100
45.200	76.610	0.100
45.300	72.799	0.100
45.400	78.703	0.100
45.500	79.025	0.100
45.600	72.458	0.100
45.700	80.783	0.100
45.800	81.213	0.100
45.900	85.028	0.100
46.000	75.784	0.100
46.100	66.764	0.100
46.200	65.293	0.100
46.300	84.972	0.100
46.400	82.798	0.100
46.500	84.315	0.100
46.600	80.887	0.100
46.700	76.457	0.100
46.800	82.830	0.100
46.900	77.965	0.100
47.000	85.619	0.100
47.100	84.175	0.100
47.200	72.954	0.100
47.300	68.044	0.100
47.400	64.486	0.100
47.500	81.338	0.100
47.600	81.462	0.100
47.700	77.977	0.100
47.800	77.330	0.100
47.900	80.703	0.100
48.000	76.243	0.100
48.100	88.957	0.100
48.200	80.338	0.100
48.300	83.839	0.100
48.400	82.722	0.100
48.500	70.085	0.100
48.600	64.359	0.100
48.700	69.309	0.100
48.800	63.626	0.100
48.900	84.833	0.100
49.000	78.029	0.100
49.100	82.238	0.100
49.200	76.593	0.100
49.300	83.806	0.100
49.400	76.203	0.100
49.500	79.905	0.100
49.600	75.485	0.100
49.700	73.074	0.100
49.800	74.385	0.100
49.900	74.921	0.100
50.000	70.761	0.100
50.100	75.959	0.100
50.200	74.192	0.100
50.300	71.778	0.100
50.400	71.227	0.100
50.500	83.779	0.100
50.600	83.811	0.100
50.700	68.019	0.100
50.800	59.024	0.100
50.900	74.348	0.100
51.000	60.143	0.100
51.100	78.198	0.100
51.200	73.717	0.100
51.300	68.756	0.100
51.400	76.508	0.100
51.500	77.791	0.100
51.600	74.846	0.100
51.700	69.776	0.100
51.800	75.974	0.100
51.900	79.213	0.100
52.000	74.750	0.100
52.100	75.171	0.100
52.200	73.479	0.100
52.300	63.330	0.100
52.400	61.434	0.100
52.500	65.750	0.100
52.600	74.486	0.100
52.700	67.630	0.100
52.800	70.500	0.100
52.900	70.326	0.100
53.000	80.855	0.100
53.100	72.742	0.100
53.200	63.086	0.100
53.300	61.492	0.100
53.400	63.177	0.100
53.500	59.867	0.100
53.600	79.500	0.100
53.700	73.429	0.100
53.800	74.380	0.100
53.900	61.789	0.100
54.000	68.837	0.100
54.100	69.400	0.100
54.200	60.648	0.100
54.300	67.990	0.100
54.400	67.496	0.100
54.500	69.943	0.100
54.600	62.304	0.100
54.700	73.032	0.100
54.800	70.031	0.100
54.900	65.227	0.100
55.000	61.050	0.100
55.100	71.015	0.100
55.200	69.049	0.100
55.300	65.777	0.100
55.400	66.444	0.100
55.500	69.330	0.100
55.600	71.628	0.100
55.700	75.257	0.100
55.800	66.264	0.100
55.900	62.609	0.100
56.000	62.914	0.100
56.100	70.536	0.100
56.200	65.683	0.100
56.300	63.583	0.100
56.400	71.349	0.100
56.500	62.381	0.100
56.600	56.852	0.100
56.700	69.526	0.100
56.800	61.866	0.100
56.900	75.782	0.100
57.000	77.388	0.100
57.100	69.056	0.100
57.200	56.362	0.100
57.300	71.102	0.100
57.400	58.337	0.100
57.500	55.244	0.100
57.600	61.280	0.100
57.700	77.168	0.100
57.800	71.501	0.100
57.900	61.620	0.100
58.000	68.582	0.100
58.100	68.570	0.100
58.200	53.944	0.100
58.300	65.082	0.100
58.400	77.140	0.100
58.500	51.459	0.100
58.600	58.608	0.100
58.700	72.340	0.100
58.800	63.403	0.100
58.900	57.797	0.100
59.000	63.188	0.100
59.100	60.958	0.100
59.200	68.512	0.100
59.300	64.682	0.100
59.400	52.333	0.100
59.500	59.306	0.100
59.600	60.628	0.100
59.700	53.061	0.100
59.800	67.674	0.100
59.900	58.240	0.100
60.000	58.144	0.100
60.100	67.056	0.100
60.200	58.352	0.100
60.300	79.026	0.100
60.400	63.762	0.100
60.500	63.626	0.100
60.600	69.198	0.100
60.700	57.342	0.100
60.800	67.544	0.100
60.900	56.684	0.100
61.000	75.500	0.100
61.100	66.622	0.100
61.200	68.681	0.100
61.300	59.147	0.100
61.400	60.438	0.100
61.500	55.538	0.100
61.600	60.585	0.100
61.700	64.341	0.100
61.800	66.126	0.100
61.900	64.191	0.100
62.000	69.593	0.100
62.100	62.720	0.100
62.200	64.339	0.100
62.300	65.272	0.100
62.400	63.908	0.100
62.500	60.429	0.100
62.600	70.836	0.100
62.700	63.388	0.100
62.800	62.403	0.100
62.900	63.726	0.100
63.000	71.208	0.100
63.100	60.196	0.100
63.200	70.866	0.100
63.300	65.046	0.100
63.400	64.937	0.100
63.500	65.368	0.100
63.600	63.844	0.100
63.700	67.919	0.100
63.800	58.237	0.100
63.900	59.290	0.100
64.000	52.660	0.100
64.100	67.920	0.100
64.200	64.754	0.100
64.300	63.153	0.100
64.400	66.341	0.100
64.500	49.834	0.100
64.600	53.473	0.100
64.700	70.217	0.100
64.800	56.715	0.100
64.900	51.558	0.100
65.000	71.462	0.100
65.100	69.705	0.100
65.200	66.464	0.100
65.300	62.969	0.100
65.400	66.515	0.100
65.500	64.150	0.100
65.600	59.357	0.100
65.700	61.588	0.100
65.800	58.848	0.100
65.900	60.996	0.100
66.000	74.078	0.100
66.100	67.365	0.100
66.200	72.315	0.100
66.300	64.447	0.100
66.400	63.664	0.100
66.500	67.250	0.100
66.600	63.631	0.100
66.700	59.653	0.100
66.800	64.294	0.100
66.900	57.174	0.100
67.000	61.411	0.100
67.100	55.892	0.100
67.200	77.716	0.100
67.300	71.406	0.100
67.400	56.058	0.100
67.500	60.709	0.100
67.600	71.988	0.100
67.700	71.679	0.100
67.800	57.087	0.100
67.900	71.937	0.100
68.000	74.375	0.100
68.100	57.067	0.100
68.200	60.530	0.100
68.300	62.539	0.100
68.400	62.984	0.100
68.500	60.339	0.100
68.600	65.933	0.100
68.700	62.542	0.100
68.800	58.666	0.100
68.900	77.724	0.100
69.000	63.731	0.100
69.100	54.444	0.100
69.200	64.065	0.100
69.300	73.484	0.100
69.400	76.053	0.100
69.500	66.678	0.100
69.600	65.234	0.100
69.700	61.663	0.100
69.800	58.715	0.100
69.900	66.731	0.100
70.000	60.514	0.100
70.100	59.552	0.100
70.200	77.424	0.100
70.300	72.366	0.100
70.400	57.362	0.100
70.500	65.500	0.100
70.600	57.009	0.100
70.700	67.111	0.100
70.800	66.344	0.100
70.900	67.379	0.100
71.000	63.041	0.100
71.100	68.910	0.100
71.200	73.568	0.100
71.300	67.222	0.100
71.400	61.895	0.100
71.500	70.352	0.100
71.600	58.729	0.100
71.700	71.257	0.100
71.800	70.077	0.100
71.900	67.119	0.100
72.000	62.918	0.100
72.100	68.163	0.100
72.200	59.621	0.100
72.300	57.043	0.100
72.400	69.666	0.100
72.500	63.037	0.100
72.600	71.407	0.100
72.700	69.114	0.100
72.800	58.666	0.100
72.900	67.020	0.100
73.000	79.389	0.100
73.100	70.602	0.100
73.200	70.430	0.100
73.300	55.368	0.100
73.400	68.390	0.100
73.500	68.693	0.100
73.600	68.674	0.100
73.700	70.996	0.100
73.800	60.151	0.100
73.900	79.103	0.100
74.000	69.389	0.100
74.100	64.248	0.100
74.200	68.132	0.100
74.300	70.080	0.100
74.400	64.141	0.100
74.500	73.898	0.100
74.600	64.153	0.100
74.700	64.893	0.100
74.800	72.050	0.100
74.900	71.223	0.100
75.000	58.796	0.100
75.100	77.665	0.100
75.200	71.527	0.100
75.300	65.823	0.100
75.400	69.870	0.100
75.500	60.063	0.100
75.600	70.373	0.100
75.700	58.830	0.100
75.800	55.181	0.100
75.900	53.369	0.100
76.000	65.446	0.100
76.100	75.685	0.100
76.200	66.218	0.100
76.300	67.360	0.100
76.400	64.529	0.100
76.500	59.171	0.100
76.600	59.010	0.100
76.700	69.075	0.100
76.800	66.679	0.100
76.900	71.752	0.100
77.000	80.540	0.100
77.100	73.027	0.100
77.200	76.916	0.100
77.300	72.493	0.100
77.400	55.887	0.100
77.500	77.926	0.100
77.600	68.294	0.100
77.700	75.143	0.100
77.800	72.588	0.100
77.900	72.449	0.100
78.000	60.354	0.100
78.100	72.419	0.100
78.200	80.834	0.100
78.300	59.091	0.100
78.400	71.434	0.100
78.500	69.269	0.100
78.600	62.935	0.100
78.700	56.920	0.100
78.800	73.818	0.100
78.900	64.513	0.100
79.000	72.265	0.100
79.100	59.945	0.100
79.200	66.721	0.100
79.300	74.126	0.100
79.400	58.376	0.100
79.500	71.225	0.100
79.600	69.691	0.100
79.700	68.008	0.100
79.800	65.084	0.100
79.900	79.498	0.100
80.000	63.911	0.100
80.100	55.507	0.100
80.200	67.553	0.100
80.300	61.188	0.100
80.400	77.588	0.100
80.500	64.598	0.100
80.600	79.405	0.100
80.700	70.671	0.100
80.800	78.806	0.100
80.900	72.366	0.100
81.000	69.729	0.100
81.100	66.154	0.100
81.200	81.597	0.100
81.300	67.173	0.100
81.400	77.243	0.100
81.500	64.918	0.100
81.600	72.208	0.100
81.700	68.986	0.100
81.800	79.472	0.100
81.900	60.111	0.100
82.000	61.242	0.100
82.100	64.959	0.100
82.200	76.896	0.100
82.300	78.426	0.100
82.400	72.693	0.100
82.500	66.138	0.100
82.600	65.124	0.100
82.700	70.534	0.100
82.800	76.074	0.100
82.900	61.237	0.100
83.000	74.022	0.100
83.100	72.700	0.100
83.200	66.173	0.100
83.300	70.608	0.100
83.400	73.480	0.100
83.500	71.401	0.100
83.600	73.018	0.100
83.700	83.822	0.100
83.800	72.834	0.100
83.900	71.987	0.100
84.000	74.164	0.100
84.100	72.916	0.100
84.200	75.231	0.100
84.300	65.874	0.100
84.400	71.597	0.100
84.500	64.153	0.100
84.600	63.502	0.100
84.700	64.749	0.100
84.800	77.247	0.100
84.900	73.153	0.100
85.000	67.093	0.100
85.100	78.659	0.100
85.200	69.644	0.100
85.300	76.889	0.100
85.400	63.629	0.100
85.500	71.413	0.100
85.600	60.090	0.100
85.700	73.189	0.100
85.800	73.399	0.100
85.900	72.542	0.100
86.000	71.796	0.100
86.100	70.728	0.100
86.200	67.802	0.100
86.300	60.695	0.100
86.400	73.046	0.100
86.500	72.104	0.100
86.600	77.150	0.100
86.700	74.048	0.100
86.800	66.658	0.100
86.900	71.813	0.100
87.000	64.208	0.100
87.100	86.213	0.100
87.200	75.243	0.100
87.300	60.570	0.100
87.400	76.702	0.100
87.500	76.188	0.100
87.600	68.622	0.100
87.700	76.079	0.100
87.800	78.180	0.100
87.900	66.085	0.100
88.000	76.945	0.100
88.100	77.324	0.100
88.200	75.936	0.100
88.300	80.748	0.100
88.400	66.274	0.100
88.500	71.182	0.100
88.600	70.263	0.100
88.700	75.197	0.100
88.800	69.145	0.100
88.900	75.982	0.100
89.000	72.964	0.100
89.100	78.980	0.100
89.200	68.836	0.100
89.300	72.223	0.100
89.400	77.100	0.100
89.500	75.291	0.100
89.600	80.177	0.100
89.700	77.277	0.100
89.800	68.258	0.100
89.900	75.591	0.100
90.000	80.174	0.100
90.100	77.011	0.100
90.200	64.543	0.100
90.300	58.389	0.100
90.400	52.450	0.100
90.500	35.131	0.100
90.600	21.454	0.100
90.700	32.998	0.100
90.800	20.192	0.100
90.900	-1.233	0.100
91.000	-0.096	0.100
91.100	-5.743	0.100
91.200	-9.246	0.100
91.300	-8.016	0.100
91.400	-19.766	0.100
91.500	-36.352	0.100
91.600	-29.073	0.100
91.700	-27.111	0.100
91.800	-23.590	0.100
91.900	-43.362	0.100
92.000	-38.537	0.100
92.100	-38.788	0.100
92.200	-46.024	0.100
92.300	-46.742	0.100
92.400	-45.640	0.100
92.500	-50.088	0.100
92.600	-49.298	0.100
92.700	-47.828	0.100
92.800	-48.222	0.100
92.900	-43.332	0.100
93.000	-45.163	0.100
93.100	-48.929	0.100
93.200	-56.353	0.100
93.300	-53.408	0.100
93.400	-50.851	0.100
93.500	-43.022	0.100
93.600	-39.342	0.100
93.700	-47.783	0.100
93.800	-46.564	0.100
93.900	-49.385	0.100
94.000	-39.931	0.100
94.100	-43.628	0.100
94.200	-49.438	0.100
94.300	-35.476	0.100
94.400	-71.659	0.100
94.500	-39.458	0.100
94.600	-46.890	0.100
94.700	-33.826	0.100
94.800	-41.468	0.100
94.900	-53.349	0.100
95.000	-51.210	0.100
95.100	-47.764	0.100
95.200	-44.030	0.100
95.300	-45.658	0.100
95.400	-49.921	0.100
95.500	-54.056	0.100
95.600	-42.123	0.100
95.700	-50.239	0.100
95.800	-48.206	0.100
95.900	-42.224	0.100
96.000	-35.112	0.100
96.100	-60.650	0.100
96.200	-36.091	0.100
96.300	-43.157	0.100
96.400	-37.356	0.100
96.500	-42.814	0.100
96.600	-34.059	0.100
96.700	-36.612	0.100
96.800	-22.246	0.100
96.900	-28.348	0.100
97.000	-45.686	0.100
97.100	-36.284	0.100
97.200	-28.581	0.100
97.300	-49.555	0.100
97.400	-38.880	0.100
97.500	-32.243	0.100
97.600	-35.162	0.100
97.700	-37.563	0.100
97.800	-32.874	0.100
97.900	-41.410	0.100
98.000	-39.828	0.100
98.100	-38.617	0.100
98.200	-43.771	0.100
98.300	-28.311	0.100
98.400	-30.994	0.100
98.500	-40.861	0.100
98.600	-35.707	0.100
98.700	-30.262	0.100
98.800	-40.669	0.100
98.900	-39.007	0.100
99.000	-28.834	0.100
99.100	-42.519	0.100
99.200	-42.866	0.100
99.300	-35.619	0.100
99.400	-23.790	0.100
99.500	-36.246	0.100
99.600	-26.683	0.100
99.700	-44.283	0.100
99.800	-45.452	0.100
99.900	-28.645	0.100
100.000	-36.035	0.100
100.100	-41.283	0.100
100.200	-20.170	0.100
100.300	-34.737	0.100
100.400	-36.369	0.100
100.500	-29.746	0.100
100.600	-34.777	0.100
100.700	-33.264	0.100
100.800	-34.940	0.100
100.900	-39.612	0.100
101.000	-36.589	0.100
101.100	-38.500	0.100
101.200	-37.226	0.100
101.300	-42.459	0.100
101.400	-42.173	0.100
101.500	-39.662	0.100
101.600	-28.986	0.100
101.700	-18.745	0.100
101.800	-37.876	0.100
101.900	-51.164	0.100
102.000	-33.200	0.100
102.100	-38.809	0.100
102.200	-37.298	0.100
102.300	-34.573	0.100
102.400	-35.849	0.100
102.500	-33.801	0.100
102.600	-45.592	0.100
102.700	-43.624	0.100
102.800	-38.517	0.100
102.900	-38.614	0.100
103.000	-32.648	0.100
103.100	-33.026	0.100
103.200	-46.722	0.100
103.300	-31.803	0.100
103.400	-31.883	0.100
103.500	-38.879	0.100
103.600	-33.656	0.100
103.700	-36.459	0.100
103.800	-46.134	0.100
103.900	-52.381	0.100
104.000	-53.819	0.100
104.100	-35.128	0.100
104.200	-28.939	0.100
104.300	-29.927	0.100
104.400	-34.414	0.100
104.500	-32.926	0.100
104.600	-45.237	0.100
104.700	-41.656	0.100
104.800	-34.981	0.100
104.900	-33.756	0.100
105.000	-36.671	0.100
105.100	-43.362	0.100
105.200	-32.924	0.100
105.300	-31.461	0.100
105.400	-47.449	0.100
105.500	-46.532	0.100
105.600	-30.661	0.100
105.700	-48.230	0.100
105.800	-35.073	0.100
105.900	-39.324	0.100
106.000	-28.961	0.100
106.100	-40.977	0.100
106.200	-35.347	0.100
106.300	-43.268	0.100
106.400	-39.446	0.100
106.500	-37.161	0.100
106.600	-42.489	0.100
106.700	-48.668	0.100
106.800	-42.858	0.100
106.900	-24.699	0.100
107.000	-29.401	0.100
107.100	-37.663	0.100
107.200	-40.415	0.100
107.300	-40.913	0.100
107.400	-25.980	0.100
107.500	-41.649	0.100
107.600	-38.661	0.100
107.700	-36.957	0.100
107.800	-36.756	0.100
107.900	-33.653	0.100
108.000	-38.420	0.100
108.100	-41.636	0.100
108.200	-38.688	0.100
108.300	-43.172	0.100
108.400	-35.996	0.100
108.500	-43.577	0.100
108.600	-33.106	0.100
108.700	-34.761	0.100
108.800	-32.627	0.100
108.900	-39.038	0.100
109.000	-40.599	0.100
109.100	-39.563	0.100
109.200	-42.468	0.100
109.300	-36.422	0.100
109.400	-39.513	0.100
109.500	-25.402	0.100
109.600	-45.852	0.100
109.700	-39.758	0.100
109.800	-43.488	0.100
109.900	-34.961	0.100
110.000	-45.396	0.100
110.100	-37.201	0.100
110.200	-53.598	0.100
110.300	-47.553	0.100
110.400	-37.986	0.100
110.500	-30.993	0.100
110.600	-31.939	0.100
110.700	-40.223	0.100
110.800	-33.756	0.100
110.900	-49.331	0.100
111.000	-42.888	0.100
111.100	-28.956	0.100
111.200	-43.888	0.100
111.300	-49.644	0.100
111.400	-36.964	0.100
111.500	-29.529	0.100
111.600	-40.198	0.100
111.700	-37.639	0.100
111.800	-30.630	0.100
111.900	-43.244	0.100
112.000	-37.202	0.100
112.100	-42.362	0.100
112.200	-48.647	0.100
112.300	-32.518	0.100
112.400	-39.631	0.100
112.500	-39.219	0.100
112.600	-42.663	0.100
112.700	-37.043	0.100
112.800	-34.553	0.100
112.900	-29.691	0.100
113.000	-33.290	0.100
113.100	-63.324	0.100
113.200	-49.582	0.100
113.300	-43.681	0.100
113.400	-34.861	0.100
113.500	-38.016	0.100
113.600	-28.338	0.100
113.700	-48.994	0.100
113.800	-54.674	0.100
113.900	-48.556	0.100
114.000	-48.428	0.100
114.100	-35.410	0.100
114.200	-38.692	0.100
114.300	-37.217	0.100
114.400	-47.875	0.100
114.500	-43.010	0.100
114.600	-38.138	0.100
114.700	-33.480	0.100
114.800	-45.323	0.100
114.900	-49.218	0.100
115.000	-36.903	0.100
115.100	-41.752	0.100
115.200	-39.116	0.100
115.300	-40.133	0.100
115.400	-29.701	0.100
115.500	-49.818	0.100
115.600	-41.161	0.100
115.700	-35.361	0.100
115.800	-40.749	0.100
115.900	-36.126	0.100
116.000	-42.586	0.100
116.100	-41.573	0.100
116.200	-52.930	0.100
116.300	-43.428	0.100
116.400	-38.550	0.100
116.500	-20.420	0.100
116.600	-36.340	0.100
116.700	-47.280	0.100
116.800	-38.038	0.100
116.900	-44.360	0.100
117.000	-38.885	0.100
117.100	-47.956	0.100
117.200	-31.297	0.100
117.300	-41.959	0.100
117.400	-40.553	0.100
117.500	-47.618	0.100
117.600	-36.965	0.100
117.700	-43.724	0.100
117.800	-38.017	0.100
117.900	-42.133	0.100
118.000	-53.912	0.100
118.100	-36.222	0.100
118.200	-17.431	0.100
118.300	-29.179	0.100
118.400	-42.572	0.100
118.500	-34.848	0.100
118.600	-32.479	0.100
118.700	-44.034	0.100
118.800	-48.111	0.100
118.900	-44.426	0.100
119.000	-46.569	0.100
119.100	-41.651	0.100
119.200	-40.156	0.100
119.300	-45.095	0.100
119.400	-42.988	0.100
119.500	-43.334	0.100
119.600	-39.614	0.100
119.700	-31.870	0.100
119.800	-50.866	0.100
119.900	-42.405	0.100
120.000	-44.705	0.100
120.100	-36.369	0.100
120.200	-43.162	0.100
120.300	-36.365	0.100
120.400	-40.897	0.100
120.500	-38.296	0.100
120.600	-46.835	0.100
120.700	-39.085	0.100
120.800	-37.248	0.100
120.900	-41.204	0.100
121.000	-43.489	0.100
121.100	-46.492	0.100
121.200	-38.069	0.100
121.300	-40.110	0.100
121.400	-41.379	0.100
121.500	-31.458	0.100
121.600	-37.746	0.100
121.700	-38.568	0.100
121.800	-34.927	0.100
121.900	-30.594	0.100
122.000	-38.819	0.100
122.100	-41.173	0.100
122.200	-40.275	0.100
122.300	-45.883	0.100
122.400	-45.233	0.100
122.500	-34.716	0.100
122.600	-48.250	0.100
122.700	-42.834	0.100
122.800	-33.001	0.100
122.900	-35.417	0.100
123.000	-31.912	0.100
123.100	-37.379	0.100
123.200	-48.187	0.100
123.300	-44.584	0.100
123.400	-49.575	0.100
123.500	-29.844	0.100
123.600	-41.875	0.100
123.700	-49.850	0.100
123.800	-45.420	0.100
123.900	-36.646	0.100
124.000	-39.739	0.100
124.100	-24.542	0.100
124.200	-38.627	0.100
124.300	-50.183	0.100
124.400	-33.560	0.100
124.500	-43.194	0.100
124.600	-31.594	0.100
124.700	-40.536	0.100
124.800	-38.955	0.100
124.900	-35.590	0.100
125.000	-47.404	0.100
125.100	-46.959	0.100
125.200	-38.981	0.100
125.300	-42.802	0.100
125.400	-31.594	0.100
125.500	-41.531	0.100
125.600	-52.805	0.100
125.700	-51.759	0.100
125.800	-43.486	0.100
125.900	-26.895	0.100
126.000	-36.684	0.100
126.100	-38.037	0.100
126.200	-33.257	0.100
126.300	-34.934	0.100
126.400	-36.959	0.100
126.500	-27.219	0.100
126.600	-44.441	0.100
126.700	-30.441	0.100
126.800	-53.565	0.100
126.900	-29.321	0.100
127.000	-36.702	0.100
127.100	-32.823	0.100
127.200	-37.221	0.100
127.300	-39.062	0.100
127.400	-41.281	0.100
127.500	-40.550	0.100
127.600	-38.322	0.100
127.700	-37.470	0.100
127.800	-48.992	0.100
127.900	-41.133	0.100
128.000	-36.742	0.100
128.100	-34.028	0.100
128.200	-54.240	0.100
128.300	-35.698	0.100
128.400	-35.967	0.100
128.500	-38.255	0.100
128.600	-37.043	0.100
128.700	-36.809	0.100
128.800	-48.025	0.100
128.900	-39.131	0.100
129.000	-41.183	0.100
129.100	-33.818	0.100
129.200	-41.069	0.100
129.300	-36.896	0.100
129.400	-41.600	0.100
129.500	-44.783	0.100
129.600	-34.937	0.100
129.700	-45.928	0.100
129.800	-42.206	0.100
129.900	-41.718	0.100
130.000	-33.851	0.100
130.100	-35.372	0.100
130.200	-45.365	0.100
130.300	-34.983	0.100
130.400	-37.190	0.100
130.500	-40.479	0.100
130.600	-37.301	0.100
130.700	-29.888	0.100
130.800	-38.052	0.100
130.900	-40.049	0.100
131.000	-50.783	0.100
131.100	-32.775	0.100
131.200	-27.969	0.100
131.300	-39.394	0.100
131.400	-40.067	0.100
131.500	-43.998	0.100
131.600	-22.303	0.100
131.700	-41.770	0.100
131.800	-40.856	0.100
131.900	-38.709	0.100
132.000	-41.408	0.100
132.100	-50.964	0.100
132.200	-21.464	0.100
132.300	-46.901	0.100
132.400	-49.703	0.100
132.500	-42.439	0.100
132.600	-36.278	0.100
132.700	-37.903	0.100
132.800	-37.447	0.100
132.900	-32.371	0.100
133.000	-25.944	0.100
133.100	-38.172	0.100
133.200	-40.779	0.100
133.300	-30.677	0.100
133.400	-40.579	0.100
133.500	-42.664	0.100
133.600	-37.187	0.100
133.700	-34.126	0.100
133.800	-44.664	0.100
133.900	-40.766	0.100
134.000	-23.455	0.100
134.100	-25.275	0.100
134.200	-35.170	0.100
134.300	-45.794	0.100
134.400	-35.718	0.100
134.500	-41.142	0.100
134.600	-35.019	0.100
134.700	-40.249	0.100
134.800	-40.515	0.100
134.900	-53.668	0.100
135.000	-46.685	0.100
135.100	-36.711	0.100
135.200	-31.029	0.100
135.300	-20.400	0.100
135.400	-33.173	0.100
135.500	-40.299	0.100
135.600	-39.097	0.100
135.700	-43.141	0.100
135.800	-47.023	0.100
135.900	-44.119	0.100
136.000	-36.930	0.100
136.100	-33.104	0.100
136.200	-28.829	0.100
136.300	-35.537	0.100
136.400	-33.910	0.100
136.500	-43.188	0.100
136.600	-45.546	0.100
136.700	-46.162	0.100
136.800	-37.711	0.100
136.900	-29.381	0.100
137.000	-26.588	0.100
137.100	-43.201	0.100
137.200	-37.596	0.100
137.300	-35.768	0.100
137.400	-38.559	0.100
137.500	-38.295	0.100
137.600	-30.832	0.100
137.700	-30.300	0.100
137.800	-34.003	0.100
137.900	-31.078	0.100
138.000	-34.934	0.100
138.100	-39.999	0.100
138.200	-36.127	0.100
138.300	-47.323	0.100
138.400	-36.226	0.100
138.500	-34.646	0.100
138.600	-38.909	0.100
138.700	-24.682	0.100
138.800	-31.898	0.100
138.900	-27.831	0.100
139.000	-32.581	0.100
139.100	-51.182	0.100
139.200	-39.223	0.100
139.300	-26.121	0.100
139.400	-34.531	0.100
139.500	-36.782	0.100
139.600	-34.938	0.100
139.700	-33.096	0.100
139.800	-32.102	0.100
139.900	-39.475	0.100
140.000	-33.623	0.100
140.100	-41.342	0.100
140.200	-37.015	0.100
140.300	-36.041	0.100
140.400	-51.239	0.100
140.500	-35.891	0.100
140.600	-36.092	0.100
140.700	-35.306	0.100
140.800	-29.607	0.100
140.900	-29.008	0.100
141.000	-25.935	0.100
141.100	-36.886	0.100
141.200	-28.014	0.100
141.300	-33.160	0.100
141.400	-33.429	0.100
141.500	-35.239	0.100
141.600	-39.697	0.100
141.700	-22.400	0.100
141.800	-40.437	0.100
141.900	-26.934	0.100
142.000	-38.168	0.100
142.100	-40.700	0.100
142.200	-27.962	0.100
142.300	-32.659	0.100
142.400	-36.233	0.100
142.500	-41.043	0.100
142.600	-41.105	0.100
142.700	-37.551	0.100
142.800	-23.529	0.100
142.900	-51.462	0.100
143.000	-29.877	0.100
143.100	-29.430	0.100
143.200	-32.339	0.100
143.300	-36.731	0.100
143.400	-29.275	0.100
143.500	-35.631	0.100
143.600	-28.800	0.100
143.700	-30.669	0.100
143.800	-34.434	0.100
143.900	-30.785	0.100
144.000	-45.663	0.100
144.100	-37.588	0.100
144.200	-33.958	0.100
144.300	-42.762	0.100
144.400	-37.949	0.100
144.500	-29.906	0.100
144.600	-20.543	0.100
144.700	-34.859	0.100
144.800	-39.272	0.100
144.900	-35.630	0.100
145.000	-23.869	0.100
145.100	-32.826	0.100
145.200	-35.131	0.100
145.300	-35.278	0.100
145.400	-40.652	0.100
145.500	-41.035	0.100
145.600	-55.724	0.100
145.700	-33.594	0.100
145.800	-29.137	0.100
145.900	-39.955	0.100
146.000	-24.874	0.100
146.100	-19.974	0.100
146.200	-36.864	0.100
146.300	-38.580	0.100
146.400	-44.771	0.100
146.500	-43.147	0.100
146.600	-25.625	0.100
146.700	-34.212	0.100
146.800	-31.959	0.100
146.900	-21.584	0.100
147.000	-30.005	0.100
147.100	-38.601	0.100
147.200	-47.288	0.100
147.300	-32.961	0.100
147.400	-23.230	0.100
147.500	-30.736	0.100
147.600	-26.120	0.100
147.700	-36.330	0.100
147.800	-43.635	0.100
147.900	-32.895	0.100
148.000	-26.281	0.100
148.100	-26.309	0.100
148.200	-44.375	0.100
148.300	-29.567	0.100
148.400	-38.830	0.100
148.500	-29.977	0.100
148.600	-21.461	0.100
148.700	-40.102	0.100
148.800	-31.085	0.100
148.900	-37.920	0.100
149.000	-36.158	0.100
149.100	-33.092	0.100
149.200	-40.048	0.100
149.300	-31.093	0.100
149.400	-38.226	0.100
149.500	-31.289	0.100
149.600	-38.552	0.100
149.700	-26.715	0.100
149.800	-27.667	0.100
149.900	-46.855	0.100
150.000	-25.364	0.100
150.100	-44.037	0.100
150.200	-29.014	0.100
150.300	-33.910	0.100
150.400	-38.580	0.100
150.500	-37.922	0.100
150.600	-36.866	0.100
150.700	-20.445	0.100
150.800	-29.698	0.100
150.900	-28.320	0.100
151.000	-24.552	0.100
151.100	-18.658	0.100
151.200	-29.614	0.100
151.300	-28.725	0.100
151.400	-27.664	0.100
151.500	-34.562	0.100
151.600	-36.486	0.100
151.700	-20.013	0.100
151.800	-29.741	0.100
151.900	-46.596	0.100
152.000	-25.591	0.100
152.100	-27.510	0.100
152.200	-30.518	0.100
152.300	-34.602	0.100
152.400	-41.338	0.100
152.500	-44.964	0.100
152.600	-27.095	0.100
152.700	-19.808	0.100
152.800	-25.812	0.100
152.900	-24.534	0.100
153.000	-30.788	0.100
153.100	-33.592	0.100
153.200	-26.328	0.100
153.300	-20.720	0.100
153.400	-36.702	0.100
153.500	-42.589	0.100
153.600	-28.061	0.100
153.700	-23.164	0.100
153.800	-32.332	0.100
153.900	-40.241	0.100
154.000	-26.912	0.100
154.100	-21.006	0.100
154.200	-25.587	0.100
154.300	-30.366	0.100
154.400	-37.294	0.100
154.500	-24.843	0.100
154.600	-39.562	0.100
154.700	-36.565	0.100
154.800	-34.790	0.100
154.900	-36.058	0.100
155.000	-28.949	0.100
155.100	-30.020	0.100
155.200	-25.856	0.100
155.300	-36.390	0.100
155.400	-20.957	0.100
155.500	-39.995	0.100
155.600	-30.410	0.100
155.700	-41.431	0.100
155.800	-31.614	0.100
155.900	-26.495	0.100
156.000	-47.544	0.100
156.100	-30.013	0.100
156.200	-24.706	0.100
156.300	-25.387	0.100
156.400	-18.538	0.100
156.500	-28.822	0.100
156.600	-35.657	0.100
156.700	-33.122	0.100
156.800	-24.335	0.100
156.900	-36.784	0.100
157.000	-37.303	0.100
157.100	-33.660	0.100
157.200	-37.832	0.100
157.300	-38.695	0.100
157.400	-27.055	0.100
157.500	-32.625	0.100
157.600	-18.377	0.100
157.700	-26.614	0.100
157.800	-32.467	0.100
157.900	-41.339	0.100
158.000	-22.951	0.100
158.100	-23.248	0.100
158.200	-34.783	0.100
158.300	-31.358	0.100
158.400	-37.415	0.100
158.500	-28.854	0.100
158.600	-26.963	0.100
158.700	-34.085	0.100
158.800	-23.735	0.100
158.900	-23.560	0.100
159.000	-29.510	0.100
159.100	-33.619	0.100
159.200	-34.227	0.100
159.300	-34.879	0.100
159.400	-27.460	0.100
159.500	-29.071	0.100
159.600	-40.725	0.100
159.700	-16.092	0.100
159.800	-18.143	0.100
159.900	-34.128	0.100
160.000	-34.256	0.100
160.100	-33.332	0.100
160.200	-27.418	0.100
160.300	-21.589	0.100
160.400	-27.118	0.100
160.500	-32.649	0.100
160.600	-31.449	0.100
160.700	-31.139	0.100
160.800	-32.982	0.100
160.900	-30.135	0.100
161.000	-22.979	0.100
161.100	-24.239	0.100
161.200	-30.136	0.100
161.300	-19.690	0.100
161.400	-29.330	0.100
161.500	-34.526	0.100
161.600	-25.680	0.100
161.700	-26.013	0.100
161.800	-20.999	0.100
161.900	-38.743	0.100
162.000	-22.849	0.100
162.100	-21.948	0.100
162.200	-40.489	0.100
162.300	-36.436	0.100
162.400	-29.545	0.100
162.500	-30.070	0.100
162.600	-31.067	0.100
162.700	-33.415	0.100
162.800	-28.528	0.100
162.900	-30.792	0.100
163.000	-34.231	0.100
163.100	-32.662	0.100
163.200	-22.629	0.100
163.300	-19.952	0.100
163.400	-23.769	0.100
163.500	-28.203	0.100
163.600	-29.535	0.100
163.700	-27.580	0.100
163.800	-32.335	0.100
163.900	-26.866	0.100
164.000	-31.103	0.100
164.100	-28.113	0.100
164.200	-39.641	0.100
164.300	-26.005	0.100
164.400	-22.813	0.100
164.500	-16.901	0.100
164.600	-17.748	0.100
164.700	-25.239	0.100
164.800	-29.835	0.100
164.900	-34.133	0.100
165.000	-39.015	0.100
165.100	-24.891	0.100
165.200	-26.543	0.100
165.300	-19.314	0.100
165.400	-28.211	0.100
165.500	-32.629	0.100
165.600	-37.515	0.100
165.700	-15.175	0.100
165.800	-14.399	0.100
165.900	-32.660	0.100
166.000	-34.114	0.100
166.100	-35.682	0.100
166.200	-26.142	0.100
166.300	-21.627	0.100
166.400	-25.464	0.100
166.500	-30.511	0.100
166.600	-24.699	0.100
166.700	-28.997	0.100
166.800	-19.692	0.100
166.900	-24.286	0.100
167.000	-19.904	0.100
167.100	-35.765	0.100
167.200	-30.220	0.100
167.300	-27.646	0.100
167.400	-15.258	0.100
167.500	-26.463	0.100
167.600	-35.632	0.100
167.700	-24.029	0.100
167.800	-27.127	0.100
167.900	-27.450	0.100
168.000	-23.282	0.100
168.100	-28.001	0.100
168.200	-19.743	0.100
168.300	-44.001	0.100
168.400	-35.109	0.100
168.500	-32.181	0.100
168.600	-13.446	0.100
168.700	-26.053	0.100
168.800	-14.018	0.100
168.900	-28.833	0.100
169.000	-32.154	0.100
169.100	-35.954	0.100
169.200	-18.647	0.100
169.300	-24.294	0.100
169.400	-28.202	0.100
169.500	-21.519	0.100
169.600	-17.687	0.100
169.700	-32.243	0.100
169.800	-31.317	0.100
169.900	-23.462	0.100
170.000	-37.409	0.100
170.100	-22.214	0.100
170.200	-29.330	0.100
170.300	-23.304	0.100
170.400	-31.078	0.100
170.500	-25.664	0.100
170.600	-26.744	0.100
170.700	-22.577	0.100
170.800	-26.972	0.100
170.900	-19.677	0.100
171.000	-31.675	0.100
171.100	-21.215	0.100
171.200	-27.776	0.100
171.300	-35.588	0.100
171.400	-29.906	0.100
171.500	-27.475	0.100
171.600	-23.071	0.100
171.700	-23.449	0.100
171.800	-29.918	0.100
171.900	-31.224	0.100
172.000	-16.375	0.100
172.100	-29.732	0.100
172.200	-23.450	0.100
172.300	-22.952	0.100
172.400	-38.287	0.100
172.500	-17.428	0.100
172.600	-30.783	0.100
172.700	-24.716	0.100
172.800	-28.189	0.100
172.900	-31.061	0.100
173.000	-32.843	0.100
173.100	-34.383	0.100
173.200	-24.527	0.100
173.300	-25.360	0.100
173.400	-27.458	0.100
173.500	-33.847	0.100
173.600	-37.326	0.100
173.700	-22.396	0.100
173.800	-23.847	0.100
173.900	-28.757	0.100
174.000	-29.318	0.100
174.100	-26.488	0.100
174.200	-28.289	0.100
174.300	-27.271	0.100
174.400	-15.820	0.100
174.500	-26.931	0.100
174.600	-29.083	0.100
174.700	-28.766	0.100
174.800	-25.421	0.100
174.900	-30.166	0.100
175.000	-16.472	0.100
175.100	-22.089	0.100
175.200	-30.781	0.100
175.300	-32.319	0.100
175.400	-30.548	0.100
175.500	-22.357	0.100
175.600	-19.737	0.100
175.700	-29.719	0.100
175.800	-23.853	0.100
175.900	-25.855	0.100
176.000	-24.299	0.100
176.100	-29.634	0.100
176.200	-23.320	0.100
176.300	-26.088	0.100
176.400	-21.564	0.100
176.500	-25.484	0.100
176.600	-34.696	0.100
176.700	-15.545	0.100
176.800	-25.644	0.100
176.900	-19.021	0.100
177.000	-22.509	0.100
177.100	-27.433	0.100
177.200	-42.733	0.100
177.300	-28.048	0.100
177.400	-12.784	0.100
177.500	-18.611	0.100
177.600	-21.994	0.100
177.700	-23.796	0.100
177.800	-24.547	0.100
177.900	-31.639	0.100
178.000	-26.817	0.100
178.100	-24.474	0.100
178.200	-30.962	0.100
178.300	-27.992	0.100
178.400	-33.063	0.100
178.500	-20.705	0.100
178.600	-30.835	0.100
178.700	-16.346	0.100
178.800	-19.441	0.100
178.900	-27.813	0.100
179.000	-31.567	0.100
179.100	-26.067	0.100
179.200	-26.694	0.100
179.300	-23.280	0.100
179.400	-21.256	0.100
179.500	-25.162	0.100
179.600	-28.451	0.100
179.700	-25.884	0.100
179.800	-26.707	0.100
179.900	-21.161	0.100
180.000	-23.093	0.100
180.100	-32.051	0.100
180.200	-16.076	0.100
180.300	-23.815	0.100
180.400	-16.141	0.100
180.500	5.453	0.100
180.600	22.554	0.100
180.700	34.588	0.100
180.800	32.331	0.100
180.900	42.850	0.100
181.000	49.059	0.100
181.100	42.060	0.100
181.200	51.137	0.100
181.300	53.718	0.100
181.400	50.611	0.100
181.500	58.382	0.100
181.600	53.509	0.100
181.700	52.473	0.100
181.800	48.220	0.100
181.900	39.284	0.100
182.000	58.341	0.100
182.100	64.446	0.100
182.200	56.235	0.100
182.300	39.883	0.100
182.400	54.321	0.100
182.500	38.469	0.100
182.600	48.170	0.100
182.700	46.193	0.100
182.800	40.764	0.100
182.900	57.801	0.100
183.000	35.676	0.100
183.100	37.907	0.100
183.200	46.598	0.100
183.300	44.030	0.100
183.400	45.399	0.100
183.500	38.690	0.100
183.600	23.421	0.100
183.700	39.989	0.100
183.800	43.783	0.100
183.900	37.969	0.100
184.000	38.182	0.100
184.100	42.619	0.100
184.200	44.263	0.100
184.300	28.631	0.100
184.400	37.670	0.100
184.500	50.614	0.100
184.600	41.282	0.100
184.700	40.524	0.100
184.800	23.384	0.100
184.900	28.424	0.100
185.000	41.255	0.100
185.100	41.001	0.100
185.200	49.632	0.100
185.300	36.275	0.100
185.400	42.251	0.100
185.500	40.041	0.100
185.600	42.671	0.100
185.700	43.459	0.100
185.800	52.237	0.100
185.900	37.744	0.100
186.000	46.299	0.100
186.100	41.462	0.100
186.200	57.799	0.100
186.300	58.275	0.100
186.400	53.047	0.100
186.500	48.269	0.100
186.600	47.305	0.100
186.700	52.435	0.100
186.800	58.380	0.100
186.900	57.716	0.100
187.000	62.850	0.100
187.100	47.357	0.100
187.200	50.514	0.100
187.300	52.201	0.100
187.400	70.649	0.100
187.500	73.747	0.100
187.600	77.806	0.100
187.700	59.387	0.100
187.800	76.152	0.100
187.900	81.272	0.100
188.000	70.920	0.100
188.100	74.436	0.100
188.200	73.725	0.100
188.300	70.398	0.100
188.400	68.470	0.100
188.500	80.785	0.100
188.600	87.945	0.100
188.700	83.945	0.100
188.800	67.884	0.100
188.900	81.044	0.100
189.000	65.875	0.100
189.100	70.217	0.100
189.200	83.229	0.100
189.300	85.986	0.100
189.400	89.101	0.100
189.500	77.330	0.100
189.600	83.789	0.100
189.700	85.346	0.100
189.800	87.305	0.100
189.900	87.253	0.100
190.000	77.557	0.100
190.100	75.302	0.100
190.200	84.055	0.100
190.300	82.550	0.100
190.400	90.149	0.100
190.500	83.494	0.100
190.600	98.965	0.100
190.700	84.513	0.100
190.800	99.354	0.100
190.900	91.108	0.100
191.000	105.556	0.100
191.100	90.532	0.100
191.200	88.521	0.100
191.300	88.636	0.100
191.400	83.147	0.100
191.500	96.265	0.100
191.600	78.740	0.100
191.700	74.595	0.100
191.800	85.475	0.100
191.900	75.427	0.100
192.000	80.944	0.100
192.100	95.176	0.100
192.200	84.345	0.100
192.300	89.277	0.100
192.400	97.383	0.100
192.500	79.148	0.100
192.600	81.222	0.100
192.700	90.721	0.100
192.800	82.088	0.100
192.900	70.099	0.100
193.000	68.644	0.100
193.100	86.133	0.100
193.200	91.078	0.100
193.300	84.753	0.100
193.400	90.171	0.100
193.500	98.644	0.100
193.600	85.003	0.100
193.700	85.928	0.100
193.800	94.330	0.100
193.900	97.360	0.100
194.000	82.251	0.100
194.100	85.770	0.100
194.200	87.051	0.100
194.300	78.479	0.100
194.400	82.186	0.100
194.500	84.225	0.100
194.600	71.845	0.100
194.700	79.772	0.100
194.800	84.574	0.100
194.900	77.763	0.100
195.000	88.599	0.100
195.100	93.442	0.100
195.200	81.309	0.100
195.300	67.542	0.100
195.400	85.215	0.100
195.500	80.968	0.100
195.600	81.762	0.100
195.700	87.039	0.100
195.800	93.051	0.100
195.900	80.253	0.100
196.000	74.306	0.100
196.100	80.275	0.100
196.200	80.833	0.100
196.300	81.379	0.100
196.400	68.053	0.100
196.500	83.191	0.100
196.600	92.585	0.100
196.700	82.830	0.100
196.800	77.237	0.100
196.900	80.803	0.100
197.000	75.681	0.100
197.100	69.344	0.100
197.200	95.638	0.100
197.300	83.066	0.100
197.400	81.358	0.100
197.500	87.908	0.100
197.600	72.376	0.100
197.700	79.207	0.100
197.800	81.383	0.100
197.900	84.413	0.100
198.000	91.671	0.100
198.100	72.165	0.100
198.200	74.216	0.100
198.300	79.667	0.100
198.400	75.551	0.100
198.500	86.024	0.100
198.600	95.188	0.100
198.700	81.529	0.100
198.800	74.569	0.100
198.900	67.387	0.100
199.000	70.233	0.100
199.100	92.078	0.100
199.200	83.498	0.100
199.300	64.388	0.100
199.400	79.989	0.100
199.500	79.127	0.100
199.600	82.782	0.100
199.700	82.147	0.100
199.800	60.961	0.100
199.900	89.721	0.100
200.000	77.398	0.100
200.100	80.606	0.100
200.200	66.946	0.100
200.300	85.843	0.100
200.400	75.330	0.100
200.500	59.885	0.100
200.600	77.864	0.100
200.700	85.181	0.100
200.800	82.856	0.100
200.900	82.012	0.100
201.000	77.698	0.100
201.100	74.554	0.100
201.200	59.827	0.100
201.300	70.455	0.100
201.400	75.999	0.100
201.500	88.935	0.100
201.600	72.631	0.100
201.700	79.645	0.100
201.800	70.773	0.100
201.900	58.711	0.100
202.000	58.936	0.100
202.100	76.148	0.100
202.200	83.089	0.100
202.300	71.900	0.100
202.400	68.828	0.100
202.500	73.471	0.100
202.600	78.993	0.100
202.700	78.864	0.100
202.800	72.201	0.100
202.900	69.662	0.100
203.000	81.789	0.100
203.100	78.395	0.100
203.200	73.951	0.100
203.300	74.394	0.100
203.400	73.918	0.100
203.500	71.511	0.100
203.600	70.763	0.100
203.700	80.168	0.100
203.800	67.821	0.100
203.900	66.067	0.100
204.000	68.810	0.100
204.100	73.543	0.100
204.200	79.955	0.100
204.300	79.035	0.100
204.400	77.661	0.100
204.500	73.093	0.100
204.600	68.910	0.100
204.700	59.579	0.100
204.800	68.080	0.100
204.900	69.354	0.100
205.000	77.124	0.100
205.100	72.574	0.100
205.200	77.106	0.100
205.300	68.942	0.100
205.400	74.371	0.100
205.500	66.831	0.100
205.600	71.753	0.100
205.700	77.676	0.100
205.800	77.117	0.100
205.900	64.874	0.100
206.000	66.290	0.100
206.100	77.789	0.100
206.200	70.463	0.100
206.300	74.596	0.100
206.400	70.519	0.100
206.500	74.762	0.100
206.600	74.941	0.100
206.700	76.370	0.100
206.800	75.259	0.100
206.900	68.446	0.100
207.000	72.655	0.100
207.100	56.907	0.100
207.200	74.616	0.100
207.300	74.852	0.100
207.400	78.514	0.100
207.500	71.976	0.100
207.600	65.338	0.100
207.700	59.129	0.100
207.800	72.363	0.100
207.900	67.754	0.100
208.000	74.215	0.100
208.100	83.331	0.100
208.200	73.042	0.100
208.300	67.328	0.100
208.400	67.350	0.100
208.500	63.283	0.100
208.600	81.641	0.100
208.700	70.431	0.100
208.800	76.933	0.100
208.900	76.297	0.100
209.000	66.327	0.100
209.100	81.569	0.100
209.200	71.677	0.100
209.300	69.024	0.100
209.400	80.174	0.100
209.500	68.208	0.100
209.600	74.689	0.100
209.700	85.296	0.100
209.800	67.867	0.100
209.900	57.278	0.100
210.000	75.085	0.100
210.100	75.666	0.100
210.200	70.135	0.100
210.300	73.545	0.100
210.400	73.856	0.100
210.500	62.770	0.100
210.600	59.660	0.100
210.700	63.040	0.100
210.800	75.584	0.100
210.900	74.361	0.100
211.000	76.049	0.100
211.100	72.272	0.100
211.200	64.114	0.100
211.300	78.142	0.100
211.400	67.633	0.100
211.500	82.516	0.100
211.600	68.123	0.100
211.700	68.166	0.100
211.800	57.411	0.100
211.900	64.855	0.100
212.000	82.918	0.100
212.100	68.610	0.100
212.200	71.311	0.100
212.300	76.644	0.100
212.400	57.305	0.100
212.500	61.110	0.100
212.600	75.658	0.100
212.700	78.202	0.100
212.800	60.655	0.100
212.900	74.994	0.100
213.000	64.804	0.100
213.100	66.074	0.100
213.200	68.292	0.100
213.300	63.547	0.100
213.400	62.968	0.100
213.500	57.250	0.100
213.600	72.416	0.100
213.700	75.010	0.100
213.800	75.288	0.100
213.900	69.009	0.100
214.000	71.870	0.100
214.100	70.022	0.100
214.200	72.465	0.100
214.300	72.882	0.100
214.400	73.446	0.100
214.500	71.224	0.100
214.600	62.790	0.100
214.700	73.987	0.100
214.800	74.663	0.100
214.900	68.897	0.100
215.000	76.361	0.100
215.100	63.771	0.100
215.200	67.592	0.100
215.300	75.447	0.100
215.400	72.883	0.100
215.500	69.921	0.100
215.600	66.087	0.100
215.700	65.072	0.100
215.800	67.566	0.100
215.900	71.093	0.100
216.000	77.700	0.100
216.100	67.736	0.100
216.200	69.113	0.100
216.300	74.145	0.100
216.400	65.945	0.100
216.500	70.610	0.100
216.600	70.693	0.100
216.700	76.989	0.100
216.800	74.921	0.100
216.900	62.899	0.100
217.000	74.741	0.100
217.100	72.133	0.100
217.200	75.020	0.100
217.300	64.864	0.100
217.400	79.081	0.100
217.500	62.727	0.100
217.600	69.620	0.100
217.700	77.818	0.100
217.800	78.097	0.100
217.900	62.984	0.100
218.000	75.999	0.100
218.100	78.785	0.100
218.200	78.474	0.100
218.300	65.738	0.100
218.400	73.288	0.100
218.500	75.168	0.100
218.600	66.926	0.100
218.700	72.355	0.100
218.800	56.688	0.100
218.900	62.601	0.100
219.000	75.259	0.100
219.100	75.028	0.100
219.200	73.964	0.100
219.300	70.557	0.100
219.400	76.418	0.100
219.500	78.161	0.100
219.600	60.834	0.100
219.700	77.632	0.100
219.800	86.435	0.100
219.900	67.781	0.100
220.000	86.191	0.100
220.100	66.606	0.100
220.200	67.999	0.100
220.300	59.617	0.100
220.400	70.502	0.100
220.500	69.834	0.100
220.600	62.939	0.100
220.700	85.732	0.100
220.800	82.437	0.100
220.900	74.258	0.100
221.000	78.387	0.100
221.100	65.875	0.100
221.200	60.549	0.100
221.300	89.333	0.100
221.400	82.216	0.100
221.500	71.449	0.100
221.600	71.004	0.100
221.700	76.306	0.100
221.800	75.240	0.100
221.900	70.425	0.100
222.000	74.941	0.100
222.100	70.941	0.100
222.200	75.736	0.100
222.300	72.692	0.100
222.400	80.297	0.100
222.500	67.562	0.100
222.600	71.699	0.100
222.700	82.951	0.100
222.800	77.550	0.100
222.900	66.363	0.100
223.000	80.278	0.100
223.100	80.741	0.100
223.200	58.126	0.100
223.300	78.351	0.100
223.400	59.863	0.100
223.500	66.851	0.100
223.600	72.886	0.100
223.700	81.809	0.100
223.800	75.290	0.100
223.900	77.091	0.100
224.000	71.914	0.100
224.100	54.037	0.100
224.200	71.594	0.100
224.300	73.465	0.100
224.400	80.191	0.100
224.500	76.112	0.100
224.600	66.220	0.100
224.700	77.065	0.100
224.800	74.077	0.100
224.900	71.461	0.100
225.000	72.390	0.100
225.100	69.503	0.100
225.200	73.756	0.100
225.300	76.458	0.100
225.400	70.407	0.100
225.500	56.154	0.100
225.600	73.221	0.100
225.700	67.100	0.100
225.800	62.967	0.100
225.900	74.218	0.100
226.000	71.903	0.100
226.100	73.826	0.100
226.200	82.170	0.100
226.300	80.063	0.100
226.400	73.356	0.100
226.500	73.015	0.100
226.600	75.701	0.100
226.700	74.737	0.100
226.800	79.247	0.100
226.900	57.072	0.100
227.000	58.871	0.100
227.100	72.486	0.100
227.200	83.494	0.100
227.300	72.154	0.100
227.400	79.861	0.100
227.500	73.925	0.100
227.600	69.176	0.100
227.700	66.088	0.100
227.800	80.169	0.100
227.900	73.464	0.100
228.000	70.133	0.100
228.100	76.144	0.100
228.200	71.871	0.100
228.300	68.633	0.100
228.400	76.961	0.100
228.500	75.649	0.100
228.600	73.657	0.100
228.700	79.921	0.100
228.800	64.455	0.100
228.900	70.752	0.100
229.000	82.058	0.100
229.100	72.786	0.100
229.200	61.901	0.100
229.300	62.328	0.100
229.400	76.127	0.100
229.500	73.875	0.100
229.600	93.338	0.100
229.700	86.489	0.100
229.800	78.018	0.100
229.900	69.794	0.100
230.000	50.722	0.100
230.100	77.255	0.100
230.200	66.407	0.100
230.300	84.984	0.100
230.400	80.656	0.100
230.500	65.104	0.100
230.600	68.748	0.100
230.700	72.669	0.100
230.800	74.157	0.100
230.900	85.301	0.100
231.000	63.129	0.100
231.100	67.493	0.100
231.200	76.807	0.100
231.300	64.032	0.100
231.400	84.870	0.100
231.500	80.691	0.100
231.600	66.285	0.100
231.700	86.719	0.100
231.800	78.053	0.100
231.900	70.987	0.100
232.000	80.574	0.100
232.100	85.458	0.100
232.200	68.943	0.100
232.300	68.029	0.100
232.400	82.817	0.100
232.500	76.457	0.100
232.600	76.164	0.100
232.700	69.556	0.100
232.800	65.218	0.100
232.900	71.481	0.100
233.000	69.721	0.100
233.100	79.678	0.100
233.200	64.712	0.100
233.300	83.734	0.100
233.400	68.983	0.100
233.500	62.383	0.100
233.600	68.599	0.100
233.700	67.700	0.100
233.800	85.837	0.100
233.900	86.157	0.100
234.000	61.867	0.100
234.100	72.610	0.100
234.200	72.752	0.100
234.300	76.858	0.100
234.400	85.374	0.100
234.500	77.972	0.100
234.600	70.330	0.100
234.700	70.484	0.100
234.800	72.676	0.100
234.900	69.610	0.100
235.000	64.970	0.100
235.100	79.808	0.100
235.200	62.086	0.100
235.300	75.658	0.100
235.400	58.611	0.100
235.500	85.298	0.100
235.600	72.556	0.100
235.700	77.819	0.100
235.800	71.317	0.100
235.900	65.330	0.100
236.000	78.669	0.100
236.100	69.073	0.100
236.200	85.534	0.100
236.300	74.687	0.100
236.400	70.725	0.100
236.500	63.954	0.100
236.600	88.619	0.100
236.700	72.908	0.100
236.800	64.454	0.100
236.900	65.308	0.100
237.000	73.601	0.100
237.100	75.251	0.100
237.200	68.098	0.100
237.300	87.792	0.100
237.400	84.778	0.100
237.500	62.729	0.100
237.600	70.062	0.100
237.700	78.184	0.100
237.800	81.606	0.100
237.900	74.325	0.100
238.000	74.938	0.100
238.100	71.916	0.100
238.200	73.702	0.100
238.300	73.202	0.100
238.400	63.133	0.100
238.500	72.940	0.100
238.600	75.968	0.100
238.700	68.714	0.100
238.800	66.684	0.100
238.900	66.525	0.100
239.000	73.473	0.100
239.100	80.289	0.100
239.200	77.454	0.100
239.300	56.320	0.100
239.400	67.889	0.100
239.500	88.325	0.100
239.600	72.805	0.100
239.700	75.065	0.100
239.800	74.424	0.100
239.900	68.247	0.100
240.000	76.984	0.100
240.100	86.203	0.100
240.200	79.865	0.100
240.300	54.473	0.100
240.400	43.565	0.100
240.500	33.470	0.100
240.600	38.750	0.100
240.700	30.164	0.100
240.800	18.550	0.100
240.900	11.473	0.100
241.000	11.261	0.100
241.100	-9.028	0.100
241.200	-17.673	0.100
241.300	-8.695	0.100
241.400	-32.576	0.100
241.500	-13.961	0.100
241.600	-38.180	0.100
241.700	-38.879	0.100
241.800	-45.756	0.100
241.900	-36.983	0.100
242.000	-39.067	0.100
242.100	-40.678	0.100
242.200	-58.700	0.100
242.300	-55.382	0.100
242.400	-48.924	0.100
242.500	-53.957	0.100
242.600	-35.003	0.100
242.700	-57.456	0.100
242.800	-46.042	0.100
242.900	-42.697	0.100
243.000	-48.346	0.100
243.100	-51.096	0.100
243.200	-58.000	0.100
243.300	-58.211	0.100
243.400	-47.622	0.100
243.500	-65.186	0.100
243.600	-66.022	0.100
243.700	-57.131	0.100
243.800	-56.193	0.100
243.900	-58.690	0.100
244.000	-65.312	0.100
244.100	-42.740	0.100
244.200	-50.683	0.100
244.300	-57.565	0.100
244.400	-52.889	0.100
244.500	-57.841	0.100
244.600	-64.047	0.100
244.700	-53.288	0.100
244.800	-45.290	0.100
244.900	-56.855	0.100
245.000	-47.781	0.100
245.100	-41.818	0.100
245.200	-44.765	0.100
245.300	-63.063	0.100
245.400	-61.936	0.100
245.500	-45.112	0.100
245.600	-42.152	0.100
245.700	-61.644	0.100
245.800	-59.271	0.100
245.900	-53.787	0.100
246.000	-40.142	0.100
246.100	-56.214	0.100
246.200	-54.345	0.100
246.300	-45.708	0.100
246.400	-54.063	0.100
246.500	-55.852	0.100
246.600	-43.881	0.100
246.700	-46.542	0.100
246.800	-51.891	0.100
246.900	-44.244	0.100
247.000	-47.465	0.100
247.100	-37.405	0.100
247.200	-46.097	0.100
247.300	-43.733	0.100
247.400	-40.618	0.100
247.500	-42.973	0.100
247.600	-46.275	0.100
247.700	-41.391	0.100
247.800	-47.173	0.100
247.900	-32.884	0.100
248.000	-41.354	0.100
248.100	-57.722	0.100
248.200	-52.246	0.100
248.300	-44.030	0.100
248.400	-27.025	0.100
248.500	-43.177	0.100
248.600	-38.034	0.100
248.700	-55.667	0.100
248.800	-40.019	0.100
248.900	-39.450	0.100
249.000	-44.515	0.100
249.100	-46.736	0.100
249.200	-41.765	0.100
249.300	-32.586	0.100
249.400	-48.222	0.100
249.500	-35.613	0.100
249.600	-35.159	0.100
249.700	-45.588	0.100
249.800	-42.581	0.100
249.900	-53.437	0.100
250.000	-39.688	0.100
250.100	-43.281	0.100
250.200	-38.294	0.100
250.300	-48.905	0.100
250.400	-36.009	0.100
250.500	-48.927	0.100
250.600	-51.221	0.100
250.700	-38.765	0.100
250.800	-46.149	0.100
250.900	-26.261	0.100
251.000	-50.823	0.100
251.100	-39.093	0.100
251.200	-46.636	0.100
251.300	-46.562	0.100
251.400	-26.328	0.100
251.500	-42.494	0.100
251.600	-55.031	0.100
251.700	-37.174	0.100
251.800	-42.568	0.100
251.900	-35.257	0.100
252.000	-33.689	0.100
252.100	-36.007	0.100
252.200	-54.880	0.100
252.300	-43.831	0.100
252.400	-45.501	0.100
252.500	-45.626	0.100
252.600	-36.531	0.100
252.700	-50.531	0.100
252.800	-40.106	0.100
252.900	-48.556	0.100
253.000	-52.730	0.100
253.100	-44.612	0.100
253.200	-43.417	0.100
253.300	-34.216	0.100
253.400	-35.043	0.100
253.500	-46.027	0.100
253.600	-48.701	0.100
253.700	-39.044	0.100
253.800	-40.833	0.100
253.900	-36.964	0.100
254.000	-51.400	0.100
254.100	-51.744	0.100
254.200	-40.530	0.100
254.300	-33.154	0.100
254.400	-46.610	0.100
254.500	-38.668	0.100
254.600	-43.390	0.100
254.700	-53.031	0.100
254.800	-40.651	0.100
254.900	-40.312	0.100
255.000	-48.473	0.100
255.100	-37.452	0.100
255.200	-38.060	0.100
255.300	-43.907	0.100
255.400	-40.626	0.100
255.500	-52.547	0.100
255.600	-45.200	0.100
255.700	-48.319	0.100
255.800	-32.717	0.100
255.900	-49.820	0.100
256.000	-47.935	0.100
256.100	-39.337	0.100
256.200	-30.779	0.100
256.300	-43.254	0.100
256.400	-51.980	0.100
256.500	-39.918	0.100
256.600	-39.533	0.100
256.700	-40.372	0.100
256.800	-37.073	0.100
256.900	-54.431	0.100
257.000	-45.906	0.100
257.100	-40.118	0.100
257.200	-43.030	0.100
257.300	-34.821	0.100
257.400	-55.164	0.100
257.500	-46.092	0.100
257.600	-42.528	0.100
257.700	-49.699	0.100
257.800	-46.646	0.100
257.900	-33.978	0.100
258.000	-36.132	0.100
258.100	-48.015	0.100
258.200	-45.606	0.100
258.300	-52.733	0.100
258.400	-53.692	0.100
258.500	-49.004	0.100
258.600	-56.082	0.100
258.700	-48.181	0.100
258.800	-43.083	0.100
258.900	-36.010	0.100
259.000	-44.535	0.100
259.100	-51.871	0.100
259.200	-54.492	0.100
259.300	-55.103	0.100
259.400	-42.924	0.100
259.500	-51.409	0.100
259.600	-51.126	0.100
259.700	-39.674	0.100
259.800	-43.005	0.100
259.900	-52.929	0.100
260.000	-36.392	0.100
260.100	-46.184	0.100
260.200	-30.835	0.100
260.300	-39.551	0.100
260.400	-41.601	0.100
260.500	-50.977	0.100
260.600	-59.253	0.100
260.700	-33.362	0.100
260.800	-38.919	0.100
260.900	-46.672	0.100
261.000	-38.304	0.100
261.100	-61.894	0.100
261.200	-33.957	0.100
261.300	-41.040	0.100
261.400	-51.234	0.100
261.500	-47.435	0.100
261.600	-42.779	0.100
261.700	-54.044	0.100
261.800	-49.884	0.100
261.900	-42.503	0.100
262.000	-44.164	0.100
262.100	-39.592	0.100
262.200	-41.070	0.100
262.300	-46.394	0.100
262.400	-48.631	0.100
262.500	-59.405	0.100
262.600	-43.958	0.100
262.700	-29.461	0.100
262.800	-43.233	0.100
262.900	-45.543	0.100
263.000	-45.652	0.100
263.100	-40.570	0.100
263.200	-49.134	0.100
263.300	-45.540	0.100
263.400	-45.825	0.100
263.500	-53.057	0.100
263.600	-46.444	0.100
263.700	-41.039	0.100
263.800	-37.215	0.100
263.900	-45.331	0.100
264.000	-59.515	0.100
264.100	-39.319	0.100
264.200	-58.344	0.100
264.300	-30.972	0.100
264.400	-52.985	0.100
264.500	-44.455	0.100
264.600	-44.638	0.100
264.700	-48.855	0.100
264.800	-51.079	0.100
264.900	-37.055	0.100
265.000	-47.631	0.100
265.100	-45.744	0.100
265.200	-58.935	0.100
265.300	-48.428	0.100
265.400	-47.255	0.100
265.500	-43.206	0.100
265.600	-41.429	0.100
265.700	-42.635	0.100
265.800	-55.246	0.100
265.900	-42.858	0.100
266.000	-35.381	0.100
266.100	-45.382	0.100
266.200	-56.224	0.100
266.300	-40.414	0.100
266.400	-41.042	0.100
266.500	-49.058	0.100
266.600	-36.355	0.100
266.700	-33.053	0.100
266.800	-42.681	0.100
266.900	-41.151	0.100
267.000	-46.845	0.100
267.100	-36.102	0.100
267.200	-45.892	0.100
267.300	-46.422	0.100
267.400	-43.173	0.100
267.500	-51.944	0.100
267.600	-51.301	0.100
267.700	-45.468	0.100
267.800	-38.037	0.100
267.900	-43.586	0.100
268.000	-43.464	0.100
268.100	-47.440	0.100
268.200	-44.583	0.100
268.300	-38.782	0.100
268.400	-37.034	0.100
268.500	-42.829	0.100
268.600	-44.025	0.100
268.700	-54.327	0.100
268.800	-50.942	0.100
268.900	-41.618	0.100
269.000	-34.312	0.100
269.100	-49.653	0.100
269.200	-38.211	0.100
269.300	-55.284	0.100
269.400	-50.970	0.100
269.500	-43.608	0.100
269.600	-37.678	0.100
269.700	-34.561	0.100
269.800	-48.017	0.100
269.900	-49.888	0.100
270.000	-51.129	0.100
270.100	-36.953	0.100
270.200	-46.287	0.100
270.300	-41.176	0.100
270.400	-48.780	0.100
270.500	-45.167	0.100
270.600	-47.743	0.100
270.700	-38.621	0.100
270.800	-46.150	0.100
270.900	-52.640	0.100
271.000	-41.281	0.100
271.100	-51.278	0.100
271.200	-50.438	0.100
271.300	-41.821	0.100
271.400	-43.164	0.100
271.500	-51.204	0.100
271.600	-56.491	0.100
271.700	-33.281	0.100
271.800	-58.453	0.100
271.900	-43.871	0.100
272.000	-34.551	0.100
272.100	-42.629	0.100
272.200	-40.210	0.100
272.300	-47.838	0.100
272.400	-49.621	0.100
272.500	-51.513	0.100
272.600	-32.752	0.100
272.700	-42.328	0.100
272.800	-51.164	0.100
272.900	-43.026	0.100
273.000	-50.487	0.100
273.100	-34.384	0.100
273.200	-57.242	0.100
273.300	-48.824	0.100
273.400	-42.441	0.100
273.500	-50.170	0.100
273.600	-50.727	0.100
273.700	-27.066	0.100
273.800	-34.369	0.100
273.900	-47.930	0.100
274.000	-48.300	0.100
274.100	-59.506	0.100
274.200	-42.662	0.100
274.300	-44.701	0.100
274.400	-43.609	0.100
274.500	-41.650	0.100
274.600	-51.024	0.100
274.700	-46.810	0.100
274.800	-48.383	0.100
274.900	-48.005	0.100
275.000	-38.831	0.100
275.100	-44.370	0.100
275.200	-35.484	0.100
275.300	-44.751	0.100
275.400	-38.794	0.100
275.500	-40.739	0.100
275.600	-41.860	0.100
275.700	-48.482	0.100
275.800	-45.199	0.100
275.900	-48.600	0.100
276.000	-44.125	0.100
276.100	-42.832	0.100
276.200	-40.536	0.100
276.300	-45.443	0.100
276.400	-45.510	0.100
276.500	-47.595	0.100
276.600	-36.452	0.100
276.700	-41.754	0.100
276.800	-44.905	0.100
276.900	-49.788	0.100
277.000	-52.570	0.100
277.100	-41.352	0.100
277.200	-39.983	0.100
277.300	-31.951	0.100
277.400	-40.834	0.100
277.500	-49.508	0.100
277.600	-49.553	0.100
277.700	-43.336	0.100
277.800	-46.230	0.100
277.900	-29.633	0.100
278.000	-56.523	0.100
278.100	-52.275	0.100
278.200	-50.487	0.100
278.300	-37.574	0.100
278.400	-37.467	0.100
278.500	-40.643	0.100
278.600	-47.248	0.100
278.700	-46.829	0.100
278.800	-45.862	0.100
278.900	-44.677	0.100
279.000	-45.673	0.100
279.100	-51.197	0.100
279.200	-47.347	0.100
279.300	-39.567	0.100
279.400	-43.169	0.100
279.500	-51.105	0.100
279.600	-37.632	0.100
279.700	-35.598	0.100
279.800	-47.157	0.100
279.900	-50.135	0.100
280.000	-36.823	0.100
280.100	-36.484	0.100
280.200	-46.233	0.100
280.300	-34.416	0.100
280.400	-52.353	0.100
280.500	-49.660	0.100
280.600	-41.259	0.100
280.700	-38.197	0.100
280.800	-36.270	0.100
280.900	-47.545	0.100
281.000	-38.785	0.100
281.100	-44.031	0.100
281.200	-45.819	0.100
281.300	-51.414	0.100
281.400	-32.697	0.100
281.500	-51.127	0.100
281.600	-41.707	0.100
281.700	-47.455	0.100
281.800	-50.871	0.100
281.900	-34.711	0.100
282.000	-41.564	0.100
282.100	-42.077	0.100
282.200	-42.004	0.100
282.300	-45.192	0.100
282.400	-48.050	0.100
282.500	-36.167	0.100
282.600	-49.955	0.100
282.700	-38.957	0.100
282.800	-39.597	0.100
282.900	-49.727	0.100
283.000	-40.515	0.100
283.100	-31.365	0.100
283.200	-33.433	0.100
283.300	-48.964	0.100
283.400	-46.283	0.100
283.500	-49.441	0.100
283.600	-44.645	0.100
283.700	-41.224	0.100
283.800	-46.568	0.100
283.900	-41.551	0.100
284.000	-37.017	0.100
284.100	-37.279	0.100
284.200	-42.128	0.100
284.300	-40.900	0.100
284.400	-38.615	0.100
284.500	-40.540	0.100
284.600	-32.937	0.100
284.700	-52.812	0.100
284.800	-36.448	0.100
284.900	-30.878	0.100
285.000	-40.960	0.100
285.100	-47.701	0.100
285.200	-42.427	0.100
285.300	-34.419	0.100
285.400	-31.916	0.100
285.500	-44.316	0.100
285.600	-31.647	0.100
285.700	-44.260	0.100
285.800	-54.056	0.100
285.900	-51.483	0.100
286.000	-34.168	0.100
286.100	-38.097	0.100
286.200	-30.333	0.100
286.300	-58.828	0.100
286.400	-39.261	0.100
286.500	-34.681	0.100
286.600	-37.892	0.100
286.700	-37.633	0.100
286.800	-28.824	0.100
286.900	-44.594	0.100
287.000	-40.949	0.100
287.100	-43.826	0.100
287.200	-42.574	0.100
287.300	-42.847	0.100
287.400	-39.805	0.100
287.500	-41.493	0.100
287.600	-43.260	0.100
287.700	-34.774	0.100
287.800	-33.782	0.100
287.900	-30.191	0.100
288.000	-41.268	0.100
288.100	-58.161	0.100
288.200	-42.064	0.100
288.300	-39.429	0.100
288.400	-44.751	0.100
288.500	-52.123	0.100
288.600	-30.534	0.100
288.700	-42.317	0.100
288.800	-41.497	0.100
288.900	-42.017	0.100
289.000	-45.705	0.100
289.100	-32.057	0.100
289.200	-52.483	0.100
289.300	-39.259	0.100
289.400	-43.380	0.100
289.500	-39.634	0.100
289.600	-43.039	0.100
289.700	-40.497	0.100
289.800	-40.844	0.100
289.900	-27.978	0.100
290.000	-17.069	0.100
290.100	-39.677	0.100
290.200	-34.293	0.100
290.300	-33.942	0.100
290.400	-46.275	0.100
290.500	-42.900	0.100
290.600	-46.293	0.100
290.700	-44.384	0.100
290.800	-39.279	0.100
290.900	-28.618	0.100
291.000	-36.257	0.100
291.100	-44.620	0.100
291.200	-35.902	0.100
291.300	-32.334	0.100
291.400	-38.521	0.100
291.500	-43.960	0.100
291.600	-50.150	0.100
291.700	-32.361	0.100
291.800	-39.600	0.100
291.900	-41.644	0.100
292.000	-35.652	0.100
292.100	-35.564	0.100
292.200	-39.400	0.100
292.300	-44.671	0.100
292.400	-45.212	0.100
292.500	-31.303	0.100
292.600	-35.642	0.100
292.700	-41.991	0.100
292.800	-54.454	0.100
292.900	-43.817	0.100
293.000	-44.340	0.100
293.100	-29.299	0.100
293.200	-37.710	0.100
293.300	-41.221	0.100
293.400	-44.330	0.100
293.500	-42.407	0.100
293.600	-43.477	0.100
293.700	-27.062	0.100
293.800	-33.589	0.100
293.900	-49.211	0.100
294.000	-47.766	0.100
294.100	-31.113	0.100
294.200	-27.876	0.100
294.300	-35.195	0.100
294.400	-36.260	0.100
294.500	-36.275	0.100
294.600	-35.705	0.100
294.700	-38.713	0.100
294.800	-46.163	0.100
294.900	-37.927	0.100
295.000	-35.344	0.100
295.100	-51.816	0.100
295.200	-29.216	0.100
295.300	-27.799	0.100
295.400	-28.564	0.100
295.500	-42.714	0.100
295.600	-47.606	0.100
295.700	-45.510	0.100
295.800	-39.672	0.100
295.900	-52.173	0.100
296.000	-39.826	0.100
296.100	-25.632	0.100
296.200	-32.814	0.100
296.300	-51.553	0.100
296.400	-29.971	0.100
296.500	-27.694	0.100
296.600	-38.773	0.100
296.700	-39.415	0.100
296.800	-35.054	0.100
296.900	-37.590	0.100
297.000	-39.238	0.100
297.100	-37.133	0.100
297.200	-42.188	0.100
297.300	-34.648	0.100
297.400	-41.089	0.100
297.500	-37.552	0.100
297.600	-30.502	0.100
297.700	-38.851	0.100
297.800	-34.793	0.100
297.900	-45.738	0.100
298.000	-38.873	0.100
298.100	-30.225	0.100
298.200	-31.722	0.100
298.300	-38.095	0.100
298.400	-44.346	0.100
298.500	-29.151	0.100
298.600	-32.761	0.100
298.700	-35.343	0.100
298.800	-38.413	0.100
298.900	-32.777	0.100
299.000	-38.127	0.100
299.100	-38.746	0.100
299.200	-35.645	0.100
299.300	-44.939	0.100
299.400	-40.775	0.100
299.500	-39.594	0.100
299.600	-34.657	0.100
299.700	-36.737	0.100
299.800	-26.887	0.100
299.900	-50.101	0.100
300.000	-45.773	0.100
300.100	-23.025	0.100
300.200	-28.536	0.100
300.300	-28.391	0.100
300.400	-32.480	0.100
300.500	-35.902	0.100
300.600	-38.943	0.100
300.700	-40.231	0.100
300.800	-19.763	0.100
300.900	-39.986	0.100
301.000	-35.332	0.100
301.100	-30.365	0.100
301.200	-28.018	0.100
301.300	-32.374	0.100
301.400	-39.831	0.100
301.500	-32.884	0.100
301.600	-36.927	0.100
301.700	-34.848	0.100
301.800	-31.800	0.100
301.900	-23.363	0.100
302.000	-38.061	0.100
302.100	-41.503	0.100
302.200	-32.856	0.100
302.300	-42.340	0.100
302.400	-33.355	0.100
302.500	-43.463	0.100
302.600	-30.912	0.100
302.700	-34.427	0.100
302.800	-40.184	0.100
302.900	-35.686	0.100
303.000	-33.831	0.100
303.100	-39.823	0.100
303.200	-36.361	0.100
303.300	-36.422	0.100
303.400	-42.084	0.100
303.500	-39.592	0.100
303.600	-40.074	0.100
303.700	-14.974	0.100
303.800	-29.229	0.100
303.900	-44.531	0.100
304.000	-41.308	0.100
304.100	-32.674	0.100
304.200	-29.708	0.100
304.300	-40.278	0.100
304.400	-33.736	0.100
304.500	-41.397	0.100
304.600	-37.790	0.100
304.700	-39.256	0.100
304.800	-29.224	0.100
304.900	-23.391	0.100
305.000	-34.989	0.100
305.100	-43.100	0.100
305.200	-55.342	0.100
305.300	-40.552	0.100
305.400	-20.542	0.100
305.500	-18.249	0.100
305.600	-35.526	0.100
305.700	-40.240	0.100
305.800	-33.456	0.100
305.900	-26.220	0.100
306.000	-34.907	0.100
306.100	-26.146	0.100
306.200	-34.015	0.100
306.300	-36.955	0.100
306.400	-34.110	0.100
306.500	-29.422	0.100
306.600	-35.061	0.100
306.700	-33.523	0.100
306.800	-28.380	0.100
306.900	-38.115	0.100
307.000	-36.803	0.100
307.100	-41.253	0.100
307.200	-25.849	0.100
307.300	-23.128	0.100
307.400	-37.276	0.100
307.500	-42.444	0.100
307.600	-30.538	0.100
307.700	-38.594	0.100
307.800	-23.825	0.100
307.900	-28.002	0.100
308.000	-43.835	0.100
308.100	-37.948	0.100
308.200	-35.758	0.100
308.300	-38.668	0.100
308.400	-26.421	0.100
308.500	-28.055	0.100
308.600	-25.423	0.100
308.700	-31.769	0.100
308.800	-25.043	0.100
308.900	-30.240	0.100
309.000	-34.380	0.100
309.100	-29.737	0.100
309.200	-28.745	0.100
309.300	-36.093	0.100
309.400	-35.674	0.100
309.500	-35.006	0.100
309.600	-41.819	0.100
309.700	-27.023	0.100
309.800	-27.524	0.100
309.900	-31.754	0.100
310.000	-19.251	0.100
310.100	-39.177	0.100
310.200	-27.456	0.100
310.300	-34.651	0.100
310.400	-42.079	0.100
310.500	-25.429	0.100
310.600	-31.525	0.100
310.700	-47.315	0.100
310.800	-36.639	0.100
310.900	-24.637	0.100
311.000	-36.001	0.100
311.100	-37.870	0.100
311.200	-35.182	0.100
311.300	-37.343	0.100
311.400	-27.532	0.100
311.500	-19.900	0.100
311.600	-33.845	0.100
311.700	-31.989	0.100
311.800	-32.854	0.100
311.900	-36.449	0.100
312.000	-35.949	0.100
312.100	-28.037	0.100
312.200	-32.344	0.100
312.300	-38.900	0.100
312.400	-19.559	0.100
312.500	-26.519	0.100
312.600	-41.150	0.100
312.700	-27.478	0.100
312.800	-39.289	0.100
312.900	-24.667	0.100
313.000	-24.318	0.100
313.100	-38.136	0.100
313.200	-55.030	0.100
313.300	-27.341	0.100
313.400	-33.401	0.100
313.500	-26.632	0.100
313.600	-27.037	0.100
313.700	-29.910	0.100
313.800	-32.909	0.100
313.900	-43.178	0.100
314.000	-42.148	0.100
314.100	-34.743	0.100
314.200	-21.823	0.100
314.300	-26.702	0.100
314.400	-25.631	0.100
314.500	-36.538	0.100
314.600	-39.284	0.100
314.700	-34.035	0.100
314.800	-22.586	0.100
314.900	-23.938	0.100
315.000	-36.811	0.100
315.100	-47.371	0.100
315.200	-41.392	0.100
315.300	-20.825	0.100
315.400	-19.356	0.100
315.500	-16.690	0.100
315.600	-31.510	0.100
315.700	-54.210	0.100
315.800	-20.709	0.100
315.900	-37.159	0.100
316.000	-36.455	0.100
316.100	-23.070	0.100
316.200	-17.573	0.100
316.300	-19.311	0.100
316.400	-36.184	0.100
316.500	-32.907	0.100
316.600	-43.775	0.100
316.700	-22.497	0.100
316.800	-25.929	0.100
316.900	-30.409	0.100
317.000	-28.666	0.100
317.100	-23.459	0.100
317.200	-20.217	0.100
317.300	-21.700	0.100
317.400	-37.719	0.100
317.500	-34.920	0.100
317.600	-29.077	0.100
317.700	-26.829	0.100
317.800	-22.976	0.100
317.900	-23.131	0.100
318.000	-43.809	0.100
318.100	-36.099	0.100
318.200	-36.649	0.100
318.300	-39.791	0.100
318.400	-35.639	0.100
318.500	-24.264	0.100
318.600	-35.398	0.100
318.700	-33.397	0.100
318.800	-27.240	0.100
318.900	-23.940	0.100
319.000	-21.842	0.100
319.100	-39.999	0.100
319.200	-35.935	0.100
319.300	-42.981	0.100
319.400	-17.532	0.100
319.500	-26.027	0.100
319.600	-25.517	0.100
319.700	-32.636	0.100
319.800	-24.835	0.100
319.900	-21.889	0.100
320.000	-27.553	0.100
320.100	-28.389	0.100
320.200	-20.979	0.100
320.300	-35.635	0.100
320.400	-36.116	0.100
320.500	-33.301	0.100
320.600	-36.517	0.100
320.700	-40.352	0.100
320.800	-42.010	0.100
320.900	-28.100	0.100
321.000	-30.690	0.100
321.100	-30.837	0.100
321.200	-19.432	0.100
321.300	-25.124	0.100
321.400	-24.479	0.100
321.500	-29.253	0.100
321.600	-32.131	0.100
321.700	-27.264	0.100
321.800	-26.037	0.100
321.900	-25.605	0.100
322.000	-27.826	0.100
322.100	-27.533	0.100
322.200	-47.080	0.100
322.300	-32.548	0.100
322.400	-22.229	0.100
322.500	-19.578	0.100
322.600	-23.000	0.100
322.700	-36.189	0.100
322.800	-34.447	0.100
322.900	-30.117	0.100
323.000	-27.204	0.100
323.100	-31.619	0.100
323.200	-24.792	0.100
323.300	-46.674	0.100
323.400	-21.008	0.100
323.500	-34.565	0.100
323.600	-27.890	0.100
323.700	-19.700	0.100
323.800	-16.949	0.100
323.900	-37.058	0.100
324.000	-38.806	0.100
324.100	-31.235	0.100
324.200	-29.953	0.100
324.300	-19.185	0.100
324.400	-28.357	0.100
324.500	-31.238	0.100
324.600	-29.315	0.100
324.700	-25.574	0.100
324.800	-17.339	0.100
324.900	-35.683	0.100
325.000	-43.255	0.100
325.100	-21.439	0.100
325.200	-23.101	0.100
325.300	-33.879	0.100
325.400	-14.507	0.100
325.500	-30.247	0.100
325.600	-20.580	0.100
325.700	-34.452	0.100
325.800	-29.965	0.100
325.900	-30.144	0.100
326.000	-24.287	0.100
326.100	-21.415	0.100
326.200	-36.922	0.100
326.300	-30.208	0.100
326.400	-26.333	0.100
326.500	-26.435	0.100
326.600	-22.850	0.100
326.700	-35.512	0.100
326.800	-34.766	0.100
326.900	-20.426	0.100
327.000	-30.678	0.100
327.100	-33.505	0.100
327.200	-36.733	0.100
327.300	-34.637	0.100
327.400	-37.037	0.100
327.500	-4.908	0.100
327.600	-31.189	0.100
327.700	-27.741	0.100
327.800	-18.552	0.100
327.900	-14.506	0.100
328.000	-23.276	0.100
328.100	-24.883	0.100
328.200	-32.519	0.100
328.300	-27.836	0.100
328.400	-30.321	0.100
328.500	-32.786	0.100
328.600	-27.844	0.100
328.700	-19.232	0.100
328.800	-17.119	0.100
328.900	-14.754	0.100
329.000	-28.748	0.100
329.100	-33.242	0.100
329.200	-28.437	0.100
329.300	-32.209	0.100
329.400	-33.567	0.100
329.500	-30.559	0.100
329.600	-38.282	0.100
329.700	-22.158	0.100
329.800	-28.621	0.100
329.900	-36.383	0.100
330.000	-38.446	0.100
330.100	-27.369	0.100
330.200	-35.028	0.100
330.300	-19.849	0.100
330.400	-16.786	0.100
330.500	-2.438	0.100
330.600	0.478	0.100
330.700	27.247	0.100
330.800	27.588	0.100
330.900	41.599	0.100
331.000	39.576	0.100
331.100	42.219	0.100
331.200	51.274	0.100
331.300	64.593	0.100
331.400	53.946	0.100
331.500	62.580	0.100
331.600	47.992	0.100
331.700	55.561	0.100
331.800	61.392	0.100
331.900	60.228	0.100
332.000	56.299	0.100
332.100	58.469	0.100
332.200	45.659	0.100
332.300	49.689	0.100
332.400	48.124	0.100
332.500	45.829	0.100
332.600	47.303	0.100
332.700	58.418	0.100
332.800	38.449	0.100
332.900	44.112	0.100
333.000	50.304	0.100
333.100	54.574	0.100
333.200	36.843	0.100
333.300	47.755	0.100
333.400	46.940	0.100
333.500	36.043	0.100
333.600	33.619	0.100
333.700	44.017	0.100
333.800	46.496	0.100
333.900	32.942	0.100
334.000	38.015	0.100
334.100	37.216	0.100
334.200	43.105	0.100
334.300	42.066	0.100
334.400	23.247	0.100
334.500	28.180	0.100
334.600	43.005	0.100
334.700	34.131	0.100
334.800	53.561	0.100
334.900	52.104	0.100
335.000	27.384	0.100
335.100	22.387	0.100
335.200	31.128	0.100
335.300	51.956	0.100
335.400	46.399	0.100
335.500	42.092	0.100
335.600	39.101	0.100
335.700	46.678	0.100
335.800	41.782	0.100
335.900	53.310	0.100
336.000	49.292	0.100
336.100	34.670	0.100
336.200	48.509	0.100
336.300	59.925	0.100
336.400	48.997	0.100
336.500	57.121	0.100
336.600	50.615	0.100
336.700	53.327	0.100
336.800	60.250	0.100
336.900	62.513	0.100
337.000	60.712	0.100
337.100	56.643	0.100
337.200	59.585	0.100
337.300	57.198	0.100
337.400	61.425	0.100
337.500	57.762	0.100
337.600	53.016	0.100
337.700	69.080	0.100
337.800	77.669	0.100
337.900	74.783	0.100
338.000	72.438	0.100
338.100	71.465	0.100
338.200	53.299	0.100
338.300	91.625	0.100
338.400	72.226	0.100
338.500	93.136	0.100
338.600	86.573	0.100
338.700	68.795	0.100
338.800	83.676	0.100
338.900	77.234	0.100
339.000	75.278	0.100
339.100	80.526	0.100
339.200	74.689	0.100
339.300	94.734	0.100
339.400	87.577	0.100
339.500	81.762	0.100
339.600	70.649	0.100
339.700	75.426	0.100
339.800	72.407	0.100
339.900	78.688	0.100
340.000	79.060	0.100
340.100	82.746	0.100
340.200	88.635	0.100
340.300	91.610	0.100
340.400	75.271	0.100
340.500	72.252	0.100
340.600	88.880	0.100
340.700	83.329	0.100
340.800	97.870	0.100
340.900	99.049	0.100
341.000	69.492	0.100
341.100	91.118	0.100
341.200	82.353	0.100
341.300	82.361	0.100
341.400	82.634	0.100
341.500	94.465	0.100
341.600	86.664	0.100
341.700	78.316	0.100
341.800	82.801	0.100
341.900	91.117	0.100
342.000	75.853	0.100
342.100	72.392	0.100
342.200	82.615	0.100
342.300	106.774	0.100
342.400	91.945	0.100
342.500	78.853	0.100
342.600	91.611	0.100
342.700	83.609	0.100
342.800	82.965	0.100
342.900	92.611	0.100
343.000	79.333	0.100
343.100	77.847	0.100
343.200	99.379	0.100
343.300	79.380	0.100
343.400	89.757	0.100
343.500	85.755	0.100
343.600	64.853	0.100
343.700	74.829	0.100
343.800	91.341	0.100
343.900	77.592	0.100
344.000	79.426	0.100
344.100	84.158	0.100
344.200	87.038	0.100
344.300	80.839	0.100
344.400	81.019	0.100
344.500	80.075	0.100
344.600	77.106	0.100
344.700	91.761	0.100
344.800	85.355	0.100
344.900	90.244	0.100
345.000	80.459	0.100
345.100	69.391	0.100
345.200	79.263	0.100
345.300	80.312	0.100
345.400	80.955	0.100
345.500	93.960	0.100
345.600	89.716	0.100
345.700	80.900	0.100
345.800	92.714	0.100
345.900	79.140	0.100
346.000	77.493	0.100
346.100	79.901	0.100
346.200	67.391	0.100
346.300	81.164	0.100
346.400	87.492	0.100
346.500	90.118	0.100
346.600	80.073	0.100
346.700	84.272	0.100
346.800	83.183	0.100
346.900	84.879	0.100
347.000	82.039	0.100
347.100	66.687	0.100
347.200	89.376	0.100
347.300	86.618	0.100
347.400	87.455	0.100
347.500	73.506	0.100
347.600	81.253	0.100
347.700	87.140	0.100
347.800	64.256	0.100
347.900	80.542	0.100
348.000	78.019	0.100
348.100	86.756	0.100
348.200	79.020	0.100
348.300	82.269	0.100
348.400	85.121	0.100
348.500	74.972	0.100
348.600	74.311	0.100
348.700	75.930	0.100
348.800	79.519	0.100
348.900	85.007	0.100
349.000	82.485	0.100
349.100	83.042	0.100
349.200	75.117	0.100
349.300	77.784	0.100
349.400	80.610	0.100
349.500	82.524	0.100
349.600	85.172	0.100
349.700	85.385	0.100
349.800	72.135	0.100
349.900	77.965	0.100
350.000	77.871	0.100
350.100	76.930	0.100
350.200	81.879	0.100
350.300	60.779	0.100
350.400	77.935	0.100
350.500	74.636	0.100
350.600	80.919	0.100
350.700	77.905	0.100
350.800	81.208	0.100
350.900	82.856	0.100
351.000	74.506	0.100
351.100	83.384	0.100
351.200	82.775	0.100
351.300	81.043	0.100
351.400	75.169	0.100
351.500	71.759	0.100
351.600	73.342	0.100
351.700	76.846	0.100
351.800	74.444	0.100
351.900	75.116	0.100
352.000	78.305	0.100
352.100	61.079	0.100
352.200	81.277	0.100
352.300	63.848	0.100
352.400	88.931	0.100
352.500	86.701	0.100
352.600	59.938	0.100
352.700	70.743	0.100
352.800	70.913	0.100
352.900	62.956	0.100
353.000	75.932	0.100
353.100	82.029	0.100
353.200	77.190	0.100
353.300	61.748	0.100
353.400	63.100	0.100
353.500	81.598	0.100
353.600	78.953	0.100
353.700	76.558	0.100
353.800	68.857	0.100
353.900	74.886	0.100
354.000	75.738	0.100
354.100	75.633	0.100
354.200	79.967	0.100
354.300	74.711	0.100
354.400	69.068	0.100
354.500	62.844	0.100
354.600	58.282	0.100
354.700	81.206	0.100
354.800	78.295	0.100
354.900	78.225	0.100
355.000	72.184	0.100
355.100	65.648	0.100
355.200	81.525	0.100
355.300	73.501	0.100
355.400	74.676	0.100
355.500	72.145	0.100
355.600	73.703	0.100
355.700	81.158	0.100
355.800	85.920	0.100
355.900	70.648	0.100
356.000	74.950	0.100
356.100	67.307	0.100
356.200	78.950	0.100
356.300	73.709	0.100
356.400	72.282	0.100
356.500	70.910	0.100
356.600	67.962	0.100
356.700	85.572	0.100
356.800	83.376	0.100
356.900	79.310	0.100
357.000	70.843	0.100
357.100	69.787	0.100
357.200	82.613	0.100
357.300	70.465	0.100
357.400	67.454	0.100
357.500	71.043	0.100
357.600	59.621	0.100
357.700	66.828	0.100
357.800	72.177	0.100
357.900	59.447	0.100
358.000	66.226	0.100
358.100	71.950	0.100
358.200	74.097	0.100
358.300	73.069	0.100
358.400	64.524	0.100
358.500	76.930	0.100
358.600	63.847	0.100
358.700	76.074	0.100
358.800	68.209	0.100
358.900	74.058	0.100
359.000	84.541	0.100
359.100	63.616	0.100
359.200	70.614	0.100
359.300	74.024	0.100
359.400	68.459	0.100
359.500	77.645	0.100
359.600	73.925	0.100
359.700	71.541	0.100
359.800	65.971	0.100
359.900	60.296	0.100
360.000	63.928	0.100
360.100	86.345	0.100
360.200	57.337	0.100
360.300	69.213	0.100
360.400	68.789	0.100
360.500	65.360	0.100
360.600	65.540	0.100
360.700	83.208	0.100
360.800	75.646	0.100
360.900	56.603	0.100
361.000	72.401	0.100
361.100	70.420	0.100
361.200	75.789	0.100
361.300	74.765	0.100
361.400	75.012	0.100
361.500	69.678	0.100
361.600	74.663	0.100
361.700	66.012	0.100
361.800	84.116	0.100
361.900	70.398	0.100
362.000	71.051	0.100
362.100	86.311	0.100
362.200	76.465	0.100
362.300	72.988	0.100
362.400	72.581	0.100
362.500	69.141	0.100
362.600	72.327	0.100
362.700	69.530	0.100
362.800	63.599	0.100
362.900	77.723	0.100
363.000	73.135	0.100
363.100	73.510	0.100
363.200	65.974	0.100
363.300	73.406	0.100
363.400	59.476	0.100
363.500	67.116	0.100
363.600	77.940	0.100
363.700	83.128	0.100
363.800	73.722	0.100
363.900	66.050	0.100
364.000	70.573	0.100
364.100	68.767	0.100
364.200	68.622	0.100
364.300	74.388	0.100
364.400	68.324	0.100
364.500	58.937	0.100
364.600	69.493	0.100
364.700	77.852	0.100
364.800	70.594	0.100
364.900	73.290	0.100
365.000	77.115	0.100
365.100	81.803	0.100
365.200	67.097	0.100
365.300	73.540	0.100
365.400	68.770	0.100
365.500	74.141	0.100
365.600	73.213	0.100
365.700	69.085	0.100
365.800	68.822	0.100
365.900	80.622	0.100
366.000	86.384	0.100
366.100	61.380	0.100
366.200	80.596	0.100
366.300	73.921	0.100
366.400	70.192	0.100
366.500	79.146	0.100
366.600	71.865	0.100
366.700	72.563	0.100
366.800	76.048	0.100
366.900	70.313	0.100
367.000	62.734	0.100
367.100	57.166	0.100
367.200	84.344	0.100
367.300	66.009	0.100
367.400	58.719	0.100
367.500	75.974	0.100
367.600	68.552	0.100
367.700	70.168	0.100
367.800	77.684	0.100
367.900	80.393	0.100
368.000	69.726	0.100
368.100	75.157	0.100
368.200	64.143	0.100
368.300	73.369	0.100
368.400	79.567	0.100
368.500	64.985	0.100
368.600	69.672	0.100
368.700	69.080	0.100
368.800	75.479	0.100
368.900	65.738	0.100
369.000	80.206	0.100
369.100	74.662	0.100
369.200	82.767	0.100
369.300	73.543	0.100
369.400	74.331	0.100
369.500	72.189	0.100
369.600	66.872	0.100
369.700	66.322	0.100
369.800	67.954	0.100
369.900	60.994	0.100
370.000	65.434	0.100
370.100	75.938	0.100
370.200	77.078	0.100
370.300	67.424	0.100
370.400	69.403	0.100
370.500	82.601	0.100
370.600	71.727	0.100
370.700	63.775	0.100
370.800	68.598	0.100
370.900	78.894	0.100
371.000	71.246	0.100
371.100	77.758	0.100
371.200	71.621	0.100
371.300	77.390	0.100
371.400	77.660	0.100
371.500	77.071	0.100
371.600	69.296	0.100
371.700	66.205	0.100
371.800	77.174	0.100
371.900	68.791	0.100
372.000	67.468	0.100
372.100	76.808	0.100
372.200	68.522	0.100
372.300	63.593	0.100
372.400	77.369	0.100
372.500	79.388	0.100
372.600	62.247	0.100
372.700	60.795	0.100
372.800	79.080	0.100
372.900	83.861	0.100
373.000	97.513	0.100
373.100	83.730	0.100
373.200	66.289	0.100
373.300	64.116	0.100
373.400	68.670	0.100
373.500	84.348	0.100
373.600	75.282	0.100
373.700	90.084	0.100
373.800	67.674	0.100
373.900	73.238	0.100
374.000	62.726	0.100
374.100	71.906	0.100
374.200	76.367	0.100
374.300	71.598	0.100
374.400	80.355	0.100
374.500	68.895	0.100
374.600	72.487	0.100
374.700	72.045	0.100
374.800	79.911	0.100
374.900	76.345	0.100
375.000	69.457	0.100
375.100	77.484	0.100
375.200	80.271	0.100
375.300	62.590	0.100
375.400	81.059	0.100
375.500	73.130	0.100
375.600	66.029	0.100
375.700	74.994	0.100
375.800	65.667	0.100
375.900	60.050	0.100
376.000	76.247	0.100
376.100	75.982	0.100
376.200	70.131	0.100
376.300	67.234	0.100
376.400	77.890	0.100
376.500	74.202	0.100
376.600	80.099	0.100
376.700	76.461	0.100
376.800	58.619	0.100
376.900	75.640	0.100
377.000	74.959	0.100
377.100	78.976	0.100
377.200	81.142	0.100
377.300	79.727	0.100
377.400	67.043	0.100
377.500	68.229	0.100
377.600	73.972	0.100
377.700	71.967	0.100
377.800	81.919	0.100
377.900	67.658	0.100
378.000	80.513	0.100
378.100	80.531	0.100
378.200	58.722	0.100
378.300	77.193	0.100
378.400	73.466	0.100
378.500	82.439	0.100
378.600	86.072	0.100
378.700	76.885	0.100
378.800	73.104	0.100
378.900	67.086	0.100
379.000	61.750	0.100
379.100	80.693	0.100
379.200	74.954	0.100
379.300	72.541	0.100
379.400	62.132	0.100
379.500	78.033	0.100
379.600	71.813	0.100
379.700	73.891	0.100
379.800	73.655	0.100
379.900	79.026	0.100
380.000	71.261	0.100
380.100	77.902	0.100
380.200	52.481	0.100
380.300	74.203	0.100
380.400	69.763	0.100
380.500	66.612	0.100
380.600	74.159	0.100
380.700	73.772	0.100
380.800	78.246	0.100
380.900	73.800	0.100
381.000	77.053	0.100
381.100	66.335	0.100
381.200	80.480	0.100
381.300	76.879	0.100
381.400	79.790	0.100
381.500	76.836	0.100
381.600	59.023	0.100
381.700	75.846	0.100
381.800	86.584	0.100
381.900	70.218	0.100
382.000	79.473	0.100
382.100	78.250	0.100
382.200	67.438	0.100
382.300	70.104	0.100
382.400	91.941	0.100
382.500	75.608	0.100
382.600	75.395	0.100
382.700	71.142	0.100
382.800	64.887	0.100
382.900	76.513	0.100
383.000	76.104	0.100
383.100	68.901	0.100
383.200	79.270	0.100
383.300	77.553	0.100
383.400	68.867	0.100
383.500	72.926	0.100
383.600	79.964	0.100
383.700	81.960	0.100
383.800	68.472	0.100
383.900	75.496	0.100
384.000	69.400	0.100
384.100	69.954	0.100
384.200	88.281	0.100
384.300	88.678	0.100
384.400	65.953	0.100
384.500	61.720	0.100
384.600	79.402	0.100
384.700	92.000	0.100
384.800	80.289	0.100
384.900	79.128	0.100
385.000	66.825	0.100
385.100	56.071	0.100
385.200	72.632	0.100
385.300	74.239	0.100
385.400	87.608	0.100
385.500	70.893	0.100
385.600	71.032	0.100
385.700	74.414	0.100
385.800	68.716	0.100
385.900	69.821	0.100
386.000	79.311	0.100
386.100	81.098	0.100
386.200	69.345	0.100
386.300	70.661	0.100
386.400	74.451	0.100
386.500	68.204	0.100
386.600	69.154	0.100
386.700	82.513	0.100
386.800	71.323	0.100
386.900	74.253	0.100
387.000	84.084	0.100
387.100	74.612	0.100
387.200	63.683	0.100
387.300	73.967	0.100
387.400	72.994	0.100
387.500	70.876	0.100
387.600	77.975	0.100
387.700	78.132	0.100
387.800	71.263	0.100
387.900	75.277	0.100
388.000	74.142	0.100
388.100	84.972	0.100
388.200	64.850	0.100
388.300	84.067	0.100
388.400	77.576	0.100
388.500	80.881	0.100
388.600	83.137	0.100
388.700	73.485	0.100
388.800	70.743	0.100
388.900	77.946	0.100
389.000	76.779	0.100
389.100	69.515	0.100
389.200	68.072	0.100
389.300	66.178	0.100
389.400	85.229	0.100
389.500	76.690	0.100
389.600	68.561	0.100
389.700	71.957	0.100
389.800	62.738	0.100
389.900	66.606	0.100
390.000	75.790	0.100
390.100	91.621	0.100
390.200	74.232	0.100
390.300	70.270	0.100
390.400	61.409	0.100
390.500	53.189	0.100
390.600	31.480	0.100
390.700	37.706	0.100
390.800	19.754	0.100
390.900	11.356	0.100
391.000	6.969	0.100
391.100	-9.490	0.100
391.200	-2.309	0.100
391.300	-3.305	0.100
391.400	-18.707	0.100
391.500	-35.341	0.100
391.600	-33.201	0.100
391.700	-48.886	0.100
391.800	-43.216	0.100
391.900	-22.570	0.100
392.000	-34.995	0.100
392.100	-47.894	0.100
392.200	-50.823	0.100
392.300	-55.780	0.100
392.400	-48.382	0.100
392.500	-50.180	0.100
392.600	-56.136	0.100
392.700	-62.951	0.100
392.800	-62.460	0.100
392.900	-60.000	0.100
393.000	-51.803	0.100
393.100	-54.094	0.100
393.200	-52.810	0.100
393.300	-73.908	0.100
393.400	-52.630	0.100
393.500	-55.194	0.100
393.600	-60.481	0.100
393.700	-58.396	0.100
393.800	-53.868	0.100
393.900	-59.315	0.100
394.000	-72.796	0.100
394.100	-58.815	0.100
394.200	-60.066	0.100
394.300	-58.069	0.100
394.400	-56.938	0.100
394.500	-55.226	0.100
394.600	-58.443	0.100
394.700	-62.276	0.100
394.800	-44.572	0.100
394.900	-65.209	0.100
395.000	-63.372	0.100
395.100	-58.240	0.100
395.200	-52.355	0.100
395.300	-51.145	0.100
395.400	-54.627	0.100
395.500	-55.276	0.100
395.600	-59.552	0.100
395.700	-73.791	0.100
395.800	-62.675	0.100
395.900	-43.653	0.100
396.000	-42.210	0.100
396.100	-49.188	0.100
396.200	-61.449	0.100
396.300	-67.751	0.100
396.400	-51.491	0.100
396.500	-55.270	0.100
396.600	-47.092	0.100
396.700	-50.867	0.100
396.800	-51.219	0.100
396.900	-53.466	0.100
397.000	-47.853	0.100
397.100	-48.789	0.100
397.200	-39.452	0.100
397.300	-55.338	0.100
397.400	-48.455	0.100
397.500	-49.009	0.100
397.600	-46.893	0.100
397.700	-61.955	0.100
397.800	-33.739	0.100
397.900	-66.919	0.100
398.000	-65.786	0.100
398.100	-37.763	0.100
398.200	-30.976	0.100
398.300	-45.183	0.100
398.400	-61.436	0.100
398.500	-46.369	0.100
398.600	-47.763	0.100
398.700	-42.409	0.100
398.800	-42.375	0.100
398.900	-39.896	0.100
399.000	-60.645	0.100
399.100	-45.629	0.100
399.200	-44.205	0.100
399.300	-50.485	0.100
399.400	-40.111	0.100
399.500	-54.690	0.100
399.600	-25.551	0.100
399.700	-40.116	0.100
399.800	-50.753	0.100
399.900	-49.129	0.100
400.000	-40.680	0.100
400.100	-44.234	0.100
400.200	-55.598	0.100
400.300	-48.455	0.100
400.400	-44.018	0.100
400.500	-42.446	0.100
400.600	-40.115	0.100
400.700	-43.453	0.100
400.800	-54.311	0.100
400.900	-46.297	0.100
401.000	-40.380	0.100
401.100	-42.531	0.100
401.200	-48.586	0.100
401.300	-48.733	0.100
401.400	-39.188	0.100
401.500	-42.148	0.100
401.600	-48.749	0.100
401.700	-51.336	0.100
401.800	-44.176	0.100
401.900	-37.649	0.100
402.000	-58.334	0.100
402.100	-47.013	0.100
402.200	-40.250	0.100
402.300	-28.282	0.100
402.400	-39.149	0.100
402.500	-51.676	0.100
402.600	-48.719	0.100
402.700	-48.626	0.100
402.800	-45.769	0.100
402.900	-35.183	0.100
403.000	-50.112	0.100
403.100	-34.064	0.100
403.200	-58.340	0.100
403.300	-55.115	0.100
403.400	-41.076	0.100
403.500	-50.449	0.100
403.600	-55.586	0.100
403.700	-38.379	0.100
403.800	-34.229	0.100
403.900	-50.882	0.100
404.000	-40.663	0.100
404.100	-40.722	0.100
404.200	-47.437	0.100
404.300	-52.314	0.100
404.400	-45.656	0.100
404.500	-38.711	0.100
404.600	-54.478	0.100
404.700	-43.658	0.100
404.800	-51.146	0.100
404.900	-40.186	0.100
405.000	-55.349	0.100
405.100	-45.116	0.100
405.200	-52.637	0.100
405.300	-48.668	0.100
405.400	-40.114	0.100
405.500	-46.152	0.100
405.600	-51.999	0.100
405.700	-48.250	0.100
405.800	-58.500	0.100
405.900	-44.791	0.100
406.000	-40.091	0.100
406.100	-50.921	0.100
406.200	-54.099	0.100
406.300	-50.841	0.100
406.400	-43.608	0.100
406.500	-48.132	0.100
406.600	-41.844	0.100
406.700	-49.323	0.100
406.800	-51.990	0.100
406.900	-51.606	0.100
407.000	-40.638	0.100
407.100	-30.148	0.100
407.200	-40.920	0.100
407.300	-42.737	0.100
407.400	-51.102	0.100
407.500	-50.670	0.100
407.600	-61.089	0.100
407.700	-49.197	0.100
407.800	-40.895	0.100
407.900	-42.483	0.100
408.000	-45.376	0.100
408.100	-46.914	0.100
408.200	-45.506	0.100
408.300	-50.577	0.100
408.400	-51.800	0.100
408.500	-46.497	0.100
408.600	-49.209	0.100
408.700	-54.235	0.100
408.800	-54.248	0.100
408.900	-43.570	0.100
409.000	-41.189	0.100
409.100	-44.684	0.100
409.200	-53.568	0.100
409.300	-42.662	0.100
409.400	-35.910	0.100
409.500	-47.017	0.100
409.600	-61.305	0.100
409.700	-41.197	0.100
409.800	-46.162	0.100
409.900	-44.700	0.100
410.000	-38.880	0.100
410.100	-59.785	0.100
410.200	-48.352	0.100
410.300	-43.490	0.100
410.400	-46.009	0.100
410.500	-38.065	0.100
410.600	-34.872	0.100
410.700	-44.329	0.100
410.800	-53.527	0.100
410.900	-54.973	0.100
411.000	-55.903	0.100
411.100	-46.460	0.100
411.200	-37.989	0.100
411.300	-38.586	0.100
411.400	-53.862	0.100
411.500	-53.242	0.100
411.600	-56.990	0.100
411.700	-34.490	0.100
411.800	-40.118	0.100
411.900	-64.672	0.100
412.000	-59.935	0.100
412.100	-51.732	0.100
412.200	-43.088	0.100
412.300	-43.717	0.100
412.400	-49.335	0.100
412.500	-39.276	0.100
412.600	-44.093	0.100
412.700	-41.318	0.100
412.800	-59.172	0.100
412.900	-44.498	0.100
413.000	-41.345	0.100
413.100	-44.998	0.100
413.200	-49.082	0.100
413.300	-44.423	0.100
413.400	-40.861	0.100
413.500	-44.683	0.100
413.600	-54.308	0.100
413.700	-50.414	0.100
413.800	-46.869	0.100
413.900	-34.187	0.100
414.000	-59.933	0.100
414.100	-53.414	0.100
414.200	-49.994	0.100
414.300	-46.787	0.100
414.400	-39.913	0.100
414.500	-54.629	0.100
414.600	-32.159	0.100
414.700	-46.323	0.100
414.800	-49.334	0.100
414.900	-52.612	0.100
415.000	-50.817	0.100
415.100	-45.308	0.100
415.200	-31.037	0.100
415.300	-42.420	0.100
415.400	-52.927	0.100
415.500	-53.578	0.100
415.600	-44.569	0.100
415.700	-42.735	0.100
415.800	-53.314	0.100
415.900	-49.479	0.100
416.000	-40.159	0.100
416.100	-46.719	0.100
416.200	-55.413	0.100
416.300	-47.302	0.100
416.400	-45.256	0.100
416.500	-36.053	0.100
416.600	-52.480	0.100
416.700	-51.056	0.100
416.800	-47.834	0.100
416.900	-50.660	0.100
417.000	-46.680	0.100
417.100	-46.417	0.100
417.200	-46.424	0.100
417.300	-59.315	0.100
417.400	-51.750	0.100
417.500	-45.437	0.100
417.600	-37.008	0.100
417.700	-41.825	0.100
417.800	-38.258	0.100
417.900	-52.951	0.100
418.000	-59.931	0.100
418.100	-53.030	0.100
418.200	-42.033	0.100
418.300	-35.252	0.100
418.400	-42.053	0.100
418.500	-56.931	0.100
418.600	-45.438	0.100
418.700	-40.602	0.100
418.800	-37.682	0.100
418.900	-46.918	0.100
419.000	-54.802	0.100
419.100	-46.284	0.100
419.200	-42.222	0.100
419.300	-37.645	0.100
419.400	-50.509	0.100
419.500	-46.948	0.100
419.600	-50.872	0.100
419.700	-50.581	0.100
419.800	-47.062	0.100
419.900	-46.979	0.100
420.000	-40.223	0.100
420.100	-47.909	0.100
420.200	-41.512	0.100
420.300	-47.469	0.100
420.400	-37.317	0.100
420.500	-44.938	0.100
420.600	-38.713	0.100
420.700	-49.364	0.100
420.800	-47.962	0.100
420.900	-44.400	0.100
421.000	-51.730	0.100
421.100	-53.667	0.100
421.200	-48.904	0.100
421.300	-36.213	0.100
421.400	-47.119	0.100
421.500	-49.217	0.100
421.600	-57.827	0.100
421.700	-48.644	0.100
421.800	-48.043	0.100
421.900	-36.771	0.100
422.000	-38.181	0.100
422.100	-35.912	0.100
422.200	-37.512	0.100
422.300	-51.748	0.100
422.400	-54.247	0.100
422.500	-53.298	0.100
422.600	-39.782	0.100
422.700	-43.640	0.100
422.800	-39.253	0.100
422.900	-44.930	0.100
423.000	-36.016	0.100
423.100	-58.719	0.100
423.200	-31.456	0.100
423.300	-52.029	0.100
423.400	-44.342	0.100
423.500	-54.826	0.100
423.600	-35.310	0.100
423.700	-41.777	0.100
423.800	-42.185	0.100
423.900	-49.513	0.100
424.000	-54.438	0.100
424.100	-41.036	0.100
424.200	-43.386	0.100
424.300	-44.876	0.100
424.400	-54.216	0.100
424.500	-49.937	0.100
424.600	-62.047	0.100
424.700	-55.851	0.100
424.800	-38.377	0.100
424.900	-54.154	0.100
425.000	-48.279	0.100
425.100	-49.067	0.100
425.200	-39.024	0.100
425.300	-51.325	0.100
425.400	-40.255	0.100
425.500	-38.324	0.100
425.600	-56.389	0.100
425.700	-34.252	0.100
425.800	-44.479	0.100
425.900	-52.513	0.100
426.000	-35.548	0.100
426.100	-55.587	0.100
426.200	-41.837	0.100
426.300	-53.800	0.100
426.400	-42.092	0.100
426.500	-52.929	0.100
426.600	-45.903	0.100
426.700	-42.583	0.100
426.800	-53.969	0.100
426.900	-48.407	0.100
427.000	-42.133	0.100
427.100	-39.026	0.100
427.200	-40.893	0.100
427.300	-45.135	0.100
427.400	-53.586	0.100
427.500	-58.829	0.100
427.600	-36.540	0.100
427.700	-47.020	0.100
427.800	-40.015	0.100
427.900	-52.750	0.100
428.000	-48.015	0.100
428.100	-45.854	0.100
428.200	-43.808	0.100
428.300	-48.958	0.100
428.400	-54.793	0.100
428.500	-42.325	0.100
428.600	-43.440	0.100
428.700	-38.898	0.100
428.800	-41.383	0.100
428.900	-46.265	0.100
429.000	-46.966	0.100
429.100	-50.086	0.100
429.200	-48.846	0.100
429.300	-40.108	0.100
429.400	-52.086	0.100
429.500	-40.107	0.100
429.600	-34.000	0.100
429.700	-57.124	0.100
429.800	-58.666	0.100
429.900	-30.723	0.100
430.000	-37.541	0.100
430.100	-59.379	0.100
430.200	-50.249	0.100
430.300	-48.532	0.100
430.400	-45.508	0.100
430.500	-56.561	0.100
430.600	-26.549	0.100
430.700	-30.265	0.100
430.800	-38.045	0.100
430.900	-63.798	0.100
431.000	-56.244	0.100
431.100	-39.578	0.100
431.200	-29.362	0.100
431.300	-40.565	0.100
431.400	-37.933	0.100
431.500	-55.026	0.100
431.600	-36.291	0.100
431.700	-48.689	0.100
431.800	-40.679	0.100
431.900	-55.493	0.100
432.000	-40.798	0.100
432.100	-43.689	0.100
432.200	-54.521	0.100
432.300	-48.370	0.100
432.400	-33.421	0.100
432.500	-46.719	0.100
432.600	-50.300	0.100
432.700	-53.696	0.100
432.800	-51.812	0.100
432.900	-45.136	0.100
433.000	-36.925	0.100
433.100	-40.946	0.100
433.200	-47.447	0.100
433.300	-42.988	0.100
433.400	-34.303	0.100
433.500	-34.232	0.100
433.600	-36.891	0.100
433.700	-41.400	0.100
433.800	-47.768	0.100
433.900	-48.370	0.100
434.000	-39.289	0.100
434.100	-38.871	0.100
434.200	-53.612	0.100
434.300	-40.884	0.100
434.400	-36.374	0.100
434.500	-42.939	0.100
434.600	-35.427	0.100
434.700	-42.595	0.100
434.800	-41.042	0.100
434.900	-52.944	0.100
435.000	-52.996	0.100
435.100	-47.903	0.100
435.200	-29.999	0.100
435.300	-44.817	0.100
435.400	-39.992	0.100
435.500	-45.682	0.100
435.600	-63.593	0.100
435.700	-46.377	0.100
435.800	-39.435	0.100
435.900	-41.011	0.100
436.000	-37.934	0.100
436.100	-42.681	0.100
436.200	-51.879	0.100
436.300	-41.795	0.100
436.400	-44.727	0.100
436.500	-46.072	0.100
436.600	-35.971	0.100
436.700	-44.464	0.100
436.800	-47.387	0.100
436.900	-43.528	0.100
437.000	-57.277	0.100
437.100	-34.329	0.100
437.200	-33.481	0.100
437.300	-44.874	0.100
437.400	-30.535	0.100
437.500	-47.925	0.100
437.600	-42.249	0.100
437.700	-30.864	0.100
437.800	-29.643	0.100
437.900	-42.505	0.100
438.000	-52.432	0.100
438.100	-40.148	0.100
438.200	-46.539	0.100
438.300	-48.669	0.100
438.400	-44.669	0.100
438.500	-32.985	0.100
438.600	-44.276	0.100
438.700	-48.785	0.100
438.800	-35.601	0.100
438.900	-47.287	0.100
439.000	-50.252	0.100
439.100	-44.141	0.100
439.200	-41.258	0.100
439.300	-35.796	0.100
439.400	-23.208	0.100
439.500	-39.051	0.100
439.600	-43.430	0.100
439.700	-37.624	0.100
439.800	-54.557	0.100
439.900	-45.386	0.100
440.000	-40.210	0.100
440.100	-39.792	0.100
440.200	-34.244	0.100
440.300	-37.604	0.100
440.400	-42.435	0.100
440.500	-39.279	0.100
440.600	-33.790	0.100
440.700	-43.582	0.100
440.800	-48.337	0.100
440.900	-42.301	0.100
441.000	-45.714	0.100
441.100	-39.449	0.100
441.200	-46.691	0.100
441.300	-54.429	0.100
441.400	-37.811	0.100
441.500	-37.257	0.100
441.600	-34.444	0.100
441.700	-37.245	0.100
441.800	-39.261	0.100
441.900	-36.940	0.100
442.000	-36.363	0.100
442.100	-56.519	0.100
442.200	-37.741	0.100
442.300	-35.413	0.100
442.400	-40.988	0.100
442.500	-30.929	0.100
442.600	-39.461	0.100
442.700	-38.220	0.100
442.800	-51.001	0.100
442.900	-41.095	0.100
443.000	-34.601	0.100
443.100	-36.729	0.100
443.200	-38.978	0.100
443.300	-36.238	0.100
443.400	-36.901	0.100
443.500	-41.564	0.100
443.600	-43.361	0.100
443.700	-28.687	0.100
443.800	-41.784	0.100
443.900	-47.188	0.100
444.000	-32.353	0.100
444.100	-20.114	0.100
444.200	-37.835	0.100
444.300	-56.839	0.100
444.400	-42.599	0.100
444.500	-35.295	0.100
444.600	-27.329	0.100
444.700	-35.344	0.100
444.800	-42.029	0.100
444.900	-39.632	0.100
445.000	-53.435	0.100
445.100	-28.617	0.100
445.200	-38.492	0.100
445.300	-22.876	0.100
445.400	-46.336	0.100
445.500	-53.570	0.100
445.600	-42.879	0.100
445.700	-39.821	0.100
445.800	-41.842	0.100
445.900	-35.962	0.100
446.000	-42.955	0.100
446.100	-36.386	0.100
446.200	-40.609	0.100
446.300	-40.866	0.100
446.400	-23.097	0.100
446.500	-24.439	0.100
446.600	-45.932	0.100
446.700	-55.339	0.100
446.800	-36.043	0.100
446.900	-34.076	0.099
447.000	-30.999	0.099
447.100	-33.559	0.100
447.200	-37.026	0.100
447.300	-37.357	0.100
447.400	-35.708	0.100
447.500	-29.534	0.100
447.600	-29.896	0.100
447.700	-39.566	0.100
447.800	-31.862	0.100
447.900	-36.503	0.100
448.000	-51.519	0.100
448.100	-35.846	0.100
448.200	-37.229	0.100
448.300	-27.269	0.100
448.400	-41.029	0.100
448.500	-44.899	0.100
448.600	-46.558	0.100
448.700	-33.043	0.100
448.800	-38.403	0.100
448.900	-34.479	0.100
449.000	-33.589	0.100
449.100	-48.714	0.100
449.200	-30.711	0.100
449.300	-34.564	0.100
449.400	-43.258	0.100
449.500	-39.753	0.100
449.600	-27.880	0.100
449.700	-40.491	0.100
449.800	-31.480	0.100
449.900	-25.563	0.100
450.000	-32.649	0.100
450.100	-50.899	0.100
450.200	-48.323	0.100
450.300	-46.276	0.100
450.400	-35.588	0.100
450.500	-34.203	0.100
450.600	-29.556	0.100
450.700	-29.441	0.100
450.800	-29.342	0.100
450.900	-37.594	0.100
451.000	-36.781	0.100
451.100	-38.783	0.100
451.200	-38.472	0.100
451.300	-37.806	0.100
451.400	-37.575	0.100
451.500	-38.739	0.100
451.600	-33.325	0.100
451.700	-35.864	0.100
451.800	-38.061	0.100
451.900	-40.526	0.100
452.000	-27.606	0.100
452.100	-38.463	0.100
452.200	-35.318	0.100
452.300	-31.101	0.100
452.400	-31.387	0.100
452.500	-40.624	0.100
452.600	-43.631	0.100
452.700	-28.426	0.100
452.800	-35.675	0.100
452.900	-32.056	0.100
453.000	-37.182	0.100
453.100	-37.297	0.100
453.200	-41.310	0.100
453.300	-34.130	0.100
453.400	-36.613	0.100
453.500	-26.378	0.100
453.600	-37.129	0.100
453.700	-31.304	0.100
453.800	-42.136	0.100
453.900	-44.742	0.100
454.000	-23.853	0.100
454.100	-28.449	0.100
454.200	-48.514	0.100
454.300	-38.430	0.100
454.400	-35.105	0.100
454.500	-33.076	0.100
454.600	-38.968	0.100
454.700	-44.291	0.100
454.800	-30.387	0.100
454.900	-23.928	0.100
455.000	-40.148	0.100
455.100	-45.752	0.100
455.200	-38.911	0.100
455.300	-30.013	0.100
455.400	-28.837	0.100
455.500	-36.291	0.100
455.600	-44.573	0.100
455.700	-38.834	0.100
455.800	-23.820	0.100
455.900	-40.277	0.100
456.000	-27.323	0.100
456.100	-33.225	0.100
456.200	-48.101	0.100
456.300	-40.458	0.100
456.400	-32.359	0.100
456.500	-29.629	0.100
456.600	-45.975	0.100
456.700	-39.670	0.100
456.800	-37.223	0.100
456.900	-38.308	0.100
457.000	-35.080	0.100
457.100	-27.480	0.100
457.200	-33.945	0.100
457.300	-34.220	0.100
457.400	-33.462	0.100
457.500	-37.692	0.100
457.600	-30.017	0.100
457.700	-27.480	0.100
457.800	-43.914	0.100
457.900	-38.050	0.100
458.000	-34.944	0.100
458.100	-19.957	0.100
458.200	-22.891	0.100
458.300	-33.788	0.100
458.400	-40.745	0.100
458.500	-37.104	0.100
458.600	-36.370	0.100
458.700	-36.911	0.100
458.800	-36.611	0.100
458.900	-19.835	0.100
459.000	-28.078	0.100
459.100	-41.095	0.100
459.200	-35.396	0.100
459.300	-42.539	0.100
459.400	-25.955	0.100
459.500	-30.724	0.100
459.600	-46.495	0.100
459.700	-31.027	0.100
459.800	-29.905	0.099
459.900	-39.983	0.100
460.000	-35.293	0.100
460.100	-42.341	0.099
460.200	-34.961	0.100
460.300	-28.317	0.100
460.400	-35.267	0.100
460.500	-31.249	0.100
460.600	-22.835	0.100
460.700	-41.400	0.100
460.800	-36.066	0.100
460.900	-46.208	0.100
461.000	-33.033	0.100
461.100	-21.112	0.100
461.200	-39.358	0.100
461.300	-34.452	0.100
461.400	-39.234	0.100
461.500	-50.692	0.100
461.600	-31.252	0.100
461.700	-36.056	0.100
461.800	-40.337	0.100
461.900	-33.048	0.100
462.000	-32.568	0.100
462.100	-34.671	0.100
462.200	-24.820	0.100
462.300	-33.499	0.100
462.400	-32.925	0.100
462.500	-41.088	0.100
462.600	-31.616	0.100
462.700	-34.367	0.100
462.800	-28.904	0.100
462.900	-18.725	0.100
463.000	-32.324	0.100
463.100	-27.543	0.100
463.200	-32.858	0.100
463.300	-37.941	0.100
463.400	-24.891	0.100
463.500	-26.548	0.100
463.600	-26.784	0.100
463.700	-37.053	0.100
463.800	-41.645	0.100
463.900	-19.850	0.100
464.000	-40.634	0.100
464.100	-39.168	0.100
464.200	-33.615	0.100
464.300	-31.779	0.099
464.400	-36.520	0.100
464.500	-28.895	0.100
464.600	-33.347	0.100
464.700	-35.638	0.100
464.800	-33.552	0.100
464.900	-36.565	0.100
465.000	-30.126	0.100
465.100	-36.300	0.100
465.200	-19.920	0.100
465.300	-38.492	0.100
465.400	-28.012	0.100
465.500	-34.926	0.100
465.600	-33.493	0.100
465.700	-31.771	0.100
465.800	-33.795	0.100
465.900	-24.610	0.100
466.000	-25.521	0.100
466.100	-36.032	0.100
466.200	-38.707	0.100
466.300	-34.093	0.100
466.400	-22.460	0.099
466.500	-28.771	0.100
466.600	-34.064	0.100
466.700	-35.459	0.100
466.800	-24.941	0.100
466.900	-39.233	0.100
467.000	-19.191	0.100
467.100	-29.817	0.100
467.200	-34.267	0.100
467.300	-29.447	0.100
467.400	-26.886	0.100
467.500	-44.356	0.100
467.600	-32.853	0.100
467.700	-24.922	0.100
467.800	-31.046	0.100
467.900	-29.133	0.100
468.000	-46.630	0.099
468.100	-19.732	0.100
468.200	-28.287	0.100
468.300	-45.522	0.100
468.400	-35.881	0.100
468.500	-34.511	0.100
468.600	-28.988	0.100
468.700	-45.248	0.100
468.800	-32.576	0.100
468.900	-33.120	0.100
469.000	-33.509	0.100
469.100	-37.572	0.100
469.200	-32.277	0.100
469.300	-22.593	0.100
469.400	-26.749	0.100
469.500	-15.796	0.100
469.600	-37.021	0.100
469.700	-37.123	0.100
469.800	-37.001	0.100
469.900	-32.823	0.100
470.000	-37.887	0.100
470.100	-34.307	0.100
470.200	-32.040	0.100
470.300	-33.518	0.100
470.400	-30.527	0.100
470.500	-34.812	0.100
470.600	-41.201	0.100
470.700	-35.702	0.100
470.800	-32.161	0.100
470.900	-23.040	0.100
471.000	-27.508	0.100
471.100	-27.243	0.100
471.200	-38.692	0.100
471.300	-22.364	0.100
471.400	-35.976	0.100
471.500	-24.304	0.100
471.600	-24.532	0.100
471.700	-27.588	0.100
471.800	-19.856	0.100
471.900	-31.599	0.100
472.000	-27.104	0.100
472.100	-35.827	0.100
472.200	-29.699	0.100
472.300	-40.786	0.100
472.400	-31.688	0.100
472.500	-33.762	0.100
472.600	-25.123	0.100
472.700	-26.664	0.100
472.800	-22.391	0.100
472.900	-24.185	0.100
473.000	-27.799	0.100
473.100	-35.636	0.100
473.200	-26.489	0.100
473.300	-30.886	0.099
473.400	-30.338	0.100
473.500	-28.390	0.100
473.600	-30.218	0.100
473.700	-30.833	0.100
473.800	-39.759	0.100
473.900	-24.134	0.100
474.000	-25.163	0.100
474.100	-24.554	0.100
474.200	-24.203	0.100
474.300	-22.857	0.100
474.400	-37.520	0.100
474.500	-26.383	0.100
474.600	-14.585	0.100
474.700	-31.487	0.100
474.800	-28.472	0.100
474.900	-34.058	0.100
475.000	-28.598	0.100
475.100	-32.427	0.100
475.200	-16.838	0.100
475.300	-39.286	0.100
475.400	-22.036	0.099
475.500	-24.480	0.100
475.600	-37.352	0.100
475.700	-29.517	0.100
475.800	-34.607	0.099
475.900	-25.105	0.100
476.000	-25.584	0.099
476.100	-40.308	0.100
476.200	-40.630	0.100
476.300	-26.401	0.100
476.400	-31.058	0.100
476.500	-19.596	0.100
476.600	-32.931	0.100
476.700	-28.132	0.100
476.800	-28.928	0.100
476.900	-24.471	0.100
477.000	-38.053	0.100
477.100	-40.155	0.100
477.200	-21.116	0.100
477.300	-28.962	0.100
477.400	-30.798	0.100
477.500	-29.070	0.100
477.600	-26.126	0.100
477.700	-29.666	0.100
477.800	-24.693	0.100
477.900	-39.938	0.099
478.000	-40.410	0.100
478.100	-25.240	0.100
478.200	-35.223	0.100
478.300	-25.553	0.100
478.400	-32.862	0.100
478.500	-14.663	0.100
478.600	-30.925	0.099
478.700	-27.242	0.099
478.800	-19.305	0.100
478.900	-20.379	0.100
479.000	-33.549	0.100
479.100	-41.694	0.100
479.200	-37.941	0.100
479.300	-34.481	0.099
479.400	-18.336	0.100
479.500	-18.157	0.100
479.600	-33.684	0.100
479.700	-34.751	0.100
479.800	-21.949	0.100
479.900	-28.641	0.100
480.000	-23.983	0.100
480.100	-37.070	0.100
480.200	-33.156	0.100
480.300	-36.635	0.100
480.400	-16.365	0.100
480.500	-5.462	0.100
480.600	11.647	0.100
480.700	26.472	0.100
480.800	29.291	0.099
480.900	27.590	0.100
481.000	41.442	0.100
481.100	56.497	0.100
481.200	44.109	0.100
481.300	66.543	0.099
481.400	52.572	0.099
481.500	52.072	0.100
481.600	59.385	0.100
481.700	64.149	0.100
481.800	59.014	0.100
481.900	57.078	0.099
482.000	60.889	0.100
482.100	52.167	0.100
482.200	46.004	0.100
482.300	55.313	0.100
482.400	52.691	0.100
482.500	55.348	0.100
482.600	43.768	0.100
482.700	45.997	0.100
482.800	45.775	0.100
482.900	54.682	0.100
483.000	38.074	0.100
483.100	40.298	0.100
483.200	46.437	0.100
483.300	46.331	0.100
483.400	35.461	0.100
483.500	49.513	0.100
483.600	44.974	0.100
483.700	38.402	0.100
483.800	31.873	0.100
483.900	40.134	0.100
484.000	48.588	0.100
484.100	44.531	0.100
484.200	40.134	0.100
484.300	39.581	0.100
484.400	29.443	0.100
484.500	41.990	0.100
484.600	39.273	0.100
484.700	35.346	0.100
484.800	31.992	0.100
484.900	26.895	0.100
485.000	35.379	0.100
485.100	41.519	0.100
485.200	24.644	0.100
485.300	40.701	0.100
485.400	39.145	0.100
485.500	35.305	0.100
485.600	31.948	0.100
485.700	37.561	0.100
485.800	41.284	0.099
485.900	41.616	0.100
486.000	53.893	0.099
486.100	35.322	0.100
486.200	46.694	0.099
486.300	50.341	0.100
486.400	51.946	0.100
486.500	61.885	0.100
486.600	61.957	0.100
486.700	43.535	0.100
486.800	58.315	0.100
486.900	46.605	0.100
487.000	72.347	0.100
487.100	49.847	0.100
487.200	55.900	0.099
487.300	59.282	0.100
487.400	62.489	0.100
487.500	50.126	0.100
487.600	67.606	0.100
487.700	75.786	0.100
487.800	63.096	0.100
487.900	68.060	0.100
488.000	62.945	0.100
488.100	72.916	0.100
488.200	83.273	0.099
488.300	70.260	0.100
488.400	81.975	0.100
488.500	62.455	0.100
488.600	74.814	0.100
488.700	64.380	0.100
488.800	83.152	0.100
488.900	72.558	0.100
489.000	85.059	0.100
489.100	67.362	0.100
489.200	75.910	0.100
489.300	85.023	0.100
489.400	92.179	0.100
489.500	70.335	0.100
489.600	86.998	0.100
489.700	80.967	0.100
489.800	78.963	0.100
489.900	86.849	0.100
490.000	97.813	0.100
490.100	85.992	0.100
490.200	75.131	0.100
490.300	77.763	0.100
490.400	77.121	0.100
490.500	98.393	0.100
490.600	89.830	0.100
490.700	82.974	0.100
490.800	79.555	0.100
490.900	78.348	0.099
491.000	83.066	0.100
491.100	83.931	0.100
491.200	112.164	0.100
491.300	81.284	0.100
491.400	92.109	0.100
491.500	78.243	0.100
491.600	87.282	0.100
491.700	87.642	0.100
491.800	82.977	0.100
491.900	69.908	0.100
492.000	76.614	0.100
492.100	94.011	0.100
492.200	91.135	0.100
492.300	90.025	0.100
492.400	82.442	0.100
492.500	87.735	0.100
492.600	74.645	0.100
492.700	74.909	0.100
492.800	87.959	0.100
492.900	81.088	0.100
493.000	80.907	0.100
493.100	90.043	0.100
493.200	75.215	0.100
493.300	92.752	0.100
493.400	87.542	0.100
493.500	92.411	0.100
493.600	77.507	0.100
493.700	85.060	0.100
493.800	92.801	0.100
493.900	79.664	0.099
494.000	92.746	0.100
494.100	79.120	0.100
494.200	83.428	0.100
494.300	71.998	0.099
494.400	82.734	0.100
494.500	85.139	0.100
494.600	93.109	0.100
494.700	83.946	0.100
494.800	67.242	0.100
494.900	80.758	0.099
495.000	84.252	0.100
495.100	90.448	0.100
495.200	86.868	0.100
495.300	81.048	0.100
495.400	75.078	0.100
495.500	82.505	0.100
495.600	78.115	0.100
495.700	75.168	0.100
495.800	90.153	0.100
495.900	84.499	0.100
496.000	84.129	0.100
496.100	79.109	0.100
496.200	91.903	0.100
496.300	83.613	0.100
496.400	79.824	0.100
496.500	84.718	0.100
496.600	83.851	0.100
496.700	89.186	0.100
496.800	83.201	0.100
496.900	73.564	0.100
497.000	61.027	0.100
497.100	87.669	0.100
497.200	82.635	0.100
497.300	77.790	0.100
497.400	80.184	0.100
497.500	92.677	0.100
497.600	84.011	0.100
497.700	76.118	0.100
497.800	85.953	0.100
497.900	71.823	0.100
498.000	87.090	0.100
498.100	83.299	0.100
498.200	83.348	0.100
498.300	80.834	0.100
498.400	86.338	0.100
498.500	75.653	0.100
498.600	64.749	0.100
498.700	94.012	0.100
498.800	88.719	0.100
498.900	79.842	0.100
499.000	83.304	0.100
499.100	83.976	0.100
499.200	83.349	0.100
499.300	78.201	0.100
499.400	87.054	0.100
499.500	81.607	0.100
499.600	65.418	0.100
499.700	75.734	0.100
499.800	73.111	0.100
499.900	77.125	0.100
500.000	70.833	0.100
500.100	74.582	0.100
500.200	85.253	0.100
500.300	71.298	0.100
500.400	69.192	0.100
500.500	82.730	0.100
500.600	81.201	0.100
500.700	74.028	0.100
500.800	83.032	0.100
500.900	76.932	0.100
501.000	73.996	0.100
501.100	80.903	0.100
501.200	68.226	0.100
501.300	64.982	0.100
501.400	67.718	0.100
501.500	76.742	0.100
501.600	85.914	0.100
501.700	72.815	0.100
501.800	82.744	0.100
501.900	76.467	0.100
502.000	74.629	0.099
502.100	72.032	0.100
502.200	74.114	0.100
502.300	81.562	0.100
502.400	77.349	0.100
502.500	78.197	0.100
502.600	68.790	0.100
502.700	79.765	0.100
502.800	78.818	0.100
502.900	64.652	0.100
503.000	69.855	0.100
503.100	81.297	0.100
503.200	65.709	0.100
503.300	76.018	0.100
503.400	83.689	0.100
503.500	65.772	0.100
503.600	65.016	0.100
503.700	68.963	0.100
503.800	79.270	0.100
503.900	82.109	0.100
504.000	64.537	0.100
504.100	76.403	0.100
504.200	70.572	0.100
504.300	63.427	0.100
504.400	54.428	0.100
504.500	78.105	0.100
504.600	80.933	0.100
504.700	70.756	0.100
504.800	72.156	0.100
504.900	65.458	0.100
505.000	60.133	0.100
505.100	76.965	0.100
505.200	87.409	0.100
505.300	77.974	0.100
505.400	77.138	0.100
505.500	76.602	0.100
505.600	59.670	0.100
505.700	63.901	0.100
505.800	83.574	0.100
505.900	78.050	0.100
506.000	70.040	0.100
506.100	69.182	0.100
506.200	60.372	0.100
506.300	65.403	0.100
506.400	62.628	0.100
506.500	64.197	0.100
506.600	79.623	0.100
506.700	78.286	0.100
506.800	73.724	0.100
506.900	72.093	0.100
507.000	69.903	0.100
507.100	70.165	0.100
507.200	71.729	0.100
507.300	64.590	0.100
507.400	76.753	0.100
507.500	73.638	0.100
507.600	75.160	0.100
507.700	80.599	0.100
507.800	71.675	0.100
507.900	67.896	0.100
508.000	66.678	0.100
508.100	74.842	0.100
508.200	63.693	0.100
508.300	46.232	0.100
508.400	77.921	0.100
508.500	77.742	0.100
508.600	70.811	0.100
508.700	69.515	0.100
508.800	76.654	0.100
508.900	75.621	0.100
509.000	61.822	0.100
509.100	61.614	0.100
509.200	71.082	0.100
509.300	68.816	0.100
509.400	77.154	0.100
509.500	68.736	0.100
509.600	71.338	0.100
509.700	76.310	0.100
509.800	72.633	0.100
509.900	75.773	0.100
510.000	70.796	0.100
510.100	77.790	0.100
510.200	63.059	0.100
510.300	71.620	0.100
510.400	80.322	0.100
510.500	71.008	0.100
510.600	65.221	0.100
510.700	74.076	0.100
510.800	68.172	0.100
510.900	68.754	0.100
511.000	79.401	0.100
511.100	73.996	0.100
511.200	74.947	0.100
511.300	69.170	0.100
511.400	69.715	0.100
511.500	76.766	0.100
511.600	73.981	0.100
511.700	80.850	0.100
511.800	74.096	0.100
511.900	59.642	0.100
512.000	56.589	0.100
512.100	76.192	0.100
512.200	79.642	0.100
512.300	78.184	0.100
512.400	69.460	0.100
512.500	65.053	0.100
512.600	74.652	0.100
512.700	67.055	0.100
512.800	80.569	0.100
512.900	74.303	0.100
513.000	75.934	0.100
513.100	74.852	0.100
513.200	70.787	0.100
513.300	71.101	0.100
513.400	70.404	0.100
513.500	76.217	0.100
513.600	77.727	0.100
513.700	72.291	0.100
513.800	70.827	0.100
513.900	69.088	0.100
514.000	73.608	0.100
514.100	77.157	0.100
514.200	72.813	0.100
514.300	63.632	0.100
514.400	58.415	0.100
514.500	67.694	0.100
514.600	75.254	0.100
514.700	76.659	0.100
514.800	68.653	0.100
514.900	74.213	0.100
515.000	67.637	0.100
515.100	65.605	0.100
515.200	72.287	0.100
515.300	75.606	0.100
515.400	73.182	0.100
515.500	65.677	0.100
515.600	70.740	0.100
515.700	82.321	0.100
515.800	80.052	0.100
515.900	79.440	0.100
516.000	71.621	0.100
516.100	64.045	0.100
516.200	75.726	0.100
516.300	67.529	0.100
516.400	82.229	0.100
516.500	69.047	0.100
516.600	66.049	0.100
516.700	75.675	0.100
516.800	57.660	0.100
516.900	75.787	0.100
517.000	77.160	0.100
517.100	76.185	0.100
517.200	69.607	0.100
517.300	75.298	0.100
517.400	73.105	0.100
517.500	67.837	0.100
517.600	79.046	0.100
517.700	76.606	0.100
517.800	75.310	0.100
517.900	79.280	0.100
518.000	71.289	0.100
518.100	71.074	0.100
518.200	71.663	0.100
518.300	79.285	0.100
518.400	75.071	0.100
518.500	64.772	0.100
518.600	63.853	0.100
518.700	63.569	0.100
518.800	72.154	0.100
518.900	78.616	0.100
519.000	74.788	0.100
519.100	66.778	0.100
519.200	72.829	0.100
519.300	82.254	0.100
519.400	67.383	0.100
519.500	70.238	0.100
519.600	80.085	0.100
519.700	64.479	0.100
519.800	75.313	0.100
519.900	78.110	0.100
520.000	75.289	0.100
520.100	77.815	0.100
520.200	76.009	0.100
520.300	71.879	0.099
520.400	72.307	0.100
520.500	78.478	0.100
520.600	71.505	0.100
520.700	69.495	0.100
520.800	64.447	0.100
520.900	62.549	0.100
521.000	76.712	0.100
521.100	80.537	0.100
521.200	80.900	0.100
521.300	75.791	0.100
521.400	68.717	0.100
521.500	74.128	0.100
521.600	70.148	0.100
521.700	77.907	0.100
521.800	78.540	0.100
521.900	76.153	0.100
522.000	71.857	0.100
522.100	71.627	0.100
522.200	63.470	0.100
522.300	78.832	0.100
522.400	69.781	0.100
522.500	72.581	0.100
522.600	72.598	0.100
522.700	65.629	0.100
522.800	73.210	0.100
522.900	78.584	0.100
523.000	77.895	0.100
523.100	71.067	0.100
523.200	78.152	0.100
523.300	79.486	0.100
523.400	81.946	0.100
523.500	66.539	0.100
523.600	67.640	0.100
523.700	77.912	0.100
523.800	77.502	0.100
523.900	70.693	0.100
524.000	78.998	0.100
524.100	70.566	0.100
524.200	73.579	0.100
524.300	64.589	0.100
524.400	74.138	0.100
524.500	80.426	0.099
524.600	83.333	0.100
524.700	76.204	0.100
524.800	64.049	0.100
524.900	82.857	0.100
525.000	80.524	0.100
525.100	76.301	0.100
525.200	72.576	0.100
525.300	81.991	0.100
525.400	74.375	0.100
525.500	63.553	0.100
525.600	70.287	0.099
525.700	64.464	0.099
525.800	89.508	0.099
525.900	70.512	0.100
526.000	64.405	0.099
526.100	63.386	0.099
526.200	70.116	0.099
526.300	75.475	0.099
526.400	84.202	0.100
526.500	74.890	0.100
526.600	69.227	0.100
526.700	67.687	0.100
526.800	81.724	0.100
526.900	76.649	0.100
527.000	76.520	0.100
527.100	72.005	0.099
527.200	58.967	0.100
527.300	56.170	0.100
527.400	82.866	0.100
527.500	77.735	0.100
527.600	93.637	0.100
527.700	67.426	0.100
527.800	73.031	0.100
527.900	81.968	0.100
528.000	63.834	0.100
528.100	87.065	0.100
528.200	79.420	0.100
528.300	67.958	0.100
528.400	71.570	0.100
528.500	80.817	0.099
528.600	69.875	0.099
528.700	77.835	0.099
528.800	71.776	0.100
528.900	62.232	0.100
529.000	78.645	0.099
529.100	74.915	0.100
529.200	78.921	0.100
529.300	84.154	0.100
529.400	71.443	0.099
529.500	72.857	0.100
529.600	77.820	0.100
529.700	73.317	0.100
529.800	72.053	0.100
529.900	74.161	0.100
530.000	86.019	0.100
530.100	75.029	0.100
530.200	68.796	0.099
530.300	65.103	0.100
530.400	72.980	0.100
530.500	68.186	0.099
530.600	73.463	0.100
530.700	72.324	0.100
530.800	75.253	0.100
530.900	78.382	0.100
531.000	82.332	0.099
531.100	86.895	0.099
531.200	82.403	0.100
531.300	71.633	0.100
531.400	69.579	0.100
531.500	84.425	0.100
531.600	72.649	0.100
531.700	83.989	0.099
531.800	65.429	0.100
531.900	69.950	0.100
532.000	75.725	0.099
532.100	81.443	0.099
532.200	76.009	0.100
532.300	86.926	0.099
532.400	76.310	0.100
532.500	71.743	0.100
532.600	77.010	0.100
532.700	75.177	0.099
532.800	83.011	0.099
532.900	82.926	0.099
533.000	63.257	0.099
533.100	75.795	0.099
533.200	60.982	0.100
533.300	68.497	0.099
533.400	81.133	0.099
533.500	83.256	0.099
533.600	68.088	0.099
533.700	75.709	0.100
533.800	82.166	0.099
533.900	81.567	0.099
534.000	77.520	0.099
534.100	75.161	0.099
534.200	65.340	0.099
534.300	64.056	0.099
534.400	80.062	0.100
534.500	74.765	0.100
534.600	86.139	0.099
534.700	85.455	0.100
534.800	73.101	0.100
534.900	73.878	0.100
535.000	73.530	0.100
535.100	74.187	0.100
535.200	74.433	0.100
535.300	73.704	0.100
535.400	73.711	0.100
535.500	73.763	0.099
535.600	76.893	0.100
535.700	77.057	0.100
535.800	77.060	0.100
535.900	80.220	0.100
536.000	82.539	0.100
536.100	69.444	0.100
536.200	68.742	0.099
536.300	78.726	0.100
536.400	72.292	0.099
536.500	82.428	0.100
536.600	81.678	0.099
536.700	65.869	0.100
536.800	76.009	0.100
536.900	64.269	0.099
537.000	77.316	0.100
537.100	64.396	0.099
537.200	73.765	0.100
537.300	69.352	0.100
537.400	84.579	0.100
537.500	85.281	0.099
537.600	75.854	0.100
537.700	74.237	0.100
537.800	70.729	0.100
537.900	65.598	0.100
538.000	70.799	0.099
538.100	74.732	0.100
538.200	89.041	0.099
538.300	75.076	0.099
538.400	74.804	0.100
538.500	62.166	0.099
538.600	75.620	0.099
538.700	79.877	0.100
538.800	64.984	0.100
538.900	70.622	0.100
539.000	73.226	0.100
539.100	75.499	0.100
539.200	75.318	0.099
539.300	70.136	0.099
539.400	80.282	0.099
539.500	81.006	0.100
539.600	52.866	0.100
539.700	77.242	0.099
539.800	87.991	0.099
539.900	87.177	0.099
540.000	77.791	0.099
540.100	65.776	0.099
540.200	64.174	0.100
540.300	73.076	0.100
540.400	68.929	0.099
540.500	63.638	0.100
540.600	51.026	0.100
540.700	38.831	0.100
540.800	24.660	0.100
540.900	14.165	0.100
541.000	19.792	0.100
541.100	13.284	0.100
541.200	-2.260	0.100
541.300	-1.656	0.100
541.400	-18.978	0.100
541.500	-25.392	0.100
541.600	-33.208	0.100
541.700	-35.121	0.100
541.800	-37.428	0.100
541.900	-54.155	0.100
542.000	-50.124	0.100
542.100	-42.494	0.099
542.200	-52.243	0.099
542.300	-56.904	0.099
542.400	-46.244	0.099
542.500	-44.633	0.100
542.600	-61.986	0.100
542.700	-67.917	0.100
542.800	-53.634	0.100
542.900	-42.059	0.100
543.000	-61.336	0.100
543.100	-64.524	0.100
543.200	-66.018	0.100
543.300	-64.148	0.100
543.400	-74.628	0.100
543.500	-66.400	0.099
543.600	-53.028	0.100
543.700	-55.109	0.100
543.800	-67.717	0.100
543.900	-71.240	0.100
544.000	-56.306	0.100
544.100	-51.787	0.099
544.200	-68.971	0.099
544.300	-73.620	0.100
544.400	-68.905	0.100
544.500	-57.877	0.099
544.600	-56.114	0.100
544.700	-64.992	0.099
544.800	-62.490	0.100
544.900	-59.004	0.099
545.000	-52.787	0.099
545.100	-52.703	0.099
545.200	-65.647	0.100
545.300	-61.820	0.099
545.400	-55.554	0.099
545.500	-58.351	0.100
545.600	-54.638	0.100
545.700	-64.855	0.099
545.800	-56.126	0.100
545.900	-53.915	0.099
546.000	-55.059	0.100
546.100	-55.886	0.100
546.200	-64.977	0.100
546.300	-47.114	0.099
546.400	-54.467	0.099
546.500	-55.093	0.099
546.600	-53.239	0.100
546.700	-61.427	0.099
546.800	-41.729	0.100
546.900	-51.854	0.100
547.000	-47.678	0.099
547.100	-55.335	0.100
547.200	-50.011	0.099
547.300	-54.080	0.100
547.400	-54.199	0.100
547.500	-56.796	0.099
547.600	-38.230	0.099
547.700	-48.688	0.100
547.800	-73.574	0.100
547.900	-68.431	0.099
548.000	-55.077	0.100
548.100	-45.759	0.100
548.200	-44.121	0.100
548.300	-45.433	0.099
548.400	-43.993	0.099
548.500	-55.819	0.100
548.600	-50.914	0.099
548.700	-52.053	0.099
548.800	-45.871	0.099
548.900	-65.887	0.100
549.000	-50.851	0.100
549.100	-46.139	0.100
549.200	-44.890	0.100
549.300	-44.526	0.099
549.400	-46.247	0.100
549.500	-42.544	0.099
549.600	-40.870	0.099
549.700	-51.830	0.100
549.800	-53.295	0.099
549.900	-39.883	0.100
550.000	-45.924	0.100
550.100	-48.383	0.100
550.200	-51.829	0.099
550.300	-42.176	0.100
550.400	-49.930	0.099
550.500	-45.384	0.100
550.600	-51.067	0.100
550.700	-38.032	0.100
550.800	-43.899	0.100
550.900	-43.501	0.099
551.000	-55.201	0.100
551.100	-54.499	0.100
551.200	-41.526	0.100
551.300	-52.727	0.100
551.400	-52.996	0.100
551.500	-53.512	0.100
551.600	-55.495	0.100
551.700	-44.429	0.099
551.800	-37.469	0.099
551.900	-49.036	0.100
552.000	-54.371	0.099
552.100	-56.915	0.100
552.200	-52.081	0.099
552.300	-44.656	0.100
552.400	-49.340	0.099
552.500	-57.848	0.099
552.600	-43.647	0.100
552.700	-59.454	0.099
552.800	-49.420	0.100
552.900	-45.820	0.099
553.000	-52.985	0.099
553.100	-48.454	0.099
553.200	-53.952	0.100
553.300	-43.629	0.100
553.400	-45.381	0.100
553.500	-45.833	0.100
553.600	-47.612	0.100
553.700	-54.192	0.100
553.800	-43.376	0.100
553.900	-48.631	0.100
554.000	-45.671	0.099
554.100	-38.056	0.099
554.200	-45.711	0.100
554.300	-58.441	0.100
554.400	-47.075	0.100
554.500	-42.571	0.099
554.600	-61.768	0.099
554.700	-42.326	0.100
554.800	-45.660	0.100
554.900	-47.252	0.100
555.000	-48.582	0.100
555.100	-49.417	0.100
555.200	-43.141	0.100
555.300	-49.082	0.100
555.400	-40.473	0.100
555.500	-53.211	0.100
555.600	-63.183	0.100
555.700	-37.667	0.099
555.800	-44.343	0.100
555.900	-41.728	0.100
556.000	-55.633	0.099
556.100	-52.343	0.100
556.200	-54.542	0.100
556.300	-55.069	0.100
556.400	-39.543	0.099
556.500	-41.720	0.100
556.600	-63.342	0.100
556.700	-40.753	0.100
556.800	-47.872	0.100
556.900	-32.374	0.100
557.000	-44.210	0.100
557.100	-51.290	0.100
557.200	-52.890	0.100
557.300	-44.379	0.100
557.400	-43.198	0.100
557.500	-36.173	0.100
557.600	-51.850	0.100
557.700	-43.778	0.100
557.800	-52.031	0.100
557.900	-61.087	0.100
558.000	-51.002	0.100
558.100	-45.162	0.099
558.200	-37.456	0.100
558.300	-67.889	0.100
558.400	-53.243	0.100
558.500	-48.137	0.099
558.600	-46.051	0.100
558.700	-41.082	0.100
558.800	-40.606	0.100
558.900	-56.404	0.100
559.000	-45.084	0.100
559.100	-49.423	0.100
559.200	-51.640	0.099
559.300	-42.457	0.100
559.400	-46.630	0.100
559.500	-54.210	0.100
559.600	-59.498	0.100
559.700	-50.612	0.100
559.800	-49.322	0.100
559.900	-49.354	0.100
560.000	-47.649	0.100
560.100	-42.164	0.100
560.200	-50.669	0.100
560.300	-47.179	0.100
560.400	-43.737	0.100
560.500	-46.250	0.100
560.600	-55.952	0.100
560.700	-50.685	0.100
560.800	-51.513	0.100
560.900	-48.015	0.100
561.000	-54.477	0.100
561.100	-37.839	0.100
561.200	-43.521	0.100
561.300	-48.972	0.100
561.400	-42.739	0.100
561.500	-51.597	0.100
561.600	-38.888	0.100
561.700	-60.358	0.100
561.800	-41.565	0.100
561.900	-49.082	0.100
562.000	-62.180	0.100
562.100	-55.476	0.100
562.200	-35.638	0.100
562.300	-38.054	0.100
562.400	-39.935	0.099
562.500	-53.466	0.100
562.600	-52.768	0.100
562.700	-56.133	0.100
562.800	-47.331	0.100
562.900	-48.505	0.100
563.000	-35.884	0.100
563.100	-46.437	0.100
563.200	-57.497	0.100
563.300	-58.374	0.100
563.400	-37.499	0.100
563.500	-53.152	0.100
563.600	-51.439	0.100
563.700	-49.855	0.100
563.800	-46.358	0.100
563.900	-47.386	0.100
564.000	-52.416	0.100
564.100	-43.101	0.100
564.200	-60.921	0.100
564.300	-42.833	0.100
564.400	-42.562	0.100
564.500	-41.937	0.100
564.600	-47.076	0.100
564.700	-46.678	0.100
564.800	-45.642	0.100
564.900	-64.174	0.100
565.000	-60.682	0.100
565.100	-47.952	0.100
565.200	-52.814	0.100
565.300	-41.042	0.100
565.400	-40.710	0.100
565.500	-45.327	0.100
565.600	-46.935	0.100
565.700	-36.265	0.100
565.800	-37.356	0.100
565.900	-41.569	0.100
566.000	-63.074	0.100
566.100	-52.193	0.100
566.200	-41.879	0.100
566.300	-45.037	0.100
566.400	-33.287	0.100
566.500	-47.959	0.100
566.600	-42.594	0.100
566.700	-50.745	0.100
566.800	-41.835	0.100
566.900	-45.580	0.100
567.000	-47.780	0.100
567.100	-53.722	0.100
567.200	-41.219	0.100
567.300	-50.713	0.100
567.400	-57.471	0.100
567.500	-49.129	0.100
567.600	-43.141	0.100
567.700	-40.980	0.100
567.800	-56.166	0.100
567.900	-43.898	0.100
568.000	-65.884	0.100
568.100	-42.640	0.100
568.200	-45.157	0.100
568.300	-49.316	0.100
568.400	-54.939	0.100
568.500	-44.572	0.100
568.600	-37.096	0.100
568.700	-45.893	0.100
568.800	-48.016	0.100
568.900	-42.771	0.100
569.000	-43.722	0.100
569.100	-52.249	0.100
569.200	-40.874	0.100
569.300	-56.644	0.100
569.400	-44.610	0.100
569.500	-46.577	0.100
569.600	-51.636	0.100
569.700	-49.134	0.100
569.800	-60.557	0.100
569.900	-48.449	0.100
570.000	-55.097	0.100
570.100	-54.761	0.100
570.200	-59.683	0.100
570.300	-48.041	0.100
570.400	-50.604	0.100
570.500	-62.020	0.100
570.600	-45.239	0.100
570.700	-46.152	0.100
570.800	-43.680	0.100
570.900	-48.369	0.100
571.000	-44.622	0.100
571.100	-46.777	0.100
571.200	-34.128	0.100
571.300	-59.830	0.100
571.400	-60.835	0.100
571.500	-48.579	0.100
571.600	-38.265	0.100
571.700	-52.864	0.100
571.800	-42.802	0.100
571.900	-56.966	0.100
572.000	-59.897	0.100
572.100	-39.116	0.100
572.200	-41.088	0.100
572.300	-41.543	0.100
572.400	-34.476	0.100
572.500	-51.401	0.100
572.600	-59.936	0.100
572.700	-45.001	0.100
572.800	-36.855	0.100
572.900	-43.758	0.100
573.000	-45.720	0.100
573.100	-42.523	0.100
573.200	-54.104	0.100
573.300	-46.805	0.100
573.400	-47.350	0.100
573.500	-49.432	0.100
573.600	-52.326	0.100
573.700	-54.906	0.100
573.800	-50.328	0.100
573.900	-47.217	0.100
574.000	-44.862	0.100
574.100	-47.761	0.100
574.200	-39.281	0.100
574.300	-58.313	0.100
574.400	-47.830	0.100
574.500	-56.297	0.100
574.600	-42.240	0.100
574.700	-64.672	0.100
574.800	-28.022	0.100
574.900	-39.645	0.100
575.000	-51.993	0.100
575.100	-50.463	0.100
575.200	-58.505	0.100
575.300	-48.856	0.100
575.400	-36.733	0.100
575.500	-61.498	0.100
575.600	-55.385	0.100
575.700	-44.308	0.100
575.800	-26.086	0.100
575.900	-33.871	0.100
576.000	-48.703	0.100
576.100	-49.055	0.100
576.200	-48.355	0.100
576.300	-42.309	0.100
576.400	-41.524	0.100
576.500	-51.828	0.100
576.600	-57.142	0.100
576.700	-46.064	0.100
576.800	-49.710	0.100
576.900	-58.234	0.100
577.000	-54.304	0.100
577.100	-44.853	0.100
577.200	-35.441	0.100
577.300	-39.023	0.100
577.400	-35.150	0.100
577.500	-58.552	0.100
577.600	-50.111	0.100
577.700	-41.441	0.100
577.800	-44.274	0.100
577.900	-52.284	0.100
578.000	-47.178	0.100
578.100	-46.068	0.100
578.200	-41.221	0.100
578.300	-55.907	0.100
578.400	-43.546	0.100
578.500	-56.138	0.100
578.600	-51.700	0.100
578.700	-35.146	0.100
578.800	-43.608	0.100
578.900	-39.114	0.100
579.000	-64.586	0.100
579.100	-46.131	0.100
579.200	-45.916	0.100
579.300	-50.692	0.100
579.400	-40.404	0.100
579.500	-49.801	0.100
579.600	-58.233	0.100
579.700	-55.315	0.100
579.800	-43.465	0.100
579.900	-31.926	0.100
580.000	-44.334	0.100
580.100	-43.678	0.100
580.200	-45.920	0.100
580.300	-56.225	0.100
580.400	-44.250	0.100
580.500	-34.788	0.100
580.600	-39.936	0.100
580.700	-38.556	0.100
580.800	-44.377	0.100
580.900	-58.567	0.100
581.000	-49.448	0.100
581.100	-43.682	0.100
581.200	-33.680	0.100
581.300	-43.299	0.100
581.400	-46.833	0.100
581.500	-44.664	0.100
581.600	-42.021	0.100
581.700	-52.157	0.100
581.800	-39.757	0.100
581.900	-48.715	0.100
582.000	-56.794	0.100
582.100	-56.714	0.100
582.200	-40.404	0.100
582.300	-39.836	0.100
582.400	-41.243	0.100
582.500	-60.119	0.100
582.600	-49.425	0.100
582.700	-41.383	0.100
582.800	-39.324	0.100
582.900	-36.411	0.100
583.000	-44.953	0.100
583.100	-49.828	0.100
583.200	-42.543	0.100
583.300	-47.226	0.100
583.400	-56.806	0.100
583.500	-28.800	0.100
583.600	-47.155	0.100
583.700	-57.882	0.100
583.800	-53.188	0.100
583.900	-52.378	0.100
584.000	-40.169	0.100
584.100	-43.832	0.100
584.200	-34.262	0.100
584.300	-51.087	0.100
584.400	-45.855	0.100
584.500	-32.720	0.100
584.600	-53.736	0.100
584.700	-42.752	0.100
584.800	-44.550	0.100
584.900	-61.075	0.100
585.000	-44.652	0.100
585.100	-39.783	0.100
585.200	-42.128	0.100
585.300	-50.162	0.100
585.400	-47.902	0.100
585.500	-43.521	0.100
585.600	-42.680	0.100
585.700	-59.630	0.100
585.800	-43.735	0.100
585.900	-45.035	0.100
586.000	-39.013	0.100
586.100	-48.901	0.100
586.200	-55.020	0.100
586.300	-33.783	0.100
586.400	-27.834	0.100
586.500	-40.227	0.100
586.600	-60.144	0.100
586.700	-42.945	0.100
586.800	-34.733	0.100
586.900	-37.662	0.100
587.000	-46.583	0.100
587.100	-32.252	0.100
587.200	-45.977	0.100
587.300	-54.189	0.100
587.400	-53.853	0.100
587.500	-33.479	0.100
587.600	-26.924	0.100
587.700	-33.033	0.100
587.800	-54.392	0.100
587.900	-51.638	0.100
588.000	-40.129	0.100
588.100	-41.999	0.100
588.200	-32.535	0.100
588.300	-35.053	0.100
588.400	-50.638	0.100
588.500	-49.568	0.100
588.600	-52.402	0.100
588.700	-37.222	0.100
588.800	-30.186	0.100
588.900	-30.428	0.100
589.000	-44.906	0.100
589.100	-37.914	0.100
589.200	-42.246	0.100
589.300	-35.574	0.100
589.400	-38.366	0.100
589.500	-48.776	0.100
589.600	-34.316	0.100
589.700	-35.133	0.100
589.800	-46.225	0.100
589.900	-41.068	0.100
590.000	-40.814	0.100
590.100	-34.697	0.100
590.200	-42.120	0.100
590.300	-51.049	0.100
590.400	-46.896	0.100
590.500	-40.359	0.100
590.600	-34.082	0.100
590.700	-41.574	0.100
590.800	-42.251	0.100
590.900	-54.471	0.100
591.000	-33.897	0.100
591.100	-34.065	0.100
591.200	-39.707	0.100
591.300	-47.930	0.100
591.400	-50.640	0.100
591.500	-40.729	0.100
591.600	-37.140	0.100
591.700	-34.941	0.100
591.800	-31.071	0.100
591.900	-52.287	0.100
592.000	-43.430	0.100
592.100	-42.410	0.100
592.200	-36.249	0.100
592.300	-37.190	0.100
592.400	-46.308	0.100
592.500	-36.935	0.100
592.600	-39.882	0.100
592.700	-43.060	0.100
592.800	-48.311	0.100
592.900	-47.605	0.100
593.000	-31.107	0.100
593.100	-40.249	0.100
593.200	-37.184	0.100
593.300	-45.648	0.100
593.400	-42.639	0.100
593.500	-39.196	0.100
593.600	-35.921	0.100
593.700	-28.446	0.100
593.800	-45.081	0.100
593.900	-46.878	0.100
594.000	-39.109	0.100
594.100	-39.512	0.100
594.200	-49.604	0.100
594.300	-37.579	0.100
594.400	-43.584	0.100
594.500	-35.923	0.100
594.600	-43.192	0.100
594.700	-24.652	0.100
594.800	-43.205	0.100
594.900	-50.183	0.100
595.000	-43.745	0.100
595.100	-43.284	0.100
595.200	-39.388	0.100
595.300	-27.330	0.100
595.400	-40.519	0.100
595.500	-45.088	0.100
595.600	-39.409	0.100
595.700	-51.290	0.100
595.800	-29.886	0.100
595.900	-29.173	0.100
596.000	-46.361	0.100
596.100	-62.523	0.100
596.200	-28.057	0.100
596.300	-37.907	0.100
596.400	-48.157	0.100
596.500	-32.186	0.100
596.600	-43.395	0.100
596.700	-38.058	0.100
596.800	-35.933	0.100
596.900	-43.598	0.100
597.000	-36.492	0.100
597.100	-47.935	0.100
597.200	-35.702	0.100
597.300	-39.772	0.100
597.400	-38.824	0.100
597.500	-35.329	0.100
597.600	-32.003	0.100
597.700	-37.703	0.100
597.800	-48.486	0.100
597.900	-44.915	0.100
598.000	-29.160	0.100
598.100	-30.056	0.100
598.200	-34.227	0.100
598.300	-41.895	0.100
598.400	-56.880	0.100
598.500	-45.352	0.100
598.600	-37.692	0.100
598.700	-30.999	0.100
598.800	-37.101	0.100
598.900	-34.361	0.100
599.000	-40.056	0.100
599.100	-48.862	0.100
599.200	-46.088	0.100
599.300	-31.976	0.100
599.400	-33.744	0.100
599.500	-42.822	0.100
599.600	-35.734	0.100
599.700	-44.580	0.100
599.800	-55.194	0.100
599.900	-33.905	0.100
600.000	-36.952	0.100
600.100	-25.122	0.100
600.200	-36.548	0.100
600.300	-43.189	0.100
600.400	-46.686	0.100
600.500	-34.159	0.100
600.600	-29.370	0.100
600.700	-62.373	0.100
600.800	-48.046	0.100
600.900	-38.155	0.100
601.000	-29.560	0.100
601.100	-33.714	0.100
601.200	-36.815	0.100
601.300	-32.705	0.100
601.400	-30.065	0.100
601.500	-41.068	0.100
601.600	-45.445	0.100
601.700	-20.473	0.100
601.800	-41.381	0.100
601.900	-43.191	0.100
602.000	-42.791	0.100
602.100	-33.623	0.100
602.200	-26.475	0.100
602.300	-40.137	0.100
602.400	-39.007	0.100
602.500	-35.424	0.100
602.600	-39.748	0.100
602.700	-46.875	0.100
602.800	-49.508	0.100
602.900	-41.318	0.100
603.000	-34.951	0.100
603.100	-19.122	0.100
603.200	-36.057	0.100
603.300	-28.566	0.100
603.400	-29.487	0.100
603.500	-38.767	0.100
603.600	-41.192	0.100
603.700	-48.177	0.100
603.800	-25.691	0.100
603.900	-28.118	0.100
604.000	-31.568	0.100
604.100	-29.262	0.100
604.200	-45.437	0.100
604.300	-40.704	0.100
604.400	-28.550	0.100
604.500	-49.955	0.100
604.600	-45.644	0.100
604.700	-38.054	0.100
604.800	-26.471	0.100
604.900	-43.520	0.100
605.000	-22.059	0.100
605.100	-27.731	0.100
605.200	-36.941	0.100
605.300	-29.415	0.100
605.400	-33.358	0.100
605.500	-55.892	0.100
605.600	-34.108	0.100
605.700	-34.854	0.100
605.800	-37.387	0.100
605.900	-44.526	0.100
606.000	-33.628	0.100
606.100	-41.478	0.100
606.200	-33.261	0.100
606.300	-27.539	0.100
606.400	-20.535	0.100
606.500	-48.049	0.100
606.600	-37.920	0.100
606.700	-45.310	0.100
606.800	-30.305	0.100
606.900	-32.667	0.100
607.000	-29.231	0.100
607.100	-33.332	0.100
607.200	-39.216	0.100
607.300	-34.608	0.100
607.400	-38.323	0.100
607.500	-30.079	0.100
607.600	-23.604	0.100
607.700	-33.329	0.100
607.800	-48.290	0.100
607.900	-55.898	0.100
608.000	-40.831	0.100
608.100	-35.873	0.100
608.200	-26.133	0.100
608.300	-27.172	0.100
608.400	-36.847	0.100
608.500	-32.627	0.100
608.600	-32.102	0.100
608.700	-38.157	0.100
608.800	-26.136	0.100
608.900	-40.138	0.100
609.000	-35.117	0.100
609.100	-37.330	0.100
609.200	-35.319	0.100
609.300	-25.235	0.100
609.400	-29.313	0.100
609.500	-44.109	0.100
609.600	-44.007	0.100
609.700	-43.056	0.100
609.800	-32.497	0.100
609.900	-32.341	0.100
610.000	-35.028	0.100
610.100	-21.343	0.100
610.200	-42.171	0.100
610.300	-39.304	0.100
610.400	-37.597	0.100
610.500	-25.352	0.100
610.600	-25.590	0.100
610.700	-35.693	0.100
610.800	-30.340	0.100
610.900	-33.839	0.100
611.000	-34.106	0.100
611.100	-44.629	0.100
611.200	-45.043	0.100
611.300	-22.594	0.100
611.400	-37.624	0.100
611.500	-36.388	0.100
611.600	-45.732	0.100
611.700	-42.103	0.100
611.800	-35.428	0.100
611.900	-35.457	0.100
612.000	-33.311	0.100
612.100	-29.540	0.100
612.200	-38.131	0.100
612.300	-37.263	0.100
612.400	-29.307	0.100
612.500	-31.029	0.100
612.600	-24.527	0.100
612.700	-28.271	0.100
612.800	-33.706	0.100
612.900	-34.161	0.100
613.000	-28.690	0.100
613.100	-49.735	0.100
613.200	-34.313	0.100
613.300	-40.102	0.100
613.400	-28.969	0.100
613.500	-30.507	0.100
613.600	-31.898	0.100
613.700	-35.435	0.100
613.800	-35.618	0.100
613.900	-46.073	0.100
614.000	-42.858	0.100
614.100	-26.212	0.100
614.200	-31.420	0.100
614.300	-43.758	0.100
614.400	-45.133	0.100
614.500	-24.703	0.100
614.600	-33.506	0.100
614.700	-20.959	0.100
614.800	-27.970	0.100
614.900	-28.336	0.100
615.000	-25.952	0.100
615.100	-48.654	0.100
615.200	-36.355	0.100
615.300	-27.648	0.100
615.400	-32.842	0.100
615.500	-28.833	0.100
615.600	-34.511	0.100
615.700	-36.429	0.100
615.800	-27.802	0.100
615.900	-34.408	0.100
616.000	-21.926	0.100
616.100	-36.657	0.100
616.200	-37.883	0.100
616.300	-31.886	0.100
616.400	-21.056	0.100
616.500	-36.435	0.100
616.600	-48.055	0.100
616.700	-23.350	0.100
616.800	-44.377	0.100
616.900	-25.382	0.100
617.000	-33.540	0.100
617.100	-36.632	0.100
617.200	-34.454	0.100
617.300	-32.931	0.100
617.400	-40.402	0.100
617.500	-26.237	0.100
617.600	-29.501	0.100
617.700	-42.633	0.100
617.800	-36.478	0.100
617.900	-37.058	0.100
618.000	-26.709	0.100
618.100	-36.806	0.100
618.200	-27.757	0.100
618.300	-22.729	0.100
618.400	-33.970	0.100
618.500	-42.424	0.100
618.600	-27.296	0.100
618.700	-25.258	0.100
618.800	-40.731	0.100
618.900	-37.780	0.100
619.000	-26.949	0.100
619.100	-34.558	0.100
619.200	-42.338	0.100
619.300	-22.998	0.100
619.400	-23.948	0.100
619.500	-31.276	0.100
619.600	-37.286	0.100
619.700	-36.573	0.100
619.800	-33.016	0.100
619.900	-37.210	0.100
620.000	-33.111	0.100
620.100	-35.396	0.100
620.200	-31.111	0.100
620.300	-31.729	0.100
620.400	-31.429	0.100
620.500	-23.058	0.100
620.600	-35.283	0.100
620.700	-35.885	0.100
620.800	-40.346	0.100
620.900	-31.402	0.100
621.000	-30.943	0.100
621.100	-37.997	0.100
621.200	-31.833	0.100
621.300	-53.626	0.100
621.400	-36.451	0.100
621.500	-38.470	0.100
621.600	-17.714	0.100
621.700	-31.274	0.100
621.800	-23.767	0.100
621.900	-27.100	0.100
622.000	-26.503	0.100
622.100	-30.233	0.100
622.200	-32.086	0.100
622.300	-30.198	0.100
622.400	-25.865	0.100
622.500	-24.541	0.100
622.600	-39.818	0.100
622.700	-20.896	0.100
622.800	-37.966	0.100
622.900	-31.091	0.100
623.000	-26.758	0.100
623.100	-42.455	0.100
623.200	-30.006	0.100
623.300	-26.099	0.100
623.400	-24.182	0.100
623.500	-32.231	0.100
623.600	-20.873	0.100
623.700	-34.381	0.100
623.800	-38.290	0.100
623.900	-28.900	0.100
624.000	-33.229	0.100
624.100	-47.021	0.100
624.200	-24.864	0.100
624.300	-29.792	0.100
624.400	-43.226	0.100
624.500	-33.151	0.100
624.600	-33.903	0.100
624.700	-14.493	0.100
624.800	-42.136	0.100
624.900	-26.492	0.100
625.000	-36.091	0.100
625.100	-25.896	0.100
625.200	-26.199	0.100
625.300	-15.511	0.100
625.400	-33.492	0.100
625.500	-39.622	0.100
625.600	-17.630	0.100
625.700	-22.753	0.100
625.800	-30.901	0.100
625.900	-33.315	0.100
626.000	-31.783	0.100
626.100	-39.805	0.100
626.200	-40.412	0.100
626.300	-29.358	0.100
626.400	-26.723	0.100
626.500	-27.891	0.100
626.600	-28.407	0.100
626.700	-41.336	0.100
626.800	-37.724	0.100
626.900	-19.197	0.100
627.000	-25.936	0.100
627.100	-31.978	0.100
627.200	-32.951	0.100
627.300	-28.796	0.100
627.400	-31.738	0.100
627.500	-24.640	0.100
627.600	-20.898	0.100
627.700	-22.786	0.100
627.800	-33.140	0.100
627.900	-41.269	0.100
628.000	-36.800	0.100
628.100	-23.170	0.100
628.200	-23.413	0.100
628.300	-28.602	0.100
628.400	-36.228	0.100
628.500	-33.013	0.100
628.600	-27.226	0.100
628.700	-27.124	0.100
628.800	-38.578	0.100
628.900	-28.741	0.100
629.000	-29.999	0.100
629.100	-28.593	0.100
629.200	-33.784	0.100
629.300	-31.749	0.100
629.400	-32.864	0.100
629.500	-29.251	0.100
629.600	-28.390	0.100
629.700	-33.890	0.100
629.800	-21.184	0.100
629.900	-23.091	0.100
630.000	-32.895	0.100
630.100	-25.210	0.100
630.200	-35.897	0.100
630.300	-32.915	0.100
630.400	-34.778	0.100
630.500	-19.374	0.100
630.600	-8.212	0.100
630.700	17.395	0.100
630.800	27.111	0.100
630.900	37.304	0.100
631.000	41.206	0.100
631.100	41.124	0.100
631.200	39.999	0.100
631.300	59.990	0.100
631.400	58.485	0.100
631.500	58.128	0.100
631.600	65.444	0.100
631.700	54.807	0.100
631.800	69.064	0.100
631.900	57.475	0.100
632.000	51.521	0.100
632.100	45.249	0.100
632.200	61.036	0.100
632.300	62.368	0.100
632.400	42.357	0.100
632.500	50.780	0.100
632.600	34.814	0.100
632.700	51.802	0.100
632.800	54.925	0.100
632.900	58.690	0.100
633.000	43.939	0.100
633.100	43.915	0.100
633.200	42.204	0.100
633.300	47.025	0.100
633.400	44.433	0.100
633.500	43.513	0.100
633.600	40.874	0.100
633.700	28.526	0.100
633.800	39.904	0.100
633.900	42.004	0.100
634.000	43.637	0.100
634.100	38.830	0.100
634.200	33.757	0.100
634.300	41.170	0.100
634.400	46.566	0.100
634.500	41.481	0.100
634.600	40.207	0.100
634.700	24.935	0.100
634.800	36.152	0.100
634.900	40.793	0.100
635.000	28.228	0.100
635.100	45.086	0.100
635.200	49.362	0.100
635.300	36.945	0.100
635.400	40.951	0.100
635.500	41.867	0.100
635.600	31.063	0.100
635.700	30.992	0.100
635.800	43.020	0.100
635.900	45.485	0.100
636.000	29.088	0.100
636.100	24.792	0.100
636.200	36.760	0.100
636.300	52.895	0.100
636.400	49.172	0.100
636.500	51.248	0.100
636.600	51.475	0.100
636.700	43.439	0.100
636.800	50.536	0.100
636.900	55.318	0.100
637.000	49.959	0.100
637.100	50.679	0.100
637.200	48.065	0.100
637.300	62.371	0.100
637.400	66.356	0.100
637.500	53.182	0.100
637.600	77.446	0.100
637.700	64.916	0.100
637.800	59.388	0.100
637.900	60.307	0.099
638.000	65.611	0.100
638.100	75.449	0.099
638.200	66.847	0.099
638.300	76.190	0.099
638.400	71.215	0.099
638.500	77.862	0.099
638.600	68.842	0.099
638.700	80.268	0.099
638.800	86.554	0.099
638.900	78.148	0.099
639.000	78.643	0.099
639.100	78.593	0.099
639.200	76.914	0.099
639.300	83.229	0.099
639.400	79.689	0.099
639.500	78.714	0.099
639.600	68.862	0.099
639.700	76.134	0.099
639.800	91.760	0.099
639.900	81.394	0.099
640.000	80.460	0.099
640.100	75.205	0.099
640.200	69.744	0.099
640.300	84.102	0.099
640.400	97.980	0.099
640.500	85.429	0.099
640.600	83.126	0.099
640.700	81.257	0.099
640.800	75.429	0.099
640.900	77.657	0.099
641.000	89.785	0.099
641.100	92.927	0.099
641.200	80.997	0.099
641.300	76.705	0.099
641.400	67.719	0.099
641.500	75.969	0.099
641.600	98.266	0.099
641.700	83.365	0.099
641.800	84.824	0.099
641.900	75.972	0.099
642.000	81.181	0.099
642.100	86.001	0.099
642.200	90.435	0.099
642.300	84.679	0.099
642.400	81.634	0.099
642.500	83.673	0.099
642.600	90.118	0.099
642.700	81.639	0.099
642.800	84.350	0.099
642.900	79.719	0.099
643.000	70.300	0.099
643.100	84.342	0.099
643.200	85.463	0.099
643.300	90.275	0.099
643.400	94.858	0.099
643.500	74.533	0.099
643.600	86.403	0.099
643.700	77.803	0.099
643.800	85.818	0.099
643.900	85.470	0.099
644.000	77.221	0.099
644.100	92.865	0.099
644.200	82.265	0.099
644.300	80.434	0.099
644.400	81.335	0.099
644.500	77.546	0.099
644.600	81.209	0.099
644.700	86.883	0.099
644.800	74.287	0.099
644.900	82.144	0.099
645.000	81.251	0.099
645.100	83.910	0.099
645.200	77.930	0.099
645.300	85.609	0.099
645.400	83.225	0.099
645.500	72.486	0.099
645.600	85.448	0.099
645.700	79.879	0.099
645.800	79.552	0.099
645.900	77.042	0.099
646.000	79.442	0.099
646.100	66.397	0.099
646.200	75.458	0.099
646.300	72.996	0.099
646.400	81.640	0.099
646.500	81.934	0.099
646.600	78.847	0.099
646.700	82.537	0.099
646.800	79.488	0.099
646.900	79.658	0.099
647.000	92.807	0.099
647.100	78.299	0.099
647.200	81.062	0.099
647.300	84.458	0.099
647.400	77.068	0.099
647.500	90.624	0.099
647.600	86.756	0.099
647.700	85.941	0.099
647.800	67.998	0.099
647.900	81.409	0.099
648.000	81.164	0.099
648.100	74.455	0.099
648.200	83.299	0.099
648.300	96.851	0.099
648.400	87.249	0.099
648.500	76.529	0.099
648.600	77.352	0.099
648.700	85.156	0.099
648.800	87.372	0.099
648.900	66.124	0.099
649.000	78.650	0.099
649.100	75.580	0.099
649.200	71.420	0.099
649.300	70.339	0.099
649.400	78.782	0.099
649.500	82.549	0.099
649.600	86.556	0.099
649.700	68.370	0.099
649.800	78.143	0.099
649.900	75.224	0.099
650.000	81.229	0.099
650.100	72.549	0.099
650.200	69.816	0.099
650.300	81.746	0.099
650.400	74.601	0.099
650.500	83.116	0.099
650.600	84.830	0.099
650.700	71.223	0.099
650.800	71.531	0.099
650.900	80.712	0.099
651.000	66.800	0.099
651.100	75.867	0.099
651.200	72.621	0.099
651.300	69.707	0.099
651.400	75.698	0.099
651.500	67.073	0.099
651.600	78.324	0.099
651.700	72.102	0.099
651.800	72.643	0.099
651.900	73.452	0.099
652.000	70.806	0.099
652.100	74.515	0.099
652.200	66.452	0.099
652.300	75.742	0.099
652.400	77.918	0.099
652.500	76.711	0.099
652.600	58.397	0.099
652.700	88.606	0.099
652.800	78.256	0.099
652.900	80.695	0.099
653.000	72.082	0.099
653.100	72.920	0.099
653.200	69.749	0.099
653.300	63.520	0.099
653.400	83.673	0.099
653.500	69.932	0.099
653.600	68.862	0.099
653.700	74.669	0.099
653.800	70.549	0.099
653.900	74.860	0.099
654.000	79.503	0.099
654.100	78.218	0.099
654.200	72.780	0.099
654.300	73.231	0.099
654.400	70.952	0.099
654.500	64.803	0.099
654.600	73.512	0.099
654.700	73.821	0.099
654.800	69.685	0.099
654.900	76.305	0.099
655.000	66.121	0.099
655.100	78.312	0.099
655.200	72.113	0.099
655.300	69.533	0.099
655.400	71.151	0.099
655.500	64.823	0.099
655.600	71.928	0.099
655.700	77.149	0.099
655.800	76.395	0.099
655.900	72.721	0.099
656.000	76.369	0.099
656.100	80.182	0.099
656.200	68.038	0.099
656.300	68.017	0.099
656.400	78.467	0.099
656.500	70.780	0.099
656.600	68.946	0.099
656.700	77.771	0.099
656.800	69.644	0.099
656.900	71.922	0.099
657.000	76.231	0.099
657.100	56.645	0.099
657.200	62.132	0.099
657.300	70.717	0.099
657.400	68.082	0.099
657.500	70.681	0.099
657.600	79.811	0.100
657.700	79.803	0.099
657.800	66.819	0.100
657.900	70.498	0.099
658.000	68.599	0.100
658.100	73.592	0.100
658.200	71.394	0.100
658.300	64.949	0.100
658.400	65.784	0.100
658.500	70.082	0.100
658.600	67.539	0.100
658.700	77.960	0.100
658.800	70.061	0.100
658.900	80.690	0.100
659.000	81.623	0.100
659.100	66.325	0.100
659.200	74.889	0.100
659.300	73.756	0.100
659.400	66.918	0.100
659.500	80.072	0.100
659.600	65.236	0.100
659.700	82.183	0.100
659.800	65.828	0.100
659.900	83.470	0.100
660.000	70.309	0.100
660.100	70.730	0.100
660.200	63.559	0.100
660.300	62.625	0.100
660.400	68.573	0.099
660.500	77.693	0.100
660.600	72.261	0.100
660.700	73.742	0.100
660.800	59.893	0.099
660.900	66.960	0.100
661.000	87.194	0.100
661.100	78.620	0.100
661.200	74.107	0.100
661.300	77.093	0.100
661.400	56.702	0.100
661.500	72.113	0.100
661.600	76.074	0.100
661.700	71.634	0.100
661.800	84.080	0.100
661.900	60.802	0.100
662.000	73.003	0.100
662.100	64.885	0.100
662.200	83.343	0.100
662.300	83.091	0.100
662.400	80.418	0.100
662.500	65.604	0.100
662.600	56.139	0.100
662.700	75.707	0.100
662.800	79.317	0.100
662.900	87.235	0.100
663.000	76.846	0.100
663.100	58.654	0.100
663.200	65.544	0.100
663.300	95.846	0.100
663.400	78.307	0.100
663.500	77.139	0.100
663.600	78.059	0.100
663.700	61.043	0.100
663.800	69.003	0.100
663.900	72.577	0.100
664.000	86.969	0.100
664.100	68.242	0.100
664.200	71.148	0.100
664.300	57.625	0.100
664.400	82.999	0.100
664.500	58.673	0.100
664.600	78.718	0.100
664.700	72.763	0.099
664.800	61.486	0.100
664.900	70.049	0.100
665.000	66.148	0.100
665.100	72.645	0.100
665.200	79.421	0.100
665.300	72.069	0.100
665.400	70.201	0.100
665.500	72.043	0.099
665.600	73.536	0.100
665.700	63.918	0.100
665.800	64.665	0.100
665.900	80.906	0.100
666.000	81.141	0.100
666.100	70.308	0.100
666.200	71.129	0.100
666.300	64.792	0.100
666.400	75.572	0.100
666.500	61.987	0.100
666.600	79.918	0.100
666.700	63.491	0.100
666.800	70.122	0.100
666.900	69.132	0.100
667.000	71.624	0.100
667.100	75.549	0.100
667.200	58.060	0.100
667.300	73.420	0.100
667.400	77.416	0.100
667.500	81.331	0.100
667.600	77.604	0.100
667.700	65.577	0.100
667.800	73.047	0.100
667.900	68.511	0.100
668.000	71.920	0.100
668.100	73.222	0.100
668.200	84.162	0.100
668.300	70.298	0.100
668.400	67.152	0.100
668.500	73.431	0.100
668.600	72.223	0.100
668.700	77.531	0.100
668.800	74.607	0.100
668.900	71.642	0.100
669.000	67.066	0.100
669.100	71.365	0.100
669.200	77.827	0.100
669.300	76.803	0.100
669.400	75.277	0.100
669.500	71.467	0.100
669.600	71.755	0.100
669.700	72.762	0.100
669.800	72.139	0.100
669.900	62.641	0.100
670.000	67.886	0.100
670.100	76.037	0.100
670.200	80.165	0.100
670.300	69.326	0.100
670.400	61.745	0.100
670.500	80.100	0.100
670.600	88.852	0.100
670.700	81.638	0.100
670.800	71.795	0.100
670.900	74.182	0.100
671.000	70.323	0.100
671.100	66.150	0.100
671.200	74.129	0.100
671.300	69.327	0.100
671.400	67.374	0.100
671.500	73.260	0.100
671.600	87.626	0.100
671.700	59.970	0.100
671.800	76.672	0.100
671.900	71.177	0.100
672.000	78.376	0.100
672.100	69.177	0.100
672.200	81.019	0.100
672.300	90.184	0.100
672.400	69.601	0.100
672.500	71.129	0.100
672.600	64.167	0.100
672.700	78.026	0.100
672.800	74.975	0.100
672.900	86.722	0.100
673.000	79.774	0.100
673.100	70.875	0.099
673.200	66.183	0.100
673.300	72.736	0.100
673.400	78.899	0.100
673.500	75.755	0.100
673.600	69.670	0.100
673.700	73.209	0.100
673.800	81.659	0.100
673.900	79.921	0.100
674.000	80.891	0.100
674.100	78.206	0.100
674.200	61.301	0.100
674.300	67.138	0.100
674.400	73.788	0.100
674.500	74.646	0.100
674.600	82.043	0.100
674.700	55.047	0.100
674.800	82.350	0.100
674.900	70.771	0.100
675.000	70.467	0.100
675.100	71.567	0.100
675.200	78.770	0.100
675.300	76.729	0.100
675.400	71.661	0.100
675.500	73.833	0.100
675.600	66.486	0.100
675.700	76.849	0.100
675.800	68.523	0.100
675.900	84.296	0.100
676.000	62.189	0.100
676.100	78.479	0.100
676.200	86.276	0.100
676.300	70.550	0.099
676.400	92.991	0.100
676.500	76.704	0.100
676.600	73.914	0.100
676.700	80.549	0.100
676.800	67.738	0.100
676.900	76.166	0.100
677.000	73.519	0.100
677.100	74.808	0.100
677.200	72.857	0.100
677.300	71.702	0.100
677.400	74.892	0.100
677.500	70.086	0.100
677.600	72.724	0.100
677.700	74.667	0.100
677.800	77.125	0.100
677.900	68.795	0.100
678.000	76.626	0.100
678.100	77.768	0.100
678.200	81.981	0.100
678.300	65.517	0.100
678.400	65.774	0.100
678.500	77.406	0.100
678.600	87.088	0.100
678.700	69.608	0.100
678.800	84.873	0.100
678.900	69.813	0.100
679.000	75.246	0.100
679.100	71.300	0.100
679.200	81.191	0.100
679.300	76.315	0.100
679.400	74.049	0.100
679.500	74.278	0.100
679.600	66.083	0.100
679.700	70.227	0.100
679.800	86.238	0.100
679.900	83.864	0.100
680.000	82.317	0.100
680.100	78.800	0.100
680.200	71.847	0.100
680.300	81.799	0.100
680.400	63.360	0.100
680.500	72.407	0.100
680.600	87.397	0.100
680.700	72.280	0.100
680.800	71.526	0.100
680.900	81.744	0.100
681.000	77.640	0.100
681.100	79.707	0.100
681.200	84.865	0.100
681.300	77.116	0.100
681.400	65.008	0.100
681.500	71.548	0.100
681.600	70.428	0.100
681.700	67.436	0.100
681.800	76.107	0.100
681.900	69.158	0.100
682.000	72.364	0.100
682.100	86.132	0.100
682.200	75.723	0.100
682.300	81.400	0.100
682.400	70.328	0.100
682.500	66.741	0.100
682.600	75.708	0.100
682.700	74.034	0.100
682.800	77.984	0.100
682.900	71.571	0.100
683.000	73.436	0.100
683.100	72.962	0.099
683.200	73.867	0.100
683.300	79.486	0.100
683.400	79.494	0.100
683.500	75.909	0.100
683.600	68.223	0.100
683.700	72.470	0.100
683.800	71.308	0.100
683.900	76.113	0.100
684.000	77.613	0.100
684.100	74.451	0.100
684.200	71.061	0.100
684.300	61.682	0.100
684.400	66.898	0.100
684.500	80.162	0.100
684.600	82.411	0.100
684.700	80.784	0.100
684.800	73.683	0.100
684.900	80.351	0.100
685.000	71.815	0.100
685.100	68.353	0.100
685.200	78.610	0.100
685.300	80.868	0.100
685.400	83.820	0.100
685.500	80.510	0.100
685.600	82.989	0.100
685.700	78.340	0.100
685.800	69.686	0.100
685.900	67.934	0.100
686.000	78.193	0.100
686.100	64.779	0.100
686.200	69.400	0.100
686.300	73.507	0.100
686.400	80.337	0.100
686.500	82.226	0.100
686.600	79.232	0.100
686.700	74.319	0.100
686.800	73.021	0.100
686.900	81.016	0.100
687.000	78.604	0.100
687.100	80.447	0.100
687.200	70.520	0.100
687.300	73.337	0.100
687.400	72.157	0.100
687.500	75.098	0.100
687.600	67.335	0.100
687.700	84.311	0.100
687.800	69.983	0.100
687.900	75.056	0.100
688.000	61.710	0.100
688.100	76.586	0.100
688.200	81.297	0.100
688.300	70.055	0.099
688.400	71.783	0.100
688.500	69.260	0.100
688.600	78.554	0.100
688.700	75.939	0.100
688.800	72.976	0.100
688.900	70.993	0.100
689.000	68.864	0.100
689.100	71.099	0.100
689.200	76.786	0.100
689.300	73.646	0.100
689.400	79.099	0.100
689.500	70.057	0.100
689.600	74.697	0.100
689.700	72.770	0.100
689.800	74.962	0.100
689.900	74.406	0.100
690.000	65.074	0.100
690.100	78.772	0.100
690.200	75.980	0.100
690.300	85.866	0.100
690.400	68.080	0.100
690.500	52.064	0.099
690.600	64.308	0.100
690.700	56.717	0.100
690.800	29.113	0.100
690.900	28.554	0.100
691.000	34.502	0.100
691.100	20.185	0.100
691.200	3.376	0.100
691.300	4.812	0.100
691.400	-24.604	0.100
691.500	-15.862	0.100
691.600	-19.254	0.100
691.700	-38.594	0.100
691.800	-29.643	0.100
691.900	-29.380	0.100
692.000	-57.094	0.100
692.100	-46.670	0.100
692.200	-38.472	0.100
692.300	-45.206	0.100
692.400	-58.481	0.100
692.500	-47.062	0.100
692.600	-61.201	0.100
692.700	-61.655	0.100
692.800	-56.628	0.100
692.900	-60.082	0.100
693.000	-64.841	0.100
693.100	-61.899	0.100
693.200	-67.795	0.100
693.300	-66.103	0.100
693.400	-71.783	0.100
693.500	-48.045	0.100
693.600	-63.635	0.100
693.700	-65.256	0.100
693.800	-77.828	0.100
693.900	-62.754	0.100
694.000	-62.343	0.100
694.100	-57.780	0.100
694.200	-63.965	0.100
694.300	-55.468	0.100
694.400	-64.340	0.100
694.500	-53.960	0.100
694.600	-50.423	0.100
694.700	-52.659	0.100
694.800	-62.041	0.100
694.900	-66.273	0.100
695.000	-51.987	0.100
695.100	-58.075	0.100
695.200	-77.478	0.100
695.300	-55.588	0.100
695.400	-65.471	0.100
695.500	-66.897	0.100
695.600	-62.903	0.100
695.700	-67.151	0.100
695.800	-54.839	0.100
695.900	-50.724	0.100
696.000	-61.412	0.100
696.100	-69.885	0.100
696.200	-63.019	0.100
696.300	-53.512	0.100
696.400	-51.747	0.100
696.500	-49.751	0.100
696.600	-62.243	0.100
696.700	-61.227	0.100
696.800	-58.675	0.099
696.900	-58.822	0.099
697.000	-47.621	0.100
697.100	-49.243	0.100
697.200	-55.197	0.099
697.300	-50.627	0.100
697.400	-56.190	0.099
697.500	-55.849	0.100
697.600	-56.797	0.099
697.700	-56.348	0.100
697.800	-44.665	0.100
697.900	-45.468	0.100
698.000	-45.768	0.100
698.100	-54.346	0.100
698.200	-59.098	0.100
698.300	-52.581	0.100
698.400	-59.104	0.100
698.500	-57.598	0.099
698.600	-43.615	0.100
698.700	-53.615	0.100
698.800	-42.566	0.099
698.900	-45.274	0.100
699.000	-60.110	0.100
699.100	-46.869	0.100
699.200	-53.163	0.100
699.300	-41.694	0.099
699.400	-43.786	0.100
699.500	-51.168	0.100
699.600	-51.578	0.099
699.700	-54.431	0.100
699.800	-46.679	0.100
699.900	-43.835	0.100
700.000	-58.100	0.100
700.100	-39.768	0.100
700.200	-47.180	0.100
700.300	-51.162	0.100
700.400	-51.521	0.100
700.500	-54.661	0.099
700.600	-44.936	0.099
700.700	-43.645	0.099
700.800	-48.436	0.100
700.900	-53.652	0.100
701.000	-46.884	0.100
701.100	-49.226	0.100
701.200	-41.721	0.100
701.300	-54.316	0.100
701.400	-60.729	0.100
701.500	-44.235	0.100
701.600	-35.755	0.100
701.700	-48.690	0.100
701.800	-38.935	0.100
701.900	-57.563	0.099
702.000	-47.998	0.100
702.100	-40.978	0.099
702.200	-56.453	0.100
702.300	-50.100	0.100
702.400	-56.993	0.099
702.500	-51.000	0.100
702.600	-61.482	0.100
702.700	-51.149	0.100
702.800	-41.009	0.100
702.900	-46.409	0.099
703.000	-47.588	0.100
703.100	-40.788	0.100
703.200	-50.475	0.100
703.300	-53.762	0.099
703.400	-44.667	0.100
703.500	-41.946	0.100
703.600	-53.897	0.100
703.700	-51.664	0.100
703.800	-51.868	0.100
703.900	-57.196	0.100
704.000	-52.690	0.099
704.100	-43.438	0.100
704.200	-49.410	0.100
704.300	-57.001	0.100
704.400	-56.727	0.100
704.500	-45.738	0.100
704.600	-45.998	0.100
704.700	-51.955	0.100
704.800	-48.118	0.100
704.900	-48.799	0.100
705.000	-58.260	0.100
705.100	-63.459	0.100
705.200	-52.021	0.100
705.300	-52.394	0.100
705.400	-60.393	0.100
705.500	-42.174	0.100
705.600	-40.750	0.100
705.700	-53.954	0.100
705.800	-55.263	0.100
705.900	-46.128	0.100
706.000	-43.102	0.100
706.100	-52.432	0.100
706.200	-57.468	0.100
706.300	-44.355	0.100
706.400	-43.933	0.100
706.500	-43.217	0.100
706.600	-53.248	0.100
706.700	-48.536	0.099
706.800	-48.127	0.100
706.900	-43.037	0.100
707.000	-41.643	0.100
707.100	-58.117	0.100
707.200	-59.851	0.100
707.300	-50.533	0.100
707.400	-52.372	0.100
707.500	-55.600	0.100
707.600	-41.810	0.100
707.700	-48.404	0.100
707.800	-65.426	0.100
707.900	-54.757	0.100
708.000	-45.344	0.100
708.100	-28.898	0.100
708.200	-39.353	0.100
708.300	-55.437	0.100
708.400	-49.533	0.100
708.500	-53.383	0.100
708.600	-51.718	0.100
708.700	-44.901	0.100
708.800	-45.186	0.100
708.900	-46.451	0.100
709.000	-42.715	0.100
709.100	-46.356	0.100
709.200	-50.224	0.100
709.300	-43.757	0.100
709.400	-51.253	0.100
709.500	-57.028	0.100
709.600	-48.381	0.100
709.700	-60.232	0.100
709.800	-53.345	0.099
709.900	-48.661	0.100
710.000	-39.459	0.099
710.100	-47.174	0.100
710.200	-42.599	0.100
710.300	-54.747	0.100
710.400	-57.124	0.100
710.500	-53.425	0.100
710.600	-47.026	0.100
710.700	-52.332	0.100
710.800	-60.661	0.100
710.900	-49.273	0.100
711.000	-52.330	0.100
711.100	-39.057	0.100
711.200	-44.905	0.100
711.300	-50.981	0.099
711.400	-56.282	0.100
711.500	-54.071	0.100
711.600	-39.515	0.100
711.700	-53.889	0.100
711.800	-50.432	0.100
711.900	-48.135	0.100
712.000	-61.042	0.100
712.100	-53.789	0.100
712.200	-37.041	0.100
712.300	-47.223	0.100
712.400	-63.150	0.100
712.500	-45.759	0.100
712.600	-38.549	0.100
712.700	-55.170	0.100
712.800	-48.820	0.100
712.900	-48.194	0.100
713.000	-38.037	0.100
713.100	-52.918	0.100
713.200	-56.950	0.100
713.300	-42.094	0.099
713.400	-41.299	0.100
713.500	-44.591	0.100
713.600	-49.943	0.100
713.700	-59.084	0.100
713.800	-46.469	0.100
713.900	-46.436	0.100
714.000	-53.001	0.100
714.100	-55.134	0.100
714.200	-48.132	0.100
714.300	-51.365	0.100
714.400	-47.143	0.100
714.500	-48.273	0.099
714.600	-39.881	0.100
714.700	-44.711	0.100
714.800	-55.643	0.100
714.900	-56.103	0.100
715.000	-56.310	0.100
715.100	-40.140	0.100
715.200	-48.103	0.100
715.300	-44.893	0.100
715.400	-65.323	0.100
715.500	-59.726	0.100
715.600	-41.627	0.100
715.700	-47.195	0.100
715.800	-44.476	0.100
715.900	-49.220	0.100
716.000	-51.602	0.100
716.100	-53.458	0.100
716.200	-50.826	0.100
716.300	-43.055	0.100
716.400	-52.254	0.100
716.500	-37.898	0.100
716.600	-47.104	0.100
716.700	-51.721	0.100
716.800	-46.303	0.100
716.900	-45.222	0.100
717.000	-44.760	0.100
717.100	-53.698	0.100
717.200	-62.487	0.100
717.300	-45.729	0.100
717.400	-46.616	0.100
717.500	-42.769	0.100
717.600	-40.701	0.100
717.700	-50.107	0.100
717.800	-56.696	0.100
717.900	-58.647	0.100
718.000	-38.707	0.100
718.100	-35.286	0.100
718.200	-54.568	0.100
718.300	-41.136	0.100
718.400	-44.848	0.100
718.500	-44.123	0.100
718.600	-58.195	0.100
718.700	-40.216	0.100
718.800	-45.036	0.100
718.900	-39.615	0.100
719.000	-52.795	0.100
719.100	-50.526	0.100
719.200	-42.870	0.100
719.300	-52.055	0.100
719.400	-41.723	0.100
719.500	-44.112	0.100
719.600	-45.426	0.100
719.700	-54.112	0.100
719.800	-44.047	0.100
719.900	-56.773	0.100
720.000	-44.812	0.100
720.100	-44.112	0.100
720.200	-52.527	0.100
720.300	-65.411	0.100
720.400	-42.160	0.100
720.500	-45.740	0.100
720.600	-41.564	0.100
720.700	-48.965	0.100
720.800	-52.152	0.100
720.900	-47.333	0.100
721.000	-51.201	0.100
721.100	-50.992	0.100
721.200	-45.159	0.100
721.300	-43.009	0.100
721.400	-43.003	0.100
721.500	-51.315	0.100
721.600	-39.942	0.100
721.700	-43.636	0.100
721.800	-57.566	0.100
721.900	-52.578	0.100
722.000	-54.582	0.100
722.100	-52.816	0.100
722.200	-35.932	0.100
722.300	-54.530	0.100
722.400	-50.933	0.100
722.500	-40.077	0.100
722.600	-53.795	0.100
722.700	-44.903	0.100
722.800	-46.261	0.100
722.900	-43.131	0.100
723.000	-46.947	0.100
723.100	-48.952	0.100
723.200	-56.244	0.100
723.300	-53.550	0.100
723.400	-57.520	0.100
723.500	-46.220	0.100
723.600	-42.913	0.100
723.700	-49.264	0.100
723.800	-52.162	0.100
723.900	-35.754	0.100
724.000	-48.009	0.100
724.100	-59.209	0.100
724.200	-44.949	0.100
724.300	-47.785	0.100
724.400	-42.709	0.100
724.500	-50.001	0.100
724.600	-47.789	0.100
724.700	-48.831	0.100
724.800	-59.734	0.100
724.900	-56.063	0.100
725.000	-36.774	0.100
725.100	-41.247	0.100
725.200	-37.992	0.100
725.300	-49.804	0.100
725.400	-55.319	0.100
725.500	-51.927	0.100
725.600	-43.411	0.100
725.700	-34.727	0.100
725.800	-32.207	0.100
725.900	-45.423	0.100
726.000	-41.764	0.100
726.100	-40.294	0.100
726.200	-52.441	0.100
726.300	-53.979	0.100
726.400	-62.014	0.100
726.500	-52.802	0.100
726.600	-52.433	0.100
726.700	-52.314	0.100
726.800	-40.967	0.100
726.900	-42.734	0.100
727.000	-43.841	0.100
727.100	-44.014	0.100
727.200	-59.334	0.100
727.300	-41.940	0.100
727.400	-50.481	0.099
727.500	-40.634	0.100
727.600	-42.052	0.100
727.700	-40.253	0.100
727.800	-45.056	0.100
727.900	-49.984	0.100
728.000	-38.922	0.100
728.100	-51.764	0.100
728.200	-44.186	0.100
728.300	-44.471	0.100
728.400	-48.557	0.100
728.500	-59.004	0.100
728.600	-50.016	0.100
728.700	-40.058	0.100
728.800	-49.323	0.100
728.900	-60.614	0.100
729.000	-61.179	0.100
729.100	-56.513	0.100
729.200	-37.265	0.100
729.300	-45.522	0.100
729.400	-50.951	0.100
729.500	-43.697	0.100
729.600	-45.804	0.100
729.700	-41.593	0.100
729.800	-50.431	0.100
729.900	-49.947	0.100
730.000	-61.992	0.100
730.100	-45.580	0.100
730.200	-43.857	0.100
730.300	-49.584	0.100
730.400	-40.098	0.100
730.500	-41.558	0.100
730.600	-43.210	0.100
730.700	-42.761	0.100
730.800	-49.897	0.100
730.900	-49.070	0.100
731.000	-54.394	0.100
731.100	-25.099	0.100
731.200	-42.787	0.100
731.300	-64.226	0.100
731.400	-50.677	0.100
731.500	-53.610	0.100
731.600	-32.968	0.099
731.700	-39.703	0.100
731.800	-41.397	0.100
731.900	-43.870	0.100
732.000	-39.320	0.100
732.100	-48.731	0.100
732.200	-39.453	0.100
732.300	-48.979	0.100
732.400	-52.511	0.100
732.500	-52.031	0.100
732.600	-50.960	0.100
732.700	-47.003	0.100
732.800	-47.311	0.100
732.900	-38.479	0.100
733.000	-54.791	0.100
733.100	-52.479	0.100
733.200	-45.822	0.100
733.300	-29.116	0.100
733.400	-44.676	0.100
733.500	-46.391	0.100
733.600	-48.731	0.100
733.700	-49.710	0.100
733.800	-40.883	0.100
733.900	-43.085	0.100
734.000	-44.299	0.100
734.100	-38.146	0.100
734.200	-44.567	0.100
734.300	-56.830	0.100
734.400	-52.991	0.100
734.500	-51.170	0.100
734.600	-53.434	0.100
734.700	-51.571	0.100
734.800	-45.815	0.100
734.900	-51.589	0.100
735.000	-26.535	0.100
735.100	-40.888	0.100
735.200	-42.023	0.100
735.300	-50.725	0.100
735.400	-42.234	0.100
735.500	-43.871	0.100
735.600	-42.243	0.100
735.700	-48.647	0.100
735.800	-53.577	0.100
735.900	-53.706	0.100
736.000	-33.143	0.100
736.100	-47.214	0.100
736.200	-33.635	0.100
736.300	-42.734	0.100
736.400	-47.921	0.100
736.500	-28.851	0.100
736.600	-42.897	0.100
736.700	-44.284	0.100
736.800	-44.766	0.100
736.900	-53.285	0.100
737.000	-32.308	0.100
737.100	-59.982	0.100
737.200	-41.241	0.100
737.300	-44.759	0.100
737.400	-45.345	0.100
737.500	-47.482	0.100
737.600	-39.554	0.100
737.700	-46.516	0.100
737.800	-43.609	0.100
737.900	-37.281	0.100
738.000	-47.716	0.100
738.100	-36.754	0.100
738.200	-43.192	0.100
738.300	-47.019	0.100
738.400	-35.705	0.100
738.500	-37.352	0.100
738.600	-45.113	0.100
738.700	-46.282	0.100
738.800	-42.754	0.100
738.900	-52.119	0.100
739.000	-47.644	0.100
739.100	-55.715	0.100
739.200	-31.665	0.100
739.300	-32.831	0.100
739.400	-48.762	0.100
739.500	-43.474	0.100
739.600	-50.434	0.100
739.700	-35.074	0.100
739.800	-39.820	0.100
739.900	-45.585	0.100
740.000	-40.243	0.100
740.100	-55.215	0.100
740.200	-52.617	0.100
740.300	-33.807	0.100
740.400	-44.705	0.100
740.500	-42.997	0.100
740.600	-50.340	0.100
740.700	-43.820	0.100
740.800	-35.011	0.100
740.900	-31.999	0.100
741.000	-37.409	0.100
741.100	-44.761	0.100
741.200	-42.221	0.100
741.300	-37.809	0.100
741.400	-51.693	0.100
741.500	-40.876	0.100
741.600	-40.323	0.100
741.700	-45.613	0.100
741.800	-39.123	0.100
741.900	-44.909	0.100
742.000	-34.743	0.100
742.100	-35.827	0.100
742.200	-47.282	0.100
742.300	-39.335	0.100
742.400	-56.809	0.100
742.500	-44.139	0.100
742.600	-35.048	0.100
742.700	-24.122	0.100
742.800	-35.510	0.100
742.900	-44.955	0.100
743.000	-48.834	0.100
743.100	-43.984	0.100
743.200	-40.481	0.100
743.300	-27.943	0.100
743.400	-41.731	0.100
743.500	-39.613	0.100
743.600	-45.694	0.100
743.700	-49.051	0.100
743.800	-42.624	0.100
743.900	-40.893	0.100
744.000	-46.487	0.100
744.100	-26.302	0.100
744.200	-42.039	0.100
744.300	-48.232	0.100
744.400	-46.217	0.100
744.500	-32.448	0.100
744.600	-38.620	0.100
744.700	-42.579	0.100
744.800	-42.786	0.100
744.900	-47.975	0.100
745.000	-37.134	0.100
745.100	-51.940	0.100
745.200	-35.323	0.100
745.300	-43.325	0.100
745.400	-38.022	0.100
745.500	-50.427	0.100
745.600	-34.437	0.100
745.700	-36.089	0.100
745.800	-34.712	0.100
745.900	-45.098	0.100
746.000	-50.296	0.100
746.100	-38.577	0.100
746.200	-42.939	0.100
746.300	-36.642	0.100
746.400	-48.359	0.100
746.500	-43.264	0.100
746.600	-44.953	0.100
746.700	-32.839	0.100
746.800	-35.715	0.100
746.900	-33.975	0.100
747.000	-34.291	0.100
747.100	-42.290	0.100
747.200	-45.768	0.100
747.300	-43.765	0.100
747.400	-37.223	0.100
747.500	-33.157	0.100
747.600	-39.619	0.100
747.700	-52.763	0.100
747.800	-39.823	0.100
747.900	-38.240	0.100
748.000	-37.673	0.100
748.100	-25.683	0.100
748.200	-40.052	0.100
748.300	-41.143	0.100
748.400	-34.778	0.100
748.500	-42.693	0.100
748.600	-39.869	0.100
748.700	-36.574	0.100
748.800	-47.145	0.100
748.900	-51.663	0.100
749.000	-37.276	0.100
749.100	-39.389	0.100
749.200	-46.708	0.100
749.300	-34.439	0.100
749.400	-44.157	0.100
749.500	-41.524	0.100
749.600	-42.707	0.100
749.700	-34.997	0.100
749.800	-27.967	0.100
749.900	-58.262	0.100
750.000	-41.072	0.100
750.100	-46.743	0.100
750.200	-55.675	0.100
750.300	-26.256	0.100
750.400	-33.464	0.100
750.500	-33.703	0.100
750.600	-35.969	0.100
750.700	-42.944	0.100
750.800	-42.197	0.100
750.900	-30.435	0.100
751.000	-30.290	0.100
751.100	-37.720	0.100
751.200	-53.041	0.100
751.300	-49.499	0.100
751.400	-26.799	0.100
751.500	-24.462	0.100
751.600	-36.975	0.100
751.700	-35.600	0.100
751.800	-48.222	0.100
751.900	-39.262	0.100
752.000	-32.561	0.100
752.100	-31.457	0.100
752.200	-37.888	0.100
752.300	-36.961	0.100
752.400	-24.819	0.100
752.500	-43.859	0.100
752.600	-33.004	0.100
752.700	-31.788	0.100
752.800	-35.083	0.100
752.900	-35.771	0.100
753.000	-39.312	0.100
753.100	-28.492	0.100
753.200	-38.292	0.100
753.300	-43.103	0.100
753.400	-44.174	0.100
753.500	-42.706	0.100
753.600	-33.317	0.100
753.700	-30.288	0.100
753.800	-35.504	0.100
753.900	-31.648	0.100
754.000	-36.216	0.100
754.100	-36.067	0.100
754.200	-31.892	0.100
754.300	-41.959	0.100
754.400	-30.470	0.100
754.500	-42.499	0.100
754.600	-30.075	0.100
754.700	-38.913	0.100
754.800	-29.566	0.100
754.900	-32.536	0.100
755.000	-38.101	0.100
755.100	-42.316	0.100
755.200	-37.209	0.100
755.300	-38.521	0.100
755.400	-40.226	0.100
755.500	-41.581	0.100
755.600	-38.565	0.100
755.700	-22.186	0.100
755.800	-25.439	0.100
755.900	-41.007	0.100
756.000	-37.976	0.100
756.100	-28.232	0.100
756.200	-35.930	0.100
756.300	-26.996	0.100
756.400	-37.036	0.100
756.500	-30.008	0.100
756.600	-34.937	0.100
756.700	-26.269	0.100
756.800	-33.109	0.100
756.900	-44.191	0.100
757.000	-42.985	0.100
757.100	-44.649	0.100
757.200	-53.071	0.100
757.300	-30.955	0.100
757.400	-37.877	0.100
757.500	-40.740	0.100
757.600	-50.579	0.100
757.700	-32.397	0.100
757.800	-32.865	0.100
757.900	-41.965	0.100
758.000	-40.480	0.100
758.100	-23.948	0.100
758.200	-39.192	0.100
758.300	-37.705	0.100
758.400	-27.607	0.100
758.500	-34.105	0.100
758.600	-46.219	0.100
758.700	-28.328	0.100
758.800	-36.878	0.100
758.900	-30.372	0.100
759.000	-31.025	0.100
759.100	-33.458	0.100
759.200	-35.336	0.100
759.300	-41.889	0.100
759.400	-38.591	0.100
759.500	-36.018	0.100
759.600	-40.318	0.100
759.700	-31.742	0.100
759.800	-28.671	0.100
759.900	-30.953	0.100
760.000	-34.738	0.100
760.100	-29.685	0.100
760.200	-39.068	0.100
760.300	-34.071	0.100
760.400	-12.620	0.100
760.500	-36.918	0.100
760.600	-41.865	0.100
760.700	-40.052	0.100
760.800	-37.948	0.100
760.900	-28.829	0.100
761.000	-22.599	0.100
761.100	-52.317	0.100
761.200	-47.275	0.100
761.300	-29.690	0.100
761.400	-39.458	0.100
761.500	-25.762	0.100
761.600	-34.690	0.100
761.700	-34.664	0.100
761.800	-33.731	0.100
761.900	-37.195	0.100
762.000	-34.841	0.100
762.100	-27.001	0.100
762.200	-30.630	0.100
762.300	-43.666	0.100
762.400	-44.187	0.100
762.500	-34.933	0.100
762.600	-34.885	0.100
762.700	-26.503	0.100
762.800	-26.250	0.100
762.900	-31.613	0.100
763.000	-28.189	0.100
763.100	-30.602	0.100
763.200	-36.302	0.100
763.300	-32.243	0.100
763.400	-37.154	0.100
763.500	-34.086	0.100
763.600	-31.278	0.100
763.700	-32.109	0.100
763.800	-36.046	0.100
763.900	-44.529	0.100
764.000	-39.271	0.100
764.100	-34.751	0.100
764.200	-28.795	0.100
764.300	-36.175	0.100
764.400	-37.168	0.100
764.500	-33.969	0.100
764.600	-32.096	0.100
764.700	-26.855	0.100
764.800	-36.506	0.100
764.900	-34.760	0.100
765.000	-36.936	0.100
765.100	-39.279	0.100
765.200	-39.823	0.100
765.300	-43.035	0.100
765.400	-36.356	0.100
765.500	-43.574	0.100
765.600	-29.501	0.100
765.700	-33.988	0.100
765.800	-38.203	0.100
765.900	-29.647	0.100
766.000	-36.269	0.100
766.100	-34.853	0.100
766.200	-30.372	0.100
766.300	-32.970	0.100
766.400	-35.421	0.100
766.500	-33.625	0.100
766.600	-37.510	0.100
766.700	-39.835	0.100
766.800	-28.392	0.100
766.900	-36.051	0.100
767.000	-30.300	0.100
767.100	-44.583	0.100
767.200	-33.217	0.100
767.300	-28.616	0.100
767.400	-30.299	0.100
767.500	-45.197	0.100
767.600	-37.670	0.100
767.700	-40.116	0.100
767.800	-38.930	0.100
767.900	-28.362	0.100
768.000	-39.675	0.100
768.100	-44.663	0.100
768.200	-31.936	0.100
768.300	-35.191	0.100
768.400	-21.500	0.100
768.500	-24.048	0.100
768.600	-39.257	0.100
768.700	-22.067	0.100
768.800	-38.259	0.100
768.900	-36.570	0.100
769.000	-24.738	0.100
769.100	-32.065	0.100
769.200	-40.153	0.100
769.300	-35.480	0.100
769.400	-40.219	0.100
769.500	-26.922	0.100
769.600	-35.015	0.100
769.700	-32.680	0.100
769.800	-34.840	0.100
769.900	-27.679	0.100
770.000	-25.767	0.100
770.100	-28.170	0.100
770.200	-37.419	0.100
770.300	-40.092	0.100
770.400	-19.202	0.100
770.500	-33.083	0.100
770.600	-31.517	0.100
770.700	-24.536	0.100
770.800	-30.667	0.100
770.900	-24.582	0.100
771.000	-49.614	0.100
771.100	-37.824	0.100
771.200	-43.253	0.100
771.300	-33.406	0.100
771.400	-22.484	0.100
771.500	-31.300	0.100
771.600	-37.889	0.100
771.700	-27.681	0.100
771.800	-48.584	0.100
771.900	-26.941	0.100
772.000	-28.153	0.100
772.100	-31.663	0.100
772.200	-36.931	0.100
772.300	-34.553	0.100
772.400	-28.142	0.100
772.500	-39.277	0.100
772.600	-29.242	0.100
772.700	-29.192	0.100
772.800	-30.418	0.100
772.900	-29.296	0.100
773.000	-38.273	0.100
773.100	-26.942	0.100
773.200	-29.754	0.100
773.300	-28.210	0.100
773.400	-44.341	0.100
773.500	-18.917	0.100
773.600	-36.737	0.100
773.700	-29.318	0.100
773.800	-35.508	0.100
773.900	-25.827	0.100
774.000	-30.597	0.100
774.100	-32.880	0.100
774.200	-32.909	0.100
774.300	-21.245	0.100
774.400	-34.055	0.100
774.500	-31.501	0.100
774.600	-21.843	0.100
774.700	-29.899	0.100
774.800	-35.424	0.100
774.900	-21.106	0.100
775.000	-26.924	0.100
775.100	-30.026	0.100
775.200	-33.675	0.100
775.300	-30.621	0.100
775.400	-41.530	0.100
775.500	-31.006	0.100
775.600	-25.522	0.100
775.700	-35.288	0.100
775.800	-39.246	0.100
775.900	-33.659	0.100
776.000	-12.263	0.100
776.100	-26.044	0.100
776.200	-24.366	0.100
776.300	-27.294	0.100
776.400	-35.494	0.100
776.500	-35.285	0.100
776.600	-43.400	0.100
776.700	-26.740	0.100
776.800	-23.456	0.100
776.900	-32.945	0.100
777.000	-39.146	0.100
777.100	-39.409	0.100
777.200	-26.172	0.100
777.300	-38.202	0.100
777.400	-36.868	0.100
777.500	-23.646	0.100
777.600	-31.105	0.100
777.700	-40.926	0.100
777.800	-22.466	0.100
777.900	-42.143	0.100
778.000	-27.396	0.100
778.100	-34.444	0.100
778.200	-34.145	0.100
778.300	-38.322	0.100
778.400	-28.037	0.100
778.500	-14.927	0.100
778.600	-21.822	0.100
778.700	-32.190	0.100
778.800	-32.544	0.100
778.900	-36.806	0.100
779.000	-33.147	0.100
779.100	-28.695	0.100
779.200	-35.451	0.100
779.300	-38.778	0.100
779.400	-36.845	0.100
779.500	-27.918	0.100
779.600	-21.204	0.100
779.700	-35.780	0.100
779.800	-27.702	0.100
779.900	-36.950	0.100
780.000	-35.649	0.100
780.100	-21.290	0.100
780.200	-26.760	0.100
780.300	-40.280	0.100
780.400	-26.730	0.100
780.500	-34.202	0.100
780.600	-13.620	0.100
780.700	-5.297	0.100
780.800	25.450	0.100
780.900	37.979	0.100
781.000	46.292	0.100
781.100	35.135	0.100
781.200	56.245	0.100
781.300	51.229	0.100
781.400	57.587	0.100
781.500	65.246	0.100
781.600	67.618	0.100
781.700	47.877	0.100
781.800	50.012	0.100
781.900	57.384	0.100
782.000	59.817	0.100
782.100	45.859	0.100
782.200	52.721	0.100
782.300	43.543	0.100
782.400	49.980	0.100
782.500	66.789	0.100
782.600	54.361	0.100
782.700	51.330	0.100
782.800	50.068	0.100
782.900	41.355	0.100
783.000	41.236	0.100
783.100	47.667	0.100
783.200	45.311	0.100
783.300	43.093	0.100
783.400	43.158	0.100
783.500	25.480	0.100
783.600	38.778	0.100
783.700	47.324	0.100
783.800	32.172	0.100
783.900	44.765	0.100
784.000	35.336	0.100
784.100	41.072	0.100
784.200	40.475	0.100
784.300	45.174	0.100
784.400	45.990	0.100
784.500	32.461	0.100
784.600	42.579	0.100
784.700	24.696	0.100
784.800	35.215	0.100
784.900	35.947	0.100
785.000	25.388	0.100
785.100	32.728	0.100
785.200	31.248	0.100
785.300	30.103	0.100
785.400	43.060	0.100
785.500	44.441	0.100
785.600	35.179	0.100
785.700	33.901	0.100
785.800	41.417	0.100
785.900	46.869	0.100
786.000	33.694	0.100
786.100	41.950	0.100
786.200	47.143	0.100
786.300	39.993	0.100
786.400	40.472	0.100
786.500	45.217	0.100
786.600	55.593	0.100
786.700	49.679	0.100
786.800	48.387	0.100
786.900	48.598	0.100
787.000	47.751	0.100
787.100	55.212	0.100
787.200	57.319	0.100
787.300	63.297	0.100
787.400	58.633	0.100
787.500	43.044	0.100
787.600	59.894	0.100
787.700	67.582	0.100
787.800	73.431	0.100
787.900	71.901	0.100
788.000	73.583	0.100
788.100	69.513	0.100
788.200	73.086	0.100
788.300	64.455	0.100
788.400	73.928	0.100
788.500	73.608	0.100
788.600	67.015	0.100
788.700	66.862	0.100
788.800	71.120	0.100
788.900	77.592	0.100
789.000	75.447	0.100
789.100	80.154	0.100
789.200	76.729	0.100
789.300	58.653	0.100
789.400	83.582	0.100
789.500	75.345	0.100
789.600	84.176	0.100
789.700	81.818	0.100
789.800	66.518	0.100
789.900	84.857	0.100
790.000	80.557	0.100
790.100	83.598	0.100
790.200	90.383	0.100
790.300	78.231	0.100
790.400	87.619	0.100
790.500	69.984	0.100
790.600	73.275	0.100
790.700	95.838	0.100
790.800	96.610	0.100
790.900	88.134	0.100
791.000	84.719	0.100
791.100	74.901	0.100
791.200	83.338	0.100
791.300	82.702	0.100
791.400	95.362	0.100
791.500	88.759	0.100
791.600	74.621	0.100
791.700	84.560	0.100
791.800	86.366	0.100
791.900	99.098	0.100
792.000	82.794	0.100
792.100	78.916	0.100
792.200	79.052	0.100
792.300	84.995	0.100
792.400	90.953	0.100
792.500	89.528	0.100
792.600	84.934	0.100
792.700	89.171	0.100
792.800	80.087	0.100
792.900	90.854	0.100
793.000	90.579	0.100
793.100	87.180	0.100
793.200	93.489	0.100
793.300	91.420	0.100
793.400	71.956	0.100
793.500	80.666	0.100
793.600	82.604	0.100
793.700	88.062	0.100
793.800	85.037	0.100
793.900	94.431	0.100
794.000	85.869	0.100
794.100	84.658	0.100
794.200	83.075	0.100
794.300	89.643	0.100
794.400	84.148	0.100
794.500	74.447	0.100
794.600	72.539	0.100
794.700	84.515	0.100
794.800	77.423	0.100
794.900	85.334	0.100
795.000	75.622	0.100
795.100	82.926	0.100
795.200	83.867	0.100
795.300	96.639	0.100
795.400	75.376	0.100
795.500	86.041	0.100
795.600	74.936	0.100
795.700	91.776	0.100
795.800	81.162	0.100
795.900	95.530	0.100
796.000	84.481	0.100
796.100	78.003	0.100
796.200	68.427	0.100
796.300	70.539	0.100
796.400	83.736	0.100
796.500	78.240	0.100
796.600	86.739	0.100
796.700	73.309	0.100
796.800	82.071	0.100
796.900	83.237	0.100
797.000	82.285	0.100
797.100	78.849	0.100
797.200	84.989	0.100
797.300	82.017	0.100
797.400	75.274	0.100
797.500	86.155	0.100
797.600	82.090	0.100
797.700	75.164	0.100
797.800	87.364	0.100
797.900	82.653	0.100
798.000	77.745	0.100
798.100	77.781	0.100
798.200	83.083	0.100
798.300	74.973	0.100
798.400	77.576	0.100
798.500	83.332	0.100
798.600	75.501	0.100
798.700	70.549	0.100
798.800	82.538	0.100
798.900	80.566	0.100
799.000	77.816	0.100
799.100	78.075	0.100
799.200	71.225	0.100
799.300	82.504	0.100
799.400	85.309	0.100
799.500	83.738	0.100
799.600	76.259	0.100
799.700	80.234	0.100
799.800	85.086	0.100
799.900	71.031	0.100
800.000	67.281	0.100
